! Anritsu VNA Master:             	Model: MS2036C/10/77
! SN:             	1601066
! /bd0/18may09/254.ns.m2.txt
! Existing Calibration Information:
! TYPE:             	Current Settings	Active Cal Settings
! TIME:             	05/09/2018 12:42:32 PM	05/09/2018 12:35:56 PM
! INTERNAL TEMP:    	57.8 C	56.8 C
! # POINTS:         	494	494
! START FREQ:       	20.000 MHz	20.000 MHz
! STOP FREQ:        	118.797 594 MHz	118.797 594 MHz
! SOURCE POWER:     	High	High
! IFBW:             	50 Hz	50 Hz
! AVG FACTOR:       	  1 	  1 
! REF PLANE 1:      	0 mm	0 mm
! REF PLANE 2:      	0 mm	0 mm
! CAL TYPE:         	Full S22	Full S22
! CAL METHOD:       	SOLT	SOLT
! CAL LINE TYPE:    	Coax	Coax
! DUT PORT 1:       	K-Conn(M)	K-Conn(M)
! DUT PORT 2:       	K-Conn(M)	K-Conn(M)
! CAL STATUS:       	OK: Accuracy High	--
! PROP-V:       	0.700
! CABLE LOSS:       	0.000 dB/m
! REF IMPEDANCE:       	50.0
! Trace Specific Parameters:	TR1	TR2	TR3	TR4
! TRACE.#.Y (GRAPH TYPE)	LOG MAG	PHASE	REAL IMPEDANCE	IMAGINARY IMPEDANCE
! TRACE.#.X 	FREQ.GHZ	FREQ.GHZ	FREQ.GHZ	FREQ.GHZ
! S-PARAMETER	S22	S22	S22	S22
! SMOOTH/APERTURE %	0	0	0	0
! WINDOW	NSL	NSL	NSL	NSL
! GATING	OFF	OFF	OFF	OFF
! FGTD	OFF	OFF	OFF	OFF
Marker Information per Trace:	TR1	TR2	TR3	TR4
!MK1	--	"MK1 TR2:  20.000 MHz,PH:-126.57°"	--	--
!MK2	--	--	"MK2 TR3:  70.100 200 MHz,Z:(16.541 ohm, -1.708 ohm)"	--
!MK3	--	--	--	--
!MK4	--	--	--	--
!MK5	--	--	--	--
!MK6	--	--	--	--
!MK7	--	--	--	--
!MK8	--	--	--	--
PNT	TR1.FREQ.GHZ	TR1.LOG MAG.dB	TR2.FREQ.GHZ	TR2.PHASE.deg	TR3.FREQ.GHZ	TR3.REAL IMPEDANCE.ohm	TR4.FREQ.GHZ	TR4.IMAGINARY IMPEDANCE.ohm
1	  0.020000000	-6.310000E-01	  0.020000000	-1.265660E+02	  0.020000000	2.276000E+00	  0.020000000	-2.512300E+01
2	  0.020200402	-6.360000E-01	  0.020200402	-1.280220E+02	  0.020200402	2.264000E+00	  0.020200402	-2.433400E+01
3	  0.020400802	-6.390000E-01	  0.020400802	-1.294990E+02	  0.020400802	2.248000E+00	  0.020400802	-2.354200E+01
4	  0.020601204	-6.440000E-01	  0.020601204	-1.310090E+02	  0.020601204	2.238000E+00	  0.020601204	-2.274300E+01
5	  0.020801604	-6.460000E-01	  0.020801604	-1.325130E+02	  0.020801604	2.220000E+00	  0.020801604	-2.195700E+01
6	  0.021002004	-6.480000E-01	  0.021002004	-1.340660E+02	  0.021002004	2.201000E+00	  0.021002004	-2.115400E+01
7	  0.021202406	-6.510000E-01	  0.021202406	-1.356020E+02	  0.021202406	2.184000E+00	  0.021202406	-2.036900E+01
8	  0.021402806	-6.540000E-01	  0.021402806	-1.371470E+02	  0.021402806	2.171000E+00	  0.021402806	-1.958900E+01
9	  0.021603208	-6.560000E-01	  0.021603208	-1.386830E+02	  0.021603208	2.156000E+00	  0.021603208	-1.882000E+01
10	  0.021803608	-6.610000E-01	  0.021803608	-1.402370E+02	  0.021803608	2.151000E+00	  0.021803608	-1.805100E+01
11	  0.022004008	-6.680000E-01	  0.022004008	-1.417860E+02	  0.022004008	2.153000E+00	  0.022004008	-1.729100E+01
12	  0.022204408	-6.730000E-01	  0.022204408	-1.433750E+02	  0.022204408	2.148000E+00	  0.022204408	-1.652000E+01
13	  0.022404809	-6.770000E-01	  0.022404809	-1.449850E+02	  0.022404809	2.143000E+00	  0.022404809	-1.574500E+01
14	  0.022605211	-6.790000E-01	  0.022605211	-1.466130E+02	  0.022605211	2.130000E+00	  0.022605211	-1.496900E+01
15	  0.022805611	-6.860000E-01	  0.022805611	-1.482390E+02	  0.022805611	2.132000E+00	  0.022805611	-1.420000E+01
16	  0.023006011	-6.920000E-01	  0.023006011	-1.498410E+02	  0.023006011	2.136000E+00	  0.023006011	-1.344800E+01
17	  0.023206413	-6.980000E-01	  0.023206413	-1.514510E+02	  0.023206413	2.140000E+00	  0.023206413	-1.269800E+01
18	  0.023406813	-7.030000E-01	  0.023406813	-1.530710E+02	  0.023406813	2.140000E+00	  0.023406813	-1.195000E+01
19	  0.023607215	-7.110000E-01	  0.023607215	-1.546970E+02	  0.023607215	2.150000E+00	  0.023607215	-1.120300E+01
20	  0.023807615	-7.200000E-01	  0.023807615	-1.563280E+02	  0.023807615	2.164000E+00	  0.023807615	-1.045900E+01
21	  0.024008015	-7.320000E-01	  0.024008015	-1.579860E+02	  0.024008015	2.185000E+00	  0.024008015	-9.707000E+00
22	  0.024208417	-7.400000E-01	  0.024208417	-1.596570E+02	  0.024208417	2.199000E+00	  0.024208417	-8.953000E+00
23	  0.024408817	-7.450000E-01	  0.024408817	-1.613230E+02	  0.024408817	2.201000E+00	  0.024408817	-8.206000E+00
24	  0.024609219	-7.530000E-01	  0.024609219	-1.629950E+02	  0.024609219	2.216000E+00	  0.024609219	-7.460000E+00
25	  0.024809619	-7.620000E-01	  0.024809619	-1.646600E+02	  0.024809619	2.232000E+00	  0.024809619	-6.720000E+00
26	  0.025010020	-7.740000E-01	  0.025010020	-1.663430E+02	  0.025010020	2.258000E+00	  0.025010020	-5.975000E+00
27	  0.025210422	-7.820000E-01	  0.025210422	-1.680350E+02	  0.025210422	2.276000E+00	  0.025210422	-5.228000E+00
28	  0.025410822	-7.930000E-01	  0.025410822	-1.697350E+02	  0.025410822	2.300000E+00	  0.025410822	-4.481000E+00
29	  0.025611224	-8.050000E-01	  0.025611224	-1.714370E+02	  0.025611224	2.328000E+00	  0.025611224	-3.735000E+00
30	  0.025811624	-8.150000E-01	  0.025811624	-1.731580E+02	  0.025811624	2.352000E+00	  0.025811624	-2.982000E+00
31	  0.026012026	-8.260000E-01	  0.026012026	-1.748970E+02	  0.026012026	2.380000E+00	  0.026012026	-2.222000E+00
32	  0.026212426	-8.370000E-01	  0.026212426	-1.766440E+02	  0.026212426	2.411000E+00	  0.026212426	-1.461000E+00
33	  0.026412826	-8.490000E-01	  0.026412826	-1.783920E+02	  0.026412826	2.442000E+00	  0.026412826	-6.990000E-01
34	  0.026613226	-8.630000E-01	  0.026613226	1.798410E+02	  0.026613226	2.482000E+00	  0.026613226	6.800000E-02
35	  0.026813626	-8.780000E-01	  0.026813626	1.780640E+02	  0.026813626	2.526000E+00	  0.026813626	8.420000E-01
36	  0.027014028	-8.930000E-01	  0.027014028	1.762820E+02	  0.027014028	2.573000E+00	  0.027014028	1.618000E+00
37	  0.027214428	-9.090000E-01	  0.027214428	1.745030E+02	  0.027214428	2.621000E+00	  0.027214428	2.393000E+00
38	  0.027414829	-9.260000E-01	  0.027414829	1.727040E+02	  0.027414829	2.674000E+00	  0.027414829	3.178000E+00
39	  0.027615231	-9.430000E-01	  0.027615231	1.708890E+02	  0.027615231	2.729000E+00	  0.027615231	3.971000E+00
40	  0.027815631	-9.600000E-01	  0.027815631	1.690770E+02	  0.027815631	2.786000E+00	  0.027815631	4.765000E+00
41	  0.028016033	-9.780000E-01	  0.028016033	1.672390E+02	  0.028016033	2.847000E+00	  0.028016033	5.573000E+00
42	  0.028216433	-9.970000E-01	  0.028216433	1.653910E+02	  0.028216433	2.915000E+00	  0.028216433	6.387000E+00
43	  0.028416833	-1.017000E+00	  0.028416833	1.635290E+02	  0.028416833	2.987000E+00	  0.028416833	7.211000E+00
44	  0.028617235	-1.039000E+00	  0.028617235	1.616750E+02	  0.028617235	3.065000E+00	  0.028617235	8.034000E+00
45	  0.028817635	-1.059000E+00	  0.028817635	1.598050E+02	  0.028817635	3.142000E+00	  0.028817635	8.869000E+00
46	  0.029018037	-1.083000E+00	  0.029018037	1.579470E+02	  0.029018037	3.232000E+00	  0.029018037	9.703000E+00
47	  0.029218437	-1.107000E+00	  0.029218437	1.560650E+02	  0.029218437	3.324000E+00	  0.029218437	1.055200E+01
48	  0.029418837	-1.132000E+00	  0.029418837	1.541580E+02	  0.029418837	3.424000E+00	  0.029418837	1.141900E+01
49	  0.029619239	-1.158000E+00	  0.029619239	1.522550E+02	  0.029619239	3.531000E+00	  0.029619239	1.228900E+01
50	  0.029819639	-1.184000E+00	  0.029819639	1.503460E+02	  0.029819639	3.641000E+00	  0.029819639	1.316900E+01
51	  0.030020041	-1.212000E+00	  0.030020041	1.484260E+02	  0.030020041	3.759000E+00	  0.030020041	1.406200E+01
52	  0.030220442	-1.238000E+00	  0.030220442	1.465090E+02	  0.030220442	3.877000E+00	  0.030220442	1.496000E+01
53	  0.030420844	-1.265000E+00	  0.030420844	1.445880E+02	  0.030420844	4.005000E+00	  0.030420844	1.586900E+01
54	  0.030621244	-1.295000E+00	  0.030621244	1.426780E+02	  0.030621244	4.143000E+00	  0.030621244	1.678100E+01
55	  0.030821642	-1.326000E+00	  0.030821642	1.407580E+02	  0.030821642	4.291000E+00	  0.030821642	1.770800E+01
56	  0.031022044	-1.357000E+00	  0.031022044	1.388190E+02	  0.031022044	4.446000E+00	  0.031022044	1.865300E+01
57	  0.031222444	-1.383000E+00	  0.031222444	1.368800E+02	  0.031222444	4.588000E+00	  0.031222444	1.961100E+01
58	  0.031422846	-1.416000E+00	  0.031422846	1.349070E+02	  0.031422846	4.765000E+00	  0.031422846	2.059700E+01
59	  0.031623244	-1.450000E+00	  0.031623244	1.329330E+02	  0.031623244	4.948000E+00	  0.031623244	2.159500E+01
60	  0.031823646	-1.483000E+00	  0.031823646	1.309520E+02	  0.031823646	5.138000E+00	  0.031823646	2.261100E+01
61	  0.032024048	-1.518000E+00	  0.032024048	1.289720E+02	  0.032024048	5.343000E+00	  0.032024048	2.364100E+01
62	  0.032224450	-1.553000E+00	  0.032224450	1.269810E+02	  0.032224450	5.558000E+00	  0.032224450	2.469100E+01
63	  0.032424849	-1.589000E+00	  0.032424849	1.249880E+02	  0.032424849	5.785000E+00	  0.032424849	2.575900E+01
64	  0.032625251	-1.625000E+00	  0.032625251	1.229790E+02	  0.032625251	6.026000E+00	  0.032625251	2.685300E+01
65	  0.032825653	-1.662000E+00	  0.032825653	1.209430E+02	  0.032825653	6.282000E+00	  0.032825653	2.798100E+01
66	  0.033026051	-1.699000E+00	  0.033026051	1.189210E+02	  0.033026051	6.551000E+00	  0.033026051	2.912100E+01
67	  0.033226453	-1.734000E+00	  0.033226453	1.168580E+02	  0.033226453	6.829000E+00	  0.033226453	3.030700E+01
68	  0.033426855	-1.768000E+00	  0.033426855	1.148300E+02	  0.033426855	7.113000E+00	  0.033426855	3.149600E+01
69	  0.033627257	-1.812000E+00	  0.033627257	1.127930E+02	  0.033627257	7.457000E+00	  0.033627257	3.270800E+01
70	  0.033827655	-1.848000E+00	  0.033827655	1.107480E+02	  0.033827655	7.787000E+00	  0.033827655	3.395500E+01
71	  0.034028057	-1.888000E+00	  0.034028057	1.086940E+02	  0.034028057	8.149000E+00	  0.034028057	3.523300E+01
72	  0.034228459	-1.930000E+00	  0.034228459	1.066310E+02	  0.034228459	8.544000E+00	  0.034228459	3.654300E+01
73	  0.034428857	-1.970000E+00	  0.034428857	1.045630E+02	  0.034428857	8.957000E+00	  0.034428857	3.788700E+01
74	  0.034629259	-2.011000E+00	  0.034629259	1.024640E+02	  0.034629259	9.400000E+00	  0.034629259	3.928400E+01
75	  0.034829661	-2.055000E+00	  0.034829661	1.003880E+02	  0.034829661	9.883000E+00	  0.034829661	4.069700E+01
76	  0.035030060	-2.100000E+00	  0.035030060	9.830000E+01	  0.035030060	1.040300E+01	  0.035030060	4.215100E+01
77	  0.035230462	-2.147000E+00	  0.035230462	9.621800E+01	  0.035230462	1.096100E+01	  0.035230462	4.363800E+01
78	  0.035430863	-2.194000E+00	  0.035430863	9.413100E+01	  0.035430863	1.156300E+01	  0.035430863	4.516600E+01
79	  0.035631265	-2.240000E+00	  0.035631265	9.203300E+01	  0.035631265	1.219900E+01	  0.035631265	4.674600E+01
80	  0.035831664	-2.289000E+00	  0.035831664	8.994100E+01	  0.035831664	1.289600E+01	  0.035831664	4.835900E+01
81	  0.036032066	-2.336000E+00	  0.036032066	8.783900E+01	  0.036032066	1.362800E+01	  0.036032066	5.002900E+01
82	  0.036232468	-2.383000E+00	  0.036232468	8.576600E+01	  0.036232468	1.441000E+01	  0.036232468	5.172200E+01
83	  0.036432866	-2.431000E+00	  0.036432866	8.366700E+01	  0.036432866	1.526300E+01	  0.036432866	5.348400E+01
84	  0.036633268	-2.482000E+00	  0.036633268	8.157000E+01	  0.036633268	1.619500E+01	  0.036633268	5.529100E+01
85	  0.036833670	-2.533000E+00	  0.036833670	7.949300E+01	  0.036833670	1.718800E+01	  0.036833670	5.713200E+01
86	  0.037034072	-2.587000E+00	  0.037034072	7.739400E+01	  0.037034072	1.829000E+01	  0.037034072	5.904000E+01
87	  0.037234470	-2.637000E+00	  0.037234470	7.528300E+01	  0.037234470	1.945500E+01	  0.037234470	6.102700E+01
88	  0.037434869	-2.691000E+00	  0.037434869	7.320300E+01	  0.037434869	2.072800E+01	  0.037434869	6.303000E+01
89	  0.037635271	-2.743000E+00	  0.037635271	7.109300E+01	  0.037635271	2.211000E+01	  0.037635271	6.512900E+01
90	  0.037835669	-2.808000E+00	  0.037835669	6.899500E+01	  0.037835669	2.369400E+01	  0.037835669	6.722900E+01
91	  0.038036071	-2.869000E+00	  0.038036071	6.695000E+01	  0.038036071	2.534800E+01	  0.038036071	6.933800E+01
92	  0.038236473	-2.925000E+00	  0.038236473	6.489300E+01	  0.038236473	2.711200E+01	  0.038236473	7.153000E+01
93	  0.038436871	-2.980000E+00	  0.038436871	6.280600E+01	  0.038436871	2.904200E+01	  0.038436871	7.381900E+01
94	  0.038637273	-3.034000E+00	  0.038637273	6.073900E+01	  0.038637273	3.111900E+01	  0.038637273	7.614100E+01
95	  0.038837675	-3.085000E+00	  0.038837675	5.868000E+01	  0.038837675	3.334700E+01	  0.038837675	7.852200E+01
96	  0.039038073	-3.138000E+00	  0.039038073	5.660600E+01	  0.039038073	3.581000E+01	  0.039038073	8.096100E+01
97	  0.039238475	-3.190000E+00	  0.039238475	5.455600E+01	  0.039238475	3.845800E+01	  0.039238475	8.341900E+01
98	  0.039438877	-3.245000E+00	  0.039438877	5.247900E+01	  0.039438877	4.141900E+01	  0.039438877	8.591800E+01
99	  0.039639279	-3.298000E+00	  0.039639279	5.042600E+01	  0.039639279	4.461700E+01	  0.039639279	8.840900E+01
100	  0.039839678	-3.353000E+00	  0.039839678	4.836600E+01	  0.039839678	4.813500E+01	  0.039839678	9.090300E+01
101	  0.040040080	-3.401000E+00	  0.040040080	4.627900E+01	  0.040040080	5.196400E+01	  0.040040080	9.348900E+01
102	  0.040240481	-3.454000E+00	  0.040240481	4.422100E+01	  0.040240481	5.616300E+01	  0.040240481	9.593300E+01
103	  0.040440880	-3.506000E+00	  0.040440880	4.216100E+01	  0.040440880	6.075400E+01	  0.040440880	9.831900E+01
104	  0.040641282	-3.559000E+00	  0.040641282	4.011700E+01	  0.040641282	6.574900E+01	  0.040641282	1.005500E+02
105	  0.040841684	-3.607000E+00	  0.040841684	3.808600E+01	  0.040841684	7.112900E+01	  0.040841684	1.026680E+02
106	  0.041042086	-3.658000E+00	  0.041042086	3.606800E+01	  0.041042086	7.698400E+01	  0.041042086	1.045010E+02
107	  0.041242484	-3.709000E+00	  0.041242484	3.404900E+01	  0.041242484	8.335400E+01	  0.041242484	1.060300E+02
108	  0.041442886	-3.757000E+00	  0.041442886	3.201000E+01	  0.041442886	9.029900E+01	  0.041442886	1.072560E+02
109	  0.041643288	-3.806000E+00	  0.041643288	2.996200E+01	  0.041643288	9.782800E+01	  0.041643288	1.080040E+02
110	  0.041843686	-3.855000E+00	  0.041843686	2.793000E+01	  0.041843686	1.058500E+02	  0.041843686	1.081220E+02
111	  0.042044088	-3.903000E+00	  0.042044088	2.593000E+01	  0.042044088	1.142480E+02	  0.042044088	1.075230E+02
112	  0.042244490	-3.948000E+00	  0.042244490	2.391400E+01	  0.042244490	1.231650E+02	  0.042244490	1.061350E+02
113	  0.042444889	-3.994000E+00	  0.042444889	2.193500E+01	  0.042444889	1.322790E+02	  0.042444889	1.037500E+02
114	  0.042645290	-4.042000E+00	  0.042645290	1.993800E+01	  0.042645290	1.417010E+02	  0.042645290	1.001700E+02
115	  0.042845692	-4.087000E+00	  0.042845692	1.795500E+01	  0.042845692	1.511460E+02	  0.042845692	9.546100E+01
116	  0.043046094	-4.133000E+00	  0.043046094	1.597800E+01	  0.043046094	1.603770E+02	  0.043046094	8.934700E+01
117	  0.043246493	-4.178000E+00	  0.043246493	1.400500E+01	  0.043246493	1.692110E+02	  0.043246493	8.192600E+01
118	  0.043446895	-4.219000E+00	  0.043446895	1.205300E+01	  0.043446895	1.773720E+02	  0.043446895	7.332200E+01
119	  0.043647297	-4.261000E+00	  0.043647297	1.008300E+01	  0.043647297	1.846510E+02	  0.043647297	6.331600E+01
120	  0.043847695	-4.304000E+00	  0.043847695	8.159000E+00	  0.043847695	1.905210E+02	  0.043847695	5.239600E+01
121	  0.044048097	-4.348000E+00	  0.044048097	6.236000E+00	  0.044048097	1.948960E+02	  0.044048097	4.057300E+01
122	  0.044248499	-4.389000E+00	  0.044248499	4.328000E+00	  0.044248499	1.977390E+02	  0.044248499	2.830700E+01
123	  0.044448901	-4.428000E+00	  0.044448901	2.436000E+00	  0.044448901	1.990320E+02	  0.044448901	1.589700E+01
124	  0.044649299	-4.470000E+00	  0.044649299	5.340000E-01	  0.044649299	1.985100E+02	  0.044649299	3.444000E+00
125	  0.044849701	-4.508000E+00	  0.044849701	-1.345000E+00	  0.044849701	1.965840E+02	  0.044849701	-8.506000E+00
126	  0.045050103	-4.546000E+00	  0.045050103	-3.238000E+00	  0.045050103	1.931720E+02	  0.045050103	-1.992300E+01
127	  0.045250501	-4.585000E+00	  0.045250501	-5.101000E+00	  0.045250501	1.885790E+02	  0.045250501	-3.033700E+01
128	  0.045450903	-4.625000E+00	  0.045450903	-6.959000E+00	  0.045450903	1.829120E+02	  0.045450903	-3.971100E+01
129	  0.045651305	-4.663000E+00	  0.045651305	-8.821000E+00	  0.045651305	1.765440E+02	  0.045651305	-4.807700E+01
130	  0.045851704	-4.699000E+00	  0.045851704	-1.066700E+01	  0.045851704	1.697640E+02	  0.045851704	-5.534800E+01
131	  0.046052102	-4.736000E+00	  0.046052102	-1.249200E+01	  0.046052102	1.626410E+02	  0.046052102	-6.142400E+01
132	  0.046252504	-4.771000E+00	  0.046252504	-1.432700E+01	  0.046252504	1.553540E+02	  0.046252504	-6.657600E+01
133	  0.046452906	-4.806000E+00	  0.046452906	-1.614300E+01	  0.046452906	1.481190E+02	  0.046452906	-7.076600E+01
134	  0.046653304	-4.840000E+00	  0.046653304	-1.797500E+01	  0.046653304	1.408970E+02	  0.046653304	-7.412400E+01
135	  0.046853706	-4.874000E+00	  0.046853706	-1.978000E+01	  0.046853706	1.339510E+02	  0.046853706	-7.668800E+01
136	  0.047054108	-4.908000E+00	  0.047054108	-2.162000E+01	  0.047054108	1.271060E+02	  0.047054108	-7.862600E+01
137	  0.047254506	-4.940000E+00	  0.047254506	-2.343800E+01	  0.047254506	1.206300E+02	  0.047254506	-7.997800E+01
138	  0.047454908	-4.970000E+00	  0.047454908	-2.524200E+01	  0.047454908	1.145070E+02	  0.047454908	-8.084900E+01
139	  0.047655310	-5.002000E+00	  0.047655310	-2.703400E+01	  0.047655310	1.087220E+02	  0.047655310	-8.123400E+01
140	  0.047855709	-5.033000E+00	  0.047855709	-2.882300E+01	  0.047855709	1.032680E+02	  0.047855709	-8.128300E+01
141	  0.048056111	-5.065000E+00	  0.048056111	-3.060100E+01	  0.048056111	9.815500E+01	  0.048056111	-8.100200E+01
142	  0.048256513	-5.093000E+00	  0.048256513	-3.236200E+01	  0.048256513	9.339500E+01	  0.048256513	-8.055300E+01
143	  0.048456915	-5.121000E+00	  0.048456915	-3.412600E+01	  0.048456915	8.891400E+01	  0.048456915	-7.988300E+01
144	  0.048657313	-5.148000E+00	  0.048657313	-3.588400E+01	  0.048657313	8.471900E+01	  0.048657313	-7.906300E+01
145	  0.048857715	-5.170000E+00	  0.048857715	-3.764400E+01	  0.048857715	8.076900E+01	  0.048857715	-7.817200E+01
146	  0.049058117	-5.194000E+00	  0.049058117	-3.941000E+01	  0.049058117	7.705700E+01	  0.049058117	-7.711800E+01
147	  0.049258515	-5.217000E+00	  0.049258515	-4.115600E+01	  0.049258515	7.361400E+01	  0.049258515	-7.599200E+01
148	  0.049458917	-5.240000E+00	  0.049458917	-4.286300E+01	  0.049458917	7.045700E+01	  0.049458917	-7.481100E+01
149	  0.049659319	-5.263000E+00	  0.049659319	-4.459000E+01	  0.049659319	6.745600E+01	  0.049659319	-7.356600E+01
150	  0.049859721	-5.281000E+00	  0.049859721	-4.627300E+01	  0.049859721	6.469800E+01	  0.049859721	-7.234800E+01
151	  0.050060119	-5.304000E+00	  0.050060119	-4.794500E+01	  0.050060119	6.214000E+01	  0.050060119	-7.105200E+01
152	  0.050260521	-5.321000E+00	  0.050260521	-4.963300E+01	  0.050260521	5.968600E+01	  0.050260521	-6.977900E+01
153	  0.050460923	-5.337000E+00	  0.050460923	-5.131000E+01	  0.050460923	5.738900E+01	  0.050460923	-6.849900E+01
154	  0.050661322	-5.354000E+00	  0.050661322	-5.296300E+01	  0.050661322	5.525800E+01	  0.050661322	-6.722000E+01
155	  0.050861724	-5.368000E+00	  0.050861724	-5.460600E+01	  0.050861724	5.325100E+01	  0.050861724	-6.595800E+01
156	  0.051062126	-5.384000E+00	  0.051062126	-5.622600E+01	  0.051062126	5.139400E+01	  0.051062126	-6.469100E+01
157	  0.051262524	-5.399000E+00	  0.051262524	-5.780200E+01	  0.051262524	4.968200E+01	  0.051262524	-6.346400E+01
158	  0.051462926	-5.416000E+00	  0.051462926	-5.938500E+01	  0.051462926	4.806300E+01	  0.051462926	-6.222400E+01
159	  0.051663328	-5.428000E+00	  0.051663328	-6.096100E+01	  0.051663328	4.652000E+01	  0.051663328	-6.102200E+01
160	  0.051863730	-5.442000E+00	  0.051863730	-6.250700E+01	  0.051863730	4.508900E+01	  0.051863730	-5.984200E+01
161	  0.052064128	-5.453000E+00	  0.052064128	-6.407400E+01	  0.052064128	4.370100E+01	  0.052064128	-5.867000E+01
162	  0.052264530	-5.463000E+00	  0.052264530	-6.561600E+01	  0.052264530	4.240300E+01	  0.052264530	-5.752800E+01
163	  0.052464932	-5.476000E+00	  0.052464932	-6.713600E+01	  0.052464932	4.120000E+01	  0.052464932	-5.639500E+01
164	  0.052665330	-5.489000E+00	  0.052665330	-6.866800E+01	  0.052665330	4.004700E+01	  0.052665330	-5.526700E+01
165	  0.052865732	-5.498000E+00	  0.052865732	-7.015200E+01	  0.052865732	3.896800E+01	  0.052865732	-5.420300E+01
166	  0.053066134	-5.514000E+00	  0.053066134	-7.165000E+01	  0.053066134	3.795700E+01	  0.053066134	-5.311000E+01
167	  0.053266536	-5.526000E+00	  0.053266536	-7.312000E+01	  0.053266536	3.699900E+01	  0.053266536	-5.206500E+01
168	  0.053466935	-5.541000E+00	  0.053466935	-7.461100E+01	  0.053466935	3.608800E+01	  0.053466935	-5.100300E+01
169	  0.053667337	-5.554000E+00	  0.053667337	-7.609500E+01	  0.053667337	3.521200E+01	  0.053667337	-4.997100E+01
170	  0.053867739	-5.566000E+00	  0.053867739	-7.756300E+01	  0.053867739	3.438100E+01	  0.053867739	-4.896600E+01
171	  0.054068137	-5.577000E+00	  0.054068137	-7.903200E+01	  0.054068137	3.358200E+01	  0.054068137	-4.797900E+01
172	  0.054268539	-5.592000E+00	  0.054268539	-8.050300E+01	  0.054268539	3.283700E+01	  0.054268539	-4.698600E+01
173	  0.054468941	-5.602000E+00	  0.054468941	-8.194700E+01	  0.054468941	3.211700E+01	  0.054468941	-4.604200E+01
174	  0.054669335	-5.619000E+00	  0.054669335	-8.339900E+01	  0.054669335	3.145000E+01	  0.054669335	-4.508300E+01
175	  0.054869737	-5.632000E+00	  0.054869737	-8.484600E+01	  0.054869737	3.080200E+01	  0.054869737	-4.415200E+01
176	  0.055070139	-5.646000E+00	  0.055070139	-8.630900E+01	  0.055070139	3.017900E+01	  0.055070139	-4.321900E+01
177	  0.055270538	-5.659000E+00	  0.055270538	-8.774100E+01	  0.055270538	2.959000E+01	  0.055270538	-4.232300E+01
178	  0.055470940	-5.671000E+00	  0.055470940	-8.916700E+01	  0.055470940	2.902800E+01	  0.055470940	-4.144400E+01
179	  0.055671342	-5.679000E+00	  0.055671342	-9.062600E+01	  0.055671342	2.845800E+01	  0.055671342	-4.056700E+01
180	  0.055871744	-5.688000E+00	  0.055871744	-9.206500E+01	  0.055871744	2.792600E+01	  0.055871744	-3.970900E+01
181	  0.056072142	-5.699000E+00	  0.056072142	-9.350500E+01	  0.056072142	2.741800E+01	  0.056072142	-3.886000E+01
182	  0.056272544	-5.706000E+00	  0.056272544	-9.490500E+01	  0.056272544	2.693400E+01	  0.056272544	-3.805100E+01
183	  0.056472946	-5.715000E+00	  0.056472946	-9.632100E+01	  0.056472946	2.647000E+01	  0.056472946	-3.723900E+01
184	  0.056673344	-5.723000E+00	  0.056673344	-9.772200E+01	  0.056673344	2.602600E+01	  0.056673344	-3.644600E+01
185	  0.056873746	-5.733000E+00	  0.056873746	-9.911200E+01	  0.056873746	2.561100E+01	  0.056873746	-3.566500E+01
186	  0.057074148	-5.739000E+00	  0.057074148	-1.004910E+02	  0.057074148	2.520200E+01	  0.057074148	-3.490600E+01
187	  0.057274550	-5.745000E+00	  0.057274550	-1.018780E+02	  0.057274550	2.480400E+01	  0.057274550	-3.415100E+01
188	  0.057474948	-5.748000E+00	  0.057474948	-1.032590E+02	  0.057474948	2.441300E+01	  0.057474948	-3.341400E+01
189	  0.057675350	-5.751000E+00	  0.057675350	-1.046210E+02	  0.057675350	2.404400E+01	  0.057675350	-3.269400E+01
190	  0.057875752	-5.755000E+00	  0.057875752	-1.059890E+02	  0.057875752	2.368800E+01	  0.057875752	-3.197700E+01
191	  0.058076151	-5.760000E+00	  0.058076151	-1.073000E+02	  0.058076151	2.336700E+01	  0.058076151	-3.129300E+01
192	  0.058276553	-5.766000E+00	  0.058276553	-1.086430E+02	  0.058276553	2.305000E+01	  0.058276553	-3.059900E+01
193	  0.058476955	-5.767000E+00	  0.058476955	-1.099350E+02	  0.058476955	2.274100E+01	  0.058476955	-2.994500E+01
194	  0.058677353	-5.771000E+00	  0.058677353	-1.112400E+02	  0.058677353	2.244900E+01	  0.058677353	-2.928600E+01
195	  0.058877755	-5.772000E+00	  0.058877755	-1.125500E+02	  0.058877755	2.215700E+01	  0.058877755	-2.863500E+01
196	  0.059078157	-5.775000E+00	  0.059078157	-1.138380E+02	  0.059078157	2.188500E+01	  0.059078157	-2.799800E+01
197	  0.059278559	-5.774000E+00	  0.059278559	-1.151040E+02	  0.059278559	2.161700E+01	  0.059278559	-2.738100E+01
198	  0.059478957	-5.779000E+00	  0.059478957	-1.163480E+02	  0.059478957	2.137800E+01	  0.059478957	-2.677400E+01
199	  0.059679359	-5.786000E+00	  0.059679359	-1.176240E+02	  0.059679359	2.115300E+01	  0.059679359	-2.615200E+01
200	  0.059879761	-5.787000E+00	  0.059879761	-1.188420E+02	  0.059879761	2.092400E+01	  0.059879761	-2.557100E+01
201	  0.060080159	-5.791000E+00	  0.060080159	-1.200930E+02	  0.060080159	2.070600E+01	  0.060080159	-2.497500E+01
202	  0.060280561	-5.795000E+00	  0.060280561	-1.213020E+02	  0.060280561	2.050200E+01	  0.060280561	-2.440500E+01
203	  0.060480963	-5.802000E+00	  0.060480963	-1.225150E+02	  0.060480963	2.031700E+01	  0.060480963	-2.383200E+01
204	  0.060681365	-5.807000E+00	  0.060681365	-1.237320E+02	  0.060681365	2.013000E+01	  0.060681365	-2.326500E+01
205	  0.060881764	-5.810000E+00	  0.060881764	-1.249160E+02	  0.060881764	1.994700E+01	  0.060881764	-2.271900E+01
206	  0.061082166	-5.816000E+00	  0.061082166	-1.261270E+02	  0.061082166	1.977600E+01	  0.061082166	-2.216100E+01
207	  0.061282568	-5.818000E+00	  0.061282568	-1.273260E+02	  0.061282568	1.960400E+01	  0.061282568	-2.161700E+01
208	  0.061482966	-5.829000E+00	  0.061482966	-1.285160E+02	  0.061482966	1.946200E+01	  0.061482966	-2.107200E+01
209	  0.061683368	-5.833000E+00	  0.061683368	-1.296900E+02	  0.061683368	1.930800E+01	  0.061683368	-2.054400E+01
210	  0.061883770	-5.838000E+00	  0.061883770	-1.308840E+02	  0.061883770	1.916200E+01	  0.061883770	-2.001000E+01
211	  0.062084168	-5.844000E+00	  0.062084168	-1.320620E+02	  0.062084168	1.902500E+01	  0.062084168	-1.948500E+01
212	  0.062284570	-5.849000E+00	  0.062284570	-1.332270E+02	  0.062284570	1.889100E+01	  0.062284570	-1.897100E+01
213	  0.062484972	-5.845000E+00	  0.062484972	-1.343640E+02	  0.062484972	1.873900E+01	  0.062484972	-1.847800E+01
214	  0.062685370	-5.850000E+00	  0.062685370	-1.355720E+02	  0.062685370	1.861000E+01	  0.062685370	-1.795100E+01
215	  0.062885776	-5.854000E+00	  0.062885776	-1.367260E+02	  0.062885776	1.848900E+01	  0.062885776	-1.745100E+01
216	  0.063086174	-5.861000E+00	  0.063086174	-1.378860E+02	  0.063086174	1.837900E+01	  0.063086174	-1.694900E+01
217	  0.063286573	-5.864000E+00	  0.063286573	-1.390600E+02	  0.063286573	1.826400E+01	  0.063286573	-1.644500E+01
218	  0.063486971	-5.866000E+00	  0.063486971	-1.401980E+02	  0.063486971	1.815200E+01	  0.063486971	-1.596200E+01
219	  0.063687377	-5.866000E+00	  0.063687377	-1.413300E+02	  0.063687377	1.803900E+01	  0.063687377	-1.548300E+01
220	  0.063887775	-5.868000E+00	  0.063887775	-1.424670E+02	  0.063887775	1.793400E+01	  0.063887775	-1.500400E+01
221	  0.064088173	-5.868000E+00	  0.064088173	-1.436130E+02	  0.064088173	1.782900E+01	  0.064088173	-1.452500E+01
222	  0.064288579	-5.872000E+00	  0.064288579	-1.447710E+02	  0.064288579	1.773900E+01	  0.064288579	-1.403900E+01
223	  0.064488977	-5.873000E+00	  0.064488977	-1.459230E+02	  0.064488977	1.764200E+01	  0.064488977	-1.356100E+01
224	  0.064689375	-5.876000E+00	  0.064689375	-1.470110E+02	  0.064689375	1.756200E+01	  0.064689375	-1.311000E+01
225	  0.064889781	-5.881000E+00	  0.064889781	-1.481660E+02	  0.064889781	1.748500E+01	  0.064889781	-1.263200E+01
226	  0.065090179	-5.876000E+00	  0.065090179	-1.492460E+02	  0.065090179	1.739100E+01	  0.065090179	-1.219100E+01
227	  0.065290578	-5.882000E+00	  0.065290578	-1.503620E+02	  0.065290578	1.732500E+01	  0.065290578	-1.173200E+01
228	  0.065490983	-5.883000E+00	  0.065490983	-1.514470E+02	  0.065490983	1.725200E+01	  0.065490983	-1.129000E+01
229	  0.065691382	-5.880000E+00	  0.065691382	-1.525480E+02	  0.065691382	1.717100E+01	  0.065691382	-1.084400E+01
230	  0.065891780	-5.883000E+00	  0.065891780	-1.536420E+02	  0.065891780	1.711000E+01	  0.065891780	-1.040000E+01
231	  0.066092186	-5.888000E+00	  0.066092186	-1.547270E+02	  0.066092186	1.705700E+01	  0.066092186	-9.960000E+00
232	  0.066292584	-5.889000E+00	  0.066292584	-1.557980E+02	  0.066292584	1.699700E+01	  0.066292584	-9.529000E+00
233	  0.066492982	-5.890000E+00	  0.066492982	-1.568840E+02	  0.066492982	1.694100E+01	  0.066492982	-9.093000E+00
234	  0.066693388	-5.895000E+00	  0.066693388	-1.579510E+02	  0.066693388	1.689600E+01	  0.066693388	-8.664000E+00
235	  0.066893786	-5.896000E+00	  0.066893786	-1.589800E+02	  0.066893786	1.684800E+01	  0.066893786	-8.253000E+00
236	  0.067094192	-5.900000E+00	  0.067094192	-1.600700E+02	  0.067094192	1.680800E+01	  0.067094192	-7.818000E+00
237	  0.067294590	-5.904000E+00	  0.067294590	-1.610980E+02	  0.067294590	1.677100E+01	  0.067294590	-7.408000E+00
238	  0.067494988	-5.909000E+00	  0.067494988	-1.621600E+02	  0.067494988	1.674000E+01	  0.067494988	-6.986000E+00
239	  0.067695394	-5.911000E+00	  0.067695394	-1.632100E+02	  0.067695394	1.670300E+01	  0.067695394	-6.570000E+00
240	  0.067895792	-5.911000E+00	  0.067895792	-1.642500E+02	  0.067895792	1.666600E+01	  0.067895792	-6.160000E+00
241	  0.068096191	-5.926000E+00	  0.068096191	-1.652920E+02	  0.068096191	1.666700E+01	  0.068096191	-5.746000E+00
242	  0.068296596	-5.926000E+00	  0.068296596	-1.663310E+02	  0.068296596	1.663500E+01	  0.068296596	-5.337000E+00
243	  0.068496995	-5.929000E+00	  0.068496995	-1.673930E+02	  0.068496995	1.661100E+01	  0.068496995	-4.919000E+00
244	  0.068697393	-5.935000E+00	  0.068697393	-1.684080E+02	  0.068697393	1.659900E+01	  0.068697393	-4.520000E+00
245	  0.068897791	-5.940000E+00	  0.068897791	-1.694550E+02	  0.068897791	1.658500E+01	  0.068897791	-4.110000E+00
246	  0.069098189	-5.939000E+00	  0.069098189	-1.704640E+02	  0.069098189	1.656200E+01	  0.069098189	-3.715000E+00
247	  0.069298595	-5.942000E+00	  0.069298595	-1.715070E+02	  0.069298595	1.654700E+01	  0.069298595	-3.307000E+00
248	  0.069498993	-5.950000E+00	  0.069498993	-1.725340E+02	  0.069498993	1.654800E+01	  0.069498993	-2.906000E+00
249	  0.069699399	-5.951000E+00	  0.069699399	-1.735900E+02	  0.069699399	1.653600E+01	  0.069699399	-2.494000E+00
250	  0.069899797	-5.957000E+00	  0.069899797	-1.746100E+02	  0.069899797	1.653700E+01	  0.069899797	-2.096000E+00
251	  0.070100196	-5.963000E+00	  0.070100196	-1.756080E+02	  0.070100196	1.654100E+01	  0.070100196	-1.707000E+00
252	  0.070300601	-5.966000E+00	  0.070300601	-1.766090E+02	  0.070300601	1.654000E+01	  0.070300601	-1.318000E+00
253	  0.070501000	-5.968000E+00	  0.070501000	-1.776180E+02	  0.070501000	1.654000E+01	  0.070501000	-9.250000E-01
254	  0.070701398	-5.971000E+00	  0.070701398	-1.786210E+02	  0.070701398	1.654200E+01	  0.070701398	-5.350000E-01
255	  0.070901804	-5.972000E+00	  0.070901804	-1.796090E+02	  0.070901804	1.654400E+01	  0.070901804	-1.510000E-01
256	  0.071102202	-5.980000E+00	  0.071102202	1.793950E+02	  0.071102202	1.656500E+01	  0.071102202	2.340000E-01
257	  0.071302600	-5.980000E+00	  0.071302600	1.783920E+02	  0.071302600	1.656700E+01	  0.071302600	6.240000E-01
258	  0.071503006	-5.985000E+00	  0.071503006	1.773980E+02	  0.071503006	1.658300E+01	  0.071503006	1.010000E+00
259	  0.071703404	-5.993000E+00	  0.071703404	1.764250E+02	  0.071703404	1.661000E+01	  0.071703404	1.388000E+00
260	  0.071903802	-5.998000E+00	  0.071903802	1.754560E+02	  0.071903802	1.663300E+01	  0.071903802	1.764000E+00
261	  0.072104208	-5.998000E+00	  0.072104208	1.744780E+02	  0.072104208	1.664400E+01	  0.072104208	2.144000E+00
262	  0.072304606	-6.006000E+00	  0.072304606	1.735130E+02	  0.072304606	1.667800E+01	  0.072304606	2.518000E+00
263	  0.072505005	-6.010000E+00	  0.072505005	1.725580E+02	  0.072505005	1.670200E+01	  0.072505005	2.890000E+00
264	  0.072705410	-6.015000E+00	  0.072705410	1.716080E+02	  0.072705410	1.673200E+01	  0.072705410	3.259000E+00
265	  0.072905809	-6.022000E+00	  0.072905809	1.706330E+02	  0.072905809	1.677200E+01	  0.072905809	3.637000E+00
266	  0.073106214	-6.027000E+00	  0.073106214	1.697100E+02	  0.073106214	1.680400E+01	  0.073106214	3.996000E+00
267	  0.073306613	-6.033000E+00	  0.073306613	1.687470E+02	  0.073306613	1.684400E+01	  0.073306613	4.371000E+00
268	  0.073507011	-6.046000E+00	  0.073507011	1.678090E+02	  0.073507011	1.690100E+01	  0.073507011	4.735000E+00
269	  0.073707417	-6.052000E+00	  0.073707417	1.668640E+02	  0.073707417	1.694500E+01	  0.073707417	5.102000E+00
270	  0.073907815	-6.060000E+00	  0.073907815	1.659340E+02	  0.073907815	1.699400E+01	  0.073907815	5.465000E+00
271	  0.074108213	-6.069000E+00	  0.074108213	1.650000E+02	  0.074108213	1.705000E+01	  0.074108213	5.828000E+00
272	  0.074308619	-6.075000E+00	  0.074308619	1.640730E+02	  0.074308619	1.709800E+01	  0.074308619	6.190000E+00
273	  0.074509017	-6.083000E+00	  0.074509017	1.631290E+02	  0.074509017	1.715500E+01	  0.074509017	6.558000E+00
274	  0.074709415	-6.093000E+00	  0.074709415	1.621950E+02	  0.074709415	1.721800E+01	  0.074709415	6.922000E+00
275	  0.074909821	-6.101000E+00	  0.074909821	1.612740E+02	  0.074909821	1.727800E+01	  0.074909821	7.282000E+00
276	  0.075110219	-6.111000E+00	  0.075110219	1.603280E+02	  0.075110219	1.734600E+01	  0.075110219	7.652000E+00
277	  0.075310618	-6.119000E+00	  0.075310618	1.594190E+02	  0.075310618	1.741000E+01	  0.075310618	8.008000E+00
278	  0.075511023	-6.123000E+00	  0.075511023	1.585050E+02	  0.075511023	1.746800E+01	  0.075511023	8.367000E+00
279	  0.075711422	-6.133000E+00	  0.075711422	1.576170E+02	  0.075711422	1.753900E+01	  0.075711422	8.715000E+00
280	  0.075911827	-6.143000E+00	  0.075911827	1.566930E+02	  0.075911827	1.761600E+01	  0.075911827	9.078000E+00
281	  0.076112226	-6.150000E+00	  0.076112226	1.557890E+02	  0.076112226	1.768600E+01	  0.076112226	9.434000E+00
282	  0.076312624	-6.162000E+00	  0.076312624	1.548660E+02	  0.076312624	1.777200E+01	  0.076312624	9.796000E+00
283	  0.076513030	-6.169000E+00	  0.076513030	1.539580E+02	  0.076513030	1.784700E+01	  0.076513030	1.015500E+01
284	  0.076713428	-6.178000E+00	  0.076713428	1.530540E+02	  0.076713428	1.792900E+01	  0.076713428	1.051200E+01
285	  0.076913826	-6.186000E+00	  0.076913826	1.521430E+02	  0.076913826	1.801000E+01	  0.076913826	1.087300E+01
286	  0.077114232	-6.195000E+00	  0.077114232	1.512650E+02	  0.077114232	1.809700E+01	  0.077114232	1.122000E+01
287	  0.077314630	-6.203000E+00	  0.077314630	1.503760E+02	  0.077314630	1.818100E+01	  0.077314630	1.157400E+01
288	  0.077515028	-6.212000E+00	  0.077515028	1.495180E+02	  0.077515028	1.826800E+01	  0.077515028	1.191500E+01
289	  0.077715434	-6.221000E+00	  0.077715434	1.486440E+02	  0.077715434	1.836100E+01	  0.077715434	1.226200E+01
290	  0.077915832	-6.231000E+00	  0.077915832	1.477690E+02	  0.077915832	1.845600E+01	  0.077915832	1.261100E+01
291	  0.078116231	-6.240000E+00	  0.078116231	1.468930E+02	  0.078116231	1.855500E+01	  0.078116231	1.296100E+01
292	  0.078316636	-6.247000E+00	  0.078316636	1.460210E+02	  0.078316636	1.864700E+01	  0.078316636	1.331100E+01
293	  0.078517035	-6.260000E+00	  0.078517035	1.451180E+02	  0.078517035	1.876200E+01	  0.078517035	1.367100E+01
294	  0.078717433	-6.270000E+00	  0.078717433	1.442730E+02	  0.078717433	1.886600E+01	  0.078717433	1.401000E+01
295	  0.078917839	-6.281000E+00	  0.078917839	1.434270E+02	  0.078917839	1.897500E+01	  0.078917839	1.434900E+01
296	  0.079118237	-6.292000E+00	  0.079118237	1.425980E+02	  0.079118237	1.908300E+01	  0.079118237	1.468200E+01
297	  0.079318643	-6.305000E+00	  0.079318643	1.417410E+02	  0.079318643	1.920400E+01	  0.079318643	1.502500E+01
298	  0.079519041	-6.318000E+00	  0.079519041	1.408870E+02	  0.079519041	1.932700E+01	  0.079519041	1.536800E+01
299	  0.079719439	-6.331000E+00	  0.079719439	1.400440E+02	  0.079719439	1.945200E+01	  0.079719439	1.570700E+01
300	  0.079919845	-6.345000E+00	  0.079919845	1.392140E+02	  0.079919845	1.957800E+01	  0.079919845	1.604100E+01
301	  0.080120243	-6.361000E+00	  0.080120243	1.383530E+02	  0.080120243	1.971700E+01	  0.080120243	1.638700E+01
302	  0.080320641	-6.375000E+00	  0.080320641	1.375270E+02	  0.080320641	1.985100E+01	  0.080320641	1.671900E+01
303	  0.080521047	-6.391000E+00	  0.080521047	1.366630E+02	  0.080521047	1.999500E+01	  0.080521047	1.706700E+01
304	  0.080721445	-6.408000E+00	  0.080721445	1.358410E+02	  0.080721445	2.014200E+01	  0.080721445	1.739700E+01
305	  0.080921844	-6.427000E+00	  0.080921844	1.350050E+02	  0.080921844	2.029900E+01	  0.080921844	1.773100E+01
306	  0.081122249	-6.440000E+00	  0.081122249	1.341760E+02	  0.081122249	2.043900E+01	  0.081122249	1.806900E+01
307	  0.081322648	-6.456000E+00	  0.081322648	1.333600E+02	  0.081322648	2.059100E+01	  0.081322648	1.839800E+01
308	  0.081523046	-6.474000E+00	  0.081523046	1.325070E+02	  0.081523046	2.075700E+01	  0.081523046	1.874200E+01
309	  0.081723452	-6.493000E+00	  0.081723452	1.316700E+02	  0.081723452	2.092400E+01	  0.081723452	1.907900E+01
310	  0.081923850	-6.505000E+00	  0.081923850	1.308400E+02	  0.081923850	2.107500E+01	  0.081923850	1.942000E+01
311	  0.082124248	-6.522000E+00	  0.082124248	1.299970E+02	  0.082124248	2.124400E+01	  0.082124248	1.976200E+01
312	  0.082324654	-6.540000E+00	  0.082324654	1.291780E+02	  0.082324654	2.141700E+01	  0.082324654	2.009300E+01
313	  0.082525052	-6.555000E+00	  0.082525052	1.283580E+02	  0.082525052	2.158300E+01	  0.082525052	2.042900E+01
314	  0.082725458	-6.576000E+00	  0.082725458	1.275290E+02	  0.082725458	2.177200E+01	  0.082725458	2.076200E+01
315	  0.082925856	-6.592000E+00	  0.082925856	1.267230E+02	  0.082925856	2.194600E+01	  0.082925856	2.109100E+01
316	  0.083126254	-6.614000E+00	  0.083126254	1.258890E+02	  0.083126254	2.214500E+01	  0.083126254	2.142700E+01
317	  0.083326660	-6.631000E+00	  0.083326660	1.250580E+02	  0.083326660	2.233200E+01	  0.083326660	2.176600E+01
318	  0.083527058	-6.643000E+00	  0.083527058	1.242680E+02	  0.083527058	2.250200E+01	  0.083527058	2.209500E+01
319	  0.083727457	-6.667000E+00	  0.083727457	1.234590E+02	  0.083727457	2.271300E+01	  0.083727457	2.241800E+01
320	  0.083927862	-6.685000E+00	  0.083927862	1.226480E+02	  0.083927862	2.290900E+01	  0.083927862	2.274900E+01
321	  0.084128261	-6.704000E+00	  0.084128261	1.218460E+02	  0.084128261	2.311100E+01	  0.084128261	2.307500E+01
322	  0.084328659	-6.722000E+00	  0.084328659	1.210620E+02	  0.084328659	2.331200E+01	  0.084328659	2.339500E+01
323	  0.084529065	-6.747000E+00	  0.084529065	1.202920E+02	  0.084529065	2.353300E+01	  0.084529065	2.369900E+01
324	  0.084729463	-6.768000E+00	  0.084729463	1.195080E+02	  0.084729463	2.374700E+01	  0.084729463	2.401600E+01
325	  0.084929854	-6.784000E+00	  0.084929854	1.186980E+02	  0.084929854	2.395600E+01	  0.084929854	2.435100E+01
326	  0.085130259	-6.802000E+00	  0.085130259	1.178940E+02	  0.085130259	2.417600E+01	  0.085130259	2.467900E+01
327	  0.085330658	-6.828000E+00	  0.085330658	1.171350E+02	  0.085330658	2.440900E+01	  0.085330658	2.497900E+01
328	  0.085531056	-6.846000E+00	  0.085531056	1.163480E+02	  0.085531056	2.463100E+01	  0.085531056	2.530100E+01
329	  0.085731462	-6.871000E+00	  0.085731462	1.155590E+02	  0.085731462	2.487900E+01	  0.085731462	2.561300E+01
330	  0.085931860	-6.894000E+00	  0.085931860	1.148030E+02	  0.085931860	2.511500E+01	  0.085931860	2.591400E+01
331	  0.086132258	-6.914000E+00	  0.086132258	1.140620E+02	  0.086132258	2.534300E+01	  0.086132258	2.621300E+01
332	  0.086332664	-6.943000E+00	  0.086332664	1.133240E+02	  0.086332664	2.560200E+01	  0.086332664	2.649600E+01
333	  0.086533062	-6.965000E+00	  0.086533062	1.125770E+02	  0.086533062	2.584700E+01	  0.086533062	2.679300E+01
334	  0.086733460	-6.990000E+00	  0.086733460	1.118050E+02	  0.086733460	2.610800E+01	  0.086733460	2.709700E+01
335	  0.086933866	-7.012000E+00	  0.086933866	1.110580E+02	  0.086933866	2.635700E+01	  0.086933866	2.739400E+01
336	  0.087134264	-7.033000E+00	  0.087134264	1.103110E+02	  0.087134264	2.661100E+01	  0.087134264	2.769100E+01
337	  0.087334670	-7.061000E+00	  0.087334670	1.095770E+02	  0.087334670	2.688500E+01	  0.087334670	2.797100E+01
338	  0.087535068	-7.086000E+00	  0.087535068	1.088470E+02	  0.087535068	2.715000E+01	  0.087535068	2.825400E+01
339	  0.087735467	-7.115000E+00	  0.087735467	1.081210E+02	  0.087735467	2.743300E+01	  0.087735467	2.852700E+01
340	  0.087935872	-7.137000E+00	  0.087935872	1.074130E+02	  0.087935872	2.769400E+01	  0.087935872	2.880300E+01
341	  0.088136271	-7.166000E+00	  0.088136271	1.066720E+02	  0.088136271	2.798700E+01	  0.088136271	2.908100E+01
342	  0.088336669	-7.191000E+00	  0.088336669	1.059620E+02	  0.088336669	2.826500E+01	  0.088336669	2.935100E+01
343	  0.088537075	-7.217000E+00	  0.088537075	1.052630E+02	  0.088537075	2.854700E+01	  0.088537075	2.961300E+01
344	  0.088737473	-7.239000E+00	  0.088737473	1.045320E+02	  0.088737473	2.882900E+01	  0.088737473	2.989600E+01
345	  0.088937871	-7.264000E+00	  0.088937871	1.038250E+02	  0.088937871	2.911600E+01	  0.088937871	3.016400E+01
346	  0.089138277	-7.287000E+00	  0.089138277	1.031160E+02	  0.089138277	2.940500E+01	  0.089138277	3.043300E+01
347	  0.089338675	-7.316000E+00	  0.089338675	1.024150E+02	  0.089338675	2.971100E+01	  0.089338675	3.068600E+01
348	  0.089539073	-7.340000E+00	  0.089539073	1.017440E+02	  0.089539073	2.999600E+01	  0.089539073	3.093600E+01
349	  0.089739479	-7.373000E+00	  0.089739479	1.010830E+02	  0.089739479	3.030800E+01	  0.089739479	3.116000E+01
350	  0.089939877	-7.392000E+00	  0.089939877	1.003730E+02	  0.089939877	3.060100E+01	  0.089939877	3.143400E+01
351	  0.090140276	-7.422000E+00	  0.090140276	9.970900E+01	  0.090140276	3.091400E+01	  0.090140276	3.166300E+01
352	  0.090340681	-7.445000E+00	  0.090340681	9.904600E+01	  0.090340681	3.121000E+01	  0.090340681	3.190500E+01
353	  0.090541080	-7.471000E+00	  0.090541080	9.835800E+01	  0.090541080	3.152800E+01	  0.090541080	3.214900E+01
354	  0.090741485	-7.497000E+00	  0.090741485	9.770900E+01	  0.090741485	3.183600E+01	  0.090741485	3.237500E+01
355	  0.090941884	-7.517000E+00	  0.090941884	9.704000E+01	  0.090941884	3.213800E+01	  0.090941884	3.262200E+01
356	  0.091142282	-7.549000E+00	  0.091142282	9.640000E+01	  0.091142282	3.246600E+01	  0.091142282	3.282700E+01
357	  0.091342688	-7.579000E+00	  0.091342688	9.573200E+01	  0.091342688	3.280500E+01	  0.091342688	3.304600E+01
358	  0.091543086	-7.609000E+00	  0.091543086	9.510100E+01	  0.091543086	3.313200E+01	  0.091543086	3.324700E+01
359	  0.091743484	-7.629000E+00	  0.091743484	9.442800E+01	  0.091743484	3.345100E+01	  0.091743484	3.349100E+01
360	  0.091943890	-7.661000E+00	  0.091943890	9.379600E+01	  0.091943890	3.379200E+01	  0.091943890	3.368300E+01
361	  0.092144288	-7.686000E+00	  0.092144288	9.314100E+01	  0.092144288	3.412500E+01	  0.092144288	3.390200E+01
362	  0.092344686	-7.718000E+00	  0.092344686	9.249700E+01	  0.092344686	3.447800E+01	  0.092344686	3.409600E+01
363	  0.092545092	-7.739000E+00	  0.092545092	9.186100E+01	  0.092545092	3.480200E+01	  0.092545092	3.431100E+01
364	  0.092745490	-7.771000E+00	  0.092745490	9.123100E+01	  0.092745490	3.515700E+01	  0.092745490	3.449300E+01
365	  0.092945889	-7.803000E+00	  0.092945889	9.061200E+01	  0.092945889	3.551000E+01	  0.092945889	3.466800E+01
366	  0.093146294	-7.832000E+00	  0.093146294	8.998900E+01	  0.093146294	3.586100E+01	  0.093146294	3.485000E+01
367	  0.093346693	-7.861000E+00	  0.093346693	8.934300E+01	  0.093346693	3.622700E+01	  0.093346693	3.503800E+01
368	  0.093547091	-7.888000E+00	  0.093547091	8.875400E+01	  0.093547091	3.656400E+01	  0.093547091	3.520700E+01
369	  0.093747497	-7.925000E+00	  0.093747497	8.813200E+01	  0.093747497	3.694800E+01	  0.093747497	3.535600E+01
370	  0.093947895	-7.949000E+00	  0.093947895	8.748700E+01	  0.093947895	3.730900E+01	  0.093947895	3.555300E+01
371	  0.094148301	-7.986000E+00	  0.094148301	8.687200E+01	  0.094148301	3.769600E+01	  0.094148301	3.569300E+01
372	  0.094348699	-8.015000E+00	  0.094348699	8.627300E+01	  0.094348699	3.805800E+01	  0.094348699	3.584600E+01
373	  0.094549097	-8.048000E+00	  0.094549097	8.569500E+01	  0.094549097	3.842500E+01	  0.094549097	3.597500E+01
374	  0.094749503	-8.078000E+00	  0.094749503	8.507900E+01	  0.094749503	3.880400E+01	  0.094749503	3.612800E+01
375	  0.094949901	-8.114000E+00	  0.094949901	8.448900E+01	  0.094949901	3.918800E+01	  0.094949901	3.624800E+01
376	  0.095150299	-8.144000E+00	  0.095150299	8.390100E+01	  0.095150299	3.956100E+01	  0.095150299	3.638000E+01
377	  0.095350705	-8.178000E+00	  0.095350705	8.331300E+01	  0.095350705	3.994600E+01	  0.095350705	3.649900E+01
378	  0.095551103	-8.207000E+00	  0.095551103	8.272000E+01	  0.095551103	4.032400E+01	  0.095551103	3.663200E+01
379	  0.095751502	-8.240000E+00	  0.095751502	8.212500E+01	  0.095751502	4.071600E+01	  0.095751502	3.674700E+01
380	  0.095951907	-8.269000E+00	  0.095951907	8.155200E+01	  0.095951907	4.109100E+01	  0.095951907	3.686400E+01
381	  0.096152306	-8.297000E+00	  0.096152306	8.097400E+01	  0.096152306	4.146800E+01	  0.096152306	3.698400E+01
382	  0.096352704	-8.330000E+00	  0.096352704	8.044300E+01	  0.096352704	4.183400E+01	  0.096352704	3.706500E+01
383	  0.096553110	-8.364000E+00	  0.096553110	7.986900E+01	  0.096553110	4.223000E+01	  0.096553110	3.715300E+01
384	  0.096753508	-8.391000E+00	  0.096753508	7.934400E+01	  0.096753508	4.258300E+01	  0.096753508	3.724800E+01
385	  0.096953906	-8.419000E+00	  0.096953906	7.881000E+01	  0.096953906	4.294800E+01	  0.096953906	3.733600E+01
386	  0.097154312	-8.455000E+00	  0.097154312	7.828700E+01	  0.097154312	4.332700E+01	  0.097154312	3.738800E+01
387	  0.097354710	-8.481000E+00	  0.097354710	7.773300E+01	  0.097354710	4.370200E+01	  0.097354710	3.748400E+01
388	  0.097555116	-8.513000E+00	  0.097555116	7.723500E+01	  0.097555116	4.406200E+01	  0.097555116	3.753400E+01
389	  0.097755514	-8.545000E+00	  0.097755514	7.672900E+01	  0.097755514	4.442700E+01	  0.097755514	3.758500E+01
390	  0.097955912	-8.573000E+00	  0.097955912	7.622300E+01	  0.097955912	4.478400E+01	  0.097955912	3.764900E+01
391	  0.098156318	-8.604000E+00	  0.098156318	7.572100E+01	  0.098156318	4.514900E+01	  0.098156318	3.769200E+01
392	  0.098356716	-8.633000E+00	  0.098356716	7.523900E+01	  0.098356716	4.550000E+01	  0.098356716	3.773500E+01
393	  0.098557115	-8.664000E+00	  0.098557115	7.474500E+01	  0.098557115	4.586100E+01	  0.098557115	3.777300E+01
394	  0.098757520	-8.691000E+00	  0.098757520	7.425500E+01	  0.098757520	4.621700E+01	  0.098757520	3.781800E+01
395	  0.098957919	-8.722000E+00	  0.098957919	7.375700E+01	  0.098957919	4.658500E+01	  0.098957919	3.784500E+01
396	  0.099158317	-8.750000E+00	  0.099158317	7.326400E+01	  0.099158317	4.694600E+01	  0.099158317	3.788200E+01
397	  0.099358723	-8.778000E+00	  0.099358723	7.283700E+01	  0.099358723	4.726600E+01	  0.099358723	3.789800E+01
398	  0.099559121	-8.809000E+00	  0.099559121	7.233200E+01	  0.099559121	4.764400E+01	  0.099559121	3.791700E+01
399	  0.099759519	-8.839000E+00	  0.099759519	7.187400E+01	  0.099759519	4.799100E+01	  0.099759519	3.792400E+01
400	  0.099959925	-8.859000E+00	  0.099959925	7.143000E+01	  0.099959925	4.831200E+01	  0.099959925	3.796400E+01
401	  0.100160323	-8.883000E+00	  0.100160323	7.098400E+01	  0.100160323	4.864200E+01	  0.100160323	3.798800E+01
402	  0.100360721	-8.907000E+00	  0.100360721	7.049400E+01	  0.100360721	4.900300E+01	  0.100360721	3.801900E+01
403	  0.100561127	-8.937000E+00	  0.100561127	7.004100E+01	  0.100561127	4.935100E+01	  0.100561127	3.801000E+01
404	  0.100761525	-8.956000E+00	  0.100761525	6.958600E+01	  0.100761525	4.968300E+01	  0.100761525	3.804500E+01
405	  0.100961931	-8.985000E+00	  0.100961931	6.909200E+01	  0.100961931	5.005900E+01	  0.100961931	3.804400E+01
406	  0.101162329	-8.999000E+00	  0.101162329	6.871000E+01	  0.101162329	5.033700E+01	  0.101162329	3.807900E+01
407	  0.101362728	-9.027000E+00	  0.101362728	6.831300E+01	  0.101362728	5.064900E+01	  0.101362728	3.805100E+01
408	  0.101563133	-9.037000E+00	  0.101563133	6.788100E+01	  0.101563133	5.095500E+01	  0.101563133	3.811100E+01
409	  0.101763532	-9.073000E+00	  0.101763532	6.743600E+01	  0.101763532	5.131400E+01	  0.101763532	3.805200E+01
410	  0.101963930	-9.079000E+00	  0.101963930	6.706700E+01	  0.101963930	5.157500E+01	  0.101963930	3.810900E+01
411	  0.102164328	-9.105000E+00	  0.102164328	6.659300E+01	  0.102164328	5.194000E+01	  0.102164328	3.809500E+01
412	  0.102364726	-9.114000E+00	  0.102364726	6.617100E+01	  0.102364726	5.224400E+01	  0.102364726	3.814600E+01
413	  0.102565125	-9.130000E+00	  0.102565125	6.578400E+01	  0.102565125	5.253700E+01	  0.102565125	3.815500E+01
414	  0.102765530	-9.130000E+00	  0.102765530	6.534000E+01	  0.102765530	5.284900E+01	  0.102765530	3.824600E+01
415	  0.102965929	-9.151000E+00	  0.102965929	6.495700E+01	  0.102965929	5.314700E+01	  0.102965929	3.822700E+01
416	  0.103166327	-9.164000E+00	  0.103166327	6.456700E+01	  0.103166327	5.344200E+01	  0.103166327	3.824100E+01
417	  0.103366733	-9.163000E+00	  0.103366733	6.422800E+01	  0.103366733	5.368400E+01	  0.103366733	3.830900E+01
418	  0.103567131	-9.178000E+00	  0.103567131	6.381300E+01	  0.103567131	5.400100E+01	  0.103567131	3.831500E+01
419	  0.103767529	-9.187000E+00	  0.103767529	6.343700E+01	  0.103767529	5.428300E+01	  0.103767529	3.834400E+01
420	  0.103967935	-9.200000E+00	  0.103967935	6.304700E+01	  0.103967935	5.458300E+01	  0.103967935	3.834600E+01
421	  0.104168333	-9.196000E+00	  0.104168333	6.268300E+01	  0.104168333	5.484500E+01	  0.104168333	3.842900E+01
422	  0.104368731	-9.208000E+00	  0.104368731	6.227900E+01	  0.104368731	5.515700E+01	  0.104368731	3.843900E+01
423	  0.104569137	-9.200000E+00	  0.104569137	6.193400E+01	  0.104569137	5.540400E+01	  0.104569137	3.853600E+01
424	  0.104769535	-9.214000E+00	  0.104769535	6.156700E+01	  0.104769535	5.569300E+01	  0.104769535	3.852100E+01
425	  0.104969934	-9.213000E+00	  0.104969934	6.113500E+01	  0.104969934	5.601600E+01	  0.104969934	3.859500E+01
426	  0.105170339	-9.209000E+00	  0.105170339	6.074700E+01	  0.105170339	5.630600E+01	  0.105170339	3.867000E+01
427	  0.105370738	-9.218000E+00	  0.105370738	6.036800E+01	  0.105370738	5.660400E+01	  0.105370738	3.867700E+01
428	  0.105571143	-9.220000E+00	  0.105571143	5.995200E+01	  0.105571143	5.692500E+01	  0.105571143	3.872400E+01
429	  0.105771542	-9.222000E+00	  0.105771542	5.956000E+01	  0.105771542	5.722900E+01	  0.105771542	3.876200E+01
430	  0.105971940	-9.222000E+00	  0.105971940	5.911200E+01	  0.105971940	5.757700E+01	  0.105971940	3.881800E+01
431	  0.106172346	-9.219000E+00	  0.106172346	5.876800E+01	  0.106172346	5.784400E+01	  0.106172346	3.887600E+01
432	  0.106372744	-9.224000E+00	  0.106372744	5.825500E+01	  0.106372744	5.825200E+01	  0.106372744	3.890600E+01
433	  0.106573142	-9.220000E+00	  0.106573142	5.787900E+01	  0.106573142	5.854800E+01	  0.106573142	3.896600E+01
434	  0.106773548	-9.222000E+00	  0.106773548	5.740000E+01	  0.106773548	5.893200E+01	  0.106773548	3.900600E+01
435	  0.106973946	-9.224000E+00	  0.106973946	5.688500E+01	  0.106973946	5.934800E+01	  0.106973946	3.904300E+01
436	  0.107174344	-9.223000E+00	  0.107174344	5.641400E+01	  0.107174344	5.973000E+01	  0.107174344	3.908600E+01
437	  0.107374750	-9.223000E+00	  0.107374750	5.594300E+01	  0.107374750	6.011500E+01	  0.107374750	3.912100E+01
438	  0.107575148	-9.220000E+00	  0.107575148	5.540700E+01	  0.107575148	6.055600E+01	  0.107575148	3.917500E+01
439	  0.107775547	-9.214000E+00	  0.107775547	5.491100E+01	  0.107775547	6.096500E+01	  0.107775547	3.923800E+01
440	  0.107975952	-9.209000E+00	  0.107975952	5.435600E+01	  0.107975952	6.142900E+01	  0.107975952	3.929700E+01
441	  0.108176351	-9.210000E+00	  0.108176351	5.381300E+01	  0.108176351	6.188900E+01	  0.108176351	3.931200E+01
442	  0.108376749	-9.201000E+00	  0.108376749	5.329000E+01	  0.108376749	6.233300E+01	  0.108376749	3.938000E+01
443	  0.108577155	-9.190000E+00	  0.108577155	5.271900E+01	  0.108577155	6.282300E+01	  0.108577155	3.945600E+01
444	  0.108777553	-9.197000E+00	  0.108777553	5.214500E+01	  0.108777553	6.332300E+01	  0.108777553	3.942600E+01
445	  0.108977959	-9.187000E+00	  0.108977959	5.156400E+01	  0.108977959	6.383100E+01	  0.108977959	3.948600E+01
446	  0.109178357	-9.177000E+00	  0.109178357	5.092100E+01	  0.109178357	6.440000E+01	  0.109178357	3.953700E+01
447	  0.109378755	-9.162000E+00	  0.109378755	5.034800E+01	  0.109378755	6.491400E+01	  0.109378755	3.961200E+01
448	  0.109579161	-9.155000E+00	  0.109579161	4.974900E+01	  0.109579161	6.545500E+01	  0.109579161	3.963800E+01
449	  0.109779559	-9.143000E+00	  0.109779559	4.915800E+01	  0.109779559	6.599700E+01	  0.109779559	3.968500E+01
450	  0.109979957	-9.128000E+00	  0.109979957	4.855600E+01	  0.109979957	6.655500E+01	  0.109979957	3.974000E+01
451	  0.110180363	-9.117000E+00	  0.110180363	4.790200E+01	  0.110180363	6.716700E+01	  0.110180363	3.976600E+01
452	  0.110380761	-9.111000E+00	  0.110380761	4.727500E+01	  0.110380761	6.775700E+01	  0.110380761	3.974700E+01
453	  0.110581160	-9.098000E+00	  0.110581160	4.669600E+01	  0.110581160	6.831300E+01	  0.110581160	3.977500E+01
454	  0.110781565	-9.080000E+00	  0.110781565	4.603900E+01	  0.110781565	6.895200E+01	  0.110781565	3.981500E+01
455	  0.110981964	-9.061000E+00	  0.110981964	4.541500E+01	  0.110981964	6.956800E+01	  0.110981964	3.986200E+01
456	  0.111182362	-9.054000E+00	  0.111182362	4.483300E+01	  0.111182362	7.014000E+01	  0.111182362	3.982100E+01
457	  0.111382768	-9.046000E+00	  0.111382768	4.418900E+01	  0.111382768	7.077900E+01	  0.111382768	3.977500E+01
458	  0.111583166	-9.035000E+00	  0.111583166	4.354300E+01	  0.111583166	7.142800E+01	  0.111583166	3.974000E+01
459	  0.111783572	-9.024000E+00	  0.111783572	4.290900E+01	  0.111783572	7.207200E+01	  0.111783572	3.969100E+01
460	  0.111983970	-9.023000E+00	  0.111983970	4.227000E+01	  0.111983970	7.271300E+01	  0.111983970	3.956600E+01
461	  0.112184368	-9.013000E+00	  0.112184368	4.157300E+01	  0.112184368	7.343200E+01	  0.112184368	3.948200E+01
462	  0.112384774	-9.012000E+00	  0.112384774	4.095200E+01	  0.112384774	7.406300E+01	  0.112384774	3.933800E+01
463	  0.112585172	-9.007000E+00	  0.112585172	4.028900E+01	  0.112585172	7.474700E+01	  0.112585172	3.919500E+01
464	  0.112785570	-9.006000E+00	  0.112785570	3.958200E+01	  0.112785570	7.547400E+01	  0.112785570	3.900600E+01
465	  0.112985976	-9.005000E+00	  0.112985976	3.891600E+01	  0.112985976	7.616300E+01	  0.112985976	3.881100E+01
466	  0.113186374	-9.003000E+00	  0.113186374	3.818200E+01	  0.113186374	7.692600E+01	  0.113186374	3.858600E+01
467	  0.113386773	-9.014000E+00	  0.113386773	3.752300E+01	  0.113386773	7.758400E+01	  0.113386773	3.828200E+01
468	  0.113587178	-9.006000E+00	  0.113587178	3.676400E+01	  0.113587178	7.839000E+01	  0.113587178	3.805100E+01
469	  0.113787577	-9.020000E+00	  0.113787577	3.595700E+01	  0.113787577	7.919400E+01	  0.113787577	3.763700E+01
470	  0.113987975	-9.024000E+00	  0.113987975	3.521200E+01	  0.113987975	7.995800E+01	  0.113987975	3.729300E+01
471	  0.114188381	-9.042000E+00	  0.114188381	3.438600E+01	  0.114188381	8.076400E+01	  0.114188381	3.679900E+01
472	  0.114388779	-9.040000E+00	  0.114388779	3.359500E+01	  0.114388779	8.159100E+01	  0.114388779	3.643200E+01
473	  0.114589177	-9.052000E+00	  0.114589177	3.275400E+01	  0.114589177	8.242200E+01	  0.114589177	3.592300E+01
474	  0.114789583	-9.065000E+00	  0.114789583	3.187100E+01	  0.114789583	8.328400E+01	  0.114789583	3.535400E+01
475	  0.114989981	-9.077000E+00	  0.114989981	3.101900E+01	  0.114989981	8.411400E+01	  0.114989981	3.479000E+01
476	  0.115190387	-9.085000E+00	  0.115190387	3.014000E+01	  0.115190387	8.497700E+01	  0.115190387	3.420400E+01
477	  0.115390785	-9.103000E+00	  0.115390785	2.919200E+01	  0.115390785	8.585600E+01	  0.115390785	3.347900E+01
478	  0.115591183	-9.113000E+00	  0.115591183	2.831900E+01	  0.115591183	8.668300E+01	  0.115591183	3.282600E+01
479	  0.115791589	-9.133000E+00	  0.115791589	2.735200E+01	  0.115791589	8.754300E+01	  0.115791589	3.201400E+01
480	  0.115991987	-9.145000E+00	  0.115991987	2.637600E+01	  0.115991987	8.843600E+01	  0.115991987	3.121900E+01
481	  0.116192386	-9.161000E+00	  0.116192386	2.543200E+01	  0.116192386	8.925500E+01	  0.116192386	3.038500E+01
482	  0.116392791	-9.178000E+00	  0.116392791	2.442600E+01	  0.116392791	9.010700E+01	  0.116392791	2.946500E+01
483	  0.116593190	-9.190000E+00	  0.116593190	2.343000E+01	  0.116593190	9.095100E+01	  0.116593190	2.854600E+01
484	  0.116793588	-9.214000E+00	  0.116793588	2.243300E+01	  0.116793588	9.170300E+01	  0.116793588	2.752600E+01
485	  0.116993994	-9.230000E+00	  0.116993994	2.142800E+01	  0.116993994	9.247700E+01	  0.116993994	2.651000E+01
486	  0.117194392	-9.250000E+00	  0.117194392	2.039500E+01	  0.117194392	9.322300E+01	  0.117194392	2.541900E+01
487	  0.117394790	-9.263000E+00	  0.117394790	1.937000E+01	  0.117394790	9.397200E+01	  0.117394790	2.434000E+01
488	  0.117595196	-9.290000E+00	  0.117595196	1.834100E+01	  0.117595196	9.459800E+01	  0.117595196	2.315600E+01
489	  0.117795594	-9.310000E+00	  0.117795594	1.733600E+01	  0.117795594	9.520800E+01	  0.117795594	2.200300E+01
490	  0.117995992	-9.335000E+00	  0.117995992	1.628500E+01	  0.117995992	9.578200E+01	  0.117995992	2.075800E+01
491	  0.118196398	-9.362000E+00	  0.118196398	1.525000E+01	  0.118196398	9.628300E+01	  0.118196398	1.949600E+01
492	  0.118396796	-9.398000E+00	  0.118396796	1.415400E+01	  0.118396796	9.670900E+01	  0.118396796	1.810900E+01
493	  0.118597202	-9.428000E+00	  0.118597202	1.305600E+01	  0.118597202	9.713000E+01	  0.118597202	1.673000E+01
494	  0.118797600	-9.468000E+00	  0.118797600	1.201600E+01	  0.118797600	9.738500E+01	  0.118797600	1.536800E+01
