! Anritsu VNA Master:             	Model: MS2036C/10/77
! SN:             	1601066
! /bd0/18may09/254.ns.m1.txt
! Existing Calibration Information:
! TYPE:             	Current Settings	Active Cal Settings
! TIME:             	05/09/2018 12:40:41 PM	05/09/2018 12:35:56 PM
! INTERNAL TEMP:    	57.5 C	56.8 C
! # POINTS:         	494	494
! START FREQ:       	20.000 MHz	20.000 MHz
! STOP FREQ:        	118.797 594 MHz	118.797 594 MHz
! SOURCE POWER:     	High	High
! IFBW:             	50 Hz	50 Hz
! AVG FACTOR:       	  1 	  1 
! REF PLANE 1:      	0 mm	0 mm
! REF PLANE 2:      	0 mm	0 mm
! CAL TYPE:         	Full S22	Full S22
! CAL METHOD:       	SOLT	SOLT
! CAL LINE TYPE:    	Coax	Coax
! DUT PORT 1:       	K-Conn(M)	K-Conn(M)
! DUT PORT 2:       	K-Conn(M)	K-Conn(M)
! CAL STATUS:       	OK: Accuracy High	--
! PROP-V:       	0.700
! CABLE LOSS:       	0.000 dB/m
! REF IMPEDANCE:       	50.0
! Trace Specific Parameters:	TR1	TR2	TR3	TR4
! TRACE.#.Y (GRAPH TYPE)	LOG MAG	PHASE	REAL IMPEDANCE	IMAGINARY IMPEDANCE
! TRACE.#.X 	FREQ.GHZ	FREQ.GHZ	FREQ.GHZ	FREQ.GHZ
! S-PARAMETER	S22	S22	S22	S22
! SMOOTH/APERTURE %	0	0	0	0
! WINDOW	NSL	NSL	NSL	NSL
! GATING	OFF	OFF	OFF	OFF
! FGTD	OFF	OFF	OFF	OFF
Marker Information per Trace:	TR1	TR2	TR3	TR4
!MK1	--	"MK1 TR2:  20.000 MHz,PH:-126.65°"	--	--
!MK2	--	--	"MK2 TR3:  70.100 200 MHz,Z:(16.517 ohm, -1.579 ohm)"	--
!MK3	--	--	--	--
!MK4	--	--	--	--
!MK5	--	--	--	--
!MK6	--	--	--	--
!MK7	--	--	--	--
!MK8	--	--	--	--
PNT	TR1.FREQ.GHZ	TR1.LOG MAG.dB	TR2.FREQ.GHZ	TR2.PHASE.deg	TR3.FREQ.GHZ	TR3.REAL IMPEDANCE.ohm	TR4.FREQ.GHZ	TR4.IMAGINARY IMPEDANCE.ohm
1	  0.020000000	-6.310000E-01	  0.020000000	-1.266450E+02	  0.020000000	2.274000E+00	  0.020000000	-2.508000E+01
2	  0.020200402	-6.360000E-01	  0.020200402	-1.281100E+02	  0.020200402	2.263000E+00	  0.020200402	-2.428600E+01
3	  0.020400802	-6.380000E-01	  0.020400802	-1.295780E+02	  0.020400802	2.244000E+00	  0.020400802	-2.350000E+01
4	  0.020601204	-6.430000E-01	  0.020601204	-1.310960E+02	  0.020601204	2.233000E+00	  0.020601204	-2.269700E+01
5	  0.020801604	-6.460000E-01	  0.020801604	-1.326010E+02	  0.020801604	2.215000E+00	  0.020801604	-2.191100E+01
6	  0.021002004	-6.470000E-01	  0.021002004	-1.341540E+02	  0.021002004	2.195000E+00	  0.021002004	-2.110900E+01
7	  0.021202406	-6.500000E-01	  0.021202406	-1.356930E+02	  0.021202406	2.180000E+00	  0.021202406	-2.032300E+01
8	  0.021402806	-6.530000E-01	  0.021402806	-1.372350E+02	  0.021402806	2.167000E+00	  0.021402806	-1.954400E+01
9	  0.021603208	-6.550000E-01	  0.021603208	-1.387800E+02	  0.021603208	2.151000E+00	  0.021603208	-1.877200E+01
10	  0.021803608	-6.600000E-01	  0.021803608	-1.403290E+02	  0.021803608	2.146000E+00	  0.021803608	-1.800600E+01
11	  0.022004008	-6.660000E-01	  0.022004008	-1.418730E+02	  0.022004008	2.145000E+00	  0.022004008	-1.724900E+01
12	  0.022204408	-6.710000E-01	  0.022204408	-1.434600E+02	  0.022204408	2.140000E+00	  0.022204408	-1.647900E+01
13	  0.022404809	-6.770000E-01	  0.022404809	-1.450610E+02	  0.022404809	2.142000E+00	  0.022404809	-1.570900E+01
14	  0.022605211	-6.790000E-01	  0.022605211	-1.466850E+02	  0.022605211	2.129000E+00	  0.022605211	-1.493500E+01
15	  0.022805611	-6.830000E-01	  0.022805611	-1.483080E+02	  0.022805611	2.123000E+00	  0.022805611	-1.416800E+01
16	  0.023006011	-6.900000E-01	  0.023006011	-1.499160E+02	  0.023006011	2.128000E+00	  0.023006011	-1.341300E+01
17	  0.023206413	-6.980000E-01	  0.023206413	-1.515090E+02	  0.023206413	2.138000E+00	  0.023206413	-1.267200E+01
18	  0.023406813	-7.020000E-01	  0.023406813	-1.531250E+02	  0.023406813	2.137000E+00	  0.023406813	-1.192500E+01
19	  0.023607215	-7.100000E-01	  0.023607215	-1.547430E+02	  0.023607215	2.145000E+00	  0.023607215	-1.118200E+01
20	  0.023807615	-7.190000E-01	  0.023807615	-1.563740E+02	  0.023807615	2.160000E+00	  0.023807615	-1.043800E+01
21	  0.024008015	-7.300000E-01	  0.024008015	-1.580310E+02	  0.024008015	2.179000E+00	  0.024008015	-9.687000E+00
22	  0.024208417	-7.380000E-01	  0.024208417	-1.596950E+02	  0.024208417	2.192000E+00	  0.024208417	-8.936000E+00
23	  0.024408817	-7.440000E-01	  0.024408817	-1.613610E+02	  0.024408817	2.200000E+00	  0.024408817	-8.189000E+00
24	  0.024609219	-7.520000E-01	  0.024609219	-1.630330E+02	  0.024609219	2.213000E+00	  0.024609219	-7.443000E+00
25	  0.024809619	-7.610000E-01	  0.024809619	-1.647040E+02	  0.024809619	2.229000E+00	  0.024809619	-6.700000E+00
26	  0.025010020	-7.710000E-01	  0.025010020	-1.663880E+02	  0.025010020	2.250000E+00	  0.025010020	-5.955000E+00
27	  0.025210422	-7.810000E-01	  0.025210422	-1.680820E+02	  0.025210422	2.273000E+00	  0.025210422	-5.208000E+00
28	  0.025410822	-7.910000E-01	  0.025410822	-1.697750E+02	  0.025410822	2.295000E+00	  0.025410822	-4.463000E+00
29	  0.025611224	-8.020000E-01	  0.025611224	-1.714840E+02	  0.025611224	2.322000E+00	  0.025611224	-3.714000E+00
30	  0.025811624	-8.140000E-01	  0.025811624	-1.732060E+02	  0.025811624	2.349000E+00	  0.025811624	-2.961000E+00
31	  0.026012026	-8.240000E-01	  0.026012026	-1.749510E+02	  0.026012026	2.376000E+00	  0.026012026	-2.199000E+00
32	  0.026212426	-8.350000E-01	  0.026212426	-1.766950E+02	  0.026212426	2.405000E+00	  0.026212426	-1.438000E+00
33	  0.026412826	-8.480000E-01	  0.026412826	-1.784540E+02	  0.026412826	2.439000E+00	  0.026412826	-6.720000E-01
34	  0.026613226	-8.620000E-01	  0.026613226	1.797860E+02	  0.026613226	2.479000E+00	  0.026613226	9.200000E-02
35	  0.026813626	-8.770000E-01	  0.026813626	1.780070E+02	  0.026813626	2.523000E+00	  0.026813626	8.670000E-01
36	  0.027014028	-8.920000E-01	  0.027014028	1.762270E+02	  0.027014028	2.568000E+00	  0.027014028	1.642000E+00
37	  0.027214428	-9.070000E-01	  0.027214428	1.744410E+02	  0.027214428	2.615000E+00	  0.027214428	2.420000E+00
38	  0.027414829	-9.230000E-01	  0.027414829	1.726460E+02	  0.027414829	2.667000E+00	  0.027414829	3.204000E+00
39	  0.027615231	-9.400000E-01	  0.027615231	1.708250E+02	  0.027615231	2.723000E+00	  0.027615231	3.999000E+00
40	  0.027815631	-9.580000E-01	  0.027815631	1.690160E+02	  0.027815631	2.781000E+00	  0.027815631	4.792000E+00
41	  0.028016033	-9.770000E-01	  0.028016033	1.671810E+02	  0.028016033	2.844000E+00	  0.028016033	5.598000E+00
42	  0.028216433	-9.960000E-01	  0.028216433	1.653340E+02	  0.028216433	2.912000E+00	  0.028216433	6.412000E+00
43	  0.028416833	-1.016000E+00	  0.028416833	1.634790E+02	  0.028416833	2.984000E+00	  0.028416833	7.233000E+00
44	  0.028617235	-1.038000E+00	  0.028617235	1.616230E+02	  0.028617235	3.063000E+00	  0.028617235	8.057000E+00
45	  0.028817635	-1.059000E+00	  0.028817635	1.597550E+02	  0.028817635	3.141000E+00	  0.028817635	8.892000E+00
46	  0.029018037	-1.082000E+00	  0.029018037	1.579000E+02	  0.029018037	3.229000E+00	  0.029018037	9.725000E+00
47	  0.029218437	-1.107000E+00	  0.029218437	1.560200E+02	  0.029218437	3.325000E+00	  0.029218437	1.057300E+01
48	  0.029418837	-1.131000E+00	  0.029418837	1.541180E+02	  0.029418837	3.423000E+00	  0.029418837	1.143700E+01
49	  0.029619239	-1.158000E+00	  0.029619239	1.522100E+02	  0.029619239	3.531000E+00	  0.029619239	1.231000E+01
50	  0.029819639	-1.183000E+00	  0.029819639	1.503090E+02	  0.029819639	3.640000E+00	  0.029819639	1.318700E+01
51	  0.030020041	-1.211000E+00	  0.030020041	1.483860E+02	  0.030020041	3.758000E+00	  0.030020041	1.408000E+01
52	  0.030220442	-1.237000E+00	  0.030220442	1.464610E+02	  0.030220442	3.878000E+00	  0.030220442	1.498300E+01
53	  0.030420844	-1.265000E+00	  0.030420844	1.445450E+02	  0.030420844	4.006000E+00	  0.030420844	1.588900E+01
54	  0.030621244	-1.295000E+00	  0.030621244	1.426340E+02	  0.030621244	4.144000E+00	  0.030621244	1.680200E+01
55	  0.030821642	-1.325000E+00	  0.030821642	1.407150E+02	  0.030821642	4.290000E+00	  0.030821642	1.772900E+01
56	  0.031022044	-1.356000E+00	  0.031022044	1.387660E+02	  0.031022044	4.443000E+00	  0.031022044	1.868000E+01
57	  0.031222444	-1.382000E+00	  0.031222444	1.368370E+02	  0.031222444	4.587000E+00	  0.031222444	1.963300E+01
58	  0.031422846	-1.415000E+00	  0.031422846	1.348610E+02	  0.031422846	4.760000E+00	  0.031422846	2.062000E+01
59	  0.031623244	-1.449000E+00	  0.031623244	1.328700E+02	  0.031623244	4.946000E+00	  0.031623244	2.162800E+01
60	  0.031823646	-1.482000E+00	  0.031823646	1.308880E+02	  0.031823646	5.136000E+00	  0.031823646	2.264500E+01
61	  0.032024048	-1.516000E+00	  0.032024048	1.289030E+02	  0.032024048	5.339000E+00	  0.032024048	2.367800E+01
62	  0.032224450	-1.552000E+00	  0.032224450	1.269150E+02	  0.032224450	5.556000E+00	  0.032224450	2.472700E+01
63	  0.032424849	-1.588000E+00	  0.032424849	1.249170E+02	  0.032424849	5.785000E+00	  0.032424849	2.579800E+01
64	  0.032625251	-1.624000E+00	  0.032625251	1.229060E+02	  0.032625251	6.025000E+00	  0.032625251	2.689400E+01
65	  0.032825653	-1.660000E+00	  0.032825653	1.208740E+02	  0.032825653	6.280000E+00	  0.032825653	2.802100E+01
66	  0.033026051	-1.696000E+00	  0.033026051	1.188360E+02	  0.033026051	6.545000E+00	  0.033026051	2.917100E+01
67	  0.033226453	-1.732000E+00	  0.033226453	1.167760E+02	  0.033226453	6.825000E+00	  0.033226453	3.035700E+01
68	  0.033426855	-1.766000E+00	  0.033426855	1.147500E+02	  0.033426855	7.111000E+00	  0.033426855	3.154500E+01
69	  0.033627257	-1.809000E+00	  0.033627257	1.127100E+02	  0.033627257	7.450000E+00	  0.033627257	3.276100E+01
70	  0.033827655	-1.845000E+00	  0.033827655	1.106740E+02	  0.033827655	7.780000E+00	  0.033827655	3.400400E+01
71	  0.034028057	-1.885000E+00	  0.034028057	1.086160E+02	  0.034028057	8.145000E+00	  0.034028057	3.528500E+01
72	  0.034228459	-1.926000E+00	  0.034228459	1.065510E+02	  0.034228459	8.539000E+00	  0.034228459	3.659700E+01
73	  0.034428857	-1.967000E+00	  0.034428857	1.044920E+02	  0.034428857	8.954000E+00	  0.034428857	3.793700E+01
74	  0.034629259	-2.008000E+00	  0.034629259	1.023860E+02	  0.034629259	9.396000E+00	  0.034629259	3.934100E+01
75	  0.034829661	-2.052000E+00	  0.034829661	1.003170E+02	  0.034829661	9.876000E+00	  0.034829661	4.075000E+01
76	  0.035030060	-2.098000E+00	  0.035030060	9.823600E+01	  0.035030060	1.040000E+01	  0.035030060	4.220100E+01
77	  0.035230462	-2.143000E+00	  0.035230462	9.616100E+01	  0.035230462	1.095200E+01	  0.035230462	4.368500E+01
78	  0.035430863	-2.190000E+00	  0.035430863	9.406900E+01	  0.035430863	1.155400E+01	  0.035430863	4.521900E+01
79	  0.035631265	-2.237000E+00	  0.035631265	9.197900E+01	  0.035631265	1.219200E+01	  0.035631265	4.679200E+01
80	  0.035831664	-2.284000E+00	  0.035831664	8.988700E+01	  0.035831664	1.288100E+01	  0.035831664	4.841000E+01
81	  0.036032066	-2.333000E+00	  0.036032066	8.779300E+01	  0.036032066	1.362600E+01	  0.036032066	5.007200E+01
82	  0.036232468	-2.381000E+00	  0.036232468	8.572200E+01	  0.036232468	1.440800E+01	  0.036232468	5.176400E+01
83	  0.036432866	-2.430000E+00	  0.036432866	8.362200E+01	  0.036432866	1.527000E+01	  0.036432866	5.352600E+01
84	  0.036633268	-2.481000E+00	  0.036633268	8.152500E+01	  0.036633268	1.620200E+01	  0.036633268	5.533500E+01
85	  0.036833670	-2.532000E+00	  0.036833670	7.944200E+01	  0.036833670	1.720000E+01	  0.036833670	5.718200E+01
86	  0.037034072	-2.586000E+00	  0.037034072	7.734300E+01	  0.037034072	1.830000E+01	  0.037034072	5.909400E+01
87	  0.037234470	-2.637000E+00	  0.037234470	7.524800E+01	  0.037234470	1.946800E+01	  0.037234470	6.106300E+01
88	  0.037434869	-2.690000E+00	  0.037434869	7.315900E+01	  0.037434869	2.074100E+01	  0.037434869	6.308000E+01
89	  0.037635271	-2.743000E+00	  0.037635271	7.105100E+01	  0.037635271	2.212700E+01	  0.037635271	6.517700E+01
90	  0.037835669	-2.806000E+00	  0.037835669	6.891300E+01	  0.037835669	2.372700E+01	  0.037835669	6.732800E+01
91	  0.038036071	-2.867000E+00	  0.038036071	6.686700E+01	  0.038036071	2.538700E+01	  0.038036071	6.944000E+01
92	  0.038236473	-2.923000E+00	  0.038236473	6.480500E+01	  0.038236473	2.715600E+01	  0.038236473	7.164600E+01
93	  0.038436871	-2.979000E+00	  0.038436871	6.272000E+01	  0.038436871	2.909300E+01	  0.038436871	7.393300E+01
94	  0.038637273	-3.033000E+00	  0.038637273	6.065000E+01	  0.038637273	3.117800E+01	  0.038637273	7.626500E+01
95	  0.038837675	-3.083000E+00	  0.038837675	5.857700E+01	  0.038837675	3.342400E+01	  0.038837675	7.867100E+01
96	  0.039038073	-3.136000E+00	  0.039038073	5.650100E+01	  0.039038073	3.589300E+01	  0.039038073	8.112000E+01
97	  0.039238475	-3.188000E+00	  0.039238475	5.445000E+01	  0.039238475	3.856200E+01	  0.039238475	8.357900E+01
98	  0.039438877	-3.242000E+00	  0.039438877	5.237600E+01	  0.039438877	4.152400E+01	  0.039438877	8.608700E+01
99	  0.039639279	-3.295000E+00	  0.039639279	5.032800E+01	  0.039639279	4.472100E+01	  0.039639279	8.858300E+01
100	  0.039839678	-3.350000E+00	  0.039839678	4.824800E+01	  0.039839678	4.828300E+01	  0.039839678	9.111100E+01
101	  0.040040080	-3.398000E+00	  0.040040080	4.615400E+01	  0.040040080	5.214600E+01	  0.040040080	9.370900E+01
102	  0.040240481	-3.453000E+00	  0.040240481	4.409900E+01	  0.040240481	5.637700E+01	  0.040240481	9.613700E+01
103	  0.040440880	-3.502000E+00	  0.040440880	4.204800E+01	  0.040440880	6.095000E+01	  0.040440880	9.854500E+01
104	  0.040641282	-3.555000E+00	  0.040641282	4.000300E+01	  0.040641282	6.597400E+01	  0.040641282	1.007760E+02
105	  0.040841684	-3.602000E+00	  0.040841684	3.796700E+01	  0.040841684	7.139200E+01	  0.040841684	1.029100E+02
106	  0.041042086	-3.654000E+00	  0.041042086	3.594000E+01	  0.041042086	7.730900E+01	  0.041042086	1.047450E+02
107	  0.041242484	-3.705000E+00	  0.041242484	3.391200E+01	  0.041242484	8.374700E+01	  0.041242484	1.062740E+02
108	  0.041442886	-3.756000E+00	  0.041442886	3.188000E+01	  0.041442886	9.072500E+01	  0.041442886	1.074280E+02
109	  0.041643288	-3.801000E+00	  0.041643288	2.985100E+01	  0.041643288	9.821400E+01	  0.041643288	1.082020E+02
110	  0.041843686	-3.852000E+00	  0.041843686	2.782000E+01	  0.041843686	1.062800E+02	  0.041843686	1.082520E+02
111	  0.042044088	-3.899000E+00	  0.042044088	2.581100E+01	  0.042044088	1.147540E+02	  0.042044088	1.076320E+02
112	  0.042244490	-3.945000E+00	  0.042244490	2.378700E+01	  0.042244490	1.237510E+02	  0.042244490	1.062080E+02
113	  0.042444889	-3.992000E+00	  0.042444889	2.181700E+01	  0.042444889	1.328620E+02	  0.042444889	1.037430E+02
114	  0.042645290	-4.042000E+00	  0.042645290	1.981900E+01	  0.042645290	1.422930E+02	  0.042645290	1.000210E+02
115	  0.042845692	-4.087000E+00	  0.042845692	1.785000E+01	  0.042845692	1.516710E+02	  0.042845692	9.523800E+01
116	  0.043046094	-4.133000E+00	  0.043046094	1.585600E+01	  0.043046094	1.609860E+02	  0.043046094	8.902200E+01
117	  0.043246493	-4.179000E+00	  0.043246493	1.389600E+01	  0.043246493	1.697330E+02	  0.043246493	8.153900E+01
118	  0.043446895	-4.222000E+00	  0.043446895	1.193700E+01	  0.043446895	1.778430E+02	  0.043446895	7.277600E+01
119	  0.043647297	-4.264000E+00	  0.043647297	9.963000E+00	  0.043647297	1.850640E+02	  0.043647297	6.267200E+01
120	  0.043847695	-4.306000E+00	  0.043847695	8.033000E+00	  0.043847695	1.908680E+02	  0.043847695	5.165400E+01
121	  0.044048097	-4.350000E+00	  0.044048097	6.108000E+00	  0.044048097	1.951670E+02	  0.044048097	3.978100E+01
122	  0.044248499	-4.392000E+00	  0.044248499	4.185000E+00	  0.044248499	1.978860E+02	  0.044248499	2.737300E+01
123	  0.044448901	-4.432000E+00	  0.044448901	2.293000E+00	  0.044448901	1.990160E+02	  0.044448901	1.494800E+01
124	  0.044649299	-4.474000E+00	  0.044649299	3.930000E-01	  0.044649299	1.983530E+02	  0.044649299	2.533000E+00
125	  0.044849701	-4.512000E+00	  0.044849701	-1.492000E+00	  0.044849701	1.962970E+02	  0.044849701	-9.409000E+00
126	  0.045050103	-4.551000E+00	  0.045050103	-3.399000E+00	  0.045050103	1.927510E+02	  0.045050103	-2.084100E+01
127	  0.045250501	-4.589000E+00	  0.045250501	-5.265000E+00	  0.045250501	1.880970E+02	  0.045250501	-3.119900E+01
128	  0.045450903	-4.629000E+00	  0.045450903	-7.131000E+00	  0.045450903	1.823500E+02	  0.045450903	-4.052900E+01
129	  0.045651305	-4.670000E+00	  0.045651305	-9.007000E+00	  0.045651305	1.758000E+02	  0.045651305	-4.880500E+01
130	  0.045851704	-4.704000E+00	  0.045851704	-1.085400E+01	  0.045851704	1.690110E+02	  0.045851704	-5.599000E+01
131	  0.046052102	-4.739000E+00	  0.046052102	-1.269400E+01	  0.046052102	1.618570E+02	  0.046052102	-6.205500E+01
132	  0.046252504	-4.775000E+00	  0.046252504	-1.452700E+01	  0.046252504	1.545480E+02	  0.046252504	-6.707600E+01
133	  0.046452906	-4.810000E+00	  0.046452906	-1.635200E+01	  0.046452906	1.472810E+02	  0.046452906	-7.117200E+01
134	  0.046653304	-4.845000E+00	  0.046653304	-1.818400E+01	  0.046653304	1.400780E+02	  0.046653304	-7.444900E+01
135	  0.046853706	-4.876000E+00	  0.046853706	-2.000700E+01	  0.046853706	1.331160E+02	  0.046853706	-7.701800E+01
136	  0.047054108	-4.910000E+00	  0.047054108	-2.183300E+01	  0.047054108	1.263420E+02	  0.047054108	-7.883800E+01
137	  0.047254506	-4.940000E+00	  0.047254506	-2.366400E+01	  0.047254506	1.198690E+02	  0.047254506	-8.020000E+01
138	  0.047454908	-4.970000E+00	  0.047454908	-2.546000E+01	  0.047454908	1.138030E+02	  0.047454908	-8.100800E+01
139	  0.047655310	-5.003000E+00	  0.047655310	-2.725800E+01	  0.047655310	1.080300E+02	  0.047655310	-8.131300E+01
140	  0.047855709	-5.034000E+00	  0.047855709	-2.905000E+01	  0.047855709	1.026000E+02	  0.047855709	-8.131600E+01
141	  0.048056111	-5.063000E+00	  0.048056111	-3.082300E+01	  0.048056111	9.754200E+01	  0.048056111	-8.106100E+01
142	  0.048256513	-5.091000E+00	  0.048256513	-3.257900E+01	  0.048256513	9.282700E+01	  0.048256513	-8.057400E+01
143	  0.048456915	-5.120000E+00	  0.048456915	-3.434300E+01	  0.048456915	8.837600E+01	  0.048456915	-7.986600E+01
144	  0.048657313	-5.146000E+00	  0.048657313	-3.610100E+01	  0.048657313	8.421000E+01	  0.048657313	-7.902900E+01
145	  0.048857715	-5.168000E+00	  0.048857715	-3.785500E+01	  0.048857715	8.030000E+01	  0.048857715	-7.812800E+01
146	  0.049058117	-5.192000E+00	  0.049058117	-3.960900E+01	  0.049058117	7.663900E+01	  0.049058117	-7.706000E+01
147	  0.049258515	-5.213000E+00	  0.049258515	-4.134700E+01	  0.049258515	7.322600E+01	  0.049258515	-7.595700E+01
148	  0.049458917	-5.239000E+00	  0.049458917	-4.306100E+01	  0.049458917	7.008800E+01	  0.049458917	-7.471900E+01
149	  0.049659319	-5.263000E+00	  0.049659319	-4.477200E+01	  0.049659319	6.714400E+01	  0.049659319	-7.345900E+01
150	  0.049859721	-5.281000E+00	  0.049859721	-4.644700E+01	  0.049859721	6.441400E+01	  0.049859721	-7.224200E+01
151	  0.050060119	-5.302000E+00	  0.050060119	-4.811000E+01	  0.050060119	6.187700E+01	  0.050060119	-7.096600E+01
152	  0.050260521	-5.321000E+00	  0.050260521	-4.980000E+01	  0.050260521	5.944300E+01	  0.050260521	-6.966900E+01
153	  0.050460923	-5.338000E+00	  0.050460923	-5.147300E+01	  0.050460923	5.717200E+01	  0.050460923	-6.837700E+01
154	  0.050661322	-5.353000E+00	  0.050661322	-5.311800E+01	  0.050661322	5.505600E+01	  0.050661322	-6.711600E+01
155	  0.050861724	-5.369000E+00	  0.050861724	-5.476500E+01	  0.050861724	5.306500E+01	  0.050861724	-6.583300E+01
156	  0.051062126	-5.387000E+00	  0.051062126	-5.638800E+01	  0.051062126	5.122000E+01	  0.051062126	-6.455300E+01
157	  0.051262524	-5.403000E+00	  0.051262524	-5.796100E+01	  0.051262524	4.952900E+01	  0.051262524	-6.331900E+01
158	  0.051462926	-5.422000E+00	  0.051462926	-5.954700E+01	  0.051462926	4.792600E+01	  0.051462926	-6.206400E+01
159	  0.051663328	-5.437000E+00	  0.051663328	-6.112800E+01	  0.051663328	4.639400E+01	  0.051663328	-6.085100E+01
160	  0.051863730	-5.452000E+00	  0.051863730	-6.269200E+01	  0.051863730	4.496100E+01	  0.051863730	-5.965100E+01
161	  0.052064128	-5.461000E+00	  0.052064128	-6.425500E+01	  0.052064128	4.357800E+01	  0.052064128	-5.849500E+01
162	  0.052264530	-5.473000E+00	  0.052264530	-6.581700E+01	  0.052264530	4.227600E+01	  0.052264530	-5.733500E+01
163	  0.052464932	-5.486000E+00	  0.052464932	-6.733500E+01	  0.052464932	4.108600E+01	  0.052464932	-5.620300E+01
164	  0.052665330	-5.499000E+00	  0.052665330	-6.887300E+01	  0.052665330	3.993300E+01	  0.052665330	-5.507700E+01
165	  0.052865732	-5.509000E+00	  0.052865732	-7.036600E+01	  0.052865732	3.885900E+01	  0.052865732	-5.400400E+01
166	  0.053066134	-5.525000E+00	  0.053066134	-7.188100E+01	  0.053066134	3.784600E+01	  0.053066134	-5.290200E+01
167	  0.053266536	-5.538000E+00	  0.053266536	-7.336400E+01	  0.053266536	3.689100E+01	  0.053266536	-5.184800E+01
168	  0.053466935	-5.552000E+00	  0.053466935	-7.485300E+01	  0.053466935	3.598100E+01	  0.053466935	-5.079700E+01
169	  0.053667337	-5.566000E+00	  0.053667337	-7.635000E+01	  0.053667337	3.510900E+01	  0.053667337	-4.975500E+01
170	  0.053867739	-5.575000E+00	  0.053867739	-7.784900E+01	  0.053867739	3.425200E+01	  0.053867739	-4.874700E+01
171	  0.054068137	-5.585000E+00	  0.054068137	-7.932200E+01	  0.054068137	3.345500E+01	  0.054068137	-4.776300E+01
172	  0.054268539	-5.600000E+00	  0.054268539	-8.081100E+01	  0.054268539	3.270600E+01	  0.054268539	-4.676200E+01
173	  0.054468941	-5.610000E+00	  0.054468941	-8.225400E+01	  0.054468941	3.199100E+01	  0.054468941	-4.582300E+01
174	  0.054669335	-5.625000E+00	  0.054669335	-8.372100E+01	  0.054669335	3.131700E+01	  0.054669335	-4.486400E+01
175	  0.054869737	-5.637000E+00	  0.054869737	-8.516100E+01	  0.054869737	3.067600E+01	  0.054869737	-4.394200E+01
176	  0.055070139	-5.650000E+00	  0.055070139	-8.662900E+01	  0.055070139	3.005200E+01	  0.055070139	-4.301300E+01
177	  0.055270538	-5.661000E+00	  0.055270538	-8.806700E+01	  0.055270538	2.945900E+01	  0.055270538	-4.212200E+01
178	  0.055470940	-5.671000E+00	  0.055470940	-8.950200E+01	  0.055470940	2.888900E+01	  0.055470940	-4.124600E+01
179	  0.055671342	-5.680000E+00	  0.055671342	-9.095100E+01	  0.055671342	2.833000E+01	  0.055671342	-4.037600E+01
180	  0.055871744	-5.688000E+00	  0.055871744	-9.239300E+01	  0.055871744	2.779600E+01	  0.055871744	-3.952300E+01
181	  0.056072142	-5.698000E+00	  0.056072142	-9.381700E+01	  0.056072142	2.729800E+01	  0.056072142	-3.868600E+01
182	  0.056272544	-5.704000E+00	  0.056272544	-9.520500E+01	  0.056272544	2.682200E+01	  0.056272544	-3.788600E+01
183	  0.056472946	-5.713000E+00	  0.056472946	-9.664600E+01	  0.056472946	2.635400E+01	  0.056472946	-3.706100E+01
184	  0.056673344	-5.720000E+00	  0.056673344	-9.802800E+01	  0.056673344	2.591600E+01	  0.056673344	-3.628400E+01
185	  0.056873746	-5.730000E+00	  0.056873746	-9.940700E+01	  0.056873746	2.550700E+01	  0.056873746	-3.551000E+01
186	  0.057074148	-5.734000E+00	  0.057074148	-1.007940E+02	  0.057074148	2.509200E+01	  0.057074148	-3.475200E+01
187	  0.057274550	-5.741000E+00	  0.057274550	-1.021520E+02	  0.057274550	2.470900E+01	  0.057274550	-3.401400E+01
188	  0.057474948	-5.743000E+00	  0.057474948	-1.035290E+02	  0.057474948	2.432000E+01	  0.057474948	-3.328100E+01
189	  0.057675350	-5.747000E+00	  0.057675350	-1.048850E+02	  0.057675350	2.395700E+01	  0.057675350	-3.256400E+01
190	  0.057875752	-5.753000E+00	  0.057875752	-1.062340E+02	  0.057875752	2.361900E+01	  0.057875752	-3.185200E+01
191	  0.058076151	-5.757000E+00	  0.058076151	-1.075590E+02	  0.058076151	2.328800E+01	  0.058076151	-3.116600E+01
192	  0.058276553	-5.762000E+00	  0.058276553	-1.088760E+02	  0.058276553	2.297800E+01	  0.058276553	-3.048800E+01
193	  0.058476955	-5.766000E+00	  0.058476955	-1.101740E+02	  0.058476955	2.267900E+01	  0.058476955	-2.982700E+01
194	  0.058677353	-5.770000E+00	  0.058677353	-1.114820E+02	  0.058677353	2.238900E+01	  0.058677353	-2.916800E+01
195	  0.058877755	-5.773000E+00	  0.058877755	-1.127850E+02	  0.058877755	2.210700E+01	  0.058877755	-2.851800E+01
196	  0.059078157	-5.776000E+00	  0.059078157	-1.140630E+02	  0.059078157	2.184200E+01	  0.059078157	-2.788600E+01
197	  0.059278559	-5.778000E+00	  0.059278559	-1.153390E+02	  0.059278559	2.158000E+01	  0.059278559	-2.726200E+01
198	  0.059478957	-5.781000E+00	  0.059478957	-1.165990E+02	  0.059478957	2.133600E+01	  0.059478957	-2.665000E+01
199	  0.059679359	-5.788000E+00	  0.059679359	-1.178670E+02	  0.059679359	2.111200E+01	  0.059679359	-2.603300E+01
200	  0.059879761	-5.794000E+00	  0.059879761	-1.191040E+02	  0.059879761	2.089600E+01	  0.059879761	-2.543900E+01
201	  0.060080159	-5.794000E+00	  0.060080159	-1.203510E+02	  0.060080159	2.067000E+01	  0.060080159	-2.485000E+01
202	  0.060280561	-5.801000E+00	  0.060280561	-1.215720E+02	  0.060280561	2.047500E+01	  0.060280561	-2.427200E+01
203	  0.060480963	-5.807000E+00	  0.060480963	-1.227760E+02	  0.060480963	2.028700E+01	  0.060480963	-2.370600E+01
204	  0.060681365	-5.813000E+00	  0.060681365	-1.240140E+02	  0.060681365	2.010100E+01	  0.060681365	-2.312900E+01
205	  0.060881764	-5.815000E+00	  0.060881764	-1.252000E+02	  0.060881764	1.991900E+01	  0.060881764	-2.258400E+01
206	  0.061082166	-5.823000E+00	  0.061082166	-1.264290E+02	  0.061082166	1.975200E+01	  0.061082166	-2.201700E+01
207	  0.061282568	-5.825000E+00	  0.061282568	-1.276430E+02	  0.061282568	1.957600E+01	  0.061282568	-2.146800E+01
208	  0.061482966	-5.834000E+00	  0.061482966	-1.288410E+02	  0.061482966	1.943000E+01	  0.061482966	-2.092200E+01
209	  0.061683368	-5.837000E+00	  0.061683368	-1.300260E+02	  0.061683368	1.927400E+01	  0.061683368	-2.039100E+01
210	  0.061883770	-5.843000E+00	  0.061883770	-1.312070E+02	  0.061883770	1.913100E+01	  0.061883770	-1.986300E+01
211	  0.062084168	-5.847000E+00	  0.062084168	-1.323850E+02	  0.062084168	1.899000E+01	  0.062084168	-1.934100E+01
212	  0.062284570	-5.853000E+00	  0.062284570	-1.335580E+02	  0.062284570	1.886000E+01	  0.062284570	-1.882300E+01
213	  0.062484972	-5.850000E+00	  0.062484972	-1.346940E+02	  0.062484972	1.871300E+01	  0.062484972	-1.833100E+01
214	  0.062685370	-5.853000E+00	  0.062685370	-1.359280E+02	  0.062685370	1.857700E+01	  0.062685370	-1.779500E+01
215	  0.062885776	-5.855000E+00	  0.062885776	-1.370680E+02	  0.062885776	1.845300E+01	  0.062885776	-1.730300E+01
216	  0.063086174	-5.862000E+00	  0.063086174	-1.382290E+02	  0.063086174	1.834500E+01	  0.063086174	-1.680200E+01
217	  0.063286573	-5.861000E+00	  0.063286573	-1.393780E+02	  0.063286573	1.822200E+01	  0.063286573	-1.631300E+01
218	  0.063486971	-5.868000E+00	  0.063486971	-1.405430E+02	  0.063486971	1.812100E+01	  0.063486971	-1.581400E+01
219	  0.063687377	-5.863000E+00	  0.063687377	-1.416580E+02	  0.063687377	1.799900E+01	  0.063687377	-1.534700E+01
220	  0.063887775	-5.869000E+00	  0.063887775	-1.428120E+02	  0.063887775	1.790600E+01	  0.063887775	-1.485900E+01
221	  0.064088173	-5.866000E+00	  0.064088173	-1.439590E+02	  0.064088173	1.779300E+01	  0.064088173	-1.438100E+01
222	  0.064288579	-5.869000E+00	  0.064288579	-1.451100E+02	  0.064288579	1.770200E+01	  0.064288579	-1.390000E+01
223	  0.064488977	-5.870000E+00	  0.064488977	-1.462520E+02	  0.064488977	1.760600E+01	  0.064488977	-1.342700E+01
224	  0.064689375	-5.872000E+00	  0.064689375	-1.473540E+02	  0.064689375	1.752400E+01	  0.064689375	-1.297000E+01
225	  0.064889781	-5.876000E+00	  0.064889781	-1.485000E+02	  0.064889781	1.744400E+01	  0.064889781	-1.249700E+01
226	  0.065090179	-5.874000E+00	  0.065090179	-1.495940E+02	  0.065090179	1.735800E+01	  0.065090179	-1.205000E+01
227	  0.065290578	-5.880000E+00	  0.065290578	-1.506730E+02	  0.065290578	1.729600E+01	  0.065290578	-1.160600E+01
228	  0.065490983	-5.879000E+00	  0.065490983	-1.517840E+02	  0.065490983	1.721800E+01	  0.065490983	-1.115500E+01
229	  0.065691382	-5.878000E+00	  0.065691382	-1.528850E+02	  0.065691382	1.714300E+01	  0.065691382	-1.070800E+01
230	  0.065891780	-5.876000E+00	  0.065891780	-1.539810E+02	  0.065891780	1.706900E+01	  0.065891780	-1.026600E+01
231	  0.066092186	-5.883000E+00	  0.066092186	-1.550550E+02	  0.066092186	1.702300E+01	  0.066092186	-9.830000E+00
232	  0.066292584	-5.887000E+00	  0.066292584	-1.561380E+02	  0.066292584	1.697400E+01	  0.066292584	-9.393000E+00
233	  0.066492982	-5.886000E+00	  0.066492982	-1.572120E+02	  0.066492982	1.691200E+01	  0.066492982	-8.963000E+00
234	  0.066693388	-5.891000E+00	  0.066693388	-1.582820E+02	  0.066693388	1.687100E+01	  0.066693388	-8.533000E+00
235	  0.066893786	-5.892000E+00	  0.066893786	-1.593310E+02	  0.066893786	1.682200E+01	  0.066893786	-8.114000E+00
236	  0.067094192	-5.896000E+00	  0.067094192	-1.604020E+02	  0.067094192	1.678200E+01	  0.067094192	-7.687000E+00
237	  0.067294590	-5.899000E+00	  0.067294590	-1.614450E+02	  0.067294590	1.674300E+01	  0.067294590	-7.272000E+00
238	  0.067494988	-5.906000E+00	  0.067494988	-1.624720E+02	  0.067494988	1.672100E+01	  0.067494988	-6.863000E+00
239	  0.067695394	-5.902000E+00	  0.067695394	-1.635580E+02	  0.067695394	1.666700E+01	  0.067695394	-6.435000E+00
240	  0.067895792	-5.910000E+00	  0.067895792	-1.645940E+02	  0.067895792	1.665000E+01	  0.067895792	-6.024000E+00
241	  0.068096191	-5.920000E+00	  0.068096191	-1.656210E+02	  0.068096191	1.664300E+01	  0.068096191	-5.617000E+00
242	  0.068296596	-5.920000E+00	  0.068296596	-1.666770E+02	  0.068296596	1.660900E+01	  0.068296596	-5.202000E+00
243	  0.068496995	-5.924000E+00	  0.068496995	-1.677170E+02	  0.068496995	1.658900E+01	  0.068496995	-4.793000E+00
244	  0.068697393	-5.930000E+00	  0.068697393	-1.687560E+02	  0.068697393	1.657600E+01	  0.068697393	-4.385000E+00
245	  0.068897791	-5.933000E+00	  0.068897791	-1.697960E+02	  0.068897791	1.655900E+01	  0.068897791	-3.977000E+00
246	  0.069098189	-5.931000E+00	  0.069098189	-1.708210E+02	  0.069098189	1.653200E+01	  0.069098189	-3.577000E+00
247	  0.069298595	-5.936000E+00	  0.069298595	-1.718380E+02	  0.069298595	1.652600E+01	  0.069298595	-3.179000E+00
248	  0.069498993	-5.944000E+00	  0.069498993	-1.728820E+02	  0.069498993	1.652800E+01	  0.069498993	-2.770000E+00
249	  0.069699399	-5.949000E+00	  0.069699399	-1.739340E+02	  0.069699399	1.652400E+01	  0.069699399	-2.360000E+00
250	  0.069899797	-5.951000E+00	  0.069899797	-1.749250E+02	  0.069899797	1.651800E+01	  0.069899797	-1.974000E+00
251	  0.070100196	-5.954000E+00	  0.070100196	-1.759390E+02	  0.070100196	1.651600E+01	  0.070100196	-1.579000E+00
252	  0.070300601	-5.956000E+00	  0.070300601	-1.769610E+02	  0.070300601	1.651300E+01	  0.070300601	-1.181000E+00
253	  0.070501000	-5.959000E+00	  0.070501000	-1.779620E+02	  0.070501000	1.651400E+01	  0.070501000	-7.910000E-01
254	  0.070701398	-5.961000E+00	  0.070701398	-1.789630E+02	  0.070701398	1.651700E+01	  0.070701398	-4.020000E-01
255	  0.070901804	-5.967000E+00	  0.070901804	-1.799580E+02	  0.070901804	1.653000E+01	  0.070901804	-1.600000E-02
256	  0.071102202	-5.974000E+00	  0.071102202	1.790460E+02	  0.071102202	1.654900E+01	  0.071102202	3.700000E-01
257	  0.071302600	-5.975000E+00	  0.071302600	1.780390E+02	  0.071302600	1.655500E+01	  0.071302600	7.610000E-01
258	  0.071503006	-5.978000E+00	  0.071503006	1.770520E+02	  0.071503006	1.656900E+01	  0.071503006	1.145000E+00
259	  0.071703404	-5.987000E+00	  0.071703404	1.760820E+02	  0.071703404	1.660000E+01	  0.071703404	1.521000E+00
260	  0.071903802	-5.992000E+00	  0.071903802	1.751010E+02	  0.071903802	1.662000E+01	  0.071903802	1.902000E+00
261	  0.072104208	-5.992000E+00	  0.072104208	1.741110E+02	  0.072104208	1.663200E+01	  0.072104208	2.287000E+00
262	  0.072304606	-5.999000E+00	  0.072304606	1.731460E+02	  0.072304606	1.666400E+01	  0.072304606	2.662000E+00
263	  0.072505005	-6.005000E+00	  0.072505005	1.721960E+02	  0.072505005	1.669600E+01	  0.072505005	3.031000E+00
264	  0.072705410	-6.008000E+00	  0.072705410	1.712400E+02	  0.072705410	1.672200E+01	  0.072705410	3.403000E+00
265	  0.072905809	-6.013000E+00	  0.072905809	1.702690E+02	  0.072905809	1.675500E+01	  0.072905809	3.781000E+00
266	  0.073106214	-6.021000E+00	  0.073106214	1.693260E+02	  0.073106214	1.679700E+01	  0.073106214	4.147000E+00
267	  0.073306613	-6.028000E+00	  0.073306613	1.683590E+02	  0.073306613	1.684100E+01	  0.073306613	4.523000E+00
268	  0.073507011	-6.034000E+00	  0.073507011	1.674180E+02	  0.073507011	1.688200E+01	  0.073507011	4.890000E+00
269	  0.073707417	-6.042000E+00	  0.073707417	1.664920E+02	  0.073707417	1.693000E+01	  0.073707417	5.250000E+00
270	  0.073907815	-6.050000E+00	  0.073907815	1.655480E+02	  0.073907815	1.698200E+01	  0.073907815	5.618000E+00
271	  0.074108213	-6.058000E+00	  0.074108213	1.646140E+02	  0.074108213	1.703500E+01	  0.074108213	5.982000E+00
272	  0.074308619	-6.065000E+00	  0.074308619	1.636880E+02	  0.074308619	1.708600E+01	  0.074308619	6.344000E+00
273	  0.074509017	-6.071000E+00	  0.074509017	1.627360E+02	  0.074509017	1.713800E+01	  0.074509017	6.716000E+00
274	  0.074709415	-6.078000E+00	  0.074709415	1.618190E+02	  0.074709415	1.719500E+01	  0.074709415	7.074000E+00
275	  0.074909821	-6.084000E+00	  0.074909821	1.609060E+02	  0.074909821	1.725100E+01	  0.074909821	7.432000E+00
276	  0.075110219	-6.095000E+00	  0.075110219	1.599620E+02	  0.075110219	1.732100E+01	  0.075110219	7.801000E+00
277	  0.075310618	-6.104000E+00	  0.075310618	1.590610E+02	  0.075310618	1.738900E+01	  0.075310618	8.154000E+00
278	  0.075511023	-6.112000E+00	  0.075511023	1.581400E+02	  0.075511023	1.745700E+01	  0.075511023	8.515000E+00
279	  0.075711422	-6.116000E+00	  0.075711422	1.572570E+02	  0.075711422	1.751300E+01	  0.075711422	8.864000E+00
280	  0.075911827	-6.125000E+00	  0.075911827	1.563540E+02	  0.075911827	1.758900E+01	  0.075911827	9.219000E+00
281	  0.076112226	-6.137000E+00	  0.076112226	1.554460E+02	  0.076112226	1.767100E+01	  0.076112226	9.575000E+00
282	  0.076312624	-6.144000E+00	  0.076312624	1.545310E+02	  0.076312624	1.774400E+01	  0.076312624	9.937000E+00
283	  0.076513030	-6.155000E+00	  0.076513030	1.536470E+02	  0.076513030	1.783000E+01	  0.076513030	1.028500E+01
284	  0.076713428	-6.164000E+00	  0.076713428	1.527180E+02	  0.076713428	1.791300E+01	  0.076713428	1.065300E+01
285	  0.076913826	-6.169000E+00	  0.076913826	1.518280E+02	  0.076913826	1.798800E+01	  0.076913826	1.100700E+01
286	  0.077114232	-6.182000E+00	  0.077114232	1.509550E+02	  0.077114232	1.808200E+01	  0.077114232	1.135100E+01
287	  0.077314630	-6.187000E+00	  0.077314630	1.500830E+02	  0.077314630	1.816100E+01	  0.077314630	1.169900E+01
288	  0.077515028	-6.197000E+00	  0.077515028	1.491920E+02	  0.077515028	1.825400E+01	  0.077515028	1.205300E+01
289	  0.077715434	-6.207000E+00	  0.077715434	1.483100E+02	  0.077715434	1.834900E+01	  0.077715434	1.240500E+01
290	  0.077915832	-6.218000E+00	  0.077915832	1.474420E+02	  0.077915832	1.845000E+01	  0.077915832	1.275000E+01
291	  0.078116231	-6.229000E+00	  0.078116231	1.465630E+02	  0.078116231	1.855300E+01	  0.078116231	1.310000E+01
292	  0.078316636	-6.237000E+00	  0.078316636	1.456900E+02	  0.078316636	1.864800E+01	  0.078316636	1.345200E+01
293	  0.078517035	-6.248000E+00	  0.078517035	1.448070E+02	  0.078517035	1.875800E+01	  0.078517035	1.380500E+01
294	  0.078717433	-6.243000E+00	  0.078717433	1.440580E+02	  0.078717433	1.881200E+01	  0.078717433	1.411400E+01
295	  0.078917839	-6.254000E+00	  0.078917839	1.431980E+02	  0.078917839	1.892300E+01	  0.078917839	1.445900E+01
296	  0.079118237	-6.263000E+00	  0.079118237	1.423580E+02	  0.079118237	1.902900E+01	  0.079118237	1.479900E+01
297	  0.079318643	-6.274000E+00	  0.079318643	1.414650E+02	  0.079318643	1.914600E+01	  0.079318643	1.516000E+01
298	  0.079519041	-6.287000E+00	  0.079519041	1.406270E+02	  0.079519041	1.926900E+01	  0.079519041	1.549700E+01
299	  0.079719439	-6.299000E+00	  0.079719439	1.397580E+02	  0.079719439	1.939400E+01	  0.079719439	1.584800E+01
300	  0.079919845	-6.308000E+00	  0.079919845	1.389080E+02	  0.079919845	1.951100E+01	  0.079919845	1.619500E+01
301	  0.080120243	-6.321000E+00	  0.080120243	1.380340E+02	  0.080120243	1.964500E+01	  0.080120243	1.654800E+01
302	  0.080320641	-6.335000E+00	  0.080320641	1.371740E+02	  0.080320641	1.978200E+01	  0.080320641	1.689700E+01
303	  0.080521047	-6.349000E+00	  0.080521047	1.363020E+02	  0.080521047	1.992400E+01	  0.080521047	1.725100E+01
304	  0.080721445	-6.364000E+00	  0.080721445	1.354670E+02	  0.080721445	2.006600E+01	  0.080721445	1.758900E+01
305	  0.080921844	-6.380000E+00	  0.080921844	1.346140E+02	  0.080921844	2.021800E+01	  0.080921844	1.793500E+01
306	  0.081122249	-6.395000E+00	  0.081122249	1.337530E+02	  0.081122249	2.036900E+01	  0.081122249	1.828500E+01
307	  0.081322648	-6.407000E+00	  0.081322648	1.329230E+02	  0.081322648	2.051200E+01	  0.081322648	1.862600E+01
308	  0.081523046	-6.425000E+00	  0.081523046	1.320450E+02	  0.081523046	2.068200E+01	  0.081523046	1.898200E+01
309	  0.081723452	-6.443000E+00	  0.081723452	1.311860E+02	  0.081723452	2.085200E+01	  0.081723452	1.933000E+01
310	  0.081923850	-6.457000E+00	  0.081923850	1.303280E+02	  0.081923850	2.101400E+01	  0.081923850	1.968300E+01
311	  0.082124248	-6.474000E+00	  0.082124248	1.294700E+02	  0.082124248	2.118600E+01	  0.082124248	2.003400E+01
312	  0.082324654	-6.489000E+00	  0.082324654	1.286320E+02	  0.082324654	2.135500E+01	  0.082324654	2.037800E+01
313	  0.082525052	-6.513000E+00	  0.082525052	1.277970E+02	  0.082525052	2.155200E+01	  0.082525052	2.071200E+01
314	  0.082725458	-6.536000E+00	  0.082725458	1.269780E+02	  0.082725458	2.174500E+01	  0.082725458	2.104100E+01
315	  0.082925856	-6.553000E+00	  0.082925856	1.261480E+02	  0.082925856	2.192700E+01	  0.082925856	2.138100E+01
316	  0.083126254	-6.580000E+00	  0.083126254	1.253110E+02	  0.083126254	2.214400E+01	  0.083126254	2.171400E+01
317	  0.083326660	-6.599000E+00	  0.083326660	1.244800E+02	  0.083326660	2.233900E+01	  0.083326660	2.205300E+01
318	  0.083527058	-6.618000E+00	  0.083527058	1.236790E+02	  0.083527058	2.253300E+01	  0.083527058	2.237900E+01
319	  0.083727457	-6.643000E+00	  0.083727457	1.228970E+02	  0.083727457	2.274300E+01	  0.083727457	2.269100E+01
320	  0.083927862	-6.666000E+00	  0.083927862	1.221030E+02	  0.083927862	2.295400E+01	  0.083927862	2.301000E+01
321	  0.084128261	-6.686000E+00	  0.084128261	1.212930E+02	  0.084128261	2.316500E+01	  0.084128261	2.333800E+01
322	  0.084328659	-6.708000E+00	  0.084328659	1.205050E+02	  0.084328659	2.337800E+01	  0.084328659	2.365600E+01
323	  0.084529065	-6.734000E+00	  0.084529065	1.197570E+02	  0.084529065	2.360100E+01	  0.084529065	2.395100E+01
324	  0.084729463	-6.757000E+00	  0.084729463	1.189730E+02	  0.084729463	2.382300E+01	  0.084729463	2.426500E+01
325	  0.084929854	-6.779000E+00	  0.084929854	1.181720E+02	  0.084929854	2.405000E+01	  0.084929854	2.458900E+01
326	  0.085130259	-6.803000E+00	  0.085130259	1.173750E+02	  0.085130259	2.428500E+01	  0.085130259	2.490800E+01
327	  0.085330658	-6.829000E+00	  0.085330658	1.166050E+02	  0.085330658	2.452500E+01	  0.085330658	2.521200E+01
328	  0.085531056	-6.848000E+00	  0.085531056	1.158530E+02	  0.085531056	2.474500E+01	  0.085531056	2.551700E+01
329	  0.085731462	-6.876000E+00	  0.085731462	1.150770E+02	  0.085731462	2.500200E+01	  0.085731462	2.581900E+01
330	  0.085931860	-6.903000E+00	  0.085931860	1.143380E+02	  0.085931860	2.524900E+01	  0.085931860	2.610600E+01
331	  0.086132258	-6.929000E+00	  0.086132258	1.136280E+02	  0.086132258	2.548900E+01	  0.086132258	2.638300E+01
332	  0.086332664	-6.956000E+00	  0.086332664	1.128980E+02	  0.086332664	2.574200E+01	  0.086332664	2.666500E+01
333	  0.086533062	-6.979000E+00	  0.086533062	1.121760E+02	  0.086533062	2.598300E+01	  0.086533062	2.695000E+01
334	  0.086733460	-7.001000E+00	  0.086733460	1.114500E+02	  0.086733460	2.622900E+01	  0.086733460	2.723700E+01
335	  0.086933866	-7.025000E+00	  0.086933866	1.107330E+02	  0.086933866	2.647900E+01	  0.086933866	2.751700E+01
336	  0.087134264	-7.043000E+00	  0.087134264	1.100240E+02	  0.087134264	2.671400E+01	  0.087134264	2.780300E+01
337	  0.087334670	-7.071000E+00	  0.087334670	1.092820E+02	  0.087334670	2.699100E+01	  0.087334670	2.808600E+01
338	  0.087535068	-7.089000E+00	  0.087535068	1.085700E+02	  0.087535068	2.723300E+01	  0.087535068	2.837300E+01
339	  0.087735467	-7.110000E+00	  0.087735467	1.078930E+02	  0.087735467	2.748100E+01	  0.087735467	2.863800E+01
340	  0.087935872	-7.134000E+00	  0.087935872	1.071820E+02	  0.087935872	2.774900E+01	  0.087935872	2.891200E+01
341	  0.088136271	-7.156000E+00	  0.088136271	1.064650E+02	  0.088136271	2.801700E+01	  0.088136271	2.919200E+01
342	  0.088336669	-7.176000E+00	  0.088336669	1.057530E+02	  0.088336669	2.828100E+01	  0.088336669	2.947300E+01
343	  0.088537075	-7.196000E+00	  0.088537075	1.050720E+02	  0.088537075	2.854000E+01	  0.088537075	2.974000E+01
344	  0.088737473	-7.217000E+00	  0.088737473	1.043620E+02	  0.088737473	2.881600E+01	  0.088737473	3.001600E+01
345	  0.088937871	-7.237000E+00	  0.088937871	1.036540E+02	  0.088937871	2.908900E+01	  0.088937871	3.029500E+01
346	  0.089138277	-7.255000E+00	  0.089138277	1.029480E+02	  0.089138277	2.936000E+01	  0.089138277	3.057600E+01
347	  0.089338675	-7.278000E+00	  0.089338675	1.022500E+02	  0.089338675	2.965000E+01	  0.089338675	3.084100E+01
348	  0.089539073	-7.297000E+00	  0.089539073	1.015950E+02	  0.089539073	2.991700E+01	  0.089539073	3.109500E+01
349	  0.089739479	-7.323000E+00	  0.089739479	1.009140E+02	  0.089739479	3.021700E+01	  0.089739479	3.134400E+01
350	  0.089939877	-7.338000E+00	  0.089939877	1.001900E+02	  0.089939877	3.050400E+01	  0.089939877	3.163400E+01
351	  0.090140276	-7.368000E+00	  0.090140276	9.948300E+01	  0.090140276	3.083300E+01	  0.090140276	3.188500E+01
352	  0.090340681	-7.388000E+00	  0.090340681	9.882100E+01	  0.090340681	3.112200E+01	  0.090340681	3.213500E+01
353	  0.090541080	-7.413000E+00	  0.090541080	9.809000E+01	  0.090541080	3.145200E+01	  0.090541080	3.240500E+01
354	  0.090741485	-7.434000E+00	  0.090741485	9.742000E+01	  0.090741485	3.175500E+01	  0.090741485	3.265400E+01
355	  0.090941884	-7.458000E+00	  0.090941884	9.671900E+01	  0.090941884	3.208300E+01	  0.090941884	3.290700E+01
356	  0.091142282	-7.489000E+00	  0.091142282	9.605000E+01	  0.091142282	3.242200E+01	  0.091142282	3.313000E+01
357	  0.091342688	-7.517000E+00	  0.091342688	9.536100E+01	  0.091342688	3.276400E+01	  0.091342688	3.336600E+01
358	  0.091543086	-7.553000E+00	  0.091543086	9.468000E+01	  0.091543086	3.313100E+01	  0.091543086	3.357700E+01
359	  0.091743484	-7.580000E+00	  0.091743484	9.395800E+01	  0.091743484	3.349300E+01	  0.091743484	3.382500E+01
360	  0.091943890	-7.613000E+00	  0.091943890	9.331000E+01	  0.091943890	3.384700E+01	  0.091943890	3.402200E+01
361	  0.092144288	-7.642000E+00	  0.092144288	9.262600E+01	  0.092144288	3.420700E+01	  0.092144288	3.424500E+01
362	  0.092344686	-7.682000E+00	  0.092344686	9.193600E+01	  0.092344686	3.460800E+01	  0.092344686	3.443500E+01
363	  0.092545092	-7.707000E+00	  0.092545092	9.129100E+01	  0.092545092	3.494900E+01	  0.092545092	3.464700E+01
364	  0.092745490	-7.747000E+00	  0.092745490	9.065300E+01	  0.092745490	3.533500E+01	  0.092745490	3.480900E+01
365	  0.092945889	-7.783000E+00	  0.092945889	9.001600E+01	  0.092945889	3.571300E+01	  0.092945889	3.497800E+01
366	  0.093146294	-7.818000E+00	  0.093146294	8.938600E+01	  0.093146294	3.608900E+01	  0.093146294	3.514500E+01
367	  0.093346693	-7.853000E+00	  0.093346693	8.874900E+01	  0.093346693	3.646800E+01	  0.093346693	3.531400E+01
368	  0.093547091	-7.887000E+00	  0.093547091	8.815300E+01	  0.093547091	3.683400E+01	  0.093547091	3.546100E+01
369	  0.093747497	-7.928000E+00	  0.093747497	8.757800E+01	  0.093747497	3.720900E+01	  0.093747497	3.557900E+01
370	  0.093947895	-7.958000E+00	  0.093947895	8.696100E+01	  0.093947895	3.757900E+01	  0.093947895	3.574200E+01
371	  0.094148301	-7.994000E+00	  0.094148301	8.637700E+01	  0.094148301	3.795400E+01	  0.094148301	3.586800E+01
372	  0.094348699	-8.024000E+00	  0.094348699	8.580300E+01	  0.094348699	3.830800E+01	  0.094348699	3.600900E+01
373	  0.094549097	-8.059000E+00	  0.094549097	8.527200E+01	  0.094549097	3.865800E+01	  0.094549097	3.611300E+01
374	  0.094749503	-8.087000E+00	  0.094749503	8.470200E+01	  0.094749503	3.901200E+01	  0.094749503	3.625000E+01
375	  0.094949901	-8.121000E+00	  0.094949901	8.414200E+01	  0.094949901	3.937900E+01	  0.094949901	3.636300E+01
376	  0.095150299	-8.150000E+00	  0.095150299	8.362900E+01	  0.095150299	3.971300E+01	  0.095150299	3.646900E+01
377	  0.095350705	-8.176000E+00	  0.095350705	8.306300E+01	  0.095350705	4.006900E+01	  0.095350705	3.660200E+01
378	  0.095551103	-8.201000E+00	  0.095551103	8.249400E+01	  0.095551103	4.042500E+01	  0.095551103	3.673900E+01
379	  0.095751502	-8.230000E+00	  0.095751502	8.194400E+01	  0.095751502	4.078500E+01	  0.095751502	3.685200E+01
380	  0.095951907	-8.248000E+00	  0.095951907	8.139200E+01	  0.095951907	4.112300E+01	  0.095951907	3.699800E+01
381	  0.096152306	-8.271000E+00	  0.096152306	8.083500E+01	  0.096152306	4.147800E+01	  0.096152306	3.712800E+01
382	  0.096352704	-8.299000E+00	  0.096352704	8.029000E+01	  0.096352704	4.184200E+01	  0.096352704	3.723200E+01
383	  0.096553110	-8.324000E+00	  0.096553110	7.972800E+01	  0.096553110	4.221100E+01	  0.096553110	3.735000E+01
384	  0.096753508	-8.345000E+00	  0.096753508	7.917600E+01	  0.096753508	4.256700E+01	  0.096753508	3.747600E+01
385	  0.096953906	-8.370000E+00	  0.096953906	7.864300E+01	  0.096953906	4.292600E+01	  0.096953906	3.757700E+01
386	  0.097154312	-8.402000E+00	  0.097154312	7.808200E+01	  0.097154312	4.331800E+01	  0.097154312	3.766000E+01
387	  0.097354710	-8.421000E+00	  0.097354710	7.752000E+01	  0.097354710	4.368500E+01	  0.097354710	3.778600E+01
388	  0.097555116	-8.451000E+00	  0.097555116	7.698100E+01	  0.097555116	4.406700E+01	  0.097555116	3.786000E+01
389	  0.097755514	-8.482000E+00	  0.097755514	7.643800E+01	  0.097755514	4.445500E+01	  0.097755514	3.792700E+01
390	  0.097955912	-8.512000E+00	  0.097955912	7.589700E+01	  0.097955912	4.484200E+01	  0.097955912	3.799600E+01
391	  0.098156318	-8.539000E+00	  0.098156318	7.536500E+01	  0.098156318	4.521900E+01	  0.098156318	3.806900E+01
392	  0.098356716	-8.573000E+00	  0.098356716	7.485100E+01	  0.098356716	4.560500E+01	  0.098356716	3.809900E+01
393	  0.098557115	-8.605000E+00	  0.098557115	7.429100E+01	  0.098557115	4.601400E+01	  0.098557115	3.815300E+01
394	  0.098757520	-8.635000E+00	  0.098757520	7.380200E+01	  0.098757520	4.637900E+01	  0.098757520	3.818600E+01
395	  0.098957919	-8.670000E+00	  0.098957919	7.327500E+01	  0.098957919	4.677800E+01	  0.098957919	3.820800E+01
396	  0.099158317	-8.705000E+00	  0.099158317	7.275300E+01	  0.099158317	4.717600E+01	  0.099158317	3.822200E+01
397	  0.099358723	-8.737000E+00	  0.099358723	7.229900E+01	  0.099358723	4.752600E+01	  0.099358723	3.822600E+01
398	  0.099559121	-8.774000E+00	  0.099559121	7.179900E+01	  0.099559121	4.791600E+01	  0.099559121	3.821700E+01
399	  0.099759519	-8.809000E+00	  0.099759519	7.132900E+01	  0.099759519	4.828300E+01	  0.099759519	3.820600E+01
400	  0.099959925	-8.828000E+00	  0.099959925	7.088700E+01	  0.099959925	4.860500E+01	  0.099959925	3.824700E+01
401	  0.100160323	-8.865000E+00	  0.100160323	7.044100E+01	  0.100160323	4.896300E+01	  0.100160323	3.821100E+01
402	  0.100360721	-8.895000E+00	  0.100360721	6.996800E+01	  0.100360721	4.932600E+01	  0.100360721	3.820900E+01
403	  0.100561127	-8.918000E+00	  0.100561127	6.962600E+01	  0.100561127	4.959200E+01	  0.100561127	3.819900E+01
404	  0.100761525	-8.948000E+00	  0.100761525	6.913600E+01	  0.100761525	4.996800E+01	  0.100761525	3.819600E+01
405	  0.100961931	-8.983000E+00	  0.100961931	6.868900E+01	  0.100961931	5.032400E+01	  0.100961931	3.815500E+01
406	  0.101162329	-8.993000E+00	  0.101162329	6.831100E+01	  0.101162329	5.059500E+01	  0.101162329	3.820300E+01
407	  0.101362728	-9.020000E+00	  0.101362728	6.795500E+01	  0.101362728	5.087900E+01	  0.101362728	3.816900E+01
408	  0.101563133	-9.036000E+00	  0.101563133	6.756900E+01	  0.101563133	5.116500E+01	  0.101563133	3.819000E+01
409	  0.101763532	-9.068000E+00	  0.101763532	6.719000E+01	  0.101763532	5.147300E+01	  0.101763532	3.813200E+01
410	  0.101963930	-9.074000E+00	  0.101963930	6.683900E+01	  0.101963930	5.172400E+01	  0.101963930	3.818200E+01
411	  0.102164328	-9.099000E+00	  0.102164328	6.640600E+01	  0.102164328	5.205900E+01	  0.102164328	3.816700E+01
412	  0.102364726	-9.105000E+00	  0.102364726	6.602700E+01	  0.102364726	5.233200E+01	  0.102364726	3.822100E+01
413	  0.102565125	-9.113000E+00	  0.102565125	6.561800E+01	  0.102565125	5.263000E+01	  0.102565125	3.827000E+01
414	  0.102765530	-9.116000E+00	  0.102765530	6.521200E+01	  0.102765530	5.292000E+01	  0.102765530	3.834100E+01
415	  0.102965929	-9.122000E+00	  0.102965929	6.483100E+01	  0.102965929	5.320000E+01	  0.102965929	3.838700E+01
416	  0.103166327	-9.131000E+00	  0.103166327	6.444400E+01	  0.103166327	5.348700E+01	  0.103166327	3.842200E+01
417	  0.103366733	-9.128000E+00	  0.103366733	6.405500E+01	  0.103366733	5.376400E+01	  0.103366733	3.850900E+01
418	  0.103567131	-9.138000E+00	  0.103567131	6.357100E+01	  0.103567131	5.412800E+01	  0.103567131	3.855100E+01
419	  0.103767529	-9.141000E+00	  0.103767529	6.319100E+01	  0.103767529	5.440900E+01	  0.103767529	3.860700E+01
420	  0.103967935	-9.149000E+00	  0.103967935	6.275900E+01	  0.103967935	5.473700E+01	  0.103967935	3.864400E+01
421	  0.104168333	-9.151000E+00	  0.104168333	6.236500E+01	  0.104168333	5.503000E+01	  0.104168333	3.870400E+01
422	  0.104368731	-9.158000E+00	  0.104368731	6.192400E+01	  0.104368731	5.536600E+01	  0.104368731	3.874400E+01
423	  0.104569137	-9.160000E+00	  0.104569137	6.153800E+01	  0.104569137	5.565900E+01	  0.104569137	3.879600E+01
424	  0.104769535	-9.172000E+00	  0.104769535	6.111100E+01	  0.104769535	5.599400E+01	  0.104769535	3.880000E+01
425	  0.104969934	-9.174000E+00	  0.104969934	6.066200E+01	  0.104969934	5.633900E+01	  0.104969934	3.885500E+01
426	  0.105170339	-9.171000E+00	  0.105170339	6.025800E+01	  0.105170339	5.664500E+01	  0.105170339	3.893000E+01
427	  0.105370738	-9.185000E+00	  0.105370738	5.984900E+01	  0.105370738	5.697400E+01	  0.105370738	3.891600E+01
428	  0.105571143	-9.189000E+00	  0.105571143	5.941700E+01	  0.105571143	5.731200E+01	  0.105571143	3.895400E+01
429	  0.105771542	-9.195000E+00	  0.105771542	5.895600E+01	  0.105771542	5.767800E+01	  0.105771542	3.897900E+01
430	  0.105971940	-9.204000E+00	  0.105971940	5.853800E+01	  0.105971940	5.801400E+01	  0.105971940	3.897800E+01
431	  0.106172346	-9.199000E+00	  0.106172346	5.814000E+01	  0.106172346	5.832600E+01	  0.106172346	3.904900E+01
432	  0.106372744	-9.205000E+00	  0.106372744	5.766500E+01	  0.106372744	5.870800E+01	  0.106372744	3.906800E+01
433	  0.106573142	-9.203000E+00	  0.106573142	5.725900E+01	  0.106573142	5.903300E+01	  0.106573142	3.911900E+01
434	  0.106773548	-9.207000E+00	  0.106773548	5.677300E+01	  0.106773548	5.942800E+01	  0.106773548	3.914300E+01
435	  0.106973946	-9.205000E+00	  0.106973946	5.630800E+01	  0.106973946	5.980700E+01	  0.106973946	3.919400E+01
436	  0.107174344	-9.209000E+00	  0.107174344	5.586200E+01	  0.107174344	6.017600E+01	  0.107174344	3.920200E+01
437	  0.107374750	-9.207000E+00	  0.107374750	5.542700E+01	  0.107374750	6.053400E+01	  0.107374750	3.924600E+01
438	  0.107575148	-9.208000E+00	  0.107575148	5.491200E+01	  0.107575148	6.096300E+01	  0.107575148	3.926900E+01
439	  0.107775547	-9.194000E+00	  0.107775547	5.445700E+01	  0.107775547	6.134000E+01	  0.107775547	3.937500E+01
440	  0.107975952	-9.181000E+00	  0.107975952	5.395200E+01	  0.107975952	6.176300E+01	  0.107975952	3.947000E+01
441	  0.108176351	-9.180000E+00	  0.108176351	5.344600E+01	  0.108176351	6.219600E+01	  0.108176351	3.949400E+01
442	  0.108376749	-9.163000E+00	  0.108376749	5.292300E+01	  0.108376749	6.264300E+01	  0.108376749	3.960500E+01
443	  0.108577155	-9.156000E+00	  0.108577155	5.240400E+01	  0.108577155	6.309300E+01	  0.108577155	3.965800E+01
444	  0.108777553	-9.149000E+00	  0.108777553	5.180500E+01	  0.108777553	6.361800E+01	  0.108777553	3.970200E+01
445	  0.108977959	-9.142000E+00	  0.108977959	5.125400E+01	  0.108977959	6.410700E+01	  0.108977959	3.974400E+01
446	  0.109178357	-9.124000E+00	  0.109178357	5.066400E+01	  0.109178357	6.463600E+01	  0.109178357	3.984400E+01
447	  0.109378755	-9.112000E+00	  0.109378755	5.010600E+01	  0.109378755	6.514100E+01	  0.109378755	3.990300E+01
448	  0.109579161	-9.104000E+00	  0.109579161	4.949300E+01	  0.109579161	6.570100E+01	  0.109579161	3.993000E+01
449	  0.109779559	-9.088000E+00	  0.109779559	4.887600E+01	  0.109779559	6.627400E+01	  0.109779559	4.000200E+01
450	  0.109979957	-9.077000E+00	  0.109979957	4.828800E+01	  0.109979957	6.682500E+01	  0.109979957	4.003700E+01
451	  0.110180363	-9.061000E+00	  0.110180363	4.763600E+01	  0.110180363	6.744400E+01	  0.110180363	4.009100E+01
452	  0.110380761	-9.061000E+00	  0.110380761	4.701900E+01	  0.110380761	6.802900E+01	  0.110380761	4.004100E+01
453	  0.110581160	-9.048000E+00	  0.110581160	4.640400E+01	  0.110581160	6.862500E+01	  0.110581160	4.006000E+01
454	  0.110781565	-9.030000E+00	  0.110781565	4.580200E+01	  0.110781565	6.921900E+01	  0.110781565	4.010700E+01
455	  0.110981964	-9.019000E+00	  0.110981964	4.510200E+01	  0.110981964	6.991000E+01	  0.110981964	4.008900E+01
456	  0.111182362	-9.015000E+00	  0.111182362	4.449700E+01	  0.111182362	7.050700E+01	  0.111182362	4.002300E+01
457	  0.111382768	-9.006000E+00	  0.111382768	4.384700E+01	  0.111382768	7.116000E+01	  0.111382768	3.998400E+01
458	  0.111583166	-9.002000E+00	  0.111583166	4.316900E+01	  0.111583166	7.184100E+01	  0.111583166	3.988700E+01
459	  0.111783572	-8.996000E+00	  0.111783572	4.252600E+01	  0.111783572	7.249400E+01	  0.111783572	3.980300E+01
460	  0.111983970	-8.994000E+00	  0.111983970	4.186000E+01	  0.111983970	7.316800E+01	  0.111983970	3.966900E+01
461	  0.112184368	-8.988000E+00	  0.112184368	4.116200E+01	  0.112184368	7.388900E+01	  0.112184368	3.955000E+01
462	  0.112384774	-8.994000E+00	  0.112384774	4.050100E+01	  0.112384774	7.455200E+01	  0.112384774	3.933800E+01
463	  0.112585172	-8.994000E+00	  0.112585172	3.981500E+01	  0.112585172	7.525800E+01	  0.112585172	3.915400E+01
464	  0.112785570	-8.994000E+00	  0.112785570	3.914900E+01	  0.112785570	7.594400E+01	  0.112785570	3.895600E+01
465	  0.112985976	-8.997000E+00	  0.112985976	3.844000E+01	  0.112985976	7.667200E+01	  0.112985976	3.871200E+01
466	  0.113186374	-8.993000E+00	  0.113186374	3.770900E+01	  0.113186374	7.743900E+01	  0.113186374	3.849000E+01
467	  0.113386773	-9.004000E+00	  0.113386773	3.702300E+01	  0.113386773	7.812700E+01	  0.113386773	3.816800E+01
468	  0.113587178	-8.995000E+00	  0.113587178	3.631200E+01	  0.113587178	7.889100E+01	  0.113587178	3.795100E+01
469	  0.113787577	-9.008000E+00	  0.113787577	3.550300E+01	  0.113787577	7.970100E+01	  0.113787577	3.752700E+01
470	  0.113987975	-9.005000E+00	  0.113987975	3.476000E+01	  0.113987975	8.048700E+01	  0.113987975	3.722400E+01
471	  0.114188381	-9.019000E+00	  0.114188381	3.396800E+01	  0.114188381	8.127100E+01	  0.114188381	3.676000E+01
472	  0.114388779	-9.012000E+00	  0.114388779	3.314400E+01	  0.114388779	8.215300E+01	  0.114388779	3.639900E+01
473	  0.114589177	-9.022000E+00	  0.114589177	3.234000E+01	  0.114589177	8.295600E+01	  0.114589177	3.590600E+01
474	  0.114789583	-9.028000E+00	  0.114789583	3.149200E+01	  0.114789583	8.381400E+01	  0.114789583	3.539500E+01
475	  0.114989981	-9.037000E+00	  0.114989981	3.059300E+01	  0.114989981	8.470500E+01	  0.114989981	3.480200E+01
476	  0.115190387	-9.043000E+00	  0.115190387	2.975500E+01	  0.115190387	8.554200E+01	  0.115190387	3.424400E+01
477	  0.115390785	-9.058000E+00	  0.115390785	2.882400E+01	  0.115390785	8.642600E+01	  0.115390785	3.353600E+01
478	  0.115591183	-9.064000E+00	  0.115591183	2.796700E+01	  0.115591183	8.726000E+01	  0.115591183	3.290500E+01
479	  0.115791589	-9.081000E+00	  0.115791589	2.697300E+01	  0.115791589	8.816600E+01	  0.115791589	3.207400E+01
480	  0.115991987	-9.091000E+00	  0.115991987	2.606600E+01	  0.115991987	8.900500E+01	  0.115991987	3.132200E+01
481	  0.116192386	-9.103000E+00	  0.116192386	2.510700E+01	  0.116192386	8.987200E+01	  0.116192386	3.049100E+01
482	  0.116392791	-9.117000E+00	  0.116392791	2.415700E+01	  0.116392791	9.069200E+01	  0.116392791	2.961100E+01
483	  0.116593190	-9.136000E+00	  0.116593190	2.317200E+01	  0.116593190	9.149600E+01	  0.116593190	2.864300E+01
484	  0.116793588	-9.160000E+00	  0.116793588	2.215200E+01	  0.116793588	9.227600E+01	  0.116793588	2.758700E+01
485	  0.116993994	-9.176000E+00	  0.116993994	2.114500E+01	  0.116993994	9.305800E+01	  0.116993994	2.655200E+01
486	  0.117194392	-9.195000E+00	  0.117194392	2.014000E+01	  0.117194392	9.379100E+01	  0.117194392	2.547400E+01
487	  0.117394790	-9.217000E+00	  0.117394790	1.909000E+01	  0.117394790	9.450500E+01	  0.117394790	2.430200E+01
488	  0.117595196	-9.245000E+00	  0.117595196	1.810000E+01	  0.117595196	9.508700E+01	  0.117595196	2.313100E+01
489	  0.117795594	-9.273000E+00	  0.117795594	1.705800E+01	  0.117795594	9.567600E+01	  0.117795594	2.188700E+01
490	  0.117995992	-9.304000E+00	  0.117995992	1.602000E+01	  0.117995992	9.618900E+01	  0.117995992	2.060800E+01
491	  0.118196398	-9.338000E+00	  0.118196398	1.495700E+01	  0.118196398	9.664900E+01	  0.118196398	1.926800E+01
492	  0.118396796	-9.379000E+00	  0.118396796	1.391200E+01	  0.118396796	9.700000E+01	  0.118396796	1.790900E+01
493	  0.118597202	-9.410000E+00	  0.118597202	1.280200E+01	  0.118597202	9.741100E+01	  0.118597202	1.650000E+01
494	  0.118797600	-9.459000E+00	  0.118797600	1.175800E+01	  0.118797600	9.759100E+01	  0.118797600	1.509500E+01
