! Anritsu VNA Master:             	Model: MS2036C/10/77
! SN:             	1601066
! /bd0/18may07/256.ew.m2.txt
! Existing Calibration Information:
! TYPE:             	Current Settings	Active Cal Settings
! TIME:             	05/07/2018 11:52:23 AM	05/07/2018 11:47:21 AM
! INTERNAL TEMP:    	52.5 C	52.0 C
! # POINTS:         	500	500
! START FREQ:       	20.000 MHz	20.000 MHz
! STOP FREQ:        	120.000 MHz	120.000 MHz
! SOURCE POWER:     	High	High
! IFBW:             	50 Hz	50 Hz
! AVG FACTOR:       	  1 	  1 
! REF PLANE 1:      	0 mm	0 mm
! REF PLANE 2:      	0 mm	0 mm
! CAL TYPE:         	Full S11	Full S11
! CAL METHOD:       	SOLT	SOLT
! CAL LINE TYPE:    	Coax	Coax
! DUT PORT 1:       	K-Conn(F)	K-Conn(F)
! DUT PORT 2:       	K-Conn(F)	K-Conn(F)
! CAL STATUS:       	OK: Accuracy High	--
! PROP-V:       	0.700
! CABLE LOSS:       	0.000 dB/m
! REF IMPEDANCE:       	50.0
! Trace Specific Parameters:	TR1	TR2	TR3	TR4
! TRACE.#.Y (GRAPH TYPE)	LOG MAG	PHASE	REAL IMPEDANCE	IMAGINARY IMPEDANCE
! TRACE.#.X 	FREQ.GHZ	FREQ.GHZ	FREQ.GHZ	FREQ.GHZ
! S-PARAMETER	S11	S11	S11	S11
! SMOOTH/APERTURE %	0	0	0	0
! WINDOW	NSL	NSL	NSL	NSL
! GATING	OFF	OFF	OFF	OFF
! FGTD	OFF	OFF	OFF	OFF
Marker Information per Trace:	TR1	TR2	TR3	TR4
!MK1	--	"MK1 TR2:  20.000 MHz,PH:-125.84°"	--	--
!MK2	--	--	"MK2 TR3:  70.100 200 MHz,Z:(16.328 ohm, -2.916 ohm)"	--
!MK3	--	--	--	--
!MK4	--	--	--	--
!MK5	--	--	--	--
!MK6	--	--	--	--
!MK7	--	--	--	--
!MK8	--	--	--	--
PNT	TR1.FREQ.GHZ	TR1.LOG MAG.dB	TR2.FREQ.GHZ	TR2.PHASE.deg	TR3.FREQ.GHZ	TR3.REAL IMPEDANCE.ohm	TR4.FREQ.GHZ	TR4.IMAGINARY IMPEDANCE.ohm
1	  0.020000000	-6.190000E-01	  0.020000000	-1.258420E+02	  0.020000000	2.247000E+00	  0.020000000	-2.552100E+01
2	  0.020200402	-6.180000E-01	  0.020200402	-1.273080E+02	  0.020200402	2.215000E+00	  0.020200402	-2.472200E+01
3	  0.020400802	-6.200000E-01	  0.020400802	-1.287530E+02	  0.020400802	2.193000E+00	  0.020400802	-2.394300E+01
4	  0.020601204	-6.210000E-01	  0.020601204	-1.302160E+02	  0.020601204	2.170000E+00	  0.020601204	-2.316400E+01
5	  0.020801604	-6.250000E-01	  0.020801604	-1.317000E+02	  0.020801604	2.160000E+00	  0.020801604	-2.238300E+01
6	  0.021002004	-6.320000E-01	  0.021002004	-1.332100E+02	  0.021002004	2.159000E+00	  0.021002004	-2.159700E+01
7	  0.021202406	-6.410000E-01	  0.021202406	-1.347500E+02	  0.021202406	2.164000E+00	  0.021202406	-2.080400E+01
8	  0.021402806	-6.450000E-01	  0.021402806	-1.362720E+02	  0.021402806	2.154000E+00	  0.021402806	-2.003000E+01
9	  0.021603208	-6.510000E-01	  0.021603208	-1.378020E+02	  0.021603208	2.152000E+00	  0.021603208	-1.926100E+01
10	  0.021803608	-6.560000E-01	  0.021803608	-1.393380E+02	  0.021803608	2.148000E+00	  0.021803608	-1.849500E+01
11	  0.022004008	-6.610000E-01	  0.022004008	-1.408790E+02	  0.022004008	2.143000E+00	  0.022004008	-1.773500E+01
12	  0.022204408	-6.670000E-01	  0.022204408	-1.424330E+02	  0.022204408	2.142000E+00	  0.022204408	-1.697700E+01
13	  0.022404809	-6.730000E-01	  0.022404809	-1.440040E+02	  0.022404809	2.142000E+00	  0.022404809	-1.621600E+01
14	  0.022605211	-6.810000E-01	  0.022605211	-1.455930E+02	  0.022605211	2.148000E+00	  0.022605211	-1.545400E+01
15	  0.022805611	-6.820000E-01	  0.022805611	-1.471900E+02	  0.022805611	2.133000E+00	  0.022805611	-1.469500E+01
16	  0.023006011	-6.860000E-01	  0.023006011	-1.487830E+02	  0.023006011	2.128000E+00	  0.023006011	-1.394400E+01
17	  0.023206413	-6.890000E-01	  0.023206413	-1.503700E+02	  0.023206413	2.121000E+00	  0.023206413	-1.320200E+01
18	  0.023406813	-6.910000E-01	  0.023406813	-1.519470E+02	  0.023406813	2.113000E+00	  0.023406813	-1.246900E+01
19	  0.023607215	-6.980000E-01	  0.023607215	-1.535360E+02	  0.023607215	2.121000E+00	  0.023607215	-1.173600E+01
20	  0.023807615	-7.070000E-01	  0.023807615	-1.551370E+02	  0.023807615	2.133000E+00	  0.023807615	-1.100200E+01
21	  0.024008015	-7.160000E-01	  0.024008015	-1.567480E+02	  0.024008015	2.149000E+00	  0.024008015	-1.026800E+01
22	  0.024208417	-7.260000E-01	  0.024208417	-1.583950E+02	  0.024208417	2.165000E+00	  0.024208417	-9.522000E+00
23	  0.024408817	-7.360000E-01	  0.024408817	-1.600400E+02	  0.024408817	2.183000E+00	  0.024408817	-8.781000E+00
24	  0.024609219	-7.450000E-01	  0.024609219	-1.616840E+02	  0.024609219	2.200000E+00	  0.024609219	-8.045000E+00
25	  0.024809619	-7.550000E-01	  0.024809619	-1.633460E+02	  0.024809619	2.218000E+00	  0.024809619	-7.303000E+00
26	  0.025010020	-7.670000E-01	  0.025010020	-1.649920E+02	  0.025010020	2.244000E+00	  0.025010020	-6.573000E+00
27	  0.025210422	-7.800000E-01	  0.025210422	-1.666570E+02	  0.025210422	2.274000E+00	  0.025210422	-5.836000E+00
28	  0.025410822	-7.930000E-01	  0.025410822	-1.683330E+02	  0.025410822	2.305000E+00	  0.025410822	-5.097000E+00
29	  0.025611224	-8.080000E-01	  0.025611224	-1.700280E+02	  0.025611224	2.342000E+00	  0.025611224	-4.352000E+00
30	  0.025811624	-8.210000E-01	  0.025811624	-1.717510E+02	  0.025811624	2.373000E+00	  0.025811624	-3.597000E+00
31	  0.026012026	-8.330000E-01	  0.026012026	-1.734800E+02	  0.026012026	2.403000E+00	  0.026012026	-2.841000E+00
32	  0.026212426	-8.430000E-01	  0.026212426	-1.752000E+02	  0.026212426	2.429000E+00	  0.026212426	-2.090000E+00
33	  0.026412826	-8.570000E-01	  0.026412826	-1.769250E+02	  0.026412826	2.467000E+00	  0.026412826	-1.338000E+00
34	  0.026613226	-8.720000E-01	  0.026613226	-1.786680E+02	  0.026613226	2.510000E+00	  0.026613226	-5.790000E-01
35	  0.026813626	-8.880000E-01	  0.026813626	1.795680E+02	  0.026813626	2.554000E+00	  0.026813626	1.870000E-01
36	  0.027014028	-9.070000E-01	  0.027014028	1.778020E+02	  0.027014028	2.610000E+00	  0.027014028	9.560000E-01
37	  0.027214428	-9.220000E-01	  0.027214428	1.760160E+02	  0.027214428	2.657000E+00	  0.027214428	1.733000E+00
38	  0.027414829	-9.390000E-01	  0.027414829	1.742350E+02	  0.027414829	2.709000E+00	  0.027414829	2.509000E+00
39	  0.027615231	-9.570000E-01	  0.027615231	1.724250E+02	  0.027615231	2.765000E+00	  0.027615231	3.299000E+00
40	  0.027815631	-9.770000E-01	  0.027815631	1.706180E+02	  0.027815631	2.830000E+00	  0.027815631	4.089000E+00
41	  0.028016033	-9.980000E-01	  0.028016033	1.687890E+02	  0.028016033	2.898000E+00	  0.028016033	4.890000E+00
42	  0.028216433	-1.021000E+00	  0.028216433	1.669570E+02	  0.028216433	2.974000E+00	  0.028216433	5.695000E+00
43	  0.028416833	-1.042000E+00	  0.028416833	1.651300E+02	  0.028416833	3.048000E+00	  0.028416833	6.500000E+00
44	  0.028617235	-1.064000E+00	  0.028617235	1.632930E+02	  0.028617235	3.126000E+00	  0.028617235	7.313000E+00
45	  0.028817635	-1.084000E+00	  0.028817635	1.614670E+02	  0.028817635	3.199000E+00	  0.028817635	8.125000E+00
46	  0.029018037	-1.105000E+00	  0.029018037	1.596470E+02	  0.029018037	3.278000E+00	  0.029018037	8.937000E+00
47	  0.029218437	-1.126000E+00	  0.029218437	1.578300E+02	  0.029218437	3.361000E+00	  0.029218437	9.753000E+00
48	  0.029418837	-1.151000E+00	  0.029418837	1.560140E+02	  0.029418837	3.457000E+00	  0.029418837	1.057200E+01
49	  0.029619239	-1.176000E+00	  0.029619239	1.541830E+02	  0.029619239	3.557000E+00	  0.029619239	1.140300E+01
50	  0.029819639	-1.206000E+00	  0.029819639	1.523050E+02	  0.029819639	3.677000E+00	  0.029819639	1.226200E+01
51	  0.030020041	-1.238000E+00	  0.030020041	1.504230E+02	  0.030020041	3.804000E+00	  0.030020041	1.312800E+01
52	  0.030220442	-1.267000E+00	  0.030220442	1.485180E+02	  0.030220442	3.930000E+00	  0.030220442	1.401200E+01
53	  0.030420844	-1.297000E+00	  0.030420844	1.466050E+02	  0.030420844	4.061000E+00	  0.030420844	1.490700E+01
54	  0.030621244	-1.328000E+00	  0.030621244	1.447060E+02	  0.030621244	4.201000E+00	  0.030621244	1.580400E+01
55	  0.030821644	-1.360000E+00	  0.030821644	1.427950E+02	  0.030821644	4.347000E+00	  0.030821644	1.671400E+01
56	  0.031022044	-1.395000E+00	  0.031022044	1.408830E+02	  0.031022044	4.511000E+00	  0.031022044	1.763400E+01
57	  0.031222444	-1.426000E+00	  0.031222444	1.389700E+02	  0.031222444	4.665000E+00	  0.031222444	1.856500E+01
58	  0.031422846	-1.463000E+00	  0.031422846	1.370020E+02	  0.031422846	4.850000E+00	  0.031422846	1.953300E+01
59	  0.031623244	-1.502000E+00	  0.031623244	1.350080E+02	  0.031623244	5.045000E+00	  0.031623244	2.052600E+01
60	  0.031823646	-1.535000E+00	  0.031823646	1.330040E+02	  0.031823646	5.233000E+00	  0.031823646	2.153700E+01
61	  0.032024048	-1.572000E+00	  0.032024048	1.310070E+02	  0.032024048	5.440000E+00	  0.032024048	2.255800E+01
62	  0.032224450	-1.607000E+00	  0.032224450	1.290100E+02	  0.032224450	5.650000E+00	  0.032224450	2.359400E+01
63	  0.032424849	-1.643000E+00	  0.032424849	1.270100E+02	  0.032424849	5.874000E+00	  0.032424849	2.464700E+01
64	  0.032625251	-1.677000E+00	  0.032625251	1.250310E+02	  0.032625251	6.099000E+00	  0.032625251	2.570500E+01
65	  0.032825653	-1.715000E+00	  0.032825653	1.230280E+02	  0.032825653	6.353000E+00	  0.032825653	2.679200E+01
66	  0.033026051	-1.754000E+00	  0.033026051	1.210450E+02	  0.033026051	6.620000E+00	  0.033026051	2.788500E+01
67	  0.033226453	-1.800000E+00	  0.033226453	1.190570E+02	  0.033226453	6.924000E+00	  0.033226453	2.899700E+01
68	  0.033426855	-1.846000E+00	  0.033426855	1.170680E+02	  0.033426855	7.247000E+00	  0.033426855	3.012900E+01
69	  0.033627257	-1.898000E+00	  0.033627257	1.150550E+02	  0.033627257	7.609000E+00	  0.033627257	3.129200E+01
70	  0.033827655	-1.952000E+00	  0.033827655	1.130250E+02	  0.033827655	8.001000E+00	  0.033827655	3.248500E+01
71	  0.034028057	-2.003000E+00	  0.034028057	1.109400E+02	  0.034028057	8.408000E+00	  0.034028057	3.373700E+01
72	  0.034228459	-2.054000E+00	  0.034228459	1.088320E+02	  0.034228459	8.837000E+00	  0.034228459	3.503000E+01
73	  0.034428857	-2.104000E+00	  0.034428857	1.066970E+02	  0.034428857	9.290000E+00	  0.034428857	3.636900E+01
74	  0.034629259	-2.152000E+00	  0.034629259	1.045670E+02	  0.034629259	9.760000E+00	  0.034629259	3.773600E+01
75	  0.034829661	-2.197000E+00	  0.034829661	1.024400E+02	  0.034829661	1.024600E+01	  0.034829661	3.913600E+01
76	  0.035030060	-2.242000E+00	  0.035030060	1.003240E+02	  0.035030060	1.076400E+01	  0.035030060	4.056100E+01
77	  0.035230462	-2.284000E+00	  0.035230462	9.823200E+01	  0.035230462	1.129100E+01	  0.035230462	4.200800E+01
78	  0.035430863	-2.326000E+00	  0.035430863	9.610600E+01	  0.035430863	1.186100E+01	  0.035430863	4.351600E+01
79	  0.035631265	-2.370000E+00	  0.035631265	9.401600E+01	  0.035631265	1.247600E+01	  0.035631265	4.503400E+01
80	  0.035831664	-2.413000E+00	  0.035831664	9.195100E+01	  0.035831664	1.311400E+01	  0.035831664	4.657500E+01
81	  0.036032066	-2.459000E+00	  0.036032066	8.987900E+01	  0.036032066	1.381900E+01	  0.036032066	4.815700E+01
82	  0.036232468	-2.504000E+00	  0.036232468	8.781700E+01	  0.036232468	1.456200E+01	  0.036232468	4.977500E+01
83	  0.036432866	-2.551000E+00	  0.036432866	8.578700E+01	  0.036432866	1.536000E+01	  0.036432866	5.140700E+01
84	  0.036633268	-2.602000E+00	  0.036633268	8.374900E+01	  0.036633268	1.624200E+01	  0.036633268	5.308000E+01
85	  0.036833670	-2.657000E+00	  0.036833670	8.171100E+01	  0.036833670	1.720500E+01	  0.036833670	5.479100E+01
86	  0.037034072	-2.715000E+00	  0.037034072	7.966100E+01	  0.037034072	1.826600E+01	  0.037034072	5.655000E+01
87	  0.037234470	-2.773000E+00	  0.037234470	7.757800E+01	  0.037234470	1.941800E+01	  0.037234470	5.838600E+01
88	  0.037434869	-2.835000E+00	  0.037434869	7.549800E+01	  0.037434869	2.068100E+01	  0.037434869	6.025500E+01
89	  0.037635271	-2.892000E+00	  0.037635271	7.338800E+01	  0.037635271	2.202400E+01	  0.037635271	6.221800E+01
90	  0.037835669	-2.955000E+00	  0.037835669	7.124300E+01	  0.037835669	2.353400E+01	  0.037835669	6.424900E+01
91	  0.038036071	-3.014000E+00	  0.038036071	6.907600E+01	  0.038036071	2.515800E+01	  0.038036071	6.636600E+01
92	  0.038236473	-3.076000E+00	  0.038236473	6.693300E+01	  0.038236473	2.692500E+01	  0.038236473	6.849700E+01
93	  0.038436871	-3.132000E+00	  0.038436871	6.475900E+01	  0.038436871	2.882000E+01	  0.038436871	7.074100E+01
94	  0.038637273	-3.188000E+00	  0.038637273	6.263200E+01	  0.038637273	3.084800E+01	  0.038637273	7.297900E+01
95	  0.038837675	-3.233000E+00	  0.038837675	6.049900E+01	  0.038837675	3.297300E+01	  0.038837675	7.533100E+01
96	  0.039038073	-3.283000E+00	  0.039038073	5.838900E+01	  0.039038073	3.530600E+01	  0.039038073	7.768000E+01
97	  0.039238475	-3.328000E+00	  0.039238475	5.632000E+01	  0.039238475	3.776700E+01	  0.039238475	8.005100E+01
98	  0.039438877	-3.379000E+00	  0.039438877	5.423300E+01	  0.039438877	4.052800E+01	  0.039438877	8.243400E+01
99	  0.039639279	-3.434000E+00	  0.039639279	5.219400E+01	  0.039639279	4.351500E+01	  0.039639279	8.473800E+01
100	  0.039839678	-3.490000E+00	  0.039839678	5.015000E+01	  0.039839678	4.679100E+01	  0.039839678	8.703100E+01
101	  0.040040080	-3.552000E+00	  0.040040080	4.808700E+01	  0.040040080	5.044300E+01	  0.040040080	8.926600E+01
102	  0.040240481	-3.614000E+00	  0.040240481	4.600900E+01	  0.040240481	5.444100E+01	  0.040240481	9.146500E+01
103	  0.040440880	-3.675000E+00	  0.040440880	4.392600E+01	  0.040440880	5.880000E+01	  0.040440880	9.358700E+01
104	  0.040641282	-3.734000E+00	  0.040641282	4.184900E+01	  0.040641282	6.352000E+01	  0.040641282	9.559100E+01
105	  0.040841684	-3.793000E+00	  0.040841684	3.974500E+01	  0.040841684	6.871100E+01	  0.040841684	9.746300E+01
106	  0.041042086	-3.851000E+00	  0.041042086	3.767600E+01	  0.041042086	7.425600E+01	  0.041042086	9.906800E+01
107	  0.041242484	-3.909000E+00	  0.041242484	3.559500E+01	  0.041242484	8.028600E+01	  0.041242484	1.003950E+02
108	  0.041442886	-3.964000E+00	  0.041442886	3.351700E+01	  0.041442886	8.676200E+01	  0.041442886	1.014030E+02
109	  0.041643288	-4.018000E+00	  0.041643288	3.142800E+01	  0.041643288	9.374700E+01	  0.041643288	1.019810E+02
110	  0.041843686	-4.069000E+00	  0.041843686	2.935300E+01	  0.041843686	1.011510E+02	  0.041843686	1.020450E+02
111	  0.042044088	-4.123000E+00	  0.042044088	2.727600E+01	  0.042044088	1.090140E+02	  0.042044088	1.013800E+02
112	  0.042244490	-4.173000E+00	  0.042244490	2.523200E+01	  0.042244490	1.171310E+02	  0.042244490	1.000250E+02
113	  0.042444889	-4.223000E+00	  0.042444889	2.320900E+01	  0.042444889	1.254710E+02	  0.042444889	9.778900E+01
114	  0.042645290	-4.275000E+00	  0.042645290	2.119200E+01	  0.042645290	1.339560E+02	  0.042645290	9.452400E+01
115	  0.042845692	-4.324000E+00	  0.042845692	1.917900E+01	  0.042845692	1.424800E+02	  0.042845692	9.024500E+01
116	  0.043046094	-4.375000E+00	  0.043046094	1.716000E+01	  0.043046094	1.508610E+02	  0.043046094	8.472300E+01
117	  0.043246493	-4.423000E+00	  0.043246493	1.514900E+01	  0.043246493	1.589070E+02	  0.043246493	7.812600E+01
118	  0.043446895	-4.471000E+00	  0.043446895	1.315900E+01	  0.043446895	1.662840E+02	  0.043446895	7.038200E+01
119	  0.043647297	-4.518000E+00	  0.043647297	1.116000E+01	  0.043647297	1.729120E+02	  0.043647297	6.152000E+01
120	  0.043847695	-4.566000E+00	  0.043847695	9.175000E+00	  0.043847695	1.784130E+02	  0.043847695	5.169100E+01
121	  0.044048097	-4.616000E+00	  0.044048097	7.212000E+00	  0.044048097	1.825600E+02	  0.044048097	4.116000E+01
122	  0.044248499	-4.662000E+00	  0.044248499	5.235000E+00	  0.044248499	1.854850E+02	  0.044248499	3.006100E+01
123	  0.044448901	-4.708000E+00	  0.044448901	3.271000E+00	  0.044448901	1.869480E+02	  0.044448901	1.874800E+01
124	  0.044649299	-4.755000E+00	  0.044649299	1.328000E+00	  0.044649299	1.868790E+02	  0.044649299	7.534000E+00
125	  0.044849701	-4.797000E+00	  0.044849701	-6.130000E-01	  0.044849701	1.855560E+02	  0.044849701	-3.422000E+00
126	  0.045050103	-4.837000E+00	  0.045050103	-2.564000E+00	  0.045050103	1.830130E+02	  0.045050103	-1.396700E+01
127	  0.045250501	-4.877000E+00	  0.045250501	-4.497000E+00	  0.045250501	1.793390E+02	  0.045250501	-2.377400E+01
128	  0.045450903	-4.910000E+00	  0.045450903	-6.414000E+00	  0.045450903	1.749020E+02	  0.045450903	-3.278900E+01
129	  0.045651305	-4.948000E+00	  0.045651305	-8.334000E+00	  0.045651305	1.695050E+02	  0.045651305	-4.087500E+01
130	  0.045851704	-4.986000E+00	  0.045851704	-1.022300E+01	  0.045851704	1.636020E+02	  0.045851704	-4.790200E+01
131	  0.046052106	-5.027000E+00	  0.046052106	-1.210500E+01	  0.046052106	1.572630E+02	  0.046052106	-5.392000E+01
132	  0.046252504	-5.065000E+00	  0.046252504	-1.398600E+01	  0.046252504	1.507490E+02	  0.046252504	-5.906400E+01
133	  0.046452906	-5.102000E+00	  0.046452906	-1.585900E+01	  0.046452906	1.441840E+02	  0.046452906	-6.336300E+01
134	  0.046653304	-5.139000E+00	  0.046653304	-1.771000E+01	  0.046653304	1.376990E+02	  0.046653304	-6.682700E+01
135	  0.046853706	-5.171000E+00	  0.046853706	-1.959200E+01	  0.046853706	1.312560E+02	  0.046853706	-6.972800E+01
136	  0.047054108	-5.202000E+00	  0.047054108	-2.141800E+01	  0.047054108	1.251470E+02	  0.047054108	-7.191500E+01
137	  0.047254506	-5.234000E+00	  0.047254506	-2.325800E+01	  0.047254506	1.191800E+02	  0.047254506	-7.356600E+01
138	  0.047454908	-5.259000E+00	  0.047454908	-2.506900E+01	  0.047454908	1.135590E+02	  0.047454908	-7.481100E+01
139	  0.047655310	-5.288000E+00	  0.047655310	-2.687900E+01	  0.047655310	1.081510E+02	  0.047655310	-7.554700E+01
140	  0.047855709	-5.315000E+00	  0.047855709	-2.864700E+01	  0.047855709	1.031250E+02	  0.047855709	-7.596100E+01
141	  0.048056111	-5.344000E+00	  0.048056111	-3.040400E+01	  0.048056111	9.836600E+01	  0.048056111	-7.601400E+01
142	  0.048256513	-5.370000E+00	  0.048256513	-3.216300E+01	  0.048256513	9.385600E+01	  0.048256513	-7.587900E+01
143	  0.048456915	-5.400000E+00	  0.048456915	-3.390200E+01	  0.048456915	8.963500E+01	  0.048456915	-7.545300E+01
144	  0.048657313	-5.430000E+00	  0.048657313	-3.565800E+01	  0.048657313	8.561400E+01	  0.048657313	-7.486000E+01
145	  0.048857715	-5.454000E+00	  0.048857715	-3.739000E+01	  0.048857715	8.186900E+01	  0.048857715	-7.419600E+01
146	  0.049058117	-5.481000E+00	  0.049058117	-3.914700E+01	  0.049058117	7.829400E+01	  0.049058117	-7.335000E+01
147	  0.049258515	-5.502000E+00	  0.049258515	-4.085300E+01	  0.049258515	7.501100E+01	  0.049258515	-7.251100E+01
148	  0.049458917	-5.526000E+00	  0.049458917	-4.257600E+01	  0.049458917	7.189500E+01	  0.049458917	-7.152300E+01
149	  0.049659319	-5.553000E+00	  0.049659319	-4.427000E+01	  0.049659319	6.901700E+01	  0.049659319	-7.045200E+01
150	  0.049859721	-5.579000E+00	  0.049859721	-4.596700E+01	  0.049859721	6.630100E+01	  0.049859721	-6.933800E+01
151	  0.050060119	-5.602000E+00	  0.050060119	-4.766000E+01	  0.050060119	6.373800E+01	  0.050060119	-6.821200E+01
152	  0.050260521	-5.622000E+00	  0.050260521	-4.935200E+01	  0.050260521	6.131300E+01	  0.050260521	-6.708200E+01
153	  0.050460923	-5.643000E+00	  0.050460923	-5.104300E+01	  0.050460923	5.903200E+01	  0.050460923	-6.591100E+01
154	  0.050661322	-5.660000E+00	  0.050661322	-5.270600E+01	  0.050661322	5.689700E+01	  0.050661322	-6.477900E+01
155	  0.050861724	-5.671000E+00	  0.050861724	-5.437400E+01	  0.050861724	5.485600E+01	  0.050861724	-6.366100E+01
156	  0.051062126	-5.692000E+00	  0.051062126	-5.601500E+01	  0.051062126	5.299300E+01	  0.051062126	-6.247600E+01
157	  0.051262524	-5.706000E+00	  0.051262524	-5.762700E+01	  0.051262524	5.123400E+01	  0.051262524	-6.135800E+01
158	  0.051462926	-5.719000E+00	  0.051462926	-5.919100E+01	  0.051462926	4.961700E+01	  0.051462926	-6.026400E+01
159	  0.051663328	-5.733000E+00	  0.051663328	-6.075800E+01	  0.051663328	4.808000E+01	  0.051663328	-5.916600E+01
160	  0.051863730	-5.750000E+00	  0.051863730	-6.230600E+01	  0.051863730	4.665300E+01	  0.051863730	-5.805800E+01
161	  0.052064128	-5.763000E+00	  0.052064128	-6.385200E+01	  0.052064128	4.528200E+01	  0.052064128	-5.698000E+01
162	  0.052264530	-5.781000E+00	  0.052264530	-6.537600E+01	  0.052264530	4.401600E+01	  0.052264530	-5.589700E+01
163	  0.052464932	-5.795000E+00	  0.052464932	-6.691700E+01	  0.052464932	4.278300E+01	  0.052464932	-5.482800E+01
164	  0.052665330	-5.812000E+00	  0.052665330	-6.847400E+01	  0.052665330	4.161000E+01	  0.052665330	-5.374300E+01
165	  0.052865732	-5.831000E+00	  0.052865732	-7.000500E+01	  0.052865732	4.052100E+01	  0.052865732	-5.267400E+01
166	  0.053066134	-5.843000E+00	  0.053066134	-7.152900E+01	  0.053066134	3.946300E+01	  0.053066134	-5.165200E+01
167	  0.053266536	-5.857000E+00	  0.053266536	-7.304800E+01	  0.053266536	3.846400E+01	  0.053266536	-5.063500E+01
168	  0.053466935	-5.869000E+00	  0.053466935	-7.455300E+01	  0.053466935	3.751200E+01	  0.053466935	-4.964400E+01
169	  0.053667337	-5.876000E+00	  0.053667337	-7.605300E+01	  0.053667337	3.658800E+01	  0.053667337	-4.868600E+01
170	  0.053867739	-5.883000E+00	  0.053867739	-7.755100E+01	  0.053867739	3.570400E+01	  0.053867739	-4.773900E+01
171	  0.054068137	-5.888000E+00	  0.054068137	-7.904100E+01	  0.054068137	3.485900E+01	  0.054068137	-4.681100E+01
172	  0.054268539	-5.892000E+00	  0.054268539	-8.050800E+01	  0.054268539	3.405700E+01	  0.054268539	-4.590800E+01
173	  0.054468941	-5.900000E+00	  0.054468941	-8.192600E+01	  0.054468941	3.332900E+01	  0.054468941	-4.503200E+01
174	  0.054669339	-5.906000E+00	  0.054669339	-8.335000E+01	  0.054669339	3.262100E+01	  0.054669339	-4.416700E+01
175	  0.054869737	-5.910000E+00	  0.054869737	-8.474100E+01	  0.054869737	3.195300E+01	  0.054869737	-4.333400E+01
176	  0.055070139	-5.917000E+00	  0.055070139	-8.614300E+01	  0.055070139	3.131200E+01	  0.055070139	-4.249600E+01
177	  0.055270538	-5.922000E+00	  0.055270538	-8.749900E+01	  0.055270538	3.071600E+01	  0.055270538	-4.169600E+01
178	  0.055470940	-5.933000E+00	  0.055470940	-8.888400E+01	  0.055470940	3.015000E+01	  0.055470940	-4.087100E+01
179	  0.055671342	-5.938000E+00	  0.055671342	-9.026500E+01	  0.055671342	2.958400E+01	  0.055671342	-4.007700E+01
180	  0.055871744	-5.941000E+00	  0.055871744	-9.165600E+01	  0.055871744	2.903200E+01	  0.055871744	-3.928700E+01
181	  0.056072142	-5.947000E+00	  0.056072142	-9.301200E+01	  0.056072142	2.852400E+01	  0.056072142	-3.851800E+01
182	  0.056272544	-5.953000E+00	  0.056272544	-9.437300E+01	  0.056272544	2.803100E+01	  0.056272544	-3.775500E+01
183	  0.056472946	-5.961000E+00	  0.056472946	-9.579100E+01	  0.056472946	2.754600E+01	  0.056472946	-3.696200E+01
184	  0.056673344	-5.966000E+00	  0.056673344	-9.712900E+01	  0.056673344	2.709800E+01	  0.056673344	-3.622900E+01
185	  0.056873746	-5.967000E+00	  0.056873746	-9.848300E+01	  0.056873746	2.664800E+01	  0.056873746	-3.550100E+01
186	  0.057074148	-5.967000E+00	  0.057074148	-9.983900E+01	  0.057074148	2.620600E+01	  0.057074148	-3.478300E+01
187	  0.057274550	-5.969000E+00	  0.057274550	-1.012110E+02	  0.057274550	2.578600E+01	  0.057274550	-3.405800E+01
188	  0.057474948	-5.963000E+00	  0.057474948	-1.025210E+02	  0.057474948	2.537200E+01	  0.057474948	-3.338700E+01
189	  0.057675350	-5.961000E+00	  0.057675350	-1.038340E+02	  0.057675350	2.498200E+01	  0.057675350	-3.271400E+01
190	  0.057875752	-5.960000E+00	  0.057875752	-1.051520E+02	  0.057875752	2.460800E+01	  0.057875752	-3.204200E+01
191	  0.058076151	-5.961000E+00	  0.058076151	-1.064450E+02	  0.058076151	2.426300E+01	  0.058076151	-3.138300E+01
192	  0.058276553	-5.958000E+00	  0.058276553	-1.076910E+02	  0.058276553	2.392700E+01	  0.058276553	-3.076100E+01
193	  0.058476955	-5.959000E+00	  0.058476955	-1.089500E+02	  0.058476955	2.361300E+01	  0.058476955	-3.013000E+01
194	  0.058677353	-5.960000E+00	  0.058677353	-1.102010E+02	  0.058677353	2.331100E+01	  0.058677353	-2.950900E+01
195	  0.058877755	-5.960000E+00	  0.058877755	-1.114400E+02	  0.058877755	2.301800E+01	  0.058877755	-2.889900E+01
196	  0.059078157	-5.959000E+00	  0.059078157	-1.126930E+02	  0.059078157	2.272800E+01	  0.059078157	-2.829000E+01
197	  0.059278559	-5.962000E+00	  0.059278559	-1.139310E+02	  0.059278559	2.246600E+01	  0.059278559	-2.768600E+01
198	  0.059478957	-5.963000E+00	  0.059478957	-1.151790E+02	  0.059478957	2.220300E+01	  0.059478957	-2.708500E+01
199	  0.059679359	-5.964000E+00	  0.059679359	-1.164300E+02	  0.059679359	2.194700E+01	  0.059679359	-2.648800E+01
200	  0.059879761	-5.967000E+00	  0.059879761	-1.176540E+02	  0.059879761	2.171300E+01	  0.059879761	-2.590500E+01
201	  0.060080159	-5.968000E+00	  0.060080159	-1.188750E+02	  0.060080159	2.147800E+01	  0.060080159	-2.533100E+01
202	  0.060280561	-5.969000E+00	  0.060280561	-1.200960E+02	  0.060280561	2.125400E+01	  0.060280561	-2.476100E+01
203	  0.060480963	-5.969000E+00	  0.060480963	-1.213050E+02	  0.060480963	2.103600E+01	  0.060480963	-2.420100E+01
204	  0.060681365	-5.969000E+00	  0.060681365	-1.225150E+02	  0.060681365	2.082500E+01	  0.060681365	-2.364400E+01
205	  0.060881764	-5.966000E+00	  0.060881764	-1.237200E+02	  0.060881764	2.061300E+01	  0.060881764	-2.309700E+01
206	  0.061082166	-5.968000E+00	  0.061082166	-1.249260E+02	  0.061082166	2.041900E+01	  0.061082166	-2.254800E+01
207	  0.061282568	-5.965000E+00	  0.061282568	-1.261040E+02	  0.061282568	2.022600E+01	  0.061282568	-2.202000E+01
208	  0.061482966	-5.963000E+00	  0.061482966	-1.272710E+02	  0.061482966	2.004200E+01	  0.061482966	-2.149800E+01
209	  0.061683368	-5.963000E+00	  0.061683368	-1.284270E+02	  0.061683368	1.986900E+01	  0.061683368	-2.098400E+01
210	  0.061883770	-5.963000E+00	  0.061883770	-1.295930E+02	  0.061883770	1.970300E+01	  0.061883770	-2.046700E+01
211	  0.062084168	-5.963000E+00	  0.062084168	-1.307250E+02	  0.062084168	1.954700E+01	  0.062084168	-1.996800E+01
212	  0.062284570	-5.963000E+00	  0.062284570	-1.318690E+02	  0.062284570	1.939300E+01	  0.062284570	-1.946700E+01
213	  0.062484972	-5.956000E+00	  0.062484972	-1.329380E+02	  0.062484972	1.923300E+01	  0.062484972	-1.900800E+01
214	  0.062685370	-5.958000E+00	  0.062685370	-1.340900E+02	  0.062685370	1.909600E+01	  0.062685370	-1.850600E+01
215	  0.062885776	-5.962000E+00	  0.062885776	-1.352120E+02	  0.062885776	1.897000E+01	  0.062885776	-1.801900E+01
216	  0.063086174	-5.964000E+00	  0.063086174	-1.363470E+02	  0.063086174	1.884300E+01	  0.063086174	-1.753100E+01
217	  0.063286573	-5.967000E+00	  0.063286573	-1.374920E+02	  0.063286573	1.872100E+01	  0.063286573	-1.704000E+01
218	  0.063486971	-5.965000E+00	  0.063486971	-1.386220E+02	  0.063486971	1.859200E+01	  0.063486971	-1.656100E+01
219	  0.063687377	-5.968000E+00	  0.063687377	-1.397320E+02	  0.063687377	1.848200E+01	  0.063687377	-1.609000E+01
220	  0.063887775	-5.963000E+00	  0.063887775	-1.408250E+02	  0.063887775	1.835700E+01	  0.063887775	-1.563300E+01
221	  0.064088173	-5.963000E+00	  0.064088173	-1.419450E+02	  0.064088173	1.824800E+01	  0.064088173	-1.516300E+01
222	  0.064288579	-5.963000E+00	  0.064288579	-1.430620E+02	  0.064288579	1.814100E+01	  0.064288579	-1.469700E+01
223	  0.064488977	-5.958000E+00	  0.064488977	-1.441520E+02	  0.064488977	1.802900E+01	  0.064488977	-1.424600E+01
224	  0.064689375	-5.960000E+00	  0.064689375	-1.452360E+02	  0.064689375	1.793800E+01	  0.064689375	-1.379700E+01
225	  0.064889781	-5.960000E+00	  0.064889781	-1.462680E+02	  0.064889781	1.785000E+01	  0.064889781	-1.337100E+01
226	  0.065090179	-5.955000E+00	  0.065090179	-1.472990E+02	  0.065090179	1.775400E+01	  0.065090179	-1.294900E+01
227	  0.065290578	-5.957000E+00	  0.065290578	-1.483470E+02	  0.065290578	1.767600E+01	  0.065290578	-1.251900E+01
228	  0.065490983	-5.952000E+00	  0.065490983	-1.493880E+02	  0.065490983	1.758500E+01	  0.065490983	-1.209600E+01
229	  0.065691382	-5.953000E+00	  0.065691382	-1.503970E+02	  0.065691382	1.751200E+01	  0.065691382	-1.168500E+01
230	  0.065891780	-5.949000E+00	  0.065891780	-1.514160E+02	  0.065891780	1.743000E+01	  0.065891780	-1.127300E+01
231	  0.066092186	-5.946000E+00	  0.066092186	-1.524520E+02	  0.066092186	1.735200E+01	  0.066092186	-1.085500E+01
232	  0.066292584	-5.943000E+00	  0.066292584	-1.534490E+02	  0.066292584	1.728200E+01	  0.066292584	-1.045300E+01
233	  0.066492982	-5.940000E+00	  0.066492982	-1.544660E+02	  0.066492982	1.721200E+01	  0.066492982	-1.004500E+01
234	  0.066693388	-5.937000E+00	  0.066693388	-1.554840E+02	  0.066693388	1.714200E+01	  0.066693388	-9.637000E+00
235	  0.066893786	-5.931000E+00	  0.066893786	-1.564520E+02	  0.066893786	1.707100E+01	  0.066893786	-9.251000E+00
236	  0.067094192	-5.926000E+00	  0.067094192	-1.574860E+02	  0.067094192	1.700300E+01	  0.067094192	-8.839000E+00
237	  0.067294590	-5.919000E+00	  0.067294590	-1.584860E+02	  0.067294590	1.693400E+01	  0.067294590	-8.443000E+00
238	  0.067494988	-5.914000E+00	  0.067494988	-1.595040E+02	  0.067494988	1.687000E+01	  0.067494988	-8.039000E+00
239	  0.067695394	-5.913000E+00	  0.067695394	-1.605380E+02	  0.067695394	1.682100E+01	  0.067695394	-7.628000E+00
240	  0.067895792	-5.907000E+00	  0.067895792	-1.615190E+02	  0.067895792	1.676200E+01	  0.067895792	-7.241000E+00
241	  0.068096191	-5.897000E+00	  0.068096191	-1.625250E+02	  0.068096191	1.669500E+01	  0.068096191	-6.845000E+00
242	  0.068296596	-5.900000E+00	  0.068296596	-1.635700E+02	  0.068296596	1.666300E+01	  0.068296596	-6.431000E+00
243	  0.068496995	-5.892000E+00	  0.068496995	-1.645590E+02	  0.068496995	1.660600E+01	  0.068496995	-6.042000E+00
244	  0.068697393	-5.890000E+00	  0.068697393	-1.655510E+02	  0.068697393	1.656700E+01	  0.068697393	-5.651000E+00
245	  0.068897791	-5.882000E+00	  0.068897791	-1.665720E+02	  0.068897791	1.651400E+01	  0.068897791	-5.251000E+00
246	  0.069098189	-5.877000E+00	  0.069098189	-1.675640E+02	  0.069098189	1.647100E+01	  0.069098189	-4.862000E+00
247	  0.069298595	-5.874000E+00	  0.069298595	-1.685920E+02	  0.069298595	1.643500E+01	  0.069298595	-4.459000E+00
248	  0.069498993	-5.865000E+00	  0.069498993	-1.695560E+02	  0.069498993	1.639100E+01	  0.069498993	-4.081000E+00
249	  0.069699399	-5.866000E+00	  0.069699399	-1.705500E+02	  0.069699399	1.637100E+01	  0.069699399	-3.691000E+00
250	  0.069899797	-5.869000E+00	  0.069899797	-1.715660E+02	  0.069899797	1.635900E+01	  0.069899797	-3.293000E+00
251	  0.070100196	-5.864000E+00	  0.070100196	-1.725330E+02	  0.070100196	1.632700E+01	  0.070100196	-2.915000E+00
252	  0.070300601	-5.859000E+00	  0.070300601	-1.735180E+02	  0.070300601	1.630000E+01	  0.070300601	-2.530000E+00
253	  0.070501000	-5.860000E+00	  0.070501000	-1.745170E+02	  0.070501000	1.628900E+01	  0.070501000	-2.140000E+00
254	  0.070701398	-5.852000E+00	  0.070701398	-1.755320E+02	  0.070701398	1.625700E+01	  0.070701398	-1.744000E+00
255	  0.070901804	-5.851000E+00	  0.070901804	-1.764810E+02	  0.070901804	1.624500E+01	  0.070901804	-1.373000E+00
256	  0.071102202	-5.853000E+00	  0.071102202	-1.774470E+02	  0.071102202	1.624400E+01	  0.071102202	-9.960000E-01
257	  0.071302600	-5.850000E+00	  0.071302600	-1.784600E+02	  0.071302600	1.623300E+01	  0.071302600	-6.000000E-01
258	  0.071503006	-5.851000E+00	  0.071503006	-1.794230E+02	  0.071503006	1.623400E+01	  0.071503006	-2.240000E-01
259	  0.071703404	-5.850000E+00	  0.071703404	1.796280E+02	  0.071703404	1.622900E+01	  0.071703404	1.440000E-01
260	  0.071903802	-5.850000E+00	  0.071903802	1.786650E+02	  0.071903802	1.623100E+01	  0.071903802	5.200000E-01
261	  0.072104208	-5.852000E+00	  0.072104208	1.777220E+02	  0.072104208	1.623900E+01	  0.072104208	8.890000E-01
262	  0.072304606	-5.850000E+00	  0.072304606	1.767550E+02	  0.072304606	1.624200E+01	  0.072304606	1.266000E+00
263	  0.072505005	-5.852000E+00	  0.072505005	1.758090E+02	  0.072505005	1.625400E+01	  0.072505005	1.636000E+00
264	  0.072705410	-5.859000E+00	  0.072705410	1.748840E+02	  0.072705410	1.628100E+01	  0.072705410	1.997000E+00
265	  0.072905809	-5.858000E+00	  0.072905809	1.739230E+02	  0.072905809	1.629200E+01	  0.072905809	2.372000E+00
266	  0.073106214	-5.863000E+00	  0.073106214	1.729570E+02	  0.073106214	1.631800E+01	  0.073106214	2.749000E+00
267	  0.073306613	-5.864000E+00	  0.073306613	1.720450E+02	  0.073306613	1.633600E+01	  0.073306613	3.106000E+00
268	  0.073507011	-5.871000E+00	  0.073507011	1.711020E+02	  0.073507011	1.637200E+01	  0.073507011	3.475000E+00
269	  0.073707417	-5.878000E+00	  0.073707417	1.701520E+02	  0.073707417	1.640900E+01	  0.073707417	3.846000E+00
270	  0.073907815	-5.880000E+00	  0.073907815	1.692580E+02	  0.073907815	1.643500E+01	  0.073907815	4.196000E+00
271	  0.074108213	-5.886000E+00	  0.074108213	1.683500E+02	  0.074108213	1.647300E+01	  0.074108213	4.552000E+00
272	  0.074308619	-5.886000E+00	  0.074308619	1.674090E+02	  0.074308619	1.649900E+01	  0.074308619	4.921000E+00
273	  0.074509017	-5.891000E+00	  0.074509017	1.664620E+02	  0.074509017	1.654100E+01	  0.074509017	5.292000E+00
274	  0.074709415	-5.900000E+00	  0.074709415	1.655400E+02	  0.074709415	1.659400E+01	  0.074709415	5.654000E+00
275	  0.074909821	-5.907000E+00	  0.074909821	1.646330E+02	  0.074909821	1.664200E+01	  0.074909821	6.009000E+00
276	  0.075110219	-5.914000E+00	  0.075110219	1.637280E+02	  0.075110219	1.669300E+01	  0.075110219	6.365000E+00
277	  0.075310618	-5.922000E+00	  0.075310618	1.628140E+02	  0.075310618	1.674700E+01	  0.075310618	6.724000E+00
278	  0.075511023	-5.931000E+00	  0.075511023	1.619380E+02	  0.075511023	1.680700E+01	  0.075511023	7.068000E+00
279	  0.075711422	-5.935000E+00	  0.075711422	1.610410E+02	  0.075711422	1.685700E+01	  0.075711422	7.422000E+00
280	  0.075911827	-5.944000E+00	  0.075911827	1.601540E+02	  0.075911827	1.691900E+01	  0.075911827	7.771000E+00
281	  0.076112226	-5.951000E+00	  0.076112226	1.592410E+02	  0.076112226	1.697900E+01	  0.076112226	8.132000E+00
282	  0.076312624	-5.958000E+00	  0.076312624	1.582920E+02	  0.076312624	1.704500E+01	  0.076312624	8.507000E+00
283	  0.076513030	-5.966000E+00	  0.076513030	1.574110E+02	  0.076513030	1.711300E+01	  0.076513030	8.856000E+00
284	  0.076713428	-5.976000E+00	  0.076713428	1.565040E+02	  0.076713428	1.718700E+01	  0.076713428	9.214000E+00
285	  0.076913826	-5.984000E+00	  0.076913826	1.556080E+02	  0.076913826	1.725800E+01	  0.076913826	9.570000E+00
286	  0.077114232	-5.990000E+00	  0.077114232	1.546990E+02	  0.077114232	1.732900E+01	  0.077114232	9.931000E+00
287	  0.077314630	-5.994000E+00	  0.077314630	1.538100E+02	  0.077314630	1.739400E+01	  0.077314630	1.028700E+01
288	  0.077515028	-6.002000E+00	  0.077515028	1.529710E+02	  0.077515028	1.746800E+01	  0.077515028	1.062100E+01
289	  0.077715434	-6.008000E+00	  0.077715434	1.520750E+02	  0.077715434	1.754400E+01	  0.077715434	1.097900E+01
290	  0.077915832	-6.018000E+00	  0.077915832	1.512010E+02	  0.077915832	1.763100E+01	  0.077915832	1.132800E+01
291	  0.078116231	-6.028000E+00	  0.078116231	1.503420E+02	  0.078116231	1.771900E+01	  0.078116231	1.167100E+01
292	  0.078316636	-6.041000E+00	  0.078316636	1.494650E+02	  0.078316636	1.781800E+01	  0.078316636	1.202100E+01
293	  0.078517035	-6.048000E+00	  0.078517035	1.486100E+02	  0.078517035	1.790200E+01	  0.078517035	1.236500E+01
294	  0.078717433	-6.065000E+00	  0.078717433	1.477160E+02	  0.078717433	1.801500E+01	  0.078717433	1.272100E+01
295	  0.078917839	-6.078000E+00	  0.078917839	1.468830E+02	  0.078917839	1.812100E+01	  0.078917839	1.305300E+01
296	  0.079118237	-6.092000E+00	  0.079118237	1.460230E+02	  0.079118237	1.822800E+01	  0.079118237	1.339800E+01
297	  0.079318643	-6.107000E+00	  0.079318643	1.451790E+02	  0.079318643	1.834300E+01	  0.079318643	1.373500E+01
298	  0.079519041	-6.119000E+00	  0.079519041	1.443370E+02	  0.079519041	1.845000E+01	  0.079519041	1.407400E+01
299	  0.079719439	-6.133000E+00	  0.079719439	1.434880E+02	  0.079719439	1.856700E+01	  0.079719439	1.441600E+01
300	  0.079919845	-6.145000E+00	  0.079919845	1.426390E+02	  0.079919845	1.868100E+01	  0.079919845	1.475900E+01
301	  0.080120243	-6.163000E+00	  0.080120243	1.417940E+02	  0.080120243	1.881300E+01	  0.080120243	1.509700E+01
302	  0.080320641	-6.177000E+00	  0.080320641	1.409570E+02	  0.080320641	1.893400E+01	  0.080320641	1.543500E+01
303	  0.080521047	-6.194000E+00	  0.080521047	1.401050E+02	  0.080521047	1.906900E+01	  0.080521047	1.577800E+01
304	  0.080721445	-6.210000E+00	  0.080721445	1.392690E+02	  0.080721445	1.920300E+01	  0.080721445	1.611400E+01
305	  0.080921844	-6.226000E+00	  0.080921844	1.384240E+02	  0.080921844	1.933800E+01	  0.080921844	1.645700E+01
306	  0.081122249	-6.246000E+00	  0.081122249	1.375900E+02	  0.081122249	1.948700E+01	  0.081122249	1.679100E+01
307	  0.081322648	-6.262000E+00	  0.081322648	1.367710E+02	  0.081322648	1.962800E+01	  0.081322648	1.712200E+01
308	  0.081523046	-6.282000E+00	  0.081523046	1.359600E+02	  0.081523046	1.978000E+01	  0.081523046	1.744700E+01
309	  0.081723452	-6.299000E+00	  0.081723452	1.351330E+02	  0.081723452	1.992800E+01	  0.081723452	1.778200E+01
310	  0.081923850	-6.318000E+00	  0.081923850	1.343160E+02	  0.081923850	2.008300E+01	  0.081923850	1.811200E+01
311	  0.082124248	-6.338000E+00	  0.082124248	1.335140E+02	  0.082124248	2.024100E+01	  0.082124248	1.843500E+01
312	  0.082324654	-6.364000E+00	  0.082324654	1.327350E+02	  0.082324654	2.041800E+01	  0.082324654	1.874300E+01
313	  0.082525052	-6.387000E+00	  0.082525052	1.319440E+02	  0.082525052	2.058900E+01	  0.082525052	1.905900E+01
314	  0.082725458	-6.408000E+00	  0.082725458	1.311700E+02	  0.082725458	2.075400E+01	  0.082725458	1.937000E+01
315	  0.082925856	-6.435000E+00	  0.082925856	1.303890E+02	  0.082925856	2.094200E+01	  0.082925856	1.967800E+01
316	  0.083126254	-6.459000E+00	  0.083126254	1.295760E+02	  0.083126254	2.112700E+01	  0.083126254	2.000300E+01
317	  0.083326660	-6.481000E+00	  0.083326660	1.287820E+02	  0.083326660	2.130800E+01	  0.083326660	2.032200E+01
318	  0.083527058	-6.504000E+00	  0.083527058	1.279700E+02	  0.083527058	2.149700E+01	  0.083527058	2.064800E+01
319	  0.083727457	-6.527000E+00	  0.083727457	1.271760E+02	  0.083727457	2.168900E+01	  0.083727457	2.096500E+01
320	  0.083927862	-6.553000E+00	  0.083927862	1.264120E+02	  0.083927862	2.188500E+01	  0.083927862	2.126700E+01
321	  0.084128261	-6.577000E+00	  0.084128261	1.256280E+02	  0.084128261	2.208300E+01	  0.084128261	2.158000E+01
322	  0.084328659	-6.599000E+00	  0.084328659	1.248850E+02	  0.084328659	2.227000E+01	  0.084328659	2.187700E+01
323	  0.084529065	-6.623000E+00	  0.084529065	1.241600E+02	  0.084529065	2.246400E+01	  0.084529065	2.216400E+01
324	  0.084729463	-6.654000E+00	  0.084729463	1.234340E+02	  0.084729463	2.267900E+01	  0.084729463	2.244400E+01
325	  0.084929861	-6.675000E+00	  0.084929861	1.226800E+02	  0.084929861	2.287500E+01	  0.084929861	2.274700E+01
326	  0.085130267	-6.702000E+00	  0.085130267	1.219400E+02	  0.085130267	2.308800E+01	  0.085130267	2.303700E+01
327	  0.085330658	-6.732000E+00	  0.085330658	1.212290E+02	  0.085330658	2.330800E+01	  0.085330658	2.331000E+01
328	  0.085531056	-6.756000E+00	  0.085531056	1.205410E+02	  0.085531056	2.351100E+01	  0.085531056	2.357900E+01
329	  0.085731462	-6.787000E+00	  0.085731462	1.198300E+02	  0.085731462	2.373700E+01	  0.085731462	2.385000E+01
330	  0.085931860	-6.817000E+00	  0.085931860	1.191310E+02	  0.085931860	2.396600E+01	  0.085931860	2.411600E+01
331	  0.086132258	-6.846000E+00	  0.086132258	1.184800E+02	  0.086132258	2.418000E+01	  0.086132258	2.436300E+01
332	  0.086332664	-6.876000E+00	  0.086332664	1.178150E+02	  0.086332664	2.440600E+01	  0.086332664	2.461200E+01
333	  0.086533062	-6.911000E+00	  0.086533062	1.171440E+02	  0.086533062	2.465000E+01	  0.086533062	2.485700E+01
334	  0.086733460	-6.936000E+00	  0.086733460	1.164710E+02	  0.086733460	2.486600E+01	  0.086733460	2.511700E+01
335	  0.086933866	-6.961000E+00	  0.086933866	1.157940E+02	  0.086933866	2.508900E+01	  0.086933866	2.537700E+01
336	  0.087134264	-6.989000E+00	  0.087134264	1.151440E+02	  0.087134264	2.531500E+01	  0.087134264	2.562100E+01
337	  0.087334670	-7.017000E+00	  0.087334670	1.144910E+02	  0.087334670	2.554400E+01	  0.087334670	2.586600E+01
338	  0.087535068	-7.038000E+00	  0.087535068	1.138640E+02	  0.087535068	2.575100E+01	  0.087535068	2.611000E+01
339	  0.087735467	-7.061000E+00	  0.087735467	1.132170E+02	  0.087735467	2.597100E+01	  0.087735467	2.635800E+01
340	  0.087935872	-7.080000E+00	  0.087935872	1.125820E+02	  0.087935872	2.618100E+01	  0.087935872	2.660700E+01
341	  0.088136271	-7.101000E+00	  0.088136271	1.119520E+02	  0.088136271	2.639600E+01	  0.088136271	2.685000E+01
342	  0.088336669	-7.114000E+00	  0.088336669	1.113100E+02	  0.088336669	2.659400E+01	  0.088336669	2.711200E+01
343	  0.088537075	-7.129000E+00	  0.088537075	1.106620E+02	  0.088537075	2.680100E+01	  0.088537075	2.737400E+01
344	  0.088737473	-7.144000E+00	  0.088737473	1.099880E+02	  0.088737473	2.701900E+01	  0.088737473	2.764600E+01
345	  0.088937871	-7.159000E+00	  0.088937871	1.093220E+02	  0.088937871	2.723900E+01	  0.088937871	2.791400E+01
346	  0.089138277	-7.172000E+00	  0.089138277	1.086600E+02	  0.089138277	2.745300E+01	  0.089138277	2.818500E+01
347	  0.089338675	-7.191000E+00	  0.089338675	1.079980E+02	  0.089338675	2.768900E+01	  0.089338675	2.844400E+01
348	  0.089539073	-7.218000E+00	  0.089539073	1.073430E+02	  0.089539073	2.795000E+01	  0.089539073	2.868600E+01
349	  0.089739479	-7.240000E+00	  0.089739479	1.066480E+02	  0.089739479	2.821000E+01	  0.089739479	2.895400E+01
350	  0.089939877	-7.258000E+00	  0.089939877	1.059980E+02	  0.089939877	2.845100E+01	  0.089939877	2.920700E+01
351	  0.090140276	-7.281000E+00	  0.090140276	1.052560E+02	  0.090140276	2.873500E+01	  0.090140276	2.949300E+01
352	  0.090340681	-7.308000E+00	  0.090340681	1.046100E+02	  0.090340681	2.900800E+01	  0.090340681	2.972500E+01
353	  0.090541080	-7.333000E+00	  0.090541080	1.039050E+02	  0.090541080	2.929500E+01	  0.090541080	2.998800E+01
354	  0.090741485	-7.361000E+00	  0.090741485	1.032590E+02	  0.090741485	2.957600E+01	  0.090741485	3.021800E+01
355	  0.090941884	-7.388000E+00	  0.090941884	1.025490E+02	  0.090941884	2.988000E+01	  0.090941884	3.047500E+01
356	  0.091142282	-7.414000E+00	  0.091142282	1.019190E+02	  0.091142282	3.015700E+01	  0.091142282	3.069900E+01
357	  0.091342688	-7.446000E+00	  0.091342688	1.012450E+02	  0.091342688	3.046900E+01	  0.091342688	3.092900E+01
358	  0.091543086	-7.471000E+00	  0.091543086	1.006190E+02	  0.091543086	3.075100E+01	  0.091543086	3.114900E+01
359	  0.091743484	-7.501000E+00	  0.091743484	9.998800E+01	  0.091743484	3.104900E+01	  0.091743484	3.136100E+01
360	  0.091943890	-7.528000E+00	  0.091943890	9.934400E+01	  0.091943890	3.135000E+01	  0.091943890	3.158200E+01
361	  0.092144288	-7.560000E+00	  0.092144288	9.873900E+01	  0.092144288	3.165200E+01	  0.092144288	3.177400E+01
362	  0.092344686	-7.591000E+00	  0.092344686	9.810500E+01	  0.092344686	3.196700E+01	  0.092344686	3.197800E+01
363	  0.092545092	-7.620000E+00	  0.092545092	9.751500E+01	  0.092545092	3.226300E+01	  0.092545092	3.216600E+01
364	  0.092745490	-7.658000E+00	  0.092745490	9.693500E+01	  0.092745490	3.258300E+01	  0.092745490	3.232700E+01
365	  0.092945889	-7.691000E+00	  0.092945889	9.635700E+01	  0.092945889	3.288900E+01	  0.092945889	3.249800E+01
366	  0.093146294	-7.728000E+00	  0.093146294	9.577800E+01	  0.093146294	3.321400E+01	  0.093146294	3.265400E+01
367	  0.093346693	-7.765000E+00	  0.093346693	9.521800E+01	  0.093346693	3.353200E+01	  0.093346693	3.280200E+01
368	  0.093547091	-7.804000E+00	  0.093547091	9.461600E+01	  0.093547091	3.387400E+01	  0.093547091	3.296000E+01
369	  0.093747497	-7.836000E+00	  0.093747497	9.407600E+01	  0.093747497	3.417500E+01	  0.093747497	3.310600E+01
370	  0.093947895	-7.874000E+00	  0.093947895	9.346600E+01	  0.093947895	3.452300E+01	  0.093947895	3.326500E+01
371	  0.094148301	-7.912000E+00	  0.094148301	9.288500E+01	  0.094148301	3.486300E+01	  0.094148301	3.340800E+01
372	  0.094348699	-7.948000E+00	  0.094348699	9.232300E+01	  0.094348699	3.519300E+01	  0.094348699	3.354500E+01
373	  0.094549097	-7.984000E+00	  0.094549097	9.176800E+01	  0.094549097	3.552100E+01	  0.094549097	3.367800E+01
374	  0.094749503	-8.022000E+00	  0.094749503	9.122200E+01	  0.094749503	3.585600E+01	  0.094749503	3.379600E+01
375	  0.094949901	-8.054000E+00	  0.094949901	9.068900E+01	  0.094949901	3.616900E+01	  0.094949901	3.392500E+01
376	  0.095150299	-8.085000E+00	  0.095150299	9.013200E+01	  0.095150299	3.649300E+01	  0.095150299	3.406400E+01
377	  0.095350705	-8.123000E+00	  0.095350705	8.960400E+01	  0.095350705	3.682300E+01	  0.095350705	3.417000E+01
378	  0.095551103	-8.155000E+00	  0.095551103	8.908200E+01	  0.095551103	3.713800E+01	  0.095551103	3.428700E+01
379	  0.095751502	-8.192000E+00	  0.095751502	8.857200E+01	  0.095751502	3.746400E+01	  0.095751502	3.438100E+01
380	  0.095951907	-8.220000E+00	  0.095951907	8.808300E+01	  0.095951907	3.775800E+01	  0.095951907	3.449200E+01
381	  0.096152306	-8.258000E+00	  0.096152306	8.759700E+01	  0.096152306	3.807900E+01	  0.096152306	3.456800E+01
382	  0.096352704	-8.292000E+00	  0.096352704	8.708800E+01	  0.096352704	3.840400E+01	  0.096352704	3.466100E+01
383	  0.096553110	-8.326000E+00	  0.096553110	8.664600E+01	  0.096553110	3.869700E+01	  0.096553110	3.472700E+01
384	  0.096753508	-8.357000E+00	  0.096753508	8.616800E+01	  0.096753508	3.900000E+01	  0.096753508	3.481500E+01
385	  0.096953906	-8.389000E+00	  0.096953906	8.570000E+01	  0.096953906	3.930500E+01	  0.096953906	3.489200E+01
386	  0.097154312	-8.421000E+00	  0.097154312	8.523700E+01	  0.097154312	3.960600E+01	  0.097154312	3.496600E+01
387	  0.097354710	-8.451000E+00	  0.097354710	8.477400E+01	  0.097354710	3.990500E+01	  0.097354710	3.504300E+01
388	  0.097555116	-8.490000E+00	  0.097555116	8.428700E+01	  0.097555116	4.023800E+01	  0.097555116	3.509900E+01
389	  0.097755514	-8.515000E+00	  0.097755514	8.385200E+01	  0.097755514	4.051600E+01	  0.097755514	3.517500E+01
390	  0.097955912	-8.550000E+00	  0.097955912	8.342500E+01	  0.097955912	4.081300E+01	  0.097955912	3.521500E+01
391	  0.098156318	-8.573000E+00	  0.098156318	8.298800E+01	  0.098156318	4.108700E+01	  0.098156318	3.529800E+01
392	  0.098356716	-8.599000E+00	  0.098356716	8.258700E+01	  0.098356716	4.135300E+01	  0.098356716	3.535200E+01
393	  0.098557115	-8.626000E+00	  0.098557115	8.218600E+01	  0.098557115	4.162100E+01	  0.098557115	3.540400E+01
394	  0.098757520	-8.656000E+00	  0.098757520	8.176500E+01	  0.098757520	4.190700E+01	  0.098757520	3.545100E+01
395	  0.098957919	-8.676000E+00	  0.098957919	8.138000E+01	  0.098957919	4.215400E+01	  0.098957919	3.551500E+01
396	  0.099158317	-8.699000E+00	  0.099158317	8.098700E+01	  0.099158317	4.241300E+01	  0.099158317	3.557000E+01
397	  0.099358723	-8.726000E+00	  0.099358723	8.057200E+01	  0.099358723	4.269300E+01	  0.099358723	3.561800E+01
398	  0.099559121	-8.750000E+00	  0.099559121	8.016700E+01	  0.099559121	4.296300E+01	  0.099559121	3.567000E+01
399	  0.099759519	-8.775000E+00	  0.099759519	7.981700E+01	  0.099759519	4.320500E+01	  0.099759519	3.570000E+01
400	  0.099959925	-8.796000E+00	  0.099959925	7.950700E+01	  0.099959925	4.341900E+01	  0.099959925	3.572600E+01
401	  0.100160323	-8.817000E+00	  0.100160323	7.909000E+01	  0.100160323	4.369100E+01	  0.100160323	3.579000E+01
402	  0.100360721	-8.840000E+00	  0.100360721	7.879700E+01	  0.100360721	4.390000E+01	  0.100360721	3.580200E+01
403	  0.100561127	-8.864000E+00	  0.100561127	7.833700E+01	  0.100561127	4.420400E+01	  0.100561127	3.586300E+01
404	  0.100761525	-8.889000E+00	  0.100761525	7.800200E+01	  0.100761525	4.444400E+01	  0.100761525	3.587600E+01
405	  0.100961931	-8.902000E+00	  0.100961931	7.758300E+01	  0.100961931	4.470500E+01	  0.100961931	3.596000E+01
406	  0.101162329	-8.930000E+00	  0.101162329	7.727500E+01	  0.101162329	4.493500E+01	  0.101162329	3.595200E+01
407	  0.101362728	-8.943000E+00	  0.101362728	7.690600E+01	  0.101362728	4.517000E+01	  0.101362728	3.601900E+01
408	  0.101563133	-8.956000E+00	  0.101563133	7.653500E+01	  0.101563133	4.540900E+01	  0.101563133	3.608200E+01
409	  0.101763532	-8.968000E+00	  0.101763532	7.616500E+01	  0.101763532	4.564400E+01	  0.101763532	3.614800E+01
410	  0.101963930	-8.986000E+00	  0.101963930	7.583900E+01	  0.101963930	4.586900E+01	  0.101963930	3.617600E+01
411	  0.102164336	-9.000000E+00	  0.102164336	7.547400E+01	  0.102164336	4.610700E+01	  0.102164336	3.623300E+01
412	  0.102364734	-9.016000E+00	  0.102364734	7.509300E+01	  0.102364734	4.636200E+01	  0.102364734	3.628100E+01
413	  0.102565132	-9.012000E+00	  0.102565132	7.477700E+01	  0.102565132	4.654000E+01	  0.102565132	3.639000E+01
414	  0.102765530	-9.026000E+00	  0.102765530	7.435800E+01	  0.102765530	4.681500E+01	  0.102765530	3.645600E+01
415	  0.102965929	-9.024000E+00	  0.102965929	7.403400E+01	  0.102965929	4.700500E+01	  0.102965929	3.655600E+01
416	  0.103166327	-9.035000E+00	  0.103166327	7.367700E+01	  0.103166327	4.724000E+01	  0.103166327	3.661300E+01
417	  0.103366733	-9.043000E+00	  0.103366733	7.333100E+01	  0.103366733	4.746400E+01	  0.103366733	3.667800E+01
418	  0.103567131	-9.043000E+00	  0.103567131	7.297800E+01	  0.103567131	4.767900E+01	  0.103567131	3.677600E+01
419	  0.103767529	-9.042000E+00	  0.103767529	7.258900E+01	  0.103767529	4.791800E+01	  0.103767529	3.688500E+01
420	  0.103967935	-9.049000E+00	  0.103967935	7.225600E+01	  0.103967935	4.813700E+01	  0.103967935	3.694600E+01
421	  0.104168333	-9.046000E+00	  0.104168333	7.182400E+01	  0.104168333	4.840000E+01	  0.104168333	3.707500E+01
422	  0.104368731	-9.042000E+00	  0.104368731	7.145600E+01	  0.104368731	4.862500E+01	  0.104368731	3.718800E+01
423	  0.104569137	-9.049000E+00	  0.104569137	7.108800E+01	  0.104569137	4.886900E+01	  0.104569137	3.726000E+01
424	  0.104769535	-9.039000E+00	  0.104769535	7.071900E+01	  0.104769535	4.908900E+01	  0.104769535	3.739400E+01
425	  0.104969934	-9.038000E+00	  0.104969934	7.035100E+01	  0.104969934	4.932300E+01	  0.104969934	3.749600E+01
426	  0.105170339	-9.034000E+00	  0.105170339	7.001000E+01	  0.105170339	4.953700E+01	  0.105170339	3.760000E+01
427	  0.105370738	-9.018000E+00	  0.105370738	6.953500E+01	  0.105370738	4.982100E+01	  0.105370738	3.778900E+01
428	  0.105571143	-9.012000E+00	  0.105571143	6.919500E+01	  0.105571143	5.003600E+01	  0.105571143	3.789900E+01
429	  0.105771542	-8.995000E+00	  0.105771542	6.876000E+01	  0.105771542	5.029600E+01	  0.105771542	3.808500E+01
430	  0.105971940	-8.984000E+00	  0.105971940	6.836600E+01	  0.105971940	5.054400E+01	  0.105971940	3.822900E+01
431	  0.106172346	-8.962000E+00	  0.106172346	6.797000E+01	  0.106172346	5.077700E+01	  0.106172346	3.842400E+01
432	  0.106372744	-8.956000E+00	  0.106372744	6.753300E+01	  0.106372744	5.106600E+01	  0.106372744	3.855700E+01
433	  0.106573142	-8.935000E+00	  0.106573142	6.712000E+01	  0.106573142	5.131800E+01	  0.106573142	3.875100E+01
434	  0.106773548	-8.930000E+00	  0.106773548	6.667900E+01	  0.106773548	5.161700E+01	  0.106773548	3.888200E+01
435	  0.106973946	-8.912000E+00	  0.106973946	6.626000E+01	  0.106973946	5.188400E+01	  0.106973946	3.906300E+01
436	  0.107174344	-8.890000E+00	  0.107174344	6.576400E+01	  0.107174344	5.220300E+01	  0.107174344	3.928200E+01
437	  0.107374750	-8.881000E+00	  0.107374750	6.533000E+01	  0.107374750	5.250200E+01	  0.107374750	3.942400E+01
438	  0.107575148	-8.873000E+00	  0.107575148	6.481300E+01	  0.107575148	5.286700E+01	  0.107575148	3.957500E+01
439	  0.107775547	-8.842000E+00	  0.107775547	6.436400E+01	  0.107775547	5.315000E+01	  0.107775547	3.982800E+01
440	  0.107975952	-8.828000E+00	  0.107975952	6.383100E+01	  0.107975952	5.352700E+01	  0.107975952	4.001000E+01
441	  0.108176351	-8.807000E+00	  0.108176351	6.336000E+01	  0.108176351	5.385100E+01	  0.108176351	4.021400E+01
442	  0.108376749	-8.793000E+00	  0.108376749	6.291700E+01	  0.108376749	5.416900E+01	  0.108376749	4.037800E+01
443	  0.108577155	-8.778000E+00	  0.108577155	6.230700E+01	  0.108577155	5.461600E+01	  0.108577155	4.058200E+01
444	  0.108777553	-8.772000E+00	  0.108777553	6.183800E+01	  0.108777553	5.497300E+01	  0.108777553	4.070600E+01
445	  0.108977959	-8.749000E+00	  0.108977959	6.122300E+01	  0.108977959	5.542700E+01	  0.108977959	4.094400E+01
446	  0.109178357	-8.730000E+00	  0.109178357	6.066300E+01	  0.109178357	5.585100E+01	  0.109178357	4.114900E+01
447	  0.109378755	-8.706000E+00	  0.109378755	6.011100E+01	  0.109378755	5.626700E+01	  0.109378755	4.138300E+01
448	  0.109579161	-8.690000E+00	  0.109579161	5.951300E+01	  0.109579161	5.673700E+01	  0.109579161	4.157300E+01
449	  0.109779559	-8.668000E+00	  0.109779559	5.894200E+01	  0.109779559	5.718600E+01	  0.109779559	4.179100E+01
450	  0.109979957	-8.662000E+00	  0.109979957	5.834400E+01	  0.109979957	5.768000E+01	  0.109979957	4.193000E+01
451	  0.110180363	-8.637000E+00	  0.110180363	5.766800E+01	  0.110180363	5.822900E+01	  0.110180363	4.217400E+01
452	  0.110380761	-8.618000E+00	  0.110380761	5.708400E+01	  0.110380761	5.871400E+01	  0.110380761	4.237200E+01
453	  0.110581160	-8.602000E+00	  0.110581160	5.642000E+01	  0.110581160	5.928000E+01	  0.110581160	4.255800E+01
454	  0.110781565	-8.587000E+00	  0.110781565	5.579600E+01	  0.110781565	5.981900E+01	  0.110781565	4.273000E+01
455	  0.110981964	-8.561000E+00	  0.110981964	5.515000E+01	  0.110981964	6.037800E+01	  0.110981964	4.296800E+01
456	  0.111182362	-8.553000E+00	  0.111182362	5.446700E+01	  0.111182362	6.099400E+01	  0.111182362	4.309500E+01
457	  0.111382768	-8.535000E+00	  0.111382768	5.376200E+01	  0.111382768	6.163400E+01	  0.111382768	4.327900E+01
458	  0.111583166	-8.524000E+00	  0.111583166	5.310400E+01	  0.111583166	6.224300E+01	  0.111583166	4.341100E+01
459	  0.111783572	-8.511000E+00	  0.111783572	5.241100E+01	  0.111783572	6.289400E+01	  0.111783572	4.354900E+01
460	  0.111983970	-8.496000E+00	  0.111983970	5.167600E+01	  0.111983970	6.359600E+01	  0.111983970	4.369500E+01
461	  0.112184368	-8.491000E+00	  0.112184368	5.094700E+01	  0.112184368	6.430500E+01	  0.112184368	4.376900E+01
462	  0.112384774	-8.471000E+00	  0.112384774	5.021800E+01	  0.112384774	6.502200E+01	  0.112384774	4.393100E+01
463	  0.112585172	-8.467000E+00	  0.112585172	4.944500E+01	  0.112585172	6.579700E+01	  0.112585172	4.397500E+01
464	  0.112785570	-8.462000E+00	  0.112785570	4.869800E+01	  0.112785570	6.655500E+01	  0.112785570	4.401600E+01
465	  0.112985976	-8.455000E+00	  0.112985976	4.788800E+01	  0.112985976	6.739000E+01	  0.112985976	4.405900E+01
466	  0.113186374	-8.449000E+00	  0.113186374	4.710000E+01	  0.113186374	6.821300E+01	  0.113186374	4.407700E+01
467	  0.113386773	-8.444000E+00	  0.113386773	4.633000E+01	  0.113386773	6.902700E+01	  0.113386773	4.407900E+01
468	  0.113587178	-8.447000E+00	  0.113587178	4.551500E+01	  0.113587178	6.989600E+01	  0.113587178	4.400300E+01
469	  0.113787577	-8.444000E+00	  0.113787577	4.472600E+01	  0.113787577	7.075000E+01	  0.113787577	4.395300E+01
470	  0.113987975	-8.444000E+00	  0.113987975	4.388200E+01	  0.113987975	7.167000E+01	  0.113987975	4.385600E+01
471	  0.114188381	-8.442000E+00	  0.114188381	4.300000E+01	  0.114188381	7.264600E+01	  0.114188381	4.374800E+01
472	  0.114388779	-8.446000E+00	  0.114388779	4.215300E+01	  0.114388779	7.358500E+01	  0.114388779	4.358500E+01
473	  0.114589177	-8.448000E+00	  0.114589177	4.128500E+01	  0.114589177	7.455900E+01	  0.114589177	4.340000E+01
474	  0.114789583	-8.456000E+00	  0.114789583	4.044600E+01	  0.114789583	7.549900E+01	  0.114789583	4.316100E+01
475	  0.114989981	-8.463000E+00	  0.114989981	3.952600E+01	  0.114989981	7.653800E+01	  0.114989981	4.288000E+01
476	  0.115190387	-8.471000E+00	  0.115190387	3.862000E+01	  0.115190387	7.756300E+01	  0.115190387	4.255900E+01
477	  0.115390785	-8.489000E+00	  0.115390785	3.767000E+01	  0.115390785	7.862100E+01	  0.115390785	4.212100E+01
478	  0.115591183	-8.497000E+00	  0.115591183	3.678800E+01	  0.115591183	7.962700E+01	  0.115591183	4.175500E+01
479	  0.115791589	-8.514000E+00	  0.115791589	3.582400E+01	  0.115791589	8.070300E+01	  0.115791589	4.125700E+01
480	  0.115991987	-8.524000E+00	  0.115991987	3.486700E+01	  0.115991987	8.178800E+01	  0.115991987	4.077600E+01
481	  0.116192386	-8.546000E+00	  0.116192386	3.394500E+01	  0.116192386	8.279500E+01	  0.116192386	4.018300E+01
482	  0.116392791	-8.559000E+00	  0.116392791	3.297600E+01	  0.116392791	8.387600E+01	  0.116392791	3.960300E+01
483	  0.116593190	-8.580000E+00	  0.116593190	3.194400E+01	  0.116593190	8.499400E+01	  0.116593190	3.888300E+01
484	  0.116793588	-8.601000E+00	  0.116793588	3.096400E+01	  0.116793588	8.604200E+01	  0.116793588	3.815700E+01
485	  0.116993994	-8.630000E+00	  0.116993994	2.993200E+01	  0.116993994	8.709700E+01	  0.116993994	3.729100E+01
486	  0.117194392	-8.651000E+00	  0.117194392	2.886500E+01	  0.117194392	8.821100E+01	  0.117194392	3.642700E+01
487	  0.117394790	-8.679000E+00	  0.117394790	2.782900E+01	  0.117394790	8.923200E+01	  0.117394790	3.548200E+01
488	  0.117595196	-8.709000E+00	  0.117595196	2.674100E+01	  0.117595196	9.027500E+01	  0.117595196	3.444300E+01
489	  0.117795594	-8.742000E+00	  0.117795594	2.570700E+01	  0.117795594	9.120700E+01	  0.117795594	3.337600E+01
490	  0.117995992	-8.779000E+00	  0.117995992	2.457100E+01	  0.117995992	9.219600E+01	  0.117995992	3.216500E+01
491	  0.118196398	-8.810000E+00	  0.118196398	2.347600E+01	  0.118196398	9.313500E+01	  0.118196398	3.098500E+01
492	  0.118396796	-8.854000E+00	  0.118396796	2.236300E+01	  0.118396796	9.396700E+01	  0.118396796	2.966300E+01
493	  0.118597202	-8.894000E+00	  0.118597202	2.121000E+01	  0.118597202	9.480700E+01	  0.118597202	2.828600E+01
494	  0.118797600	-8.947000E+00	  0.118797600	1.996900E+01	  0.118797600	9.558700E+01	  0.118797600	2.670900E+01
495	  0.118997999	-8.998000E+00	  0.118997999	1.878500E+01	  0.118997999	9.626400E+01	  0.118997999	2.517100E+01
496	  0.119198404	-9.046000E+00	  0.119198404	1.758100E+01	  0.119198404	9.690900E+01	  0.119198404	2.360100E+01
497	  0.119398803	-9.103000E+00	  0.119398803	1.633900E+01	  0.119398803	9.744600E+01	  0.119398803	2.191700E+01
498	  0.119599201	-9.170000E+00	  0.119599201	1.512200E+01	  0.119599201	9.781000E+01	  0.119599201	2.019900E+01
499	  0.119799607	-9.238000E+00	  0.119799607	1.382100E+01	  0.119799607	9.814600E+01	  0.119799607	1.837900E+01
500	  0.120000005	-9.310000E+00	  0.120000005	1.254000E+01	  0.120000005	9.834300E+01	  0.120000005	1.656200E+01
