! Anritsu VNA Master:             	Model: MS2036C/10/77
! SN:             	1601066
! /bd0/18may07/256.ew.m12.txt
! Existing Calibration Information:
! TYPE:             	Current Settings	Active Cal Settings
! TIME:             	05/07/2018 02:26:41 PM	05/07/2018 02:21:54 PM
! INTERNAL TEMP:    	56.3 C	55.5 C
! # POINTS:         	500	500
! START FREQ:       	20.000 MHz	20.000 MHz
! STOP FREQ:        	120.000 MHz	120.000 MHz
! SOURCE POWER:     	High	High
! IFBW:             	50 Hz	50 Hz
! AVG FACTOR:       	  1 	  1 
! REF PLANE 1:      	0 mm	0 mm
! REF PLANE 2:      	0 mm	0 mm
! CAL TYPE:         	Full S11	Full S11
! CAL METHOD:       	SOLT	SOLT
! CAL LINE TYPE:    	Coax	Coax
! DUT PORT 1:       	K-Conn(F)	K-Conn(F)
! DUT PORT 2:       	K-Conn(F)	K-Conn(F)
! CAL STATUS:       	OK: Accuracy High	--
! PROP-V:       	0.700
! CABLE LOSS:       	0.000 dB/m
! REF IMPEDANCE:       	50.0
! Trace Specific Parameters:	TR1	TR2	TR3	TR4
! TRACE.#.Y (GRAPH TYPE)	LOG MAG	PHASE	REAL IMPEDANCE	IMAGINARY IMPEDANCE
! TRACE.#.X 	FREQ.GHZ	FREQ.GHZ	FREQ.GHZ	FREQ.GHZ
! S-PARAMETER	S11	S11	S11	S11
! SMOOTH/APERTURE %	0	0	0	0
! WINDOW	NSL	NSL	NSL	NSL
! GATING	OFF	OFF	OFF	OFF
! FGTD	OFF	OFF	OFF	OFF
Marker Information per Trace:	TR1	TR2	TR3	TR4
!MK1	--	"MK1 TR2:  20.000 MHz,PH:-126.14°"	--	--
!MK2	--	--	"MK2 TR3:  70.100 200 MHz,Z:(16.492 ohm, -2.599 ohm)"	--
!MK3	--	--	--	--
!MK4	--	--	--	--
!MK5	--	--	--	--
!MK6	--	--	--	--
!MK7	--	--	--	--
!MK8	--	--	--	--
PNT	TR1.FREQ.GHZ	TR1.LOG MAG.dB	TR2.FREQ.GHZ	TR2.PHASE.deg	TR3.FREQ.GHZ	TR3.REAL IMPEDANCE.ohm	TR4.FREQ.GHZ	TR4.IMAGINARY IMPEDANCE.ohm
1	  0.020000000	-6.430000E-01	  0.020000000	-1.261350E+02	  0.020000000	2.328000E+00	  0.020000000	-2.535800E+01
2	  0.020200402	-6.410000E-01	  0.020200402	-1.276020E+02	  0.020200402	2.291000E+00	  0.020200402	-2.456000E+01
3	  0.020400802	-6.420000E-01	  0.020400802	-1.290700E+02	  0.020400802	2.267000E+00	  0.020400802	-2.377100E+01
4	  0.020601204	-6.440000E-01	  0.020601204	-1.305250E+02	  0.020601204	2.246000E+00	  0.020601204	-2.299800E+01
5	  0.020801604	-6.480000E-01	  0.020801604	-1.320320E+02	  0.020801604	2.233000E+00	  0.020801604	-2.220700E+01
6	  0.021002004	-6.550000E-01	  0.021002004	-1.335430E+02	  0.021002004	2.233000E+00	  0.021002004	-2.142300E+01
7	  0.021202406	-6.600000E-01	  0.021202406	-1.350800E+02	  0.021202406	2.224000E+00	  0.021202406	-2.063400E+01
8	  0.021402806	-6.680000E-01	  0.021402806	-1.366130E+02	  0.021402806	2.225000E+00	  0.021402806	-1.985600E+01
9	  0.021603208	-6.710000E-01	  0.021603208	-1.381500E+02	  0.021603208	2.213000E+00	  0.021603208	-1.908500E+01
10	  0.021803608	-6.760000E-01	  0.021803608	-1.396770E+02	  0.021803608	2.208000E+00	  0.021803608	-1.832600E+01
11	  0.022004008	-6.840000E-01	  0.022004008	-1.412220E+02	  0.022004008	2.213000E+00	  0.022004008	-1.756600E+01
12	  0.022204408	-6.940000E-01	  0.022204408	-1.427700E+02	  0.022204408	2.222000E+00	  0.022204408	-1.681100E+01
13	  0.022404809	-6.950000E-01	  0.022404809	-1.443420E+02	  0.022404809	2.207000E+00	  0.022404809	-1.605200E+01
14	  0.022605211	-6.970000E-01	  0.022605211	-1.459420E+02	  0.022605211	2.194000E+00	  0.022605211	-1.528700E+01
15	  0.022805611	-7.030000E-01	  0.022805611	-1.475350E+02	  0.022805611	2.195000E+00	  0.022805611	-1.453100E+01
16	  0.023006011	-7.080000E-01	  0.023006011	-1.491290E+02	  0.023006011	2.192000E+00	  0.023006011	-1.378000E+01
17	  0.023206413	-7.130000E-01	  0.023206413	-1.507200E+02	  0.023206413	2.191000E+00	  0.023206413	-1.303700E+01
18	  0.023406813	-7.150000E-01	  0.023406813	-1.523050E+02	  0.023406813	2.184000E+00	  0.023406813	-1.230200E+01
19	  0.023607215	-7.180000E-01	  0.023607215	-1.538910E+02	  0.023607215	2.178000E+00	  0.023607215	-1.157200E+01
20	  0.023807615	-7.260000E-01	  0.023807615	-1.554960E+02	  0.023807615	2.187000E+00	  0.023807615	-1.083700E+01
21	  0.024008015	-7.360000E-01	  0.024008015	-1.571240E+02	  0.024008015	2.206000E+00	  0.024008015	-1.009700E+01
22	  0.024208417	-7.470000E-01	  0.024208417	-1.587480E+02	  0.024208417	2.224000E+00	  0.024208417	-9.362000E+00
23	  0.024408817	-7.570000E-01	  0.024408817	-1.604040E+02	  0.024408817	2.243000E+00	  0.024408817	-8.617000E+00
24	  0.024609219	-7.650000E-01	  0.024609219	-1.620520E+02	  0.024609219	2.257000E+00	  0.024609219	-7.880000E+00
25	  0.024809619	-7.750000E-01	  0.024809619	-1.637120E+02	  0.024809619	2.275000E+00	  0.024809619	-7.140000E+00
26	  0.025010020	-7.880000E-01	  0.025010020	-1.653730E+02	  0.025010020	2.304000E+00	  0.025010020	-6.403000E+00
27	  0.025210422	-7.990000E-01	  0.025210422	-1.670350E+02	  0.025210422	2.329000E+00	  0.025210422	-5.669000E+00
28	  0.025410822	-8.140000E-01	  0.025410822	-1.687160E+02	  0.025410822	2.364000E+00	  0.025410822	-4.928000E+00
29	  0.025611224	-8.260000E-01	  0.025611224	-1.704170E+02	  0.025611224	2.394000E+00	  0.025611224	-4.181000E+00
30	  0.025811624	-8.420000E-01	  0.025811624	-1.721230E+02	  0.025811624	2.433000E+00	  0.025811624	-3.434000E+00
31	  0.026012026	-8.530000E-01	  0.026012026	-1.738570E+02	  0.026012026	2.460000E+00	  0.026012026	-2.676000E+00
32	  0.026212426	-8.640000E-01	  0.026212426	-1.755860E+02	  0.026212426	2.490000E+00	  0.026212426	-1.922000E+00
33	  0.026412826	-8.770000E-01	  0.026412826	-1.773180E+02	  0.026412826	2.525000E+00	  0.026412826	-1.167000E+00
34	  0.026613226	-8.920000E-01	  0.026613226	-1.790620E+02	  0.026613226	2.565000E+00	  0.026613226	-4.080000E-01
35	  0.026813626	-9.080000E-01	  0.026813626	1.791750E+02	  0.026813626	2.613000E+00	  0.026813626	3.580000E-01
36	  0.027014028	-9.260000E-01	  0.027014028	1.774080E+02	  0.027014028	2.666000E+00	  0.027014028	1.127000E+00
37	  0.027214428	-9.430000E-01	  0.027214428	1.756190E+02	  0.027214428	2.717000E+00	  0.027214428	1.906000E+00
38	  0.027414829	-9.600000E-01	  0.027414829	1.738300E+02	  0.027414829	2.770000E+00	  0.027414829	2.686000E+00
39	  0.027615231	-9.780000E-01	  0.027615231	1.720350E+02	  0.027615231	2.826000E+00	  0.027615231	3.469000E+00
40	  0.027815631	-9.970000E-01	  0.027815631	1.702160E+02	  0.027815631	2.888000E+00	  0.027815631	4.265000E+00
41	  0.028016033	-1.018000E+00	  0.028016033	1.683960E+02	  0.028016033	2.959000E+00	  0.028016033	5.062000E+00
42	  0.028216433	-1.041000E+00	  0.028216433	1.665680E+02	  0.028216433	3.034000E+00	  0.028216433	5.866000E+00
43	  0.028416833	-1.062000E+00	  0.028416833	1.647270E+02	  0.028416833	3.109000E+00	  0.028416833	6.678000E+00
44	  0.028617235	-1.084000E+00	  0.028617235	1.628970E+02	  0.028617235	3.188000E+00	  0.028617235	7.488000E+00
45	  0.028817635	-1.102000E+00	  0.028817635	1.610630E+02	  0.028817635	3.257000E+00	  0.028817635	8.304000E+00
46	  0.029018037	-1.124000E+00	  0.029018037	1.592430E+02	  0.029018037	3.339000E+00	  0.029018037	9.117000E+00
47	  0.029218437	-1.146000E+00	  0.029218437	1.574220E+02	  0.029218437	3.426000E+00	  0.029218437	9.935000E+00
48	  0.029418837	-1.169000E+00	  0.029418837	1.555950E+02	  0.029418837	3.517000E+00	  0.029418837	1.076100E+01
49	  0.029619239	-1.195000E+00	  0.029619239	1.537680E+02	  0.029619239	3.620000E+00	  0.029619239	1.159100E+01
50	  0.029819639	-1.225000E+00	  0.029819639	1.518970E+02	  0.029819639	3.739000E+00	  0.029819639	1.244800E+01
51	  0.030020041	-1.255000E+00	  0.030020041	1.500110E+02	  0.030020041	3.865000E+00	  0.030020041	1.331700E+01
52	  0.030220442	-1.285000E+00	  0.030220442	1.480960E+02	  0.030220442	3.993000E+00	  0.030220442	1.420700E+01
53	  0.030420844	-1.315000E+00	  0.030420844	1.461810E+02	  0.030420844	4.125000E+00	  0.030420844	1.510500E+01
54	  0.030621244	-1.346000E+00	  0.030621244	1.442670E+02	  0.030621244	4.266000E+00	  0.030621244	1.601000E+01
55	  0.030821644	-1.378000E+00	  0.030821644	1.423680E+02	  0.030821644	4.414000E+00	  0.030821644	1.691700E+01
56	  0.031022044	-1.412000E+00	  0.031022044	1.404360E+02	  0.031022044	4.578000E+00	  0.031022044	1.784900E+01
57	  0.031222444	-1.442000E+00	  0.031222444	1.385350E+02	  0.031222444	4.730000E+00	  0.031222444	1.877700E+01
58	  0.031422846	-1.478000E+00	  0.031422846	1.365390E+02	  0.031422846	4.914000E+00	  0.031422846	1.976100E+01
59	  0.031623244	-1.515000E+00	  0.031623244	1.345510E+02	  0.031623244	5.107000E+00	  0.031623244	2.075400E+01
60	  0.031823646	-1.553000E+00	  0.031823646	1.325550E+02	  0.031823646	5.313000E+00	  0.031823646	2.176300E+01
61	  0.032024048	-1.588000E+00	  0.032024048	1.305570E+02	  0.032024048	5.514000E+00	  0.032024048	2.278800E+01
62	  0.032224450	-1.623000E+00	  0.032224450	1.285470E+02	  0.032224450	5.728000E+00	  0.032224450	2.383400E+01
63	  0.032424849	-1.660000E+00	  0.032424849	1.265530E+02	  0.032424849	5.957000E+00	  0.032424849	2.488600E+01
64	  0.032625251	-1.693000E+00	  0.032625251	1.245490E+02	  0.032625251	6.185000E+00	  0.032625251	2.596200E+01
65	  0.032825653	-1.730000E+00	  0.032825653	1.225530E+02	  0.032825653	6.435000E+00	  0.032825653	2.705000E+01
66	  0.033026051	-1.769000E+00	  0.033026051	1.205860E+02	  0.033026051	6.706000E+00	  0.033026051	2.813800E+01
67	  0.033226453	-1.810000E+00	  0.033226453	1.185910E+02	  0.033226453	6.997000E+00	  0.033226453	2.926100E+01
68	  0.033426855	-1.856000E+00	  0.033426855	1.166020E+02	  0.033426855	7.323000E+00	  0.033426855	3.039700E+01
69	  0.033627257	-1.908000E+00	  0.033627257	1.146120E+02	  0.033627257	7.685000E+00	  0.033627257	3.155100E+01
70	  0.033827655	-1.958000E+00	  0.033827655	1.125870E+02	  0.033827655	8.065000E+00	  0.033827655	3.274900E+01
71	  0.034028057	-2.011000E+00	  0.034028057	1.105240E+02	  0.034028057	8.480000E+00	  0.034028057	3.399200E+01
72	  0.034228459	-2.060000E+00	  0.034228459	1.084430E+02	  0.034228459	8.903000E+00	  0.034228459	3.527400E+01
73	  0.034428857	-2.111000E+00	  0.034428857	1.063350E+02	  0.034428857	9.362000E+00	  0.034428857	3.660000E+01
74	  0.034629259	-2.158000E+00	  0.034629259	1.041800E+02	  0.034629259	9.839000E+00	  0.034629259	3.799000E+01
75	  0.034829661	-2.204000E+00	  0.034829661	1.020740E+02	  0.034829661	1.033100E+01	  0.034829661	3.938000E+01
76	  0.035030060	-2.249000E+00	  0.035030060	9.994800E+01	  0.035030060	1.085400E+01	  0.035030060	4.081900E+01
77	  0.035230462	-2.292000E+00	  0.035230462	9.785000E+01	  0.035230462	1.139400E+01	  0.035230462	4.227600E+01
78	  0.035430863	-2.336000E+00	  0.035430863	9.576000E+01	  0.035430863	1.197300E+01	  0.035430863	4.376300E+01
79	  0.035631265	-2.378000E+00	  0.035631265	9.366800E+01	  0.035631265	1.258100E+01	  0.035631265	4.529100E+01
80	  0.035831664	-2.421000E+00	  0.035831664	9.159000E+01	  0.035831664	1.323600E+01	  0.035831664	4.684800E+01
81	  0.036032066	-2.465000E+00	  0.036032066	8.952600E+01	  0.036032066	1.393200E+01	  0.036032066	4.843400E+01
82	  0.036232468	-2.510000E+00	  0.036232468	8.745300E+01	  0.036232468	1.468800E+01	  0.036232468	5.006800E+01
83	  0.036432866	-2.557000E+00	  0.036432866	8.540800E+01	  0.036432866	1.550000E+01	  0.036432866	5.172100E+01
84	  0.036633268	-2.607000E+00	  0.036633268	8.337400E+01	  0.036633268	1.638400E+01	  0.036633268	5.340200E+01
85	  0.036833670	-2.661000E+00	  0.036833670	8.133000E+01	  0.036833670	1.735500E+01	  0.036833670	5.513100E+01
86	  0.037034072	-2.718000E+00	  0.037034072	7.928600E+01	  0.037034072	1.842100E+01	  0.037034072	5.689500E+01
87	  0.037234470	-2.777000E+00	  0.037234470	7.722300E+01	  0.037234470	1.958200E+01	  0.037234470	5.872000E+01
88	  0.037434869	-2.837000E+00	  0.037434869	7.514300E+01	  0.037434869	2.084900E+01	  0.037434869	6.060400E+01
89	  0.037635271	-2.896000E+00	  0.037635271	7.303100E+01	  0.037635271	2.222500E+01	  0.037635271	6.257200E+01
90	  0.037835669	-2.958000E+00	  0.037835669	7.089400E+01	  0.037835669	2.374000E+01	  0.037835669	6.460900E+01
91	  0.038036071	-3.018000E+00	  0.038036071	6.875000E+01	  0.038036071	2.537600E+01	  0.038036071	6.670800E+01
92	  0.038236473	-3.080000E+00	  0.038236473	6.657100E+01	  0.038236473	2.718700E+01	  0.038236473	6.889200E+01
93	  0.038436871	-3.135000E+00	  0.038436871	6.442100E+01	  0.038436871	2.908900E+01	  0.038436871	7.112000E+01
94	  0.038637273	-3.191000E+00	  0.038637273	6.226700E+01	  0.038637273	3.116400E+01	  0.038637273	7.340000E+01
95	  0.038837675	-3.242000E+00	  0.038837675	6.013100E+01	  0.038837675	3.336800E+01	  0.038837675	7.573500E+01
96	  0.039038073	-3.289000E+00	  0.039038073	5.802300E+01	  0.039038073	3.571400E+01	  0.039038073	7.810500E+01
97	  0.039238475	-3.335000E+00	  0.039238475	5.595300E+01	  0.039238475	3.822100E+01	  0.039238475	8.048000E+01
98	  0.039438877	-3.385000E+00	  0.039438877	5.388500E+01	  0.039438877	4.099100E+01	  0.039438877	8.285200E+01
99	  0.039639279	-3.436000E+00	  0.039639279	5.185300E+01	  0.039639279	4.398400E+01	  0.039639279	8.517800E+01
100	  0.039839678	-3.492000E+00	  0.039839678	4.979400E+01	  0.039839678	4.732000E+01	  0.039839678	8.750100E+01
101	  0.040040080	-3.552000E+00	  0.040040080	4.773500E+01	  0.040040080	5.099800E+01	  0.040040080	8.975500E+01
102	  0.040240481	-3.613000E+00	  0.040240481	4.567300E+01	  0.040240481	5.502300E+01	  0.040240481	9.193800E+01
103	  0.040440880	-3.673000E+00	  0.040440880	4.359100E+01	  0.040440880	5.943300E+01	  0.040440880	9.406800E+01
104	  0.040641282	-3.733000E+00	  0.040641282	4.151800E+01	  0.040641282	6.422100E+01	  0.040641282	9.604400E+01
105	  0.040841684	-3.790000E+00	  0.040841684	3.942300E+01	  0.040841684	6.944700E+01	  0.040841684	9.791700E+01
106	  0.041042086	-3.848000E+00	  0.041042086	3.735600E+01	  0.041042086	7.505900E+01	  0.041042086	9.950900E+01
107	  0.041242484	-3.903000E+00	  0.041242484	3.527700E+01	  0.041242484	8.114400E+01	  0.041242484	1.008500E+02
108	  0.041442886	-3.958000E+00	  0.041442886	3.321100E+01	  0.041442886	8.767300E+01	  0.041442886	1.017990E+02
109	  0.041643288	-4.014000E+00	  0.041643288	3.112300E+01	  0.041643288	9.475200E+01	  0.041643288	1.022840E+02
110	  0.041843686	-4.066000E+00	  0.041843686	2.906000E+01	  0.041843686	1.022010E+02	  0.041843686	1.022540E+02
111	  0.042044088	-4.116000E+00	  0.042044088	2.700600E+01	  0.042044088	1.100550E+02	  0.042044088	1.015900E+02
112	  0.042244490	-4.166000E+00	  0.042244490	2.496500E+01	  0.042244490	1.182430E+02	  0.042244490	1.001580E+02
113	  0.042444889	-4.217000E+00	  0.042444889	2.294300E+01	  0.042444889	1.266410E+02	  0.042444889	9.778500E+01
114	  0.042645290	-4.267000E+00	  0.042645290	2.092500E+01	  0.042645290	1.352020E+02	  0.042645290	9.443800E+01
115	  0.042845692	-4.317000E+00	  0.042845692	1.893300E+01	  0.042845692	1.436660E+02	  0.042845692	9.002500E+01
116	  0.043046094	-4.367000E+00	  0.043046094	1.693300E+01	  0.043046094	1.520030E+02	  0.043046094	8.444700E+01
117	  0.043246493	-4.415000E+00	  0.043246493	1.492300E+01	  0.043246493	1.600420E+02	  0.043246493	7.768300E+01
118	  0.043446895	-4.465000E+00	  0.043446895	1.293500E+01	  0.043446895	1.673450E+02	  0.043446895	6.975700E+01
119	  0.043647297	-4.512000E+00	  0.043647297	1.093700E+01	  0.043647297	1.739050E+02	  0.043647297	6.074400E+01
120	  0.043847695	-4.559000E+00	  0.043847695	8.981000E+00	  0.043847695	1.792690E+02	  0.043847695	5.094300E+01
121	  0.044048097	-4.609000E+00	  0.044048097	7.012000E+00	  0.044048097	1.833350E+02	  0.044048097	4.026500E+01
122	  0.044248499	-4.658000E+00	  0.044248499	5.029000E+00	  0.044248499	1.860540E+02	  0.044248499	2.900400E+01
123	  0.044448901	-4.701000E+00	  0.044448901	3.091000E+00	  0.044448901	1.874160E+02	  0.044448901	1.779100E+01
124	  0.044649299	-4.748000E+00	  0.044649299	1.151000E+00	  0.044649299	1.872200E+02	  0.044649299	6.550000E+00
125	  0.044849701	-4.791000E+00	  0.044849701	-8.010000E-01	  0.044849701	1.857310E+02	  0.044849701	-4.480000E+00
126	  0.045050103	-4.832000E+00	  0.045050103	-2.729000E+00	  0.045050103	1.830310E+02	  0.045050103	-1.488300E+01
127	  0.045250501	-4.873000E+00	  0.045250501	-4.658000E+00	  0.045250501	1.792200E+02	  0.045250501	-2.463200E+01
128	  0.045450903	-4.914000E+00	  0.045450903	-6.564000E+00	  0.045450903	1.744710E+02	  0.045450903	-3.344000E+01
129	  0.045651305	-4.956000E+00	  0.045651305	-8.466000E+00	  0.045651305	1.689670E+02	  0.045651305	-4.131400E+01
130	  0.045851704	-4.999000E+00	  0.045851704	-1.035100E+01	  0.045851704	1.629430E+02	  0.045851704	-4.816700E+01
131	  0.046052106	-5.038000E+00	  0.046052106	-1.223700E+01	  0.046052106	1.566190E+02	  0.046052106	-5.413700E+01
132	  0.046252504	-5.075000E+00	  0.046252504	-1.412000E+01	  0.046252504	1.501390E+02	  0.046252504	-5.924700E+01
133	  0.046452906	-5.116000E+00	  0.046452906	-1.598900E+01	  0.046452906	1.435520E+02	  0.046452906	-6.340400E+01
134	  0.046653304	-5.152000E+00	  0.046653304	-1.786300E+01	  0.046653304	1.370320E+02	  0.046653304	-6.687600E+01
135	  0.046853706	-5.184000E+00	  0.046853706	-1.972900E+01	  0.046853706	1.306740E+02	  0.046853706	-6.969600E+01
136	  0.047054108	-5.220000E+00	  0.047054108	-2.157300E+01	  0.047054108	1.244980E+02	  0.047054108	-7.176300E+01
137	  0.047254506	-5.252000E+00	  0.047254506	-2.342000E+01	  0.047254506	1.185550E+02	  0.047254506	-7.337700E+01
138	  0.047454908	-5.283000E+00	  0.047454908	-2.524100E+01	  0.047454908	1.129210E+02	  0.047454908	-7.448900E+01
139	  0.047655310	-5.313000E+00	  0.047655310	-2.706000E+01	  0.047655310	1.075420E+02	  0.047655310	-7.519700E+01
140	  0.047855709	-5.342000E+00	  0.047855709	-2.882900E+01	  0.047855709	1.025580E+02	  0.047855709	-7.555100E+01
141	  0.048056111	-5.371000E+00	  0.048056111	-3.059900E+01	  0.048056111	9.781800E+01	  0.048056111	-7.560800E+01
142	  0.048256513	-5.402000E+00	  0.048256513	-3.235100E+01	  0.048256513	9.336900E+01	  0.048256513	-7.537600E+01
143	  0.048456915	-5.431000E+00	  0.048456915	-3.410400E+01	  0.048456915	8.916500E+01	  0.048456915	-7.497400E+01
144	  0.048657313	-5.460000E+00	  0.048657313	-3.584300E+01	  0.048657313	8.522900E+01	  0.048657313	-7.438400E+01
145	  0.048857715	-5.485000E+00	  0.048857715	-3.760100E+01	  0.048857715	8.147100E+01	  0.048857715	-7.372000E+01
146	  0.049058117	-5.512000E+00	  0.049058117	-3.935500E+01	  0.049058117	7.794200E+01	  0.049058117	-7.288100E+01
147	  0.049258515	-5.537000E+00	  0.049258515	-4.108700E+01	  0.049258515	7.465600E+01	  0.049258515	-7.198200E+01
148	  0.049458917	-5.562000E+00	  0.049458917	-4.280700E+01	  0.049458917	7.158200E+01	  0.049458917	-7.100400E+01
149	  0.049659319	-5.588000E+00	  0.049659319	-4.451300E+01	  0.049659319	6.871500E+01	  0.049659319	-6.995300E+01
150	  0.049859721	-5.611000E+00	  0.049859721	-4.622200E+01	  0.049859721	6.599900E+01	  0.049859721	-6.887400E+01
151	  0.050060119	-5.634000E+00	  0.050060119	-4.791700E+01	  0.050060119	6.346400E+01	  0.050060119	-6.775200E+01
152	  0.050260521	-5.657000E+00	  0.050260521	-4.960600E+01	  0.050260521	6.107700E+01	  0.050260521	-6.661300E+01
153	  0.050460923	-5.675000E+00	  0.050460923	-5.130700E+01	  0.050460923	5.879800E+01	  0.050460923	-6.547200E+01
154	  0.050661322	-5.693000E+00	  0.050661322	-5.296800E+01	  0.050661322	5.669300E+01	  0.050661322	-6.434000E+01
155	  0.050861724	-5.708000E+00	  0.050861724	-5.461900E+01	  0.050861724	5.470500E+01	  0.050861724	-6.322100E+01
156	  0.051062126	-5.722000E+00	  0.051062126	-5.627800E+01	  0.051062126	5.281300E+01	  0.051062126	-6.208700E+01
157	  0.051262524	-5.736000E+00	  0.051262524	-5.787400E+01	  0.051262524	5.109200E+01	  0.051262524	-6.098100E+01
158	  0.051462926	-5.752000E+00	  0.051462926	-5.944800E+01	  0.051462926	4.948800E+01	  0.051462926	-5.987400E+01
159	  0.051663328	-5.768000E+00	  0.051663328	-6.100800E+01	  0.051663328	4.798000E+01	  0.051663328	-5.877800E+01
160	  0.051863730	-5.781000E+00	  0.051863730	-6.258000E+01	  0.051863730	4.652400E+01	  0.051863730	-5.769200E+01
161	  0.052064128	-5.796000E+00	  0.052064128	-6.412300E+01	  0.052064128	4.517800E+01	  0.052064128	-5.661300E+01
162	  0.052264530	-5.812000E+00	  0.052264530	-6.565500E+01	  0.052264530	4.390800E+01	  0.052264530	-5.554400E+01
163	  0.052464932	-5.828000E+00	  0.052464932	-6.716800E+01	  0.052464932	4.271600E+01	  0.052464932	-5.449200E+01
164	  0.052665330	-5.841000E+00	  0.052665330	-6.872500E+01	  0.052665330	4.153600E+01	  0.052665330	-5.343400E+01
165	  0.052865732	-5.858000E+00	  0.052865732	-7.026700E+01	  0.052865732	4.044000E+01	  0.052865732	-5.237600E+01
166	  0.053066134	-5.875000E+00	  0.053066134	-7.180100E+01	  0.053066134	3.940300E+01	  0.053066134	-5.133100E+01
167	  0.053266536	-5.889000E+00	  0.053266536	-7.328600E+01	  0.053266536	3.843300E+01	  0.053266536	-5.034300E+01
168	  0.053466935	-5.902000E+00	  0.053466935	-7.483000E+01	  0.053466935	3.746700E+01	  0.053466935	-4.933100E+01
169	  0.053667337	-5.911000E+00	  0.053667337	-7.632500E+01	  0.053667337	3.656200E+01	  0.053667337	-4.837400E+01
170	  0.053867739	-5.918000E+00	  0.053867739	-7.783000E+01	  0.053867739	3.567900E+01	  0.053867739	-4.743200E+01
171	  0.054068137	-5.924000E+00	  0.054068137	-7.931800E+01	  0.054068137	3.484500E+01	  0.054068137	-4.650800E+01
172	  0.054268539	-5.930000E+00	  0.054268539	-8.079400E+01	  0.054268539	3.405100E+01	  0.054268539	-4.560100E+01
173	  0.054468941	-5.937000E+00	  0.054468941	-8.223100E+01	  0.054468941	3.331600E+01	  0.054468941	-4.472200E+01
174	  0.054669339	-5.945000E+00	  0.054669339	-8.367900E+01	  0.054669339	3.260800E+01	  0.054669339	-4.384400E+01
175	  0.054869737	-5.951000E+00	  0.054869737	-8.509200E+01	  0.054869737	3.193900E+01	  0.054869737	-4.300000E+01
176	  0.055070139	-5.959000E+00	  0.055070139	-8.648400E+01	  0.055070139	3.131500E+01	  0.055070139	-4.217100E+01
177	  0.055270538	-5.967000E+00	  0.055270538	-8.787500E+01	  0.055270538	3.071600E+01	  0.055270538	-4.135000E+01
178	  0.055470940	-5.975000E+00	  0.055470940	-8.926200E+01	  0.055470940	3.014500E+01	  0.055470940	-4.053800E+01
179	  0.055671342	-5.984000E+00	  0.055671342	-9.065600E+01	  0.055671342	2.959400E+01	  0.055671342	-3.973200E+01
180	  0.055871744	-5.994000E+00	  0.055871744	-9.205200E+01	  0.055871744	2.907000E+01	  0.055871744	-3.892700E+01
181	  0.056072142	-6.000000E+00	  0.056072142	-9.344500E+01	  0.056072142	2.855100E+01	  0.056072142	-3.814500E+01
182	  0.056272544	-6.005000E+00	  0.056272544	-9.483200E+01	  0.056272544	2.805200E+01	  0.056272544	-3.737700E+01
183	  0.056472946	-6.013000E+00	  0.056472946	-9.623200E+01	  0.056472946	2.757900E+01	  0.056472946	-3.660100E+01
184	  0.056673344	-6.023000E+00	  0.056673344	-9.758500E+01	  0.056673344	2.714500E+01	  0.056673344	-3.585600E+01
185	  0.056873746	-6.025000E+00	  0.056873746	-9.896700E+01	  0.056873746	2.669100E+01	  0.056873746	-3.511900E+01
186	  0.057074148	-6.027000E+00	  0.057074148	-1.003210E+02	  0.057074148	2.626100E+01	  0.057074148	-3.440500E+01
187	  0.057274550	-6.028000E+00	  0.057274550	-1.016950E+02	  0.057274550	2.583900E+01	  0.057274550	-3.368900E+01
188	  0.057474948	-6.027000E+00	  0.057474948	-1.030260E+02	  0.057474948	2.543900E+01	  0.057474948	-3.300300E+01
189	  0.057675350	-6.026000E+00	  0.057675350	-1.043620E+02	  0.057675350	2.505200E+01	  0.057675350	-3.232100E+01
190	  0.057875752	-6.024000E+00	  0.057875752	-1.056800E+02	  0.057875752	2.468000E+01	  0.057875752	-3.165700E+01
191	  0.058076151	-6.025000E+00	  0.058076151	-1.069910E+02	  0.058076151	2.433100E+01	  0.058076151	-3.099600E+01
192	  0.058276553	-6.024000E+00	  0.058276553	-1.082630E+02	  0.058276553	2.400000E+01	  0.058276553	-3.036300E+01
193	  0.058476955	-6.021000E+00	  0.058476955	-1.095160E+02	  0.058476955	2.367400E+01	  0.058476955	-2.974900E+01
194	  0.058677353	-6.022000E+00	  0.058677353	-1.107680E+02	  0.058677353	2.337400E+01	  0.058677353	-2.913300E+01
195	  0.058877755	-6.024000E+00	  0.058877755	-1.120410E+02	  0.058877755	2.308600E+01	  0.058877755	-2.850800E+01
196	  0.059078157	-6.026000E+00	  0.059078157	-1.132660E+02	  0.059078157	2.281400E+01	  0.059078157	-2.791400E+01
197	  0.059278559	-6.026000E+00	  0.059278559	-1.145490E+02	  0.059278559	2.253500E+01	  0.059278559	-2.729900E+01
198	  0.059478957	-6.027000E+00	  0.059478957	-1.157670E+02	  0.059478957	2.228100E+01	  0.059478957	-2.671700E+01
199	  0.059679359	-6.031000E+00	  0.059679359	-1.170290E+02	  0.059679359	2.203300E+01	  0.059679359	-2.611600E+01
200	  0.059879761	-6.030000E+00	  0.059879761	-1.182480E+02	  0.059879761	2.179000E+01	  0.059879761	-2.554600E+01
201	  0.060080159	-6.032000E+00	  0.060080159	-1.194650E+02	  0.060080159	2.156300E+01	  0.060080159	-2.497600E+01
202	  0.060280561	-6.032000E+00	  0.060280561	-1.206910E+02	  0.060280561	2.133900E+01	  0.060280561	-2.440900E+01
203	  0.060480963	-6.034000E+00	  0.060480963	-1.219210E+02	  0.060480963	2.112400E+01	  0.060480963	-2.384200E+01
204	  0.060681365	-6.032000E+00	  0.060681365	-1.231370E+02	  0.060681365	2.090700E+01	  0.060681365	-2.329000E+01
205	  0.060881764	-6.033000E+00	  0.060881764	-1.243280E+02	  0.060881764	2.071000E+01	  0.060881764	-2.274900E+01
206	  0.061082166	-6.031000E+00	  0.061082166	-1.255130E+02	  0.061082166	2.051300E+01	  0.061082166	-2.221700E+01
207	  0.061282568	-6.028000E+00	  0.061282568	-1.267090E+02	  0.061282568	2.031800E+01	  0.061282568	-2.168400E+01
208	  0.061482966	-6.027000E+00	  0.061482966	-1.278840E+02	  0.061482966	2.013600E+01	  0.061482966	-2.116300E+01
209	  0.061683368	-6.027000E+00	  0.061683368	-1.290380E+02	  0.061683368	1.996700E+01	  0.061683368	-2.065300E+01
210	  0.061883770	-6.025000E+00	  0.061883770	-1.302000E+02	  0.061883770	1.979600E+01	  0.061883770	-2.014300E+01
211	  0.062084168	-6.027000E+00	  0.062084168	-1.313500E+02	  0.062084168	1.964500E+01	  0.062084168	-1.963800E+01
212	  0.062284570	-6.027000E+00	  0.062284570	-1.324990E+02	  0.062284570	1.949500E+01	  0.062284570	-1.913800E+01
213	  0.062484972	-6.019000E+00	  0.062484972	-1.335690E+02	  0.062484972	1.933500E+01	  0.062484972	-1.868100E+01
214	  0.062685370	-6.024000E+00	  0.062685370	-1.347110E+02	  0.062685370	1.920500E+01	  0.062685370	-1.818600E+01
215	  0.062885776	-6.027000E+00	  0.062885776	-1.358210E+02	  0.062885776	1.908300E+01	  0.062885776	-1.770700E+01
216	  0.063086174	-6.027000E+00	  0.063086174	-1.369820E+02	  0.063086174	1.894600E+01	  0.063086174	-1.721200E+01
217	  0.063286573	-6.034000E+00	  0.063286573	-1.381480E+02	  0.063286573	1.883800E+01	  0.063286573	-1.671200E+01
218	  0.063486971	-6.037000E+00	  0.063486971	-1.392630E+02	  0.063486971	1.872300E+01	  0.063486971	-1.624000E+01
219	  0.063687377	-6.035000E+00	  0.063687377	-1.403810E+02	  0.063687377	1.860200E+01	  0.063687377	-1.577100E+01
220	  0.063887775	-6.032000E+00	  0.063887775	-1.415020E+02	  0.063887775	1.848200E+01	  0.063887775	-1.530400E+01
221	  0.064088173	-6.033000E+00	  0.064088173	-1.426060E+02	  0.064088173	1.837600E+01	  0.064088173	-1.484300E+01
222	  0.064288579	-6.033000E+00	  0.064288579	-1.437380E+02	  0.064288579	1.827100E+01	  0.064288579	-1.437400E+01
223	  0.064488977	-6.031000E+00	  0.064488977	-1.448310E+02	  0.064488977	1.816700E+01	  0.064488977	-1.392300E+01
224	  0.064689375	-6.034000E+00	  0.064689375	-1.459000E+02	  0.064689375	1.808200E+01	  0.064689375	-1.348100E+01
225	  0.064889781	-6.028000E+00	  0.064889781	-1.469680E+02	  0.064889781	1.797700E+01	  0.064889781	-1.304600E+01
226	  0.065090179	-6.029000E+00	  0.065090179	-1.480510E+02	  0.065090179	1.789300E+01	  0.065090179	-1.260300E+01
227	  0.065290578	-6.024000E+00	  0.065290578	-1.490970E+02	  0.065290578	1.779900E+01	  0.065290578	-1.217900E+01
228	  0.065490983	-6.024000E+00	  0.065490983	-1.500980E+02	  0.065490983	1.772400E+01	  0.065490983	-1.177200E+01
229	  0.065691382	-6.024000E+00	  0.065691382	-1.511400E+02	  0.065691382	1.765000E+01	  0.065691382	-1.135000E+01
230	  0.065891780	-6.015000E+00	  0.065891780	-1.521950E+02	  0.065891780	1.755400E+01	  0.065891780	-1.092800E+01
231	  0.066092186	-6.014000E+00	  0.066092186	-1.532270E+02	  0.066092186	1.748300E+01	  0.066092186	-1.051300E+01
232	  0.066292584	-6.012000E+00	  0.066292584	-1.542360E+02	  0.066292584	1.741500E+01	  0.066292584	-1.010800E+01
233	  0.066492982	-6.010000E+00	  0.066492982	-1.552280E+02	  0.066492982	1.735000E+01	  0.066492982	-9.712000E+00
234	  0.066693388	-6.000000E+00	  0.066693388	-1.562540E+02	  0.066693388	1.726500E+01	  0.066693388	-9.305000E+00
235	  0.066893786	-5.996000E+00	  0.066893786	-1.572840E+02	  0.066893786	1.719900E+01	  0.066893786	-8.896000E+00
236	  0.067094192	-5.992000E+00	  0.067094192	-1.582600E+02	  0.067094192	1.713600E+01	  0.067094192	-8.508000E+00
237	  0.067294590	-5.984000E+00	  0.067294590	-1.593020E+02	  0.067294590	1.706300E+01	  0.067294590	-8.097000E+00
238	  0.067494988	-5.983000E+00	  0.067494988	-1.603020E+02	  0.067494988	1.701400E+01	  0.067494988	-7.701000E+00
239	  0.067695394	-5.977000E+00	  0.067695394	-1.613270E+02	  0.067695394	1.695200E+01	  0.067695394	-7.297000E+00
240	  0.067895792	-5.970000E+00	  0.067895792	-1.623470E+02	  0.067895792	1.689300E+01	  0.067895792	-6.896000E+00
241	  0.068096191	-5.968000E+00	  0.068096191	-1.633480E+02	  0.068096191	1.684700E+01	  0.068096191	-6.501000E+00
242	  0.068296596	-5.965000E+00	  0.068296596	-1.643580E+02	  0.068296596	1.680300E+01	  0.068296596	-6.104000E+00
243	  0.068496995	-5.958000E+00	  0.068496995	-1.653740E+02	  0.068496995	1.674800E+01	  0.068496995	-5.707000E+00
244	  0.068697393	-5.952000E+00	  0.068697393	-1.663910E+02	  0.068697393	1.670200E+01	  0.068697393	-5.308000E+00
245	  0.068897791	-5.951000E+00	  0.068897791	-1.673660E+02	  0.068897791	1.666800E+01	  0.068897791	-4.926000E+00
246	  0.069098189	-5.940000E+00	  0.069098189	-1.683660E+02	  0.069098189	1.661200E+01	  0.069098189	-4.536000E+00
247	  0.069298595	-5.934000E+00	  0.069298595	-1.693420E+02	  0.069298595	1.657400E+01	  0.069298595	-4.155000E+00
248	  0.069498993	-5.934000E+00	  0.069498993	-1.703220E+02	  0.069498993	1.655200E+01	  0.069498993	-3.771000E+00
249	  0.069699399	-5.931000E+00	  0.069699399	-1.713600E+02	  0.069699399	1.652200E+01	  0.069699399	-3.366000E+00
250	  0.069899797	-5.931000E+00	  0.069899797	-1.723200E+02	  0.069899797	1.650300E+01	  0.069899797	-2.991000E+00
251	  0.070100196	-5.932000E+00	  0.070100196	-1.733250E+02	  0.070100196	1.649100E+01	  0.070100196	-2.599000E+00
252	  0.070300601	-5.928000E+00	  0.070300601	-1.743330E+02	  0.070300601	1.646700E+01	  0.070300601	-2.206000E+00
253	  0.070501000	-5.926000E+00	  0.070501000	-1.753220E+02	  0.070501000	1.645000E+01	  0.070501000	-1.821000E+00
254	  0.070701398	-5.924000E+00	  0.070701398	-1.763010E+02	  0.070701398	1.643500E+01	  0.070701398	-1.440000E+00
255	  0.070901804	-5.919000E+00	  0.070901804	-1.772820E+02	  0.070901804	1.641400E+01	  0.070901804	-1.058000E+00
256	  0.071102202	-5.917000E+00	  0.071102202	-1.782970E+02	  0.071102202	1.640600E+01	  0.071102202	-6.620000E-01
257	  0.071302600	-5.919000E+00	  0.071302600	-1.792440E+02	  0.071302600	1.640700E+01	  0.071302600	-2.940000E-01
258	  0.071503006	-5.921000E+00	  0.071503006	1.797370E+02	  0.071503006	1.641100E+01	  0.071503006	1.020000E-01
259	  0.071703404	-5.923000E+00	  0.071703404	1.787850E+02	  0.071703404	1.641900E+01	  0.071703404	4.720000E-01
260	  0.071903802	-5.922000E+00	  0.071903802	1.778160E+02	  0.071903802	1.642000E+01	  0.071903802	8.500000E-01
261	  0.072104208	-5.920000E+00	  0.072104208	1.768450E+02	  0.072104208	1.642100E+01	  0.072104208	1.228000E+00
262	  0.072304606	-5.922000E+00	  0.072304606	1.759050E+02	  0.072304606	1.643300E+01	  0.072304606	1.594000E+00
263	  0.072505005	-5.920000E+00	  0.072505005	1.749470E+02	  0.072505005	1.643800E+01	  0.072505005	1.968000E+00
264	  0.072705410	-5.922000E+00	  0.072705410	1.739720E+02	  0.072705410	1.645500E+01	  0.072705410	2.347000E+00
265	  0.072905809	-5.923000E+00	  0.072905809	1.730160E+02	  0.072905809	1.647100E+01	  0.072905809	2.720000E+00
266	  0.073106214	-5.925000E+00	  0.073106214	1.720700E+02	  0.073106214	1.649200E+01	  0.073106214	3.089000E+00
267	  0.073306613	-5.929000E+00	  0.073306613	1.711180E+02	  0.073306613	1.652100E+01	  0.073306613	3.461000E+00
268	  0.073507011	-5.931000E+00	  0.073507011	1.701860E+02	  0.073507011	1.654600E+01	  0.073507011	3.825000E+00
269	  0.073707417	-5.937000E+00	  0.073707417	1.692240E+02	  0.073707417	1.658300E+01	  0.073707417	4.200000E+00
270	  0.073907815	-5.938000E+00	  0.073907815	1.683120E+02	  0.073907815	1.661000E+01	  0.073907815	4.557000E+00
271	  0.074108213	-5.938000E+00	  0.074108213	1.673500E+02	  0.074108213	1.663600E+01	  0.074108213	4.934000E+00
272	  0.074308619	-5.944000E+00	  0.074308619	1.664510E+02	  0.074308619	1.667700E+01	  0.074308619	5.286000E+00
273	  0.074509017	-5.943000E+00	  0.074509017	1.655050E+02	  0.074509017	1.670700E+01	  0.074509017	5.658000E+00
274	  0.074709415	-5.951000E+00	  0.074709415	1.645560E+02	  0.074709415	1.675800E+01	  0.074709415	6.030000E+00
275	  0.074909821	-5.953000E+00	  0.074909821	1.636420E+02	  0.074909821	1.679800E+01	  0.074909821	6.389000E+00
276	  0.075110219	-5.961000E+00	  0.075110219	1.627090E+02	  0.075110219	1.685300E+01	  0.075110219	6.755000E+00
277	  0.075310618	-5.967000E+00	  0.075310618	1.618250E+02	  0.075310618	1.690500E+01	  0.075310618	7.103000E+00
278	  0.075511023	-5.973000E+00	  0.075511023	1.609130E+02	  0.075511023	1.696200E+01	  0.075511023	7.462000E+00
279	  0.075711422	-5.976000E+00	  0.075711422	1.600160E+02	  0.075711422	1.701000E+01	  0.075711422	7.816000E+00
280	  0.075911827	-5.983000E+00	  0.075911827	1.591270E+02	  0.075911827	1.707100E+01	  0.075911827	8.167000E+00
281	  0.076112226	-5.988000E+00	  0.076112226	1.582050E+02	  0.076112226	1.713000E+01	  0.076112226	8.531000E+00
282	  0.076312624	-6.000000E+00	  0.076312624	1.573240E+02	  0.076312624	1.720700E+01	  0.076312624	8.878000E+00
283	  0.076513030	-6.008000E+00	  0.076513030	1.564060E+02	  0.076513030	1.727700E+01	  0.076513030	9.242000E+00
284	  0.076713428	-6.017000E+00	  0.076713428	1.554960E+02	  0.076713428	1.735300E+01	  0.076713428	9.602000E+00
285	  0.076913826	-6.022000E+00	  0.076913826	1.546010E+02	  0.076913826	1.742000E+01	  0.076913826	9.958000E+00
286	  0.077114232	-6.031000E+00	  0.077114232	1.537150E+02	  0.077114232	1.749700E+01	  0.077114232	1.031000E+01
287	  0.077314630	-6.034000E+00	  0.077314630	1.528470E+02	  0.077314630	1.756100E+01	  0.077314630	1.065700E+01
288	  0.077515028	-6.041000E+00	  0.077515028	1.519790E+02	  0.077515028	1.763700E+01	  0.077515028	1.100400E+01
289	  0.077715434	-6.048000E+00	  0.077715434	1.511170E+02	  0.077715434	1.771600E+01	  0.077715434	1.134800E+01
290	  0.077915832	-6.056000E+00	  0.077915832	1.502270E+02	  0.077915832	1.780000E+01	  0.077915832	1.170500E+01
291	  0.078116231	-6.069000E+00	  0.078116231	1.493770E+02	  0.078116231	1.789900E+01	  0.078116231	1.204300E+01
292	  0.078316636	-6.079000E+00	  0.078316636	1.485210E+02	  0.078316636	1.799000E+01	  0.078316636	1.238600E+01
293	  0.078517035	-6.094000E+00	  0.078517035	1.476340E+02	  0.078517035	1.810200E+01	  0.078517035	1.273900E+01
294	  0.078717433	-6.106000E+00	  0.078717433	1.467850E+02	  0.078717433	1.820300E+01	  0.078717433	1.307800E+01
295	  0.078917839	-6.118000E+00	  0.078917839	1.459170E+02	  0.078917839	1.830800E+01	  0.078917839	1.342700E+01
296	  0.079118237	-6.131000E+00	  0.079118237	1.450970E+02	  0.079118237	1.841400E+01	  0.079118237	1.375600E+01
297	  0.079318643	-6.144000E+00	  0.079318643	1.442170E+02	  0.079318643	1.853000E+01	  0.079318643	1.410900E+01
298	  0.079519041	-6.160000E+00	  0.079519041	1.433870E+02	  0.079519041	1.864900E+01	  0.079519041	1.444100E+01
299	  0.079719439	-6.174000E+00	  0.079719439	1.425310E+02	  0.079719439	1.877100E+01	  0.079719439	1.478500E+01
300	  0.079919845	-6.192000E+00	  0.079919845	1.417070E+02	  0.079919845	1.890000E+01	  0.079919845	1.511400E+01
301	  0.080120243	-6.203000E+00	  0.080120243	1.408350E+02	  0.080120243	1.901900E+01	  0.080120243	1.546800E+01
302	  0.080320641	-6.218000E+00	  0.080320641	1.400090E+02	  0.080320641	1.914600E+01	  0.080320641	1.580100E+01
303	  0.080521047	-6.233000E+00	  0.080521047	1.391710E+02	  0.080521047	1.927500E+01	  0.080521047	1.613900E+01
304	  0.080721445	-6.253000E+00	  0.080721445	1.382980E+02	  0.080721445	1.942700E+01	  0.080721445	1.648900E+01
305	  0.080921844	-6.266000E+00	  0.080921844	1.374790E+02	  0.080921844	1.955600E+01	  0.080921844	1.682200E+01
306	  0.081122249	-6.285000E+00	  0.081122249	1.366580E+02	  0.081122249	1.970400E+01	  0.081122249	1.715200E+01
307	  0.081322648	-6.300000E+00	  0.081322648	1.358320E+02	  0.081322648	1.984500E+01	  0.081322648	1.748700E+01
308	  0.081523046	-6.319000E+00	  0.081523046	1.349980E+02	  0.081523046	2.000000E+01	  0.081523046	1.782300E+01
309	  0.081723452	-6.337000E+00	  0.081723452	1.341940E+02	  0.081723452	2.015200E+01	  0.081723452	1.814800E+01
310	  0.081923850	-6.354000E+00	  0.081923850	1.333730E+02	  0.081923850	2.030400E+01	  0.081923850	1.848200E+01
311	  0.082124248	-6.371000E+00	  0.082124248	1.325760E+02	  0.082124248	2.045900E+01	  0.082124248	1.880400E+01
312	  0.082324654	-6.391000E+00	  0.082324654	1.317800E+02	  0.082324654	2.062100E+01	  0.082324654	1.912600E+01
313	  0.082525052	-6.412000E+00	  0.082525052	1.309740E+02	  0.082525052	2.079300E+01	  0.082525052	1.945000E+01
314	  0.082725458	-6.433000E+00	  0.082725458	1.302300E+02	  0.082725458	2.096100E+01	  0.082725458	1.974800E+01
315	  0.082925856	-6.459000E+00	  0.082925856	1.294310E+02	  0.082925856	2.114900E+01	  0.082925856	2.006500E+01
316	  0.083126254	-6.483000E+00	  0.083126254	1.286550E+02	  0.083126254	2.133400E+01	  0.083126254	2.037400E+01
317	  0.083326660	-6.506000E+00	  0.083326660	1.278420E+02	  0.083326660	2.152300E+01	  0.083326660	2.070100E+01
318	  0.083527058	-6.528000E+00	  0.083527058	1.270350E+02	  0.083527058	2.171300E+01	  0.083527058	2.102500E+01
319	  0.083727457	-6.551000E+00	  0.083727457	1.262280E+02	  0.083727457	2.191000E+01	  0.083727457	2.134900E+01
320	  0.083927862	-6.572000E+00	  0.083927862	1.254250E+02	  0.083927862	2.210300E+01	  0.083927862	2.167300E+01
321	  0.084128261	-6.596000E+00	  0.084128261	1.246860E+02	  0.084128261	2.229500E+01	  0.084128261	2.196700E+01
322	  0.084328659	-6.617000E+00	  0.084328659	1.239090E+02	  0.084328659	2.248900E+01	  0.084328659	2.228100E+01
323	  0.084529065	-6.639000E+00	  0.084529065	1.231800E+02	  0.084529065	2.268100E+01	  0.084529065	2.257200E+01
324	  0.084729463	-6.663000E+00	  0.084729463	1.224420E+02	  0.084729463	2.288500E+01	  0.084729463	2.286400E+01
325	  0.084929861	-6.692000E+00	  0.084929861	1.216890E+02	  0.084929861	2.310700E+01	  0.084929861	2.315800E+01
326	  0.085130267	-6.711000E+00	  0.085130267	1.209450E+02	  0.085130267	2.330300E+01	  0.085130267	2.345900E+01
327	  0.085330658	-6.739000E+00	  0.085330658	1.202260E+02	  0.085330658	2.352100E+01	  0.085330658	2.373900E+01
328	  0.085531056	-6.766000E+00	  0.085531056	1.195240E+02	  0.085531056	2.373900E+01	  0.085531056	2.401100E+01
329	  0.085731462	-6.792000E+00	  0.085731462	1.188170E+02	  0.085731462	2.395600E+01	  0.085731462	2.428700E+01
330	  0.085931860	-6.823000E+00	  0.085931860	1.181040E+02	  0.085931860	2.419100E+01	  0.085931860	2.455900E+01
331	  0.086132258	-6.848000E+00	  0.086132258	1.174260E+02	  0.086132258	2.440700E+01	  0.086132258	2.482200E+01
332	  0.086332664	-6.881000E+00	  0.086332664	1.167620E+02	  0.086332664	2.464400E+01	  0.086332664	2.506800E+01
333	  0.086533062	-6.911000E+00	  0.086533062	1.161020E+02	  0.086533062	2.487600E+01	  0.086533062	2.531500E+01
334	  0.086733460	-6.934000E+00	  0.086733460	1.153960E+02	  0.086733460	2.509700E+01	  0.086733460	2.559300E+01
335	  0.086933866	-6.960000E+00	  0.086933866	1.147500E+02	  0.086933866	2.531900E+01	  0.086933866	2.583900E+01
336	  0.087134264	-6.987000E+00	  0.087134264	1.140860E+02	  0.087134264	2.555200E+01	  0.087134264	2.609000E+01
337	  0.087334670	-7.010000E+00	  0.087334670	1.134100E+02	  0.087334670	2.577700E+01	  0.087334670	2.635300E+01
338	  0.087535068	-7.030000E+00	  0.087535068	1.127670E+02	  0.087535068	2.599000E+01	  0.087535068	2.660500E+01
339	  0.087735467	-7.050000E+00	  0.087735467	1.121340E+02	  0.087735467	2.620300E+01	  0.087735467	2.685300E+01
340	  0.087935872	-7.071000E+00	  0.087935872	1.114880E+02	  0.087935872	2.642400E+01	  0.087935872	2.710400E+01
341	  0.088136271	-7.089000E+00	  0.088136271	1.108770E+02	  0.088136271	2.663000E+01	  0.088136271	2.734500E+01
342	  0.088336669	-7.106000E+00	  0.088336669	1.102420E+02	  0.088336669	2.684400E+01	  0.088336669	2.759700E+01
343	  0.088537075	-7.121000E+00	  0.088537075	1.095790E+02	  0.088537075	2.706100E+01	  0.088537075	2.786600E+01
344	  0.088737473	-7.130000E+00	  0.088737473	1.089420E+02	  0.088737473	2.725600E+01	  0.088737473	2.813300E+01
345	  0.088937871	-7.150000E+00	  0.088937871	1.082750E+02	  0.088937871	2.749500E+01	  0.088937871	2.839400E+01
346	  0.089138277	-7.161000E+00	  0.089138277	1.076220E+02	  0.089138277	2.770700E+01	  0.089138277	2.866600E+01
347	  0.089338675	-7.181000E+00	  0.089338675	1.070170E+02	  0.089338675	2.793200E+01	  0.089338675	2.890000E+01
348	  0.089539073	-7.203000E+00	  0.089539073	1.063380E+02	  0.089539073	2.819300E+01	  0.089539073	2.916000E+01
349	  0.089739479	-7.238000E+00	  0.089739479	1.056840E+02	  0.089739479	2.848400E+01	  0.089739479	2.938600E+01
350	  0.089939877	-7.253000E+00	  0.089939877	1.049850E+02	  0.089939877	2.873300E+01	  0.089939877	2.966800E+01
351	  0.090140276	-7.281000E+00	  0.090140276	1.043110E+02	  0.090140276	2.901800E+01	  0.090140276	2.991300E+01
352	  0.090340681	-7.301000E+00	  0.090340681	1.036320E+02	  0.090340681	2.928600E+01	  0.090340681	3.017400E+01
353	  0.090541080	-7.328000E+00	  0.090541080	1.029670E+02	  0.090541080	2.957300E+01	  0.090541080	3.041500E+01
354	  0.090741485	-7.358000E+00	  0.090741485	1.022720E+02	  0.090741485	2.988000E+01	  0.090741485	3.066100E+01
355	  0.090941884	-7.382000E+00	  0.090941884	1.016220E+02	  0.090941884	3.015900E+01	  0.090941884	3.090000E+01
356	  0.091142282	-7.416000E+00	  0.091142282	1.009570E+02	  0.091142282	3.047900E+01	  0.091142282	3.112000E+01
357	  0.091342688	-7.442000E+00	  0.091342688	1.002990E+02	  0.091342688	3.077300E+01	  0.091342688	3.135600E+01
358	  0.091543086	-7.477000E+00	  0.091543086	9.964800E+01	  0.091543086	3.109600E+01	  0.091543086	3.156500E+01
359	  0.091743484	-7.505000E+00	  0.091743484	9.901100E+01	  0.091743484	3.139800E+01	  0.091743484	3.178200E+01
360	  0.091943890	-7.533000E+00	  0.091943890	9.836000E+01	  0.091943890	3.170700E+01	  0.091943890	3.200400E+01
361	  0.092144288	-7.560000E+00	  0.092144288	9.771000E+01	  0.092144288	3.201700E+01	  0.092144288	3.222600E+01
362	  0.092344686	-7.591000E+00	  0.092344686	9.711000E+01	  0.092344686	3.232500E+01	  0.092344686	3.241400E+01
363	  0.092545092	-7.621000E+00	  0.092545092	9.651000E+01	  0.092545092	3.263300E+01	  0.092545092	3.260300E+01
364	  0.092745490	-7.654000E+00	  0.092745490	9.588900E+01	  0.092745490	3.296100E+01	  0.092745490	3.279100E+01
365	  0.092945889	-7.691000E+00	  0.092945889	9.529300E+01	  0.092945889	3.329400E+01	  0.092945889	3.295600E+01
366	  0.093146294	-7.724000E+00	  0.093146294	9.468200E+01	  0.093146294	3.362200E+01	  0.093146294	3.313700E+01
367	  0.093346693	-7.760000E+00	  0.093346693	9.409000E+01	  0.093346693	3.395600E+01	  0.093346693	3.329800E+01
368	  0.093547091	-7.788000E+00	  0.093547091	9.352500E+01	  0.093547091	3.426000E+01	  0.093547091	3.346600E+01
369	  0.093747497	-7.826000E+00	  0.093747497	9.292700E+01	  0.093747497	3.460800E+01	  0.093747497	3.362000E+01
370	  0.093947895	-7.854000E+00	  0.093947895	9.231800E+01	  0.093947895	3.493600E+01	  0.093947895	3.380100E+01
371	  0.094148301	-7.897000E+00	  0.094148301	9.175400E+01	  0.094148301	3.528800E+01	  0.094148301	3.392300E+01
372	  0.094348699	-7.923000E+00	  0.094348699	9.115800E+01	  0.094348699	3.561100E+01	  0.094348699	3.410000E+01
373	  0.094549097	-7.958000E+00	  0.094549097	9.060900E+01	  0.094549097	3.594300E+01	  0.094549097	3.422900E+01
374	  0.094749503	-7.991000E+00	  0.094749503	9.003300E+01	  0.094749503	3.628300E+01	  0.094749503	3.437300E+01
375	  0.094949901	-8.021000E+00	  0.094949901	8.950900E+01	  0.094949901	3.659200E+01	  0.094949901	3.450400E+01
376	  0.095150299	-8.049000E+00	  0.095150299	8.893400E+01	  0.095150299	3.692200E+01	  0.095150299	3.465800E+01
377	  0.095350705	-8.080000E+00	  0.095350705	8.841100E+01	  0.095350705	3.724100E+01	  0.095350705	3.477800E+01
378	  0.095551103	-8.105000E+00	  0.095551103	8.790900E+01	  0.095551103	3.753500E+01	  0.095551103	3.490600E+01
379	  0.095751502	-8.139000E+00	  0.095751502	8.736700E+01	  0.095751502	3.787500E+01	  0.095751502	3.502100E+01
380	  0.095951907	-8.166000E+00	  0.095951907	8.685500E+01	  0.095951907	3.818500E+01	  0.095951907	3.514100E+01
381	  0.096152306	-8.199000E+00	  0.096152306	8.636200E+01	  0.096152306	3.850300E+01	  0.096152306	3.523500E+01
382	  0.096352704	-8.231000E+00	  0.096352704	8.589400E+01	  0.096352704	3.881000E+01	  0.096352704	3.531600E+01
383	  0.096553110	-8.262000E+00	  0.096553110	8.540100E+01	  0.096553110	3.912500E+01	  0.096553110	3.541200E+01
384	  0.096753508	-8.290000E+00	  0.096753508	8.493000E+01	  0.096753508	3.942700E+01	  0.096753508	3.550100E+01
385	  0.096953906	-8.326000E+00	  0.096953906	8.446700E+01	  0.096953906	3.974400E+01	  0.096953906	3.556500E+01
386	  0.097154312	-8.353000E+00	  0.097154312	8.397900E+01	  0.097154312	4.005500E+01	  0.097154312	3.565900E+01
387	  0.097354710	-8.383000E+00	  0.097354710	8.353600E+01	  0.097354710	4.035000E+01	  0.097354710	3.572900E+01
388	  0.097555116	-8.415000E+00	  0.097555116	8.306900E+01	  0.097555116	4.066500E+01	  0.097555116	3.579600E+01
389	  0.097755514	-8.449000E+00	  0.097755514	8.260400E+01	  0.097755514	4.098500E+01	  0.097755514	3.585500E+01
390	  0.097955912	-8.477000E+00	  0.097955912	8.219200E+01	  0.097955912	4.126600E+01	  0.097955912	3.590800E+01
391	  0.098156318	-8.508000E+00	  0.098156318	8.170100E+01	  0.098156318	4.159400E+01	  0.098156318	3.598200E+01
392	  0.098356716	-8.534000E+00	  0.098356716	8.128500E+01	  0.098356716	4.187400E+01	  0.098356716	3.604000E+01
393	  0.098557115	-8.560000E+00	  0.098557115	8.087800E+01	  0.098557115	4.215100E+01	  0.098557115	3.609400E+01
394	  0.098757520	-8.586000E+00	  0.098757520	8.045500E+01	  0.098757520	4.243600E+01	  0.098757520	3.615200E+01
395	  0.098957919	-8.613000E+00	  0.098957919	8.003000E+01	  0.098957919	4.272700E+01	  0.098957919	3.620300E+01
396	  0.099158317	-8.638000E+00	  0.099158317	7.965100E+01	  0.099158317	4.298900E+01	  0.099158317	3.624500E+01
397	  0.099358723	-8.664000E+00	  0.099358723	7.920800E+01	  0.099358723	4.329000E+01	  0.099358723	3.630300E+01
398	  0.099559121	-8.686000E+00	  0.099559121	7.883000E+01	  0.099559121	4.354700E+01	  0.099559121	3.635000E+01
399	  0.099759519	-8.716000E+00	  0.099759519	7.847800E+01	  0.099759519	4.380800E+01	  0.099759519	3.635800E+01
400	  0.099959925	-8.731000E+00	  0.099959925	7.810800E+01	  0.099959925	4.404700E+01	  0.099959925	3.642600E+01
401	  0.100160323	-8.762000E+00	  0.100160323	7.771500E+01	  0.100160323	4.433600E+01	  0.100160323	3.643700E+01
402	  0.100360721	-8.781000E+00	  0.100360721	7.740900E+01	  0.100360721	4.455000E+01	  0.100360721	3.646600E+01
403	  0.100561127	-8.798000E+00	  0.100561127	7.701700E+01	  0.100561127	4.480700E+01	  0.100561127	3.652900E+01
404	  0.100761525	-8.819000E+00	  0.100761525	7.662300E+01	  0.100761525	4.507800E+01	  0.100761525	3.657400E+01
405	  0.100961931	-8.844000E+00	  0.100961931	7.625800E+01	  0.100961931	4.533900E+01	  0.100961931	3.659400E+01
406	  0.101162329	-8.856000E+00	  0.101162329	7.588400E+01	  0.101162329	4.558200E+01	  0.101162329	3.666500E+01
407	  0.101362728	-8.885000E+00	  0.101362728	7.557900E+01	  0.101362728	4.581800E+01	  0.101362728	3.664600E+01
408	  0.101563133	-8.895000E+00	  0.101563133	7.521100E+01	  0.101563133	4.605600E+01	  0.101563133	3.671600E+01
409	  0.101763532	-8.916000E+00	  0.101763532	7.487300E+01	  0.101763532	4.629700E+01	  0.101763532	3.673700E+01
410	  0.101963930	-8.926000E+00	  0.101963930	7.449900E+01	  0.101963930	4.654000E+01	  0.101963930	3.680600E+01
411	  0.102164336	-8.949000E+00	  0.102164336	7.414300E+01	  0.102164336	4.679800E+01	  0.102164336	3.682000E+01
412	  0.102364734	-8.959000E+00	  0.102364734	7.383900E+01	  0.102364734	4.699900E+01	  0.102364734	3.687000E+01
413	  0.102565132	-8.967000E+00	  0.102565132	7.346700E+01	  0.102565132	4.724100E+01	  0.102565132	3.694300E+01
414	  0.102765530	-8.971000E+00	  0.102765530	7.318700E+01	  0.102765530	4.742000E+01	  0.102765530	3.700600E+01
415	  0.102965929	-8.979000E+00	  0.102965929	7.281900E+01	  0.102965929	4.766000E+01	  0.102965929	3.708000E+01
416	  0.103166327	-8.986000E+00	  0.103166327	7.252800E+01	  0.103166327	4.785300E+01	  0.103166327	3.713100E+01
417	  0.103366733	-8.994000E+00	  0.103366733	7.217900E+01	  0.103366733	4.808500E+01	  0.103366733	3.719300E+01
418	  0.103567131	-8.996000E+00	  0.103567131	7.184200E+01	  0.103567131	4.830000E+01	  0.103567131	3.727800E+01
419	  0.103767529	-9.002000E+00	  0.103767529	7.153600E+01	  0.103767529	4.850400E+01	  0.103767529	3.733500E+01
420	  0.103967935	-9.006000E+00	  0.103967935	7.120100E+01	  0.103967935	4.872300E+01	  0.103967935	3.740700E+01
421	  0.104168333	-9.011000E+00	  0.104168333	7.084400E+01	  0.104168333	4.895900E+01	  0.104168333	3.748200E+01
422	  0.104368731	-9.011000E+00	  0.104368731	7.052900E+01	  0.104368731	4.916300E+01	  0.104368731	3.756300E+01
423	  0.104569137	-9.010000E+00	  0.104569137	7.015700E+01	  0.104569137	4.940100E+01	  0.104569137	3.766400E+01
424	  0.104769535	-9.004000E+00	  0.104769535	6.976700E+01	  0.104769535	4.964500E+01	  0.104769535	3.779300E+01
425	  0.104969934	-8.999000E+00	  0.104969934	6.943800E+01	  0.104969934	4.985300E+01	  0.104969934	3.789500E+01
426	  0.105170339	-8.994000E+00	  0.105170339	6.903300E+01	  0.105170339	5.011300E+01	  0.105170339	3.801900E+01
427	  0.105370738	-8.996000E+00	  0.105370738	6.864400E+01	  0.105370738	5.037600E+01	  0.105370738	3.810900E+01
428	  0.105571143	-8.980000E+00	  0.105571143	6.825400E+01	  0.105571143	5.061200E+01	  0.105571143	3.827600E+01
429	  0.105771542	-8.973000E+00	  0.105771542	6.785200E+01	  0.105771542	5.087500E+01	  0.105771542	3.840300E+01
430	  0.105971940	-8.949000E+00	  0.105971940	6.743600E+01	  0.105971940	5.112100E+01	  0.105971940	3.861500E+01
431	  0.106172346	-8.945000E+00	  0.106172346	6.700300E+01	  0.106172346	5.141500E+01	  0.106172346	3.873600E+01
432	  0.106372744	-8.920000E+00	  0.106372744	6.664000E+01	  0.106372744	5.162900E+01	  0.106372744	3.893600E+01
433	  0.106573142	-8.915000E+00	  0.106573142	6.615500E+01	  0.106573142	5.196300E+01	  0.106573142	3.907400E+01
434	  0.106773548	-8.905000E+00	  0.106773548	6.574300E+01	  0.106773548	5.224100E+01	  0.106773548	3.921500E+01
435	  0.106973946	-8.888000E+00	  0.106973946	6.529400E+01	  0.106973946	5.253800E+01	  0.106973946	3.939800E+01
436	  0.107174344	-8.875000E+00	  0.107174344	6.483200E+01	  0.107174344	5.285600E+01	  0.107174344	3.956100E+01
437	  0.107374750	-8.841000E+00	  0.107374750	6.432500E+01	  0.107374750	5.317800E+01	  0.107374750	3.983900E+01
438	  0.107575148	-8.833000E+00	  0.107575148	6.382900E+01	  0.107575148	5.353500E+01	  0.107575148	3.998800E+01
439	  0.107775547	-8.814000E+00	  0.107775547	6.334800E+01	  0.107775547	5.387000E+01	  0.107775547	4.018400E+01
440	  0.107975952	-8.790000E+00	  0.107975952	6.280900E+01	  0.107975952	5.424700E+01	  0.107975952	4.041600E+01
441	  0.108176351	-8.769000E+00	  0.108176351	6.232300E+01	  0.108176351	5.459300E+01	  0.108176351	4.062100E+01
442	  0.108376749	-8.756000E+00	  0.108376749	6.182900E+01	  0.108376749	5.495900E+01	  0.108376749	4.079200E+01
443	  0.108577155	-8.733000E+00	  0.108577155	6.130300E+01	  0.108577155	5.534400E+01	  0.108577155	4.101000E+01
444	  0.108777553	-8.717000E+00	  0.108777553	6.075100E+01	  0.108777553	5.576300E+01	  0.108777553	4.120500E+01
445	  0.108977959	-8.702000E+00	  0.108977959	6.018200E+01	  0.108977959	5.620400E+01	  0.108977959	4.139100E+01
446	  0.109178357	-8.670000E+00	  0.109178357	5.960700E+01	  0.109178357	5.663600E+01	  0.109178357	4.166700E+01
447	  0.109378755	-8.643000E+00	  0.109378755	5.901900E+01	  0.109378755	5.709200E+01	  0.109378755	4.191900E+01
448	  0.109579161	-8.625000E+00	  0.109579161	5.845700E+01	  0.109579161	5.754500E+01	  0.109579161	4.211300E+01
449	  0.109779559	-8.600000E+00	  0.109779559	5.787800E+01	  0.109779559	5.801000E+01	  0.109779559	4.235300E+01
450	  0.109979957	-8.587000E+00	  0.109979957	5.727200E+01	  0.109979957	5.852000E+01	  0.109979957	4.252100E+01
451	  0.110180363	-8.574000E+00	  0.110180363	5.667800E+01	  0.110180363	5.902700E+01	  0.110180363	4.268200E+01
452	  0.110380761	-8.550000E+00	  0.110380761	5.605400E+01	  0.110380761	5.955700E+01	  0.110380761	4.291200E+01
453	  0.110581160	-8.526000E+00	  0.110581160	5.539600E+01	  0.110581160	6.012700E+01	  0.110581160	4.314300E+01
454	  0.110781565	-8.510000E+00	  0.110781565	5.476700E+01	  0.110781565	6.068700E+01	  0.110781565	4.332000E+01
455	  0.110981964	-8.496000E+00	  0.110981964	5.410300E+01	  0.110981964	6.128900E+01	  0.110981964	4.348400E+01
456	  0.111182362	-8.472000E+00	  0.111182362	5.335300E+01	  0.111182362	6.197600E+01	  0.111182362	4.371000E+01
457	  0.111382768	-8.466000E+00	  0.111382768	5.273100E+01	  0.111382768	6.256500E+01	  0.111382768	4.380600E+01
458	  0.111583166	-8.459000E+00	  0.111583166	5.210400E+01	  0.111583166	6.316400E+01	  0.111583166	4.389900E+01
459	  0.111783572	-8.444000E+00	  0.111783572	5.137100E+01	  0.111783572	6.387200E+01	  0.111783572	4.404700E+01
460	  0.111983970	-8.434000E+00	  0.111983970	5.067400E+01	  0.111983970	6.455700E+01	  0.111983970	4.415500E+01
461	  0.112184368	-8.427000E+00	  0.112184368	4.995900E+01	  0.112184368	6.527100E+01	  0.112184368	4.423300E+01
462	  0.112384774	-8.415000E+00	  0.112384774	4.917100E+01	  0.112384774	6.606900E+01	  0.112384774	4.432900E+01
463	  0.112585172	-8.410000E+00	  0.112585172	4.840500E+01	  0.112585172	6.685700E+01	  0.112585172	4.437200E+01
464	  0.112785570	-8.403000E+00	  0.112785570	4.762100E+01	  0.112785570	6.767400E+01	  0.112785570	4.441400E+01
465	  0.112985976	-8.395000E+00	  0.112985976	4.687600E+01	  0.112985976	6.846300E+01	  0.112985976	4.444500E+01
466	  0.113186374	-8.394000E+00	  0.113186374	4.609100E+01	  0.113186374	6.930100E+01	  0.113186374	4.441400E+01
467	  0.113386773	-8.395000E+00	  0.113386773	4.528300E+01	  0.113386773	7.017400E+01	  0.113386773	4.435500E+01
468	  0.113587178	-8.385000E+00	  0.113587178	4.450400E+01	  0.113587178	7.103100E+01	  0.113587178	4.435900E+01
469	  0.113787577	-8.392000E+00	  0.113787577	4.366700E+01	  0.113787577	7.195100E+01	  0.113787577	4.421100E+01
470	  0.113987975	-8.397000E+00	  0.113987975	4.280200E+01	  0.113987975	7.291300E+01	  0.113987975	4.405600E+01
471	  0.114188381	-8.386000E+00	  0.114188381	4.191500E+01	  0.114188381	7.392400E+01	  0.114188381	4.398400E+01
472	  0.114388779	-8.394000E+00	  0.114388779	4.109400E+01	  0.114388779	7.484900E+01	  0.114388779	4.376700E+01
473	  0.114589177	-8.404000E+00	  0.114589177	4.024300E+01	  0.114589177	7.581200E+01	  0.114589177	4.350200E+01
474	  0.114789583	-8.405000E+00	  0.114789583	3.937200E+01	  0.114789583	7.681700E+01	  0.114789583	4.327800E+01
475	  0.114989981	-8.417000E+00	  0.114989981	3.849500E+01	  0.114989981	7.781400E+01	  0.114989981	4.293600E+01
476	  0.115190387	-8.425000E+00	  0.115190387	3.759800E+01	  0.115190387	7.884700E+01	  0.115190387	4.259500E+01
477	  0.115390785	-8.437000E+00	  0.115390785	3.665800E+01	  0.115390785	7.992400E+01	  0.115390785	4.217200E+01
478	  0.115591183	-8.444000E+00	  0.115591183	3.571800E+01	  0.115591183	8.101400E+01	  0.115591183	4.175300E+01
479	  0.115791589	-8.455000E+00	  0.115791589	3.479200E+01	  0.115791589	8.207800E+01	  0.115791589	4.127700E+01
480	  0.115991987	-8.471000E+00	  0.115991987	3.385900E+01	  0.115991987	8.313000E+01	  0.115991987	4.071800E+01
481	  0.116192386	-8.491000E+00	  0.116192386	3.289600E+01	  0.116192386	8.420000E+01	  0.116192386	4.007900E+01
482	  0.116392791	-8.509000E+00	  0.116392791	3.194900E+01	  0.116392791	8.525200E+01	  0.116392791	3.943100E+01
483	  0.116593190	-8.532000E+00	  0.116593190	3.093000E+01	  0.116593190	8.635600E+01	  0.116593190	3.866300E+01
484	  0.116793588	-8.546000E+00	  0.116793588	2.998700E+01	  0.116793588	8.739200E+01	  0.116793588	3.796100E+01
485	  0.116993994	-8.572000E+00	  0.116993994	2.894700E+01	  0.116993994	8.847600E+01	  0.116993994	3.707200E+01
486	  0.117194392	-8.600000E+00	  0.117194392	2.792100E+01	  0.117194392	8.951000E+01	  0.117194392	3.612900E+01
487	  0.117394790	-8.631000E+00	  0.117394790	2.688100E+01	  0.117394790	9.051900E+01	  0.117394790	3.511300E+01
488	  0.117595196	-8.657000E+00	  0.117595196	2.580500E+01	  0.117595196	9.156600E+01	  0.117595196	3.406400E+01
489	  0.117795594	-8.687000E+00	  0.117795594	2.468000E+01	  0.117795594	9.261100E+01	  0.117795594	3.289900E+01
490	  0.117995992	-8.722000E+00	  0.117995992	2.361600E+01	  0.117995992	9.351900E+01	  0.117995992	3.170200E+01
491	  0.118196398	-8.766000E+00	  0.118196398	2.253700E+01	  0.118196398	9.434900E+01	  0.118196398	3.040000E+01
492	  0.118396796	-8.807000E+00	  0.118396796	2.133800E+01	  0.118396796	9.526200E+01	  0.118396796	2.896200E+01
493	  0.118597202	-8.846000E+00	  0.118597202	2.021000E+01	  0.118597202	9.605900E+01	  0.118597202	2.756300E+01
494	  0.118797600	-8.896000E+00	  0.118797600	1.901800E+01	  0.118797600	9.678700E+01	  0.118797600	2.600300E+01
495	  0.118997999	-8.950000E+00	  0.118997999	1.778400E+01	  0.118997999	9.745100E+01	  0.118997999	2.434400E+01
496	  0.119198404	-8.999000E+00	  0.119198404	1.658700E+01	  0.119198404	9.803900E+01	  0.119198404	2.272200E+01
497	  0.119398803	-9.055000E+00	  0.119398803	1.530800E+01	  0.119398803	9.857200E+01	  0.119398803	2.095500E+01
498	  0.119599201	-9.123000E+00	  0.119599201	1.407600E+01	  0.119599201	9.888700E+01	  0.119599201	1.917300E+01
499	  0.119799607	-9.192000E+00	  0.119799607	1.279500E+01	  0.119799607	9.913800E+01	  0.119799607	1.732400E+01
500	  0.120000005	-9.257000E+00	  0.120000005	1.146300E+01	  0.120000005	9.936700E+01	  0.120000005	1.543600E+01
