! Anritsu VNA Master:             	Model: MS2036C/10/77
! SN:             	1601066
! /bd0/18may07/256.ew.m7.txt
! Existing Calibration Information:
! TYPE:             	Current Settings	Active Cal Settings
! TIME:             	05/07/2018 12:12:27 PM	05/07/2018 12:05:13 PM
! INTERNAL TEMP:    	54.3 C	53.5 C
! # POINTS:         	500	500
! START FREQ:       	20.000 MHz	20.000 MHz
! STOP FREQ:        	120.000 MHz	120.000 MHz
! SOURCE POWER:     	High	High
! IFBW:             	50 Hz	50 Hz
! AVG FACTOR:       	  1 	  1 
! REF PLANE 1:      	0 mm	0 mm
! REF PLANE 2:      	0 mm	0 mm
! CAL TYPE:         	Full S11	Full S11
! CAL METHOD:       	SOLT	SOLT
! CAL LINE TYPE:    	Coax	Coax
! DUT PORT 1:       	K-Conn(F)	K-Conn(F)
! DUT PORT 2:       	K-Conn(F)	K-Conn(F)
! CAL STATUS:       	OK: Accuracy High	--
! PROP-V:       	0.700
! CABLE LOSS:       	0.000 dB/m
! REF IMPEDANCE:       	50.0
! Trace Specific Parameters:	TR1	TR2	TR3	TR4
! TRACE.#.Y (GRAPH TYPE)	LOG MAG	PHASE	REAL IMPEDANCE	IMAGINARY IMPEDANCE
! TRACE.#.X 	FREQ.GHZ	FREQ.GHZ	FREQ.GHZ	FREQ.GHZ
! S-PARAMETER	S11	S11	S11	S11
! SMOOTH/APERTURE %	0	0	0	0
! WINDOW	NSL	NSL	NSL	NSL
! GATING	OFF	OFF	OFF	OFF
! FGTD	OFF	OFF	OFF	OFF
Marker Information per Trace:	TR1	TR2	TR3	TR4
!MK1	--	"MK1 TR2:  20.000 MHz,PH:-125.78°"	--	--
!MK2	--	--	"MK2 TR3:  70.100 200 MHz,Z:(16.342 ohm, -2.905 ohm)"	--
!MK3	--	--	--	--
!MK4	--	--	--	--
!MK5	--	--	--	--
!MK6	--	--	--	--
!MK7	--	--	--	--
!MK8	--	--	--	--
PNT	TR1.FREQ.GHZ	TR1.LOG MAG.dB	TR2.FREQ.GHZ	TR2.PHASE.deg	TR3.FREQ.GHZ	TR3.REAL IMPEDANCE.ohm	TR4.FREQ.GHZ	TR4.IMAGINARY IMPEDANCE.ohm
1	  0.020000000	-6.290000E-01	  0.020000000	-1.257800E+02	  0.020000000	2.285000E+00	  0.020000000	-2.555400E+01
2	  0.020200402	-6.270000E-01	  0.020200402	-1.272440E+02	  0.020200402	2.248000E+00	  0.020200402	-2.475500E+01
3	  0.020400802	-6.280000E-01	  0.020400802	-1.286930E+02	  0.020400802	2.225000E+00	  0.020400802	-2.397400E+01
4	  0.020601204	-6.300000E-01	  0.020601204	-1.301690E+02	  0.020601204	2.203000E+00	  0.020601204	-2.318800E+01
5	  0.020801604	-6.340000E-01	  0.020801604	-1.316660E+02	  0.020801604	2.191000E+00	  0.020801604	-2.240000E+01
6	  0.021002004	-6.400000E-01	  0.021002004	-1.331940E+02	  0.021002004	2.186000E+00	  0.021002004	-2.160500E+01
7	  0.021202406	-6.470000E-01	  0.021202406	-1.347180E+02	  0.021202406	2.184000E+00	  0.021202406	-2.082000E+01
8	  0.021402806	-6.520000E-01	  0.021402806	-1.362520E+02	  0.021402806	2.179000E+00	  0.021402806	-2.004000E+01
9	  0.021603208	-6.580000E-01	  0.021603208	-1.377950E+02	  0.021603208	2.175000E+00	  0.021603208	-1.926300E+01
10	  0.021803608	-6.620000E-01	  0.021803608	-1.393410E+02	  0.021803608	2.165000E+00	  0.021803608	-1.849400E+01
11	  0.022004008	-6.660000E-01	  0.022004008	-1.408750E+02	  0.022004008	2.160000E+00	  0.022004008	-1.773700E+01
12	  0.022204408	-6.730000E-01	  0.022204408	-1.424410E+02	  0.022204408	2.161000E+00	  0.022204408	-1.697200E+01
13	  0.022404809	-6.770000E-01	  0.022404809	-1.440140E+02	  0.022404809	2.155000E+00	  0.022404809	-1.621100E+01
14	  0.022605211	-6.840000E-01	  0.022605211	-1.455960E+02	  0.022605211	2.159000E+00	  0.022605211	-1.545200E+01
15	  0.022805611	-6.910000E-01	  0.022805611	-1.472000E+02	  0.022805611	2.160000E+00	  0.022805611	-1.469000E+01
16	  0.023006011	-6.930000E-01	  0.023006011	-1.487930E+02	  0.023006011	2.149000E+00	  0.023006011	-1.393900E+01
17	  0.023206413	-6.940000E-01	  0.023206413	-1.503750E+02	  0.023206413	2.138000E+00	  0.023206413	-1.319900E+01
18	  0.023406813	-6.970000E-01	  0.023406813	-1.519670E+02	  0.023406813	2.129000E+00	  0.023406813	-1.246000E+01
19	  0.023607215	-7.010000E-01	  0.023607215	-1.535510E+02	  0.023607215	2.128000E+00	  0.023607215	-1.172900E+01
20	  0.023807615	-7.100000E-01	  0.023807615	-1.551560E+02	  0.023807615	2.143000E+00	  0.023807615	-1.099300E+01
21	  0.024008015	-7.200000E-01	  0.024008015	-1.567690E+02	  0.024008015	2.159000E+00	  0.024008015	-1.025800E+01
22	  0.024208417	-7.290000E-01	  0.024208417	-1.583990E+02	  0.024208417	2.175000E+00	  0.024208417	-9.520000E+00
23	  0.024408817	-7.370000E-01	  0.024408817	-1.600490E+02	  0.024408817	2.188000E+00	  0.024408817	-8.777000E+00
24	  0.024609219	-7.470000E-01	  0.024609219	-1.616880E+02	  0.024609219	2.206000E+00	  0.024609219	-8.043000E+00
25	  0.024809619	-7.570000E-01	  0.024809619	-1.633370E+02	  0.024809619	2.226000E+00	  0.024809619	-7.307000E+00
26	  0.025010020	-7.690000E-01	  0.025010020	-1.649880E+02	  0.025010020	2.250000E+00	  0.025010020	-6.574000E+00
27	  0.025210422	-7.830000E-01	  0.025210422	-1.666410E+02	  0.025210422	2.285000E+00	  0.025210422	-5.843000E+00
28	  0.025410822	-7.950000E-01	  0.025410822	-1.683330E+02	  0.025410822	2.312000E+00	  0.025410822	-5.097000E+00
29	  0.025611224	-8.090000E-01	  0.025611224	-1.700200E+02	  0.025611224	2.346000E+00	  0.025611224	-4.355000E+00
30	  0.025811624	-8.240000E-01	  0.025811624	-1.717360E+02	  0.025811624	2.384000E+00	  0.025811624	-3.603000E+00
31	  0.026012026	-8.350000E-01	  0.026012026	-1.734560E+02	  0.026012026	2.412000E+00	  0.026012026	-2.851000E+00
32	  0.026212426	-8.460000E-01	  0.026212426	-1.751860E+02	  0.026212426	2.439000E+00	  0.026212426	-2.096000E+00
33	  0.026412826	-8.600000E-01	  0.026412826	-1.769190E+02	  0.026412826	2.476000E+00	  0.026412826	-1.341000E+00
34	  0.026613226	-8.770000E-01	  0.026613226	-1.786670E+02	  0.026613226	2.523000E+00	  0.026613226	-5.800000E-01
35	  0.026813626	-8.920000E-01	  0.026813626	1.795680E+02	  0.026813626	2.567000E+00	  0.026813626	1.870000E-01
36	  0.027014028	-9.100000E-01	  0.027014028	1.778020E+02	  0.027014028	2.619000E+00	  0.027014028	9.560000E-01
37	  0.027214428	-9.270000E-01	  0.027214428	1.760160E+02	  0.027214428	2.669000E+00	  0.027214428	1.733000E+00
38	  0.027414829	-9.460000E-01	  0.027414829	1.742130E+02	  0.027414829	2.727000E+00	  0.027414829	2.519000E+00
39	  0.027615231	-9.630000E-01	  0.027615231	1.724120E+02	  0.027615231	2.781000E+00	  0.027615231	3.305000E+00
40	  0.027815631	-9.830000E-01	  0.027815631	1.706010E+02	  0.027815631	2.847000E+00	  0.027815631	4.096000E+00
41	  0.028016033	-1.003000E+00	  0.028016033	1.687630E+02	  0.028016033	2.913000E+00	  0.028016033	4.902000E+00
42	  0.028216433	-1.026000E+00	  0.028216433	1.669220E+02	  0.028216433	2.990000E+00	  0.028216433	5.710000E+00
43	  0.028416833	-1.049000E+00	  0.028416833	1.650960E+02	  0.028416833	3.067000E+00	  0.028416833	6.515000E+00
44	  0.028617235	-1.068000E+00	  0.028617235	1.632520E+02	  0.028617235	3.137000E+00	  0.028617235	7.331000E+00
45	  0.028817635	-1.089000E+00	  0.028817635	1.614280E+02	  0.028817635	3.214000E+00	  0.028817635	8.141000E+00
46	  0.029018037	-1.110000E+00	  0.029018037	1.596000E+02	  0.029018037	3.295000E+00	  0.029018037	8.958000E+00
47	  0.029218437	-1.130000E+00	  0.029218437	1.577780E+02	  0.029218437	3.374000E+00	  0.029218437	9.776000E+00
48	  0.029418837	-1.154000E+00	  0.029418837	1.559640E+02	  0.029418837	3.468000E+00	  0.029418837	1.059500E+01
49	  0.029619239	-1.180000E+00	  0.029619239	1.541290E+02	  0.029619239	3.571000E+00	  0.029619239	1.142800E+01
50	  0.029819639	-1.210000E+00	  0.029819639	1.522640E+02	  0.029819639	3.688000E+00	  0.029819639	1.228000E+01
51	  0.030020041	-1.240000E+00	  0.030020041	1.503760E+02	  0.030020041	3.812000E+00	  0.030020041	1.314900E+01
52	  0.030220442	-1.270000E+00	  0.030220442	1.484730E+02	  0.030220442	3.940000E+00	  0.030220442	1.403200E+01
53	  0.030420844	-1.300000E+00	  0.030420844	1.465560E+02	  0.030420844	4.071000E+00	  0.030420844	1.493000E+01
54	  0.030621244	-1.331000E+00	  0.030621244	1.446640E+02	  0.030621244	4.211000E+00	  0.030621244	1.582300E+01
55	  0.030821644	-1.363000E+00	  0.030821644	1.427600E+02	  0.030821644	4.356000E+00	  0.030821644	1.673100E+01
56	  0.031022044	-1.396000E+00	  0.031022044	1.408510E+02	  0.031022044	4.515000E+00	  0.031022044	1.764900E+01
57	  0.031222444	-1.430000E+00	  0.031222444	1.389400E+02	  0.031222444	4.678000E+00	  0.031222444	1.857900E+01
58	  0.031422846	-1.465000E+00	  0.031422846	1.369750E+02	  0.031422846	4.856000E+00	  0.031422846	1.954600E+01
59	  0.031623244	-1.502000E+00	  0.031623244	1.349730E+02	  0.031623244	5.046000E+00	  0.031623244	2.054300E+01
60	  0.031823646	-1.539000E+00	  0.031823646	1.329890E+02	  0.031823646	5.248000E+00	  0.031823646	2.154400E+01
61	  0.032024048	-1.574000E+00	  0.032024048	1.309820E+02	  0.032024048	5.449000E+00	  0.032024048	2.257000E+01
62	  0.032224450	-1.610000E+00	  0.032224450	1.289860E+02	  0.032224450	5.662000E+00	  0.032224450	2.360600E+01
63	  0.032424849	-1.645000E+00	  0.032424849	1.269820E+02	  0.032424849	5.884000E+00	  0.032424849	2.466100E+01
64	  0.032625251	-1.680000E+00	  0.032625251	1.249910E+02	  0.032625251	6.114000E+00	  0.032625251	2.572500E+01
65	  0.032825653	-1.719000E+00	  0.032825653	1.230100E+02	  0.032825653	6.366000E+00	  0.032825653	2.680100E+01
66	  0.033026051	-1.759000E+00	  0.033026051	1.210140E+02	  0.033026051	6.639000E+00	  0.033026051	2.790100E+01
67	  0.033226453	-1.801000E+00	  0.033226453	1.190320E+02	  0.033226453	6.931000E+00	  0.033226453	2.901100E+01
68	  0.033426855	-1.848000E+00	  0.033426855	1.170380E+02	  0.033426855	7.258000E+00	  0.033426855	3.014500E+01
69	  0.033627257	-1.900000E+00	  0.033627257	1.150310E+02	  0.033627257	7.620000E+00	  0.033627257	3.130500E+01
70	  0.033827655	-1.953000E+00	  0.033827655	1.129910E+02	  0.033827655	8.010000E+00	  0.033827655	3.250500E+01
71	  0.034028057	-2.002000E+00	  0.034028057	1.109300E+02	  0.034028057	8.405000E+00	  0.034028057	3.374400E+01
72	  0.034228459	-2.055000E+00	  0.034228459	1.088210E+02	  0.034228459	8.841000E+00	  0.034228459	3.503700E+01
73	  0.034428857	-2.104000E+00	  0.034428857	1.067000E+02	  0.034428857	9.291000E+00	  0.034428857	3.636600E+01
74	  0.034629259	-2.155000E+00	  0.034629259	1.045650E+02	  0.034629259	9.776000E+00	  0.034629259	3.773400E+01
75	  0.034829661	-2.197000E+00	  0.034829661	1.024390E+02	  0.034829661	1.024900E+01	  0.034829661	3.913600E+01
76	  0.035030060	-2.242000E+00	  0.035030060	1.003300E+02	  0.035030060	1.076400E+01	  0.035030060	4.055700E+01
77	  0.035230462	-2.288000E+00	  0.035230462	9.822700E+01	  0.035230462	1.131100E+01	  0.035230462	4.200700E+01
78	  0.035430863	-2.331000E+00	  0.035430863	9.610300E+01	  0.035430863	1.188700E+01	  0.035430863	4.351200E+01
79	  0.035631265	-2.373000E+00	  0.035631265	9.403500E+01	  0.035631265	1.248500E+01	  0.035631265	4.501600E+01
80	  0.035831664	-2.415000E+00	  0.035831664	9.195200E+01	  0.035831664	1.312600E+01	  0.035831664	4.657100E+01
81	  0.036032066	-2.458000E+00	  0.036032066	8.990200E+01	  0.036032066	1.380900E+01	  0.036032066	4.814000E+01
82	  0.036232468	-2.506000E+00	  0.036232468	8.784600E+01	  0.036232468	1.456800E+01	  0.036232468	4.974700E+01
83	  0.036432866	-2.555000E+00	  0.036432866	8.580400E+01	  0.036432866	1.537500E+01	  0.036432866	5.138500E+01
84	  0.036633268	-2.605000E+00	  0.036633268	8.377000E+01	  0.036633268	1.624900E+01	  0.036633268	5.305700E+01
85	  0.036833670	-2.658000E+00	  0.036833670	8.173000E+01	  0.036833670	1.720700E+01	  0.036833670	5.477100E+01
86	  0.037034072	-2.717000E+00	  0.037034072	7.967800E+01	  0.037034072	1.827400E+01	  0.037034072	5.652900E+01
87	  0.037234470	-2.775000E+00	  0.037234470	7.761200E+01	  0.037234470	1.941700E+01	  0.037234470	5.834700E+01
88	  0.037434869	-2.836000E+00	  0.037434869	7.553200E+01	  0.037434869	2.067300E+01	  0.037434869	6.021800E+01
89	  0.037635271	-2.896000E+00	  0.037635271	7.341800E+01	  0.037635271	2.203500E+01	  0.037635271	6.217500E+01
90	  0.037835669	-2.958000E+00	  0.037835669	7.129400E+01	  0.037835669	2.352700E+01	  0.037835669	6.418500E+01
91	  0.038036071	-3.019000E+00	  0.038036071	6.912600E+01	  0.038036071	2.516100E+01	  0.038036071	6.629400E+01
92	  0.038236473	-3.080000E+00	  0.038236473	6.697000E+01	  0.038236473	2.693100E+01	  0.038236473	6.843900E+01
93	  0.038436871	-3.139000E+00	  0.038436871	6.481200E+01	  0.038436871	2.883400E+01	  0.038436871	7.064800E+01
94	  0.038637273	-3.193000E+00	  0.038637273	6.266600E+01	  0.038637273	3.086100E+01	  0.038637273	7.291300E+01
95	  0.038837675	-3.243000E+00	  0.038837675	6.051500E+01	  0.038837675	3.304200E+01	  0.038837675	7.525400E+01
96	  0.039038073	-3.291000E+00	  0.039038073	5.841600E+01	  0.039038073	3.535200E+01	  0.039038073	7.759300E+01
97	  0.039238475	-3.338000E+00	  0.039238475	5.634200E+01	  0.039238475	3.783700E+01	  0.039238475	7.994800E+01
98	  0.039438877	-3.390000E+00	  0.039438877	5.428300E+01	  0.039438877	4.056900E+01	  0.039438877	8.228100E+01
99	  0.039639279	-3.440000E+00	  0.039639279	5.222900E+01	  0.039639279	4.353200E+01	  0.039639279	8.463300E+01
100	  0.039839678	-3.498000E+00	  0.039839678	5.018500E+01	  0.039839678	4.681200E+01	  0.039839678	8.691000E+01
101	  0.040040080	-3.559000E+00	  0.040040080	4.809400E+01	  0.040040080	5.049200E+01	  0.040040080	8.918700E+01
102	  0.040240481	-3.619000E+00	  0.040240481	4.601900E+01	  0.040240481	5.447000E+01	  0.040240481	9.139400E+01
103	  0.040440880	-3.678000E+00	  0.040440880	4.393800E+01	  0.040440880	5.880800E+01	  0.040440880	9.352800E+01
104	  0.040641282	-3.738000E+00	  0.040641282	4.185600E+01	  0.040641282	6.354100E+01	  0.040641282	9.552600E+01
105	  0.040841684	-3.797000E+00	  0.040841684	3.976500E+01	  0.040841684	6.870300E+01	  0.040841684	9.737000E+01
106	  0.041042086	-3.856000E+00	  0.041042086	3.770500E+01	  0.041042086	7.421600E+01	  0.041042086	9.896300E+01
107	  0.041242484	-3.911000E+00	  0.041242484	3.561900E+01	  0.041242484	8.023200E+01	  0.041242484	1.003370E+02
108	  0.041442886	-3.966000E+00	  0.041442886	3.354900E+01	  0.041442886	8.667400E+01	  0.041442886	1.013330E+02
109	  0.041643288	-4.021000E+00	  0.041643288	3.147100E+01	  0.041643288	9.361500E+01	  0.041643288	1.018930E+02
110	  0.041843686	-4.073000E+00	  0.041843686	2.939100E+01	  0.041843686	1.010240E+02	  0.041843686	1.019460E+02
111	  0.042044088	-4.122000E+00	  0.042044088	2.734200E+01	  0.042044088	1.087570E+02	  0.042044088	1.013950E+02
112	  0.042244490	-4.172000E+00	  0.042244490	2.531000E+01	  0.042244490	1.168140E+02	  0.042244490	1.000800E+02
113	  0.042444889	-4.222000E+00	  0.042444889	2.329000E+01	  0.042444889	1.251260E+02	  0.042444889	9.786400E+01
114	  0.042645290	-4.273000E+00	  0.042645290	2.127000E+01	  0.042645290	1.336220E+02	  0.042645290	9.465600E+01
115	  0.042845692	-4.323000E+00	  0.042845692	1.928100E+01	  0.042845692	1.420300E+02	  0.042845692	9.043000E+01
116	  0.043046094	-4.374000E+00	  0.043046094	1.728400E+01	  0.043046094	1.503300E+02	  0.043046094	8.505600E+01
117	  0.043246493	-4.422000E+00	  0.043246493	1.528000E+01	  0.043246493	1.583570E+02	  0.043246493	7.853100E+01
118	  0.043446895	-4.470000E+00	  0.043446895	1.329100E+01	  0.043446895	1.657670E+02	  0.043446895	7.087100E+01
119	  0.043647297	-4.520000E+00	  0.043647297	1.130800E+01	  0.043647297	1.723230E+02	  0.043647297	6.209200E+01
120	  0.043847695	-4.568000E+00	  0.043847695	9.321000E+00	  0.043847695	1.778780E+02	  0.043847695	5.232700E+01
121	  0.044048097	-4.615000E+00	  0.044048097	7.359000E+00	  0.044048097	1.822240E+02	  0.044048097	4.193100E+01
122	  0.044248499	-4.662000E+00	  0.044248499	5.375000E+00	  0.044248499	1.852330E+02	  0.044248499	3.082700E+01
123	  0.044448901	-4.708000E+00	  0.044448901	3.420000E+00	  0.044448901	1.867680E+02	  0.044448901	1.958600E+01
124	  0.044649299	-4.754000E+00	  0.044649299	1.471000E+00	  0.044649299	1.868270E+02	  0.044649299	8.343000E+00
125	  0.044849701	-4.798000E+00	  0.044849701	-4.630000E-01	  0.044849701	1.855420E+02	  0.044849701	-2.582000E+00
126	  0.045050103	-4.841000E+00	  0.045050103	-2.405000E+00	  0.045050103	1.830220E+02	  0.045050103	-1.309400E+01
127	  0.045250501	-4.882000E+00	  0.045250501	-4.341000E+00	  0.045250501	1.793850E+02	  0.045250501	-2.293000E+01
128	  0.045450903	-4.920000E+00	  0.045450903	-6.250000E+00	  0.045450903	1.749160E+02	  0.045450903	-3.188500E+01
129	  0.045651305	-4.957000E+00	  0.045651305	-8.163000E+00	  0.045651305	1.696660E+02	  0.045651305	-4.000500E+01
130	  0.045851704	-4.996000E+00	  0.045851704	-1.006900E+01	  0.045851704	1.637650E+02	  0.045851704	-4.712700E+01
131	  0.046052106	-5.035000E+00	  0.046052106	-1.195300E+01	  0.046052106	1.575200E+02	  0.046052106	-5.323800E+01
132	  0.046252504	-5.069000E+00	  0.046252504	-1.384800E+01	  0.046252504	1.510940E+02	  0.046252504	-5.857500E+01
133	  0.046452906	-5.109000E+00	  0.046452906	-1.570400E+01	  0.046452906	1.445690E+02	  0.046452906	-6.284100E+01
134	  0.046653304	-5.142000E+00	  0.046653304	-1.758300E+01	  0.046653304	1.380570E+02	  0.046653304	-6.649000E+01
135	  0.046853706	-5.176000E+00	  0.046853706	-1.944500E+01	  0.046853706	1.316660E+02	  0.046853706	-6.936700E+01
136	  0.047054108	-5.207000E+00	  0.047054108	-2.129400E+01	  0.047054108	1.254920E+02	  0.047054108	-7.164800E+01
137	  0.047254506	-5.238000E+00	  0.047254506	-2.312900E+01	  0.047254506	1.195410E+02	  0.047254506	-7.332900E+01
138	  0.047454908	-5.271000E+00	  0.047454908	-2.495200E+01	  0.047454908	1.138370E+02	  0.047454908	-7.446900E+01
139	  0.047655310	-5.297000E+00	  0.047655310	-2.676400E+01	  0.047655310	1.084450E+02	  0.047655310	-7.530700E+01
140	  0.047855709	-5.324000E+00	  0.047855709	-2.852200E+01	  0.047855709	1.034410E+02	  0.047855709	-7.574500E+01
141	  0.048056111	-5.350000E+00	  0.048056111	-3.027600E+01	  0.048056111	9.869100E+01	  0.048056111	-7.587800E+01
142	  0.048256513	-5.380000E+00	  0.048256513	-3.205200E+01	  0.048256513	9.412400E+01	  0.048256513	-7.569600E+01
143	  0.048456915	-5.407000E+00	  0.048456915	-3.377600E+01	  0.048456915	8.993200E+01	  0.048456915	-7.534700E+01
144	  0.048657313	-5.437000E+00	  0.048657313	-3.551500E+01	  0.048657313	8.594100E+01	  0.048657313	-7.477000E+01
145	  0.048857715	-5.461000E+00	  0.048857715	-3.726800E+01	  0.048857715	8.214000E+01	  0.048857715	-7.411700E+01
146	  0.049058117	-5.488000E+00	  0.049058117	-3.900900E+01	  0.049058117	7.858600E+01	  0.049058117	-7.330500E+01
147	  0.049258515	-5.510000E+00	  0.049258515	-4.073700E+01	  0.049258515	7.525200E+01	  0.049258515	-7.245400E+01
148	  0.049458917	-5.534000E+00	  0.049458917	-4.245000E+01	  0.049458917	7.214400E+01	  0.049458917	-7.147900E+01
149	  0.049659319	-5.559000E+00	  0.049659319	-4.414900E+01	  0.049659319	6.924000E+01	  0.049659319	-7.044300E+01
150	  0.049859721	-5.586000E+00	  0.049859721	-4.585200E+01	  0.049859721	6.650900E+01	  0.049859721	-6.931900E+01
151	  0.050060119	-5.608000E+00	  0.050060119	-4.753700E+01	  0.050060119	6.394500E+01	  0.050060119	-6.822000E+01
152	  0.050260521	-5.632000E+00	  0.050260521	-4.923900E+01	  0.050260521	6.151300E+01	  0.050260521	-6.704800E+01
153	  0.050460923	-5.652000E+00	  0.050460923	-5.093700E+01	  0.050460923	5.921200E+01	  0.050460923	-6.589100E+01
154	  0.050661322	-5.670000E+00	  0.050661322	-5.260100E+01	  0.050661322	5.707300E+01	  0.050661322	-6.475400E+01
155	  0.050861724	-5.684000E+00	  0.050861724	-5.425700E+01	  0.050861724	5.505200E+01	  0.050861724	-6.362800E+01
156	  0.051062126	-5.699000E+00	  0.051062126	-5.591800E+01	  0.051062126	5.313400E+01	  0.051062126	-6.248500E+01
157	  0.051262524	-5.715000E+00	  0.051262524	-5.751800E+01	  0.051262524	5.139200E+01	  0.051262524	-6.136000E+01
158	  0.051462926	-5.731000E+00	  0.051462926	-5.910600E+01	  0.051462926	4.975500E+01	  0.051462926	-6.023700E+01
159	  0.051663328	-5.745000E+00	  0.051663328	-6.066900E+01	  0.051663328	4.821800E+01	  0.051663328	-5.914500E+01
160	  0.051863730	-5.757000E+00	  0.051863730	-6.222700E+01	  0.051863730	4.675600E+01	  0.051863730	-5.806600E+01
161	  0.052064128	-5.773000E+00	  0.052064128	-6.377600E+01	  0.052064128	4.539100E+01	  0.052064128	-5.697400E+01
162	  0.052264530	-5.788000E+00	  0.052264530	-6.529700E+01	  0.052264530	4.411600E+01	  0.052264530	-5.590600E+01
163	  0.052464932	-5.806000E+00	  0.052464932	-6.684100E+01	  0.052464932	4.289000E+01	  0.052464932	-5.482000E+01
164	  0.052665330	-5.820000E+00	  0.052665330	-6.839800E+01	  0.052665330	4.170200E+01	  0.052665330	-5.375000E+01
165	  0.052865732	-5.837000E+00	  0.052865732	-6.991200E+01	  0.052865732	4.061500E+01	  0.052865732	-5.270400E+01
166	  0.053066134	-5.853000E+00	  0.053066134	-7.141500E+01	  0.053066134	3.958500E+01	  0.053066134	-5.167700E+01
167	  0.053266536	-5.863000E+00	  0.053266536	-7.294700E+01	  0.053266536	3.855800E+01	  0.053266536	-5.066900E+01
168	  0.053466935	-5.875000E+00	  0.053466935	-7.445000E+01	  0.053466935	3.760400E+01	  0.053466935	-4.968100E+01
169	  0.053667337	-5.883000E+00	  0.053667337	-7.595900E+01	  0.053667337	3.667700E+01	  0.053667337	-4.871300E+01
170	  0.053867739	-5.892000E+00	  0.053867739	-7.744300E+01	  0.053867739	3.580500E+01	  0.053867739	-4.776900E+01
171	  0.054068137	-5.895000E+00	  0.054068137	-7.893700E+01	  0.054068137	3.494400E+01	  0.054068137	-4.684900E+01
172	  0.054268539	-5.899000E+00	  0.054268539	-8.039600E+01	  0.054268539	3.414500E+01	  0.054268539	-4.595200E+01
173	  0.054468941	-5.908000E+00	  0.054468941	-8.181400E+01	  0.054468941	3.341700E+01	  0.054468941	-4.507300E+01
174	  0.054669339	-5.915000E+00	  0.054669339	-8.323000E+01	  0.054669339	3.271800E+01	  0.054669339	-4.420600E+01
175	  0.054869737	-5.921000E+00	  0.054869737	-8.465300E+01	  0.054869737	3.203700E+01	  0.054869737	-4.335100E+01
176	  0.055070139	-5.928000E+00	  0.055070139	-8.602900E+01	  0.055070139	3.141000E+01	  0.055070139	-4.252700E+01
177	  0.055270538	-5.935000E+00	  0.055270538	-8.740200E+01	  0.055270538	3.080800E+01	  0.055270538	-4.171400E+01
178	  0.055470940	-5.941000E+00	  0.055470940	-8.877700E+01	  0.055470940	3.022500E+01	  0.055470940	-4.091000E+01
179	  0.055671342	-5.951000E+00	  0.055671342	-9.017400E+01	  0.055671342	2.967100E+01	  0.055671342	-4.009200E+01
180	  0.055871744	-5.955000E+00	  0.055871744	-9.153600E+01	  0.055871744	2.913200E+01	  0.055871744	-3.931700E+01
181	  0.056072142	-5.963000E+00	  0.056072142	-9.292500E+01	  0.056072142	2.861500E+01	  0.056072142	-3.852600E+01
182	  0.056272544	-5.968000E+00	  0.056272544	-9.431300E+01	  0.056272544	2.811000E+01	  0.056272544	-3.774900E+01
183	  0.056472946	-5.974000E+00	  0.056472946	-9.568500E+01	  0.056472946	2.763200E+01	  0.056472946	-3.698800E+01
184	  0.056673344	-5.980000E+00	  0.056673344	-9.705100E+01	  0.056673344	2.717600E+01	  0.056673344	-3.623800E+01
185	  0.056873746	-5.983000E+00	  0.056873746	-9.842400E+01	  0.056873746	2.672300E+01	  0.056873746	-3.549800E+01
186	  0.057074148	-5.983000E+00	  0.057074148	-9.978100E+01	  0.057074148	2.628300E+01	  0.057074148	-3.477900E+01
187	  0.057274550	-5.986000E+00	  0.057274550	-1.011600E+02	  0.057274550	2.586000E+01	  0.057274550	-3.405000E+01
188	  0.057474948	-5.980000E+00	  0.057474948	-1.024900E+02	  0.057474948	2.543900E+01	  0.057474948	-3.337000E+01
189	  0.057675350	-5.980000E+00	  0.057675350	-1.038220E+02	  0.057675350	2.504900E+01	  0.057675350	-3.268500E+01
190	  0.057875752	-5.976000E+00	  0.057875752	-1.051330E+02	  0.057875752	2.467000E+01	  0.057875752	-3.202100E+01
191	  0.058076151	-5.976000E+00	  0.058076151	-1.064500E+02	  0.058076151	2.431300E+01	  0.058076151	-3.135300E+01
192	  0.058276553	-5.975000E+00	  0.058276553	-1.077180E+02	  0.058276553	2.397800E+01	  0.058276553	-3.071800E+01
193	  0.058476955	-5.972000E+00	  0.058476955	-1.089810E+02	  0.058476955	2.364700E+01	  0.058476955	-3.009400E+01
194	  0.058677353	-5.970000E+00	  0.058677353	-1.102130E+02	  0.058677353	2.334200E+01	  0.058677353	-2.948600E+01
195	  0.058877755	-5.972000E+00	  0.058877755	-1.114770E+02	  0.058877755	2.304800E+01	  0.058877755	-2.886300E+01
196	  0.059078157	-5.969000E+00	  0.059078157	-1.127360E+02	  0.059078157	2.275200E+01	  0.059078157	-2.825400E+01
197	  0.059278559	-5.970000E+00	  0.059278559	-1.139690E+02	  0.059278559	2.248300E+01	  0.059278559	-2.765600E+01
198	  0.059478957	-5.972000E+00	  0.059478957	-1.151960E+02	  0.059478957	2.222600E+01	  0.059478957	-2.706500E+01
199	  0.059679359	-5.974000E+00	  0.059679359	-1.164460E+02	  0.059679359	2.197600E+01	  0.059679359	-2.646700E+01
200	  0.059879761	-5.973000E+00	  0.059879761	-1.176780E+02	  0.059879761	2.172700E+01	  0.059879761	-2.588600E+01
201	  0.060080159	-5.976000E+00	  0.060080159	-1.188940E+02	  0.060080159	2.149900E+01	  0.060080159	-2.531200E+01
202	  0.060280561	-5.974000E+00	  0.060280561	-1.200940E+02	  0.060280561	2.126800E+01	  0.060280561	-2.475600E+01
203	  0.060480963	-5.975000E+00	  0.060480963	-1.213050E+02	  0.060480963	2.105500E+01	  0.060480963	-2.419300E+01
204	  0.060681365	-5.977000E+00	  0.060681365	-1.225190E+02	  0.060681365	2.084700E+01	  0.060681365	-2.363400E+01
205	  0.060881764	-5.973000E+00	  0.060881764	-1.237050E+02	  0.060881764	2.063500E+01	  0.060881764	-2.309600E+01
206	  0.061082166	-5.974000E+00	  0.061082166	-1.248910E+02	  0.061082166	2.044200E+01	  0.061082166	-2.255800E+01
207	  0.061282568	-5.972000E+00	  0.061282568	-1.260860E+02	  0.061282568	2.024900E+01	  0.061282568	-2.202100E+01
208	  0.061482966	-5.967000E+00	  0.061482966	-1.272410E+02	  0.061482966	2.005800E+01	  0.061482966	-2.150800E+01
209	  0.061683368	-5.971000E+00	  0.061683368	-1.283910E+02	  0.061683368	1.989900E+01	  0.061683368	-2.099200E+01
210	  0.061883770	-5.971000E+00	  0.061883770	-1.295530E+02	  0.061883770	1.973100E+01	  0.061883770	-2.047800E+01
211	  0.062084168	-5.968000E+00	  0.062084168	-1.307030E+02	  0.062084168	1.956400E+01	  0.062084168	-1.997400E+01
212	  0.062284570	-5.972000E+00	  0.062284570	-1.318200E+02	  0.062284570	1.942400E+01	  0.062284570	-1.948100E+01
213	  0.062484972	-5.962000E+00	  0.062484972	-1.328840E+02	  0.062484972	1.925900E+01	  0.062484972	-1.902600E+01
214	  0.062685370	-5.970000E+00	  0.062685370	-1.340270E+02	  0.062685370	1.913700E+01	  0.062685370	-1.852400E+01
215	  0.062885776	-5.969000E+00	  0.062885776	-1.351630E+02	  0.062885776	1.899500E+01	  0.062885776	-1.803500E+01
216	  0.063086174	-5.977000E+00	  0.063086174	-1.363040E+02	  0.063086174	1.888400E+01	  0.063086174	-1.753900E+01
217	  0.063286573	-5.981000E+00	  0.063286573	-1.374610E+02	  0.063286573	1.876500E+01	  0.063286573	-1.704300E+01
218	  0.063486971	-5.980000E+00	  0.063486971	-1.385680E+02	  0.063486971	1.863900E+01	  0.063486971	-1.657300E+01
219	  0.063687377	-5.979000E+00	  0.063687377	-1.396820E+02	  0.063687377	1.852000E+01	  0.063687377	-1.610300E+01
220	  0.063887775	-5.980000E+00	  0.063887775	-1.408200E+02	  0.063887775	1.840500E+01	  0.063887775	-1.562400E+01
221	  0.064088173	-5.976000E+00	  0.064088173	-1.419400E+02	  0.064088173	1.828400E+01	  0.064088173	-1.515700E+01
222	  0.064288579	-5.976000E+00	  0.064288579	-1.430400E+02	  0.064288579	1.818100E+01	  0.064288579	-1.469800E+01
223	  0.064488977	-5.974000E+00	  0.064488977	-1.441170E+02	  0.064488977	1.807400E+01	  0.064488977	-1.425200E+01
224	  0.064689375	-5.977000E+00	  0.064689375	-1.452150E+02	  0.064689375	1.798600E+01	  0.064689375	-1.379600E+01
225	  0.064889781	-5.973000E+00	  0.064889781	-1.462760E+02	  0.064889781	1.788600E+01	  0.064889781	-1.336000E+01
226	  0.065090179	-5.971000E+00	  0.065090179	-1.473410E+02	  0.065090179	1.779400E+01	  0.065090179	-1.292300E+01
227	  0.065290578	-5.970000E+00	  0.065290578	-1.483510E+02	  0.065290578	1.771000E+01	  0.065290578	-1.251100E+01
228	  0.065490983	-5.965000E+00	  0.065490983	-1.494000E+02	  0.065490983	1.761900E+01	  0.065490983	-1.208500E+01
229	  0.065691382	-5.962000E+00	  0.065691382	-1.504580E+02	  0.065691382	1.753300E+01	  0.065691382	-1.165500E+01
230	  0.065891780	-5.960000E+00	  0.065891780	-1.514600E+02	  0.065891780	1.745600E+01	  0.065891780	-1.125000E+01
231	  0.066092186	-5.956000E+00	  0.066092186	-1.525030E+02	  0.066092186	1.737800E+01	  0.066092186	-1.083000E+01
232	  0.066292584	-5.953000E+00	  0.066292584	-1.535170E+02	  0.066292584	1.730400E+01	  0.066292584	-1.042100E+01
233	  0.066492982	-5.947000E+00	  0.066492982	-1.545380E+02	  0.066492982	1.722400E+01	  0.066492982	-1.001300E+01
234	  0.066693388	-5.947000E+00	  0.066693388	-1.555190E+02	  0.066693388	1.716700E+01	  0.066693388	-9.619000E+00
235	  0.066893786	-5.937000E+00	  0.066893786	-1.565250E+02	  0.066893786	1.708500E+01	  0.066893786	-9.220000E+00
236	  0.067094192	-5.935000E+00	  0.067094192	-1.575420E+02	  0.067094192	1.702300E+01	  0.067094192	-8.814000E+00
237	  0.067294590	-5.929000E+00	  0.067294590	-1.585460E+02	  0.067294590	1.695700E+01	  0.067294590	-8.416000E+00
238	  0.067494988	-5.921000E+00	  0.067494988	-1.595630E+02	  0.067494988	1.688500E+01	  0.067494988	-8.013000E+00
239	  0.067695394	-5.917000E+00	  0.067695394	-1.605350E+02	  0.067695394	1.683200E+01	  0.067695394	-7.628000E+00
240	  0.067895792	-5.915000E+00	  0.067895792	-1.615610E+02	  0.067895792	1.678200E+01	  0.067895792	-7.222000E+00
241	  0.068096191	-5.906000E+00	  0.068096191	-1.626030E+02	  0.068096191	1.671500E+01	  0.068096191	-6.812000E+00
242	  0.068296596	-5.904000E+00	  0.068296596	-1.635950E+02	  0.068296596	1.667200E+01	  0.068296596	-6.420000E+00
243	  0.068496995	-5.901000E+00	  0.068496995	-1.645890E+02	  0.068496995	1.662700E+01	  0.068496995	-6.028000E+00
244	  0.068697393	-5.896000E+00	  0.068697393	-1.655680E+02	  0.068697393	1.658100E+01	  0.068697393	-5.644000E+00
245	  0.068897791	-5.890000E+00	  0.068897791	-1.666170E+02	  0.068897791	1.653300E+01	  0.068897791	-5.232000E+00
246	  0.069098189	-5.887000E+00	  0.069098189	-1.676040E+02	  0.069098189	1.649800E+01	  0.069098189	-4.844000E+00
247	  0.069298595	-5.879000E+00	  0.069298595	-1.685690E+02	  0.069298595	1.645000E+01	  0.069298595	-4.467000E+00
248	  0.069498993	-5.876000E+00	  0.069498993	-1.695630E+02	  0.069498993	1.641800E+01	  0.069498993	-4.077000E+00
249	  0.069699399	-5.874000E+00	  0.069699399	-1.705760E+02	  0.069699399	1.639100E+01	  0.069699399	-3.680000E+00
250	  0.069899797	-5.873000E+00	  0.069899797	-1.715980E+02	  0.069899797	1.636700E+01	  0.069899797	-3.280000E+00
251	  0.070100196	-5.869000E+00	  0.070100196	-1.725600E+02	  0.070100196	1.634100E+01	  0.070100196	-2.904000E+00
252	  0.070300601	-5.874000E+00	  0.070300601	-1.735450E+02	  0.070300601	1.633700E+01	  0.070300601	-2.519000E+00
253	  0.070501000	-5.869000E+00	  0.070501000	-1.745560E+02	  0.070501000	1.631200E+01	  0.070501000	-2.124000E+00
254	  0.070701398	-5.859000E+00	  0.070701398	-1.755640E+02	  0.070701398	1.627400E+01	  0.070701398	-1.731000E+00
255	  0.070901804	-5.859000E+00	  0.070901804	-1.764960E+02	  0.070901804	1.626600E+01	  0.070901804	-1.367000E+00
256	  0.071102202	-5.855000E+00	  0.071102202	-1.774850E+02	  0.071102202	1.625000E+01	  0.071102202	-9.810000E-01
257	  0.071302600	-5.857000E+00	  0.071302600	-1.785070E+02	  0.071302600	1.625000E+01	  0.071302600	-5.820000E-01
258	  0.071503006	-5.857000E+00	  0.071503006	-1.794470E+02	  0.071503006	1.624800E+01	  0.071503006	-2.150000E-01
259	  0.071703404	-5.858000E+00	  0.071703404	1.796060E+02	  0.071703404	1.625100E+01	  0.071703404	1.530000E-01
260	  0.071903802	-5.858000E+00	  0.071903802	1.786440E+02	  0.071903802	1.625300E+01	  0.071903802	5.280000E-01
261	  0.072104208	-5.856000E+00	  0.072104208	1.776690E+02	  0.072104208	1.625100E+01	  0.072104208	9.090000E-01
262	  0.072304606	-5.861000E+00	  0.072304606	1.767260E+02	  0.072304606	1.626900E+01	  0.072304606	1.277000E+00
263	  0.072505005	-5.863000E+00	  0.072505005	1.757720E+02	  0.072505005	1.628300E+01	  0.072505005	1.649000E+00
264	  0.072705410	-5.860000E+00	  0.072705410	1.748610E+02	  0.072705410	1.628300E+01	  0.072705410	2.006000E+00
265	  0.072905809	-5.867000E+00	  0.072905809	1.739020E+02	  0.072905809	1.631300E+01	  0.072905809	2.380000E+00
266	  0.073106214	-5.869000E+00	  0.073106214	1.729560E+02	  0.073106214	1.633400E+01	  0.073106214	2.749000E+00
267	  0.073306613	-5.872000E+00	  0.073306613	1.720100E+02	  0.073306613	1.635700E+01	  0.073306613	3.119000E+00
268	  0.073507011	-5.876000E+00	  0.073507011	1.710660E+02	  0.073507011	1.638600E+01	  0.073507011	3.488000E+00
269	  0.073707417	-5.881000E+00	  0.073707417	1.701630E+02	  0.073707417	1.641800E+01	  0.073707417	3.841000E+00
270	  0.073907815	-5.887000E+00	  0.073907815	1.692190E+02	  0.073907815	1.645300E+01	  0.073907815	4.210000E+00
271	  0.074108213	-5.887000E+00	  0.074108213	1.683010E+02	  0.074108213	1.647800E+01	  0.074108213	4.571000E+00
272	  0.074308619	-5.896000E+00	  0.074308619	1.673590E+02	  0.074308619	1.652500E+01	  0.074308619	4.939000E+00
273	  0.074509017	-5.902000E+00	  0.074509017	1.664290E+02	  0.074509017	1.656900E+01	  0.074509017	5.303000E+00
274	  0.074709415	-5.909000E+00	  0.074709415	1.655110E+02	  0.074709415	1.661700E+01	  0.074709415	5.663000E+00
275	  0.074909821	-5.914000E+00	  0.074909821	1.645820E+02	  0.074909821	1.666200E+01	  0.074909821	6.028000E+00
276	  0.075110219	-5.925000E+00	  0.075110219	1.636720E+02	  0.075110219	1.672300E+01	  0.075110219	6.384000E+00
277	  0.075310618	-5.931000E+00	  0.075310618	1.627690E+02	  0.075310618	1.677500E+01	  0.075310618	6.739000E+00
278	  0.075511023	-5.941000E+00	  0.075511023	1.618700E+02	  0.075511023	1.683600E+01	  0.075511023	7.092000E+00
279	  0.075711422	-5.943000E+00	  0.075711422	1.609640E+02	  0.075711422	1.688000E+01	  0.075711422	7.450000E+00
280	  0.075911827	-5.953000E+00	  0.075911827	1.600860E+02	  0.075911827	1.694700E+01	  0.075911827	7.795000E+00
281	  0.076112226	-5.960000E+00	  0.076112226	1.591730E+02	  0.076112226	1.700600E+01	  0.076112226	8.156000E+00
282	  0.076312624	-5.964000E+00	  0.076312624	1.582630E+02	  0.076312624	1.706400E+01	  0.076312624	8.516000E+00
283	  0.076513030	-5.974000E+00	  0.076513030	1.573380E+02	  0.076513030	1.713800E+01	  0.076513030	8.882000E+00
284	  0.076713428	-5.983000E+00	  0.076713428	1.564100E+02	  0.076713428	1.721100E+01	  0.076713428	9.249000E+00
285	  0.076913826	-5.993000E+00	  0.076913826	1.555200E+02	  0.076913826	1.728700E+01	  0.076913826	9.601000E+00
286	  0.077114232	-5.995000E+00	  0.077114232	1.546200E+02	  0.077114232	1.734800E+01	  0.077114232	9.961000E+00
287	  0.077314630	-6.004000E+00	  0.077314630	1.537580E+02	  0.077314630	1.742300E+01	  0.077314630	1.030400E+01
288	  0.077515028	-6.006000E+00	  0.077515028	1.528830E+02	  0.077515028	1.748600E+01	  0.077515028	1.065400E+01
289	  0.077715434	-6.015000E+00	  0.077715434	1.520100E+02	  0.077715434	1.756800E+01	  0.077715434	1.100300E+01
290	  0.077915832	-6.020000E+00	  0.077915832	1.511510E+02	  0.077915832	1.763900E+01	  0.077915832	1.134800E+01
291	  0.078116231	-6.032000E+00	  0.078116231	1.502720E+02	  0.078116231	1.773400E+01	  0.078116231	1.169800E+01
292	  0.078316636	-6.043000E+00	  0.078316636	1.494040E+02	  0.078316636	1.782600E+01	  0.078316636	1.204500E+01
293	  0.078517035	-6.053000E+00	  0.078517035	1.485260E+02	  0.078517035	1.792200E+01	  0.078517035	1.239700E+01
294	  0.078717433	-6.064000E+00	  0.078717433	1.476780E+02	  0.078717433	1.801600E+01	  0.078717433	1.273700E+01
295	  0.078917839	-6.077000E+00	  0.078917839	1.468070E+02	  0.078917839	1.812300E+01	  0.078917839	1.308500E+01
296	  0.079118237	-6.087000E+00	  0.079118237	1.459940E+02	  0.079118237	1.821900E+01	  0.079118237	1.341200E+01
297	  0.079318643	-6.105000E+00	  0.079318643	1.451470E+02	  0.079318643	1.834000E+01	  0.079318643	1.375000E+01
298	  0.079519041	-6.116000E+00	  0.079519041	1.442950E+02	  0.079519041	1.844800E+01	  0.079519041	1.409300E+01
299	  0.079719439	-6.132000E+00	  0.079719439	1.434320E+02	  0.079719439	1.857100E+01	  0.079719439	1.443900E+01
300	  0.079919845	-6.145000E+00	  0.079919845	1.425880E+02	  0.079919845	1.868600E+01	  0.079919845	1.478000E+01
301	  0.080120243	-6.164000E+00	  0.080120243	1.417530E+02	  0.080120243	1.881900E+01	  0.080120243	1.511300E+01
302	  0.080320641	-6.175000E+00	  0.080320641	1.409140E+02	  0.080320641	1.893200E+01	  0.080320641	1.545400E+01
303	  0.080521047	-6.193000E+00	  0.080521047	1.400590E+02	  0.080521047	1.907100E+01	  0.080521047	1.579800E+01
304	  0.080721445	-6.210000E+00	  0.080721445	1.392510E+02	  0.080721445	1.920300E+01	  0.080721445	1.612300E+01
305	  0.080921844	-6.227000E+00	  0.080921844	1.383960E+02	  0.080921844	1.934500E+01	  0.080921844	1.646700E+01
306	  0.081122249	-6.246000E+00	  0.081122249	1.376150E+02	  0.081122249	1.948600E+01	  0.081122249	1.678000E+01
307	  0.081322648	-6.261000E+00	  0.081322648	1.367600E+02	  0.081322648	1.962500E+01	  0.081322648	1.712800E+01
308	  0.081523046	-6.282000E+00	  0.081523046	1.359290E+02	  0.081523046	1.978400E+01	  0.081523046	1.746000E+01
309	  0.081723452	-6.302000E+00	  0.081723452	1.351240E+02	  0.081723452	1.993600E+01	  0.081723452	1.778500E+01
310	  0.081923850	-6.321000E+00	  0.081923850	1.343070E+02	  0.081923850	2.009200E+01	  0.081923850	1.811400E+01
311	  0.082124248	-6.338000E+00	  0.082124248	1.335040E+02	  0.082124248	2.024300E+01	  0.082124248	1.844000E+01
312	  0.082324654	-6.361000E+00	  0.082324654	1.327240E+02	  0.082324654	2.041200E+01	  0.082324654	1.875000E+01
313	  0.082525052	-6.383000E+00	  0.082525052	1.319400E+02	  0.082525052	2.057700E+01	  0.082525052	1.906500E+01
314	  0.082725458	-6.405000E+00	  0.082725458	1.311770E+02	  0.082725458	2.074600E+01	  0.082725458	1.937000E+01
315	  0.082925856	-6.430000E+00	  0.082925856	1.303500E+02	  0.082925856	2.093300E+01	  0.082925856	1.970000E+01
316	  0.083126254	-6.459000E+00	  0.083126254	1.295860E+02	  0.083126254	2.112700E+01	  0.083126254	1.999800E+01
317	  0.083326660	-6.480000E+00	  0.083326660	1.287490E+02	  0.083326660	2.131100E+01	  0.083326660	2.033700E+01
318	  0.083527058	-6.503000E+00	  0.083527058	1.279620E+02	  0.083527058	2.149600E+01	  0.083527058	2.065200E+01
319	  0.083727457	-6.526000E+00	  0.083727457	1.271600E+02	  0.083727457	2.168900E+01	  0.083727457	2.097300E+01
320	  0.083927862	-6.554000E+00	  0.083927862	1.264030E+02	  0.083927862	2.189000E+01	  0.083927862	2.127000E+01
321	  0.084128261	-6.573000E+00	  0.084128261	1.256220E+02	  0.084128261	2.207100E+01	  0.084128261	2.158700E+01
322	  0.084328659	-6.596000E+00	  0.084328659	1.248670E+02	  0.084328659	2.226300E+01	  0.084328659	2.188900E+01
323	  0.084529065	-6.624000E+00	  0.084529065	1.241370E+02	  0.084529065	2.247000E+01	  0.084529065	2.217300E+01
324	  0.084729463	-6.649000E+00	  0.084729463	1.234150E+02	  0.084729463	2.266900E+01	  0.084729463	2.245800E+01
325	  0.084929861	-6.674000E+00	  0.084929861	1.226880E+02	  0.084929861	2.287200E+01	  0.084929861	2.274400E+01
326	  0.085130267	-6.700000E+00	  0.085130267	1.219540E+02	  0.085130267	2.308000E+01	  0.085130267	2.303300E+01
327	  0.085330658	-6.721000E+00	  0.085330658	1.212270E+02	  0.085330658	2.327900E+01	  0.085330658	2.332300E+01
328	  0.085531056	-6.752000E+00	  0.085531056	1.205270E+02	  0.085531056	2.350200E+01	  0.085531056	2.359000E+01
329	  0.085731462	-6.786000E+00	  0.085731462	1.198470E+02	  0.085731462	2.373200E+01	  0.085731462	2.384400E+01
330	  0.085931860	-6.817000E+00	  0.085931860	1.191650E+02	  0.085931860	2.395600E+01	  0.085931860	2.410200E+01
331	  0.086132258	-6.843000E+00	  0.086132258	1.184850E+02	  0.086132258	2.417200E+01	  0.086132258	2.436400E+01
332	  0.086332664	-6.873000E+00	  0.086332664	1.178400E+02	  0.086332664	2.439300E+01	  0.086332664	2.460500E+01
333	  0.086533062	-6.901000E+00	  0.086533062	1.171710E+02	  0.086533062	2.461400E+01	  0.086533062	2.486000E+01
334	  0.086733460	-6.928000E+00	  0.086733460	1.164900E+02	  0.086733460	2.483800E+01	  0.086733460	2.512100E+01
335	  0.086933866	-6.958000E+00	  0.086933866	1.158430E+02	  0.086933866	2.506900E+01	  0.086933866	2.536000E+01
336	  0.087134264	-6.985000E+00	  0.087134264	1.151660E+02	  0.087134264	2.529800E+01	  0.087134264	2.561800E+01
337	  0.087334670	-7.011000E+00	  0.087334670	1.145330E+02	  0.087334670	2.551700E+01	  0.087334670	2.585700E+01
338	  0.087535068	-7.034000E+00	  0.087535068	1.138850E+02	  0.087535068	2.573400E+01	  0.087535068	2.610700E+01
339	  0.087735467	-7.054000E+00	  0.087735467	1.132500E+02	  0.087735467	2.594300E+01	  0.087735467	2.635500E+01
340	  0.087935872	-7.077000E+00	  0.087935872	1.126370E+02	  0.087935872	2.615800E+01	  0.087935872	2.658700E+01
341	  0.088136271	-7.096000E+00	  0.088136271	1.119730E+02	  0.088136271	2.637500E+01	  0.088136271	2.685000E+01
342	  0.088336669	-7.111000E+00	  0.088336669	1.113120E+02	  0.088336669	2.658500E+01	  0.088336669	2.711600E+01
343	  0.088537075	-7.123000E+00	  0.088537075	1.106590E+02	  0.088537075	2.678400E+01	  0.088537075	2.738500E+01
344	  0.088737473	-7.138000E+00	  0.088737473	1.100260E+02	  0.088737473	2.699300E+01	  0.088737473	2.763900E+01
345	  0.088937871	-7.155000E+00	  0.088937871	1.093490E+02	  0.088937871	2.721900E+01	  0.088937871	2.790900E+01
346	  0.089138277	-7.168000E+00	  0.089138277	1.086640E+02	  0.089138277	2.744100E+01	  0.089138277	2.819000E+01
347	  0.089338675	-7.190000E+00	  0.089338675	1.080160E+02	  0.089338675	2.768100E+01	  0.089338675	2.843800E+01
348	  0.089539073	-7.210000E+00	  0.089539073	1.073420E+02	  0.089539073	2.792700E+01	  0.089539073	2.870100E+01
349	  0.089739479	-7.230000E+00	  0.089739479	1.066820E+02	  0.089739479	2.817300E+01	  0.089739479	2.895600E+01
350	  0.089939877	-7.252000E+00	  0.089939877	1.059880E+02	  0.089939877	2.843500E+01	  0.089939877	2.922400E+01
351	  0.090140276	-7.276000E+00	  0.090140276	1.052840E+02	  0.090140276	2.871400E+01	  0.090140276	2.948800E+01
352	  0.090340681	-7.303000E+00	  0.090340681	1.046070E+02	  0.090340681	2.899400E+01	  0.090340681	2.973700E+01
353	  0.090541080	-7.323000E+00	  0.090541080	1.039160E+02	  0.090541080	2.926300E+01	  0.090541080	3.000300E+01
354	  0.090741485	-7.356000E+00	  0.090741485	1.032120E+02	  0.090741485	2.957600E+01	  0.090741485	3.024900E+01
355	  0.090941884	-7.374000E+00	  0.090941884	1.025490E+02	  0.090941884	2.983800E+01	  0.090941884	3.050500E+01
356	  0.091142282	-7.407000E+00	  0.091142282	1.019140E+02	  0.091142282	3.013700E+01	  0.091142282	3.071800E+01
357	  0.091342688	-7.433000E+00	  0.091342688	1.012890E+02	  0.091342688	3.041600E+01	  0.091342688	3.093800E+01
358	  0.091543086	-7.461000E+00	  0.091543086	1.006170E+02	  0.091543086	3.072100E+01	  0.091543086	3.117300E+01
359	  0.091743484	-7.491000E+00	  0.091743484	9.997500E+01	  0.091743484	3.102600E+01	  0.091743484	3.138900E+01
360	  0.091943890	-7.519000E+00	  0.091943890	9.936000E+01	  0.091943890	3.131600E+01	  0.091943890	3.159700E+01
361	  0.092144288	-7.551000E+00	  0.092144288	9.873500E+01	  0.092144288	3.162900E+01	  0.092144288	3.179600E+01
362	  0.092344686	-7.576000E+00	  0.092344686	9.814400E+01	  0.092344686	3.190800E+01	  0.092344686	3.199800E+01
363	  0.092545092	-7.616000E+00	  0.092545092	9.752500E+01	  0.092545092	3.224500E+01	  0.092545092	3.217400E+01
364	  0.092745490	-7.640000E+00	  0.092745490	9.696400E+01	  0.092745490	3.252000E+01	  0.092745490	3.235900E+01
365	  0.092945889	-7.682000E+00	  0.092945889	9.639600E+01	  0.092945889	3.285000E+01	  0.092945889	3.250300E+01
366	  0.093146294	-7.715000E+00	  0.093146294	9.582000E+01	  0.093146294	3.316000E+01	  0.093146294	3.266900E+01
367	  0.093346693	-7.755000E+00	  0.093346693	9.524400E+01	  0.093346693	3.349400E+01	  0.093346693	3.281500E+01
368	  0.093547091	-7.786000E+00	  0.093547091	9.468600E+01	  0.093547091	3.379700E+01	  0.093547091	3.297500E+01
369	  0.093747497	-7.828000E+00	  0.093747497	9.410500E+01	  0.093747497	3.414200E+01	  0.093747497	3.311400E+01
370	  0.093947895	-7.860000E+00	  0.093947895	9.350200E+01	  0.093947895	3.447200E+01	  0.093947895	3.328500E+01
371	  0.094148301	-7.898000E+00	  0.094148301	9.294200E+01	  0.094148301	3.480200E+01	  0.094148301	3.342000E+01
372	  0.094348699	-7.935000E+00	  0.094348699	9.235900E+01	  0.094348699	3.514300E+01	  0.094348699	3.356500E+01
373	  0.094549097	-7.981000E+00	  0.094549097	9.180900E+01	  0.094549097	3.549600E+01	  0.094549097	3.366900E+01
374	  0.094749503	-8.015000E+00	  0.094749503	9.125300E+01	  0.094749503	3.582300E+01	  0.094749503	3.380300E+01
375	  0.094949901	-8.043000E+00	  0.094949901	9.070300E+01	  0.094949901	3.613300E+01	  0.094949901	3.395100E+01
376	  0.095150299	-8.080000E+00	  0.095150299	9.016900E+01	  0.095150299	3.646400E+01	  0.095150299	3.406200E+01
377	  0.095350705	-8.114000E+00	  0.095350705	8.965400E+01	  0.095350705	3.677900E+01	  0.095350705	3.417400E+01
378	  0.095551103	-8.148000E+00	  0.095551103	8.909400E+01	  0.095551103	3.711600E+01	  0.095551103	3.430100E+01
379	  0.095751502	-8.181000E+00	  0.095751502	8.856300E+01	  0.095751502	3.744100E+01	  0.095751502	3.441600E+01
380	  0.095951907	-8.216000E+00	  0.095951907	8.806800E+01	  0.095951907	3.775600E+01	  0.095951907	3.450700E+01
381	  0.096152306	-8.249000E+00	  0.096152306	8.755900E+01	  0.096152306	3.807300E+01	  0.096152306	3.461000E+01
382	  0.096352704	-8.284000E+00	  0.096352704	8.708800E+01	  0.096352704	3.838300E+01	  0.096352704	3.468600E+01
383	  0.096553110	-8.314000E+00	  0.096553110	8.660000E+01	  0.096553110	3.868600E+01	  0.096553110	3.478400E+01
384	  0.096753508	-8.343000E+00	  0.096753508	8.611300E+01	  0.096753508	3.899100E+01	  0.096753508	3.487900E+01
385	  0.096953906	-8.380000E+00	  0.096953906	8.565000E+01	  0.096953906	3.930400E+01	  0.096953906	3.494200E+01
386	  0.097154312	-8.410000E+00	  0.097154312	8.516200E+01	  0.097154312	3.961500E+01	  0.097154312	3.502900E+01
387	  0.097354710	-8.443000E+00	  0.097354710	8.471000E+01	  0.097354710	3.991600E+01	  0.097354710	3.509300E+01
388	  0.097555116	-8.468000E+00	  0.097555116	8.426700E+01	  0.097555116	4.019400E+01	  0.097555116	3.517800E+01
389	  0.097755514	-8.501000E+00	  0.097755514	8.379100E+01	  0.097755514	4.051100E+01	  0.097755514	3.524400E+01
390	  0.097955912	-8.526000E+00	  0.097955912	8.335200E+01	  0.097955912	4.079100E+01	  0.097955912	3.532300E+01
391	  0.098156318	-8.553000E+00	  0.098156318	8.292000E+01	  0.098156318	4.107300E+01	  0.098156318	3.539000E+01
392	  0.098356716	-8.578000E+00	  0.098356716	8.252100E+01	  0.098356716	4.133800E+01	  0.098356716	3.544600E+01
393	  0.098557115	-8.604000E+00	  0.098557115	8.212900E+01	  0.098557115	4.160000E+01	  0.098557115	3.549800E+01
394	  0.098757520	-8.626000E+00	  0.098757520	8.170400E+01	  0.098757520	4.187000E+01	  0.098757520	3.557500E+01
395	  0.098957919	-8.649000E+00	  0.098957919	8.130600E+01	  0.098957919	4.213200E+01	  0.098957919	3.563200E+01
396	  0.099158317	-8.673000E+00	  0.099158317	8.091500E+01	  0.099158317	4.239100E+01	  0.099158317	3.568800E+01
397	  0.099358723	-8.699000E+00	  0.099358723	8.050900E+01	  0.099358723	4.266700E+01	  0.099358723	3.573300E+01
398	  0.099559121	-8.723000E+00	  0.099559121	8.016900E+01	  0.099559121	4.290200E+01	  0.099559121	3.576400E+01
399	  0.099759519	-8.745000E+00	  0.099759519	7.979400E+01	  0.099759519	4.315200E+01	  0.099759519	3.581200E+01
400	  0.099959925	-8.768000E+00	  0.099959925	7.945100E+01	  0.099959925	4.338900E+01	  0.099959925	3.584500E+01
401	  0.100160323	-8.792000E+00	  0.100160323	7.908400E+01	  0.100160323	4.363900E+01	  0.100160323	3.588200E+01
402	  0.100360721	-8.817000E+00	  0.100360721	7.881100E+01	  0.100360721	4.384400E+01	  0.100360721	3.588000E+01
403	  0.100561127	-8.840000E+00	  0.100561127	7.836200E+01	  0.100561127	4.414000E+01	  0.100561127	3.594100E+01
404	  0.100761525	-8.854000E+00	  0.100761525	7.799900E+01	  0.100761525	4.437200E+01	  0.100761525	3.600600E+01
405	  0.100961931	-8.873000E+00	  0.100961931	7.764700E+01	  0.100961931	4.460800E+01	  0.100961931	3.604900E+01
406	  0.101162329	-8.890000E+00	  0.101162329	7.733800E+01	  0.101162329	4.481800E+01	  0.101162329	3.608100E+01
407	  0.101362728	-8.913000E+00	  0.101362728	7.690600E+01	  0.101362728	4.511000E+01	  0.101362728	3.613000E+01
408	  0.101563133	-8.936000E+00	  0.101563133	7.656300E+01	  0.101563133	4.535100E+01	  0.101563133	3.615000E+01
409	  0.101763532	-8.942000E+00	  0.101763532	7.622700E+01	  0.101763532	4.555600E+01	  0.101763532	3.623100E+01
410	  0.101963930	-8.957000E+00	  0.101963930	7.587500E+01	  0.101963930	4.579000E+01	  0.101963930	3.627800E+01
411	  0.102164336	-8.975000E+00	  0.102164336	7.547200E+01	  0.102164336	4.605900E+01	  0.102164336	3.633000E+01
412	  0.102364734	-8.982000E+00	  0.102364734	7.510300E+01	  0.102364734	4.629000E+01	  0.102364734	3.641100E+01
413	  0.102565132	-8.989000E+00	  0.102565132	7.475400E+01	  0.102565132	4.650900E+01	  0.102565132	3.648700E+01
414	  0.102765530	-8.996000E+00	  0.102765530	7.441800E+01	  0.102765530	4.672300E+01	  0.102765530	3.655600E+01
415	  0.102965929	-8.999000E+00	  0.102965929	7.402100E+01	  0.102965929	4.696500E+01	  0.102965929	3.665900E+01
416	  0.103166327	-9.006000E+00	  0.103166327	7.372200E+01	  0.103166327	4.715900E+01	  0.103166327	3.671600E+01
417	  0.103366733	-9.004000E+00	  0.103366733	7.337900E+01	  0.103366733	4.736400E+01	  0.103366733	3.681900E+01
418	  0.103567131	-9.010000E+00	  0.103567131	7.293600E+01	  0.103567131	4.764600E+01	  0.103567131	3.691800E+01
419	  0.103767529	-9.011000E+00	  0.103767529	7.263200E+01	  0.103767529	4.783300E+01	  0.103767529	3.700200E+01
420	  0.103967935	-9.016000E+00	  0.103967935	7.226200E+01	  0.103967935	4.807400E+01	  0.103967935	3.708000E+01
421	  0.104168333	-9.008000E+00	  0.104168333	7.191400E+01	  0.104168333	4.827600E+01	  0.104168333	3.720900E+01
422	  0.104368731	-9.013000E+00	  0.104368731	7.154000E+01	  0.104368731	4.852100E+01	  0.104368731	3.728700E+01
423	  0.104569137	-9.011000E+00	  0.104569137	7.112600E+01	  0.104569137	4.877800E+01	  0.104569137	3.740900E+01
424	  0.104769535	-9.000000E+00	  0.104769535	7.080100E+01	  0.104769535	4.896800E+01	  0.104769535	3.754000E+01
425	  0.104969934	-8.994000E+00	  0.104969934	7.042900E+01	  0.104969934	4.919700E+01	  0.104969934	3.766400E+01
426	  0.105170339	-8.995000E+00	  0.105170339	7.001300E+01	  0.105170339	4.946900E+01	  0.105170339	3.776900E+01
427	  0.105370738	-8.972000E+00	  0.105370738	6.970100E+01	  0.105370738	4.963400E+01	  0.105370738	3.794600E+01
428	  0.105571143	-8.976000E+00	  0.105571143	6.929500E+01	  0.105571143	4.990800E+01	  0.105571143	3.803400E+01
429	  0.105771542	-8.962000E+00	  0.105771542	6.889600E+01	  0.105771542	5.015100E+01	  0.105771542	3.819600E+01
430	  0.105971940	-8.960000E+00	  0.105971940	6.849400E+01	  0.105971940	5.041700E+01	  0.105971940	3.830700E+01
431	  0.106172346	-8.937000E+00	  0.106172346	6.811600E+01	  0.106172346	5.063600E+01	  0.106172346	3.850300E+01
432	  0.106372744	-8.930000E+00	  0.106372744	6.769500E+01	  0.106372744	5.091300E+01	  0.106372744	3.863500E+01
433	  0.106573142	-8.914000E+00	  0.106573142	6.727400E+01	  0.106573142	5.117800E+01	  0.106573142	3.881200E+01
434	  0.106773548	-8.908000E+00	  0.106773548	6.680600E+01	  0.106773548	5.149400E+01	  0.106773548	3.895100E+01
435	  0.106973946	-8.888000E+00	  0.106973946	6.644000E+01	  0.106973946	5.172000E+01	  0.106973946	3.913200E+01
436	  0.107174344	-8.879000E+00	  0.107174344	6.601900E+01	  0.107174344	5.200500E+01	  0.107174344	3.927300E+01
437	  0.107374750	-8.862000E+00	  0.107374750	6.553000E+01	  0.107374750	5.233000E+01	  0.107374750	3.946700E+01
438	  0.107575148	-8.842000E+00	  0.107575148	6.500700E+01	  0.107575148	5.268000E+01	  0.107575148	3.968000E+01
439	  0.107775547	-8.833000E+00	  0.107775547	6.454800E+01	  0.107775547	5.300300E+01	  0.107775547	3.982700E+01
440	  0.107975952	-8.816000E+00	  0.107975952	6.407200E+01	  0.107975952	5.332900E+01	  0.107975952	4.001700E+01
441	  0.108176351	-8.804000E+00	  0.108176351	6.354200E+01	  0.108176351	5.370900E+01	  0.108176351	4.019100E+01
442	  0.108376749	-8.789000E+00	  0.108376749	6.305300E+01	  0.108376749	5.405900E+01	  0.108376749	4.037000E+01
443	  0.108577155	-8.769000E+00	  0.108577155	6.249900E+01	  0.108577155	5.445700E+01	  0.108577155	4.058600E+01
444	  0.108777553	-8.755000E+00	  0.108777553	6.193900E+01	  0.108777553	5.487200E+01	  0.108777553	4.077400E+01
445	  0.108977959	-8.738000E+00	  0.108977959	6.134100E+01	  0.108977959	5.532000E+01	  0.108977959	4.097900E+01
446	  0.109178357	-8.725000E+00	  0.109178357	6.075400E+01	  0.109178357	5.577100E+01	  0.109178357	4.116000E+01
447	  0.109378755	-8.701000E+00	  0.109378755	6.019600E+01	  0.109378755	5.619200E+01	  0.109378755	4.139300E+01
448	  0.109579161	-8.683000E+00	  0.109579161	5.956700E+01	  0.109579161	5.668400E+01	  0.109579161	4.160500E+01
449	  0.109779559	-8.670000E+00	  0.109779559	5.901600E+01	  0.109779559	5.712500E+01	  0.109779559	4.177100E+01
450	  0.109979957	-8.648000E+00	  0.109979957	5.840400E+01	  0.109979957	5.761400E+01	  0.109979957	4.199700E+01
451	  0.110180363	-8.633000E+00	  0.110180363	5.771800E+01	  0.110180363	5.818300E+01	  0.110180363	4.218800E+01
452	  0.110380761	-8.602000E+00	  0.110380761	5.714100E+01	  0.110380761	5.864800E+01	  0.110380761	4.245500E+01
453	  0.110581160	-8.586000E+00	  0.110581160	5.643900E+01	  0.110581160	5.924800E+01	  0.110581160	4.265000E+01
454	  0.110781565	-8.581000E+00	  0.110781565	5.581700E+01	  0.110781565	5.979600E+01	  0.110781565	4.276500E+01
455	  0.110981964	-8.554000E+00	  0.110981964	5.516700E+01	  0.110981964	6.035800E+01	  0.110981964	4.300500E+01
456	  0.111182362	-8.541000E+00	  0.111182362	5.446200E+01	  0.111182362	6.099100E+01	  0.111182362	4.316900E+01
457	  0.111382768	-8.523000E+00	  0.111382768	5.379500E+01	  0.111382768	6.159500E+01	  0.111382768	4.334600E+01
458	  0.111583166	-8.509000E+00	  0.111583166	5.311800E+01	  0.111583166	6.222200E+01	  0.111583166	4.350100E+01
459	  0.111783572	-8.491000E+00	  0.111783572	5.247800E+01	  0.111783572	6.282000E+01	  0.111783572	4.367200E+01
460	  0.111983970	-8.478000E+00	  0.111983970	5.174500E+01	  0.111983970	6.352100E+01	  0.111983970	4.380800E+01
461	  0.112184368	-8.458000E+00	  0.112184368	5.098600E+01	  0.112184368	6.425600E+01	  0.112184368	4.397900E+01
462	  0.112384774	-8.454000E+00	  0.112384774	5.027600E+01	  0.112384774	6.495900E+01	  0.112384774	4.403900E+01
463	  0.112585172	-8.442000E+00	  0.112585172	4.954100E+01	  0.112585172	6.569600E+01	  0.112585172	4.414400E+01
464	  0.112785570	-8.432000E+00	  0.112785570	4.879800E+01	  0.112785570	6.645200E+01	  0.112785570	4.422000E+01
465	  0.112985976	-8.428000E+00	  0.112985976	4.798500E+01	  0.112985976	6.729100E+01	  0.112985976	4.424300E+01
466	  0.113186374	-8.425000E+00	  0.113186374	4.722100E+01	  0.113186374	6.809100E+01	  0.113186374	4.424700E+01
467	  0.113386773	-8.419000E+00	  0.113386773	4.646300E+01	  0.113386773	6.889500E+01	  0.113386773	4.425800E+01
468	  0.113587178	-8.414000E+00	  0.113587178	4.563400E+01	  0.113587178	6.978400E+01	  0.113587178	4.424500E+01
469	  0.113787577	-8.416000E+00	  0.113787577	4.487300E+01	  0.113787577	7.060800E+01	  0.113787577	4.416600E+01
470	  0.113987975	-8.414000E+00	  0.113987975	4.400500E+01	  0.113987975	7.155900E+01	  0.113987975	4.408700E+01
471	  0.114188381	-8.415000E+00	  0.114188381	4.322600E+01	  0.114188381	7.242100E+01	  0.114188381	4.398400E+01
472	  0.114388779	-8.427000E+00	  0.114388779	4.236900E+01	  0.114388779	7.336500E+01	  0.114388779	4.376000E+01
473	  0.114589177	-8.428000E+00	  0.114589177	4.146700E+01	  0.114589177	7.438100E+01	  0.114589177	4.359100E+01
474	  0.114789583	-8.440000E+00	  0.114789583	4.063500E+01	  0.114789583	7.530900E+01	  0.114789583	4.332500E+01
475	  0.114989981	-8.444000E+00	  0.114989981	3.976100E+01	  0.114989981	7.630000E+01	  0.114989981	4.308000E+01
476	  0.115190387	-8.462000E+00	  0.115190387	3.880900E+01	  0.115190387	7.736400E+01	  0.115190387	4.268700E+01
477	  0.115390785	-8.469000E+00	  0.115390785	3.794600E+01	  0.115390785	7.834700E+01	  0.115390785	4.236700E+01
478	  0.115591183	-8.481000E+00	  0.115591183	3.691900E+01	  0.115591183	7.951300E+01	  0.115591183	4.192500E+01
479	  0.115791589	-8.495000E+00	  0.115791589	3.601500E+01	  0.115791589	8.053100E+01	  0.115791589	4.147800E+01
480	  0.115991987	-8.514000E+00	  0.115991987	3.503000E+01	  0.115991987	8.162700E+01	  0.115991987	4.092200E+01
481	  0.116192386	-8.526000E+00	  0.116192386	3.409400E+01	  0.116192386	8.268300E+01	  0.116192386	4.040800E+01
482	  0.116392791	-8.553000E+00	  0.116392791	3.309900E+01	  0.116392791	8.375200E+01	  0.116392791	3.970800E+01
483	  0.116593190	-8.565000E+00	  0.116593190	3.210900E+01	  0.116593190	8.486100E+01	  0.116593190	3.909200E+01
484	  0.116793588	-8.584000E+00	  0.116793588	3.109200E+01	  0.116793588	8.595900E+01	  0.116793588	3.835600E+01
485	  0.116993994	-8.607000E+00	  0.116993994	3.003500E+01	  0.116993994	8.707800E+01	  0.116993994	3.752900E+01
486	  0.117194392	-8.636000E+00	  0.117194392	2.897500E+01	  0.117194392	8.815200E+01	  0.117194392	3.660800E+01
487	  0.117394790	-8.656000E+00	  0.117394790	2.792300E+01	  0.117394790	8.923800E+01	  0.117394790	3.571800E+01
488	  0.117595196	-8.688000E+00	  0.117595196	2.687500E+01	  0.117595196	9.023300E+01	  0.117595196	3.469300E+01
489	  0.117795594	-8.713000E+00	  0.117795594	2.576100E+01	  0.117795594	9.131000E+01	  0.117795594	3.363000E+01
490	  0.117995992	-8.749000E+00	  0.117995992	2.465900E+01	  0.117995992	9.227800E+01	  0.117995992	3.244900E+01
491	  0.118196398	-8.783000E+00	  0.118196398	2.356700E+01	  0.118196398	9.320200E+01	  0.118196398	3.124500E+01
492	  0.118396796	-8.823000E+00	  0.118396796	2.243600E+01	  0.118396796	9.409000E+01	  0.118396796	2.993200E+01
493	  0.118597202	-8.859000E+00	  0.118597202	2.121200E+01	  0.118597202	9.503900E+01	  0.118597202	2.850800E+01
494	  0.118797600	-8.901000E+00	  0.118797600	2.004300E+01	  0.118797600	9.583300E+01	  0.118797600	2.705600E+01
495	  0.118997999	-8.956000E+00	  0.118997999	1.888800E+01	  0.118997999	9.646900E+01	  0.118997999	2.551500E+01
496	  0.119198404	-9.002000E+00	  0.119198404	1.762900E+01	  0.119198404	9.719500E+01	  0.119198404	2.389000E+01
497	  0.119398803	-9.061000E+00	  0.119398803	1.647200E+01	  0.119398803	9.766000E+01	  0.119398803	2.227700E+01
498	  0.119599201	-9.124000E+00	  0.119599201	1.520800E+01	  0.119599201	9.810800E+01	  0.119599201	2.051400E+01
499	  0.119799607	-9.190000E+00	  0.119799607	1.394100E+01	  0.119799607	9.844200E+01	  0.119799607	1.872100E+01
500	  0.120000005	-9.263000E+00	  0.120000005	1.266100E+01	  0.120000005	9.865000E+01	  0.120000005	1.688600E+01
