! Anritsu VNA Master:             	Model: MS2036C/10/77
! SN:             	1601066
! /bd0/18may07/256.ew.m5.txt
! Existing Calibration Information:
! TYPE:             	Current Settings	Active Cal Settings
! TIME:             	05/07/2018 12:08:34 PM	05/07/2018 12:05:13 PM
! INTERNAL TEMP:    	54.0 C	53.5 C
! # POINTS:         	500	500
! START FREQ:       	20.000 MHz	20.000 MHz
! STOP FREQ:        	120.000 MHz	120.000 MHz
! SOURCE POWER:     	High	High
! IFBW:             	50 Hz	50 Hz
! AVG FACTOR:       	  1 	  1 
! REF PLANE 1:      	0 mm	0 mm
! REF PLANE 2:      	0 mm	0 mm
! CAL TYPE:         	Full S11	Full S11
! CAL METHOD:       	SOLT	SOLT
! CAL LINE TYPE:    	Coax	Coax
! DUT PORT 1:       	K-Conn(F)	K-Conn(F)
! DUT PORT 2:       	K-Conn(F)	K-Conn(F)
! CAL STATUS:       	OK: Accuracy High	--
! PROP-V:       	0.700
! CABLE LOSS:       	0.000 dB/m
! REF IMPEDANCE:       	50.0
! Trace Specific Parameters:	TR1	TR2	TR3	TR4
! TRACE.#.Y (GRAPH TYPE)	LOG MAG	PHASE	REAL IMPEDANCE	IMAGINARY IMPEDANCE
! TRACE.#.X 	FREQ.GHZ	FREQ.GHZ	FREQ.GHZ	FREQ.GHZ
! S-PARAMETER	S11	S11	S11	S11
! SMOOTH/APERTURE %	0	0	0	0
! WINDOW	NSL	NSL	NSL	NSL
! GATING	OFF	OFF	OFF	OFF
! FGTD	OFF	OFF	OFF	OFF
Marker Information per Trace:	TR1	TR2	TR3	TR4
!MK1	--	"MK1 TR2:  20.000 MHz,PH:-125.82°"	--	--
!MK2	--	--	"MK2 TR3:  70.100 200 MHz,Z:(16.335 ohm, -2.822 ohm)"	--
!MK3	--	--	--	--
!MK4	--	--	--	--
!MK5	--	--	--	--
!MK6	--	--	--	--
!MK7	--	--	--	--
!MK8	--	--	--	--
PNT	TR1.FREQ.GHZ	TR1.LOG MAG.dB	TR2.FREQ.GHZ	TR2.PHASE.deg	TR3.FREQ.GHZ	TR3.REAL IMPEDANCE.ohm	TR4.FREQ.GHZ	TR4.IMAGINARY IMPEDANCE.ohm
1	  0.020000000	-6.240000E-01	  0.020000000	-1.258220E+02	  0.020000000	2.266000E+00	  0.020000000	-2.553200E+01
2	  0.020200402	-6.220000E-01	  0.020200402	-1.272950E+02	  0.020200402	2.228000E+00	  0.020200402	-2.472800E+01
3	  0.020400802	-6.240000E-01	  0.020400802	-1.287480E+02	  0.020400802	2.208000E+00	  0.020400802	-2.394500E+01
4	  0.020601204	-6.250000E-01	  0.020601204	-1.302090E+02	  0.020601204	2.186000E+00	  0.020601204	-2.316700E+01
5	  0.020801604	-6.290000E-01	  0.020801604	-1.317110E+02	  0.020801604	2.174000E+00	  0.020801604	-2.237700E+01
6	  0.021002004	-6.340000E-01	  0.021002004	-1.332280E+02	  0.021002004	2.166000E+00	  0.021002004	-2.158800E+01
7	  0.021202406	-6.420000E-01	  0.021202406	-1.347550E+02	  0.021202406	2.168000E+00	  0.021202406	-2.080200E+01
8	  0.021402806	-6.480000E-01	  0.021402806	-1.362870E+02	  0.021402806	2.166000E+00	  0.021402806	-2.002200E+01
9	  0.021603208	-6.530000E-01	  0.021603208	-1.378230E+02	  0.021603208	2.159000E+00	  0.021603208	-1.925000E+01
10	  0.021803608	-6.580000E-01	  0.021803608	-1.393700E+02	  0.021803608	2.153000E+00	  0.021803608	-1.848000E+01
11	  0.022004008	-6.630000E-01	  0.022004008	-1.409030E+02	  0.022004008	2.148000E+00	  0.022004008	-1.772400E+01
12	  0.022204408	-6.700000E-01	  0.022204408	-1.424540E+02	  0.022204408	2.151000E+00	  0.022204408	-1.696600E+01
13	  0.022404809	-6.740000E-01	  0.022404809	-1.440380E+02	  0.022404809	2.145000E+00	  0.022404809	-1.620000E+01
14	  0.022605211	-6.800000E-01	  0.022605211	-1.456240E+02	  0.022605211	2.145000E+00	  0.022605211	-1.543900E+01
15	  0.022805611	-6.870000E-01	  0.022805611	-1.472170E+02	  0.022805611	2.148000E+00	  0.022805611	-1.468200E+01
16	  0.023006011	-6.900000E-01	  0.023006011	-1.488130E+02	  0.023006011	2.141000E+00	  0.023006011	-1.393000E+01
17	  0.023206413	-6.930000E-01	  0.023206413	-1.503980E+02	  0.023206413	2.133000E+00	  0.023206413	-1.318800E+01
18	  0.023406813	-6.950000E-01	  0.023406813	-1.519810E+02	  0.023406813	2.124000E+00	  0.023406813	-1.245300E+01
19	  0.023607215	-6.990000E-01	  0.023607215	-1.535770E+02	  0.023607215	2.122000E+00	  0.023607215	-1.171700E+01
20	  0.023807615	-7.060000E-01	  0.023807615	-1.551750E+02	  0.023807615	2.131000E+00	  0.023807615	-1.098500E+01
21	  0.024008015	-7.170000E-01	  0.024008015	-1.567920E+02	  0.024008015	2.150000E+00	  0.024008015	-1.024800E+01
22	  0.024208417	-7.270000E-01	  0.024208417	-1.584220E+02	  0.024208417	2.167000E+00	  0.024208417	-9.510000E+00
23	  0.024408817	-7.370000E-01	  0.024408817	-1.600640E+02	  0.024408817	2.185000E+00	  0.024408817	-8.771000E+00
24	  0.024609219	-7.460000E-01	  0.024609219	-1.617090E+02	  0.024609219	2.204000E+00	  0.024609219	-8.034000E+00
25	  0.024809619	-7.550000E-01	  0.024809619	-1.633640E+02	  0.024809619	2.218000E+00	  0.024809619	-7.295000E+00
26	  0.025010020	-7.670000E-01	  0.025010020	-1.650110E+02	  0.025010020	2.245000E+00	  0.025010020	-6.564000E+00
27	  0.025210422	-7.810000E-01	  0.025210422	-1.666760E+02	  0.025210422	2.277000E+00	  0.025210422	-5.828000E+00
28	  0.025410822	-7.940000E-01	  0.025410822	-1.683510E+02	  0.025410822	2.307000E+00	  0.025410822	-5.089000E+00
29	  0.025611224	-8.070000E-01	  0.025611224	-1.700420E+02	  0.025611224	2.341000E+00	  0.025611224	-4.346000E+00
30	  0.025811624	-8.210000E-01	  0.025811624	-1.717600E+02	  0.025811624	2.374000E+00	  0.025811624	-3.593000E+00
31	  0.026012026	-8.330000E-01	  0.026012026	-1.734820E+02	  0.026012026	2.405000E+00	  0.026012026	-2.840000E+00
32	  0.026212426	-8.440000E-01	  0.026212426	-1.752030E+02	  0.026212426	2.434000E+00	  0.026212426	-2.089000E+00
33	  0.026412826	-8.570000E-01	  0.026412826	-1.769330E+02	  0.026412826	2.469000E+00	  0.026412826	-1.335000E+00
34	  0.026613226	-8.730000E-01	  0.026613226	-1.786780E+02	  0.026613226	2.513000E+00	  0.026613226	-5.750000E-01
35	  0.026813626	-8.890000E-01	  0.026813626	1.795550E+02	  0.026813626	2.557000E+00	  0.026813626	1.930000E-01
36	  0.027014028	-9.070000E-01	  0.027014028	1.777910E+02	  0.027014028	2.609000E+00	  0.027014028	9.600000E-01
37	  0.027214428	-9.250000E-01	  0.027214428	1.760110E+02	  0.027214428	2.664000E+00	  0.027214428	1.736000E+00
38	  0.027414829	-9.420000E-01	  0.027414829	1.742160E+02	  0.027414829	2.718000E+00	  0.027414829	2.518000E+00
39	  0.027615231	-9.600000E-01	  0.027615231	1.724160E+02	  0.027615231	2.772000E+00	  0.027615231	3.303000E+00
40	  0.027815631	-9.800000E-01	  0.027815631	1.705980E+02	  0.027815631	2.838000E+00	  0.027815631	4.098000E+00
41	  0.028016033	-1.001000E+00	  0.028016033	1.687670E+02	  0.028016033	2.906000E+00	  0.028016033	4.900000E+00
42	  0.028216433	-1.024000E+00	  0.028216433	1.669300E+02	  0.028216433	2.983000E+00	  0.028216433	5.707000E+00
43	  0.028416833	-1.046000E+00	  0.028416833	1.651020E+02	  0.028416833	3.061000E+00	  0.028416833	6.513000E+00
44	  0.028617235	-1.066000E+00	  0.028617235	1.632650E+02	  0.028617235	3.132000E+00	  0.028617235	7.325000E+00
45	  0.028817635	-1.087000E+00	  0.028817635	1.614290E+02	  0.028817635	3.210000E+00	  0.028817635	8.141000E+00
46	  0.029018037	-1.108000E+00	  0.029018037	1.596100E+02	  0.029018037	3.290000E+00	  0.029018037	8.953000E+00
47	  0.029218437	-1.130000E+00	  0.029218437	1.577940E+02	  0.029218437	3.374000E+00	  0.029218437	9.769000E+00
48	  0.029418837	-1.154000E+00	  0.029418837	1.559760E+02	  0.029418837	3.466000E+00	  0.029418837	1.058900E+01
49	  0.029619239	-1.181000E+00	  0.029619239	1.541380E+02	  0.029619239	3.573000E+00	  0.029619239	1.142300E+01
50	  0.029819639	-1.210000E+00	  0.029819639	1.522770E+02	  0.029819639	3.689000E+00	  0.029819639	1.227400E+01
51	  0.030020041	-1.241000E+00	  0.030020041	1.503880E+02	  0.030020041	3.813000E+00	  0.030020041	1.314300E+01
52	  0.030220442	-1.271000E+00	  0.030220442	1.484840E+02	  0.030220442	3.943000E+00	  0.030220442	1.402700E+01
53	  0.030420844	-1.301000E+00	  0.030420844	1.465630E+02	  0.030420844	4.075000E+00	  0.030420844	1.492600E+01
54	  0.030621244	-1.332000E+00	  0.030621244	1.446690E+02	  0.030621244	4.214000E+00	  0.030621244	1.582000E+01
55	  0.030821644	-1.364000E+00	  0.030821644	1.427700E+02	  0.030821644	4.361000E+00	  0.030821644	1.672600E+01
56	  0.031022044	-1.398000E+00	  0.031022044	1.408600E+02	  0.031022044	4.521000E+00	  0.031022044	1.764500E+01
57	  0.031222444	-1.431000E+00	  0.031222444	1.389440E+02	  0.031222444	4.681000E+00	  0.031222444	1.857700E+01
58	  0.031422846	-1.467000E+00	  0.031422846	1.369790E+02	  0.031422846	4.862000E+00	  0.031422846	1.954400E+01
59	  0.031623244	-1.505000E+00	  0.031623244	1.349920E+02	  0.031623244	5.056000E+00	  0.031623244	2.053300E+01
60	  0.031823646	-1.540000E+00	  0.031823646	1.330010E+02	  0.031823646	5.249000E+00	  0.031823646	2.153800E+01
61	  0.032024048	-1.576000E+00	  0.032024048	1.309950E+02	  0.032024048	5.454000E+00	  0.032024048	2.256300E+01
62	  0.032224450	-1.611000E+00	  0.032224450	1.290020E+02	  0.032224450	5.666000E+00	  0.032224450	2.359700E+01
63	  0.032424849	-1.647000E+00	  0.032424849	1.269920E+02	  0.032424849	5.890000E+00	  0.032424849	2.465500E+01
64	  0.032625251	-1.681000E+00	  0.032625251	1.250060E+02	  0.032625251	6.116000E+00	  0.032625251	2.571700E+01
65	  0.032825653	-1.719000E+00	  0.032825653	1.230200E+02	  0.032825653	6.367000E+00	  0.032825653	2.679500E+01
66	  0.033026051	-1.760000E+00	  0.033026051	1.210330E+02	  0.033026051	6.643000E+00	  0.033026051	2.789000E+01
67	  0.033226453	-1.802000E+00	  0.033226453	1.190440E+02	  0.033226453	6.932000E+00	  0.033226453	2.900400E+01
68	  0.033426855	-1.849000E+00	  0.033426855	1.170480E+02	  0.033426855	7.261000E+00	  0.033426855	3.013900E+01
69	  0.033627257	-1.902000E+00	  0.033627257	1.150440E+02	  0.033627257	7.626000E+00	  0.033627257	3.129600E+01
70	  0.033827655	-1.955000E+00	  0.033827655	1.130120E+02	  0.033827655	8.014000E+00	  0.033827655	3.249100E+01
71	  0.034028057	-2.004000E+00	  0.034028057	1.109440E+02	  0.034028057	8.411000E+00	  0.034028057	3.373400E+01
72	  0.034228459	-2.054000E+00	  0.034228459	1.088410E+02	  0.034228459	8.837000E+00	  0.034228459	3.502400E+01
73	  0.034428857	-2.104000E+00	  0.034428857	1.067170E+02	  0.034428857	9.287000E+00	  0.034428857	3.635600E+01
74	  0.034629259	-2.156000E+00	  0.034629259	1.045770E+02	  0.034629259	9.777000E+00	  0.034629259	3.772600E+01
75	  0.034829661	-2.199000E+00	  0.034829661	1.024510E+02	  0.034829661	1.025300E+01	  0.034829661	3.912600E+01
76	  0.035030060	-2.244000E+00	  0.035030060	1.003430E+02	  0.035030060	1.076800E+01	  0.035030060	4.054600E+01
77	  0.035230462	-2.290000E+00	  0.035230462	9.824100E+01	  0.035230462	1.132200E+01	  0.035230462	4.199400E+01
78	  0.035430863	-2.333000E+00	  0.035430863	9.611200E+01	  0.035430863	1.189500E+01	  0.035430863	4.350300E+01
79	  0.035631265	-2.374000E+00	  0.035631265	9.404600E+01	  0.035631265	1.248700E+01	  0.035631265	4.500700E+01
80	  0.035831664	-2.417000E+00	  0.035831664	9.196800E+01	  0.035831664	1.313100E+01	  0.035831664	4.655600E+01
81	  0.036032066	-2.460000E+00	  0.036032066	8.991300E+01	  0.036032066	1.381800E+01	  0.036032066	4.812700E+01
82	  0.036232468	-2.509000E+00	  0.036232468	8.785900E+01	  0.036232468	1.457900E+01	  0.036232468	4.973200E+01
83	  0.036432866	-2.557000E+00	  0.036432866	8.581800E+01	  0.036432866	1.538500E+01	  0.036432866	5.137000E+01
84	  0.036633268	-2.608000E+00	  0.036633268	8.377900E+01	  0.036633268	1.626500E+01	  0.036633268	5.304300E+01
85	  0.036833670	-2.661000E+00	  0.036833670	8.174100E+01	  0.036833670	1.721800E+01	  0.036833670	5.475700E+01
86	  0.037034072	-2.720000E+00	  0.037034072	7.969200E+01	  0.037034072	1.828200E+01	  0.037034072	5.651000E+01
87	  0.037234470	-2.778000E+00	  0.037234470	7.762600E+01	  0.037234470	1.942600E+01	  0.037234470	5.832800E+01
88	  0.037434869	-2.837000E+00	  0.037434869	7.555000E+01	  0.037434869	2.067400E+01	  0.037434869	6.019700E+01
89	  0.037635271	-2.897000E+00	  0.037635271	7.342700E+01	  0.037635271	2.204100E+01	  0.037635271	6.216100E+01
90	  0.037835669	-2.959000E+00	  0.037835669	7.130300E+01	  0.037835669	2.353400E+01	  0.037835669	6.416800E+01
91	  0.038036071	-3.020000E+00	  0.038036071	6.914000E+01	  0.038036071	2.516300E+01	  0.038036071	6.627300E+01
92	  0.038236473	-3.081000E+00	  0.038236473	6.698500E+01	  0.038236473	2.693200E+01	  0.038236473	6.841600E+01
93	  0.038436871	-3.141000E+00	  0.038436871	6.482000E+01	  0.038436871	2.884400E+01	  0.038436871	7.062900E+01
94	  0.038637273	-3.195000E+00	  0.038637273	6.268300E+01	  0.038637273	3.086100E+01	  0.038637273	7.288300E+01
95	  0.038837675	-3.245000E+00	  0.038837675	6.052900E+01	  0.038837675	3.304500E+01	  0.038837675	7.522500E+01
96	  0.039038073	-3.293000E+00	  0.039038073	5.844600E+01	  0.039038073	3.533400E+01	  0.039038073	7.754700E+01
97	  0.039238475	-3.340000E+00	  0.039238475	5.636000E+01	  0.039238475	3.783500E+01	  0.039238475	7.990900E+01
98	  0.039438877	-3.391000E+00	  0.039438877	5.431200E+01	  0.039438877	4.054200E+01	  0.039438877	8.223700E+01
99	  0.039639279	-3.443000E+00	  0.039639279	5.225100E+01	  0.039639279	4.352200E+01	  0.039639279	8.458400E+01
100	  0.039839678	-3.501000E+00	  0.039839678	5.020800E+01	  0.039839678	4.681100E+01	  0.039839678	8.684600E+01
101	  0.040040080	-3.561000E+00	  0.040040080	4.812000E+01	  0.040040080	5.047400E+01	  0.040040080	8.912400E+01
102	  0.040240481	-3.620000E+00	  0.040240481	4.603200E+01	  0.040240481	5.445500E+01	  0.040240481	9.136600E+01
103	  0.040440880	-3.680000E+00	  0.040440880	4.394400E+01	  0.040440880	5.881700E+01	  0.040440880	9.349100E+01
104	  0.040641282	-3.743000E+00	  0.040641282	4.186800E+01	  0.040641282	6.356000E+01	  0.040641282	9.544000E+01
105	  0.040841684	-3.802000E+00	  0.040841684	3.977500E+01	  0.040841684	6.871400E+01	  0.040841684	9.729000E+01
106	  0.041042086	-3.859000E+00	  0.041042086	3.769900E+01	  0.041042086	7.425400E+01	  0.041042086	9.891800E+01
107	  0.041242484	-3.915000E+00	  0.041242484	3.561500E+01	  0.041242484	8.027000E+01	  0.041242484	1.002750E+02
108	  0.041442886	-3.972000E+00	  0.041442886	3.352800E+01	  0.041442886	8.677400E+01	  0.041442886	1.012360E+02
109	  0.041643288	-3.970000E+00	  0.041643288	3.131300E+01	  0.041643288	9.390100E+01	  0.041643288	1.031280E+02
110	  0.041843686	-4.023000E+00	  0.041843686	2.920800E+01	  0.041843686	1.015280E+02	  0.041843686	1.032180E+02
111	  0.042044088	-4.074000E+00	  0.042044088	2.711400E+01	  0.042044088	1.095910E+02	  0.042044088	1.026660E+02
112	  0.042244490	-4.125000E+00	  0.042244490	2.505000E+01	  0.042244490	1.179480E+02	  0.042244490	1.012940E+02
113	  0.042444889	-4.179000E+00	  0.042444889	2.298500E+01	  0.042444889	1.266260E+02	  0.042444889	9.890300E+01
114	  0.042645290	-4.231000E+00	  0.042645290	2.093500E+01	  0.042645290	1.354410E+02	  0.042645290	9.552000E+01
115	  0.042845692	-4.284000E+00	  0.042845692	1.890400E+01	  0.042845692	1.441790E+02	  0.042845692	9.097100E+01
116	  0.043046094	-4.339000E+00	  0.043046094	1.687000E+01	  0.043046094	1.527250E+02	  0.043046094	8.513600E+01
117	  0.043246493	-4.390000E+00	  0.043246493	1.484600E+01	  0.043246493	1.608640E+02	  0.043246493	7.816300E+01
118	  0.043446895	-4.443000E+00	  0.043446895	1.283000E+01	  0.043446895	1.683010E+02	  0.043446895	6.996900E+01
119	  0.043647297	-4.499000E+00	  0.043647297	1.083600E+01	  0.043647297	1.746370E+02	  0.043647297	6.063000E+01
120	  0.043847695	-4.551000E+00	  0.043847695	8.842000E+00	  0.043847695	1.799550E+02	  0.043847695	5.044800E+01
121	  0.044048097	-4.604000E+00	  0.044048097	6.859000E+00	  0.044048097	1.838960E+02	  0.044048097	3.955900E+01
122	  0.044248499	-4.657000E+00	  0.044248499	4.882000E+00	  0.044248499	1.863620E+02	  0.044248499	2.821300E+01
123	  0.044448901	-4.708000E+00	  0.044448901	2.942000E+00	  0.044448901	1.873450E+02	  0.044448901	1.690400E+01
124	  0.044649299	-4.758000E+00	  0.044649299	9.880000E-01	  0.044649299	1.868980E+02	  0.044649299	5.601000E+00
125	  0.044849701	-4.805000E+00	  0.044849701	-9.280000E-01	  0.044849701	1.851900E+02	  0.044849701	-5.159000E+00
126	  0.045050103	-4.853000E+00	  0.045050103	-2.877000E+00	  0.045050103	1.821440E+02	  0.045050103	-1.554200E+01
127	  0.045250501	-4.897000E+00	  0.045250501	-4.800000E+00	  0.045250501	1.781810E+02	  0.045250501	-2.509400E+01
128	  0.045450903	-4.941000E+00	  0.045450903	-6.694000E+00	  0.045450903	1.733820E+02	  0.045450903	-3.368100E+01
129	  0.045651305	-4.984000E+00	  0.045651305	-8.586000E+00	  0.045651305	1.679000E+02	  0.045651305	-4.137600E+01
130	  0.045851704	-5.026000E+00	  0.045851704	-1.046900E+01	  0.045851704	1.619410E+02	  0.045851704	-4.812200E+01
131	  0.046052106	-5.068000E+00	  0.046052106	-1.234700E+01	  0.046052106	1.556400E+02	  0.046052106	-5.391900E+01
132	  0.046252504	-5.108000E+00	  0.046252504	-1.421100E+01	  0.046252504	1.492410E+02	  0.046252504	-5.884700E+01
133	  0.046452906	-5.149000E+00	  0.046452906	-1.607000E+01	  0.046452906	1.427620E+02	  0.046452906	-6.291500E+01
134	  0.046653304	-5.188000E+00	  0.046653304	-1.793000E+01	  0.046653304	1.363290E+02	  0.046653304	-6.625500E+01
135	  0.046853706	-5.224000E+00	  0.046853706	-1.977800E+01	  0.046853706	1.300740E+02	  0.046853706	-6.894200E+01
136	  0.047054108	-5.258000E+00	  0.047054108	-2.160400E+01	  0.047054108	1.240580E+02	  0.047054108	-7.103000E+01
137	  0.047254506	-5.292000E+00	  0.047254506	-2.342300E+01	  0.047254506	1.182570E+02	  0.047254506	-7.257300E+01
138	  0.047454908	-5.325000E+00	  0.047454908	-2.522700E+01	  0.047454908	1.127330E+02	  0.047454908	-7.367000E+01
139	  0.047655310	-5.353000E+00	  0.047655310	-2.702800E+01	  0.047655310	1.074720E+02	  0.047655310	-7.443900E+01
140	  0.047855709	-5.381000E+00	  0.047855709	-2.877700E+01	  0.047855709	1.025900E+02	  0.047855709	-7.482500E+01
141	  0.048056111	-5.411000E+00	  0.048056111	-3.051000E+01	  0.048056111	9.797900E+01	  0.048056111	-7.490700E+01
142	  0.048256513	-5.439000E+00	  0.048256513	-3.226000E+01	  0.048256513	9.356700E+01	  0.048256513	-7.476200E+01
143	  0.048456915	-5.467000E+00	  0.048456915	-3.398900E+01	  0.048456915	8.943900E+01	  0.048456915	-7.441200E+01
144	  0.048657313	-5.497000E+00	  0.048657313	-3.570600E+01	  0.048657313	8.556200E+01	  0.048657313	-7.386800E+01
145	  0.048857715	-5.523000E+00	  0.048857715	-3.743100E+01	  0.048857715	8.188100E+01	  0.048857715	-7.322300E+01
146	  0.049058117	-5.546000E+00	  0.049058117	-3.915400E+01	  0.049058117	7.840600E+01	  0.049058117	-7.250200E+01
147	  0.049258515	-5.568000E+00	  0.049258515	-4.088000E+01	  0.049258515	7.511700E+01	  0.049258515	-7.167800E+01
148	  0.049458917	-5.591000E+00	  0.049458917	-4.256100E+01	  0.049458917	7.209800E+01	  0.049458917	-7.076500E+01
149	  0.049659319	-5.612000E+00	  0.049659319	-4.424400E+01	  0.049659319	6.924000E+01	  0.049659319	-6.980400E+01
150	  0.049859721	-5.638000E+00	  0.049859721	-4.593400E+01	  0.049859721	6.654600E+01	  0.049859721	-6.873000E+01
151	  0.050060119	-5.658000E+00	  0.050060119	-4.760200E+01	  0.050060119	6.402200E+01	  0.050060119	-6.768100E+01
152	  0.050260521	-5.679000E+00	  0.050260521	-4.927100E+01	  0.050260521	6.163700E+01	  0.050260521	-6.658800E+01
153	  0.050460923	-5.697000E+00	  0.050460923	-5.092800E+01	  0.050460923	5.939400E+01	  0.050460923	-6.549300E+01
154	  0.050661322	-5.713000E+00	  0.050661322	-5.258300E+01	  0.050661322	5.726400E+01	  0.050661322	-6.440300E+01
155	  0.050861724	-5.725000E+00	  0.050861724	-5.422000E+01	  0.050861724	5.526000E+01	  0.050861724	-6.332300E+01
156	  0.051062126	-5.738000E+00	  0.051062126	-5.586800E+01	  0.051062126	5.334900E+01	  0.051062126	-6.222000E+01
157	  0.051262524	-5.750000E+00	  0.051262524	-5.744200E+01	  0.051262524	5.162200E+01	  0.051262524	-6.115200E+01
158	  0.051462926	-5.766000E+00	  0.051462926	-5.900100E+01	  0.051462926	5.001100E+01	  0.051462926	-6.006200E+01
159	  0.051663328	-5.778000E+00	  0.051663328	-6.056200E+01	  0.051663328	4.846300E+01	  0.051663328	-5.899800E+01
160	  0.051863730	-5.787000E+00	  0.051863730	-6.209700E+01	  0.051863730	4.700500E+01	  0.051863730	-5.796400E+01
161	  0.052064128	-5.802000E+00	  0.052064128	-6.362300E+01	  0.052064128	4.565200E+01	  0.052064128	-5.689800E+01
162	  0.052264530	-5.813000E+00	  0.052264530	-6.514600E+01	  0.052264530	4.434900E+01	  0.052264530	-5.586300E+01
163	  0.052464932	-5.827000E+00	  0.052464932	-6.667400E+01	  0.052464932	4.311600E+01	  0.052464932	-5.481200E+01
164	  0.052665330	-5.839000E+00	  0.052665330	-6.823500E+01	  0.052665330	4.191100E+01	  0.052665330	-5.375600E+01
165	  0.052865732	-5.853000E+00	  0.052865732	-6.975900E+01	  0.052865732	4.079700E+01	  0.052865732	-5.272000E+01
166	  0.053066134	-5.866000E+00	  0.053066134	-7.126100E+01	  0.053066134	3.975200E+01	  0.053066134	-5.171000E+01
167	  0.053266536	-5.874000E+00	  0.053266536	-7.279500E+01	  0.053266536	3.870500E+01	  0.053266536	-5.071700E+01
168	  0.053466935	-5.884000E+00	  0.053466935	-7.430800E+01	  0.053466935	3.773500E+01	  0.053466935	-4.972900E+01
169	  0.053667337	-5.889000E+00	  0.053667337	-7.581200E+01	  0.053667337	3.679200E+01	  0.053667337	-4.878000E+01
170	  0.053867739	-5.895000E+00	  0.053867739	-7.731000E+01	  0.053867739	3.589700E+01	  0.053867739	-4.783900E+01
171	  0.054068137	-5.892000E+00	  0.054068137	-7.882400E+01	  0.054068137	3.499900E+01	  0.054068137	-4.692600E+01
172	  0.054268539	-5.897000E+00	  0.054268539	-8.028800E+01	  0.054268539	3.419500E+01	  0.054268539	-4.602500E+01
173	  0.054468941	-5.900000E+00	  0.054468941	-8.173300E+01	  0.054468941	3.343200E+01	  0.054468941	-4.514600E+01
174	  0.054669339	-5.908000E+00	  0.054669339	-8.317600E+01	  0.054669339	3.271600E+01	  0.054669339	-4.426300E+01
175	  0.054869737	-5.909000E+00	  0.054869737	-8.461900E+01	  0.054869737	3.200500E+01	  0.054869737	-4.341000E+01
176	  0.055070139	-5.915000E+00	  0.055070139	-8.601300E+01	  0.055070139	3.136700E+01	  0.055070139	-4.257700E+01
177	  0.055270538	-5.919000E+00	  0.055270538	-8.740600E+01	  0.055270538	3.074700E+01	  0.055270538	-4.175800E+01
178	  0.055470940	-5.926000E+00	  0.055470940	-8.881400E+01	  0.055470940	3.015200E+01	  0.055470940	-4.093300E+01
179	  0.055671342	-5.931000E+00	  0.055671342	-9.023300E+01	  0.055671342	2.957200E+01	  0.055671342	-4.011300E+01
180	  0.055871744	-5.934000E+00	  0.055871744	-9.161400E+01	  0.055871744	2.902300E+01	  0.055871744	-3.932900E+01
181	  0.056072142	-5.942000E+00	  0.056072142	-9.303300E+01	  0.056072142	2.849600E+01	  0.056072142	-3.852000E+01
182	  0.056272544	-5.946000E+00	  0.056272544	-9.441200E+01	  0.056272544	2.799500E+01	  0.056272544	-3.774900E+01
183	  0.056472946	-5.953000E+00	  0.056472946	-9.582000E+01	  0.056472946	2.750900E+01	  0.056472946	-3.696500E+01
184	  0.056673344	-5.960000E+00	  0.056673344	-9.719500E+01	  0.056673344	2.705300E+01	  0.056673344	-3.620700E+01
185	  0.056873746	-5.962000E+00	  0.056873746	-9.858700E+01	  0.056873746	2.659500E+01	  0.056873746	-3.545700E+01
186	  0.057074148	-5.961000E+00	  0.057074148	-9.995600E+01	  0.057074148	2.615000E+01	  0.057074148	-3.473300E+01
187	  0.057274550	-5.963000E+00	  0.057274550	-1.013540E+02	  0.057274550	2.572300E+01	  0.057274550	-3.399500E+01
188	  0.057474948	-5.959000E+00	  0.057474948	-1.026970E+02	  0.057474948	2.530400E+01	  0.057474948	-3.330500E+01
189	  0.057675350	-5.959000E+00	  0.057675350	-1.040370E+02	  0.057675350	2.491900E+01	  0.057675350	-3.261200E+01
190	  0.057875752	-5.958000E+00	  0.057875752	-1.053530E+02	  0.057875752	2.454800E+01	  0.057875752	-3.194200E+01
191	  0.058076151	-5.960000E+00	  0.058076151	-1.066860E+02	  0.058076151	2.419700E+01	  0.058076151	-3.126200E+01
192	  0.058276553	-5.961000E+00	  0.058276553	-1.079630E+02	  0.058276553	2.386800E+01	  0.058276553	-3.061900E+01
193	  0.058476955	-5.959000E+00	  0.058476955	-1.092270E+02	  0.058476955	2.354400E+01	  0.058476955	-2.999200E+01
194	  0.058677353	-5.962000E+00	  0.058677353	-1.104690E+02	  0.058677353	2.325300E+01	  0.058677353	-2.937300E+01
195	  0.058877755	-5.965000E+00	  0.058877755	-1.117380E+02	  0.058877755	2.296600E+01	  0.058877755	-2.874600E+01
196	  0.059078157	-5.966000E+00	  0.059078157	-1.129930E+02	  0.059078157	2.268300E+01	  0.059078157	-2.813400E+01
197	  0.059278559	-5.968000E+00	  0.059278559	-1.142430E+02	  0.059278559	2.241800E+01	  0.059278559	-2.752700E+01
198	  0.059478957	-5.970000E+00	  0.059478957	-1.154930E+02	  0.059478957	2.216000E+01	  0.059478957	-2.692500E+01
199	  0.059679359	-5.975000E+00	  0.059679359	-1.167240E+02	  0.059679359	2.192300E+01	  0.059679359	-2.633300E+01
200	  0.059879761	-5.978000E+00	  0.059879761	-1.179760E+02	  0.059879761	2.168100E+01	  0.059879761	-2.574000E+01
201	  0.060080159	-5.980000E+00	  0.060080159	-1.191700E+02	  0.060080159	2.146100E+01	  0.060080159	-2.517800E+01
202	  0.060280561	-5.981000E+00	  0.060280561	-1.203860E+02	  0.060280561	2.123700E+01	  0.060280561	-2.461200E+01
203	  0.060480963	-5.981000E+00	  0.060480963	-1.216010E+02	  0.060480963	2.102000E+01	  0.060480963	-2.405000E+01
204	  0.060681365	-5.984000E+00	  0.060681365	-1.228210E+02	  0.060681365	2.081700E+01	  0.060681365	-2.348800E+01
205	  0.060881764	-5.986000E+00	  0.060881764	-1.239960E+02	  0.060881764	2.062500E+01	  0.060881764	-2.295000E+01
206	  0.061082166	-5.986000E+00	  0.061082166	-1.251860E+02	  0.061082166	2.043300E+01	  0.061082166	-2.241100E+01
207	  0.061282568	-5.983000E+00	  0.061282568	-1.263710E+02	  0.061282568	2.023700E+01	  0.061282568	-2.188100E+01
208	  0.061482966	-5.981000E+00	  0.061482966	-1.275230E+02	  0.061482966	2.005500E+01	  0.061482966	-2.136900E+01
209	  0.061683368	-5.985000E+00	  0.061683368	-1.286690E+02	  0.061683368	1.989800E+01	  0.061683368	-2.085500E+01
210	  0.061883770	-5.984000E+00	  0.061883770	-1.298190E+02	  0.061883770	1.973300E+01	  0.061883770	-2.034800E+01
211	  0.062084168	-5.984000E+00	  0.062084168	-1.309570E+02	  0.062084168	1.957500E+01	  0.062084168	-1.984800E+01
212	  0.062284570	-5.988000E+00	  0.062284570	-1.320670E+02	  0.062284570	1.943800E+01	  0.062284570	-1.936000E+01
213	  0.062484972	-5.978000E+00	  0.062484972	-1.331250E+02	  0.062484972	1.927300E+01	  0.062484972	-1.890800E+01
214	  0.062685370	-5.981000E+00	  0.062685370	-1.342830E+02	  0.062685370	1.913700E+01	  0.062685370	-1.840400E+01
215	  0.062885776	-5.988000E+00	  0.062885776	-1.353930E+02	  0.062885776	1.902200E+01	  0.062885776	-1.792100E+01
216	  0.063086174	-5.992000E+00	  0.063086174	-1.364910E+02	  0.063086174	1.890600E+01	  0.063086174	-1.744800E+01
217	  0.063286573	-5.997000E+00	  0.063286573	-1.376350E+02	  0.063286573	1.878800E+01	  0.063286573	-1.695700E+01
218	  0.063486971	-5.993000E+00	  0.063486971	-1.387490E+02	  0.063486971	1.865800E+01	  0.063486971	-1.648700E+01
219	  0.063687377	-5.996000E+00	  0.063687377	-1.398670E+02	  0.063687377	1.854900E+01	  0.063687377	-1.601300E+01
220	  0.063887775	-5.997000E+00	  0.063887775	-1.409760E+02	  0.063887775	1.843700E+01	  0.063887775	-1.554700E+01
221	  0.064088173	-5.990000E+00	  0.064088173	-1.420910E+02	  0.064088173	1.830700E+01	  0.064088173	-1.508500E+01
222	  0.064288579	-5.988000E+00	  0.064288579	-1.431600E+02	  0.064288579	1.820100E+01	  0.064288579	-1.464100E+01
223	  0.064488977	-5.986000E+00	  0.064488977	-1.442540E+02	  0.064488977	1.809600E+01	  0.064488977	-1.418800E+01
224	  0.064689375	-5.984000E+00	  0.064689375	-1.453210E+02	  0.064689375	1.799700E+01	  0.064689375	-1.374800E+01
225	  0.064889781	-5.980000E+00	  0.064889781	-1.463800E+02	  0.064889781	1.789700E+01	  0.064889781	-1.331400E+01
226	  0.065090179	-5.977000E+00	  0.065090179	-1.474600E+02	  0.065090179	1.780000E+01	  0.065090179	-1.287200E+01
227	  0.065290578	-5.973000E+00	  0.065290578	-1.484710E+02	  0.065290578	1.771000E+01	  0.065290578	-1.246000E+01
228	  0.065490983	-5.968000E+00	  0.065490983	-1.495190E+02	  0.065490983	1.761800E+01	  0.065490983	-1.203500E+01
229	  0.065691382	-5.963000E+00	  0.065691382	-1.505590E+02	  0.065691382	1.752800E+01	  0.065691382	-1.161400E+01
230	  0.065891780	-5.962000E+00	  0.065891780	-1.516030E+02	  0.065891780	1.745300E+01	  0.065891780	-1.119100E+01
231	  0.066092186	-5.957000E+00	  0.066092186	-1.526310E+02	  0.066092186	1.737100E+01	  0.066092186	-1.077700E+01
232	  0.066292584	-5.952000E+00	  0.066292584	-1.536490E+02	  0.066292584	1.729200E+01	  0.066292584	-1.036900E+01
233	  0.066492982	-5.947000E+00	  0.066492982	-1.546670E+02	  0.066492982	1.721600E+01	  0.066492982	-9.961000E+00
234	  0.066693388	-5.942000E+00	  0.066693388	-1.556840E+02	  0.066693388	1.714400E+01	  0.066693388	-9.555000E+00
235	  0.066893786	-5.935000E+00	  0.066893786	-1.566850E+02	  0.066893786	1.707100E+01	  0.066893786	-9.156000E+00
236	  0.067094192	-5.926000E+00	  0.067094192	-1.577110E+02	  0.067094192	1.699100E+01	  0.067094192	-8.750000E+00
237	  0.067294590	-5.924000E+00	  0.067294590	-1.587320E+02	  0.067294590	1.693300E+01	  0.067294590	-8.343000E+00
238	  0.067494988	-5.916000E+00	  0.067494988	-1.597410E+02	  0.067494988	1.686600E+01	  0.067494988	-7.944000E+00
239	  0.067695394	-5.907000E+00	  0.067695394	-1.607600E+02	  0.067695394	1.679600E+01	  0.067695394	-7.542000E+00
240	  0.067895792	-5.903000E+00	  0.067895792	-1.617860E+02	  0.067895792	1.674100E+01	  0.067895792	-7.136000E+00
241	  0.068096191	-5.898000E+00	  0.068096191	-1.628030E+02	  0.068096191	1.668600E+01	  0.068096191	-6.735000E+00
242	  0.068296596	-5.896000E+00	  0.068296596	-1.638150E+02	  0.068296596	1.664100E+01	  0.068296596	-6.335000E+00
243	  0.068496995	-5.890000E+00	  0.068496995	-1.648160E+02	  0.068496995	1.659000E+01	  0.068496995	-5.941000E+00
244	  0.068697393	-5.885000E+00	  0.068697393	-1.658080E+02	  0.068697393	1.654500E+01	  0.068697393	-5.551000E+00
245	  0.068897791	-5.883000E+00	  0.068897791	-1.668270E+02	  0.068897791	1.650800E+01	  0.068897791	-5.151000E+00
246	  0.069098189	-5.879000E+00	  0.069098189	-1.678370E+02	  0.069098189	1.647000E+01	  0.069098189	-4.754000E+00
247	  0.069298595	-5.870000E+00	  0.069298595	-1.688110E+02	  0.069298595	1.641900E+01	  0.069298595	-4.373000E+00
248	  0.069498993	-5.869000E+00	  0.069498993	-1.697910E+02	  0.069498993	1.639600E+01	  0.069498993	-3.989000E+00
249	  0.069699399	-5.867000E+00	  0.069699399	-1.708210E+02	  0.069699399	1.636700E+01	  0.069699399	-3.585000E+00
250	  0.069899797	-5.869000E+00	  0.069899797	-1.718190E+02	  0.069899797	1.635200E+01	  0.069899797	-3.194000E+00
251	  0.070100196	-5.868000E+00	  0.070100196	-1.727710E+02	  0.070100196	1.633400E+01	  0.070100196	-2.822000E+00
252	  0.070300601	-5.870000E+00	  0.070300601	-1.737770E+02	  0.070300601	1.632500E+01	  0.070300601	-2.428000E+00
253	  0.070501000	-5.865000E+00	  0.070501000	-1.747820E+02	  0.070501000	1.629700E+01	  0.070501000	-2.036000E+00
254	  0.070701398	-5.862000E+00	  0.070701398	-1.757450E+02	  0.070701398	1.627900E+01	  0.070701398	-1.660000E+00
255	  0.070901804	-5.860000E+00	  0.070901804	-1.767110E+02	  0.070901804	1.626600E+01	  0.070901804	-1.283000E+00
256	  0.071102202	-5.856000E+00	  0.071102202	-1.777010E+02	  0.071102202	1.625200E+01	  0.071102202	-8.960000E-01
257	  0.071302600	-5.860000E+00	  0.071302600	-1.786930E+02	  0.071302600	1.625600E+01	  0.071302600	-5.090000E-01
258	  0.071503006	-5.860000E+00	  0.071503006	-1.796180E+02	  0.071503006	1.625700E+01	  0.071503006	-1.490000E-01
259	  0.071703404	-5.862000E+00	  0.071703404	1.794160E+02	  0.071703404	1.626000E+01	  0.071703404	2.270000E-01
260	  0.071903802	-5.863000E+00	  0.071903802	1.784430E+02	  0.071903802	1.626600E+01	  0.071903802	6.070000E-01
261	  0.072104208	-5.861000E+00	  0.072104208	1.774970E+02	  0.072104208	1.626400E+01	  0.072104208	9.760000E-01
262	  0.072304606	-5.865000E+00	  0.072304606	1.765420E+02	  0.072304606	1.628200E+01	  0.072304606	1.348000E+00
263	  0.072505005	-5.867000E+00	  0.072505005	1.755790E+02	  0.072505005	1.629500E+01	  0.072505005	1.724000E+00
264	  0.072705410	-5.865000E+00	  0.072705410	1.746740E+02	  0.072705410	1.630100E+01	  0.072705410	2.078000E+00
265	  0.072905809	-5.868000E+00	  0.072905809	1.737080E+02	  0.072905809	1.632100E+01	  0.072905809	2.456000E+00
266	  0.073106214	-5.868000E+00	  0.073106214	1.727590E+02	  0.073106214	1.633400E+01	  0.073106214	2.827000E+00
267	  0.073306613	-5.872000E+00	  0.073306613	1.718180E+02	  0.073306613	1.636200E+01	  0.073306613	3.194000E+00
268	  0.073507011	-5.876000E+00	  0.073507011	1.709040E+02	  0.073507011	1.638900E+01	  0.073507011	3.552000E+00
269	  0.073707417	-5.880000E+00	  0.073707417	1.699710E+02	  0.073707417	1.641800E+01	  0.073707417	3.917000E+00
270	  0.073907815	-5.882000E+00	  0.073907815	1.690370E+02	  0.073907815	1.644600E+01	  0.073907815	4.283000E+00
271	  0.074108213	-5.883000E+00	  0.074108213	1.681030E+02	  0.074108213	1.647100E+01	  0.074108213	4.649000E+00
272	  0.074308619	-5.889000E+00	  0.074308619	1.671830E+02	  0.074308619	1.651400E+01	  0.074308619	5.009000E+00
273	  0.074509017	-5.891000E+00	  0.074509017	1.662520E+02	  0.074509017	1.654700E+01	  0.074509017	5.375000E+00
274	  0.074709415	-5.895000E+00	  0.074709415	1.653380E+02	  0.074709415	1.658700E+01	  0.074709415	5.734000E+00
275	  0.074909821	-5.902000E+00	  0.074909821	1.644240E+02	  0.074909821	1.663600E+01	  0.074909821	6.093000E+00
276	  0.075110219	-5.911000E+00	  0.075110219	1.634960E+02	  0.075110219	1.669500E+01	  0.075110219	6.457000E+00
277	  0.075310618	-5.915000E+00	  0.075310618	1.625940E+02	  0.075310618	1.673800E+01	  0.075310618	6.813000E+00
278	  0.075511023	-5.923000E+00	  0.075511023	1.616680E+02	  0.075511023	1.679700E+01	  0.075511023	7.177000E+00
279	  0.075711422	-5.929000E+00	  0.075711422	1.607770E+02	  0.075711422	1.685200E+01	  0.075711422	7.529000E+00
280	  0.075911827	-5.936000E+00	  0.075911827	1.598920E+02	  0.075911827	1.691000E+01	  0.075911827	7.878000E+00
281	  0.076112226	-5.940000E+00	  0.076112226	1.590030E+02	  0.076112226	1.696300E+01	  0.076112226	8.230000E+00
282	  0.076312624	-5.951000E+00	  0.076312624	1.580770E+02	  0.076312624	1.703800E+01	  0.076312624	8.595000E+00
283	  0.076513030	-5.959000E+00	  0.076513030	1.571710E+02	  0.076513030	1.710700E+01	  0.076513030	8.953000E+00
284	  0.076713428	-5.969000E+00	  0.076713428	1.562630E+02	  0.076713428	1.718300E+01	  0.076713428	9.313000E+00
285	  0.076913826	-5.976000E+00	  0.076913826	1.553620E+02	  0.076913826	1.725200E+01	  0.076913826	9.671000E+00
286	  0.077114232	-5.978000E+00	  0.077114232	1.544660E+02	  0.077114232	1.731100E+01	  0.077114232	1.003000E+01
287	  0.077314630	-5.988000E+00	  0.077314630	1.535900E+02	  0.077314630	1.739100E+01	  0.077314630	1.037800E+01
288	  0.077515028	-5.992000E+00	  0.077515028	1.527470E+02	  0.077515028	1.745600E+01	  0.077515028	1.071600E+01
289	  0.077715434	-6.002000E+00	  0.077715434	1.518780E+02	  0.077715434	1.754100E+01	  0.077715434	1.106200E+01
290	  0.077915832	-6.009000E+00	  0.077915832	1.509830E+02	  0.077915832	1.762200E+01	  0.077915832	1.142000E+01
291	  0.078116231	-6.019000E+00	  0.078116231	1.501450E+02	  0.078116231	1.770700E+01	  0.078116231	1.175600E+01
292	  0.078316636	-6.035000E+00	  0.078316636	1.492430E+02	  0.078316636	1.781600E+01	  0.078316636	1.211400E+01
293	  0.078517035	-6.045000E+00	  0.078517035	1.483970E+02	  0.078517035	1.790900E+01	  0.078517035	1.245300E+01
294	  0.078717433	-6.054000E+00	  0.078717433	1.475220E+02	  0.078717433	1.800300E+01	  0.078717433	1.280600E+01
295	  0.078917839	-6.070000E+00	  0.078917839	1.466670E+02	  0.078917839	1.811400E+01	  0.078917839	1.314700E+01
296	  0.079118237	-6.079000E+00	  0.079118237	1.458670E+02	  0.079118237	1.820800E+01	  0.079118237	1.346900E+01
297	  0.079318643	-6.097000E+00	  0.079318643	1.450050E+02	  0.079318643	1.833100E+01	  0.079318643	1.381300E+01
298	  0.079519041	-6.111000E+00	  0.079519041	1.441590E+02	  0.079519041	1.844500E+01	  0.079519041	1.415200E+01
299	  0.079719439	-6.127000E+00	  0.079719439	1.432990E+02	  0.079719439	1.856800E+01	  0.079719439	1.449800E+01
300	  0.079919845	-6.140000E+00	  0.079919845	1.424660E+02	  0.079919845	1.868400E+01	  0.079919845	1.483300E+01
301	  0.080120243	-6.157000E+00	  0.080120243	1.416150E+02	  0.080120243	1.881300E+01	  0.080120243	1.517500E+01
302	  0.080320641	-6.169000E+00	  0.080320641	1.407740E+02	  0.080320641	1.893200E+01	  0.080320641	1.551600E+01
303	  0.080521047	-6.185000E+00	  0.080521047	1.399300E+02	  0.080521047	1.906400E+01	  0.080521047	1.585600E+01
304	  0.080721445	-6.205000E+00	  0.080721445	1.391210E+02	  0.080721445	1.920300E+01	  0.080721445	1.618100E+01
305	  0.080921844	-6.219000E+00	  0.080921844	1.382730E+02	  0.080921844	1.933500E+01	  0.080921844	1.652500E+01
306	  0.081122249	-6.236000E+00	  0.081122249	1.374750E+02	  0.081122249	1.947300E+01	  0.081122249	1.684600E+01
307	  0.081322648	-6.253000E+00	  0.081322648	1.366290E+02	  0.081322648	1.962000E+01	  0.081322648	1.718800E+01
308	  0.081523046	-6.275000E+00	  0.081523046	1.358170E+02	  0.081523046	1.977700E+01	  0.081523046	1.751300E+01
309	  0.081723452	-6.293000E+00	  0.081723452	1.350050E+02	  0.081723452	1.992700E+01	  0.081723452	1.784200E+01
310	  0.081923850	-6.312000E+00	  0.081923850	1.341830E+02	  0.081923850	2.008200E+01	  0.081923850	1.817400E+01
311	  0.082124248	-6.326000E+00	  0.082124248	1.333840E+02	  0.082124248	2.022500E+01	  0.082124248	1.850100E+01
312	  0.082324654	-6.350000E+00	  0.082324654	1.325990E+02	  0.082324654	2.039800E+01	  0.082324654	1.881300E+01
313	  0.082525052	-6.371000E+00	  0.082525052	1.318020E+02	  0.082525052	2.056200E+01	  0.082525052	1.913400E+01
314	  0.082725458	-6.397000E+00	  0.082725458	1.310530E+02	  0.082725458	2.074000E+01	  0.082725458	1.943000E+01
315	  0.082925856	-6.420000E+00	  0.082925856	1.302450E+02	  0.082925856	2.091900E+01	  0.082925856	1.975400E+01
316	  0.083126254	-6.444000E+00	  0.083126254	1.294610E+02	  0.083126254	2.110400E+01	  0.083126254	2.006600E+01
317	  0.083326660	-6.470000E+00	  0.083326660	1.286070E+02	  0.083326660	2.130400E+01	  0.083326660	2.040800E+01
318	  0.083527058	-6.493000E+00	  0.083527058	1.278300E+02	  0.083527058	2.149000E+01	  0.083527058	2.071900E+01
319	  0.083727457	-6.514000E+00	  0.083727457	1.270320E+02	  0.083727457	2.167400E+01	  0.083727457	2.104100E+01
320	  0.083927862	-6.541000E+00	  0.083927862	1.262650E+02	  0.083927862	2.187600E+01	  0.083927862	2.134300E+01
321	  0.084128261	-6.563000E+00	  0.084128261	1.254800E+02	  0.084128261	2.206600E+01	  0.084128261	2.166000E+01
322	  0.084328659	-6.583000E+00	  0.084328659	1.247300E+02	  0.084328659	2.225200E+01	  0.084328659	2.196200E+01
323	  0.084529065	-6.611000E+00	  0.084529065	1.239930E+02	  0.084529065	2.245900E+01	  0.084529065	2.225000E+01
324	  0.084729463	-6.633000E+00	  0.084729463	1.232410E+02	  0.084729463	2.265500E+01	  0.084729463	2.255200E+01
325	  0.084929861	-6.663000E+00	  0.084929861	1.225130E+02	  0.084929861	2.287200E+01	  0.084929861	2.283400E+01
326	  0.085130267	-6.690000E+00	  0.085130267	1.217790E+02	  0.085130267	2.308300E+01	  0.085130267	2.312200E+01
327	  0.085330658	-6.713000E+00	  0.085330658	1.210240E+02	  0.085330658	2.329200E+01	  0.085330658	2.342300E+01
328	  0.085531056	-6.741000E+00	  0.085531056	1.203420E+02	  0.085531056	2.350500E+01	  0.085531056	2.368600E+01
329	  0.085731462	-6.771000E+00	  0.085731462	1.196450E+02	  0.085731462	2.372900E+01	  0.085731462	2.395200E+01
330	  0.085931860	-6.804000E+00	  0.085931860	1.189640E+02	  0.085931860	2.396000E+01	  0.085931860	2.420700E+01
331	  0.086132258	-6.829000E+00	  0.086132258	1.182690E+02	  0.086132258	2.417400E+01	  0.086132258	2.447800E+01
332	  0.086332664	-6.858000E+00	  0.086332664	1.176240E+02	  0.086332664	2.439500E+01	  0.086332664	2.472100E+01
333	  0.086533062	-6.887000E+00	  0.086533062	1.169540E+02	  0.086533062	2.462100E+01	  0.086533062	2.497400E+01
334	  0.086733460	-6.916000E+00	  0.086733460	1.162840E+02	  0.086733460	2.484800E+01	  0.086733460	2.522800E+01
335	  0.086933866	-6.945000E+00	  0.086933866	1.156260E+02	  0.086933866	2.508000E+01	  0.086933866	2.547400E+01
336	  0.087134264	-6.970000E+00	  0.087134264	1.149450E+02	  0.087134264	2.530300E+01	  0.087134264	2.573800E+01
337	  0.087334670	-6.995000E+00	  0.087334670	1.143240E+02	  0.087334670	2.552100E+01	  0.087334670	2.597200E+01
338	  0.087535068	-7.018000E+00	  0.087535068	1.136660E+02	  0.087535068	2.573900E+01	  0.087535068	2.622800E+01
339	  0.087735467	-7.039000E+00	  0.087735467	1.130440E+02	  0.087735467	2.594800E+01	  0.087735467	2.647000E+01
340	  0.087935872	-7.059000E+00	  0.087935872	1.124330E+02	  0.087935872	2.615500E+01	  0.087935872	2.670700E+01
341	  0.088136271	-7.080000E+00	  0.088136271	1.117860E+02	  0.088136271	2.637500E+01	  0.088136271	2.695900E+01
342	  0.088336669	-7.095000E+00	  0.088336669	1.111420E+02	  0.088336669	2.657900E+01	  0.088336669	2.721900E+01
343	  0.088537075	-7.106000E+00	  0.088537075	1.104920E+02	  0.088537075	2.677900E+01	  0.088537075	2.748700E+01
344	  0.088737473	-7.120000E+00	  0.088737473	1.098770E+02	  0.088737473	2.697900E+01	  0.088737473	2.773500E+01
345	  0.088937871	-7.138000E+00	  0.088937871	1.091840E+02	  0.088937871	2.721400E+01	  0.088937871	2.801200E+01
346	  0.089138277	-7.153000E+00	  0.089138277	1.085220E+02	  0.089138277	2.743400E+01	  0.089138277	2.828000E+01
347	  0.089338675	-7.173000E+00	  0.089338675	1.078930E+02	  0.089338675	2.766500E+01	  0.089338675	2.852400E+01
348	  0.089539073	-7.194000E+00	  0.089539073	1.072430E+02	  0.089539073	2.790900E+01	  0.089539073	2.877300E+01
349	  0.089739479	-7.216000E+00	  0.089739479	1.065700E+02	  0.089739479	2.816300E+01	  0.089739479	2.903200E+01
350	  0.089939877	-7.239000E+00	  0.089939877	1.058760E+02	  0.089939877	2.843100E+01	  0.089939877	2.929800E+01
351	  0.090140276	-7.266000E+00	  0.090140276	1.051860E+02	  0.090140276	2.871100E+01	  0.090140276	2.955300E+01
352	  0.090340681	-7.289000E+00	  0.090340681	1.045260E+02	  0.090340681	2.897600E+01	  0.090340681	2.980200E+01
353	  0.090541080	-7.313000E+00	  0.090541080	1.037990E+02	  0.090541080	2.926800E+01	  0.090541080	3.007600E+01
354	  0.090741485	-7.344000E+00	  0.090741485	1.031240E+02	  0.090741485	2.956900E+01	  0.090741485	3.031300E+01
355	  0.090941884	-7.366000E+00	  0.090941884	1.024730E+02	  0.090941884	2.983900E+01	  0.090941884	3.055600E+01
356	  0.091142282	-7.400000E+00	  0.091142282	1.017980E+02	  0.091142282	3.015400E+01	  0.091142282	3.078400E+01
357	  0.091342688	-7.422000E+00	  0.091342688	1.011810E+02	  0.091342688	3.042100E+01	  0.091342688	3.100800E+01
358	  0.091543086	-7.452000E+00	  0.091543086	1.004990E+02	  0.091543086	3.073600E+01	  0.091543086	3.124400E+01
359	  0.091743484	-7.481000E+00	  0.091743484	9.984800E+01	  0.091743484	3.103900E+01	  0.091743484	3.146700E+01
360	  0.091943890	-7.513000E+00	  0.091943890	9.921200E+01	  0.091943890	3.135200E+01	  0.091943890	3.167500E+01
361	  0.092144288	-7.539000E+00	  0.092144288	9.858800E+01	  0.092144288	3.164600E+01	  0.092144288	3.188800E+01
362	  0.092344686	-7.570000E+00	  0.092344686	9.798200E+01	  0.092344686	3.194900E+01	  0.092344686	3.208300E+01
363	  0.092545092	-7.603000E+00	  0.092545092	9.736000E+01	  0.092545092	3.226800E+01	  0.092545092	3.227700E+01
364	  0.092745490	-7.631000E+00	  0.092745490	9.679800E+01	  0.092745490	3.255500E+01	  0.092745490	3.245400E+01
365	  0.092945889	-7.670000E+00	  0.092945889	9.620400E+01	  0.092945889	3.288800E+01	  0.092945889	3.261500E+01
366	  0.093146294	-7.704000E+00	  0.093146294	9.560500E+01	  0.093146294	3.321200E+01	  0.093146294	3.278800E+01
367	  0.093346693	-7.740000E+00	  0.093346693	9.503700E+01	  0.093346693	3.353100E+01	  0.093346693	3.294300E+01
368	  0.093547091	-7.774000E+00	  0.093547091	9.446000E+01	  0.093547091	3.385000E+01	  0.093547091	3.310400E+01
369	  0.093747497	-7.813000E+00	  0.093747497	9.388400E+01	  0.093747497	3.418800E+01	  0.093747497	3.324700E+01
370	  0.093947895	-7.845000E+00	  0.093947895	9.330000E+01	  0.093947895	3.451000E+01	  0.093947895	3.341200E+01
371	  0.094148301	-7.880000E+00	  0.094148301	9.272500E+01	  0.094148301	3.484000E+01	  0.094148301	3.356100E+01
372	  0.094348699	-7.918000E+00	  0.094348699	9.216500E+01	  0.094348699	3.517700E+01	  0.094348699	3.369100E+01
373	  0.094549097	-7.956000E+00	  0.094549097	9.159500E+01	  0.094549097	3.551800E+01	  0.094549097	3.382600E+01
374	  0.094749503	-7.991000E+00	  0.094749503	9.105000E+01	  0.094749503	3.584500E+01	  0.094749503	3.395400E+01
375	  0.094949901	-8.021000E+00	  0.094949901	9.050600E+01	  0.094949901	3.615800E+01	  0.094949901	3.409400E+01
376	  0.095150299	-8.054000E+00	  0.095150299	8.998200E+01	  0.095150299	3.647300E+01	  0.095150299	3.421500E+01
377	  0.095350705	-8.088000E+00	  0.095350705	8.948000E+01	  0.095350705	3.678600E+01	  0.095350705	3.431900E+01
378	  0.095551103	-8.119000E+00	  0.095551103	8.894400E+01	  0.095551103	3.710400E+01	  0.095551103	3.444800E+01
379	  0.095751502	-8.152000E+00	  0.095751502	8.840500E+01	  0.095751502	3.743400E+01	  0.095751502	3.456700E+01
380	  0.095951907	-8.187000E+00	  0.095951907	8.791700E+01	  0.095951907	3.774800E+01	  0.095951907	3.465600E+01
381	  0.096152306	-8.223000E+00	  0.096152306	8.742800E+01	  0.096152306	3.806700E+01	  0.096152306	3.474000E+01
382	  0.096352704	-8.256000E+00	  0.096352704	8.697700E+01	  0.096352704	3.836300E+01	  0.096352704	3.481500E+01
383	  0.096553110	-8.287000E+00	  0.096553110	8.649100E+01	  0.096553110	3.867000E+01	  0.096553110	3.490900E+01
384	  0.096753508	-8.320000E+00	  0.096753508	8.601000E+01	  0.096753508	3.898000E+01	  0.096753508	3.499300E+01
385	  0.096953906	-8.352000E+00	  0.096953906	8.556900E+01	  0.096953906	3.927500E+01	  0.096953906	3.505900E+01
386	  0.097154312	-8.388000E+00	  0.097154312	8.510100E+01	  0.097154312	3.958900E+01	  0.097154312	3.512400E+01
387	  0.097354710	-8.420000E+00	  0.097354710	8.463100E+01	  0.097354710	3.989700E+01	  0.097354710	3.519900E+01
388	  0.097555116	-8.449000E+00	  0.097555116	8.420000E+01	  0.097555116	4.018100E+01	  0.097555116	3.526500E+01
389	  0.097755514	-8.481000E+00	  0.097755514	8.372300E+01	  0.097755514	4.049600E+01	  0.097755514	3.533600E+01
390	  0.097955912	-8.507000E+00	  0.097955912	8.327900E+01	  0.097955912	4.078100E+01	  0.097955912	3.541300E+01
391	  0.098156318	-8.535000E+00	  0.098156318	8.286000E+01	  0.098156318	4.106200E+01	  0.098156318	3.547100E+01
392	  0.098356716	-8.562000E+00	  0.098356716	8.243400E+01	  0.098356716	4.134300E+01	  0.098356716	3.553300E+01
393	  0.098557115	-8.586000E+00	  0.098557115	8.206700E+01	  0.098557115	4.159000E+01	  0.098557115	3.558100E+01
394	  0.098757520	-8.610000E+00	  0.098757520	8.162800E+01	  0.098757520	4.187400E+01	  0.098757520	3.565400E+01
395	  0.098957919	-8.638000E+00	  0.098957919	8.121100E+01	  0.098957919	4.215600E+01	  0.098957919	3.570400E+01
396	  0.099158317	-8.660000E+00	  0.099158317	8.081000E+01	  0.099158317	4.241900E+01	  0.099158317	3.576600E+01
397	  0.099358723	-8.686000E+00	  0.099358723	8.042000E+01	  0.099358723	4.268400E+01	  0.099358723	3.581000E+01
398	  0.099559121	-8.707000E+00	  0.099559121	8.007400E+01	  0.099559121	4.291700E+01	  0.099559121	3.585400E+01
399	  0.099759519	-8.732000E+00	  0.099759519	7.970300E+01	  0.099759519	4.317300E+01	  0.099759519	3.589000E+01
400	  0.099959925	-8.751000E+00	  0.099959925	7.938200E+01	  0.099959925	4.338800E+01	  0.099959925	3.593000E+01
401	  0.100160323	-8.777000E+00	  0.100160323	7.896800E+01	  0.100160323	4.367100E+01	  0.100160323	3.597400E+01
402	  0.100360721	-8.794000E+00	  0.100360721	7.867500E+01	  0.100360721	4.386800E+01	  0.100360721	3.600900E+01
403	  0.100561127	-8.821000E+00	  0.100561127	7.826300E+01	  0.100561127	4.415500E+01	  0.100561127	3.604400E+01
404	  0.100761525	-8.837000E+00	  0.100761525	7.790100E+01	  0.100761525	4.439000E+01	  0.100761525	3.610100E+01
405	  0.100961931	-8.850000E+00	  0.100961931	7.756300E+01	  0.100961931	4.460800E+01	  0.100961931	3.615900E+01
406	  0.101162329	-8.866000E+00	  0.101162329	7.720700E+01	  0.101162329	4.484300E+01	  0.101162329	3.621200E+01
407	  0.101362728	-8.891000E+00	  0.101362728	7.679400E+01	  0.101362728	4.512900E+01	  0.101362728	3.624600E+01
408	  0.101563133	-8.917000E+00	  0.101563133	7.646800E+01	  0.101563133	4.536700E+01	  0.101563133	3.625200E+01
409	  0.101763532	-8.926000E+00	  0.101763532	7.612900E+01	  0.101763532	4.558200E+01	  0.101763532	3.631800E+01
410	  0.101963930	-8.931000E+00	  0.101963930	7.581600E+01	  0.101963930	4.577300E+01	  0.101963930	3.639500E+01
411	  0.102164336	-8.950000E+00	  0.102164336	7.535800E+01	  0.102164336	4.607800E+01	  0.102164336	3.645900E+01
412	  0.102364734	-8.965000E+00	  0.102364734	7.504400E+01	  0.102364734	4.629200E+01	  0.102364734	3.649300E+01
413	  0.102565132	-8.967000E+00	  0.102565132	7.467700E+01	  0.102565132	4.651200E+01	  0.102565132	3.659600E+01
414	  0.102765530	-8.975000E+00	  0.102765530	7.436900E+01	  0.102765530	4.671200E+01	  0.102765530	3.665300E+01
415	  0.102965929	-8.984000E+00	  0.102965929	7.397700E+01	  0.102965929	4.696400E+01	  0.102965929	3.673000E+01
416	  0.103166327	-8.991000E+00	  0.103166327	7.363800E+01	  0.103166327	4.718300E+01	  0.103166327	3.679700E+01
417	  0.103366733	-8.991000E+00	  0.103366733	7.331000E+01	  0.103366733	4.738200E+01	  0.103366733	3.689100E+01
418	  0.103567131	-8.996000E+00	  0.103567131	7.292600E+01	  0.103567131	4.762700E+01	  0.103567131	3.697800E+01
419	  0.103767529	-9.003000E+00	  0.103767529	7.257200E+01	  0.103767529	4.785800E+01	  0.103767529	3.704800E+01
420	  0.103967935	-9.004000E+00	  0.103967935	7.217700E+01	  0.103967935	4.810400E+01	  0.103967935	3.715400E+01
421	  0.104168333	-8.997000E+00	  0.104168333	7.179900E+01	  0.104168333	4.832900E+01	  0.104168333	3.728500E+01
422	  0.104368731	-9.005000E+00	  0.104368731	7.146400E+01	  0.104368731	4.855400E+01	  0.104368731	3.734100E+01
423	  0.104569137	-9.002000E+00	  0.104569137	7.105800E+01	  0.104569137	4.880700E+01	  0.104569137	3.746200E+01
424	  0.104769535	-8.998000E+00	  0.104769535	7.071800E+01	  0.104769535	4.901800E+01	  0.104769535	3.756900E+01
425	  0.104969934	-8.985000E+00	  0.104969934	7.032600E+01	  0.104969934	4.924900E+01	  0.104969934	3.772600E+01
426	  0.105170339	-8.990000E+00	  0.105170339	6.986300E+01	  0.105170339	4.955800E+01	  0.105170339	3.782800E+01
427	  0.105370738	-8.968000E+00	  0.105370738	6.954700E+01	  0.105370738	4.972800E+01	  0.105370738	3.800400E+01
428	  0.105571143	-8.973000E+00	  0.105571143	6.911800E+01	  0.105571143	5.002100E+01	  0.105571143	3.809300E+01
429	  0.105771542	-8.951000E+00	  0.105771542	6.869800E+01	  0.105771542	5.026600E+01	  0.105771542	3.829300E+01
430	  0.105971940	-8.948000E+00	  0.105971940	6.829100E+01	  0.105971940	5.053500E+01	  0.105971940	3.840900E+01
431	  0.106172346	-8.932000E+00	  0.106172346	6.788900E+01	  0.106172346	5.078300E+01	  0.106172346	3.858100E+01
432	  0.106372744	-8.918000E+00	  0.106372744	6.741700E+01	  0.106372744	5.108500E+01	  0.106372744	3.875700E+01
433	  0.106573142	-8.902000E+00	  0.106573142	6.700700E+01	  0.106573142	5.134400E+01	  0.106573142	3.893100E+01
434	  0.106773548	-8.892000E+00	  0.106773548	6.653500E+01	  0.106773548	5.165900E+01	  0.106773548	3.909200E+01
435	  0.106973946	-8.876000E+00	  0.106973946	6.616200E+01	  0.106973946	5.189800E+01	  0.106973946	3.925400E+01
436	  0.107174344	-8.865000E+00	  0.107174344	6.572900E+01	  0.107174344	5.219100E+01	  0.107174344	3.940500E+01
437	  0.107374750	-8.842000E+00	  0.107374750	6.524300E+01	  0.107374750	5.250800E+01	  0.107374750	3.962600E+01
438	  0.107575148	-8.823000E+00	  0.107575148	6.473300E+01	  0.107575148	5.285000E+01	  0.107575148	3.983800E+01
439	  0.107775547	-8.811000E+00	  0.107775547	6.427700E+01	  0.107775547	5.316900E+01	  0.107775547	3.999800E+01
440	  0.107975952	-8.787000E+00	  0.107975952	6.376400E+01	  0.107975952	5.351800E+01	  0.107975952	4.023000E+01
441	  0.108176351	-8.773000E+00	  0.108176351	6.327600E+01	  0.108176351	5.386800E+01	  0.108176351	4.040300E+01
442	  0.108376749	-8.751000E+00	  0.108376749	6.276300E+01	  0.108376749	5.422900E+01	  0.108376749	4.062100E+01
443	  0.108577155	-8.733000E+00	  0.108577155	6.225900E+01	  0.108577155	5.459400E+01	  0.108577155	4.081800E+01
444	  0.108777553	-8.716000E+00	  0.108777553	6.171600E+01	  0.108777553	5.499500E+01	  0.108777553	4.102000E+01
445	  0.108977959	-8.704000E+00	  0.108977959	6.117100E+01	  0.108977959	5.541200E+01	  0.108977959	4.118900E+01
446	  0.109178357	-8.683000E+00	  0.109178357	6.054700E+01	  0.109178357	5.588500E+01	  0.109178357	4.142300E+01
447	  0.109378755	-8.662000E+00	  0.109378755	6.005200E+01	  0.109378755	5.626100E+01	  0.109378755	4.162600E+01
448	  0.109579161	-8.641000E+00	  0.109579161	5.943600E+01	  0.109579161	5.674300E+01	  0.109579161	4.185700E+01
449	  0.109779559	-8.626000E+00	  0.109779559	5.889100E+01	  0.109779559	5.718000E+01	  0.109779559	4.203400E+01
450	  0.109979957	-8.606000E+00	  0.109979957	5.828800E+01	  0.109979957	5.766700E+01	  0.109979957	4.224600E+01
451	  0.110180363	-8.590000E+00	  0.110180363	5.768000E+01	  0.110180363	5.817000E+01	  0.110180363	4.244000E+01
452	  0.110380761	-8.560000E+00	  0.110380761	5.708300E+01	  0.110380761	5.865700E+01	  0.110380761	4.270400E+01
453	  0.110581160	-8.553000E+00	  0.110581160	5.642300E+01	  0.110581160	5.923200E+01	  0.110581160	4.284300E+01
454	  0.110781565	-8.540000E+00	  0.110781565	5.575500E+01	  0.110781565	5.981500E+01	  0.110781565	4.301300E+01
455	  0.110981964	-8.516000E+00	  0.110981964	5.514800E+01	  0.110981964	6.034400E+01	  0.110981964	4.323400E+01
456	  0.111182362	-8.502000E+00	  0.111182362	5.446900E+01	  0.111182362	6.095500E+01	  0.111182362	4.340600E+01
457	  0.111382768	-8.490000E+00	  0.111382768	5.375900E+01	  0.111382768	6.160700E+01	  0.111382768	4.355700E+01
458	  0.111583166	-8.471000E+00	  0.111583166	5.311700E+01	  0.111583166	6.219900E+01	  0.111583166	4.373800E+01
459	  0.111783572	-8.466000E+00	  0.111783572	5.244100E+01	  0.111783572	6.284200E+01	  0.111783572	4.383200E+01
460	  0.111983970	-8.446000E+00	  0.111983970	5.175300E+01	  0.111983970	6.349900E+01	  0.111983970	4.400800E+01
461	  0.112184368	-8.427000E+00	  0.112184368	5.099200E+01	  0.112184368	6.423900E+01	  0.112184368	4.418500E+01
462	  0.112384774	-8.425000E+00	  0.112384774	5.023400E+01	  0.112384774	6.499400E+01	  0.112384774	4.423500E+01
463	  0.112585172	-8.417000E+00	  0.112585172	4.951400E+01	  0.112585172	6.572000E+01	  0.112585172	4.430900E+01
464	  0.112785570	-8.407000E+00	  0.112785570	4.874200E+01	  0.112785570	6.650900E+01	  0.112785570	4.438800E+01
465	  0.112985976	-8.402000E+00	  0.112985976	4.795200E+01	  0.112985976	6.732800E+01	  0.112985976	4.442500E+01
466	  0.113186374	-8.400000E+00	  0.113186374	4.717000E+01	  0.113186374	6.815000E+01	  0.113186374	4.442300E+01
467	  0.113386773	-8.393000E+00	  0.113386773	4.642200E+01	  0.113386773	6.894700E+01	  0.113386773	4.444200E+01
468	  0.113587178	-8.388000E+00	  0.113587178	4.558400E+01	  0.113587178	6.985100E+01	  0.113587178	4.442900E+01
469	  0.113787577	-8.389000E+00	  0.113787577	4.484000E+01	  0.113787577	7.066000E+01	  0.113787577	4.435800E+01
470	  0.113987975	-8.390000E+00	  0.113987975	4.398100E+01	  0.113987975	7.160400E+01	  0.113987975	4.426000E+01
471	  0.114188381	-8.386000E+00	  0.114188381	4.316600E+01	  0.114188381	7.251400E+01	  0.114188381	4.418700E+01
472	  0.114388779	-8.402000E+00	  0.114388779	4.229100E+01	  0.114388779	7.348100E+01	  0.114388779	4.393500E+01
473	  0.114589177	-8.398000E+00	  0.114589177	4.141200E+01	  0.114589177	7.448200E+01	  0.114589177	4.380200E+01
474	  0.114789583	-8.404000E+00	  0.114789583	4.057100E+01	  0.114789583	7.543400E+01	  0.114789583	4.357700E+01
475	  0.114989981	-8.411000E+00	  0.114989981	3.969600E+01	  0.114989981	7.643000E+01	  0.114989981	4.331400E+01
476	  0.115190387	-8.426000E+00	  0.115190387	3.882000E+01	  0.115190387	7.741900E+01	  0.115190387	4.296500E+01
477	  0.115390785	-8.436000E+00	  0.115390785	3.791200E+01	  0.115390785	7.845700E+01	  0.115390785	4.261200E+01
478	  0.115591183	-8.446000E+00	  0.115591183	3.693500E+01	  0.115591183	7.957700E+01	  0.115591183	4.220000E+01
479	  0.115791589	-8.460000E+00	  0.115791589	3.600300E+01	  0.115791589	8.063500E+01	  0.115791589	4.174100E+01
480	  0.115991987	-8.475000E+00	  0.115991987	3.502900E+01	  0.115991987	8.174000E+01	  0.115991987	4.122500E+01
481	  0.116192386	-8.489000E+00	  0.116192386	3.408400E+01	  0.116192386	8.281000E+01	  0.116192386	4.068600E+01
482	  0.116392791	-8.513000E+00	  0.116392791	3.315100E+01	  0.116392791	8.382600E+01	  0.116392791	4.003900E+01
483	  0.116593190	-8.530000E+00	  0.116593190	3.216000E+01	  0.116593190	8.492700E+01	  0.116593190	3.938400E+01
484	  0.116793588	-8.553000E+00	  0.116793588	3.114100E+01	  0.116793588	8.602700E+01	  0.116793588	3.862800E+01
485	  0.116993994	-8.572000E+00	  0.116993994	3.009600E+01	  0.116993994	8.715800E+01	  0.116993994	3.783600E+01
486	  0.117194392	-8.601000E+00	  0.117194392	2.905700E+01	  0.117194392	8.821700E+01	  0.117194392	3.692500E+01
487	  0.117394790	-8.621000E+00	  0.117394790	2.798200E+01	  0.117394790	8.933900E+01	  0.117394790	3.601700E+01
488	  0.117595196	-8.653000E+00	  0.117595196	2.696700E+01	  0.117595196	9.031100E+01	  0.117595196	3.501900E+01
489	  0.117795594	-8.689000E+00	  0.117795594	2.583700E+01	  0.117795594	9.135800E+01	  0.117795594	3.386100E+01
490	  0.117995992	-8.715000E+00	  0.117995992	2.476500E+01	  0.117995992	9.235700E+01	  0.117995992	3.277300E+01
491	  0.118196398	-8.749000E+00	  0.118196398	2.365900E+01	  0.118196398	9.331000E+01	  0.118196398	3.155700E+01
492	  0.118396796	-8.789000E+00	  0.118396796	2.249600E+01	  0.118396796	9.424400E+01	  0.118396796	3.021000E+01
493	  0.118597202	-8.832000E+00	  0.118597202	2.130500E+01	  0.118597202	9.512500E+01	  0.118597202	2.876700E+01
494	  0.118797600	-8.872000E+00	  0.118797600	2.013500E+01	  0.118797600	9.595000E+01	  0.118797600	2.732800E+01
495	  0.118997999	-8.925000E+00	  0.118997999	1.896900E+01	  0.118997999	9.662200E+01	  0.118997999	2.578100E+01
496	  0.119198404	-8.969000E+00	  0.119198404	1.774700E+01	  0.119198404	9.733500E+01	  0.119198404	2.419400E+01
497	  0.119398803	-9.028000E+00	  0.119398803	1.654600E+01	  0.119398803	9.785700E+01	  0.119398803	2.253100E+01
498	  0.119599201	-9.090000E+00	  0.119599201	1.531100E+01	  0.119599201	9.829800E+01	  0.119599201	2.079400E+01
499	  0.119799607	-9.152000E+00	  0.119799607	1.404000E+01	  0.119799607	9.868100E+01	  0.119799607	1.900400E+01
500	  0.120000005	-9.221000E+00	  0.120000005	1.274900E+01	  0.120000005	9.893600E+01	  0.120000005	1.715700E+01
