! Anritsu VNA Master:             	Model: MS2036C/10/77
! SN:             	1601066
! /card0/usr/18may27.balun/5a..m2.txt
! Existing Calibration Information:
! TYPE:             	Current Settings	Active Cal Settings
! TIME:             	05/27/2018 05:02:51 PM	05/27/2018 04:42:15 PM
! INTERNAL TEMP:    	53.5 C	52.0 C
! # POINTS:         	500	500
! START FREQ:       	20.000 MHz	20.000 MHz
! STOP FREQ:        	120.000 MHz	120.000 MHz
! SOURCE POWER:     	High	High
! IFBW:             	50 Hz	50 Hz
! AVG FACTOR:       	  1 	  1 
! REF PLANE 1:      	0 mm	0 mm
! REF PLANE 2:      	0 mm	0 mm
! CAL TYPE:         	Full S11	Full S11
! CAL METHOD:       	SOLT	SOLT
! CAL LINE TYPE:    	Coax	Coax
! DUT PORT 1:       	K-Conn(M)	K-Conn(M)
! DUT PORT 2:       	K-Conn(M)	K-Conn(M)
! CAL STATUS:       	OK: Accuracy High	--
! PROP-V:       	0.700
! CABLE LOSS:       	0.000 dB/m
! REF IMPEDANCE:       	50.0
! Trace Specific Parameters:	TR1	TR2	TR3	TR4
! TRACE.#.Y (GRAPH TYPE)	LOG MAG	PHASE	REAL IMPEDANCE	IMAGINARY IMPEDANCE
! TRACE.#.X 	FREQ.GHZ	FREQ.GHZ	FREQ.GHZ	FREQ.GHZ
! S-PARAMETER	S11	S11	S11	S11
! SMOOTH/APERTURE %	0	0	0	0
! WINDOW	NSL	NSL	NSL	NSL
! GATING	OFF	OFF	OFF	OFF
! FGTD	OFF	OFF	OFF	OFF
Marker Information per Trace:	TR1	TR2	TR3	TR4
!MK1	--	--	--	"MK1 TR4:  70.100 200 MHz,Z:(16.424 ohm, -0.192 ohm)"
!MK2	--	--	--	--
!MK3	--	--	--	--
!MK4	--	--	--	--
!MK5	--	--	--	--
!MK6	--	--	--	--
!MK7	--	--	--	--
!MK8	--	--	--	--
PNT	TR1.FREQ.GHZ	TR1.LOG MAG.dB	TR2.FREQ.GHZ	TR2.PHASE.deg	TR3.FREQ.GHZ	TR3.REAL IMPEDANCE.ohm	TR4.FREQ.GHZ	TR4.IMAGINARY IMPEDANCE.ohm
1	  0.020000000	-7.020000E-01	  0.020000000	-1.261120E+02	  0.020000000	2.543000E+00	  0.020000000	-2.536200E+01
2	  0.020200402	-7.000000E-01	  0.020200402	-1.275520E+02	  0.020200402	2.504000E+00	  0.020200402	-2.457900E+01
3	  0.020400802	-6.990000E-01	  0.020400802	-1.289850E+02	  0.020400802	2.468000E+00	  0.020400802	-2.380900E+01
4	  0.020601204	-6.980000E-01	  0.020601204	-1.303990E+02	  0.020601204	2.438000E+00	  0.020601204	-2.305800E+01
5	  0.020801604	-7.020000E-01	  0.020801604	-1.318630E+02	  0.020801604	2.424000E+00	  0.020801604	-2.228900E+01
6	  0.021002004	-7.110000E-01	  0.021002004	-1.333620E+02	  0.021002004	2.427000E+00	  0.021002004	-2.151000E+01
7	  0.021202406	-7.180000E-01	  0.021202406	-1.348710E+02	  0.021202406	2.423000E+00	  0.021202406	-2.073400E+01
8	  0.021402806	-7.260000E-01	  0.021402806	-1.363750E+02	  0.021402806	2.424000E+00	  0.021402806	-1.997000E+01
9	  0.021603208	-7.310000E-01	  0.021603208	-1.379050E+02	  0.021603208	2.416000E+00	  0.021603208	-1.920100E+01
10	  0.021803608	-7.380000E-01	  0.021803608	-1.394350E+02	  0.021803608	2.413000E+00	  0.021803608	-1.844000E+01
11	  0.022004008	-7.430000E-01	  0.022004008	-1.409650E+02	  0.022004008	2.407000E+00	  0.022004008	-1.768600E+01
12	  0.022204408	-7.490000E-01	  0.022204408	-1.425450E+02	  0.022204408	2.403000E+00	  0.022204408	-1.691500E+01
13	  0.022404809	-7.490000E-01	  0.022404809	-1.441150E+02	  0.022404809	2.380000E+00	  0.022404809	-1.615700E+01
14	  0.022605211	-7.490000E-01	  0.022605211	-1.456970E+02	  0.022605211	2.362000E+00	  0.022605211	-1.539900E+01
15	  0.022805611	-7.550000E-01	  0.022805611	-1.472420E+02	  0.022805611	2.361000E+00	  0.022805611	-1.466500E+01
16	  0.023006011	-7.590000E-01	  0.023006011	-1.487760E+02	  0.023006011	2.355000E+00	  0.023006011	-1.394200E+01
17	  0.023206413	-7.660000E-01	  0.023206413	-1.503380E+02	  0.023206413	2.359000E+00	  0.023206413	-1.321100E+01
18	  0.023406813	-7.760000E-01	  0.023406813	-1.519240E+02	  0.023406813	2.371000E+00	  0.023406813	-1.247500E+01
19	  0.023607215	-7.820000E-01	  0.023607215	-1.535070E+02	  0.023607215	2.374000E+00	  0.023607215	-1.174400E+01
20	  0.023807615	-7.890000E-01	  0.023807615	-1.550760E+02	  0.023807615	2.381000E+00	  0.023807615	-1.102500E+01
21	  0.024008015	-8.020000E-01	  0.024008015	-1.566440E+02	  0.024008015	2.405000E+00	  0.024008015	-1.031100E+01
22	  0.024208417	-8.110000E-01	  0.024208417	-1.582150E+02	  0.024208417	2.421000E+00	  0.024208417	-9.599000E+00
23	  0.024408817	-8.220000E-01	  0.024408817	-1.598100E+02	  0.024408817	2.441000E+00	  0.024408817	-8.880000E+00
24	  0.024609219	-8.370000E-01	  0.024609219	-1.614250E+02	  0.024609219	2.472000E+00	  0.024609219	-8.157000E+00
25	  0.024809619	-8.440000E-01	  0.024809619	-1.630570E+02	  0.024809619	2.483000E+00	  0.024809619	-7.428000E+00
26	  0.025010020	-8.520000E-01	  0.025010020	-1.646890E+02	  0.025010020	2.497000E+00	  0.025010020	-6.703000E+00
27	  0.025210422	-8.610000E-01	  0.025210422	-1.663180E+02	  0.025210422	2.514000E+00	  0.025210422	-5.983000E+00
28	  0.025410822	-8.730000E-01	  0.025410822	-1.679540E+02	  0.025410822	2.539000E+00	  0.025410822	-5.261000E+00
29	  0.025611224	-8.840000E-01	  0.025611224	-1.696080E+02	  0.025611224	2.564000E+00	  0.025611224	-4.534000E+00
30	  0.025811624	-8.950000E-01	  0.025811624	-1.712750E+02	  0.025811624	2.591000E+00	  0.025811624	-3.804000E+00
31	  0.026012026	-9.080000E-01	  0.026012026	-1.729610E+02	  0.026012026	2.622000E+00	  0.026012026	-3.066000E+00
32	  0.026212426	-9.250000E-01	  0.026212426	-1.746660E+02	  0.026212426	2.667000E+00	  0.026212426	-2.322000E+00
33	  0.026412826	-9.420000E-01	  0.026412826	-1.763770E+02	  0.026412826	2.713000E+00	  0.026412826	-1.576000E+00
34	  0.026613226	-9.620000E-01	  0.026613226	-1.781110E+02	  0.026613226	2.769000E+00	  0.026613226	-8.210000E-01
35	  0.026813626	-9.800000E-01	  0.026813626	-1.798510E+02	  0.026813626	2.819000E+00	  0.026813626	-6.400000E-02
36	  0.027014028	-9.970000E-01	  0.027014028	1.784090E+02	  0.027014028	2.867000E+00	  0.027014028	6.910000E-01
37	  0.027214428	-1.013000E+00	  0.027214428	1.766730E+02	  0.027214428	2.916000E+00	  0.027214428	1.446000E+00
38	  0.027414829	-1.031000E+00	  0.027414829	1.749290E+02	  0.027414829	2.970000E+00	  0.027414829	2.206000E+00
39	  0.027615231	-1.049000E+00	  0.027615231	1.731780E+02	  0.027615231	3.027000E+00	  0.027615231	2.969000E+00
40	  0.027815631	-1.070000E+00	  0.027815631	1.714020E+02	  0.027815631	3.094000E+00	  0.027815631	3.744000E+00
41	  0.028016033	-1.091000E+00	  0.028016033	1.696200E+02	  0.028016033	3.164000E+00	  0.028016033	4.523000E+00
42	  0.028216433	-1.114000E+00	  0.028216433	1.678240E+02	  0.028216433	3.239000E+00	  0.028216433	5.310000E+00
43	  0.028416833	-1.137000E+00	  0.028416833	1.660300E+02	  0.028416833	3.319000E+00	  0.028416833	6.099000E+00
44	  0.028617235	-1.161000E+00	  0.028617235	1.642490E+02	  0.028617235	3.403000E+00	  0.028617235	6.884000E+00
45	  0.028817635	-1.190000E+00	  0.028817635	1.624460E+02	  0.028817635	3.501000E+00	  0.028817635	7.682000E+00
46	  0.029018037	-1.218000E+00	  0.029018037	1.606250E+02	  0.029018037	3.604000E+00	  0.029018037	8.492000E+00
47	  0.029218437	-1.245000E+00	  0.029218437	1.587880E+02	  0.029218437	3.704000E+00	  0.029218437	9.312000E+00
48	  0.029418837	-1.271000E+00	  0.029418837	1.569450E+02	  0.029418837	3.805000E+00	  0.029418837	1.014000E+01
49	  0.029619239	-1.296000E+00	  0.029619239	1.551420E+02	  0.029619239	3.904000E+00	  0.029619239	1.095500E+01
50	  0.029819639	-1.323000E+00	  0.029819639	1.533350E+02	  0.029819639	4.012000E+00	  0.029819639	1.177600E+01
51	  0.030020041	-1.350000E+00	  0.030020041	1.515210E+02	  0.030020041	4.128000E+00	  0.030020041	1.260600E+01
52	  0.030220442	-1.382000E+00	  0.030220442	1.497030E+02	  0.030220442	4.259000E+00	  0.030220442	1.344400E+01
53	  0.030420844	-1.420000E+00	  0.030420844	1.478510E+02	  0.030420844	4.416000E+00	  0.030420844	1.430300E+01
54	  0.030621244	-1.464000E+00	  0.030621244	1.459680E+02	  0.030621244	4.595000E+00	  0.030621244	1.518300E+01
55	  0.030821644	-1.502000E+00	  0.030821644	1.440340E+02	  0.030821644	4.766000E+00	  0.030821644	1.609500E+01
56	  0.031022044	-1.539000E+00	  0.031022044	1.420660E+02	  0.031022044	4.936000E+00	  0.031022044	1.703400E+01
57	  0.031222444	-1.572000E+00	  0.031222444	1.400810E+02	  0.031222444	5.103000E+00	  0.031222444	1.799100E+01
58	  0.031422846	-1.602000E+00	  0.031422846	1.380930E+02	  0.031422846	5.267000E+00	  0.031422846	1.896000E+01
59	  0.031623244	-1.635000E+00	  0.031623244	1.361180E+02	  0.031623244	5.446000E+00	  0.031623244	1.993500E+01
60	  0.031823646	-1.661000E+00	  0.031823646	1.341330E+02	  0.031823646	5.610000E+00	  0.031823646	2.092800E+01
61	  0.032024048	-1.685000E+00	  0.032024048	1.321850E+02	  0.032024048	5.774000E+00	  0.032024048	2.191600E+01
62	  0.032224450	-1.715000E+00	  0.032224450	1.302310E+02	  0.032224450	5.969000E+00	  0.032224450	2.291900E+01
63	  0.032424849	-1.748000E+00	  0.032424849	1.282880E+02	  0.032424849	6.177000E+00	  0.032424849	2.393000E+01
64	  0.032625251	-1.785000E+00	  0.032625251	1.263270E+02	  0.032625251	6.413000E+00	  0.032625251	2.496400E+01
65	  0.032825653	-1.825000E+00	  0.032825653	1.243890E+02	  0.032825653	6.670000E+00	  0.032825653	2.599900E+01
66	  0.033026051	-1.873000E+00	  0.033026051	1.224300E+02	  0.033026051	6.968000E+00	  0.033026051	2.705900E+01
67	  0.033226453	-1.917000E+00	  0.033226453	1.204460E+02	  0.033226453	7.269000E+00	  0.033226453	2.815100E+01
68	  0.033426855	-1.967000E+00	  0.033426855	1.184700E+02	  0.033426855	7.604000E+00	  0.033426855	2.925300E+01
69	  0.033627257	-2.015000E+00	  0.033627257	1.164360E+02	  0.033627257	7.951000E+00	  0.033627257	3.041000E+01
70	  0.033827655	-2.061000E+00	  0.033827655	1.143980E+02	  0.033827655	8.312000E+00	  0.033827655	3.159000E+01
71	  0.034028057	-2.112000E+00	  0.034028057	1.123540E+02	  0.034028057	8.710000E+00	  0.034028057	3.279400E+01
72	  0.034228459	-2.161000E+00	  0.034228459	1.102990E+02	  0.034228459	9.124000E+00	  0.034228459	3.402900E+01
73	  0.034428857	-2.213000E+00	  0.034428857	1.082440E+02	  0.034428857	9.572000E+00	  0.034428857	3.528700E+01
74	  0.034629259	-2.255000E+00	  0.034629259	1.061910E+02	  0.034629259	1.000000E+01	  0.034629259	3.657700E+01
75	  0.034829661	-2.299000E+00	  0.034829661	1.041850E+02	  0.034829661	1.046100E+01	  0.034829661	3.786200E+01
76	  0.035030060	-2.339000E+00	  0.035030060	1.021640E+02	  0.035030060	1.092600E+01	  0.035030060	3.918900E+01
77	  0.035230462	-2.392000E+00	  0.035230462	1.002080E+02	  0.035230462	1.147300E+01	  0.035230462	4.048700E+01
78	  0.035430863	-2.448000E+00	  0.035430863	9.820300E+01	  0.035430863	1.207800E+01	  0.035430863	4.184300E+01
79	  0.035631265	-2.515000E+00	  0.035631265	9.621200E+01	  0.035631265	1.276400E+01	  0.035631265	4.320500E+01
80	  0.035831664	-2.581000E+00	  0.035831664	9.414500E+01	  0.035831664	1.350100E+01	  0.035831664	4.465400E+01
81	  0.036032066	-2.650000E+00	  0.036032066	9.203800E+01	  0.036032066	1.431400E+01	  0.036032066	4.616000E+01
82	  0.036232468	-2.716000E+00	  0.036232468	8.987200E+01	  0.036232468	1.517800E+01	  0.036232468	4.775100E+01
83	  0.036432866	-2.782000E+00	  0.036432866	8.767900E+01	  0.036432866	1.611300E+01	  0.036432866	4.940200E+01
84	  0.036633268	-2.842000E+00	  0.036633268	8.546000E+01	  0.036633268	1.708400E+01	  0.036633268	5.112800E+01
85	  0.036833670	-2.896000E+00	  0.036833670	8.325900E+01	  0.036833670	1.809200E+01	  0.036833670	5.289400E+01
86	  0.037034072	-2.949000E+00	  0.037034072	8.103900E+01	  0.037034072	1.917800E+01	  0.037034072	5.472700E+01
87	  0.037234470	-2.999000E+00	  0.037234470	7.886200E+01	  0.037234470	2.031200E+01	  0.037234470	5.658000E+01
88	  0.037434869	-3.050000E+00	  0.037434869	7.671600E+01	  0.037434869	2.152600E+01	  0.037434869	5.845100E+01
89	  0.037635271	-3.102000E+00	  0.037635271	7.458200E+01	  0.037635271	2.284200E+01	  0.037635271	6.035400E+01
90	  0.037835669	-3.152000E+00	  0.037835669	7.246600E+01	  0.037835669	2.423600E+01	  0.037835669	6.229500E+01
91	  0.038036071	-3.211000E+00	  0.038036071	7.033800E+01	  0.038036071	2.581300E+01	  0.038036071	6.426200E+01
92	  0.038236473	-3.271000E+00	  0.038236473	6.821000E+01	  0.038236473	2.751700E+01	  0.038236473	6.627200E+01
93	  0.038436871	-3.337000E+00	  0.038436871	6.607000E+01	  0.038436871	2.942100E+01	  0.038436871	6.830300E+01
94	  0.038637273	-3.400000E+00	  0.038637273	6.391700E+01	  0.038637273	3.147600E+01	  0.038637273	7.039100E+01
95	  0.038837675	-3.470000E+00	  0.038837675	6.173400E+01	  0.038837675	3.377800E+01	  0.038837675	7.250900E+01
96	  0.039038073	-3.537000E+00	  0.039038073	5.952800E+01	  0.039038073	3.627500E+01	  0.039038073	7.469000E+01
97	  0.039238475	-3.597000E+00	  0.039238475	5.731800E+01	  0.039238475	3.895100E+01	  0.039238475	7.692800E+01
98	  0.039438877	-3.653000E+00	  0.039438877	5.511900E+01	  0.039438877	4.181300E+01	  0.039438877	7.920100E+01
99	  0.039639279	-3.704000E+00	  0.039639279	5.296100E+01	  0.039639279	4.485300E+01	  0.039639279	8.145500E+01
100	  0.039839678	-3.752000E+00	  0.039839678	5.085900E+01	  0.039839678	4.806400E+01	  0.039839678	8.365200E+01
101	  0.040040080	-3.807000E+00	  0.040040080	4.878900E+01	  0.040040080	5.156700E+01	  0.040040080	8.571800E+01
102	  0.040240481	-3.862000E+00	  0.040240481	4.677400E+01	  0.040240481	5.527200E+01	  0.040240481	8.765600E+01
103	  0.040440880	-3.928000E+00	  0.040440880	4.473100E+01	  0.040440880	5.942900E+01	  0.040440880	8.939900E+01
104	  0.040641282	-3.994000E+00	  0.040641282	4.266900E+01	  0.040641282	6.395700E+01	  0.040641282	9.100700E+01
105	  0.040841684	-4.064000E+00	  0.040841684	4.058200E+01	  0.040841684	6.891700E+01	  0.040841684	9.239800E+01
106	  0.041042086	-4.133000E+00	  0.041042086	3.851400E+01	  0.041042086	7.419300E+01	  0.041042086	9.352100E+01
107	  0.041242484	-4.200000E+00	  0.041242484	3.641200E+01	  0.041242484	7.992600E+01	  0.041242484	9.437200E+01
108	  0.041442886	-4.269000E+00	  0.041442886	3.430300E+01	  0.041442886	8.606800E+01	  0.041442886	9.481600E+01
109	  0.041643288	-4.337000E+00	  0.041643288	3.219300E+01	  0.041643288	9.258000E+01	  0.041643288	9.478600E+01
110	  0.041843686	-4.397000E+00	  0.041843686	3.005900E+01	  0.041843686	9.950300E+01	  0.041843686	9.435000E+01
111	  0.042044088	-4.461000E+00	  0.042044088	2.792600E+01	  0.042044088	1.067530E+02	  0.042044088	9.319000E+01
112	  0.042244490	-4.521000E+00	  0.042244490	2.581700E+01	  0.042244490	1.141770E+02	  0.042244490	9.133600E+01
113	  0.042444889	-4.580000E+00	  0.042444889	2.370900E+01	  0.042444889	1.217710E+02	  0.042444889	8.867900E+01
114	  0.042645290	-4.640000E+00	  0.042645290	2.158900E+01	  0.042645290	1.294580E+02	  0.042645290	8.505400E+01
115	  0.042845692	-4.701000E+00	  0.042845692	1.946900E+01	  0.042845692	1.370320E+02	  0.042845692	8.039500E+01
116	  0.043046094	-4.754000E+00	  0.043046094	1.732900E+01	  0.043046094	1.445170E+02	  0.043046094	7.485100E+01
117	  0.043246493	-4.814000E+00	  0.043246493	1.520400E+01	  0.043246493	1.513870E+02	  0.043246493	6.809200E+01
118	  0.043446895	-4.871000E+00	  0.043446895	1.304300E+01	  0.043446895	1.577460E+02	  0.043446895	6.027100E+01
119	  0.043647297	-4.927000E+00	  0.043647297	1.090600E+01	  0.043647297	1.631340E+02	  0.043647297	5.158900E+01
120	  0.043847695	-4.983000E+00	  0.043847695	8.762000E+00	  0.043847695	1.674780E+02	  0.043847695	4.211300E+01
121	  0.044048097	-5.036000E+00	  0.044048097	6.624000E+00	  0.044048097	1.706750E+02	  0.044048097	3.212600E+01
122	  0.044248499	-5.086000E+00	  0.044248499	4.489000E+00	  0.044248499	1.725980E+02	  0.044248499	2.180000E+01
123	  0.044448901	-5.128000E+00	  0.044448901	2.350000E+00	  0.044448901	1.734370E+02	  0.044448901	1.137400E+01
124	  0.044649299	-5.176000E+00	  0.044649299	2.470000E-01	  0.044649299	1.727180E+02	  0.044649299	1.182000E+00
125	  0.044849701	-5.214000E+00	  0.044849701	-1.830000E+00	  0.044849701	1.710870E+02	  0.044849701	-8.578000E+00
126	  0.045050103	-5.260000E+00	  0.045050103	-3.884000E+00	  0.045050103	1.681030E+02	  0.045050103	-1.770200E+01
127	  0.045250501	-5.303000E+00	  0.045250501	-5.934000E+00	  0.045250501	1.642480E+02	  0.045250501	-2.615400E+01
128	  0.045450903	-5.341000E+00	  0.045450903	-7.931000E+00	  0.045450903	1.598540E+02	  0.045450903	-3.370200E+01
129	  0.045651305	-5.385000E+00	  0.045651305	-9.963000E+00	  0.045651305	1.546660E+02	  0.045651305	-4.051300E+01
130	  0.045851704	-5.424000E+00	  0.045851704	-1.194200E+01	  0.045851704	1.492650E+02	  0.045851704	-4.638600E+01
131	  0.046052106	-5.459000E+00	  0.046052106	-1.391300E+01	  0.046052106	1.436590E+02	  0.046052106	-5.150100E+01
132	  0.046252504	-5.494000E+00	  0.046252504	-1.584500E+01	  0.046252504	1.379720E+02	  0.046252504	-5.575800E+01
133	  0.046452906	-5.530000E+00	  0.046452906	-1.774900E+01	  0.046452906	1.322860E+02	  0.046452906	-5.924700E+01
134	  0.046653304	-5.566000E+00	  0.046653304	-1.959500E+01	  0.046653304	1.267830E+02	  0.046653304	-6.201600E+01
135	  0.046853706	-5.607000E+00	  0.046853706	-2.145500E+01	  0.046853706	1.212780E+02	  0.046853706	-6.415800E+01
136	  0.047054108	-5.644000E+00	  0.047054108	-2.329200E+01	  0.047054108	1.160240E+02	  0.047054108	-6.586700E+01
137	  0.047254506	-5.685000E+00	  0.047254506	-2.514000E+01	  0.047254506	1.108740E+02	  0.047254506	-6.707000E+01
138	  0.047454908	-5.725000E+00	  0.047454908	-2.698600E+01	  0.047454908	1.059420E+02	  0.047454908	-6.791000E+01
139	  0.047655310	-5.768000E+00	  0.047655310	-2.882400E+01	  0.047655310	1.012350E+02	  0.047655310	-6.835300E+01
140	  0.047855709	-5.810000E+00	  0.047855709	-3.065100E+01	  0.047855709	9.678700E+01	  0.047855709	-6.853100E+01
141	  0.048056111	-5.853000E+00	  0.048056111	-3.249100E+01	  0.048056111	9.253500E+01	  0.048056111	-6.846300E+01
142	  0.048256513	-5.898000E+00	  0.048256513	-3.431100E+01	  0.048256513	8.855300E+01	  0.048256513	-6.815100E+01
143	  0.048456915	-5.934000E+00	  0.048456915	-3.620800E+01	  0.048456915	8.463900E+01	  0.048456915	-6.777500E+01
144	  0.048657313	-5.971000E+00	  0.048657313	-3.806500E+01	  0.048657313	8.102300E+01	  0.048657313	-6.724400E+01
145	  0.048857715	-6.002000E+00	  0.048857715	-3.990500E+01	  0.048857715	7.763800E+01	  0.048857715	-6.663300E+01
146	  0.049058117	-6.035000E+00	  0.049058117	-4.175000E+01	  0.049058117	7.443500E+01	  0.049058117	-6.589300E+01
147	  0.049258515	-6.067000E+00	  0.049258515	-4.355800E+01	  0.049258515	7.147200E+01	  0.049258515	-6.508700E+01
148	  0.049458917	-6.096000E+00	  0.049458917	-4.535300E+01	  0.049458917	6.869300E+01	  0.049458917	-6.422900E+01
149	  0.049659319	-6.125000E+00	  0.049659319	-4.716800E+01	  0.049659319	6.604100E+01	  0.049659319	-6.329300E+01
150	  0.049859721	-6.157000E+00	  0.049859721	-4.898000E+01	  0.049859721	6.355000E+01	  0.049859721	-6.228300E+01
151	  0.050060119	-6.183000E+00	  0.050060119	-5.080500E+01	  0.050060119	6.116700E+01	  0.050060119	-6.128300E+01
152	  0.050260521	-6.205000E+00	  0.050260521	-5.262400E+01	  0.050260521	5.891700E+01	  0.050260521	-6.027300E+01
153	  0.050460923	-6.220000E+00	  0.050460923	-5.439300E+01	  0.050460923	5.682800E+01	  0.050460923	-5.930900E+01
154	  0.050661322	-6.238000E+00	  0.050661322	-5.616600E+01	  0.050661322	5.485400E+01	  0.050661322	-5.829700E+01
155	  0.050861724	-6.238000E+00	  0.050861724	-5.794200E+01	  0.050861724	5.292300E+01	  0.050861724	-5.738200E+01
156	  0.051062126	-6.242000E+00	  0.051062126	-5.964800E+01	  0.051062126	5.117000E+01	  0.051062126	-5.645700E+01
157	  0.051262524	-6.242000E+00	  0.051262524	-6.129000E+01	  0.051262524	4.955600E+01	  0.051262524	-5.556500E+01
158	  0.051462926	-6.238000E+00	  0.051462926	-6.289600E+01	  0.051462926	4.803100E+01	  0.051462926	-5.470700E+01
159	  0.051663328	-6.239000E+00	  0.051663328	-6.444800E+01	  0.051663328	4.664500E+01	  0.051663328	-5.382900E+01
160	  0.051863730	-6.242000E+00	  0.051863730	-6.594700E+01	  0.051863730	4.536900E+01	  0.051863730	-5.297000E+01
161	  0.052064128	-6.240000E+00	  0.052064128	-6.745700E+01	  0.052064128	4.412200E+01	  0.052064128	-5.212200E+01
162	  0.052264530	-6.247000E+00	  0.052264530	-6.894500E+01	  0.052264530	4.298200E+01	  0.052264530	-5.123100E+01
163	  0.052464932	-6.251000E+00	  0.052464932	-7.042900E+01	  0.052464932	4.188000E+01	  0.052464932	-5.036400E+01
164	  0.052665330	-6.255000E+00	  0.052665330	-7.191100E+01	  0.052665330	4.082500E+01	  0.052665330	-4.949700E+01
165	  0.052865732	-6.261000E+00	  0.052865732	-7.334400E+01	  0.052865732	3.986000E+01	  0.052865732	-4.864600E+01
166	  0.053066134	-6.272000E+00	  0.053066134	-7.481200E+01	  0.053066134	3.892600E+01	  0.053066134	-4.776200E+01
167	  0.053266536	-6.276000E+00	  0.053266536	-7.630600E+01	  0.053266536	3.799200E+01	  0.053266536	-4.689500E+01
168	  0.053466935	-6.282000E+00	  0.053466935	-7.779600E+01	  0.053466935	3.710800E+01	  0.053466935	-4.602500E+01
169	  0.053667337	-6.279000E+00	  0.053667337	-7.929800E+01	  0.053667337	3.622100E+01	  0.053667337	-4.518700E+01
170	  0.053867739	-6.285000E+00	  0.053867739	-8.078800E+01	  0.053867739	3.540900E+01	  0.053867739	-4.432800E+01
171	  0.054068137	-6.287000E+00	  0.054068137	-8.228600E+01	  0.054068137	3.461400E+01	  0.054068137	-4.348300E+01
172	  0.054268539	-6.292000E+00	  0.054268539	-8.378400E+01	  0.054268539	3.386100E+01	  0.054268539	-4.263500E+01
173	  0.054468941	-6.297000E+00	  0.054468941	-8.526200E+01	  0.054468941	3.314900E+01	  0.054468941	-4.180200E+01
174	  0.054669339	-6.298000E+00	  0.054669339	-8.676700E+01	  0.054669339	3.244000E+01	  0.054669339	-4.097600E+01
175	  0.054869737	-6.305000E+00	  0.054869737	-8.830700E+01	  0.054869737	3.176500E+01	  0.054869737	-4.011800E+01
176	  0.055070139	-6.307000E+00	  0.055070139	-8.984700E+01	  0.055070139	3.110200E+01	  0.055070139	-3.928200E+01
177	  0.055270538	-6.310000E+00	  0.055270538	-9.140200E+01	  0.055270538	3.046300E+01	  0.055270538	-3.844200E+01
178	  0.055470940	-6.308000E+00	  0.055470940	-9.297100E+01	  0.055470940	2.982800E+01	  0.055470940	-3.761600E+01
179	  0.055671342	-6.306000E+00	  0.055671342	-9.453300E+01	  0.055671342	2.922100E+01	  0.055671342	-3.680000E+01
180	  0.055871744	-6.295000E+00	  0.055871744	-9.609500E+01	  0.055871744	2.860800E+01	  0.055871744	-3.601300E+01
181	  0.056072142	-6.284000E+00	  0.056072142	-9.763100E+01	  0.056072142	2.803100E+01	  0.056072142	-3.524200E+01
182	  0.056272544	-6.267000E+00	  0.056272544	-9.914000E+01	  0.056272544	2.746400E+01	  0.056272544	-3.450400E+01
183	  0.056472946	-6.249000E+00	  0.056472946	-1.005780E+02	  0.056472946	2.693500E+01	  0.056472946	-3.380800E+01
184	  0.056673344	-6.236000E+00	  0.056673344	-1.020080E+02	  0.056673344	2.644600E+01	  0.056673344	-3.310900E+01
185	  0.056873746	-6.218000E+00	  0.056873746	-1.033890E+02	  0.056873746	2.597400E+01	  0.056873746	-3.244800E+01
186	  0.057074148	-6.199000E+00	  0.057074148	-1.047140E+02	  0.057074148	2.552900E+01	  0.057074148	-3.182000E+01
187	  0.057274550	-6.188000E+00	  0.057274550	-1.060040E+02	  0.057274550	2.513300E+01	  0.057274550	-3.119900E+01
188	  0.057474948	-6.180000E+00	  0.057474948	-1.073200E+02	  0.057474948	2.475300E+01	  0.057474948	-3.056200E+01
189	  0.057675350	-6.169000E+00	  0.057675350	-1.085880E+02	  0.057675350	2.438800E+01	  0.057675350	-2.995900E+01
190	  0.057875752	-6.166000E+00	  0.057875752	-1.098810E+02	  0.057875752	2.405300E+01	  0.057875752	-2.933500E+01
191	  0.058076151	-6.164000E+00	  0.058076151	-1.111670E+02	  0.058076151	2.373600E+01	  0.058076151	-2.871600E+01
192	  0.058276553	-6.162000E+00	  0.058276553	-1.124150E+02	  0.058276553	2.343900E+01	  0.058276553	-2.811900E+01
193	  0.058476955	-6.160000E+00	  0.058476955	-1.137140E+02	  0.058476955	2.313600E+01	  0.058476955	-2.750400E+01
194	  0.058677353	-6.157000E+00	  0.058677353	-1.149890E+02	  0.058677353	2.285000E+01	  0.058677353	-2.690400E+01
195	  0.058877755	-6.152000E+00	  0.058877755	-1.162640E+02	  0.058877755	2.256600E+01	  0.058877755	-2.631200E+01
196	  0.059078157	-6.154000E+00	  0.059078157	-1.175470E+02	  0.059078157	2.231200E+01	  0.059078157	-2.571000E+01
197	  0.059278559	-6.155000E+00	  0.059278559	-1.188360E+02	  0.059278559	2.206000E+01	  0.059278559	-2.511200E+01
198	  0.059478957	-6.158000E+00	  0.059478957	-1.200830E+02	  0.059478957	2.183200E+01	  0.059478957	-2.453500E+01
199	  0.059679359	-6.162000E+00	  0.059679359	-1.213810E+02	  0.059679359	2.160400E+01	  0.059679359	-2.393900E+01
200	  0.059879761	-6.165000E+00	  0.059879761	-1.226650E+02	  0.059879761	2.138500E+01	  0.059879761	-2.335300E+01
201	  0.060080159	-6.167000E+00	  0.060080159	-1.239540E+02	  0.060080159	2.117100E+01	  0.060080159	-2.277000E+01
202	  0.060280561	-6.167000E+00	  0.060280561	-1.253220E+02	  0.060280561	2.094600E+01	  0.060280561	-2.215900E+01
203	  0.060480963	-6.166000E+00	  0.060480963	-1.266610E+02	  0.060480963	2.072900E+01	  0.060480963	-2.156500E+01
204	  0.060681365	-6.165000E+00	  0.060681365	-1.279970E+02	  0.060681365	2.052200E+01	  0.060681365	-2.097700E+01
205	  0.060881764	-6.153000E+00	  0.060881764	-1.293320E+02	  0.060881764	2.029100E+01	  0.060881764	-2.040300E+01
206	  0.061082166	-6.147000E+00	  0.061082166	-1.306460E+02	  0.061082166	2.008800E+01	  0.061082166	-1.983600E+01
207	  0.061282568	-6.133000E+00	  0.061282568	-1.319510E+02	  0.061282568	1.987000E+01	  0.061282568	-1.928300E+01
208	  0.061482966	-6.115000E+00	  0.061482966	-1.332800E+02	  0.061482966	1.964400E+01	  0.061482966	-1.872500E+01
209	  0.061683368	-6.097000E+00	  0.061683368	-1.345330E+02	  0.061683368	1.943400E+01	  0.061683368	-1.820300E+01
210	  0.061883770	-6.080000E+00	  0.061883770	-1.357460E+02	  0.061883770	1.924000E+01	  0.061883770	-1.769800E+01
211	  0.062084168	-6.063000E+00	  0.062084168	-1.369510E+02	  0.062084168	1.905100E+01	  0.062084168	-1.719900E+01
212	  0.062284570	-6.046000E+00	  0.062284570	-1.381070E+02	  0.062284570	1.887300E+01	  0.062284570	-1.672100E+01
213	  0.062484972	-6.027000E+00	  0.062484972	-1.391930E+02	  0.062484972	1.870300E+01	  0.062484972	-1.627600E+01
214	  0.062685370	-6.013000E+00	  0.062685370	-1.403140E+02	  0.062685370	1.854800E+01	  0.062685370	-1.581400E+01
215	  0.062885776	-6.003000E+00	  0.062885776	-1.413850E+02	  0.062885776	1.841300E+01	  0.062885776	-1.537200E+01
216	  0.063086174	-5.997000E+00	  0.063086174	-1.425080E+02	  0.063086174	1.828800E+01	  0.063086174	-1.490700E+01
217	  0.063286573	-5.988000E+00	  0.063286573	-1.436010E+02	  0.063286573	1.816100E+01	  0.063286573	-1.445700E+01
218	  0.063486971	-5.990000E+00	  0.063486971	-1.446670E+02	  0.063486971	1.806900E+01	  0.063486971	-1.401500E+01
219	  0.063687377	-5.983000E+00	  0.063687377	-1.457410E+02	  0.063687377	1.795800E+01	  0.063687377	-1.357500E+01
220	  0.063887775	-5.979000E+00	  0.063887775	-1.468540E+02	  0.063887775	1.785500E+01	  0.063887775	-1.311900E+01
221	  0.064088173	-5.980000E+00	  0.064088173	-1.479400E+02	  0.064088173	1.776900E+01	  0.064088173	-1.267400E+01
222	  0.064288579	-5.984000E+00	  0.064288579	-1.490170E+02	  0.064288579	1.769900E+01	  0.064288579	-1.223100E+01
223	  0.064488977	-5.988000E+00	  0.064488977	-1.501130E+02	  0.064488977	1.762600E+01	  0.064488977	-1.178400E+01
224	  0.064689375	-5.994000E+00	  0.064689375	-1.512120E+02	  0.064689375	1.756400E+01	  0.064689375	-1.133500E+01
225	  0.064889781	-5.996000E+00	  0.064889781	-1.523290E+02	  0.064889781	1.749600E+01	  0.064889781	-1.088200E+01
226	  0.065090179	-6.004000E+00	  0.065090179	-1.534450E+02	  0.065090179	1.744400E+01	  0.065090179	-1.042900E+01
227	  0.065290578	-6.009000E+00	  0.065290578	-1.545870E+02	  0.065290578	1.738500E+01	  0.065290578	-9.969000E+00
228	  0.065490983	-6.016000E+00	  0.065490983	-1.557520E+02	  0.065490983	1.733400E+01	  0.065490983	-9.500000E+00
229	  0.065691382	-6.022000E+00	  0.065691382	-1.569490E+02	  0.065691382	1.728400E+01	  0.065691382	-9.020000E+00
230	  0.065891780	-6.019000E+00	  0.065891780	-1.581270E+02	  0.065891780	1.721300E+01	  0.065891780	-8.552000E+00
231	  0.066092186	-6.013000E+00	  0.066092186	-1.592830E+02	  0.066092186	1.714200E+01	  0.066092186	-8.095000E+00
232	  0.066292584	-6.010000E+00	  0.066292584	-1.604440E+02	  0.066292584	1.707700E+01	  0.066292584	-7.636000E+00
233	  0.066492982	-6.009000E+00	  0.066492982	-1.615950E+02	  0.066492982	1.702400E+01	  0.066492982	-7.182000E+00
234	  0.066693388	-5.996000E+00	  0.066693388	-1.627380E+02	  0.066693388	1.694400E+01	  0.066693388	-6.735000E+00
235	  0.066893786	-5.989000E+00	  0.066893786	-1.638930E+02	  0.066893786	1.688000E+01	  0.066893786	-6.282000E+00
236	  0.067094192	-5.979000E+00	  0.067094192	-1.649800E+02	  0.067094192	1.681600E+01	  0.067094192	-5.856000E+00
237	  0.067294590	-5.967000E+00	  0.067294590	-1.660270E+02	  0.067294590	1.675100E+01	  0.067294590	-5.448000E+00
238	  0.067494988	-5.956000E+00	  0.067494988	-1.670710E+02	  0.067494988	1.669000E+01	  0.067494988	-5.041000E+00
239	  0.067695394	-5.943000E+00	  0.067695394	-1.681030E+02	  0.067695394	1.662700E+01	  0.067695394	-4.638000E+00
240	  0.067895792	-5.925000E+00	  0.067895792	-1.690840E+02	  0.067895792	1.655600E+01	  0.067895792	-4.257000E+00
241	  0.068096191	-5.919000E+00	  0.068096191	-1.700550E+02	  0.068096191	1.651800E+01	  0.068096191	-3.878000E+00
242	  0.068296596	-5.917000E+00	  0.068296596	-1.710290E+02	  0.068296596	1.649200E+01	  0.068296596	-3.497000E+00
243	  0.068496995	-5.907000E+00	  0.068496995	-1.719950E+02	  0.068496995	1.644900E+01	  0.068496995	-3.121000E+00
244	  0.068697393	-5.903000E+00	  0.068697393	-1.729540E+02	  0.068697393	1.642100E+01	  0.068697393	-2.747000E+00
245	  0.068897791	-5.901000E+00	  0.068897791	-1.738740E+02	  0.068897791	1.640200E+01	  0.068897791	-2.388000E+00
246	  0.069098189	-5.897000E+00	  0.069098189	-1.747770E+02	  0.069098189	1.638000E+01	  0.069098189	-2.036000E+00
247	  0.069298595	-5.894000E+00	  0.069298595	-1.756900E+02	  0.069298595	1.636300E+01	  0.069298595	-1.680000E+00
248	  0.069498993	-5.904000E+00	  0.069498993	-1.766680E+02	  0.069498993	1.638100E+01	  0.069498993	-1.297000E+00
249	  0.069699399	-5.912000E+00	  0.069699399	-1.775960E+02	  0.069699399	1.639600E+01	  0.069699399	-9.360000E-01
250	  0.069899797	-5.921000E+00	  0.069899797	-1.785140E+02	  0.069899797	1.641400E+01	  0.069899797	-5.780000E-01
251	  0.070100196	-5.925000E+00	  0.070100196	-1.795070E+02	  0.070100196	1.642400E+01	  0.070100196	-1.910000E-01
252	  0.070300601	-5.935000E+00	  0.070300601	1.795420E+02	  0.070300601	1.644900E+01	  0.070300601	1.780000E-01
253	  0.070501000	-5.943000E+00	  0.070501000	1.785700E+02	  0.070501000	1.647000E+01	  0.070501000	5.560000E-01
254	  0.070701398	-5.958000E+00	  0.070701398	1.775720E+02	  0.070701398	1.651300E+01	  0.070701398	9.430000E-01
255	  0.070901804	-5.965000E+00	  0.070901804	1.765740E+02	  0.070901804	1.653900E+01	  0.070901804	1.331000E+00
256	  0.071102202	-5.973000E+00	  0.071102202	1.755680E+02	  0.071102202	1.656900E+01	  0.071102202	1.722000E+00
257	  0.071302600	-5.980000E+00	  0.071302600	1.745390E+02	  0.071302600	1.659700E+01	  0.071302600	2.122000E+00
258	  0.071503006	-5.986000E+00	  0.071503006	1.735630E+02	  0.071503006	1.662500E+01	  0.071503006	2.501000E+00
259	  0.071703404	-5.990000E+00	  0.071703404	1.725250E+02	  0.071703404	1.665200E+01	  0.071703404	2.905000E+00
260	  0.071903802	-5.994000E+00	  0.071903802	1.715130E+02	  0.071903802	1.668200E+01	  0.071903802	3.298000E+00
261	  0.072104208	-5.998000E+00	  0.072104208	1.705110E+02	  0.072104208	1.671100E+01	  0.072104208	3.688000E+00
262	  0.072304606	-6.002000E+00	  0.072304606	1.695630E+02	  0.072304606	1.674400E+01	  0.072304606	4.058000E+00
263	  0.072505005	-6.001000E+00	  0.072505005	1.685930E+02	  0.072505005	1.676500E+01	  0.072505005	4.437000E+00
264	  0.072705410	-6.001000E+00	  0.072705410	1.676210E+02	  0.072705410	1.679100E+01	  0.072705410	4.817000E+00
265	  0.072905809	-6.003000E+00	  0.072905809	1.666880E+02	  0.072905809	1.682300E+01	  0.072905809	5.181000E+00
266	  0.073106214	-6.001000E+00	  0.073106214	1.657470E+02	  0.073106214	1.684700E+01	  0.073106214	5.551000E+00
267	  0.073306613	-5.996000E+00	  0.073306613	1.648250E+02	  0.073306613	1.686700E+01	  0.073306613	5.913000E+00
268	  0.073507011	-6.002000E+00	  0.073507011	1.639060E+02	  0.073507011	1.691500E+01	  0.073507011	6.273000E+00
269	  0.073707417	-5.997000E+00	  0.073707417	1.630320E+02	  0.073707417	1.693500E+01	  0.073707417	6.619000E+00
270	  0.073907815	-5.995000E+00	  0.073907815	1.621830E+02	  0.073907815	1.696300E+01	  0.073907815	6.954000E+00
271	  0.074108213	-5.995000E+00	  0.074108213	1.612840E+02	  0.074108213	1.700100E+01	  0.074108213	7.309000E+00
272	  0.074308619	-6.001000E+00	  0.074308619	1.603910E+02	  0.074308619	1.705700E+01	  0.074308619	7.660000E+00
273	  0.074509017	-6.003000E+00	  0.074509017	1.595820E+02	  0.074509017	1.710100E+01	  0.074509017	7.980000E+00
274	  0.074709415	-6.012000E+00	  0.074709415	1.587150E+02	  0.074709415	1.716500E+01	  0.074709415	8.321000E+00
275	  0.074909821	-6.018000E+00	  0.074909821	1.578510E+02	  0.074909821	1.722600E+01	  0.074909821	8.662000E+00
276	  0.075110219	-6.021000E+00	  0.075110219	1.569600E+02	  0.075110219	1.728100E+01	  0.075110219	9.016000E+00
277	  0.075310618	-6.030000E+00	  0.075310618	1.561340E+02	  0.075310618	1.735100E+01	  0.075310618	9.342000E+00
278	  0.075511023	-6.037000E+00	  0.075511023	1.552650E+02	  0.075511023	1.741800E+01	  0.075511023	9.686000E+00
279	  0.075711422	-6.045000E+00	  0.075711422	1.543740E+02	  0.075711422	1.749400E+01	  0.075711422	1.003900E+01
280	  0.075911827	-6.058000E+00	  0.075911827	1.535410E+02	  0.075911827	1.758100E+01	  0.075911827	1.036800E+01
281	  0.076112226	-6.061000E+00	  0.076112226	1.526780E+02	  0.076112226	1.764400E+01	  0.076112226	1.071400E+01
282	  0.076312624	-6.072000E+00	  0.076312624	1.517900E+02	  0.076312624	1.773400E+01	  0.076312624	1.106600E+01
283	  0.076513030	-6.079000E+00	  0.076513030	1.509530E+02	  0.076513030	1.780900E+01	  0.076513030	1.140000E+01
284	  0.076713428	-6.088000E+00	  0.076713428	1.500680E+02	  0.076713428	1.789900E+01	  0.076713428	1.175300E+01
285	  0.076913826	-6.093000E+00	  0.076913826	1.492350E+02	  0.076913826	1.797200E+01	  0.076913826	1.208900E+01
286	  0.077114232	-6.100000E+00	  0.077114232	1.483840E+02	  0.077114232	1.805800E+01	  0.077114232	1.243000E+01
287	  0.077314630	-6.110000E+00	  0.077314630	1.475630E+02	  0.077314630	1.815000E+01	  0.077314630	1.275900E+01
288	  0.077515028	-6.122000E+00	  0.077515028	1.467050E+02	  0.077515028	1.825200E+01	  0.077515028	1.310300E+01
289	  0.077715434	-6.130000E+00	  0.077715434	1.459130E+02	  0.077715434	1.834200E+01	  0.077715434	1.342100E+01
290	  0.077915832	-6.145000E+00	  0.077915832	1.450880E+02	  0.077915832	1.845300E+01	  0.077915832	1.375100E+01
291	  0.078116231	-6.156000E+00	  0.078116231	1.442390E+02	  0.078116231	1.856100E+01	  0.078116231	1.409200E+01
292	  0.078316636	-6.170000E+00	  0.078316636	1.434010E+02	  0.078316636	1.867500E+01	  0.078316636	1.442900E+01
293	  0.078517035	-6.178000E+00	  0.078517035	1.425210E+02	  0.078517035	1.878300E+01	  0.078517035	1.478600E+01
294	  0.078717433	-6.189000E+00	  0.078717433	1.417050E+02	  0.078717433	1.889200E+01	  0.078717433	1.511700E+01
295	  0.078917839	-6.202000E+00	  0.078917839	1.408920E+02	  0.078917839	1.900900E+01	  0.078917839	1.544500E+01
296	  0.079118237	-6.216000E+00	  0.079118237	1.400600E+02	  0.079118237	1.913300E+01	  0.079118237	1.578100E+01
297	  0.079318643	-6.224000E+00	  0.079318643	1.392520E+02	  0.079318643	1.924200E+01	  0.079318643	1.611200E+01
298	  0.079519041	-6.239000E+00	  0.079519041	1.384150E+02	  0.079519041	1.937700E+01	  0.079519041	1.645000E+01
299	  0.079719439	-6.258000E+00	  0.079719439	1.375660E+02	  0.079719439	1.952300E+01	  0.079719439	1.679200E+01
300	  0.079919845	-6.270000E+00	  0.079919845	1.367180E+02	  0.079919845	1.965600E+01	  0.079919845	1.713800E+01
301	  0.080120243	-6.284000E+00	  0.080120243	1.359260E+02	  0.080120243	1.978900E+01	  0.080120243	1.746000E+01
302	  0.080320641	-6.295000E+00	  0.080320641	1.350610E+02	  0.080320641	1.992500E+01	  0.080320641	1.781700E+01
303	  0.080521047	-6.316000E+00	  0.080521047	1.342100E+02	  0.080521047	2.008900E+01	  0.080521047	1.815900E+01
304	  0.080721445	-6.325000E+00	  0.080721445	1.333750E+02	  0.080721445	2.022400E+01	  0.080721445	1.850600E+01
305	  0.080921844	-6.332000E+00	  0.080921844	1.325330E+02	  0.080921844	2.035400E+01	  0.080921844	1.885800E+01
306	  0.081122249	-6.345000E+00	  0.081122249	1.316980E+02	  0.081122249	2.050500E+01	  0.081122249	1.920200E+01
307	  0.081322648	-6.351000E+00	  0.081322648	1.308690E+02	  0.081322648	2.063700E+01	  0.081322648	1.955100E+01
308	  0.081523046	-6.359000E+00	  0.081523046	1.300280E+02	  0.081523046	2.078000E+01	  0.081523046	1.990500E+01
309	  0.081723452	-6.366000E+00	  0.081723452	1.292580E+02	  0.081723452	2.091200E+01	  0.081723452	2.023000E+01
310	  0.081923850	-6.372000E+00	  0.081923850	1.285110E+02	  0.081923850	2.104100E+01	  0.081923850	2.054700E+01
311	  0.082124248	-6.379000E+00	  0.082124248	1.277180E+02	  0.082124248	2.118200E+01	  0.082124248	2.088400E+01
312	  0.082324654	-6.382000E+00	  0.082324654	1.269880E+02	  0.082324654	2.130400E+01	  0.082324654	2.119800E+01
313	  0.082525052	-6.392000E+00	  0.082525052	1.262870E+02	  0.082525052	2.144300E+01	  0.082525052	2.149300E+01
314	  0.082725458	-6.400000E+00	  0.082725458	1.256030E+02	  0.082725458	2.157900E+01	  0.082725458	2.178400E+01
315	  0.082925856	-6.411000E+00	  0.082925856	1.249190E+02	  0.082925856	2.172400E+01	  0.082925856	2.207100E+01
316	  0.083126254	-6.431000E+00	  0.083126254	1.242890E+02	  0.083126254	2.188700E+01	  0.083126254	2.232700E+01
317	  0.083326660	-6.445000E+00	  0.083326660	1.235990E+02	  0.083326660	2.204900E+01	  0.083326660	2.261300E+01
318	  0.083527058	-6.465000E+00	  0.083527058	1.229340E+02	  0.083527058	2.222200E+01	  0.083527058	2.288400E+01
319	  0.083727457	-6.479000E+00	  0.083727457	1.222260E+02	  0.083727457	2.239200E+01	  0.083727457	2.318000E+01
320	  0.083927862	-6.505000E+00	  0.083927862	1.215720E+02	  0.083927862	2.258700E+01	  0.083927862	2.343900E+01
321	  0.084128261	-6.526000E+00	  0.084128261	1.209020E+02	  0.084128261	2.277200E+01	  0.084128261	2.371000E+01
322	  0.084328659	-6.550000E+00	  0.084328659	1.202530E+02	  0.084328659	2.296700E+01	  0.084328659	2.396800E+01
323	  0.084529065	-6.577000E+00	  0.084529065	1.195940E+02	  0.084529065	2.317500E+01	  0.084529065	2.422600E+01
324	  0.084729463	-6.605000E+00	  0.084729463	1.188770E+02	  0.084729463	2.339900E+01	  0.084729463	2.450900E+01
325	  0.084929861	-6.630000E+00	  0.084929861	1.181770E+02	  0.084929861	2.361300E+01	  0.084929861	2.478900E+01
326	  0.085130267	-6.663000E+00	  0.085130267	1.174900E+02	  0.085130267	2.385300E+01	  0.085130267	2.504900E+01
327	  0.085330658	-6.692000E+00	  0.085330658	1.168040E+02	  0.085330658	2.408100E+01	  0.085330658	2.531700E+01
328	  0.085531056	-6.722000E+00	  0.085531056	1.160530E+02	  0.085531056	2.433300E+01	  0.085531056	2.560900E+01
329	  0.085731462	-6.758000E+00	  0.085731462	1.153240E+02	  0.085731462	2.459900E+01	  0.085731462	2.588400E+01
330	  0.085931860	-6.788000E+00	  0.085931860	1.145510E+02	  0.085931860	2.486200E+01	  0.085931860	2.618500E+01
331	  0.086132258	-6.811000E+00	  0.086132258	1.137780E+02	  0.086132258	2.510800E+01	  0.086132258	2.649600E+01
332	  0.086332664	-6.838000E+00	  0.086332664	1.129750E+02	  0.086332664	2.537500E+01	  0.086332664	2.681600E+01
333	  0.086533062	-6.854000E+00	  0.086533062	1.122080E+02	  0.086533062	2.560800E+01	  0.086533062	2.713500E+01
334	  0.086733460	-6.869000E+00	  0.086733460	1.113840E+02	  0.086733460	2.585400E+01	  0.086733460	2.748300E+01
335	  0.086933866	-6.889000E+00	  0.086933866	1.106320E+02	  0.086933866	2.610000E+01	  0.086933866	2.779100E+01
336	  0.087134264	-6.905000E+00	  0.087134264	1.098890E+02	  0.087134264	2.634000E+01	  0.087134264	2.809900E+01
337	  0.087334670	-6.916000E+00	  0.087334670	1.091740E+02	  0.087334670	2.655900E+01	  0.087334670	2.840500E+01
338	  0.087535068	-6.924000E+00	  0.087535068	1.084340E+02	  0.087535068	2.677800E+01	  0.087535068	2.872700E+01
339	  0.087735467	-6.935000E+00	  0.087735467	1.077580E+02	  0.087735467	2.699600E+01	  0.087735467	2.901500E+01
340	  0.087935872	-6.943000E+00	  0.087935872	1.071190E+02	  0.087935872	2.719700E+01	  0.087935872	2.929200E+01
341	  0.088136271	-6.953000E+00	  0.088136271	1.064520E+02	  0.088136271	2.741300E+01	  0.088136271	2.958000E+01
342	  0.088336669	-6.968000E+00	  0.088336669	1.058120E+02	  0.088336669	2.764000E+01	  0.088336669	2.984500E+01
343	  0.088537075	-6.979000E+00	  0.088537075	1.051660E+02	  0.088537075	2.786400E+01	  0.088537075	3.011800E+01
344	  0.088737473	-6.996000E+00	  0.088737473	1.045630E+02	  0.088737473	2.809200E+01	  0.088737473	3.036300E+01
345	  0.088937871	-7.012000E+00	  0.088937871	1.039420E+02	  0.088937871	2.832600E+01	  0.088937871	3.061800E+01
346	  0.089138277	-7.027000E+00	  0.089138277	1.033160E+02	  0.089138277	2.856400E+01	  0.089138277	3.087500E+01
347	  0.089338675	-7.050000E+00	  0.089338675	1.027400E+02	  0.089338675	2.881200E+01	  0.089338675	3.109300E+01
348	  0.089539073	-7.067000E+00	  0.089539073	1.021610E+02	  0.089539073	2.904500E+01	  0.089539073	3.132500E+01
349	  0.089739479	-7.096000E+00	  0.089739479	1.015690E+02	  0.089739479	2.932300E+01	  0.089739479	3.153600E+01
350	  0.089939877	-7.116000E+00	  0.089939877	1.009640E+02	  0.089939877	2.958200E+01	  0.089939877	3.177000E+01
351	  0.090140276	-7.144000E+00	  0.090140276	1.004130E+02	  0.090140276	2.984800E+01	  0.090140276	3.196300E+01
352	  0.090340681	-7.168000E+00	  0.090340681	9.978700E+01	  0.090340681	3.013100E+01	  0.090340681	3.219600E+01
353	  0.090541080	-7.206000E+00	  0.090541080	9.922400E+01	  0.090541080	3.043900E+01	  0.090541080	3.236800E+01
354	  0.090741485	-7.239000E+00	  0.090741485	9.863400E+01	  0.090741485	3.074300E+01	  0.090741485	3.256300E+01
355	  0.090941884	-7.276000E+00	  0.090941884	9.796300E+01	  0.090941884	3.109100E+01	  0.090941884	3.278200E+01
356	  0.091142282	-7.316000E+00	  0.091142282	9.737000E+01	  0.091142282	3.142200E+01	  0.091142282	3.295800E+01
357	  0.091342688	-7.350000E+00	  0.091342688	9.668900E+01	  0.091342688	3.177400E+01	  0.091342688	3.318400E+01
358	  0.091543086	-7.392000E+00	  0.091543086	9.602000E+01	  0.091543086	3.214500E+01	  0.091543086	3.338500E+01
359	  0.091743484	-7.422000E+00	  0.091743484	9.532100E+01	  0.091743484	3.250100E+01	  0.091743484	3.362200E+01
360	  0.091943890	-7.456000E+00	  0.091943890	9.461500E+01	  0.091943890	3.287000E+01	  0.091943890	3.385500E+01
361	  0.092144288	-7.491000E+00	  0.092144288	9.395700E+01	  0.092144288	3.323400E+01	  0.092144288	3.405600E+01
362	  0.092344686	-7.520000E+00	  0.092344686	9.326100E+01	  0.092344686	3.359500E+01	  0.092344686	3.429100E+01
363	  0.092545092	-7.546000E+00	  0.092545092	9.260700E+01	  0.092545092	3.393600E+01	  0.092545092	3.451300E+01
364	  0.092745490	-7.574000E+00	  0.092745490	9.193200E+01	  0.092745490	3.429600E+01	  0.092745490	3.473500E+01
365	  0.092945889	-7.602000E+00	  0.092945889	9.126100E+01	  0.092945889	3.465900E+01	  0.092945889	3.495300E+01
366	  0.093146294	-7.628000E+00	  0.093146294	9.067800E+01	  0.093146294	3.498300E+01	  0.093146294	3.513600E+01
367	  0.093346693	-7.654000E+00	  0.093346693	9.001900E+01	  0.093346693	3.534400E+01	  0.093346693	3.534900E+01
368	  0.093547091	-7.685000E+00	  0.093547091	8.942800E+01	  0.093547091	3.569200E+01	  0.093547091	3.551700E+01
369	  0.093747497	-7.712000E+00	  0.093747497	8.883800E+01	  0.093747497	3.603200E+01	  0.093747497	3.569300E+01
370	  0.093947895	-7.725000E+00	  0.093947895	8.823200E+01	  0.093947895	3.634300E+01	  0.093947895	3.591600E+01
371	  0.094148301	-7.761000E+00	  0.094148301	8.763700E+01	  0.094148301	3.671800E+01	  0.094148301	3.606200E+01
372	  0.094348699	-7.775000E+00	  0.094348699	8.709600E+01	  0.094348699	3.700900E+01	  0.094348699	3.625100E+01
373	  0.094549097	-7.808000E+00	  0.094549097	8.657000E+01	  0.094549097	3.735100E+01	  0.094549097	3.637000E+01
374	  0.094749503	-7.831000E+00	  0.094749503	8.604600E+01	  0.094749503	3.766400E+01	  0.094749503	3.652100E+01
375	  0.094949901	-7.854000E+00	  0.094949901	8.555300E+01	  0.094949901	3.796700E+01	  0.094949901	3.665400E+01
376	  0.095150299	-7.875000E+00	  0.095150299	8.509900E+01	  0.095150299	3.824600E+01	  0.095150299	3.677600E+01
377	  0.095350705	-7.897000E+00	  0.095350705	8.461900E+01	  0.095350705	3.854200E+01	  0.095350705	3.690500E+01
378	  0.095551103	-7.928000E+00	  0.095551103	8.417400E+01	  0.095551103	3.884900E+01	  0.095551103	3.698700E+01
379	  0.095751502	-7.953000E+00	  0.095751502	8.375400E+01	  0.095751502	3.912800E+01	  0.095751502	3.707700E+01
380	  0.095951907	-7.984000E+00	  0.095951907	8.333700E+01	  0.095951907	3.942500E+01	  0.095951907	3.714000E+01
381	  0.096152306	-8.017000E+00	  0.096152306	8.293700E+01	  0.096152306	3.971700E+01	  0.096152306	3.719200E+01
382	  0.096352704	-8.053000E+00	  0.096352704	8.253400E+01	  0.096352704	4.002300E+01	  0.096352704	3.722900E+01
383	  0.096553110	-8.085000E+00	  0.096553110	8.211400E+01	  0.096553110	4.032500E+01	  0.096553110	3.728600E+01
384	  0.096753508	-8.120000E+00	  0.096753508	8.170700E+01	  0.096753508	4.063100E+01	  0.096753508	3.732400E+01
385	  0.096953906	-8.149000E+00	  0.096953906	8.126600E+01	  0.096953906	4.093800E+01	  0.096953906	3.739600E+01
386	  0.097154312	-8.194000E+00	  0.097154312	8.086400E+01	  0.097154312	4.126900E+01	  0.097154312	3.739100E+01
387	  0.097354710	-8.226000E+00	  0.097354710	8.046100E+01	  0.097354710	4.156600E+01	  0.097354710	3.743100E+01
388	  0.097555116	-8.254000E+00	  0.097555116	8.007000E+01	  0.097555116	4.185100E+01	  0.097555116	3.747600E+01
389	  0.097755514	-8.290000E+00	  0.097755514	7.964100E+01	  0.097755514	4.217600E+01	  0.097755514	3.750500E+01
390	  0.097955912	-8.321000E+00	  0.097955912	7.923100E+01	  0.097955912	4.247800E+01	  0.097955912	3.754600E+01
391	  0.098156318	-8.356000E+00	  0.098156318	7.882000E+01	  0.098156318	4.279300E+01	  0.098156318	3.756500E+01
392	  0.098356716	-8.381000E+00	  0.098356716	7.843700E+01	  0.098356716	4.306700E+01	  0.098356716	3.761300E+01
393	  0.098557115	-8.416000E+00	  0.098557115	7.803100E+01	  0.098557115	4.338100E+01	  0.098557115	3.762500E+01
394	  0.098757520	-8.444000E+00	  0.098757520	7.763800E+01	  0.098757520	4.367000E+01	  0.098757520	3.766000E+01
395	  0.098957919	-8.472000E+00	  0.098957919	7.720500E+01	  0.098957919	4.398500E+01	  0.098957919	3.770100E+01
396	  0.099158317	-8.494000E+00	  0.099158317	7.679900E+01	  0.099158317	4.427000E+01	  0.099158317	3.776000E+01
397	  0.099358723	-8.516000E+00	  0.099358723	7.636100E+01	  0.099358723	4.457700E+01	  0.099358723	3.782300E+01
398	  0.099559121	-8.537000E+00	  0.099559121	7.596300E+01	  0.099559121	4.485800E+01	  0.099559121	3.787600E+01
399	  0.099759519	-8.555000E+00	  0.099759519	7.555900E+01	  0.099759519	4.513900E+01	  0.099759519	3.793900E+01
400	  0.099959925	-8.562000E+00	  0.099959925	7.521000E+01	  0.099959925	4.536300E+01	  0.099959925	3.802800E+01
401	  0.100160323	-8.586000E+00	  0.100160323	7.482000E+01	  0.100160323	4.565100E+01	  0.100160323	3.805800E+01
402	  0.100360721	-8.577000E+00	  0.100360721	7.444300E+01	  0.100360721	4.586000E+01	  0.100360721	3.821900E+01
403	  0.100561127	-8.588000E+00	  0.100561127	7.404100E+01	  0.100561127	4.613200E+01	  0.100561127	3.830200E+01
404	  0.100761525	-8.575000E+00	  0.100761525	7.370600E+01	  0.100761525	4.631200E+01	  0.100761525	3.846300E+01
405	  0.100961931	-8.587000E+00	  0.100961931	7.337600E+01	  0.100961931	4.654300E+01	  0.100961931	3.851800E+01
406	  0.101162329	-8.586000E+00	  0.101162329	7.307500E+01	  0.101162329	4.672900E+01	  0.101162329	3.861900E+01
407	  0.101362728	-8.576000E+00	  0.101362728	7.279200E+01	  0.101362728	4.688800E+01	  0.101362728	3.875000E+01
408	  0.101563133	-8.572000E+00	  0.101563133	7.252100E+01	  0.101563133	4.705300E+01	  0.101563133	3.885000E+01
409	  0.101763532	-8.569000E+00	  0.101763532	7.213600E+01	  0.101763532	4.729200E+01	  0.101763532	3.898600E+01
410	  0.101963930	-8.563000E+00	  0.101963930	7.183900E+01	  0.101963930	4.747200E+01	  0.101963930	3.910000E+01
411	  0.102164336	-8.565000E+00	  0.102164336	7.157200E+01	  0.102164336	4.765100E+01	  0.102164336	3.917400E+01
412	  0.102364734	-8.563000E+00	  0.102364734	7.129100E+01	  0.102364734	4.783000E+01	  0.102364734	3.926900E+01
413	  0.102565132	-8.567000E+00	  0.102565132	7.095200E+01	  0.102565132	4.806000E+01	  0.102565132	3.935900E+01
414	  0.102765530	-8.548000E+00	  0.102765530	7.064600E+01	  0.102765530	4.822600E+01	  0.102765530	3.953100E+01
415	  0.102965929	-8.554000E+00	  0.102965929	7.023900E+01	  0.102965929	4.851000E+01	  0.102965929	3.962700E+01
416	  0.103166327	-8.539000E+00	  0.103166327	6.997200E+01	  0.103166327	4.866000E+01	  0.103166327	3.977500E+01
417	  0.103366733	-8.548000E+00	  0.103366733	6.953900E+01	  0.103366733	4.897100E+01	  0.103366733	3.986400E+01
418	  0.103567131	-8.540000E+00	  0.103567131	6.919200E+01	  0.103567131	4.919200E+01	  0.103567131	4.000300E+01
419	  0.103767529	-8.554000E+00	  0.103767529	6.878800E+01	  0.103767529	4.949800E+01	  0.103767529	4.005400E+01
420	  0.103967935	-8.552000E+00	  0.103967935	6.839300E+01	  0.103967935	4.976900E+01	  0.103967935	4.017800E+01
421	  0.104168333	-8.553000E+00	  0.104168333	6.794600E+01	  0.104168333	5.008400E+01	  0.104168333	4.030200E+01
422	  0.104368731	-8.556000E+00	  0.104368731	6.745400E+01	  0.104368731	5.043700E+01	  0.104368731	4.042600E+01
423	  0.104569137	-8.550000E+00	  0.104569137	6.696000E+01	  0.104569137	5.078100E+01	  0.104569137	4.059000E+01
424	  0.104769535	-8.545000E+00	  0.104769535	6.651000E+01	  0.104769535	5.109700E+01	  0.104769535	4.073600E+01
425	  0.104969934	-8.539000E+00	  0.104969934	6.597600E+01	  0.104969934	5.147600E+01	  0.104969934	4.091000E+01
426	  0.105170339	-8.537000E+00	  0.105170339	6.545900E+01	  0.105170339	5.185500E+01	  0.105170339	4.105500E+01
427	  0.105370738	-8.511000E+00	  0.105370738	6.493300E+01	  0.105370738	5.220500E+01	  0.105370738	4.131600E+01
428	  0.105571143	-8.512000E+00	  0.105571143	6.431300E+01	  0.105571143	5.267500E+01	  0.105571143	4.147400E+01
429	  0.105771542	-8.491000E+00	  0.105771542	6.385200E+01	  0.105771542	5.299500E+01	  0.105771542	4.169200E+01
430	  0.105971940	-8.470000E+00	  0.105971940	6.331000E+01	  0.105971940	5.338100E+01	  0.105971940	4.193600E+01
431	  0.106172346	-8.460000E+00	  0.106172346	6.281200E+01	  0.106172346	5.375600E+01	  0.106172346	4.210700E+01
432	  0.106372744	-8.430000E+00	  0.106372744	6.234300E+01	  0.106372744	5.408100E+01	  0.106372744	4.238000E+01
433	  0.106573142	-8.423000E+00	  0.106573142	6.183000E+01	  0.106573142	5.448300E+01	  0.106573142	4.253600E+01
434	  0.106773548	-8.391000E+00	  0.106773548	6.135400E+01	  0.106773548	5.482200E+01	  0.106773548	4.281800E+01
435	  0.106973946	-8.373000E+00	  0.106973946	6.085400E+01	  0.106973946	5.520700E+01	  0.106973946	4.303300E+01
436	  0.107174344	-8.356000E+00	  0.107174344	6.039500E+01	  0.107174344	5.556400E+01	  0.107174344	4.323000E+01
437	  0.107374750	-8.336000E+00	  0.107374750	5.993100E+01	  0.107374750	5.592600E+01	  0.107374750	4.344600E+01
438	  0.107575148	-8.309000E+00	  0.107575148	5.956600E+01	  0.107575148	5.619800E+01	  0.107575148	4.367700E+01
439	  0.107775547	-8.303000E+00	  0.107775547	5.906400E+01	  0.107775547	5.662200E+01	  0.107775547	4.381800E+01
440	  0.107975952	-8.289000E+00	  0.107975952	5.870800E+01	  0.107975952	5.691200E+01	  0.107975952	4.397600E+01
441	  0.108176351	-8.272000E+00	  0.108176351	5.816200E+01	  0.108176351	5.736900E+01	  0.108176351	4.418500E+01
442	  0.108376749	-8.275000E+00	  0.108376749	5.770400E+01	  0.108376749	5.778000E+01	  0.108376749	4.425800E+01
443	  0.108577155	-8.262000E+00	  0.108577155	5.722300E+01	  0.108577155	5.819500E+01	  0.108577155	4.443000E+01
444	  0.108777553	-8.261000E+00	  0.108777553	5.667600E+01	  0.108777553	5.869100E+01	  0.108777553	4.453200E+01
445	  0.108977959	-8.257000E+00	  0.108977959	5.617700E+01	  0.108977959	5.914400E+01	  0.108977959	4.464700E+01
446	  0.109178357	-8.266000E+00	  0.109178357	5.568000E+01	  0.109178357	5.961300E+01	  0.109178357	4.467800E+01
447	  0.109378755	-8.261000E+00	  0.109378755	5.500700E+01	  0.109378755	6.023900E+01	  0.109378755	4.481200E+01
448	  0.109579161	-8.269000E+00	  0.109579161	5.441600E+01	  0.109579161	6.080500E+01	  0.109579161	4.485300E+01
449	  0.109779559	-8.277000E+00	  0.109779559	5.376600E+01	  0.109779559	6.143600E+01	  0.109779559	4.488700E+01
450	  0.109979957	-8.277000E+00	  0.109979957	5.308000E+01	  0.109979957	6.210000E+01	  0.109979957	4.497600E+01
451	  0.110180363	-8.286000E+00	  0.110180363	5.233500E+01	  0.110180363	6.283700E+01	  0.110180363	4.499800E+01
452	  0.110380761	-8.280000E+00	  0.110380761	5.167200E+01	  0.110380761	6.349300E+01	  0.110380761	4.509500E+01
453	  0.110581160	-8.288000E+00	  0.110581160	5.083000E+01	  0.110581160	6.434300E+01	  0.110581160	4.511100E+01
454	  0.110781565	-8.278000E+00	  0.110781565	5.011000E+01	  0.110781565	6.507400E+01	  0.110781565	4.522400E+01
455	  0.110981964	-8.262000E+00	  0.110981964	4.935100E+01	  0.110981964	6.585500E+01	  0.110981964	4.537000E+01
456	  0.111182362	-8.258000E+00	  0.111182362	4.851900E+01	  0.111182362	6.672800E+01	  0.111182362	4.541700E+01
457	  0.111382768	-8.249000E+00	  0.111382768	4.782400E+01	  0.111382768	6.746700E+01	  0.111382768	4.549200E+01
458	  0.111583166	-8.235000E+00	  0.111583166	4.709100E+01	  0.111583166	6.825800E+01	  0.111583166	4.558600E+01
459	  0.111783572	-8.222000E+00	  0.111783572	4.630000E+01	  0.111783572	6.912500E+01	  0.111783572	4.565700E+01
460	  0.111983970	-8.204000E+00	  0.111983970	4.555800E+01	  0.111983970	6.995400E+01	  0.111983970	4.576400E+01
461	  0.112184368	-8.184000E+00	  0.112184368	4.481800E+01	  0.112184368	7.079600E+01	  0.112184368	4.586400E+01
462	  0.112384774	-8.173000E+00	  0.112384774	4.419100E+01	  0.112384774	7.151600E+01	  0.112384774	4.589800E+01
463	  0.112585172	-8.151000E+00	  0.112585172	4.353000E+01	  0.112585172	7.229200E+01	  0.112585172	4.599500E+01
464	  0.112785570	-8.147000E+00	  0.112785570	4.291500E+01	  0.112785570	7.301300E+01	  0.112785570	4.595800E+01
465	  0.112985976	-8.136000E+00	  0.112985976	4.219100E+01	  0.112985976	7.387500E+01	  0.112985976	4.594400E+01
466	  0.113186374	-8.133000E+00	  0.113186374	4.150500E+01	  0.113186374	7.469500E+01	  0.113186374	4.585900E+01
467	  0.113386773	-8.124000E+00	  0.113386773	4.091100E+01	  0.113386773	7.542000E+01	  0.113386773	4.582600E+01
468	  0.113587178	-8.124000E+00	  0.113587178	4.017700E+01	  0.113587178	7.630900E+01	  0.113587178	4.567600E+01
469	  0.113787577	-8.132000E+00	  0.113787577	3.953800E+01	  0.113787577	7.707600E+01	  0.113787577	4.546700E+01
470	  0.113987975	-8.139000E+00	  0.113987975	3.884800E+01	  0.113987975	7.791000E+01	  0.113987975	4.523000E+01
471	  0.114188381	-8.152000E+00	  0.114188381	3.813100E+01	  0.114188381	7.876900E+01	  0.114188381	4.492300E+01
472	  0.114388779	-8.164000E+00	  0.114388779	3.740700E+01	  0.114388779	7.964200E+01	  0.114388779	4.460300E+01
473	  0.114589177	-8.177000E+00	  0.114589177	3.663300E+01	  0.114589177	8.057500E+01	  0.114589177	4.424000E+01
474	  0.114789583	-8.206000E+00	  0.114789583	3.584100E+01	  0.114789583	8.148800E+01	  0.114789583	4.370500E+01
475	  0.114989981	-8.223000E+00	  0.114989981	3.504400E+01	  0.114989981	8.243400E+01	  0.114989981	4.323800E+01
476	  0.115190387	-8.240000E+00	  0.115190387	3.415700E+01	  0.115190387	8.348900E+01	  0.115190387	4.271200E+01
477	  0.115390785	-8.261000E+00	  0.115390785	3.329400E+01	  0.115390785	8.449400E+01	  0.115390785	4.212000E+01
478	  0.115591183	-8.287000E+00	  0.115591183	3.234100E+01	  0.115591183	8.558800E+01	  0.115591183	4.141300E+01
479	  0.115791589	-8.311000E+00	  0.115791589	3.140500E+01	  0.115791589	8.665400E+01	  0.115791589	4.069000E+01
480	  0.115991987	-8.324000E+00	  0.115991987	3.042500E+01	  0.115991987	8.780500E+01	  0.115991987	3.998800E+01
481	  0.116192386	-8.352000E+00	  0.116192386	2.948000E+01	  0.116192386	8.883700E+01	  0.116192386	3.914500E+01
482	  0.116392791	-8.365000E+00	  0.116392791	2.847800E+01	  0.116392791	8.999100E+01	  0.116392791	3.834600E+01
483	  0.116593190	-8.385000E+00	  0.116593190	2.752200E+01	  0.116593190	9.103800E+01	  0.116593190	3.747700E+01
484	  0.116793588	-8.401000E+00	  0.116793588	2.649500E+01	  0.116793588	9.217100E+01	  0.116793588	3.654300E+01
485	  0.116993994	-8.417000E+00	  0.116993994	2.553300E+01	  0.116993994	9.320100E+01	  0.116993994	3.561000E+01
486	  0.117194392	-8.436000E+00	  0.117194392	2.460200E+01	  0.117194392	9.416300E+01	  0.117194392	3.464900E+01
487	  0.117394790	-8.459000E+00	  0.117394790	2.358000E+01	  0.117394790	9.517500E+01	  0.117394790	3.353300E+01
488	  0.117595196	-8.485000E+00	  0.117595196	2.265900E+01	  0.117595196	9.601900E+01	  0.117595196	3.244900E+01
489	  0.117795594	-8.510000E+00	  0.117795594	2.173900E+01	  0.117795594	9.684200E+01	  0.117795594	3.134600E+01
490	  0.117995992	-8.544000E+00	  0.117995992	2.074600E+01	  0.117995992	9.764300E+01	  0.117995992	3.006900E+01
491	  0.118196398	-8.577000E+00	  0.118196398	1.978600E+01	  0.118196398	9.837000E+01	  0.118196398	2.880300E+01
492	  0.118396796	-8.625000E+00	  0.118396796	1.888000E+01	  0.118396796	9.889100E+01	  0.118396796	2.747900E+01
493	  0.118597202	-8.674000E+00	  0.118597202	1.787300E+01	  0.118597202	9.945700E+01	  0.118597202	2.602100E+01
494	  0.118797600	-8.732000E+00	  0.118797600	1.690800E+01	  0.118797600	9.984600E+01	  0.118797600	2.453500E+01
495	  0.118997999	-8.790000E+00	  0.118997999	1.587100E+01	  0.118997999	1.002490E+02	  0.118997999	2.296600E+01
496	  0.119198404	-8.857000E+00	  0.119198404	1.477100E+01	  0.119198404	1.005530E+02	  0.119198404	2.125900E+01
497	  0.119398803	-8.934000E+00	  0.119398803	1.368500E+01	  0.119398803	1.006940E+02	  0.119398803	1.953000E+01
498	  0.119599201	-9.011000E+00	  0.119599201	1.258100E+01	  0.119599201	1.007680E+02	  0.119599201	1.778900E+01
499	  0.119799607	-9.092000E+00	  0.119799607	1.137500E+01	  0.119799607	1.007920E+02	  0.119799607	1.591900E+01
500	  0.120000005	-9.177000E+00	  0.120000005	1.015100E+01	  0.120000005	1.007110E+02	  0.120000005	1.403700E+01
