! Anritsu VNA Master:             	Model: MS2036C/10/77
! SN:             	1601066
! /bd0/18may10/252.ew.m7.txt
! Existing Calibration Information:
! TYPE:             	Current Settings	Active Cal Settings
! TIME:             	05/10/2018 06:41:53 PM	05/10/2018 06:36:47 PM
! INTERNAL TEMP:    	61.3 C	61.0 C
! # POINTS:         	487	487
! START FREQ:       	20.601 202 MHz	20.601 202 MHz
! STOP FREQ:        	117.995 991 MHz	117.995 991 MHz
! SOURCE POWER:     	High	High
! IFBW:             	50 Hz	50 Hz
! AVG FACTOR:       	  1 	  1 
! REF PLANE 1:      	0 mm	0 mm
! REF PLANE 2:      	0 mm	0 mm
! CAL TYPE:         	Full S22	Full S22
! CAL METHOD:       	SOLT	SOLT
! CAL LINE TYPE:    	Coax	Coax
! DUT PORT 1:       	K-Conn(M)	K-Conn(M)
! DUT PORT 2:       	K-Conn(M)	K-Conn(M)
! CAL STATUS:       	OK: Accuracy High	--
! PROP-V:       	0.700
! CABLE LOSS:       	0.000 dB/m
! REF IMPEDANCE:       	50.0
! Trace Specific Parameters:	TR1	TR2	TR3	TR4
! TRACE.#.Y (GRAPH TYPE)	LOG MAG	PHASE	REAL IMPEDANCE	IMAGINARY IMPEDANCE
! TRACE.#.X 	FREQ.GHZ	FREQ.GHZ	FREQ.GHZ	FREQ.GHZ
! S-PARAMETER	S22	S22	S22	S22
! SMOOTH/APERTURE %	0	0	0	0
! WINDOW	NSL	NSL	NSL	NSL
! GATING	OFF	OFF	OFF	OFF
! FGTD	OFF	OFF	OFF	OFF
Marker Information per Trace:	TR1	TR2	TR3	TR4
!MK1	--	"MK1 TR2:  20.000 MHz,##.##"	--	--
!MK2	--	--	"MK2 TR3:  70.100 200 MHz,Z:(17.617 ohm, -1.395 ohm)"	--
!MK3	--	--	--	--
!MK4	--	--	--	--
!MK5	--	--	--	--
!MK6	--	--	--	--
!MK7	--	--	--	--
!MK8	--	--	--	--
PNT	TR1.FREQ.GHZ	TR1.LOG MAG.dB	TR2.FREQ.GHZ	TR2.PHASE.deg	TR3.FREQ.GHZ	TR3.REAL IMPEDANCE.ohm	TR4.FREQ.GHZ	TR4.IMAGINARY IMPEDANCE.ohm
1	  0.020601204	-6.390000E-01	  0.020601204	-1.298860E+02	  0.020601204	2.241000E+00	  0.020601204	-2.333700E+01
2	  0.020801604	-6.440000E-01	  0.020801604	-1.313890E+02	  0.020801604	2.232000E+00	  0.020801604	-2.254300E+01
3	  0.021002004	-6.450000E-01	  0.021002004	-1.329200E+02	  0.021002004	2.207000E+00	  0.021002004	-2.174600E+01
4	  0.021202406	-6.480000E-01	  0.021202406	-1.344430E+02	  0.021202406	2.194000E+00	  0.021202406	-2.096100E+01
5	  0.021402806	-6.500000E-01	  0.021402806	-1.359730E+02	  0.021402806	2.178000E+00	  0.021402806	-2.018100E+01
6	  0.021603208	-6.500000E-01	  0.021603208	-1.375040E+02	  0.021603208	2.154000E+00	  0.021603208	-1.941000E+01
7	  0.021803608	-6.550000E-01	  0.021803608	-1.390270E+02	  0.021803608	2.148000E+00	  0.021803608	-1.865000E+01
8	  0.022004008	-6.610000E-01	  0.022004008	-1.405480E+02	  0.022004008	2.145000E+00	  0.022004008	-1.789800E+01
9	  0.022204408	-6.640000E-01	  0.022204408	-1.421050E+02	  0.022204408	2.136000E+00	  0.022204408	-1.713600E+01
10	  0.022404809	-6.720000E-01	  0.022404809	-1.436830E+02	  0.022404809	2.143000E+00	  0.022404809	-1.637100E+01
11	  0.022605211	-6.730000E-01	  0.022605211	-1.452670E+02	  0.022605211	2.127000E+00	  0.022605211	-1.561000E+01
12	  0.022805611	-6.780000E-01	  0.022805611	-1.468650E+02	  0.022805611	2.123000E+00	  0.022805611	-1.484900E+01
13	  0.023006011	-6.810000E-01	  0.023006011	-1.484570E+02	  0.023006011	2.117000E+00	  0.023006011	-1.409700E+01
14	  0.023206413	-6.850000E-01	  0.023206413	-1.500570E+02	  0.023206413	2.111000E+00	  0.023206413	-1.334800E+01
15	  0.023406813	-6.900000E-01	  0.023406813	-1.516420E+02	  0.023406813	2.112000E+00	  0.023406813	-1.261100E+01
16	  0.023607215	-6.990000E-01	  0.023607215	-1.532530E+02	  0.023607215	2.125000E+00	  0.023607215	-1.186600E+01
17	  0.023807615	-7.070000E-01	  0.023807615	-1.548740E+02	  0.023807615	2.136000E+00	  0.023807615	-1.112200E+01
18	  0.024008015	-7.160000E-01	  0.024008015	-1.565120E+02	  0.024008015	2.149000E+00	  0.024008015	-1.037600E+01
19	  0.024208417	-7.230000E-01	  0.024208417	-1.581760E+02	  0.024208417	2.159000E+00	  0.024208417	-9.621000E+00
20	  0.024408817	-7.300000E-01	  0.024408817	-1.598390E+02	  0.024408817	2.166000E+00	  0.024408817	-8.872000E+00
21	  0.024609219	-7.360000E-01	  0.024609219	-1.615010E+02	  0.024609219	2.174000E+00	  0.024609219	-8.127000E+00
22	  0.024809619	-7.460000E-01	  0.024809619	-1.631700E+02	  0.024809619	2.193000E+00	  0.024809619	-7.382000E+00
23	  0.025010020	-7.570000E-01	  0.025010020	-1.648550E+02	  0.025010020	2.218000E+00	  0.025010020	-6.633000E+00
24	  0.025210422	-7.690000E-01	  0.025210422	-1.665340E+02	  0.025210422	2.244000E+00	  0.025210422	-5.890000E+00
25	  0.025410822	-7.810000E-01	  0.025410822	-1.682400E+02	  0.025410822	2.270000E+00	  0.025410822	-5.138000E+00
26	  0.025611224	-7.920000E-01	  0.025611224	-1.699430E+02	  0.025611224	2.296000E+00	  0.025611224	-4.389000E+00
27	  0.025811624	-8.030000E-01	  0.025811624	-1.716590E+02	  0.025811624	2.324000E+00	  0.025811624	-3.637000E+00
28	  0.026012026	-8.150000E-01	  0.026012026	-1.733970E+02	  0.026012026	2.352000E+00	  0.026012026	-2.877000E+00
29	  0.026212426	-8.280000E-01	  0.026212426	-1.751270E+02	  0.026212426	2.385000E+00	  0.026212426	-2.122000E+00
30	  0.026412826	-8.420000E-01	  0.026412826	-1.768780E+02	  0.026412826	2.425000E+00	  0.026412826	-1.359000E+00
31	  0.026613226	-8.570000E-01	  0.026613226	-1.786290E+02	  0.026613226	2.466000E+00	  0.026613226	-5.960000E-01
32	  0.026813626	-8.720000E-01	  0.026813626	1.796000E+02	  0.026813626	2.510000E+00	  0.026813626	1.730000E-01
33	  0.027014028	-8.890000E-01	  0.027014028	1.778320E+02	  0.027014028	2.559000E+00	  0.027014028	9.430000E-01
34	  0.027214428	-9.070000E-01	  0.027214428	1.760540E+02	  0.027214428	2.611000E+00	  0.027214428	1.717000E+00
35	  0.027414829	-9.220000E-01	  0.027414829	1.742740E+02	  0.027414829	2.659000E+00	  0.027414829	2.493000E+00
36	  0.027615231	-9.400000E-01	  0.027615231	1.724810E+02	  0.027615231	2.716000E+00	  0.027615231	3.275000E+00
37	  0.027815631	-9.580000E-01	  0.027815631	1.706720E+02	  0.027815631	2.774000E+00	  0.027815631	4.066000E+00
38	  0.028016033	-9.780000E-01	  0.028016033	1.688480E+02	  0.028016033	2.839000E+00	  0.028016033	4.865000E+00
39	  0.028216433	-9.990000E-01	  0.028216433	1.670200E+02	  0.028216433	2.909000E+00	  0.028216433	5.668000E+00
40	  0.028416833	-1.020000E+00	  0.028416833	1.651840E+02	  0.028416833	2.983000E+00	  0.028416833	6.477000E+00
41	  0.028617235	-1.041000E+00	  0.028617235	1.633330E+02	  0.028617235	3.057000E+00	  0.028617235	7.297000E+00
42	  0.028817635	-1.062000E+00	  0.028817635	1.614880E+02	  0.028817635	3.133000E+00	  0.028817635	8.116000E+00
43	  0.029018037	-1.086000E+00	  0.029018037	1.596400E+02	  0.029018037	3.224000E+00	  0.029018037	8.941000E+00
44	  0.029218437	-1.112000E+00	  0.029218437	1.577690E+02	  0.029218437	3.319000E+00	  0.029218437	9.781000E+00
45	  0.029418837	-1.137000E+00	  0.029418837	1.558760E+02	  0.029418837	3.418000E+00	  0.029418837	1.063600E+01
46	  0.029619239	-1.164000E+00	  0.029619239	1.539820E+02	  0.029619239	3.523000E+00	  0.029619239	1.149600E+01
47	  0.029819639	-1.190000E+00	  0.029819639	1.520790E+02	  0.029819639	3.632000E+00	  0.029819639	1.236700E+01
48	  0.030020041	-1.219000E+00	  0.030020041	1.501570E+02	  0.030020041	3.750000E+00	  0.030020041	1.325300E+01
49	  0.030220442	-1.247000E+00	  0.030220442	1.482380E+02	  0.030220442	3.871000E+00	  0.030220442	1.414500E+01
50	  0.030420844	-1.276000E+00	  0.030420844	1.463230E+02	  0.030420844	4.000000E+00	  0.030420844	1.504300E+01
51	  0.030621244	-1.306000E+00	  0.030621244	1.444030E+02	  0.030621244	4.137000E+00	  0.030621244	1.595100E+01
52	  0.030821642	-1.339000E+00	  0.030821642	1.424580E+02	  0.030821642	4.289000E+00	  0.030821642	1.688000E+01
53	  0.031022044	-1.372000E+00	  0.031022044	1.405180E+02	  0.031022044	4.446000E+00	  0.031022044	1.781600E+01
54	  0.031222444	-1.399000E+00	  0.031222444	1.385780E+02	  0.031222444	4.588000E+00	  0.031222444	1.876400E+01
55	  0.031422846	-1.434000E+00	  0.031422846	1.365930E+02	  0.031422846	4.768000E+00	  0.031422846	1.974400E+01
56	  0.031623244	-1.472000E+00	  0.031623244	1.346040E+02	  0.031623244	4.962000E+00	  0.031623244	2.073700E+01
57	  0.031823646	-1.510000E+00	  0.031823646	1.326040E+02	  0.031823646	5.163000E+00	  0.031823646	2.174900E+01
58	  0.032024048	-1.547000E+00	  0.032024048	1.306150E+02	  0.032024048	5.373000E+00	  0.032024048	2.276900E+01
59	  0.032224450	-1.588000E+00	  0.032224450	1.286230E+02	  0.032224450	5.604000E+00	  0.032224450	2.380400E+01
60	  0.032424849	-1.628000E+00	  0.032424849	1.266090E+02	  0.032424849	5.842000E+00	  0.032424849	2.486700E+01
61	  0.032625251	-1.669000E+00	  0.032625251	1.245850E+02	  0.032625251	6.096000E+00	  0.032625251	2.595200E+01
62	  0.032825653	-1.708000E+00	  0.032825653	1.225600E+02	  0.032825653	6.356000E+00	  0.032825653	2.705400E+01
63	  0.033026051	-1.751000E+00	  0.033026051	1.205060E+02	  0.033026051	6.644000E+00	  0.033026051	2.819100E+01
64	  0.033226453	-1.794000E+00	  0.033226453	1.184610E+02	  0.033226453	6.944000E+00	  0.033226453	2.934400E+01
65	  0.033426855	-1.833000E+00	  0.033426855	1.164180E+02	  0.033426855	7.245000E+00	  0.033426855	3.051800E+01
66	  0.033627257	-1.880000E+00	  0.033627257	1.143930E+02	  0.033627257	7.593000E+00	  0.033627257	3.169800E+01
67	  0.033827655	-1.925000E+00	  0.033827655	1.123460E+02	  0.033827655	7.952000E+00	  0.033827655	3.291700E+01
68	  0.034028057	-1.971000E+00	  0.034028057	1.103090E+02	  0.034028057	8.338000E+00	  0.034028057	3.415300E+01
69	  0.034228459	-2.016000E+00	  0.034228459	1.082520E+02	  0.034228459	8.737000E+00	  0.034228459	3.542800E+01
70	  0.034428857	-2.065000E+00	  0.034428857	1.061880E+02	  0.034428857	9.180000E+00	  0.034428857	3.673300E+01
71	  0.034629259	-2.112000E+00	  0.034629259	1.041190E+02	  0.034629259	9.641000E+00	  0.034629259	3.807000E+01
72	  0.034829661	-2.160000E+00	  0.034829661	1.020410E+02	  0.034829661	1.013700E+01	  0.034829661	3.944300E+01
73	  0.035030060	-2.212000E+00	  0.035030060	9.996400E+01	  0.035030060	1.067800E+01	  0.035030060	4.084500E+01
74	  0.035230462	-2.265000E+00	  0.035230462	9.789700E+01	  0.035230462	1.125900E+01	  0.035230462	4.227100E+01
75	  0.035430863	-2.317000E+00	  0.035430863	9.581800E+01	  0.035430863	1.187100E+01	  0.035430863	4.374100E+01
76	  0.035631265	-2.371000E+00	  0.035631265	9.374800E+01	  0.035631265	1.253300E+01	  0.035631265	4.523800E+01
77	  0.035831664	-2.422000E+00	  0.035831664	9.167600E+01	  0.035831664	1.322200E+01	  0.035831664	4.677900E+01
78	  0.036032066	-2.477000E+00	  0.036032066	8.958300E+01	  0.036032066	1.398300E+01	  0.036032066	4.836900E+01
79	  0.036232468	-2.529000E+00	  0.036232468	8.748600E+01	  0.036232468	1.478600E+01	  0.036232468	5.000900E+01
80	  0.036432866	-2.585000E+00	  0.036432866	8.539600E+01	  0.036432866	1.566200E+01	  0.036432866	5.168000E+01
81	  0.036633268	-2.642000E+00	  0.036633268	8.329300E+01	  0.036633268	1.661100E+01	  0.036633268	5.340400E+01
82	  0.036833670	-2.697000E+00	  0.036833670	8.120100E+01	  0.036833670	1.761700E+01	  0.036833670	5.516800E+01
83	  0.037034072	-2.757000E+00	  0.037034072	7.910100E+01	  0.037034072	1.872900E+01	  0.037034072	5.697500E+01
84	  0.037234470	-2.812000E+00	  0.037234470	7.703200E+01	  0.037234470	1.988600E+01	  0.037234470	5.881000E+01
85	  0.037434869	-2.871000E+00	  0.037434869	7.492100E+01	  0.037434869	2.117100E+01	  0.037434869	6.072700E+01
86	  0.037635271	-2.930000E+00	  0.037635271	7.284800E+01	  0.037635271	2.254100E+01	  0.037635271	6.265300E+01
87	  0.037835669	-2.988000E+00	  0.037835669	7.077000E+01	  0.037835669	2.401600E+01	  0.037835669	6.463500E+01
88	  0.038036071	-3.047000E+00	  0.038036071	6.863900E+01	  0.038036071	2.565600E+01	  0.038036071	6.671600E+01
89	  0.038236473	-3.107000E+00	  0.038236473	6.652800E+01	  0.038236473	2.742200E+01	  0.038236473	6.882000E+01
90	  0.038436871	-3.168000E+00	  0.038436871	6.441100E+01	  0.038436871	2.934800E+01	  0.038436871	7.097500E+01
91	  0.038637273	-3.230000E+00	  0.038637273	6.229000E+01	  0.038637273	3.145000E+01	  0.038637273	7.316900E+01
92	  0.038837675	-3.289000E+00	  0.038837675	6.019700E+01	  0.038837675	3.369600E+01	  0.038837675	7.538000E+01
93	  0.039038073	-3.347000E+00	  0.039038073	5.811200E+01	  0.039038073	3.611000E+01	  0.039038073	7.762300E+01
94	  0.039238475	-3.407000E+00	  0.039238475	5.603500E+01	  0.039238475	3.874700E+01	  0.039238475	7.986500E+01
95	  0.039438877	-3.463000E+00	  0.039438877	5.395200E+01	  0.039438877	4.160000E+01	  0.039438877	8.214600E+01
96	  0.039639279	-3.523000E+00	  0.039639279	5.187300E+01	  0.039639279	4.472900E+01	  0.039639279	8.440000E+01
97	  0.039839678	-3.585000E+00	  0.039839678	4.977800E+01	  0.039839678	4.817900E+01	  0.039839678	8.663500E+01
98	  0.040040080	-3.640000E+00	  0.040040080	4.767900E+01	  0.040040080	5.188200E+01	  0.040040080	8.890100E+01
99	  0.040240481	-3.699000E+00	  0.040240481	4.561200E+01	  0.040240481	5.590300E+01	  0.040240481	9.101500E+01
100	  0.040440880	-3.755000E+00	  0.040440880	4.355500E+01	  0.040440880	6.023100E+01	  0.040440880	9.305300E+01
101	  0.040641282	-3.813000E+00	  0.040641282	4.149300E+01	  0.040641282	6.496100E+01	  0.040641282	9.493600E+01
102	  0.040841684	-3.870000E+00	  0.040841684	3.942800E+01	  0.040841684	7.008300E+01	  0.040841684	9.666800E+01
103	  0.041042086	-3.929000E+00	  0.041042086	3.740400E+01	  0.041042086	7.555100E+01	  0.041042086	9.805600E+01
104	  0.041242484	-3.986000E+00	  0.041242484	3.536000E+01	  0.041242484	8.147500E+01	  0.041242484	9.920300E+01
105	  0.041442886	-4.044000E+00	  0.041442886	3.330900E+01	  0.041442886	8.786100E+01	  0.041442886	9.996500E+01
106	  0.041643288	-4.100000E+00	  0.041643288	3.126300E+01	  0.041643288	9.465900E+01	  0.041643288	1.002830E+02
107	  0.041843686	-4.157000E+00	  0.041843686	2.920600E+01	  0.041843686	1.019190E+02	  0.041843686	1.000350E+02
108	  0.042044088	-4.209000E+00	  0.042044088	2.717900E+01	  0.042044088	1.094480E+02	  0.042044088	9.921800E+01
109	  0.042244490	-4.265000E+00	  0.042244490	2.514400E+01	  0.042244490	1.173320E+02	  0.042244490	9.754900E+01
110	  0.042444889	-4.321000E+00	  0.042444889	2.312400E+01	  0.042444889	1.253860E+02	  0.042444889	9.501700E+01
111	  0.042645290	-4.377000E+00	  0.042645290	2.110000E+01	  0.042645290	1.335630E+02	  0.042645290	9.148500E+01
112	  0.042845692	-4.430000E+00	  0.042845692	1.910200E+01	  0.042845692	1.416140E+02	  0.042845692	8.702900E+01
113	  0.043046094	-4.484000E+00	  0.043046094	1.709800E+01	  0.043046094	1.494830E+02	  0.043046094	8.146200E+01
114	  0.043246493	-4.539000E+00	  0.043246493	1.508400E+01	  0.043246493	1.569650E+02	  0.043246493	7.471900E+01
115	  0.043446895	-4.588000E+00	  0.043446895	1.308800E+01	  0.043446895	1.638780E+02	  0.043446895	6.709100E+01
116	  0.043647297	-4.640000E+00	  0.043647297	1.107300E+01	  0.043647297	1.699620E+02	  0.043647297	5.829300E+01
117	  0.043847695	-4.689000E+00	  0.043847695	9.101000E+00	  0.043847695	1.749480E+02	  0.043847695	4.884700E+01
118	  0.044048097	-4.739000E+00	  0.044048097	7.134000E+00	  0.044048097	1.787120E+02	  0.044048097	3.872400E+01
119	  0.044248499	-4.790000E+00	  0.044248499	5.154000E+00	  0.044248499	1.812010E+02	  0.044248499	2.807300E+01
120	  0.044448901	-4.838000E+00	  0.044448901	3.205000E+00	  0.044448901	1.823510E+02	  0.044448901	1.739000E+01
121	  0.044649299	-4.886000E+00	  0.044649299	1.265000E+00	  0.044649299	1.821390E+02	  0.044649299	6.788000E+00
122	  0.044849701	-4.932000E+00	  0.044849701	-6.750000E-01	  0.044849701	1.807430E+02	  0.044849701	-3.556000E+00
123	  0.045050103	-4.978000E+00	  0.045050103	-2.613000E+00	  0.045050103	1.781290E+02	  0.045050103	-1.342200E+01
124	  0.045250501	-5.022000E+00	  0.045250501	-4.547000E+00	  0.045250501	1.745300E+02	  0.045250501	-2.264900E+01
125	  0.045450903	-5.066000E+00	  0.045450903	-6.465000E+00	  0.045450903	1.700790E+02	  0.045450903	-3.104000E+01
126	  0.045651305	-5.112000E+00	  0.045651305	-8.386000E+00	  0.045651305	1.648890E+02	  0.045651305	-3.859200E+01
127	  0.045851704	-5.149000E+00	  0.045851704	-1.027600E+01	  0.045851704	1.594410E+02	  0.045851704	-4.527600E+01
128	  0.046052102	-5.192000E+00	  0.046052102	-1.216200E+01	  0.046052102	1.535000E+02	  0.046052102	-5.100100E+01
129	  0.046252504	-5.234000E+00	  0.046252504	-1.402100E+01	  0.046252504	1.474540E+02	  0.046252504	-5.583900E+01
130	  0.046452906	-5.276000E+00	  0.046452906	-1.588200E+01	  0.046452906	1.412910E+02	  0.046452906	-5.989700E+01
131	  0.046653304	-5.316000E+00	  0.046653304	-1.773200E+01	  0.046653304	1.352020E+02	  0.046653304	-6.324800E+01
132	  0.046853706	-5.357000E+00	  0.046853706	-1.958100E+01	  0.046853706	1.291830E+02	  0.046853706	-6.593900E+01
133	  0.047054108	-5.397000E+00	  0.047054108	-2.144400E+01	  0.047054108	1.232680E+02	  0.047054108	-6.805600E+01
134	  0.047254506	-5.435000E+00	  0.047254506	-2.327700E+01	  0.047254506	1.176420E+02	  0.047254506	-6.965800E+01
135	  0.047454908	-5.473000E+00	  0.047454908	-2.508300E+01	  0.047454908	1.123010E+02	  0.047454908	-7.077900E+01
136	  0.047655310	-5.507000E+00	  0.047655310	-2.689500E+01	  0.047655310	1.071800E+02	  0.047655310	-7.156600E+01
137	  0.047855709	-5.545000E+00	  0.047855709	-2.870000E+01	  0.047855709	1.023010E+02	  0.047855709	-7.196400E+01
138	  0.048056111	-5.579000E+00	  0.048056111	-3.048600E+01	  0.048056111	9.771700E+01	  0.048056111	-7.211300E+01
139	  0.048256513	-5.618000E+00	  0.048256513	-3.225900E+01	  0.048256513	9.339200E+01	  0.048256513	-7.194400E+01
140	  0.048456915	-5.654000E+00	  0.048456915	-3.402400E+01	  0.048456915	8.932300E+01	  0.048456915	-7.161500E+01
141	  0.048657313	-5.684000E+00	  0.048657313	-3.577800E+01	  0.048657313	8.550100E+01	  0.048657313	-7.118700E+01
142	  0.048857715	-5.718000E+00	  0.048857715	-3.753700E+01	  0.048857715	8.187900E+01	  0.048857715	-7.056100E+01
143	  0.049058117	-5.746000E+00	  0.049058117	-3.928600E+01	  0.049058117	7.847500E+01	  0.049058117	-6.989100E+01
144	  0.049258515	-5.775000E+00	  0.049258515	-4.102000E+01	  0.049258515	7.528900E+01	  0.049258515	-6.910500E+01
145	  0.049458917	-5.805000E+00	  0.049458917	-4.272900E+01	  0.049458917	7.232500E+01	  0.049458917	-6.823300E+01
146	  0.049659319	-5.836000E+00	  0.049659319	-4.444500E+01	  0.049659319	6.952100E+01	  0.049659319	-6.726800E+01
147	  0.049859721	-5.866000E+00	  0.049859721	-4.612400E+01	  0.049859721	6.693000E+01	  0.049859721	-6.628000E+01
148	  0.050060119	-5.892000E+00	  0.050060119	-4.780400E+01	  0.050060119	6.447100E+01	  0.050060119	-6.528700E+01
149	  0.050260521	-5.915000E+00	  0.050260521	-4.949100E+01	  0.050260521	6.212900E+01	  0.050260521	-6.427400E+01
150	  0.050460923	-5.941000E+00	  0.050460923	-5.117000E+01	  0.050460923	5.993500E+01	  0.050460923	-6.320600E+01
151	  0.050661322	-5.964000E+00	  0.050661322	-5.281100E+01	  0.050661322	5.789700E+01	  0.050661322	-6.216600E+01
152	  0.050861724	-5.984000E+00	  0.050861724	-5.447000E+01	  0.050861724	5.593500E+01	  0.050861724	-6.112000E+01
153	  0.051062126	-6.009000E+00	  0.051062126	-5.609100E+01	  0.051062126	5.413900E+01	  0.051062126	-6.003800E+01
154	  0.051262524	-6.033000E+00	  0.051262524	-5.770600E+01	  0.051262524	5.244100E+01	  0.051262524	-5.895900E+01
155	  0.051462926	-6.055000E+00	  0.051462926	-5.928200E+01	  0.051462926	5.086200E+01	  0.051462926	-5.791300E+01
156	  0.051663328	-6.073000E+00	  0.051663328	-6.088500E+01	  0.051663328	4.932300E+01	  0.051663328	-5.687200E+01
157	  0.051863730	-6.093000E+00	  0.051863730	-6.246100E+01	  0.051863730	4.789200E+01	  0.051863730	-5.583500E+01
158	  0.052064128	-6.108000E+00	  0.052064128	-6.404100E+01	  0.052064128	4.651000E+01	  0.052064128	-5.482500E+01
159	  0.052264530	-6.125000E+00	  0.052264530	-6.561500E+01	  0.052264530	4.520500E+01	  0.052264530	-5.381100E+01
160	  0.052464932	-6.138000E+00	  0.052464932	-6.714200E+01	  0.052464932	4.399000E+01	  0.052464932	-5.284400E+01
161	  0.052665330	-6.153000E+00	  0.052665330	-6.867300E+01	  0.052665330	4.283200E+01	  0.052665330	-5.186800E+01
162	  0.052865732	-6.171000E+00	  0.052865732	-7.020800E+01	  0.052865732	4.173700E+01	  0.052865732	-5.088100E+01
163	  0.053066134	-6.184000E+00	  0.053066134	-7.172100E+01	  0.053066134	4.069000E+01	  0.053066134	-4.993700E+01
164	  0.053266536	-6.199000E+00	  0.053266536	-7.320500E+01	  0.053266536	3.971500E+01	  0.053266536	-4.900700E+01
165	  0.053466935	-6.215000E+00	  0.053466935	-7.470200E+01	  0.053466935	3.878200E+01	  0.053466935	-4.806900E+01
166	  0.053667337	-6.228000E+00	  0.053667337	-7.620600E+01	  0.053667337	3.787600E+01	  0.053667337	-4.714700E+01
167	  0.053867739	-6.236000E+00	  0.053867739	-7.766700E+01	  0.053867739	3.701300E+01	  0.053867739	-4.627900E+01
168	  0.054068137	-6.246000E+00	  0.054068137	-7.914200E+01	  0.054068137	3.618600E+01	  0.054068137	-4.540100E+01
169	  0.054268539	-6.259000E+00	  0.054268539	-8.059100E+01	  0.054268539	3.542000E+01	  0.054268539	-4.453500E+01
170	  0.054468941	-6.268000E+00	  0.054468941	-8.205600E+01	  0.054468941	3.466200E+01	  0.054468941	-4.368000E+01
171	  0.054669335	-6.278000E+00	  0.054669335	-8.349600E+01	  0.054669335	3.395500E+01	  0.054669335	-4.284100E+01
172	  0.054869737	-6.292000E+00	  0.054869737	-8.493800E+01	  0.054869737	3.328700E+01	  0.054869737	-4.199900E+01
173	  0.055070139	-6.301000E+00	  0.055070139	-8.636300E+01	  0.055070139	3.263800E+01	  0.055070139	-4.118800E+01
174	  0.055270538	-6.312000E+00	  0.055270538	-8.777000E+01	  0.055270538	3.202800E+01	  0.055270538	-4.039000E+01
175	  0.055470940	-6.317000E+00	  0.055470940	-8.917900E+01	  0.055470940	3.142300E+01	  0.055470940	-3.961400E+01
176	  0.055671342	-6.322000E+00	  0.055671342	-9.061100E+01	  0.055671342	3.082900E+01	  0.055671342	-3.883400E+01
177	  0.055871744	-6.326000E+00	  0.055871744	-9.201600E+01	  0.055871744	3.026800E+01	  0.055871744	-3.807500E+01
178	  0.056072142	-6.331000E+00	  0.056072142	-9.341000E+01	  0.056072142	2.973500E+01	  0.056072142	-3.732700E+01
179	  0.056272544	-6.337000E+00	  0.056272544	-9.479100E+01	  0.056272544	2.923300E+01	  0.056272544	-3.658800E+01
180	  0.056472946	-6.341000E+00	  0.056472946	-9.618800E+01	  0.056472946	2.873400E+01	  0.056472946	-3.585300E+01
181	  0.056673344	-6.346000E+00	  0.056673344	-9.751700E+01	  0.056673344	2.828100E+01	  0.056673344	-3.515900E+01
182	  0.056873746	-6.345000E+00	  0.056873746	-9.887700E+01	  0.056873746	2.781300E+01	  0.056873746	-3.446700E+01
183	  0.057074148	-6.348000E+00	  0.057074148	-1.002000E+02	  0.057074148	2.738800E+01	  0.057074148	-3.379100E+01
184	  0.057274550	-6.351000E+00	  0.057274550	-1.015650E+02	  0.057274550	2.696600E+01	  0.057274550	-3.309700E+01
185	  0.057474948	-6.351000E+00	  0.057474948	-1.029090E+02	  0.057474948	2.655500E+01	  0.057474948	-3.242700E+01
186	  0.057675350	-6.349000E+00	  0.057675350	-1.042210E+02	  0.057675350	2.616000E+01	  0.057675350	-3.178200E+01
187	  0.057875752	-6.351000E+00	  0.057875752	-1.055590E+02	  0.057875752	2.578400E+01	  0.057875752	-3.112100E+01
188	  0.058076151	-6.352000E+00	  0.058076151	-1.068730E+02	  0.058076151	2.542800E+01	  0.058076151	-3.047800E+01
189	  0.058276553	-6.349000E+00	  0.058276553	-1.081590E+02	  0.058276553	2.507600E+01	  0.058276553	-2.986100E+01
190	  0.058476955	-6.347000E+00	  0.058476955	-1.094510E+02	  0.058476955	2.473600E+01	  0.058476955	-2.924500E+01
191	  0.058677353	-6.348000E+00	  0.058677353	-1.107140E+02	  0.058677353	2.442500E+01	  0.058677353	-2.864100E+01
192	  0.058877755	-6.345000E+00	  0.058877755	-1.120430E+02	  0.058877755	2.409600E+01	  0.058877755	-2.801600E+01
193	  0.059078157	-6.341000E+00	  0.059078157	-1.133090E+02	  0.059078157	2.379200E+01	  0.059078157	-2.742600E+01
194	  0.059278559	-6.336000E+00	  0.059278559	-1.145930E+02	  0.059278559	2.349000E+01	  0.059278559	-2.683300E+01
195	  0.059478957	-6.333000E+00	  0.059478957	-1.158750E+02	  0.059478957	2.320200E+01	  0.059478957	-2.624300E+01
196	  0.059679359	-6.335000E+00	  0.059679359	-1.171440E+02	  0.059679359	2.294300E+01	  0.059679359	-2.565500E+01
197	  0.059879761	-6.332000E+00	  0.059879761	-1.184110E+02	  0.059879761	2.267800E+01	  0.059879761	-2.507900E+01
198	  0.060080159	-6.331000E+00	  0.060080159	-1.196740E+02	  0.060080159	2.242800E+01	  0.060080159	-2.450600E+01
199	  0.060280561	-6.328000E+00	  0.060280561	-1.209210E+02	  0.060280561	2.218600E+01	  0.060280561	-2.394500E+01
200	  0.060480963	-6.328000E+00	  0.060480963	-1.221940E+02	  0.060480963	2.195400E+01	  0.060480963	-2.337400E+01
201	  0.060681365	-6.327000E+00	  0.060681365	-1.234500E+02	  0.060681365	2.173000E+01	  0.060681365	-2.281400E+01
202	  0.060881764	-6.326000E+00	  0.060881764	-1.246600E+02	  0.060881764	2.152100E+01	  0.060881764	-2.227900E+01
203	  0.061082166	-6.322000E+00	  0.061082166	-1.259470E+02	  0.061082166	2.129700E+01	  0.061082166	-2.171700E+01
204	  0.061282568	-6.324000E+00	  0.061282568	-1.271750E+02	  0.061282568	2.110800E+01	  0.061282568	-2.117600E+01
205	  0.061482966	-6.322000E+00	  0.061482966	-1.284220E+02	  0.061482966	2.091100E+01	  0.061482966	-2.063500E+01
206	  0.061683368	-6.323000E+00	  0.061683368	-1.296560E+02	  0.061683368	2.073200E+01	  0.061683368	-2.010000E+01
207	  0.061883770	-6.322000E+00	  0.061883770	-1.308720E+02	  0.061883770	2.055500E+01	  0.061883770	-1.957700E+01
208	  0.062084168	-6.323000E+00	  0.062084168	-1.320860E+02	  0.062084168	2.038900E+01	  0.062084168	-1.905700E+01
209	  0.062284570	-6.323000E+00	  0.062284570	-1.333000E+02	  0.062284570	2.022700E+01	  0.062284570	-1.853900E+01
210	  0.062484972	-6.315000E+00	  0.062484972	-1.344610E+02	  0.062484972	2.005500E+01	  0.062484972	-1.805400E+01
211	  0.062685370	-6.314000E+00	  0.062685370	-1.356690E+02	  0.062685370	1.990200E+01	  0.062685370	-1.754500E+01
212	  0.062885776	-6.306000E+00	  0.062885776	-1.368910E+02	  0.062885776	1.973500E+01	  0.062885776	-1.703800E+01
213	  0.063086174	-6.311000E+00	  0.063086174	-1.380730E+02	  0.063086174	1.961100E+01	  0.063086174	-1.654000E+01
214	  0.063286573	-6.311000E+00	  0.063286573	-1.392810E+02	  0.063286573	1.947900E+01	  0.063286573	-1.603800E+01
215	  0.063486971	-6.308000E+00	  0.063486971	-1.404210E+02	  0.063486971	1.934900E+01	  0.063486971	-1.556700E+01
216	  0.063687377	-6.308000E+00	  0.063687377	-1.415900E+02	  0.063687377	1.922600E+01	  0.063687377	-1.508600E+01
217	  0.063887775	-6.302000E+00	  0.063887775	-1.427250E+02	  0.063887775	1.909700E+01	  0.063887775	-1.462300E+01
218	  0.064088173	-6.302000E+00	  0.064088173	-1.439200E+02	  0.064088173	1.898500E+01	  0.064088173	-1.413400E+01
219	  0.064288579	-6.303000E+00	  0.064288579	-1.450650E+02	  0.064288579	1.888200E+01	  0.064288579	-1.366700E+01
220	  0.064488977	-6.309000E+00	  0.064488977	-1.462130E+02	  0.064488977	1.879500E+01	  0.064488977	-1.319800E+01
221	  0.064689375	-6.306000E+00	  0.064689375	-1.473480E+02	  0.064689375	1.869100E+01	  0.064689375	-1.274000E+01
222	  0.064889781	-6.308000E+00	  0.064889781	-1.485000E+02	  0.064889781	1.860200E+01	  0.064889781	-1.227500E+01
223	  0.065090179	-6.309000E+00	  0.065090179	-1.496270E+02	  0.065090179	1.851700E+01	  0.065090179	-1.182200E+01
224	  0.065290578	-6.310000E+00	  0.065290578	-1.507160E+02	  0.065290578	1.843900E+01	  0.065290578	-1.138600E+01
225	  0.065490983	-6.311000E+00	  0.065490983	-1.518570E+02	  0.065490983	1.836100E+01	  0.065490983	-1.093000E+01
226	  0.065691382	-6.313000E+00	  0.065691382	-1.529660E+02	  0.065691382	1.828900E+01	  0.065691382	-1.048800E+01
227	  0.065891780	-6.316000E+00	  0.065891780	-1.540900E+02	  0.065891780	1.822300E+01	  0.065891780	-1.004100E+01
228	  0.066092186	-6.314000E+00	  0.066092186	-1.551890E+02	  0.066092186	1.814900E+01	  0.066092186	-9.607000E+00
229	  0.066292584	-6.315000E+00	  0.066292584	-1.562880E+02	  0.066292584	1.808800E+01	  0.066292584	-9.173000E+00
230	  0.066492982	-6.319000E+00	  0.066492982	-1.573720E+02	  0.066492982	1.803500E+01	  0.066492982	-8.745000E+00
231	  0.066693388	-6.324000E+00	  0.066693388	-1.584510E+02	  0.066693388	1.799000E+01	  0.066693388	-8.320000E+00
232	  0.066893786	-6.326000E+00	  0.066893786	-1.595250E+02	  0.066893786	1.794200E+01	  0.066893786	-7.899000E+00
233	  0.067094192	-6.330000E+00	  0.067094192	-1.605920E+02	  0.067094192	1.790100E+01	  0.067094192	-7.481000E+00
234	  0.067294590	-6.333000E+00	  0.067294590	-1.616880E+02	  0.067294590	1.785900E+01	  0.067294590	-7.053000E+00
235	  0.067494988	-6.337000E+00	  0.067494988	-1.627830E+02	  0.067494988	1.782200E+01	  0.067494988	-6.626000E+00
236	  0.067695394	-6.339000E+00	  0.067695394	-1.638200E+02	  0.067695394	1.778500E+01	  0.067695394	-6.223000E+00
237	  0.067895792	-6.343000E+00	  0.067895792	-1.649030E+02	  0.067895792	1.775700E+01	  0.067895792	-5.802000E+00
238	  0.068096191	-6.346000E+00	  0.068096191	-1.659690E+02	  0.068096191	1.772700E+01	  0.068096191	-5.389000E+00
239	  0.068296596	-6.353000E+00	  0.068296596	-1.670300E+02	  0.068296596	1.770900E+01	  0.068296596	-4.978000E+00
240	  0.068496995	-6.355000E+00	  0.068496995	-1.680680E+02	  0.068496995	1.768400E+01	  0.068496995	-4.577000E+00
241	  0.068697393	-6.364000E+00	  0.068697393	-1.691450E+02	  0.068697393	1.768000E+01	  0.068697393	-4.161000E+00
242	  0.068897791	-6.364000E+00	  0.068897791	-1.701740E+02	  0.068897791	1.765300E+01	  0.068897791	-3.765000E+00
243	  0.069098189	-6.365000E+00	  0.069098189	-1.712120E+02	  0.069098189	1.763300E+01	  0.069098189	-3.366000E+00
244	  0.069298595	-6.366000E+00	  0.069298595	-1.722470E+02	  0.069298595	1.761500E+01	  0.069298595	-2.969000E+00
245	  0.069498993	-6.374000E+00	  0.069498993	-1.732800E+02	  0.069498993	1.761900E+01	  0.069498993	-2.571000E+00
246	  0.069699399	-6.379000E+00	  0.069699399	-1.743360E+02	  0.069699399	1.761500E+01	  0.069699399	-2.166000E+00
247	  0.069899797	-6.385000E+00	  0.069899797	-1.753410E+02	  0.069899797	1.761800E+01	  0.069899797	-1.781000E+00
248	  0.070100196	-6.388000E+00	  0.070100196	-1.763500E+02	  0.070100196	1.761600E+01	  0.070100196	-1.395000E+00
249	  0.070300601	-6.392000E+00	  0.070300601	-1.773420E+02	  0.070300601	1.761900E+01	  0.070300601	-1.015000E+00
250	  0.070501000	-6.398000E+00	  0.070501000	-1.783430E+02	  0.070501000	1.763000E+01	  0.070501000	-6.320000E-01
251	  0.070701398	-6.399000E+00	  0.070701398	-1.793490E+02	  0.070701398	1.762900E+01	  0.070701398	-2.480000E-01
252	  0.070901804	-6.406000E+00	  0.070901804	1.796850E+02	  0.070901804	1.764600E+01	  0.070901804	1.190000E-01
253	  0.071102202	-6.409000E+00	  0.071102202	1.786990E+02	  0.071102202	1.765600E+01	  0.071102202	4.960000E-01
254	  0.071302600	-6.418000E+00	  0.071302600	1.777270E+02	  0.071302600	1.768300E+01	  0.071302600	8.670000E-01
255	  0.071503006	-6.425000E+00	  0.071503006	1.767190E+02	  0.071503006	1.770700E+01	  0.071503006	1.252000E+00
256	  0.071703404	-6.431000E+00	  0.071703404	1.757600E+02	  0.071703404	1.773000E+01	  0.071703404	1.618000E+00
257	  0.071903802	-6.444000E+00	  0.071903802	1.748060E+02	  0.071903802	1.777300E+01	  0.071903802	1.981000E+00
258	  0.072104208	-6.452000E+00	  0.072104208	1.738530E+02	  0.072104208	1.780600E+01	  0.072104208	2.344000E+00
259	  0.072304606	-6.457000E+00	  0.072304606	1.728850E+02	  0.072304606	1.783500E+01	  0.072304606	2.713000E+00
260	  0.072505005	-6.461000E+00	  0.072505005	1.719600E+02	  0.072505005	1.786100E+01	  0.072505005	3.067000E+00
261	  0.072705410	-6.473000E+00	  0.072705410	1.710330E+02	  0.072705410	1.791100E+01	  0.072705410	3.419000E+00
262	  0.072905809	-6.484000E+00	  0.072905809	1.700360E+02	  0.072905809	1.796000E+01	  0.072905809	3.799000E+00
263	  0.073106214	-6.493000E+00	  0.073106214	1.691060E+02	  0.073106214	1.800600E+01	  0.073106214	4.154000E+00
264	  0.073306613	-6.500000E+00	  0.073306613	1.681450E+02	  0.073306613	1.805000E+01	  0.073306613	4.520000E+00
265	  0.073507011	-6.515000E+00	  0.073507011	1.672260E+02	  0.073507011	1.811600E+01	  0.073507011	4.870000E+00
266	  0.073707417	-6.526000E+00	  0.073707417	1.662950E+02	  0.073707417	1.817300E+01	  0.073707417	5.224000E+00
267	  0.073907815	-6.535000E+00	  0.073907815	1.653760E+02	  0.073907815	1.822600E+01	  0.073907815	5.574000E+00
268	  0.074108213	-6.544000E+00	  0.074108213	1.644500E+02	  0.074108213	1.828400E+01	  0.074108213	5.928000E+00
269	  0.074308619	-6.554000E+00	  0.074308619	1.635440E+02	  0.074308619	1.834600E+01	  0.074308619	6.273000E+00
270	  0.074509017	-6.563000E+00	  0.074509017	1.625890E+02	  0.074509017	1.840800E+01	  0.074509017	6.638000E+00
271	  0.074709415	-6.575000E+00	  0.074709415	1.616700E+02	  0.074709415	1.847800E+01	  0.074709415	6.989000E+00
272	  0.074909821	-6.586000E+00	  0.074909821	1.607370E+02	  0.074909821	1.854900E+01	  0.074909821	7.345000E+00
273	  0.075110219	-6.597000E+00	  0.075110219	1.598260E+02	  0.075110219	1.862200E+01	  0.075110219	7.693000E+00
274	  0.075310618	-6.604000E+00	  0.075310618	1.588850E+02	  0.075310618	1.868700E+01	  0.075310618	8.054000E+00
275	  0.075511023	-6.609000E+00	  0.075511023	1.579980E+02	  0.075511023	1.874900E+01	  0.075511023	8.396000E+00
276	  0.075711422	-6.624000E+00	  0.075711422	1.570940E+02	  0.075711422	1.883800E+01	  0.075711422	8.740000E+00
277	  0.075911827	-6.632000E+00	  0.075911827	1.561820E+02	  0.075911827	1.891200E+01	  0.075911827	9.091000E+00
278	  0.076112226	-6.641000E+00	  0.076112226	1.552820E+02	  0.076112226	1.898900E+01	  0.076112226	9.437000E+00
279	  0.076312624	-6.652000E+00	  0.076312624	1.543590E+02	  0.076312624	1.907700E+01	  0.076312624	9.792000E+00
280	  0.076513030	-6.662000E+00	  0.076513030	1.534800E+02	  0.076513030	1.916000E+01	  0.076513030	1.013100E+01
281	  0.076713428	-6.675000E+00	  0.076713428	1.525840E+02	  0.076713428	1.925700E+01	  0.076713428	1.047400E+01
282	  0.076913826	-6.683000E+00	  0.076913826	1.516790E+02	  0.076913826	1.934300E+01	  0.076913826	1.082400E+01
283	  0.077114232	-6.691000E+00	  0.077114232	1.508250E+02	  0.077114232	1.942600E+01	  0.077114232	1.115500E+01
284	  0.077314630	-6.703000E+00	  0.077314630	1.499560E+02	  0.077314630	1.952300E+01	  0.077314630	1.149000E+01
285	  0.077515028	-6.710000E+00	  0.077515028	1.491010E+02	  0.077515028	1.961000E+01	  0.077515028	1.182300E+01
286	  0.077715434	-6.722000E+00	  0.077715434	1.482110E+02	  0.077715434	1.971400E+01	  0.077715434	1.216700E+01
287	  0.077915832	-6.733000E+00	  0.077915832	1.473470E+02	  0.077915832	1.981700E+01	  0.077915832	1.250100E+01
288	  0.078116231	-6.746000E+00	  0.078116231	1.464980E+02	  0.078116231	1.992500E+01	  0.078116231	1.283000E+01
289	  0.078316636	-6.759000E+00	  0.078316636	1.456310E+02	  0.078316636	2.003800E+01	  0.078316636	1.316600E+01
290	  0.078517035	-6.774000E+00	  0.078517035	1.447660E+02	  0.078517035	2.015900E+01	  0.078517035	1.349900E+01
291	  0.078717433	-6.783000E+00	  0.078717433	1.438920E+02	  0.078717433	2.026500E+01	  0.078717433	1.384200E+01
292	  0.078917839	-6.797000E+00	  0.078917839	1.430630E+02	  0.078917839	2.038600E+01	  0.078917839	1.416200E+01
293	  0.079118237	-6.813000E+00	  0.079118237	1.422460E+02	  0.079118237	2.051000E+01	  0.079118237	1.447800E+01
294	  0.079318643	-6.831000E+00	  0.079318643	1.414130E+02	  0.079318643	2.064600E+01	  0.079318643	1.479800E+01
295	  0.079519041	-6.846000E+00	  0.079519041	1.405940E+02	  0.079519041	2.077300E+01	  0.079519041	1.511600E+01
296	  0.079719439	-6.860000E+00	  0.079719439	1.397390E+02	  0.079719439	2.090600E+01	  0.079719439	1.544900E+01
297	  0.079919845	-6.876000E+00	  0.079919845	1.389050E+02	  0.079919845	2.104400E+01	  0.079919845	1.577200E+01
298	  0.080120243	-6.895000E+00	  0.080120243	1.380670E+02	  0.080120243	2.119400E+01	  0.080120243	1.609400E+01
299	  0.080320641	-6.915000E+00	  0.080320641	1.372410E+02	  0.080320641	2.134700E+01	  0.080320641	1.641200E+01
300	  0.080521047	-6.930000E+00	  0.080521047	1.364030E+02	  0.080521047	2.149000E+01	  0.080521047	1.673800E+01
301	  0.080721445	-6.949000E+00	  0.080721445	1.356090E+02	  0.080721445	2.164300E+01	  0.080721445	1.704400E+01
302	  0.080921844	-6.973000E+00	  0.080921844	1.347490E+02	  0.080921844	2.181700E+01	  0.080921844	1.737200E+01
303	  0.081122249	-6.991000E+00	  0.081122249	1.339690E+02	  0.081122249	2.197100E+01	  0.081122249	1.767300E+01
304	  0.081322648	-7.010000E+00	  0.081322648	1.331620E+02	  0.081322648	2.213200E+01	  0.081322648	1.798400E+01
305	  0.081523046	-7.030000E+00	  0.081523046	1.323330E+02	  0.081523046	2.230300E+01	  0.081523046	1.830400E+01
306	  0.081723452	-7.047000E+00	  0.081723452	1.315290E+02	  0.081723452	2.246400E+01	  0.081723452	1.861600E+01
307	  0.081923850	-7.064000E+00	  0.081923850	1.306910E+02	  0.081923850	2.263400E+01	  0.081923850	1.894300E+01
308	  0.082124248	-7.089000E+00	  0.082124248	1.299150E+02	  0.082124248	2.281900E+01	  0.082124248	1.923500E+01
309	  0.082324654	-7.101000E+00	  0.082324654	1.291120E+02	  0.082324654	2.297700E+01	  0.082324654	1.955300E+01
310	  0.082525052	-7.124000E+00	  0.082525052	1.283430E+02	  0.082525052	2.316000E+01	  0.082525052	1.984500E+01
311	  0.082725458	-7.142000E+00	  0.082725458	1.275670E+02	  0.082725458	2.333600E+01	  0.082725458	2.014500E+01
312	  0.082925856	-7.164000E+00	  0.082925856	1.267850E+02	  0.082925856	2.352600E+01	  0.082925856	2.044300E+01
313	  0.083126254	-7.183000E+00	  0.083126254	1.260150E+02	  0.083126254	2.370700E+01	  0.083126254	2.074100E+01
314	  0.083326660	-7.204000E+00	  0.083326660	1.252640E+02	  0.083326660	2.389600E+01	  0.083326660	2.102600E+01
315	  0.083527058	-7.220000E+00	  0.083527058	1.245060E+02	  0.083527058	2.407300E+01	  0.083527058	2.132200E+01
316	  0.083727457	-7.236000E+00	  0.083727457	1.237410E+02	  0.083727457	2.425700E+01	  0.083727457	2.162000E+01
317	  0.083927862	-7.261000E+00	  0.083927862	1.229990E+02	  0.083927862	2.446200E+01	  0.083927862	2.189800E+01
318	  0.084128261	-7.282000E+00	  0.084128261	1.222630E+02	  0.084128261	2.465700E+01	  0.084128261	2.217800E+01
319	  0.084328659	-7.301000E+00	  0.084328659	1.215380E+02	  0.084328659	2.485100E+01	  0.084328659	2.245500E+01
320	  0.084529065	-7.325000E+00	  0.084529065	1.208390E+02	  0.084529065	2.505400E+01	  0.084529065	2.271600E+01
321	  0.084729463	-7.345000E+00	  0.084729463	1.200930E+02	  0.084729463	2.525900E+01	  0.084729463	2.300000E+01
322	  0.084929854	-7.370000E+00	  0.084929854	1.193590E+02	  0.084929854	2.547700E+01	  0.084929854	2.327300E+01
323	  0.085130259	-7.387000E+00	  0.085130259	1.186230E+02	  0.085130259	2.567700E+01	  0.085130259	2.355800E+01
324	  0.085330658	-7.405000E+00	  0.085330658	1.179020E+02	  0.085330658	2.588200E+01	  0.085330658	2.383300E+01
325	  0.085531056	-7.429000E+00	  0.085531056	1.171940E+02	  0.085531056	2.610100E+01	  0.085531056	2.409500E+01
326	  0.085731462	-7.447000E+00	  0.085731462	1.164930E+02	  0.085731462	2.630700E+01	  0.085731462	2.436300E+01
327	  0.085931860	-7.470000E+00	  0.085931860	1.157940E+02	  0.085931860	2.652700E+01	  0.085931860	2.462200E+01
328	  0.086132258	-7.492000E+00	  0.086132258	1.151180E+02	  0.086132258	2.674600E+01	  0.086132258	2.487100E+01
329	  0.086332664	-7.517000E+00	  0.086332664	1.144270E+02	  0.086332664	2.697600E+01	  0.086332664	2.512300E+01
330	  0.086533062	-7.543000E+00	  0.086533062	1.137340E+02	  0.086533062	2.721200E+01	  0.086533062	2.537300E+01
331	  0.086733460	-7.565000E+00	  0.086733460	1.130520E+02	  0.086733460	2.744000E+01	  0.086733460	2.562400E+01
332	  0.086933866	-7.588000E+00	  0.086933866	1.123640E+02	  0.086933866	2.767500E+01	  0.086933866	2.587400E+01
333	  0.087134264	-7.609000E+00	  0.087134264	1.116670E+02	  0.087134264	2.790900E+01	  0.087134264	2.613100E+01
334	  0.087334670	-7.635000E+00	  0.087334670	1.109860E+02	  0.087334670	2.815500E+01	  0.087334670	2.637400E+01
335	  0.087535068	-7.660000E+00	  0.087535068	1.103010E+02	  0.087535068	2.840200E+01	  0.087535068	2.661800E+01
336	  0.087735467	-7.686000E+00	  0.087735467	1.096230E+02	  0.087735467	2.865500E+01	  0.087735467	2.685600E+01
337	  0.087935872	-7.707000E+00	  0.087935872	1.089850E+02	  0.087935872	2.888700E+01	  0.087935872	2.708500E+01
338	  0.088136271	-7.733000E+00	  0.088136271	1.083010E+02	  0.088136271	2.914700E+01	  0.088136271	2.732500E+01
339	  0.088336669	-7.758000E+00	  0.088336669	1.076510E+02	  0.088336669	2.939900E+01	  0.088336669	2.754900E+01
340	  0.088537075	-7.780000E+00	  0.088537075	1.069440E+02	  0.088537075	2.966000E+01	  0.088537075	2.780400E+01
341	  0.088737473	-7.803000E+00	  0.088737473	1.063440E+02	  0.088737473	2.989800E+01	  0.088737473	2.801000E+01
342	  0.088937871	-7.824000E+00	  0.088937871	1.056350E+02	  0.088937871	3.016500E+01	  0.088937871	2.826500E+01
343	  0.089138277	-7.853000E+00	  0.089138277	1.049960E+02	  0.089138277	3.043700E+01	  0.089138277	2.847300E+01
344	  0.089338675	-7.875000E+00	  0.089338675	1.043460E+02	  0.089338675	3.069500E+01	  0.089338675	2.870000E+01
345	  0.089539073	-7.906000E+00	  0.089539073	1.037270E+02	  0.089539073	3.097000E+01	  0.089539073	2.889500E+01
346	  0.089739479	-7.927000E+00	  0.089739479	1.030810E+02	  0.089739479	3.123200E+01	  0.089739479	2.911800E+01
347	  0.089939877	-7.956000E+00	  0.089939877	1.024770E+02	  0.089939877	3.150500E+01	  0.089939877	2.930600E+01
348	  0.090140276	-7.976000E+00	  0.090140276	1.018600E+02	  0.090140276	3.176000E+01	  0.090140276	2.951800E+01
349	  0.090340681	-8.001000E+00	  0.090340681	1.012640E+02	  0.090340681	3.202300E+01	  0.090340681	2.971000E+01
350	  0.090541080	-8.023000E+00	  0.090541080	1.006440E+02	  0.090541080	3.229200E+01	  0.090541080	2.991500E+01
351	  0.090741485	-8.046000E+00	  0.090741485	1.000320E+02	  0.090741485	3.256200E+01	  0.090741485	3.011500E+01
352	  0.090941884	-8.076000E+00	  0.090941884	9.944000E+01	  0.090941884	3.284700E+01	  0.090941884	3.028900E+01
353	  0.091142282	-8.107000E+00	  0.091142282	9.887400E+01	  0.091142282	3.312700E+01	  0.091142282	3.044900E+01
354	  0.091342688	-8.134000E+00	  0.091342688	9.827200E+01	  0.091342688	3.341300E+01	  0.091342688	3.063000E+01
355	  0.091543086	-8.160000E+00	  0.091543086	9.772100E+01	  0.091543086	3.368000E+01	  0.091543086	3.079200E+01
356	  0.091743484	-8.182000E+00	  0.091743484	9.714600E+01	  0.091743484	3.394800E+01	  0.091743484	3.097000E+01
357	  0.091943890	-8.208000E+00	  0.091943890	9.656600E+01	  0.091943890	3.423300E+01	  0.091943890	3.113800E+01
358	  0.092144288	-8.235000E+00	  0.092144288	9.596400E+01	  0.092144288	3.453000E+01	  0.092144288	3.131200E+01
359	  0.092344686	-8.256000E+00	  0.092344686	9.540600E+01	  0.092344686	3.479500E+01	  0.092344686	3.148400E+01
360	  0.092545092	-8.284000E+00	  0.092545092	9.487300E+01	  0.092545092	3.507400E+01	  0.092545092	3.162400E+01
361	  0.092745490	-8.313000E+00	  0.092745490	9.434100E+01	  0.092745490	3.535800E+01	  0.092745490	3.175900E+01
362	  0.092945889	-8.341000E+00	  0.092945889	9.379500E+01	  0.092945889	3.564500E+01	  0.092945889	3.190200E+01
363	  0.093146294	-8.365000E+00	  0.093146294	9.330100E+01	  0.093146294	3.590400E+01	  0.093146294	3.203200E+01
364	  0.093346693	-8.391000E+00	  0.093346693	9.276500E+01	  0.093346693	3.618900E+01	  0.093346693	3.217000E+01
365	  0.093547091	-8.415000E+00	  0.093547091	9.224400E+01	  0.093547091	3.646200E+01	  0.093547091	3.230800E+01
366	  0.093747497	-8.440000E+00	  0.093747497	9.169800E+01	  0.093747497	3.675100E+01	  0.093747497	3.245000E+01
367	  0.093947895	-8.464000E+00	  0.093947895	9.120900E+01	  0.093947895	3.701600E+01	  0.093947895	3.257200E+01
368	  0.094148301	-8.486000E+00	  0.094148301	9.067100E+01	  0.094148301	3.730100E+01	  0.094148301	3.271400E+01
369	  0.094348699	-8.509000E+00	  0.094348699	9.019400E+01	  0.094348699	3.756300E+01	  0.094348699	3.283000E+01
370	  0.094549097	-8.536000E+00	  0.094549097	8.973700E+01	  0.094549097	3.782800E+01	  0.094549097	3.292600E+01
371	  0.094749503	-8.556000E+00	  0.094749503	8.920900E+01	  0.094749503	3.810700E+01	  0.094749503	3.306700E+01
372	  0.094949901	-8.578000E+00	  0.094949901	8.873600E+01	  0.094949901	3.837100E+01	  0.094949901	3.317800E+01
373	  0.095150299	-8.596000E+00	  0.095150299	8.827100E+01	  0.095150299	3.862200E+01	  0.095150299	3.329800E+01
374	  0.095350705	-8.615000E+00	  0.095350705	8.775300E+01	  0.095350705	3.890200E+01	  0.095350705	3.343300E+01
375	  0.095551103	-8.633000E+00	  0.095551103	8.730100E+01	  0.095551103	3.915200E+01	  0.095551103	3.354300E+01
376	  0.095751502	-8.656000E+00	  0.095751502	8.683400E+01	  0.095751502	3.942300E+01	  0.095751502	3.364300E+01
377	  0.095951907	-8.669000E+00	  0.095951907	8.637500E+01	  0.095951907	3.966700E+01	  0.095951907	3.376900E+01
378	  0.096152306	-8.686000E+00	  0.096152306	8.592400E+01	  0.096152306	3.992000E+01	  0.096152306	3.387800E+01
379	  0.096352704	-8.699000E+00	  0.096352704	8.549200E+01	  0.096352704	4.015500E+01	  0.096352704	3.399300E+01
380	  0.096553110	-8.713000E+00	  0.096553110	8.504300E+01	  0.096553110	4.040300E+01	  0.096553110	3.410800E+01
381	  0.096753508	-8.727000E+00	  0.096753508	8.463000E+01	  0.096753508	4.063500E+01	  0.096753508	3.420900E+01
382	  0.096953906	-8.740000E+00	  0.096953906	8.421600E+01	  0.096953906	4.086700E+01	  0.096953906	3.431300E+01
383	  0.097154312	-8.751000E+00	  0.097154312	8.377200E+01	  0.097154312	4.111100E+01	  0.097154312	3.443300E+01
384	  0.097354710	-8.769000E+00	  0.097354710	8.334500E+01	  0.097354710	4.136400E+01	  0.097354710	3.452100E+01
385	  0.097555116	-8.778000E+00	  0.097555116	8.294200E+01	  0.097555116	4.158600E+01	  0.097555116	3.463100E+01
386	  0.097755514	-8.787000E+00	  0.097755514	8.252100E+01	  0.097755514	4.181900E+01	  0.097755514	3.474400E+01
387	  0.097955912	-8.796000E+00	  0.097955912	8.213600E+01	  0.097955912	4.203500E+01	  0.097955912	3.484500E+01
388	  0.098156318	-8.806000E+00	  0.098156318	8.173700E+01	  0.098156318	4.226300E+01	  0.098156318	3.494600E+01
389	  0.098356716	-8.809000E+00	  0.098356716	8.131900E+01	  0.098356716	4.248500E+01	  0.098356716	3.508000E+01
390	  0.098557115	-8.818000E+00	  0.098557115	8.091900E+01	  0.098557115	4.271400E+01	  0.098557115	3.518200E+01
391	  0.098757520	-8.824000E+00	  0.098757520	8.051200E+01	  0.098757520	4.294100E+01	  0.098757520	3.529700E+01
392	  0.098957919	-8.831000E+00	  0.098957919	8.008800E+01	  0.098957919	4.318200E+01	  0.098957919	3.541200E+01
393	  0.099158317	-8.834000E+00	  0.099158317	7.969600E+01	  0.099158317	4.340000E+01	  0.099158317	3.552800E+01
394	  0.099358723	-8.841000E+00	  0.099358723	7.928000E+01	  0.099358723	4.363900E+01	  0.099358723	3.564100E+01
395	  0.099559121	-8.841000E+00	  0.099559121	7.888100E+01	  0.099559121	4.385600E+01	  0.099559121	3.577200E+01
396	  0.099759519	-8.845000E+00	  0.099759519	7.849000E+01	  0.099759519	4.408000E+01	  0.099759519	3.588300E+01
397	  0.099959925	-8.841000E+00	  0.099959925	7.809300E+01	  0.099959925	4.429100E+01	  0.099959925	3.602500E+01
398	  0.100160323	-8.839000E+00	  0.100160323	7.768500E+01	  0.100160323	4.451600E+01	  0.100160323	3.616200E+01
399	  0.100360721	-8.838000E+00	  0.100360721	7.723800E+01	  0.100360721	4.476600E+01	  0.100360721	3.630700E+01
400	  0.100561127	-8.836000E+00	  0.100561127	7.683700E+01	  0.100561127	4.499100E+01	  0.100561127	3.644100E+01
401	  0.100761525	-8.835000E+00	  0.100761525	7.640800E+01	  0.100761525	4.523500E+01	  0.100761525	3.658100E+01
402	  0.100961931	-8.825000E+00	  0.100961931	7.595200E+01	  0.100961931	4.548000E+01	  0.100961931	3.676100E+01
403	  0.101162329	-8.823000E+00	  0.101162329	7.554600E+01	  0.101162329	4.571200E+01	  0.101162329	3.689700E+01
404	  0.101362728	-8.815000E+00	  0.101362728	7.504500E+01	  0.101362728	4.599200E+01	  0.101362728	3.708200E+01
405	  0.101563133	-8.813000E+00	  0.101563133	7.468900E+01	  0.101563133	4.620200E+01	  0.101563133	3.719700E+01
406	  0.101763532	-8.795000E+00	  0.101763532	7.428400E+01	  0.101763532	4.640900E+01	  0.101763532	3.739300E+01
407	  0.101963930	-8.790000E+00	  0.101963930	7.385100E+01	  0.101963930	4.666300E+01	  0.101963930	3.754500E+01
408	  0.102164328	-8.781000E+00	  0.102164328	7.331700E+01	  0.102164328	4.697400E+01	  0.102164328	3.774100E+01
409	  0.102364726	-8.775000E+00	  0.102364726	7.283900E+01	  0.102364726	4.726000E+01	  0.102364726	3.790800E+01
410	  0.102565125	-8.756000E+00	  0.102565125	7.242300E+01	  0.102565125	4.748300E+01	  0.102565125	3.811200E+01
411	  0.102765530	-8.744000E+00	  0.102765530	7.192700E+01	  0.102765530	4.777600E+01	  0.102765530	3.830800E+01
412	  0.102965929	-8.725000E+00	  0.102965929	7.151100E+01	  0.102965929	4.800600E+01	  0.102965929	3.850900E+01
413	  0.103166327	-8.706000E+00	  0.103166327	7.095600E+01	  0.103166327	4.833000E+01	  0.103166327	3.875400E+01
414	  0.103366733	-8.689000E+00	  0.103366733	7.058000E+01	  0.103366733	4.854500E+01	  0.103366733	3.893400E+01
415	  0.103567131	-8.674000E+00	  0.103567131	7.008800E+01	  0.103567131	4.884300E+01	  0.103567131	3.914300E+01
416	  0.103767529	-8.660000E+00	  0.103767529	6.959800E+01	  0.103767529	4.914400E+01	  0.103767529	3.934700E+01
417	  0.103967935	-8.639000E+00	  0.103967935	6.910500E+01	  0.103967935	4.944000E+01	  0.103967935	3.958000E+01
418	  0.104168333	-8.623000E+00	  0.104168333	6.861300E+01	  0.104168333	4.974800E+01	  0.104168333	3.979200E+01
419	  0.104368731	-8.601000E+00	  0.104368731	6.805600E+01	  0.104368731	5.009600E+01	  0.104368731	4.004600E+01
420	  0.104569137	-8.585000E+00	  0.104569137	6.753700E+01	  0.104569137	5.043300E+01	  0.104569137	4.026500E+01
421	  0.104769535	-8.564000E+00	  0.104769535	6.703500E+01	  0.104769535	5.075200E+01	  0.104769535	4.050200E+01
422	  0.104969934	-8.548000E+00	  0.104969934	6.654300E+01	  0.104969934	5.107800E+01	  0.104969934	4.071300E+01
423	  0.105170339	-8.521000E+00	  0.105170339	6.602100E+01	  0.105170339	5.141200E+01	  0.105170339	4.098300E+01
424	  0.105370738	-8.499000E+00	  0.105370738	6.550600E+01	  0.105370738	5.175400E+01	  0.105370738	4.122800E+01
425	  0.105571143	-8.491000E+00	  0.105571143	6.496400E+01	  0.105571143	5.214700E+01	  0.105571143	4.141000E+01
426	  0.105771542	-8.466000E+00	  0.105771542	6.436500E+01	  0.105771542	5.255900E+01	  0.105771542	4.168900E+01
427	  0.105971940	-8.448000E+00	  0.105971940	6.387400E+01	  0.105971940	5.290600E+01	  0.105971940	4.190700E+01
428	  0.106172346	-8.428000E+00	  0.106172346	6.328600E+01	  0.106172346	5.333000E+01	  0.106172346	4.216100E+01
429	  0.106372744	-8.416000E+00	  0.106372744	6.271700E+01	  0.106372744	5.376000E+01	  0.106372744	4.236400E+01
430	  0.106573142	-8.385000E+00	  0.106573142	6.214400E+01	  0.106573142	5.417000E+01	  0.106573142	4.266400E+01
431	  0.106773548	-8.370000E+00	  0.106773548	6.149500E+01	  0.106773548	5.467400E+01	  0.106773548	4.290000E+01
432	  0.106973946	-8.354000E+00	  0.106973946	6.095600E+01	  0.106973946	5.509200E+01	  0.106973946	4.311500E+01
433	  0.107174344	-8.335000E+00	  0.107174344	6.031100E+01	  0.107174344	5.560400E+01	  0.107174344	4.336400E+01
434	  0.107374750	-8.320000E+00	  0.107374750	5.967900E+01	  0.107374750	5.611600E+01	  0.107374750	4.359100E+01
435	  0.107575148	-8.305000E+00	  0.107575148	5.902200E+01	  0.107575148	5.666100E+01	  0.107575148	4.381500E+01
436	  0.107775547	-8.286000E+00	  0.107775547	5.843000E+01	  0.107775547	5.715200E+01	  0.107775547	4.404900E+01
437	  0.107975952	-8.269000E+00	  0.107975952	5.778200E+01	  0.107975952	5.770300E+01	  0.107975952	4.427800E+01
438	  0.108176351	-8.246000E+00	  0.108176351	5.708700E+01	  0.108176351	5.829800E+01	  0.108176351	4.454900E+01
439	  0.108376749	-8.231000E+00	  0.108376749	5.649000E+01	  0.108376749	5.882500E+01	  0.108376749	4.475200E+01
440	  0.108577155	-8.216000E+00	  0.108577155	5.581400E+01	  0.108577155	5.943300E+01	  0.108577155	4.496400E+01
441	  0.108777553	-8.205000E+00	  0.108777553	5.510000E+01	  0.108777553	6.009200E+01	  0.108777553	4.514800E+01
442	  0.108977959	-8.193000E+00	  0.108977959	5.443400E+01	  0.108977959	6.071500E+01	  0.108977959	4.532900E+01
443	  0.109178357	-8.173000E+00	  0.109178357	5.369000E+01	  0.109178357	6.141600E+01	  0.109178357	4.556300E+01
444	  0.109378755	-8.162000E+00	  0.109378755	5.302200E+01	  0.109378755	6.206500E+01	  0.109378755	4.572500E+01
445	  0.109579161	-8.141000E+00	  0.109579161	5.223100E+01	  0.109579161	6.283800E+01	  0.109579161	4.595900E+01
446	  0.109779559	-8.129000E+00	  0.109779559	5.158100E+01	  0.109779559	6.348900E+01	  0.109779559	4.611100E+01
447	  0.109979957	-8.116000E+00	  0.109979957	5.084800E+01	  0.109979957	6.423500E+01	  0.109979957	4.627400E+01
448	  0.110180363	-8.101000E+00	  0.110180363	5.010100E+01	  0.110180363	6.500800E+01	  0.110180363	4.643700E+01
449	  0.110380761	-8.089000E+00	  0.110380761	4.936000E+01	  0.110380761	6.578900E+01	  0.110380761	4.657400E+01
450	  0.110581160	-8.075000E+00	  0.110581160	4.859100E+01	  0.110581160	6.661400E+01	  0.110581160	4.670800E+01
451	  0.110781565	-8.070000E+00	  0.110781565	4.785000E+01	  0.110781565	6.742300E+01	  0.110781565	4.676900E+01
452	  0.110981964	-8.060000E+00	  0.110981964	4.708000E+01	  0.110981964	6.827600E+01	  0.110981964	4.685600E+01
453	  0.111182362	-8.054000E+00	  0.111182362	4.631400E+01	  0.111182362	6.913700E+01	  0.111182362	4.689600E+01
454	  0.111382768	-8.042000E+00	  0.111382768	4.556600E+01	  0.111382768	6.999100E+01	  0.111382768	4.696900E+01
455	  0.111583166	-8.041000E+00	  0.111583166	4.476600E+01	  0.111583166	7.091500E+01	  0.111583166	4.694500E+01
456	  0.111783572	-8.031000E+00	  0.111783572	4.401400E+01	  0.111783572	7.179900E+01	  0.111783572	4.696700E+01
457	  0.111983970	-8.028000E+00	  0.111983970	4.317900E+01	  0.111983970	7.279100E+01	  0.111983970	4.692000E+01
458	  0.112184368	-8.027000E+00	  0.112184368	4.238200E+01	  0.112184368	7.374700E+01	  0.112184368	4.683300E+01
459	  0.112384774	-8.022000E+00	  0.112384774	4.157300E+01	  0.112384774	7.473200E+01	  0.112384774	4.675100E+01
460	  0.112585172	-8.018000E+00	  0.112585172	4.074900E+01	  0.112585172	7.574700E+01	  0.112585172	4.664300E+01
461	  0.112785570	-8.020000E+00	  0.112785570	3.995500E+01	  0.112785570	7.672900E+01	  0.112785570	4.646700E+01
462	  0.112985976	-8.026000E+00	  0.112985976	3.910600E+01	  0.112985976	7.778100E+01	  0.112985976	4.622700E+01
463	  0.113186374	-8.030000E+00	  0.113186374	3.827300E+01	  0.113186374	7.882500E+01	  0.113186374	4.597700E+01
464	  0.113386773	-8.032000E+00	  0.113386773	3.742000E+01	  0.113386773	7.990400E+01	  0.113386773	4.570600E+01
465	  0.113587178	-8.048000E+00	  0.113587178	3.656300E+01	  0.113587178	8.096300E+01	  0.113587178	4.528700E+01
466	  0.113787577	-8.051000E+00	  0.113787577	3.568700E+01	  0.113787577	8.208000E+01	  0.113787577	4.493600E+01
467	  0.113987975	-8.051000E+00	  0.113987975	3.473500E+01	  0.113987975	8.330900E+01	  0.113987975	4.454600E+01
468	  0.114188381	-8.067000E+00	  0.114188381	3.389300E+01	  0.114188381	8.435200E+01	  0.114188381	4.403100E+01
469	  0.114388779	-8.078000E+00	  0.114388779	3.294400E+01	  0.114388779	8.555200E+01	  0.114388779	4.348000E+01
470	  0.114589177	-8.089000E+00	  0.114589177	3.210000E+01	  0.114589177	8.660500E+01	  0.114589177	4.293000E+01
471	  0.114789583	-8.102000E+00	  0.114789583	3.112000E+01	  0.114789583	8.782800E+01	  0.114789583	4.225700E+01
472	  0.114989981	-8.114000E+00	  0.114989981	3.020900E+01	  0.114989981	8.895700E+01	  0.114989981	4.158900E+01
473	  0.115190387	-8.137000E+00	  0.115190387	2.924500E+01	  0.115190387	9.009900E+01	  0.115190387	4.075700E+01
474	  0.115390785	-8.153000E+00	  0.115390785	2.828200E+01	  0.115390785	9.125100E+01	  0.115390785	3.993000E+01
475	  0.115591183	-8.179000E+00	  0.115591183	2.730100E+01	  0.115591183	9.236300E+01	  0.115591183	3.896700E+01
476	  0.115791589	-8.195000E+00	  0.115791589	2.631100E+01	  0.115791589	9.351100E+01	  0.115791589	3.802900E+01
477	  0.115991987	-8.219000E+00	  0.115991987	2.533200E+01	  0.115991987	9.458200E+01	  0.115991987	3.699000E+01
478	  0.116192386	-8.242000E+00	  0.116192386	2.432400E+01	  0.116192386	9.566000E+01	  0.116192386	3.588600E+01
479	  0.116392791	-8.263000E+00	  0.116392791	2.333100E+01	  0.116392791	9.670900E+01	  0.116392791	3.477300E+01
480	  0.116593190	-8.300000E+00	  0.116593190	2.231300E+01	  0.116593190	9.763700E+01	  0.116593190	3.345900E+01
481	  0.116793588	-8.330000E+00	  0.116793588	2.124800E+01	  0.116793588	9.862700E+01	  0.116793588	3.211400E+01
482	  0.116993994	-8.365000E+00	  0.116993994	2.020600E+01	  0.116993994	9.950600E+01	  0.116993994	3.071300E+01
483	  0.117194392	-8.394000E+00	  0.117194392	1.916200E+01	  0.117194392	1.003810E+02	  0.117194392	2.931400E+01
484	  0.117394790	-8.429000E+00	  0.117394790	1.808100E+01	  0.117394790	1.011860E+02	  0.117394790	2.778600E+01
485	  0.117595196	-8.474000E+00	  0.117595196	1.704300E+01	  0.117595196	1.018170E+02	  0.117595196	2.622400E+01
486	  0.117795594	-8.515000E+00	  0.117795594	1.596000E+01	  0.117795594	1.024550E+02	  0.117795594	2.460100E+01
487	  0.117995992	-8.563000E+00	  0.117995992	1.485700E+01	  0.117995992	1.029800E+02	  0.117995992	2.289100E+01
