! Anritsu VNA Master:             	Model: MS2036C/10/77
! SN:             	1601066
! /bd0/18may10/252.ew.m4.txt
! Existing Calibration Information:
! TYPE:             	Current Settings	Active Cal Settings
! TIME:             	05/10/2018 06:30:38 PM	05/10/2018 06:18:15 PM
! INTERNAL TEMP:    	60.5 C	60.0 C
! # POINTS:         	487	487
! START FREQ:       	20.601 202 MHz	20.601 202 MHz
! STOP FREQ:        	117.995 991 MHz	117.995 991 MHz
! SOURCE POWER:     	High	High
! IFBW:             	50 Hz	50 Hz
! AVG FACTOR:       	  1 	  1 
! REF PLANE 1:      	0 mm	0 mm
! REF PLANE 2:      	0 mm	0 mm
! CAL TYPE:         	Full S22	Full S22
! CAL METHOD:       	SOLT	SOLT
! CAL LINE TYPE:    	Coax	Coax
! DUT PORT 1:       	K-Conn(M)	K-Conn(M)
! DUT PORT 2:       	K-Conn(M)	K-Conn(M)
! CAL STATUS:       	OK: Accuracy High	--
! PROP-V:       	0.700
! CABLE LOSS:       	0.000 dB/m
! REF IMPEDANCE:       	50.0
! Trace Specific Parameters:	TR1	TR2	TR3	TR4
! TRACE.#.Y (GRAPH TYPE)	LOG MAG	PHASE	REAL IMPEDANCE	IMAGINARY IMPEDANCE
! TRACE.#.X 	FREQ.GHZ	FREQ.GHZ	FREQ.GHZ	FREQ.GHZ
! S-PARAMETER	S22	S22	S22	S22
! SMOOTH/APERTURE %	0	0	0	0
! WINDOW	NSL	NSL	NSL	NSL
! GATING	OFF	OFF	OFF	OFF
! FGTD	OFF	OFF	OFF	OFF
Marker Information per Trace:	TR1	TR2	TR3	TR4
!MK1	--	"MK1 TR2:  20.000 MHz,##.##"	--	--
!MK2	--	--	"MK2 TR3:  70.100 200 MHz,Z:(17.674 ohm, -1.907 ohm)"	--
!MK3	--	--	--	--
!MK4	--	--	--	--
!MK5	--	--	--	--
!MK6	--	--	--	--
!MK7	--	--	--	--
!MK8	--	--	--	--
PNT	TR1.FREQ.GHZ	TR1.LOG MAG.dB	TR2.FREQ.GHZ	TR2.PHASE.deg	TR3.FREQ.GHZ	TR3.REAL IMPEDANCE.ohm	TR4.FREQ.GHZ	TR4.IMAGINARY IMPEDANCE.ohm
1	  0.020601204	-6.470000E-01	  0.020601204	-1.294070E+02	  0.020601204	2.279000E+00	  0.020601204	-2.359000E+01
2	  0.020801604	-6.520000E-01	  0.020801604	-1.309180E+02	  0.020801604	2.268000E+00	  0.020801604	-2.279000E+01
3	  0.021002004	-6.540000E-01	  0.021002004	-1.324520E+02	  0.021002004	2.248000E+00	  0.021002004	-2.198700E+01
4	  0.021202406	-6.580000E-01	  0.021202406	-1.339850E+02	  0.021202406	2.235000E+00	  0.021202406	-2.119500E+01
5	  0.021402806	-6.600000E-01	  0.021402806	-1.355420E+02	  0.021402806	2.218000E+00	  0.021402806	-2.039900E+01
6	  0.021603208	-6.630000E-01	  0.021603208	-1.370710E+02	  0.021603208	2.204000E+00	  0.021603208	-1.962600E+01
7	  0.021803608	-6.670000E-01	  0.021803608	-1.386130E+02	  0.021803608	2.193000E+00	  0.021803608	-1.885400E+01
8	  0.022004008	-6.740000E-01	  0.022004008	-1.401600E+02	  0.022004008	2.193000E+00	  0.022004008	-1.808800E+01
9	  0.022204408	-6.760000E-01	  0.022204408	-1.417450E+02	  0.022204408	2.181000E+00	  0.022204408	-1.731100E+01
10	  0.022404809	-6.810000E-01	  0.022404809	-1.433480E+02	  0.022404809	2.174000E+00	  0.022404809	-1.653200E+01
11	  0.022605211	-6.830000E-01	  0.022605211	-1.449420E+02	  0.022605211	2.163000E+00	  0.022605211	-1.576500E+01
12	  0.022805611	-6.880000E-01	  0.022805611	-1.465480E+02	  0.022805611	2.157000E+00	  0.022805611	-1.499900E+01
13	  0.023006011	-6.920000E-01	  0.023006011	-1.481500E+02	  0.023006011	2.155000E+00	  0.023006011	-1.424100E+01
14	  0.023206413	-6.950000E-01	  0.023206413	-1.497430E+02	  0.023206413	2.146000E+00	  0.023206413	-1.349400E+01
15	  0.023406813	-6.970000E-01	  0.023406813	-1.513510E+02	  0.023406813	2.136000E+00	  0.023406813	-1.274500E+01
16	  0.023607215	-7.020000E-01	  0.023607215	-1.529510E+02	  0.023607215	2.138000E+00	  0.023607215	-1.200500E+01
17	  0.023807615	-7.110000E-01	  0.023807615	-1.545440E+02	  0.023807615	2.149000E+00	  0.023807615	-1.127300E+01
18	  0.024008015	-7.200000E-01	  0.024008015	-1.561740E+02	  0.024008015	2.163000E+00	  0.024008015	-1.052900E+01
19	  0.024208417	-7.260000E-01	  0.024208417	-1.578190E+02	  0.024208417	2.169000E+00	  0.024208417	-9.782000E+00
20	  0.024408817	-7.320000E-01	  0.024408817	-1.594620E+02	  0.024408817	2.174000E+00	  0.024408817	-9.041000E+00
21	  0.024609219	-7.380000E-01	  0.024609219	-1.611020E+02	  0.024609219	2.184000E+00	  0.024609219	-8.305000E+00
22	  0.024809619	-7.460000E-01	  0.024809619	-1.627500E+02	  0.024809619	2.197000E+00	  0.024809619	-7.569000E+00
23	  0.025010020	-7.570000E-01	  0.025010020	-1.643950E+02	  0.025010020	2.220000E+00	  0.025010020	-6.837000E+00
24	  0.025210422	-7.680000E-01	  0.025210422	-1.660490E+02	  0.025210422	2.242000E+00	  0.025210422	-6.105000E+00
25	  0.025410822	-7.800000E-01	  0.025410822	-1.677200E+02	  0.025410822	2.271000E+00	  0.025410822	-5.367000E+00
26	  0.025611224	-7.920000E-01	  0.025611224	-1.693930E+02	  0.025611224	2.299000E+00	  0.025611224	-4.631000E+00
27	  0.025811624	-8.040000E-01	  0.025811624	-1.710930E+02	  0.025811624	2.328000E+00	  0.025811624	-3.885000E+00
28	  0.026012026	-8.150000E-01	  0.026012026	-1.728100E+02	  0.026012026	2.355000E+00	  0.026012026	-3.134000E+00
29	  0.026212426	-8.280000E-01	  0.026212426	-1.745240E+02	  0.026212426	2.386000E+00	  0.026212426	-2.385000E+00
30	  0.026412826	-8.440000E-01	  0.026412826	-1.762550E+02	  0.026412826	2.431000E+00	  0.026412826	-1.630000E+00
31	  0.026613226	-8.600000E-01	  0.026613226	-1.780030E+02	  0.026613226	2.475000E+00	  0.026613226	-8.690000E-01
32	  0.026813626	-8.760000E-01	  0.026813626	-1.797620E+02	  0.026813626	2.521000E+00	  0.026813626	-1.030000E-01
33	  0.027014028	-8.940000E-01	  0.027014028	1.784640E+02	  0.027014028	2.573000E+00	  0.027014028	6.680000E-01
34	  0.027214428	-9.110000E-01	  0.027214428	1.766850E+02	  0.027214428	2.622000E+00	  0.027214428	1.442000E+00
35	  0.027414829	-9.280000E-01	  0.027414829	1.748980E+02	  0.027414829	2.676000E+00	  0.027414829	2.221000E+00
36	  0.027615231	-9.470000E-01	  0.027615231	1.730850E+02	  0.027615231	2.734000E+00	  0.027615231	3.011000E+00
37	  0.027815631	-9.660000E-01	  0.027815631	1.712620E+02	  0.027815631	2.795000E+00	  0.027815631	3.807000E+00
38	  0.028016033	-9.850000E-01	  0.028016033	1.694180E+02	  0.028016033	2.856000E+00	  0.028016033	4.615000E+00
39	  0.028216433	-1.006000E+00	  0.028216433	1.675730E+02	  0.028216433	2.929000E+00	  0.028216433	5.424000E+00
40	  0.028416833	-1.027000E+00	  0.028416833	1.657170E+02	  0.028416833	2.999000E+00	  0.028416833	6.242000E+00
41	  0.028617235	-1.047000E+00	  0.028617235	1.638590E+02	  0.028617235	3.072000E+00	  0.028617235	7.063000E+00
42	  0.028817635	-1.069000E+00	  0.028817635	1.619890E+02	  0.028817635	3.150000E+00	  0.028817635	7.893000E+00
43	  0.029018037	-1.093000E+00	  0.029018037	1.601400E+02	  0.029018037	3.238000E+00	  0.029018037	8.717000E+00
44	  0.029218437	-1.117000E+00	  0.029218437	1.582640E+02	  0.029218437	3.329000E+00	  0.029218437	9.558000E+00
45	  0.029418837	-1.140000E+00	  0.029418837	1.563650E+02	  0.029418837	3.419000E+00	  0.029418837	1.041400E+01
46	  0.029619239	-1.165000E+00	  0.029619239	1.544670E+02	  0.029619239	3.520000E+00	  0.029619239	1.127500E+01
47	  0.029819639	-1.192000E+00	  0.029819639	1.525750E+02	  0.029819639	3.629000E+00	  0.029819639	1.213900E+01
48	  0.030020041	-1.219000E+00	  0.030020041	1.506640E+02	  0.030020041	3.742000E+00	  0.030020041	1.301800E+01
49	  0.030220442	-1.245000E+00	  0.030220442	1.487560E+02	  0.030220442	3.858000E+00	  0.030220442	1.390300E+01
50	  0.030420844	-1.274000E+00	  0.030420844	1.468440E+02	  0.030420844	3.983000E+00	  0.030420844	1.479700E+01
51	  0.030621244	-1.303000E+00	  0.030621244	1.449420E+02	  0.030621244	4.117000E+00	  0.030621244	1.569500E+01
52	  0.030821642	-1.336000E+00	  0.030821642	1.430280E+02	  0.030821642	4.266000E+00	  0.030821642	1.660600E+01
53	  0.031022044	-1.369000E+00	  0.031022044	1.410940E+02	  0.031022044	4.422000E+00	  0.031022044	1.753600E+01
54	  0.031222444	-1.397000E+00	  0.031222444	1.391720E+02	  0.031222444	4.564000E+00	  0.031222444	1.847100E+01
55	  0.031422846	-1.434000E+00	  0.031422846	1.372190E+02	  0.031422846	4.747000E+00	  0.031422846	1.943100E+01
56	  0.031623244	-1.469000E+00	  0.031623244	1.352390E+02	  0.031623244	4.928000E+00	  0.031623244	2.041700E+01
57	  0.031823646	-1.509000E+00	  0.031823646	1.332680E+02	  0.031823646	5.134000E+00	  0.031823646	2.140900E+01
58	  0.032024048	-1.549000E+00	  0.032024048	1.312890E+02	  0.032024048	5.350000E+00	  0.032024048	2.241800E+01
59	  0.032224450	-1.590000E+00	  0.032224450	1.292830E+02	  0.032224450	5.578000E+00	  0.032224450	2.345500E+01
60	  0.032424849	-1.632000E+00	  0.032424849	1.272810E+02	  0.032424849	5.822000E+00	  0.032424849	2.450500E+01
61	  0.032625251	-1.673000E+00	  0.032625251	1.252550E+02	  0.032625251	6.075000E+00	  0.032625251	2.558400E+01
62	  0.032825653	-1.715000E+00	  0.032825653	1.232190E+02	  0.032825653	6.339000E+00	  0.032825653	2.668600E+01
63	  0.033026051	-1.758000E+00	  0.033026051	1.211670E+02	  0.033026051	6.626000E+00	  0.033026051	2.781500E+01
64	  0.033226453	-1.798000E+00	  0.033226453	1.190960E+02	  0.033226453	6.916000E+00	  0.033226453	2.897500E+01
65	  0.033426855	-1.844000E+00	  0.033426855	1.170380E+02	  0.033426855	7.240000E+00	  0.033426855	3.014800E+01
66	  0.033627257	-1.889000E+00	  0.033627257	1.149860E+02	  0.033627257	7.582000E+00	  0.033627257	3.133800E+01
67	  0.033827655	-1.932000E+00	  0.033827655	1.129090E+02	  0.033827655	7.930000E+00	  0.033827655	3.256800E+01
68	  0.034028057	-1.979000E+00	  0.034028057	1.108490E+02	  0.034028057	8.315000E+00	  0.034028057	3.381000E+01
69	  0.034228459	-2.025000E+00	  0.034228459	1.087730E+02	  0.034228459	8.722000E+00	  0.034228459	3.508800E+01
70	  0.034428857	-2.070000E+00	  0.034428857	1.066910E+02	  0.034428857	9.146000E+00	  0.034428857	3.639900E+01
71	  0.034629259	-2.119000E+00	  0.034629259	1.045970E+02	  0.034629259	9.611000E+00	  0.034629259	3.774400E+01
72	  0.034829661	-2.163000E+00	  0.034829661	1.025060E+02	  0.034829661	1.008500E+01	  0.034829661	3.912100E+01
73	  0.035030060	-2.215000E+00	  0.035030060	1.004120E+02	  0.035030060	1.062400E+01	  0.035030060	4.052600E+01
74	  0.035230462	-2.268000E+00	  0.035230462	9.833000E+01	  0.035230462	1.119900E+01	  0.035230462	4.195500E+01
75	  0.035430863	-2.315000E+00	  0.035430863	9.626900E+01	  0.035430863	1.178000E+01	  0.035430863	4.340800E+01
76	  0.035631265	-2.367000E+00	  0.035631265	9.417700E+01	  0.035631265	1.242500E+01	  0.035631265	4.491600E+01
77	  0.035831664	-2.418000E+00	  0.035831664	9.210500E+01	  0.035831664	1.310900E+01	  0.035831664	4.644700E+01
78	  0.036032066	-2.469000E+00	  0.036032066	9.002500E+01	  0.036032066	1.384000E+01	  0.036032066	4.802400E+01
79	  0.036232468	-2.521000E+00	  0.036232468	8.796000E+01	  0.036232468	1.461800E+01	  0.036232468	4.962800E+01
80	  0.036432866	-2.574000E+00	  0.036432866	8.587500E+01	  0.036432866	1.546500E+01	  0.036432866	5.129000E+01
81	  0.036633268	-2.627000E+00	  0.036633268	8.382700E+01	  0.036633268	1.636400E+01	  0.036633268	5.296200E+01
82	  0.036833670	-2.682000E+00	  0.036833670	8.176100E+01	  0.036833670	1.734000E+01	  0.036833670	5.469100E+01
83	  0.037034072	-2.742000E+00	  0.037034072	7.969100E+01	  0.037034072	1.842000E+01	  0.037034072	5.645900E+01
84	  0.037234470	-2.798000E+00	  0.037234470	7.762100E+01	  0.037234470	1.955600E+01	  0.037234470	5.828000E+01
85	  0.037434869	-2.855000E+00	  0.037434869	7.559200E+01	  0.037434869	2.077300E+01	  0.037434869	6.010400E+01
86	  0.037635271	-2.915000E+00	  0.037635271	7.352500E+01	  0.037635271	2.211300E+01	  0.037635271	6.200500E+01
87	  0.037835669	-2.974000E+00	  0.037835669	7.144600E+01	  0.037835669	2.356000E+01	  0.037835669	6.396700E+01
88	  0.038036071	-3.034000E+00	  0.038036071	6.936300E+01	  0.038036071	2.513700E+01	  0.038036071	6.597500E+01
89	  0.038236473	-3.096000E+00	  0.038236473	6.725600E+01	  0.038236473	2.686900E+01	  0.038236473	6.804800E+01
90	  0.038436871	-3.160000E+00	  0.038436871	6.515400E+01	  0.038436871	2.875800E+01	  0.038436871	7.015100E+01
91	  0.038637273	-3.223000E+00	  0.038637273	6.306400E+01	  0.038637273	3.078300E+01	  0.038637273	7.228500E+01
92	  0.038837675	-3.284000E+00	  0.038837675	6.095500E+01	  0.038837675	3.299400E+01	  0.038837675	7.448200E+01
93	  0.039038073	-3.345000E+00	  0.039038073	5.889000E+01	  0.039038073	3.534100E+01	  0.039038073	7.666300E+01
94	  0.039238475	-3.405000E+00	  0.039238475	5.679300E+01	  0.039238475	3.792600E+01	  0.039238475	7.890700E+01
95	  0.039438877	-3.468000E+00	  0.039438877	5.471200E+01	  0.039438877	4.074400E+01	  0.039438877	8.112400E+01
96	  0.039639279	-3.528000E+00	  0.039639279	5.263000E+01	  0.039639279	4.379400E+01	  0.039639279	8.335400E+01
97	  0.039839678	-3.584000E+00	  0.039839678	5.051400E+01	  0.039839678	4.711600E+01	  0.039839678	8.566000E+01
98	  0.040040080	-3.647000E+00	  0.040040080	4.841500E+01	  0.040040080	5.077600E+01	  0.040040080	8.784400E+01
99	  0.040240481	-3.702000E+00	  0.040240481	4.630500E+01	  0.040240481	5.472000E+01	  0.040240481	9.005300E+01
100	  0.040440880	-3.760000E+00	  0.040440880	4.424200E+01	  0.040440880	5.895200E+01	  0.040440880	9.209000E+01
101	  0.040641282	-3.817000E+00	  0.040641282	4.217200E+01	  0.040641282	6.354900E+01	  0.040641282	9.402600E+01
102	  0.040841684	-3.871000E+00	  0.040841684	4.011100E+01	  0.040841684	6.850800E+01	  0.040841684	9.581400E+01
103	  0.041042086	-3.929000E+00	  0.041042086	3.807700E+01	  0.041042086	7.383600E+01	  0.041042086	9.729900E+01
104	  0.041242484	-3.985000E+00	  0.041242484	3.603600E+01	  0.041242484	7.958900E+01	  0.041242484	9.854300E+01
105	  0.041442886	-4.042000E+00	  0.041442886	3.398900E+01	  0.041442886	8.579500E+01	  0.041442886	9.942300E+01
106	  0.041643288	-4.097000E+00	  0.041643288	3.196000E+01	  0.041643288	9.237000E+01	  0.041643288	9.989400E+01
107	  0.041843686	-4.149000E+00	  0.041843686	2.989400E+01	  0.041843686	9.947700E+01	  0.041843686	9.993400E+01
108	  0.042044088	-4.203000E+00	  0.042044088	2.788300E+01	  0.042044088	1.068030E+02	  0.042044088	9.928200E+01
109	  0.042244490	-4.255000E+00	  0.042244490	2.587200E+01	  0.042244490	1.144680E+02	  0.042244490	9.798200E+01
110	  0.042444889	-4.310000E+00	  0.042444889	2.389100E+01	  0.042444889	1.222690E+02	  0.042444889	9.579600E+01
111	  0.042645290	-4.366000E+00	  0.042645290	2.189400E+01	  0.042645290	1.302750E+02	  0.042645290	9.267400E+01
112	  0.042845692	-4.421000E+00	  0.042845692	1.990500E+01	  0.042845692	1.382650E+02	  0.042845692	8.859000E+01
113	  0.043046094	-4.474000E+00	  0.043046094	1.792200E+01	  0.043046094	1.461250E+02	  0.043046094	8.355600E+01
114	  0.043246493	-4.528000E+00	  0.043246493	1.593600E+01	  0.043246493	1.536450E+02	  0.043246493	7.736200E+01
115	  0.043446895	-4.579000E+00	  0.043446895	1.395600E+01	  0.043446895	1.606960E+02	  0.043446895	7.021700E+01
116	  0.043647297	-4.631000E+00	  0.043647297	1.199100E+01	  0.043647297	1.669280E+02	  0.043647297	6.205500E+01
117	  0.043847695	-4.682000E+00	  0.043847695	1.002200E+01	  0.043847695	1.723100E+02	  0.043847695	5.302100E+01
118	  0.044048097	-4.734000E+00	  0.044048097	8.071000E+00	  0.044048097	1.764840E+02	  0.044048097	4.328200E+01
119	  0.044248499	-4.785000E+00	  0.044248499	6.107000E+00	  0.044248499	1.795370E+02	  0.044248499	3.297700E+01
120	  0.044448901	-4.835000E+00	  0.044448901	4.171000E+00	  0.044448901	1.812240E+02	  0.044448901	2.250200E+01
121	  0.044649299	-4.884000E+00	  0.044649299	2.208000E+00	  0.044649299	1.816720E+02	  0.044649299	1.181500E+01
122	  0.044849701	-4.932000E+00	  0.044849701	2.870000E-01	  0.044849701	1.807760E+02	  0.044849701	1.513000E+00
123	  0.045050103	-4.981000E+00	  0.045050103	-1.663000E+00	  0.045050103	1.786590E+02	  0.045050103	-8.566000E+00
124	  0.045250501	-5.032000E+00	  0.045250501	-3.586000E+00	  0.045250501	1.754160E+02	  0.045250501	-1.791900E+01
125	  0.045450903	-5.077000E+00	  0.045450903	-5.516000E+00	  0.045450903	1.713820E+02	  0.045450903	-2.663900E+01
126	  0.045651305	-5.120000E+00	  0.045651305	-7.436000E+00	  0.045651305	1.666760E+02	  0.045651305	-3.455500E+01
127	  0.045851704	-5.163000E+00	  0.045851704	-9.335000E+00	  0.045851704	1.614030E+02	  0.045851704	-4.155500E+01
128	  0.046052102	-5.203000E+00	  0.046052102	-1.123000E+01	  0.046052102	1.557590E+02	  0.046052102	-4.773000E+01
129	  0.046252504	-5.243000E+00	  0.046252504	-1.310900E+01	  0.046252504	1.498500E+02	  0.046252504	-5.301500E+01
130	  0.046452906	-5.285000E+00	  0.046452906	-1.498700E+01	  0.046452906	1.437580E+02	  0.046452906	-5.747600E+01
131	  0.046653304	-5.324000E+00	  0.046653304	-1.684400E+01	  0.046653304	1.377180E+02	  0.046653304	-6.119100E+01
132	  0.046853706	-5.361000E+00	  0.046853706	-1.868400E+01	  0.046853706	1.317880E+02	  0.046853706	-6.423400E+01
133	  0.047054108	-5.400000E+00	  0.047054108	-2.054200E+01	  0.047054108	1.258760E+02	  0.047054108	-6.665600E+01
134	  0.047254506	-5.438000E+00	  0.047254506	-2.236500E+01	  0.047254506	1.202340E+02	  0.047254506	-6.850800E+01
135	  0.047454908	-5.473000E+00	  0.047454908	-2.418000E+01	  0.047454908	1.148170E+02	  0.047454908	-6.991500E+01
136	  0.047655310	-5.509000E+00	  0.047655310	-2.597600E+01	  0.047655310	1.096480E+02	  0.047655310	-7.086600E+01
137	  0.047855709	-5.545000E+00	  0.047855709	-2.776000E+01	  0.047855709	1.047350E+02	  0.047855709	-7.145200E+01
138	  0.048056111	-5.578000E+00	  0.048056111	-2.951600E+01	  0.048056111	1.001290E+02	  0.048056111	-7.177400E+01
139	  0.048256513	-5.616000E+00	  0.048256513	-3.125800E+01	  0.048256513	9.576900E+01	  0.048256513	-7.174500E+01
140	  0.048456915	-5.650000E+00	  0.048456915	-3.301200E+01	  0.048456915	9.161500E+01	  0.048456915	-7.156400E+01
141	  0.048657313	-5.683000E+00	  0.048657313	-3.475100E+01	  0.048657313	8.771300E+01	  0.048657313	-7.122300E+01
142	  0.048857715	-5.716000E+00	  0.048857715	-3.649500E+01	  0.048857715	8.400900E+01	  0.048857715	-7.070300E+01
143	  0.049058117	-5.749000E+00	  0.049058117	-3.822900E+01	  0.049058117	8.053100E+01	  0.049058117	-7.005100E+01
144	  0.049258515	-5.782000E+00	  0.049258515	-3.994600E+01	  0.049258515	7.727800E+01	  0.049258515	-6.930100E+01
145	  0.049458917	-5.814000E+00	  0.049458917	-4.165300E+01	  0.049458917	7.422400E+01	  0.049458917	-6.846900E+01
146	  0.049659319	-5.845000E+00	  0.049659319	-4.334400E+01	  0.049659319	7.136800E+01	  0.049659319	-6.757200E+01
147	  0.049859721	-5.879000E+00	  0.049859721	-4.503500E+01	  0.049859721	6.867800E+01	  0.049859721	-6.658100E+01
148	  0.050060119	-5.910000E+00	  0.050060119	-4.671500E+01	  0.050060119	6.614700E+01	  0.050060119	-6.558700E+01
149	  0.050260521	-5.936000E+00	  0.050260521	-4.841900E+01	  0.050260521	6.371200E+01	  0.050260521	-6.457700E+01
150	  0.050460923	-5.964000E+00	  0.050460923	-5.012500E+01	  0.050460923	6.141100E+01	  0.050460923	-6.352500E+01
151	  0.050661322	-5.989000E+00	  0.050661322	-5.178600E+01	  0.050661322	5.928800E+01	  0.050661322	-6.248400E+01
152	  0.050861724	-6.016000E+00	  0.050861724	-5.346600E+01	  0.050861724	5.726200E+01	  0.050861724	-6.140000E+01
153	  0.051062126	-6.039000E+00	  0.051062126	-5.512700E+01	  0.051062126	5.535500E+01	  0.051062126	-6.033900E+01
154	  0.051262524	-6.064000E+00	  0.051262524	-5.674700E+01	  0.051262524	5.360300E+01	  0.051262524	-5.927100E+01
155	  0.051462926	-6.085000E+00	  0.051462926	-5.839400E+01	  0.051462926	5.189800E+01	  0.051462926	-5.821000E+01
156	  0.051663328	-6.104000E+00	  0.051663328	-5.998900E+01	  0.051663328	5.032900E+01	  0.051663328	-5.718200E+01
157	  0.051863730	-6.120000E+00	  0.051863730	-6.164700E+01	  0.051863730	4.876500E+01	  0.051863730	-5.613500E+01
158	  0.052064128	-6.137000E+00	  0.052064128	-6.323600E+01	  0.052064128	4.734500E+01	  0.052064128	-5.512300E+01
159	  0.052264530	-6.148000E+00	  0.052264530	-6.484300E+01	  0.052264530	4.595600E+01	  0.052264530	-5.413100E+01
160	  0.052464932	-6.158000E+00	  0.052464932	-6.641800E+01	  0.052464932	4.465800E+01	  0.052464932	-5.316200E+01
161	  0.052665330	-6.169000E+00	  0.052665330	-6.795400E+01	  0.052665330	4.345800E+01	  0.052665330	-5.220400E+01
162	  0.052865732	-6.182000E+00	  0.052865732	-6.950100E+01	  0.052865732	4.230900E+01	  0.052865732	-5.123900E+01
163	  0.053066134	-6.196000E+00	  0.053066134	-7.102400E+01	  0.053066134	4.123400E+01	  0.053066134	-5.028700E+01
164	  0.053266536	-6.204000E+00	  0.053266536	-7.251000E+01	  0.053266536	4.021100E+01	  0.053266536	-4.938800E+01
165	  0.053466935	-6.218000E+00	  0.053466935	-7.402800E+01	  0.053466935	3.923600E+01	  0.053466935	-4.844600E+01
166	  0.053667337	-6.224000E+00	  0.053667337	-7.549100E+01	  0.053667337	3.830900E+01	  0.053667337	-4.757600E+01
167	  0.053867739	-6.229000E+00	  0.053867739	-7.696200E+01	  0.053867739	3.741100E+01	  0.053867739	-4.671200E+01
168	  0.054068137	-6.232000E+00	  0.054068137	-7.840800E+01	  0.054068137	3.655800E+01	  0.054068137	-4.587300E+01
169	  0.054268539	-6.242000E+00	  0.054268539	-7.982900E+01	  0.054268539	3.578300E+01	  0.054268539	-4.502500E+01
170	  0.054468941	-6.252000E+00	  0.054468941	-8.125100E+01	  0.054468941	3.503600E+01	  0.054468941	-4.418600E+01
171	  0.054669335	-6.262000E+00	  0.054669335	-8.266400E+01	  0.054669335	3.432300E+01	  0.054669335	-4.335900E+01
172	  0.054869737	-6.270000E+00	  0.054869737	-8.407400E+01	  0.054869737	3.363400E+01	  0.054869737	-4.254700E+01
173	  0.055070139	-6.281000E+00	  0.055070139	-8.546700E+01	  0.055070139	3.299100E+01	  0.055070139	-4.174200E+01
174	  0.055270538	-6.288000E+00	  0.055270538	-8.683800E+01	  0.055270538	3.236800E+01	  0.055270538	-4.097000E+01
175	  0.055470940	-6.297000E+00	  0.055470940	-8.823700E+01	  0.055470940	3.176600E+01	  0.055470940	-4.018100E+01
176	  0.055671342	-6.306000E+00	  0.055671342	-8.961900E+01	  0.055671342	3.119400E+01	  0.055671342	-3.940900E+01
177	  0.055871744	-6.307000E+00	  0.055871744	-9.100800E+01	  0.055871744	3.061400E+01	  0.055871744	-3.866100E+01
178	  0.056072142	-6.320000E+00	  0.056072142	-9.238700E+01	  0.056072142	3.010000E+01	  0.056072142	-3.789300E+01
179	  0.056272544	-6.327000E+00	  0.056272544	-9.376100E+01	  0.056272544	2.958800E+01	  0.056272544	-3.715200E+01
180	  0.056472946	-6.336000E+00	  0.056472946	-9.513300E+01	  0.056472946	2.910100E+01	  0.056472946	-3.641400E+01
181	  0.056673344	-6.342000E+00	  0.056673344	-9.648400E+01	  0.056673344	2.862900E+01	  0.056673344	-3.570100E+01
182	  0.056873746	-6.345000E+00	  0.056873746	-9.783400E+01	  0.056873746	2.816600E+01	  0.056873746	-3.500000E+01
183	  0.057074148	-6.351000E+00	  0.057074148	-9.920100E+01	  0.057074148	2.772500E+01	  0.057074148	-3.429000E+01
184	  0.057274550	-6.354000E+00	  0.057274550	-1.005650E+02	  0.057274550	2.729100E+01	  0.057274550	-3.359400E+01
185	  0.057474948	-6.356000E+00	  0.057474948	-1.019090E+02	  0.057474948	2.687400E+01	  0.057474948	-3.291600E+01
186	  0.057675350	-6.357000E+00	  0.057675350	-1.032850E+02	  0.057675350	2.646000E+01	  0.057675350	-3.223000E+01
187	  0.057875752	-6.359000E+00	  0.057875752	-1.046240E+02	  0.057875752	2.607700E+01	  0.057875752	-3.156400E+01
188	  0.058076151	-6.353000E+00	  0.058076151	-1.059620E+02	  0.058076151	2.567900E+01	  0.058076151	-3.092000E+01
189	  0.058276553	-6.357000E+00	  0.058276553	-1.072650E+02	  0.058276553	2.533700E+01	  0.058276553	-3.028000E+01
190	  0.058476955	-6.349000E+00	  0.058476955	-1.085880E+02	  0.058476955	2.496300E+01	  0.058476955	-2.965500E+01
191	  0.058677353	-6.347000E+00	  0.058677353	-1.098990E+02	  0.058677353	2.462500E+01	  0.058677353	-2.903000E+01
192	  0.058877755	-6.342000E+00	  0.058877755	-1.112000E+02	  0.058877755	2.428900E+01	  0.058877755	-2.841900E+01
193	  0.059078157	-6.332000E+00	  0.059078157	-1.124870E+02	  0.059078157	2.395500E+01	  0.059078157	-2.782500E+01
194	  0.059278559	-6.325000E+00	  0.059278559	-1.137680E+02	  0.059278559	2.364000E+01	  0.059278559	-2.723400E+01
195	  0.059478957	-6.319000E+00	  0.059478957	-1.150330E+02	  0.059478957	2.334000E+01	  0.059478957	-2.665300E+01
196	  0.059679359	-6.315000E+00	  0.059679359	-1.163120E+02	  0.059679359	2.305500E+01	  0.059679359	-2.606600E+01
197	  0.059879761	-6.305000E+00	  0.059879761	-1.175400E+02	  0.059879761	2.277200E+01	  0.059879761	-2.551300E+01
198	  0.060080159	-6.302000E+00	  0.060080159	-1.187750E+02	  0.060080159	2.251600E+01	  0.060080159	-2.495200E+01
199	  0.060280561	-6.298000E+00	  0.060280561	-1.200030E+02	  0.060280561	2.226800E+01	  0.060280561	-2.439800E+01
200	  0.060480963	-6.292000E+00	  0.060480963	-1.212310E+02	  0.060480963	2.202100E+01	  0.060480963	-2.385000E+01
201	  0.060681365	-6.289000E+00	  0.060681365	-1.224220E+02	  0.060681365	2.179800E+01	  0.060681365	-2.331700E+01
202	  0.060881764	-6.284000E+00	  0.060881764	-1.236270E+02	  0.060881764	2.157300E+01	  0.060881764	-2.278500E+01
203	  0.061082166	-6.282000E+00	  0.061082166	-1.248190E+02	  0.061082166	2.136400E+01	  0.061082166	-2.225800E+01
204	  0.061282568	-6.281000E+00	  0.061282568	-1.260260E+02	  0.061282568	2.116400E+01	  0.061282568	-2.172600E+01
205	  0.061482966	-6.282000E+00	  0.061482966	-1.272010E+02	  0.061482966	2.098300E+01	  0.061482966	-2.120800E+01
206	  0.061683368	-6.284000E+00	  0.061683368	-1.283690E+02	  0.061683368	2.081000E+01	  0.061683368	-2.069600E+01
207	  0.061883770	-6.290000E+00	  0.061883770	-1.295420E+02	  0.061883770	2.065400E+01	  0.061883770	-2.018000E+01
208	  0.062084168	-6.292000E+00	  0.062084168	-1.307260E+02	  0.062084168	2.049100E+01	  0.062084168	-1.966700E+01
209	  0.062284570	-6.294000E+00	  0.062284570	-1.318940E+02	  0.062284570	2.033500E+01	  0.062284570	-1.916400E+01
210	  0.062484972	-6.287000E+00	  0.062484972	-1.330420E+02	  0.062484972	2.016200E+01	  0.062484972	-1.868000E+01
211	  0.062685370	-6.295000E+00	  0.062685370	-1.342300E+02	  0.062685370	2.002900E+01	  0.062685370	-1.816800E+01
212	  0.062885776	-6.301000E+00	  0.062885776	-1.354020E+02	  0.062885776	1.990000E+01	  0.062885776	-1.766700E+01
213	  0.063086174	-6.304000E+00	  0.063086174	-1.365830E+02	  0.063086174	1.976500E+01	  0.063086174	-1.716900E+01
214	  0.063286573	-6.313000E+00	  0.063286573	-1.377640E+02	  0.063286573	1.965300E+01	  0.063286573	-1.666700E+01
215	  0.063486971	-6.313000E+00	  0.063486971	-1.389320E+02	  0.063486971	1.952100E+01	  0.063486971	-1.618100E+01
216	  0.063687377	-6.309000E+00	  0.063687377	-1.400680E+02	  0.063687377	1.938800E+01	  0.063687377	-1.571300E+01
217	  0.063887775	-6.318000E+00	  0.063887775	-1.412590E+02	  0.063887775	1.928900E+01	  0.063887775	-1.521500E+01
218	  0.064088173	-6.321000E+00	  0.064088173	-1.424390E+02	  0.064088173	1.917700E+01	  0.064088173	-1.472800E+01
219	  0.064288579	-6.325000E+00	  0.064288579	-1.436190E+02	  0.064288579	1.907300E+01	  0.064288579	-1.424300E+01
220	  0.064488977	-6.326000E+00	  0.064488977	-1.448050E+02	  0.064488977	1.896600E+01	  0.064488977	-1.375900E+01
221	  0.064689375	-6.332000E+00	  0.064689375	-1.459480E+02	  0.064689375	1.888200E+01	  0.064689375	-1.329100E+01
222	  0.064889781	-6.335000E+00	  0.064889781	-1.471230E+02	  0.064889781	1.878800E+01	  0.064889781	-1.281500E+01
223	  0.065090179	-6.338000E+00	  0.065090179	-1.482670E+02	  0.065090179	1.870200E+01	  0.065090179	-1.235300E+01
224	  0.065290578	-6.334000E+00	  0.065290578	-1.494210E+02	  0.065290578	1.860100E+01	  0.065290578	-1.189200E+01
225	  0.065490983	-6.336000E+00	  0.065490983	-1.505590E+02	  0.065490983	1.851900E+01	  0.065490983	-1.143600E+01
226	  0.065691382	-6.339000E+00	  0.065691382	-1.516870E+02	  0.065691382	1.844600E+01	  0.065691382	-1.098400E+01
227	  0.065891780	-6.338000E+00	  0.065891780	-1.528260E+02	  0.065891780	1.836400E+01	  0.065891780	-1.053200E+01
228	  0.066092186	-6.336000E+00	  0.066092186	-1.539350E+02	  0.066092186	1.828600E+01	  0.066092186	-1.009300E+01
229	  0.066292584	-6.337000E+00	  0.066292584	-1.550170E+02	  0.066292584	1.822000E+01	  0.066292584	-9.666000E+00
230	  0.066492982	-6.339000E+00	  0.066492982	-1.561230E+02	  0.066492982	1.815800E+01	  0.066492982	-9.229000E+00
231	  0.066693388	-6.338000E+00	  0.066693388	-1.572160E+02	  0.066693388	1.809300E+01	  0.066693388	-8.800000E+00
232	  0.066893786	-6.339000E+00	  0.066893786	-1.583080E+02	  0.066893786	1.803800E+01	  0.066893786	-8.371000E+00
233	  0.067094192	-6.343000E+00	  0.067094192	-1.593790E+02	  0.067094192	1.799300E+01	  0.067094192	-7.950000E+00
234	  0.067294590	-6.345000E+00	  0.067294590	-1.604350E+02	  0.067294590	1.794700E+01	  0.067294590	-7.537000E+00
235	  0.067494988	-6.349000E+00	  0.067494988	-1.614870E+02	  0.067494988	1.790900E+01	  0.067494988	-7.126000E+00
236	  0.067695394	-6.348000E+00	  0.067695394	-1.625550E+02	  0.067695394	1.786000E+01	  0.067695394	-6.711000E+00
237	  0.067895792	-6.350000E+00	  0.067895792	-1.636090E+02	  0.067895792	1.782200E+01	  0.067895792	-6.302000E+00
238	  0.068096191	-6.357000E+00	  0.068096191	-1.646960E+02	  0.068096191	1.779800E+01	  0.068096191	-5.879000E+00
239	  0.068296596	-6.360000E+00	  0.068296596	-1.657130E+02	  0.068296596	1.777200E+01	  0.068296596	-5.485000E+00
240	  0.068496995	-6.366000E+00	  0.068496995	-1.667510E+02	  0.068496995	1.775200E+01	  0.068496995	-5.083000E+00
241	  0.068697393	-6.369000E+00	  0.068697393	-1.677890E+02	  0.068697393	1.772800E+01	  0.068697393	-4.682000E+00
242	  0.068897791	-6.375000E+00	  0.068897791	-1.688210E+02	  0.068897791	1.771600E+01	  0.068897791	-4.283000E+00
243	  0.069098189	-6.376000E+00	  0.069098189	-1.698810E+02	  0.069098189	1.769100E+01	  0.069098189	-3.875000E+00
244	  0.069298595	-6.380000E+00	  0.069298595	-1.709050E+02	  0.069298595	1.767700E+01	  0.069298595	-3.482000E+00
245	  0.069498993	-6.385000E+00	  0.069498993	-1.719470E+02	  0.069498993	1.767000E+01	  0.069498993	-3.081000E+00
246	  0.069699399	-6.393000E+00	  0.069699399	-1.729800E+02	  0.069699399	1.767200E+01	  0.069699399	-2.684000E+00
247	  0.069899797	-6.394000E+00	  0.069899797	-1.740280E+02	  0.069899797	1.765900E+01	  0.069899797	-2.283000E+00
248	  0.070100196	-6.405000E+00	  0.070100196	-1.750090E+02	  0.070100196	1.767400E+01	  0.070100196	-1.907000E+00
249	  0.070300601	-6.407000E+00	  0.070300601	-1.760440E+02	  0.070300601	1.766700E+01	  0.070300601	-1.511000E+00
250	  0.070501000	-6.411000E+00	  0.070501000	-1.770340E+02	  0.070501000	1.766800E+01	  0.070501000	-1.132000E+00
251	  0.070701398	-6.413000E+00	  0.070701398	-1.780320E+02	  0.070701398	1.766900E+01	  0.070701398	-7.510000E-01
252	  0.070901804	-6.417000E+00	  0.070901804	-1.790240E+02	  0.070901804	1.767400E+01	  0.070901804	-3.720000E-01
253	  0.071102202	-6.421000E+00	  0.071102202	1.799650E+02	  0.071102202	1.768400E+01	  0.071102202	1.300000E-02
254	  0.071302600	-6.427000E+00	  0.071302600	1.789960E+02	  0.071302600	1.769900E+01	  0.071302600	3.820000E-01
255	  0.071503006	-6.431000E+00	  0.071503006	1.780170E+02	  0.071503006	1.771200E+01	  0.071503006	7.560000E-01
256	  0.071703404	-6.438000E+00	  0.071703404	1.770720E+02	  0.071703404	1.773600E+01	  0.071703404	1.116000E+00
257	  0.071903802	-6.444000E+00	  0.071903802	1.760990E+02	  0.071903802	1.776000E+01	  0.071903802	1.488000E+00
258	  0.072104208	-6.449000E+00	  0.072104208	1.751480E+02	  0.072104208	1.778200E+01	  0.072104208	1.850000E+00
259	  0.072304606	-6.454000E+00	  0.072304606	1.742180E+02	  0.072304606	1.780600E+01	  0.072304606	2.205000E+00
260	  0.072505005	-6.459000E+00	  0.072505005	1.732760E+02	  0.072505005	1.783400E+01	  0.072505005	2.564000E+00
261	  0.072705410	-6.465000E+00	  0.072705410	1.723720E+02	  0.072705410	1.786400E+01	  0.072705410	2.909000E+00
262	  0.072905809	-6.473000E+00	  0.072905809	1.714150E+02	  0.072905809	1.790200E+01	  0.072905809	3.274000E+00
263	  0.073106214	-6.480000E+00	  0.073106214	1.705260E+02	  0.073106214	1.793900E+01	  0.073106214	3.613000E+00
264	  0.073306613	-6.490000E+00	  0.073306613	1.696010E+02	  0.073306613	1.798600E+01	  0.073306613	3.965000E+00
265	  0.073507011	-6.502000E+00	  0.073507011	1.686880E+02	  0.073507011	1.804100E+01	  0.073507011	4.312000E+00
266	  0.073707417	-6.512000E+00	  0.073707417	1.677980E+02	  0.073707417	1.809000E+01	  0.073707417	4.651000E+00
267	  0.073907815	-6.525000E+00	  0.073907815	1.668620E+02	  0.073907815	1.815100E+01	  0.073907815	5.007000E+00
268	  0.074108213	-6.533000E+00	  0.074108213	1.660290E+02	  0.074108213	1.819900E+01	  0.074108213	5.325000E+00
269	  0.074308619	-6.546000E+00	  0.074308619	1.650920E+02	  0.074308619	1.826500E+01	  0.074308619	5.681000E+00
270	  0.074509017	-6.557000E+00	  0.074509017	1.641960E+02	  0.074509017	1.832600E+01	  0.074509017	6.022000E+00
271	  0.074709415	-6.574000E+00	  0.074709415	1.632750E+02	  0.074709415	1.840700E+01	  0.074709415	6.372000E+00
272	  0.074909821	-6.586000E+00	  0.074909821	1.623640E+02	  0.074909821	1.847500E+01	  0.074909821	6.718000E+00
273	  0.075110219	-6.601000E+00	  0.075110219	1.614370E+02	  0.075110219	1.855400E+01	  0.075110219	7.071000E+00
274	  0.075310618	-6.610000E+00	  0.075310618	1.605270E+02	  0.075310618	1.862000E+01	  0.075310618	7.418000E+00
275	  0.075511023	-6.625000E+00	  0.075511023	1.596230E+02	  0.075511023	1.870200E+01	  0.075511023	7.762000E+00
276	  0.075711422	-6.638000E+00	  0.075711422	1.587270E+02	  0.075711422	1.878200E+01	  0.075711422	8.104000E+00
277	  0.075911827	-6.648000E+00	  0.075911827	1.578230E+02	  0.075911827	1.885800E+01	  0.075911827	8.449000E+00
278	  0.076112226	-6.658000E+00	  0.076112226	1.568850E+02	  0.076112226	1.893500E+01	  0.076112226	8.809000E+00
279	  0.076312624	-6.671000E+00	  0.076312624	1.559470E+02	  0.076312624	1.902600E+01	  0.076312624	9.167000E+00
280	  0.076513030	-6.680000E+00	  0.076513030	1.550310E+02	  0.076513030	1.910600E+01	  0.076513030	9.519000E+00
281	  0.076713428	-6.691000E+00	  0.076713428	1.541100E+02	  0.076713428	1.919300E+01	  0.076713428	9.872000E+00
282	  0.076913826	-6.706000E+00	  0.076913826	1.532070E+02	  0.076913826	1.929300E+01	  0.076913826	1.021700E+01
283	  0.077114232	-6.712000E+00	  0.077114232	1.523060E+02	  0.077114232	1.937100E+01	  0.077114232	1.056600E+01
284	  0.077314630	-6.721000E+00	  0.077314630	1.514300E+02	  0.077314630	1.945800E+01	  0.077314630	1.090400E+01
285	  0.077515028	-6.730000E+00	  0.077515028	1.505440E+02	  0.077515028	1.954800E+01	  0.077515028	1.124600E+01
286	  0.077715434	-6.734000E+00	  0.077715434	1.496640E+02	  0.077715434	1.962800E+01	  0.077715434	1.158900E+01
287	  0.077915832	-6.744000E+00	  0.077915832	1.488080E+02	  0.077915832	1.972300E+01	  0.077915832	1.191900E+01
288	  0.078116231	-6.751000E+00	  0.078116231	1.479150E+02	  0.078116231	1.981500E+01	  0.078116231	1.226700E+01
289	  0.078316636	-6.759000E+00	  0.078316636	1.470400E+02	  0.078316636	1.991100E+01	  0.078316636	1.260800E+01
290	  0.078517035	-6.769000E+00	  0.078517035	1.462050E+02	  0.078517035	2.001200E+01	  0.078517035	1.293200E+01
291	  0.078717433	-6.778000E+00	  0.078717433	1.453490E+02	  0.078717433	2.011200E+01	  0.078717433	1.326600E+01
292	  0.078917839	-6.791000E+00	  0.078917839	1.445480E+02	  0.078917839	2.022200E+01	  0.078917839	1.357600E+01
293	  0.079118237	-6.799000E+00	  0.079118237	1.437700E+02	  0.079118237	2.032100E+01	  0.079118237	1.387900E+01
294	  0.079318643	-6.808000E+00	  0.079318643	1.429560E+02	  0.079318643	2.042400E+01	  0.079318643	1.419800E+01
295	  0.079519041	-6.823000E+00	  0.079519041	1.421320E+02	  0.079519041	2.054900E+01	  0.079519041	1.451700E+01
296	  0.079719439	-6.840000E+00	  0.079719439	1.413670E+02	  0.079719439	2.067400E+01	  0.079719439	1.481100E+01
297	  0.079919845	-6.854000E+00	  0.079919845	1.405720E+02	  0.079919845	2.079600E+01	  0.079919845	1.511900E+01
298	  0.080120243	-6.868000E+00	  0.080120243	1.397820E+02	  0.080120243	2.092200E+01	  0.080120243	1.542500E+01
299	  0.080320641	-6.888000E+00	  0.080320641	1.390020E+02	  0.080320641	2.106600E+01	  0.080320641	1.572300E+01
300	  0.080521047	-6.909000E+00	  0.080521047	1.382510E+02	  0.080521047	2.120700E+01	  0.080521047	1.601000E+01
301	  0.080721445	-6.927000E+00	  0.080721445	1.374420E+02	  0.080721445	2.135400E+01	  0.080721445	1.632100E+01
302	  0.080921844	-6.955000E+00	  0.080921844	1.366950E+02	  0.080921844	2.152000E+01	  0.080921844	1.660000E+01
303	  0.081122249	-6.974000E+00	  0.081122249	1.359310E+02	  0.081122249	2.166800E+01	  0.081122249	1.689200E+01
304	  0.081322648	-6.997000E+00	  0.081322648	1.351410E+02	  0.081322648	2.183000E+01	  0.081322648	1.719300E+01
305	  0.081523046	-7.022000E+00	  0.081523046	1.343680E+02	  0.081523046	2.199900E+01	  0.081523046	1.748400E+01
306	  0.081723452	-7.049000E+00	  0.081723452	1.335930E+02	  0.081723452	2.217800E+01	  0.081723452	1.777400E+01
307	  0.081923850	-7.076000E+00	  0.081923850	1.327570E+02	  0.081923850	2.236600E+01	  0.081923850	1.808800E+01
308	  0.082124248	-7.098000E+00	  0.082124248	1.319950E+02	  0.082124248	2.253400E+01	  0.082124248	1.837700E+01
309	  0.082324654	-7.128000E+00	  0.082324654	1.311830E+02	  0.082324654	2.273400E+01	  0.082324654	1.867800E+01
310	  0.082525052	-7.153000E+00	  0.082525052	1.303940E+02	  0.082525052	2.292000E+01	  0.082525052	1.897500E+01
311	  0.082725458	-7.183000E+00	  0.082725458	1.296140E+02	  0.082725458	2.311900E+01	  0.082725458	1.926300E+01
312	  0.082925856	-7.206000E+00	  0.082925856	1.288310E+02	  0.082925856	2.330400E+01	  0.082925856	1.955900E+01
313	  0.083126254	-7.232000E+00	  0.083126254	1.280190E+02	  0.083126254	2.350500E+01	  0.083126254	1.986200E+01
314	  0.083326660	-7.256000E+00	  0.083326660	1.272040E+02	  0.083326660	2.370500E+01	  0.083326660	2.016900E+01
315	  0.083527058	-7.279000E+00	  0.083527058	1.263840E+02	  0.083527058	2.390400E+01	  0.083527058	2.048000E+01
316	  0.083727457	-7.302000E+00	  0.083727457	1.256030E+02	  0.083727457	2.410100E+01	  0.083727457	2.077400E+01
317	  0.083927862	-7.328000E+00	  0.083927862	1.247800E+02	  0.083927862	2.431900E+01	  0.083927862	2.108100E+01
318	  0.084128261	-7.350000E+00	  0.084128261	1.239840E+02	  0.084128261	2.452200E+01	  0.084128261	2.138200E+01
319	  0.084328659	-7.369000E+00	  0.084328659	1.232440E+02	  0.084328659	2.471000E+01	  0.084328659	2.166400E+01
320	  0.084529065	-7.390000E+00	  0.084529065	1.224700E+02	  0.084529065	2.491500E+01	  0.084529065	2.195600E+01
321	  0.084729463	-7.410000E+00	  0.084729463	1.216830E+02	  0.084729463	2.511900E+01	  0.084729463	2.225600E+01
322	  0.084929854	-7.429000E+00	  0.084929854	1.209380E+02	  0.084929854	2.531800E+01	  0.084929854	2.253900E+01
323	  0.085130259	-7.444000E+00	  0.085130259	1.201790E+02	  0.085130259	2.551100E+01	  0.085130259	2.283200E+01
324	  0.085330658	-7.455000E+00	  0.085330658	1.194060E+02	  0.085330658	2.570000E+01	  0.085330658	2.313700E+01
325	  0.085531056	-7.475000E+00	  0.085531056	1.186520E+02	  0.085531056	2.591500E+01	  0.085531056	2.342100E+01
326	  0.085731462	-7.495000E+00	  0.085731462	1.179250E+02	  0.085731462	2.612300E+01	  0.085731462	2.369600E+01
327	  0.085931860	-7.508000E+00	  0.085931860	1.172700E+02	  0.085931860	2.630200E+01	  0.085931860	2.394900E+01
328	  0.086132258	-7.528000E+00	  0.086132258	1.165850E+02	  0.086132258	2.650900E+01	  0.086132258	2.420500E+01
329	  0.086332664	-7.545000E+00	  0.086332664	1.158890E+02	  0.086332664	2.671300E+01	  0.086332664	2.446900E+01
330	  0.086533062	-7.569000E+00	  0.086533062	1.152140E+02	  0.086533062	2.693400E+01	  0.086533062	2.471400E+01
331	  0.086733460	-7.585000E+00	  0.086733460	1.145380E+02	  0.086733460	2.713800E+01	  0.086733460	2.497000E+01
332	  0.086933866	-7.603000E+00	  0.086933866	1.138660E+02	  0.086933866	2.734800E+01	  0.086933866	2.522200E+01
333	  0.087134264	-7.625000E+00	  0.087134264	1.132100E+02	  0.087134264	2.756800E+01	  0.087134264	2.546000E+01
334	  0.087334670	-7.649000E+00	  0.087334670	1.125810E+02	  0.087334670	2.778800E+01	  0.087334670	2.568300E+01
335	  0.087535068	-7.671000E+00	  0.087535068	1.119240E+02	  0.087535068	2.801400E+01	  0.087535068	2.592000E+01
336	  0.087735467	-7.697000E+00	  0.087735467	1.112650E+02	  0.087735467	2.825400E+01	  0.087735467	2.615100E+01
337	  0.087935872	-7.723000E+00	  0.087935872	1.106300E+02	  0.087935872	2.849100E+01	  0.087935872	2.637000E+01
338	  0.088136271	-7.749000E+00	  0.088136271	1.099970E+02	  0.088136271	2.872800E+01	  0.088136271	2.658900E+01
339	  0.088336669	-7.775000E+00	  0.088336669	1.093600E+02	  0.088336669	2.897100E+01	  0.088336669	2.680800E+01
340	  0.088537075	-7.807000E+00	  0.088537075	1.087110E+02	  0.088537075	2.923500E+01	  0.088537075	2.701900E+01
341	  0.088737473	-7.829000E+00	  0.088737473	1.081030E+02	  0.088737473	2.946700E+01	  0.088737473	2.722900E+01
342	  0.088937871	-7.858000E+00	  0.088937871	1.074000E+02	  0.088937871	2.974500E+01	  0.088937871	2.746600E+01
343	  0.089138277	-7.880000E+00	  0.089138277	1.067510E+02	  0.089138277	2.999100E+01	  0.089138277	2.769300E+01
344	  0.089338675	-7.921000E+00	  0.089338675	1.061360E+02	  0.089338675	3.028300E+01	  0.089338675	2.786700E+01
345	  0.089539073	-7.941000E+00	  0.089539073	1.055050E+02	  0.089539073	3.052400E+01	  0.089539073	2.808800E+01
346	  0.089739479	-7.975000E+00	  0.089739479	1.048560E+02	  0.089739479	3.081100E+01	  0.089739479	2.828800E+01
347	  0.089939877	-8.008000E+00	  0.089939877	1.042210E+02	  0.089939877	3.109600E+01	  0.089939877	2.848100E+01
348	  0.090140276	-8.028000E+00	  0.090140276	1.035510E+02	  0.090140276	3.135700E+01	  0.090140276	2.871500E+01
349	  0.090340681	-8.058000E+00	  0.090340681	1.029400E+02	  0.090340681	3.163200E+01	  0.090340681	2.890100E+01
350	  0.090541080	-8.083000E+00	  0.090541080	1.022680E+02	  0.090541080	3.191600E+01	  0.090541080	2.912100E+01
351	  0.090741485	-8.114000E+00	  0.090741485	1.016580E+02	  0.090741485	3.219700E+01	  0.090741485	2.930300E+01
352	  0.090941884	-8.141000E+00	  0.090941884	1.010180E+02	  0.090941884	3.248200E+01	  0.090941884	2.950200E+01
353	  0.091142282	-8.169000E+00	  0.091142282	1.003970E+02	  0.091142282	3.276700E+01	  0.091142282	2.968900E+01
354	  0.091342688	-8.190000E+00	  0.091342688	9.976300E+01	  0.091342688	3.303900E+01	  0.091342688	2.989800E+01
355	  0.091543086	-8.221000E+00	  0.091543086	9.916400E+01	  0.091543086	3.333000E+01	  0.091543086	3.006600E+01
356	  0.091743484	-8.240000E+00	  0.091743484	9.853900E+01	  0.091743484	3.360100E+01	  0.091743484	3.027200E+01
357	  0.091943890	-8.265000E+00	  0.091943890	9.795900E+01	  0.091943890	3.387300E+01	  0.091943890	3.044400E+01
358	  0.092144288	-8.282000E+00	  0.092144288	9.736500E+01	  0.092144288	3.413300E+01	  0.092144288	3.064000E+01
359	  0.092344686	-8.309000E+00	  0.092344686	9.679300E+01	  0.092344686	3.441300E+01	  0.092344686	3.080100E+01
360	  0.092545092	-8.328000E+00	  0.092545092	9.623500E+01	  0.092545092	3.467000E+01	  0.092545092	3.097500E+01
361	  0.092745490	-8.346000E+00	  0.092745490	9.567200E+01	  0.092745490	3.493000E+01	  0.092745490	3.115100E+01
362	  0.092945889	-8.374000E+00	  0.092945889	9.516600E+01	  0.092945889	3.519500E+01	  0.092945889	3.127900E+01
363	  0.093146294	-8.390000E+00	  0.093146294	9.463000E+01	  0.093146294	3.544400E+01	  0.093146294	3.144700E+01
364	  0.093346693	-8.412000E+00	  0.093346693	9.414100E+01	  0.093346693	3.569100E+01	  0.093346693	3.158200E+01
365	  0.093547091	-8.433000E+00	  0.093547091	9.364900E+01	  0.093547091	3.593900E+01	  0.093547091	3.171700E+01
366	  0.093747497	-8.453000E+00	  0.093747497	9.314800E+01	  0.093747497	3.619200E+01	  0.093747497	3.185600E+01
367	  0.093947895	-8.477000E+00	  0.093947895	9.262100E+01	  0.093947895	3.646500E+01	  0.093947895	3.199600E+01
368	  0.094148301	-8.495000E+00	  0.094148301	9.213900E+01	  0.094148301	3.670800E+01	  0.094148301	3.213100E+01
369	  0.094348699	-8.518000E+00	  0.094348699	9.168300E+01	  0.094348699	3.695600E+01	  0.094348699	3.224000E+01
370	  0.094549097	-8.542000E+00	  0.094549097	9.123000E+01	  0.094549097	3.720500E+01	  0.094549097	3.234500E+01
371	  0.094749503	-8.565000E+00	  0.094749503	9.080600E+01	  0.094749503	3.744000E+01	  0.094749503	3.244200E+01
372	  0.094949901	-8.587000E+00	  0.094949901	9.033600E+01	  0.094949901	3.769400E+01	  0.094949901	3.255700E+01
373	  0.095150299	-8.605000E+00	  0.095150299	8.987200E+01	  0.095150299	3.793700E+01	  0.095150299	3.268000E+01
374	  0.095350705	-8.623000E+00	  0.095350705	8.946200E+01	  0.095350705	3.816000E+01	  0.095350705	3.277900E+01
375	  0.095551103	-8.645000E+00	  0.095551103	8.896900E+01	  0.095551103	3.843100E+01	  0.095551103	3.289700E+01
376	  0.095751502	-8.663000E+00	  0.095751502	8.850900E+01	  0.095751502	3.867900E+01	  0.095751502	3.301200E+01
377	  0.095951907	-8.684000E+00	  0.095951907	8.807400E+01	  0.095951907	3.892400E+01	  0.095951907	3.310900E+01
378	  0.096152306	-8.702000E+00	  0.096152306	8.764900E+01	  0.096152306	3.915800E+01	  0.096152306	3.321000E+01
379	  0.096352704	-8.719000E+00	  0.096352704	8.723100E+01	  0.096352704	3.938900E+01	  0.096352704	3.330900E+01
380	  0.096553110	-8.740000E+00	  0.096553110	8.678900E+01	  0.096553110	3.964400E+01	  0.096553110	3.340200E+01
381	  0.096753508	-8.751000E+00	  0.096753508	8.636000E+01	  0.096753508	3.986700E+01	  0.096753508	3.352200E+01
382	  0.096953906	-8.765000E+00	  0.096953906	8.594000E+01	  0.096953906	4.009700E+01	  0.096953906	3.362700E+01
383	  0.097154312	-8.776000E+00	  0.097154312	8.548700E+01	  0.097154312	4.033600E+01	  0.097154312	3.375400E+01
384	  0.097354710	-8.791000E+00	  0.097354710	8.506100E+01	  0.097354710	4.057500E+01	  0.097354710	3.385400E+01
385	  0.097555116	-8.800000E+00	  0.097555116	8.465400E+01	  0.097555116	4.079100E+01	  0.097555116	3.396900E+01
386	  0.097755514	-8.813000E+00	  0.097755514	8.424400E+01	  0.097755514	4.102100E+01	  0.097755514	3.406600E+01
387	  0.097955912	-8.823000E+00	  0.097955912	8.382900E+01	  0.097955912	4.124700E+01	  0.097955912	3.417700E+01
388	  0.098156318	-8.829000E+00	  0.098156318	8.341500E+01	  0.098156318	4.146400E+01	  0.098156318	3.430300E+01
389	  0.098356716	-8.833000E+00	  0.098356716	8.301500E+01	  0.098356716	4.167400E+01	  0.098356716	3.442300E+01
390	  0.098557115	-8.842000E+00	  0.098557115	8.260900E+01	  0.098557115	4.189800E+01	  0.098557115	3.453100E+01
391	  0.098757520	-8.849000E+00	  0.098757520	8.222200E+01	  0.098757520	4.210900E+01	  0.098757520	3.464000E+01
392	  0.098957919	-8.851000E+00	  0.098957919	8.180200E+01	  0.098957919	4.232800E+01	  0.098957919	3.477500E+01
393	  0.099158317	-8.852000E+00	  0.099158317	8.141700E+01	  0.099158317	4.253000E+01	  0.099158317	3.489700E+01
394	  0.099358723	-8.856000E+00	  0.099358723	8.101300E+01	  0.099358723	4.274900E+01	  0.099358723	3.501700E+01
395	  0.099559121	-8.856000E+00	  0.099559121	8.062800E+01	  0.099559121	4.295000E+01	  0.099559121	3.514700E+01
396	  0.099759519	-8.859000E+00	  0.099759519	8.026900E+01	  0.099759519	4.314800E+01	  0.099759519	3.525200E+01
397	  0.099959925	-8.850000E+00	  0.099959925	7.991100E+01	  0.099959925	4.331800E+01	  0.099959925	3.540200E+01
398	  0.100160323	-8.857000E+00	  0.100160323	7.954000E+01	  0.100160323	4.353300E+01	  0.100160323	3.549800E+01
399	  0.100360721	-8.856000E+00	  0.100360721	7.912800E+01	  0.100360721	4.375500E+01	  0.100360721	3.563500E+01
400	  0.100561127	-8.857000E+00	  0.100561127	7.872000E+01	  0.100561127	4.397900E+01	  0.100561127	3.576500E+01
401	  0.100761525	-8.855000E+00	  0.100761525	7.833600E+01	  0.100761525	4.418700E+01	  0.100761525	3.589400E+01
402	  0.100961931	-8.851000E+00	  0.100961931	7.790800E+01	  0.100961931	4.441600E+01	  0.100961931	3.604700E+01
403	  0.101162329	-8.844000E+00	  0.101162329	7.748500E+01	  0.101162329	4.463900E+01	  0.101162329	3.620600E+01
404	  0.101362728	-8.844000E+00	  0.101362728	7.711500E+01	  0.101362728	4.484800E+01	  0.101362728	3.632600E+01
405	  0.101563133	-8.842000E+00	  0.101563133	7.671400E+01	  0.101563133	4.507300E+01	  0.101563133	3.645900E+01
406	  0.101763532	-8.836000E+00	  0.101763532	7.625000E+01	  0.101763532	4.532900E+01	  0.101763532	3.662500E+01
407	  0.101963930	-8.830000E+00	  0.101963930	7.589100E+01	  0.101963930	4.552500E+01	  0.101963930	3.676100E+01
408	  0.102164328	-8.832000E+00	  0.102164328	7.537100E+01	  0.102164328	4.583500E+01	  0.102164328	3.691200E+01
409	  0.102364726	-8.822000E+00	  0.102364726	7.490000E+01	  0.102364726	4.609400E+01	  0.102364726	3.709800E+01
410	  0.102565125	-8.812000E+00	  0.102565125	7.445900E+01	  0.102565125	4.633800E+01	  0.102565125	3.727200E+01
411	  0.102765530	-8.803000E+00	  0.102765530	7.394100E+01	  0.102765530	4.663400E+01	  0.102765530	3.746600E+01
412	  0.102965929	-8.792000E+00	  0.102965929	7.348500E+01	  0.102965929	4.689200E+01	  0.102965929	3.764700E+01
413	  0.103166327	-8.777000E+00	  0.103166327	7.295900E+01	  0.103166327	4.718900E+01	  0.103166327	3.786300E+01
414	  0.103366733	-8.764000E+00	  0.103366733	7.251200E+01	  0.103366733	4.744300E+01	  0.103366733	3.805100E+01
415	  0.103567131	-8.755000E+00	  0.103567131	7.198100E+01	  0.103567131	4.776200E+01	  0.103567131	3.824700E+01
416	  0.103767529	-8.738000E+00	  0.103767529	7.146400E+01	  0.103767529	4.806100E+01	  0.103767529	3.847000E+01
417	  0.103967935	-8.728000E+00	  0.103967935	7.094700E+01	  0.103967935	4.837700E+01	  0.103967935	3.866300E+01
418	  0.104168333	-8.706000E+00	  0.104168333	7.039300E+01	  0.104168333	4.870100E+01	  0.104168333	3.891500E+01
419	  0.104368731	-8.685000E+00	  0.104368731	6.985900E+01	  0.104368731	4.901600E+01	  0.104368731	3.916000E+01
420	  0.104569137	-8.663000E+00	  0.104569137	6.934600E+01	  0.104569137	4.932000E+01	  0.104569137	3.940500E+01
421	  0.104769535	-8.646000E+00	  0.104769535	6.876600E+01	  0.104769535	4.968600E+01	  0.104769535	3.964200E+01
422	  0.104969934	-8.619000E+00	  0.104969934	6.821700E+01	  0.104969934	5.001600E+01	  0.104969934	3.992000E+01
423	  0.105170339	-8.599000E+00	  0.105170339	6.765200E+01	  0.105170339	5.037600E+01	  0.105170339	4.016700E+01
424	  0.105370738	-8.574000E+00	  0.105370738	6.711100E+01	  0.105370738	5.071600E+01	  0.105370738	4.043400E+01
425	  0.105571143	-8.550000E+00	  0.105571143	6.658100E+01	  0.105571143	5.105500E+01	  0.105571143	4.069000E+01
426	  0.105771542	-8.536000E+00	  0.105771542	6.600400E+01	  0.105771542	5.145200E+01	  0.105771542	4.091300E+01
427	  0.105971940	-8.510000E+00	  0.105971940	6.540300E+01	  0.105971940	5.185100E+01	  0.105971940	4.119900E+01
428	  0.106172346	-8.483000E+00	  0.106172346	6.482600E+01	  0.106172346	5.223700E+01	  0.106172346	4.148400E+01
429	  0.106372744	-8.456000E+00	  0.106372744	6.428800E+01	  0.106372744	5.260000E+01	  0.106372744	4.176100E+01
430	  0.106573142	-8.440000E+00	  0.106573142	6.369100E+01	  0.106573142	5.303400E+01	  0.106573142	4.199600E+01
431	  0.106773548	-8.418000E+00	  0.106773548	6.307300E+01	  0.106773548	5.348200E+01	  0.106773548	4.226400E+01
432	  0.106973946	-8.393000E+00	  0.106973946	6.255900E+01	  0.106973946	5.385000E+01	  0.106973946	4.252200E+01
433	  0.107174344	-8.384000E+00	  0.107174344	6.193600E+01	  0.107174344	5.433700E+01	  0.107174344	4.271900E+01
434	  0.107374750	-8.347000E+00	  0.107374750	6.131700E+01	  0.107374750	5.478400E+01	  0.107374750	4.306500E+01
435	  0.107575148	-8.334000E+00	  0.107575148	6.070000E+01	  0.107575148	5.527600E+01	  0.107575148	4.328000E+01
436	  0.107775547	-8.316000E+00	  0.107775547	6.009600E+01	  0.107775547	5.575600E+01	  0.107775547	4.352200E+01
437	  0.107975952	-8.301000E+00	  0.107975952	5.944800E+01	  0.107975952	5.628800E+01	  0.107975952	4.374800E+01
438	  0.108176351	-8.282000E+00	  0.108176351	5.886500E+01	  0.108176351	5.676600E+01	  0.108176351	4.398000E+01
439	  0.108376749	-8.270000E+00	  0.108376749	5.821800E+01	  0.108376749	5.731700E+01	  0.108376749	4.418200E+01
440	  0.108577155	-8.249000E+00	  0.108577155	5.756000E+01	  0.108577155	5.787600E+01	  0.108577155	4.443800E+01
441	  0.108777553	-8.241000E+00	  0.108777553	5.683900E+01	  0.108777553	5.851800E+01	  0.108777553	4.462600E+01
442	  0.108977959	-8.226000E+00	  0.108977959	5.613400E+01	  0.108977959	5.914800E+01	  0.108977959	4.484200E+01
443	  0.109178357	-8.215000E+00	  0.109178357	5.548900E+01	  0.109178357	5.973600E+01	  0.109178357	4.502300E+01
444	  0.109378755	-8.193000E+00	  0.109378755	5.475000E+01	  0.109378755	6.041300E+01	  0.109378755	4.528000E+01
445	  0.109579161	-8.185000E+00	  0.109579161	5.406300E+01	  0.109579161	6.106500E+01	  0.109579161	4.543800E+01
446	  0.109779559	-8.173000E+00	  0.109779559	5.335000E+01	  0.109779559	6.174900E+01	  0.109779559	4.561300E+01
447	  0.109979957	-8.161000E+00	  0.109979957	5.263500E+01	  0.109979957	6.244800E+01	  0.109979957	4.578000E+01
448	  0.110180363	-8.144000E+00	  0.110180363	5.186700E+01	  0.110180363	6.320800E+01	  0.110180363	4.598500E+01
449	  0.110380761	-8.141000E+00	  0.110380761	5.111800E+01	  0.110380761	6.397100E+01	  0.110380761	4.608000E+01
450	  0.110581160	-8.124000E+00	  0.110581160	5.033400E+01	  0.110581160	6.477500E+01	  0.110581160	4.626000E+01
451	  0.110781565	-8.118000E+00	  0.110781565	4.957900E+01	  0.110781565	6.556700E+01	  0.110781565	4.635600E+01
452	  0.110981964	-8.104000E+00	  0.110981964	4.879200E+01	  0.110981964	6.640400E+01	  0.110981964	4.649200E+01
453	  0.111182362	-8.096000E+00	  0.111182362	4.809900E+01	  0.111182362	6.715500E+01	  0.111182362	4.657400E+01
454	  0.111382768	-8.085000E+00	  0.111382768	4.726400E+01	  0.111382768	6.807200E+01	  0.111382768	4.666900E+01
455	  0.111583166	-8.083000E+00	  0.111583166	4.651100E+01	  0.111583166	6.891200E+01	  0.111583166	4.668500E+01
456	  0.111783572	-8.070000E+00	  0.111783572	4.570200E+01	  0.111783572	6.983000E+01	  0.111783572	4.676500E+01
457	  0.111983970	-8.067000E+00	  0.111983970	4.487700E+01	  0.111983970	7.077700E+01	  0.111983970	4.674600E+01
458	  0.112184368	-8.059000E+00	  0.112184368	4.407900E+01	  0.112184368	7.170900E+01	  0.112184368	4.675900E+01
459	  0.112384774	-8.058000E+00	  0.112384774	4.328500E+01	  0.112384774	7.264400E+01	  0.112384774	4.669400E+01
460	  0.112585172	-8.056000E+00	  0.112585172	4.251200E+01	  0.112585172	7.356600E+01	  0.112585172	4.661600E+01
461	  0.112785570	-8.056000E+00	  0.112785570	4.168600E+01	  0.112785570	7.456000E+01	  0.112785570	4.649700E+01
462	  0.112985976	-8.057000E+00	  0.112985976	4.086100E+01	  0.112985976	7.556300E+01	  0.112985976	4.635400E+01
463	  0.113186374	-8.057000E+00	  0.113186374	4.007700E+01	  0.113186374	7.652600E+01	  0.113186374	4.619800E+01
464	  0.113386773	-8.062000E+00	  0.113386773	3.923100E+01	  0.113386773	7.756600E+01	  0.113386773	4.596000E+01
465	  0.113587178	-8.069000E+00	  0.113587178	3.836200E+01	  0.113587178	7.863900E+01	  0.113587178	4.567100E+01
466	  0.113787577	-8.077000E+00	  0.113787577	3.750000E+01	  0.113787577	7.970900E+01	  0.113787577	4.535400E+01
467	  0.113987975	-8.086000E+00	  0.113987975	3.661400E+01	  0.113987975	8.081000E+01	  0.113987975	4.498100E+01
468	  0.114188381	-8.096000E+00	  0.114188381	3.577000E+01	  0.114188381	8.185900E+01	  0.114188381	4.458800E+01
469	  0.114388779	-8.104000E+00	  0.114388779	3.488100E+01	  0.114388779	8.297300E+01	  0.114388779	4.416200E+01
470	  0.114589177	-8.126000E+00	  0.114589177	3.398500E+01	  0.114589177	8.405500E+01	  0.114589177	4.357800E+01
471	  0.114789583	-8.142000E+00	  0.114789583	3.307400E+01	  0.114789583	8.516800E+01	  0.114789583	4.299800E+01
472	  0.114989981	-8.159000E+00	  0.114989981	3.215600E+01	  0.114989981	8.628000E+01	  0.114989981	4.236900E+01
473	  0.115190387	-8.181000E+00	  0.115190387	3.126000E+01	  0.115190387	8.733800E+01	  0.115190387	4.167500E+01
474	  0.115390785	-8.198000E+00	  0.115390785	3.023500E+01	  0.115390785	8.856900E+01	  0.115390785	4.090100E+01
475	  0.115591183	-8.223000E+00	  0.115591183	2.929400E+01	  0.115591183	8.964400E+01	  0.115591183	4.006600E+01
476	  0.115791589	-8.251000E+00	  0.115791589	2.831500E+01	  0.115791589	9.073700E+01	  0.115791589	3.914600E+01
477	  0.115991987	-8.277000E+00	  0.115991987	2.734300E+01	  0.115991987	9.180300E+01	  0.115991987	3.819800E+01
478	  0.116192386	-8.308000E+00	  0.116192386	2.632800E+01	  0.116192386	9.287200E+01	  0.116192386	3.713500E+01
479	  0.116392791	-8.339000E+00	  0.116392791	2.528700E+01	  0.116392791	9.393600E+01	  0.116392791	3.599800E+01
480	  0.116593190	-8.372000E+00	  0.116593190	2.424600E+01	  0.116593190	9.495700E+01	  0.116593190	3.480800E+01
481	  0.116793588	-8.402000E+00	  0.116793588	2.319300E+01	  0.116793588	9.596600E+01	  0.116793588	3.357800E+01
482	  0.116993994	-8.434000E+00	  0.116993994	2.214000E+01	  0.116993994	9.692600E+01	  0.116993994	3.229800E+01
483	  0.117194392	-8.471000E+00	  0.117194392	2.103800E+01	  0.117194392	9.785600E+01	  0.117194392	3.088600E+01
484	  0.117394790	-8.513000E+00	  0.117394790	2.000500E+01	  0.117394790	9.861900E+01	  0.117394790	2.946900E+01
485	  0.117595196	-8.549000E+00	  0.117595196	1.892600E+01	  0.117595196	9.942600E+01	  0.117595196	2.801600E+01
486	  0.117795594	-8.593000E+00	  0.117795594	1.784900E+01	  0.117795594	1.001070E+02	  0.117795594	2.647700E+01
487	  0.117995992	-8.635000E+00	  0.117995992	1.666200E+01	  0.117995992	1.008380E+02	  0.117995992	2.479200E+01
