! Anritsu VNA Master:             	Model: MS2036C/10/77
! SN:             	1601066
! /bd0/18may10/252.ew.m2.txt
! Existing Calibration Information:
! TYPE:             	Current Settings	Active Cal Settings
! TIME:             	05/10/2018 06:27:18 PM	05/10/2018 06:18:15 PM
! INTERNAL TEMP:    	60.3 C	60.0 C
! # POINTS:         	487	487
! START FREQ:       	20.601 202 MHz	20.601 202 MHz
! STOP FREQ:        	117.995 991 MHz	117.995 991 MHz
! SOURCE POWER:     	High	High
! IFBW:             	50 Hz	50 Hz
! AVG FACTOR:       	  1 	  1 
! REF PLANE 1:      	0 mm	0 mm
! REF PLANE 2:      	0 mm	0 mm
! CAL TYPE:         	Full S22	Full S22
! CAL METHOD:       	SOLT	SOLT
! CAL LINE TYPE:    	Coax	Coax
! DUT PORT 1:       	K-Conn(M)	K-Conn(M)
! DUT PORT 2:       	K-Conn(M)	K-Conn(M)
! CAL STATUS:       	OK: Accuracy High	--
! PROP-V:       	0.700
! CABLE LOSS:       	0.000 dB/m
! REF IMPEDANCE:       	50.0
! Trace Specific Parameters:	TR1	TR2	TR3	TR4
! TRACE.#.Y (GRAPH TYPE)	LOG MAG	PHASE	REAL IMPEDANCE	IMAGINARY IMPEDANCE
! TRACE.#.X 	FREQ.GHZ	FREQ.GHZ	FREQ.GHZ	FREQ.GHZ
! S-PARAMETER	S22	S22	S22	S22
! SMOOTH/APERTURE %	0	0	0	0
! WINDOW	NSL	NSL	NSL	NSL
! GATING	OFF	OFF	OFF	OFF
! FGTD	OFF	OFF	OFF	OFF
Marker Information per Trace:	TR1	TR2	TR3	TR4
!MK1	--	"MK1 TR2:  20.000 MHz,##.##"	--	--
!MK2	--	--	"MK2 TR3:  70.100 200 MHz,Z:(17.651 ohm, -1.755 ohm)"	--
!MK3	--	--	--	--
!MK4	--	--	--	--
!MK5	--	--	--	--
!MK6	--	--	--	--
!MK7	--	--	--	--
!MK8	--	--	--	--
PNT	TR1.FREQ.GHZ	TR1.LOG MAG.dB	TR2.FREQ.GHZ	TR2.PHASE.deg	TR3.FREQ.GHZ	TR3.REAL IMPEDANCE.ohm	TR4.FREQ.GHZ	TR4.IMAGINARY IMPEDANCE.ohm
1	  0.020601204	-6.470000E-01	  0.020601204	-1.295250E+02	  0.020601204	2.276000E+00	  0.020601204	-2.352800E+01
2	  0.020801604	-6.500000E-01	  0.020801604	-1.310470E+02	  0.020801604	2.259000E+00	  0.020801604	-2.272200E+01
3	  0.021002004	-6.530000E-01	  0.021002004	-1.325750E+02	  0.021002004	2.241000E+00	  0.021002004	-2.192300E+01
4	  0.021202406	-6.560000E-01	  0.021202406	-1.341110E+02	  0.021202406	2.226000E+00	  0.021202406	-2.113000E+01
5	  0.021402806	-6.590000E-01	  0.021402806	-1.356570E+02	  0.021402806	2.210000E+00	  0.021402806	-2.034000E+01
6	  0.021603208	-6.610000E-01	  0.021603208	-1.371810E+02	  0.021603208	2.194000E+00	  0.021603208	-1.957100E+01
7	  0.021803608	-6.640000E-01	  0.021803608	-1.387320E+02	  0.021803608	2.183000E+00	  0.021803608	-1.879600E+01
8	  0.022004008	-6.720000E-01	  0.022004008	-1.402740E+02	  0.022004008	2.187000E+00	  0.022004008	-1.803200E+01
9	  0.022204408	-6.760000E-01	  0.022204408	-1.418580E+02	  0.022204408	2.176000E+00	  0.022204408	-1.725600E+01
10	  0.022404809	-6.780000E-01	  0.022404809	-1.434500E+02	  0.022404809	2.165000E+00	  0.022404809	-1.648300E+01
11	  0.022605211	-6.820000E-01	  0.022605211	-1.450420E+02	  0.022605211	2.157000E+00	  0.022605211	-1.571700E+01
12	  0.022805611	-6.860000E-01	  0.022805611	-1.466490E+02	  0.022805611	2.151000E+00	  0.022805611	-1.495100E+01
13	  0.023006011	-6.900000E-01	  0.023006011	-1.482490E+02	  0.023006011	2.147000E+00	  0.023006011	-1.419500E+01
14	  0.023206413	-6.930000E-01	  0.023206413	-1.498380E+02	  0.023206413	2.140000E+00	  0.023206413	-1.344900E+01
15	  0.023406813	-6.960000E-01	  0.023406813	-1.514460E+02	  0.023406813	2.132000E+00	  0.023406813	-1.270100E+01
16	  0.023607215	-7.010000E-01	  0.023607215	-1.530380E+02	  0.023607215	2.134000E+00	  0.023607215	-1.196500E+01
17	  0.023807615	-7.100000E-01	  0.023807615	-1.546470E+02	  0.023807615	2.145000E+00	  0.023807615	-1.122600E+01
18	  0.024008015	-7.180000E-01	  0.024008015	-1.562710E+02	  0.024008015	2.159000E+00	  0.024008015	-1.048500E+01
19	  0.024208417	-7.250000E-01	  0.024208417	-1.579230E+02	  0.024208417	2.167000E+00	  0.024208417	-9.735000E+00
20	  0.024408817	-7.320000E-01	  0.024408817	-1.595720E+02	  0.024408817	2.175000E+00	  0.024408817	-8.992000E+00
21	  0.024609219	-7.380000E-01	  0.024609219	-1.612170E+02	  0.024609219	2.181000E+00	  0.024609219	-8.254000E+00
22	  0.024809619	-7.470000E-01	  0.024809619	-1.628640E+02	  0.024809619	2.197000E+00	  0.024809619	-7.518000E+00
23	  0.025010020	-7.580000E-01	  0.025010020	-1.645180E+02	  0.025010020	2.221000E+00	  0.025010020	-6.783000E+00
24	  0.025210422	-7.680000E-01	  0.025210422	-1.661770E+02	  0.025210422	2.244000E+00	  0.025210422	-6.048000E+00
25	  0.025410822	-7.800000E-01	  0.025410822	-1.678520E+02	  0.025410822	2.270000E+00	  0.025410822	-5.309000E+00
26	  0.025611224	-7.930000E-01	  0.025611224	-1.695340E+02	  0.025611224	2.301000E+00	  0.025611224	-4.569000E+00
27	  0.025811624	-8.040000E-01	  0.025811624	-1.712370E+02	  0.025811624	2.327000E+00	  0.025811624	-3.822000E+00
28	  0.026012026	-8.150000E-01	  0.026012026	-1.729580E+02	  0.026012026	2.354000E+00	  0.026012026	-3.069000E+00
29	  0.026212426	-8.270000E-01	  0.026212426	-1.746840E+02	  0.026212426	2.386000E+00	  0.026212426	-2.315000E+00
30	  0.026412826	-8.430000E-01	  0.026412826	-1.764140E+02	  0.026412826	2.428000E+00	  0.026412826	-1.561000E+00
31	  0.026613226	-8.590000E-01	  0.026613226	-1.781690E+02	  0.026613226	2.472000E+00	  0.026613226	-7.960000E-01
32	  0.026813626	-8.750000E-01	  0.026813626	-1.799290E+02	  0.026813626	2.518000E+00	  0.026813626	-3.000000E-02
33	  0.027014028	-8.930000E-01	  0.027014028	1.783040E+02	  0.027014028	2.569000E+00	  0.027014028	7.370000E-01
34	  0.027214428	-9.090000E-01	  0.027214428	1.765190E+02	  0.027214428	2.618000E+00	  0.027214428	1.514000E+00
35	  0.027414829	-9.270000E-01	  0.027414829	1.747340E+02	  0.027414829	2.671000E+00	  0.027414829	2.292000E+00
36	  0.027615231	-9.440000E-01	  0.027615231	1.729280E+02	  0.027615231	2.727000E+00	  0.027615231	3.080000E+00
37	  0.027815631	-9.630000E-01	  0.027815631	1.711100E+02	  0.027815631	2.787000E+00	  0.027815631	3.874000E+00
38	  0.028016033	-9.830000E-01	  0.028016033	1.692730E+02	  0.028016033	2.851000E+00	  0.028016033	4.678000E+00
39	  0.028216433	-1.004000E+00	  0.028216433	1.674270E+02	  0.028216433	2.921000E+00	  0.028216433	5.489000E+00
40	  0.028416833	-1.024000E+00	  0.028416833	1.655740E+02	  0.028416833	2.992000E+00	  0.028416833	6.305000E+00
41	  0.028617235	-1.044000E+00	  0.028617235	1.637230E+02	  0.028617235	3.064000E+00	  0.028617235	7.123000E+00
42	  0.028817635	-1.066000E+00	  0.028817635	1.618650E+02	  0.028817635	3.143000E+00	  0.028817635	7.948000E+00
43	  0.029018037	-1.090000E+00	  0.029018037	1.600150E+02	  0.029018037	3.230000E+00	  0.029018037	8.773000E+00
44	  0.029218437	-1.114000E+00	  0.029218437	1.581410E+02	  0.029218437	3.322000E+00	  0.029218437	9.613000E+00
45	  0.029418837	-1.137000E+00	  0.029418837	1.562440E+02	  0.029418837	3.413000E+00	  0.029418837	1.046900E+01
46	  0.029619239	-1.163000E+00	  0.029619239	1.543570E+02	  0.029619239	3.515000E+00	  0.029619239	1.132500E+01
47	  0.029819639	-1.189000E+00	  0.029819639	1.524590E+02	  0.029819639	3.623000E+00	  0.029819639	1.219300E+01
48	  0.030020041	-1.216000E+00	  0.030020041	1.505510E+02	  0.030020041	3.735000E+00	  0.030020041	1.307100E+01
49	  0.030220442	-1.243000E+00	  0.030220442	1.486440E+02	  0.030220442	3.853000E+00	  0.030220442	1.395600E+01
50	  0.030420844	-1.272000E+00	  0.030420844	1.467350E+02	  0.030420844	3.981000E+00	  0.030420844	1.484900E+01
51	  0.030621244	-1.302000E+00	  0.030621244	1.448270E+02	  0.030621244	4.115000E+00	  0.030621244	1.575000E+01
52	  0.030821642	-1.335000E+00	  0.030821642	1.429110E+02	  0.030821642	4.266000E+00	  0.030821642	1.666200E+01
53	  0.031022044	-1.369000E+00	  0.031022044	1.409750E+02	  0.031022044	4.423000E+00	  0.031022044	1.759400E+01
54	  0.031222444	-1.396000E+00	  0.031222444	1.390490E+02	  0.031222444	4.564000E+00	  0.031222444	1.853300E+01
55	  0.031422846	-1.432000E+00	  0.031422846	1.370960E+02	  0.031422846	4.742000E+00	  0.031422846	1.949300E+01
56	  0.031623244	-1.467000E+00	  0.031623244	1.351150E+02	  0.031623244	4.928000E+00	  0.031623244	2.047900E+01
57	  0.031823646	-1.507000E+00	  0.031823646	1.331310E+02	  0.031823646	5.133000E+00	  0.031823646	2.147900E+01
58	  0.032024048	-1.546000E+00	  0.032024048	1.311560E+02	  0.032024048	5.345000E+00	  0.032024048	2.248800E+01
59	  0.032224450	-1.587000E+00	  0.032224450	1.291500E+02	  0.032224450	5.576000E+00	  0.032224450	2.352600E+01
60	  0.032424849	-1.628000E+00	  0.032424849	1.271550E+02	  0.032424849	5.815000E+00	  0.032424849	2.457400E+01
61	  0.032625251	-1.671000E+00	  0.032625251	1.251250E+02	  0.032625251	6.072000E+00	  0.032625251	2.565600E+01
62	  0.032825653	-1.712000E+00	  0.032825653	1.230900E+02	  0.032825653	6.338000E+00	  0.032825653	2.675800E+01
63	  0.033026051	-1.756000E+00	  0.033026051	1.210270E+02	  0.033026051	6.626000E+00	  0.033026051	2.789500E+01
64	  0.033226453	-1.796000E+00	  0.033226453	1.189550E+02	  0.033226453	6.917000E+00	  0.033226453	2.905800E+01
65	  0.033426855	-1.841000E+00	  0.033426855	1.169100E+02	  0.033426855	7.238000E+00	  0.033426855	3.022400E+01
66	  0.033627257	-1.885000E+00	  0.033627257	1.148530E+02	  0.033627257	7.576000E+00	  0.033627257	3.142000E+01
67	  0.033827655	-1.928000E+00	  0.033827655	1.127830E+02	  0.033827655	7.928000E+00	  0.033827655	3.264700E+01
68	  0.034028057	-1.974000E+00	  0.034028057	1.107300E+02	  0.034028057	8.308000E+00	  0.034028057	3.388700E+01
69	  0.034228459	-2.022000E+00	  0.034228459	1.086610E+02	  0.034228459	8.721000E+00	  0.034228459	3.516200E+01
70	  0.034428857	-2.067000E+00	  0.034428857	1.065750E+02	  0.034428857	9.144000E+00	  0.034428857	3.647800E+01
71	  0.034629259	-2.116000E+00	  0.034629259	1.044850E+02	  0.034629259	9.611000E+00	  0.034629259	3.782100E+01
72	  0.034829661	-2.162000E+00	  0.034829661	1.024000E+02	  0.034829661	1.009300E+01	  0.034829661	3.919500E+01
73	  0.035030060	-2.211000E+00	  0.035030060	1.003100E+02	  0.035030060	1.062200E+01	  0.035030060	4.060100E+01
74	  0.035230462	-2.265000E+00	  0.035230462	9.823800E+01	  0.035230462	1.120200E+01	  0.035230462	4.202400E+01
75	  0.035430863	-2.313000E+00	  0.035430863	9.616900E+01	  0.035430863	1.179000E+01	  0.035430863	4.348500E+01
76	  0.035631265	-2.366000E+00	  0.035631265	9.407700E+01	  0.035631265	1.244100E+01	  0.035631265	4.499400E+01
77	  0.035831664	-2.417000E+00	  0.035831664	9.200500E+01	  0.035831664	1.312700E+01	  0.035831664	4.652600E+01
78	  0.036032066	-2.469000E+00	  0.036032066	8.993200E+01	  0.036032066	1.385800E+01	  0.036032066	4.809900E+01
79	  0.036232468	-2.522000E+00	  0.036232468	8.786000E+01	  0.036232468	1.464900E+01	  0.036232468	4.971000E+01
80	  0.036432866	-2.576000E+00	  0.036432866	8.577500E+01	  0.036432866	1.550400E+01	  0.036432866	5.137100E+01
81	  0.036633268	-2.629000E+00	  0.036633268	8.372600E+01	  0.036633268	1.640300E+01	  0.036633268	5.304700E+01
82	  0.036833670	-2.684000E+00	  0.036833670	8.164600E+01	  0.036833670	1.739000E+01	  0.036833670	5.479200E+01
83	  0.037034072	-2.745000E+00	  0.037034072	7.957200E+01	  0.037034072	1.848100E+01	  0.037034072	5.656300E+01
84	  0.037234470	-2.799000E+00	  0.037234470	7.749800E+01	  0.037234470	1.961100E+01	  0.037234470	5.839700E+01
85	  0.037434869	-2.858000E+00	  0.037434869	7.544800E+01	  0.037434869	2.085100E+01	  0.037434869	6.024000E+01
86	  0.037635271	-2.917000E+00	  0.037635271	7.338700E+01	  0.037635271	2.219600E+01	  0.037635271	6.213900E+01
87	  0.037835669	-2.978000E+00	  0.037835669	7.129600E+01	  0.037835669	2.366900E+01	  0.037835669	6.411100E+01
88	  0.038036071	-3.037000E+00	  0.038036071	6.921000E+01	  0.038036071	2.524700E+01	  0.038036071	6.613100E+01
89	  0.038236473	-3.099000E+00	  0.038236473	6.711100E+01	  0.038236473	2.698300E+01	  0.038236473	6.819900E+01
90	  0.038436871	-3.162000E+00	  0.038436871	6.497700E+01	  0.038436871	2.889300E+01	  0.038436871	7.034800E+01
91	  0.038637273	-3.225000E+00	  0.038637273	6.288900E+01	  0.038637273	3.093800E+01	  0.038637273	7.248100E+01
92	  0.038837675	-3.287000E+00	  0.038837675	6.077900E+01	  0.038837675	3.316200E+01	  0.038837675	7.468300E+01
93	  0.039038073	-3.346000E+00	  0.039038073	5.865300E+01	  0.039038073	3.557900E+01	  0.039038073	7.695000E+01
94	  0.039238475	-3.404000E+00	  0.039238475	5.656200E+01	  0.039238475	3.816200E+01	  0.039238475	7.920600E+01
95	  0.039438877	-3.466000E+00	  0.039438877	5.447300E+01	  0.039438877	4.100600E+01	  0.039438877	8.144700E+01
96	  0.039639279	-3.526000E+00	  0.039639279	5.239300E+01	  0.039639279	4.408000E+01	  0.039639279	8.368300E+01
97	  0.039839678	-3.585000E+00	  0.039839678	5.026700E+01	  0.039839678	4.747700E+01	  0.039839678	8.597700E+01
98	  0.040040080	-3.644000E+00	  0.040040080	4.818200E+01	  0.040040080	5.111800E+01	  0.040040080	8.818300E+01
99	  0.040240481	-3.701000E+00	  0.040240481	4.607600E+01	  0.040240481	5.510000E+01	  0.040240481	9.037900E+01
100	  0.040440880	-3.758000E+00	  0.040440880	4.401100E+01	  0.040440880	5.937000E+01	  0.040440880	9.242100E+01
101	  0.040641282	-3.814000E+00	  0.040641282	4.192900E+01	  0.040641282	6.404100E+01	  0.040641282	9.436900E+01
102	  0.040841684	-3.870000E+00	  0.040841684	3.987400E+01	  0.040841684	6.904400E+01	  0.040841684	9.612000E+01
103	  0.041042086	-3.928000E+00	  0.041042086	3.783900E+01	  0.041042086	7.443000E+01	  0.041042086	9.758800E+01
104	  0.041242484	-3.985000E+00	  0.041242484	3.579500E+01	  0.041242484	8.025400E+01	  0.041242484	9.878300E+01
105	  0.041442886	-4.040000E+00	  0.041442886	3.375400E+01	  0.041442886	8.648600E+01	  0.041442886	9.966700E+01
106	  0.041643288	-4.098000E+00	  0.041643288	3.171300E+01	  0.041643288	9.317300E+01	  0.041643288	1.000440E+02
107	  0.041843686	-4.149000E+00	  0.041843686	2.965100E+01	  0.041843686	1.003270E+02	  0.041843686	1.000400E+02
108	  0.042044088	-4.205000E+00	  0.042044088	2.764700E+01	  0.042044088	1.076820E+02	  0.042044088	9.928300E+01
109	  0.042244490	-4.257000E+00	  0.042244490	2.562400E+01	  0.042244490	1.154390E+02	  0.042244490	9.787900E+01
110	  0.042444889	-4.312000E+00	  0.042444889	2.363200E+01	  0.042444889	1.233230E+02	  0.042444889	9.558300E+01
111	  0.042645290	-4.369000E+00	  0.042645290	2.163200E+01	  0.042645290	1.313640E+02	  0.042645290	9.233200E+01
112	  0.042845692	-4.421000E+00	  0.042845692	1.963800E+01	  0.042845692	1.394150E+02	  0.042845692	8.818700E+01
113	  0.043046094	-4.475000E+00	  0.043046094	1.764800E+01	  0.043046094	1.472750E+02	  0.043046094	8.293200E+01
114	  0.043246493	-4.530000E+00	  0.043246493	1.564500E+01	  0.043246493	1.548190E+02	  0.043246493	7.652500E+01
115	  0.043446895	-4.581000E+00	  0.043446895	1.366600E+01	  0.043446895	1.617880E+02	  0.043446895	6.921400E+01
116	  0.043647297	-4.635000E+00	  0.043647297	1.169400E+01	  0.043647297	1.679010E+02	  0.043647297	6.084200E+01
117	  0.043847695	-4.684000E+00	  0.043847695	9.717000E+00	  0.043847695	1.732000E+02	  0.043847695	5.165800E+01
118	  0.044048097	-4.733000E+00	  0.044048097	7.760000E+00	  0.044048097	1.773370E+02	  0.044048097	4.183800E+01
119	  0.044248499	-4.786000E+00	  0.044248499	5.794000E+00	  0.044248499	1.801120E+02	  0.044248499	3.138200E+01
120	  0.044448901	-4.838000E+00	  0.044448901	3.843000E+00	  0.044448901	1.815850E+02	  0.044448901	2.076300E+01
121	  0.044649299	-4.886000E+00	  0.044649299	1.893000E+00	  0.044649299	1.817870E+02	  0.044649299	1.013200E+01
122	  0.044849701	-4.932000E+00	  0.044849701	-4.100000E-02	  0.044849701	1.808120E+02	  0.044849701	-2.190000E-01
123	  0.045050103	-4.979000E+00	  0.045050103	-2.005000E+00	  0.045050103	1.785220E+02	  0.045050103	-1.032100E+01
124	  0.045250501	-5.028000E+00	  0.045250501	-3.928000E+00	  0.045250501	1.751480E+02	  0.045250501	-1.961300E+01
125	  0.045450903	-5.075000E+00	  0.045450903	-5.839000E+00	  0.045450903	1.709140E+02	  0.045450903	-2.812500E+01
126	  0.045651305	-5.118000E+00	  0.045651305	-7.766000E+00	  0.045651305	1.660620E+02	  0.045651305	-3.596700E+01
127	  0.045851704	-5.161000E+00	  0.045851704	-9.669000E+00	  0.045851704	1.606580E+02	  0.045851704	-4.284700E+01
128	  0.046052102	-5.202000E+00	  0.046052102	-1.157200E+01	  0.046052102	1.548770E+02	  0.046052102	-4.889400E+01
129	  0.046252504	-5.242000E+00	  0.046252504	-1.345100E+01	  0.046252504	1.489230E+02	  0.046252504	-5.405400E+01
130	  0.046452906	-5.283000E+00	  0.046452906	-1.531100E+01	  0.046452906	1.428510E+02	  0.046452906	-5.834700E+01
131	  0.046653304	-5.321000E+00	  0.046653304	-1.718400E+01	  0.046653304	1.367660E+02	  0.046653304	-6.200200E+01
132	  0.046853706	-5.359000E+00	  0.046853706	-1.903300E+01	  0.046853706	1.307820E+02	  0.046853706	-6.492200E+01
133	  0.047054108	-5.398000E+00	  0.047054108	-2.087700E+01	  0.047054108	1.249160E+02	  0.047054108	-6.720700E+01
134	  0.047254506	-5.435000E+00	  0.047254506	-2.270700E+01	  0.047254506	1.192770E+02	  0.047254506	-6.899300E+01
135	  0.047454908	-5.470000E+00	  0.047454908	-2.452100E+01	  0.047454908	1.138800E+02	  0.047454908	-7.030600E+01
136	  0.047655310	-5.505000E+00	  0.047655310	-2.632700E+01	  0.047655310	1.087200E+02	  0.047655310	-7.120900E+01
137	  0.047855709	-5.542000E+00	  0.047855709	-2.809500E+01	  0.047855709	1.038730E+02	  0.047855709	-7.169000E+01
138	  0.048056111	-5.577000E+00	  0.048056111	-2.985200E+01	  0.048056111	9.929100E+01	  0.048056111	-7.191800E+01
139	  0.048256513	-5.616000E+00	  0.048256513	-3.160800E+01	  0.048256513	9.493300E+01	  0.048256513	-7.183900E+01
140	  0.048456915	-5.652000E+00	  0.048456915	-3.335500E+01	  0.048456915	9.083200E+01	  0.048456915	-7.158800E+01
141	  0.048657313	-5.681000E+00	  0.048657313	-3.511200E+01	  0.048657313	8.692900E+01	  0.048657313	-7.125200E+01
142	  0.048857715	-5.715000E+00	  0.048857715	-3.687100E+01	  0.048857715	8.323200E+01	  0.048857715	-7.068000E+01
143	  0.049058117	-5.746000E+00	  0.049058117	-3.860300E+01	  0.049058117	7.979500E+01	  0.049058117	-7.002600E+01
144	  0.049258515	-5.779000E+00	  0.049258515	-4.031800E+01	  0.049258515	7.658100E+01	  0.049258515	-6.924800E+01
145	  0.049458917	-5.811000E+00	  0.049458917	-4.203100E+01	  0.049458917	7.355200E+01	  0.049458917	-6.839000E+01
146	  0.049659319	-5.841000E+00	  0.049659319	-4.370900E+01	  0.049659319	7.074600E+01	  0.049659319	-6.749000E+01
147	  0.049859721	-5.877000E+00	  0.049859721	-4.543000E+01	  0.049859721	6.804500E+01	  0.049859721	-6.645100E+01
148	  0.050060119	-5.906000E+00	  0.050060119	-4.710700E+01	  0.050060119	6.554600E+01	  0.050060119	-6.545900E+01
149	  0.050260521	-5.932000E+00	  0.050260521	-4.880100E+01	  0.050260521	6.315200E+01	  0.050260521	-6.444300E+01
150	  0.050460923	-5.958000E+00	  0.050460923	-5.049400E+01	  0.050460923	6.089000E+01	  0.050460923	-6.340100E+01
151	  0.050661322	-5.983000E+00	  0.050661322	-5.216500E+01	  0.050661322	5.877900E+01	  0.050661322	-6.234600E+01
152	  0.050861724	-6.007000E+00	  0.050861724	-5.383900E+01	  0.050861724	5.677600E+01	  0.050861724	-6.127600E+01
153	  0.051062126	-6.030000E+00	  0.051062126	-5.549100E+01	  0.051062126	5.490100E+01	  0.051062126	-6.020800E+01
154	  0.051262524	-6.055000E+00	  0.051262524	-5.713200E+01	  0.051262524	5.314600E+01	  0.051262524	-5.912200E+01
155	  0.051462926	-6.076000E+00	  0.051462926	-5.876000E+01	  0.051462926	5.148200E+01	  0.051462926	-5.806600E+01
156	  0.051663328	-6.093000E+00	  0.051663328	-6.034500E+01	  0.051663328	4.993000E+01	  0.051663328	-5.705500E+01
157	  0.051863730	-6.112000E+00	  0.051863730	-6.199400E+01	  0.051863730	4.840200E+01	  0.051863730	-5.598900E+01
158	  0.052064128	-6.127000E+00	  0.052064128	-6.358800E+01	  0.052064128	4.698900E+01	  0.052064128	-5.497800E+01
159	  0.052264530	-6.139000E+00	  0.052264530	-6.517500E+01	  0.052264530	4.563400E+01	  0.052264530	-5.399100E+01
160	  0.052464932	-6.149000E+00	  0.052464932	-6.676000E+01	  0.052464932	4.434200E+01	  0.052464932	-5.301100E+01
161	  0.052665330	-6.162000E+00	  0.052665330	-6.830100E+01	  0.052665330	4.315600E+01	  0.052665330	-5.204200E+01
162	  0.052865732	-6.174000E+00	  0.052865732	-6.981800E+01	  0.052865732	4.203800E+01	  0.052865732	-5.109700E+01
163	  0.053066134	-6.188000E+00	  0.053066134	-7.134600E+01	  0.053066134	4.097200E+01	  0.053066134	-5.013700E+01
164	  0.053266536	-6.195000E+00	  0.053266536	-7.283800E+01	  0.053266536	3.995400E+01	  0.053266536	-4.923400E+01
165	  0.053466935	-6.211000E+00	  0.053466935	-7.433800E+01	  0.053466935	3.900600E+01	  0.053466935	-4.829700E+01
166	  0.053667337	-6.217000E+00	  0.053667337	-7.580600E+01	  0.053667337	3.808500E+01	  0.053667337	-4.742200E+01
167	  0.053867739	-6.224000E+00	  0.053867739	-7.728800E+01	  0.053867739	3.719400E+01	  0.053867739	-4.654500E+01
168	  0.054068137	-6.228000E+00	  0.054068137	-7.873100E+01	  0.054068137	3.635500E+01	  0.054068137	-4.570400E+01
169	  0.054268539	-6.239000E+00	  0.054268539	-8.014200E+01	  0.054268539	3.559600E+01	  0.054268539	-4.485900E+01
170	  0.054468941	-6.249000E+00	  0.054468941	-8.157900E+01	  0.054468941	3.484900E+01	  0.054468941	-4.401200E+01
171	  0.054669335	-6.259000E+00	  0.054669335	-8.298600E+01	  0.054669335	3.414400E+01	  0.054669335	-4.319200E+01
172	  0.054869737	-6.269000E+00	  0.054869737	-8.439900E+01	  0.054869737	3.346900E+01	  0.054869737	-4.237000E+01
173	  0.055070139	-6.275000E+00	  0.055070139	-8.580900E+01	  0.055070139	3.280500E+01	  0.055070139	-4.157400E+01
174	  0.055270538	-6.287000E+00	  0.055270538	-8.719100E+01	  0.055270538	3.220300E+01	  0.055270538	-4.077900E+01
175	  0.055470940	-6.296000E+00	  0.055470940	-8.857400E+01	  0.055470940	3.161200E+01	  0.055470940	-4.000200E+01
176	  0.055671342	-6.304000E+00	  0.055671342	-8.996500E+01	  0.055671342	3.103800E+01	  0.055671342	-3.922900E+01
177	  0.055871744	-6.305000E+00	  0.055871744	-9.136700E+01	  0.055871744	3.045700E+01	  0.055871744	-3.847700E+01
178	  0.056072142	-6.318000E+00	  0.056072142	-9.274000E+01	  0.056072142	2.995200E+01	  0.056072142	-3.771300E+01
179	  0.056272544	-6.323000E+00	  0.056272544	-9.411600E+01	  0.056272544	2.943700E+01	  0.056272544	-3.697700E+01
180	  0.056472946	-6.333000E+00	  0.056472946	-9.548800E+01	  0.056472946	2.896000E+01	  0.056472946	-3.623600E+01
181	  0.056673344	-6.339000E+00	  0.056673344	-9.683200E+01	  0.056673344	2.849500E+01	  0.056673344	-3.552800E+01
182	  0.056873746	-6.341000E+00	  0.056873746	-9.820600E+01	  0.056873746	2.802700E+01	  0.056873746	-3.481800E+01
183	  0.057074148	-6.346000E+00	  0.057074148	-9.955000E+01	  0.057074148	2.759400E+01	  0.057074148	-3.412300E+01
184	  0.057274550	-6.350000E+00	  0.057274550	-1.009180E+02	  0.057274550	2.716400E+01	  0.057274550	-3.342500E+01
185	  0.057474948	-6.348000E+00	  0.057474948	-1.022660E+02	  0.057474948	2.674100E+01	  0.057474948	-3.275300E+01
186	  0.057675350	-6.353000E+00	  0.057675350	-1.036330E+02	  0.057675350	2.634400E+01	  0.057675350	-3.206600E+01
187	  0.057875752	-6.353000E+00	  0.057875752	-1.049610E+02	  0.057875752	2.596000E+01	  0.057875752	-3.141000E+01
188	  0.058076151	-6.347000E+00	  0.058076151	-1.062980E+02	  0.058076151	2.556600E+01	  0.058076151	-3.076800E+01
189	  0.058276553	-6.352000E+00	  0.058276553	-1.076010E+02	  0.058276553	2.523100E+01	  0.058276553	-3.012600E+01
190	  0.058476955	-6.344000E+00	  0.058476955	-1.089130E+02	  0.058476955	2.486300E+01	  0.058476955	-2.950700E+01
191	  0.058677353	-6.341000E+00	  0.058677353	-1.102310E+02	  0.058677353	2.452300E+01	  0.058677353	-2.888100E+01
192	  0.058877755	-6.337000E+00	  0.058877755	-1.115250E+02	  0.058877755	2.419600E+01	  0.058877755	-2.827200E+01
193	  0.059078157	-6.329000E+00	  0.059078157	-1.128120E+02	  0.059078157	2.386800E+01	  0.059078157	-2.767800E+01
194	  0.059278559	-6.321000E+00	  0.059278559	-1.140880E+02	  0.059278559	2.355600E+01	  0.059278559	-2.709000E+01
195	  0.059478957	-6.315000E+00	  0.059478957	-1.153570E+02	  0.059478957	2.325900E+01	  0.059478957	-2.650800E+01
196	  0.059679359	-6.313000E+00	  0.059679359	-1.166290E+02	  0.059679359	2.298300E+01	  0.059679359	-2.592200E+01
197	  0.059879761	-6.305000E+00	  0.059879761	-1.178550E+02	  0.059879761	2.270900E+01	  0.059879761	-2.536900E+01
198	  0.060080159	-6.301000E+00	  0.060080159	-1.191110E+02	  0.060080159	2.244800E+01	  0.060080159	-2.480000E+01
199	  0.060280561	-6.299000E+00	  0.060280561	-1.203280E+02	  0.060280561	2.221100E+01	  0.060280561	-2.424900E+01
200	  0.060480963	-6.293000E+00	  0.060480963	-1.215590E+02	  0.060480963	2.196400E+01	  0.060480963	-2.370100E+01
201	  0.060681365	-6.290000E+00	  0.060681365	-1.227730E+02	  0.060681365	2.173800E+01	  0.060681365	-2.316000E+01
202	  0.060881764	-6.286000E+00	  0.060881764	-1.239860E+02	  0.060881764	2.151800E+01	  0.060881764	-2.262200E+01
203	  0.061082166	-6.283000E+00	  0.061082166	-1.251870E+02	  0.061082166	2.130700E+01	  0.061082166	-2.209400E+01
204	  0.061282568	-6.282000E+00	  0.061282568	-1.263930E+02	  0.061282568	2.110900E+01	  0.061282568	-2.156300E+01
205	  0.061482966	-6.283000E+00	  0.061482966	-1.275780E+02	  0.061482966	2.092800E+01	  0.061482966	-2.104200E+01
206	  0.061683368	-6.285000E+00	  0.061683368	-1.287640E+02	  0.061683368	2.075500E+01	  0.061683368	-2.052300E+01
207	  0.061883770	-6.290000E+00	  0.061883770	-1.299330E+02	  0.061883770	2.059800E+01	  0.061883770	-2.001100E+01
208	  0.062084168	-6.292000E+00	  0.062084168	-1.311270E+02	  0.062084168	2.043300E+01	  0.062084168	-1.949600E+01
209	  0.062284570	-6.295000E+00	  0.062284570	-1.323120E+02	  0.062284570	2.027900E+01	  0.062284570	-1.898500E+01
210	  0.062484972	-6.284000E+00	  0.062484972	-1.334600E+02	  0.062484972	2.009800E+01	  0.062484972	-1.850400E+01
211	  0.062685370	-6.291000E+00	  0.062685370	-1.346410E+02	  0.062685370	1.996600E+01	  0.062685370	-1.799800E+01
212	  0.062885776	-6.295000E+00	  0.062885776	-1.358080E+02	  0.062885776	1.983400E+01	  0.062885776	-1.750100E+01
213	  0.063086174	-6.298000E+00	  0.063086174	-1.370070E+02	  0.063086174	1.969900E+01	  0.063086174	-1.699500E+01
214	  0.063286573	-6.307000E+00	  0.063286573	-1.381830E+02	  0.063286573	1.958900E+01	  0.063286573	-1.649700E+01
215	  0.063486971	-6.301000E+00	  0.063486971	-1.393500E+02	  0.063486971	1.944400E+01	  0.063486971	-1.601600E+01
216	  0.063687377	-6.304000E+00	  0.063687377	-1.404920E+02	  0.063687377	1.932900E+01	  0.063687377	-1.554100E+01
217	  0.063887775	-6.308000E+00	  0.063887775	-1.416770E+02	  0.063887775	1.921700E+01	  0.063887775	-1.505000E+01
218	  0.064088173	-6.308000E+00	  0.064088173	-1.428410E+02	  0.064088173	1.910400E+01	  0.064088173	-1.457200E+01
219	  0.064288579	-6.313000E+00	  0.064288579	-1.440380E+02	  0.064288579	1.900200E+01	  0.064288579	-1.407900E+01
220	  0.064488977	-6.315000E+00	  0.064488977	-1.452160E+02	  0.064488977	1.890000E+01	  0.064488977	-1.359800E+01
221	  0.064689375	-6.321000E+00	  0.064689375	-1.463580E+02	  0.064689375	1.881500E+01	  0.064689375	-1.313200E+01
222	  0.064889781	-6.324000E+00	  0.064889781	-1.475170E+02	  0.064889781	1.872500E+01	  0.064889781	-1.266200E+01
223	  0.065090179	-6.323000E+00	  0.065090179	-1.486670E+02	  0.065090179	1.863000E+01	  0.065090179	-1.220000E+01
224	  0.065290578	-6.322000E+00	  0.065290578	-1.498100E+02	  0.065290578	1.853800E+01	  0.065290578	-1.174200E+01
225	  0.065490983	-6.325000E+00	  0.065490983	-1.509200E+02	  0.065490983	1.846300E+01	  0.065490983	-1.129700E+01
226	  0.065691382	-6.324000E+00	  0.065691382	-1.520640E+02	  0.065691382	1.837900E+01	  0.065691382	-1.084100E+01
227	  0.065891780	-6.326000E+00	  0.065891780	-1.532010E+02	  0.065891780	1.830800E+01	  0.065891780	-1.038900E+01
228	  0.066092186	-6.325000E+00	  0.066092186	-1.543040E+02	  0.066092186	1.823300E+01	  0.066092186	-9.952000E+00
229	  0.066292584	-6.326000E+00	  0.066292584	-1.553940E+02	  0.066292584	1.816900E+01	  0.066292584	-9.521000E+00
230	  0.066492982	-6.329000E+00	  0.066492982	-1.564700E+02	  0.066492982	1.811300E+01	  0.066492982	-9.096000E+00
231	  0.066693388	-6.325000E+00	  0.066693388	-1.575890E+02	  0.066693388	1.803900E+01	  0.066693388	-8.658000E+00
232	  0.066893786	-6.330000E+00	  0.066893786	-1.586610E+02	  0.066893786	1.799600E+01	  0.066893786	-8.236000E+00
233	  0.067094192	-6.332000E+00	  0.067094192	-1.597220E+02	  0.067094192	1.794800E+01	  0.067094192	-7.820000E+00
234	  0.067294590	-6.332000E+00	  0.067294590	-1.607920E+02	  0.067294590	1.789700E+01	  0.067294590	-7.402000E+00
235	  0.067494988	-6.336000E+00	  0.067494988	-1.618490E+02	  0.067494988	1.786000E+01	  0.067494988	-6.989000E+00
236	  0.067695394	-6.341000E+00	  0.067695394	-1.629170E+02	  0.067695394	1.782600E+01	  0.067695394	-6.573000E+00
237	  0.067895792	-6.341000E+00	  0.067895792	-1.639720E+02	  0.067895792	1.778400E+01	  0.067895792	-6.163000E+00
238	  0.068096191	-6.352000E+00	  0.068096191	-1.650320E+02	  0.068096191	1.777300E+01	  0.068096191	-5.750000E+00
239	  0.068296596	-6.354000E+00	  0.068296596	-1.660780E+02	  0.068296596	1.774400E+01	  0.068296596	-5.345000E+00
240	  0.068496995	-6.358000E+00	  0.068496995	-1.671150E+02	  0.068496995	1.772000E+01	  0.068496995	-4.944000E+00
241	  0.068697393	-6.363000E+00	  0.068697393	-1.681390E+02	  0.068697393	1.770400E+01	  0.068697393	-4.548000E+00
242	  0.068897791	-6.368000E+00	  0.068897791	-1.692150E+02	  0.068897791	1.768600E+01	  0.068897791	-4.133000E+00
243	  0.069098189	-6.370000E+00	  0.069098189	-1.702670E+02	  0.069098189	1.766600E+01	  0.069098189	-3.728000E+00
244	  0.069298595	-6.370000E+00	  0.069298595	-1.712730E+02	  0.069298595	1.764500E+01	  0.069298595	-3.342000E+00
245	  0.069498993	-6.379000E+00	  0.069498993	-1.723170E+02	  0.069498993	1.764800E+01	  0.069498993	-2.940000E+00
246	  0.069699399	-6.385000E+00	  0.069699399	-1.733410E+02	  0.069699399	1.764400E+01	  0.069699399	-2.547000E+00
247	  0.069899797	-6.392000E+00	  0.069899797	-1.744020E+02	  0.069899797	1.764700E+01	  0.069899797	-2.140000E+00
248	  0.070100196	-6.398000E+00	  0.070100196	-1.754080E+02	  0.070100196	1.765000E+01	  0.070100196	-1.755000E+00
249	  0.070300601	-6.398000E+00	  0.070300601	-1.764120E+02	  0.070300601	1.764100E+01	  0.070300601	-1.370000E+00
250	  0.070501000	-6.401000E+00	  0.070501000	-1.774290E+02	  0.070501000	1.764100E+01	  0.070501000	-9.820000E-01
251	  0.070701398	-6.408000E+00	  0.070701398	-1.784220E+02	  0.070701398	1.765300E+01	  0.070701398	-6.020000E-01
252	  0.070901804	-6.409000E+00	  0.070901804	-1.794300E+02	  0.070901804	1.765300E+01	  0.070901804	-2.170000E-01
253	  0.071102202	-6.415000E+00	  0.071102202	1.795710E+02	  0.071102202	1.766900E+01	  0.071102202	1.630000E-01
254	  0.071302600	-6.419000E+00	  0.071302600	1.786050E+02	  0.071302600	1.768000E+01	  0.071302600	5.320000E-01
255	  0.071503006	-6.421000E+00	  0.071503006	1.776090E+02	  0.071503006	1.769000E+01	  0.071503006	9.120000E-01
256	  0.071703404	-6.431000E+00	  0.071703404	1.766710E+02	  0.071703404	1.772200E+01	  0.071703404	1.270000E+00
257	  0.071903802	-6.438000E+00	  0.071903802	1.757100E+02	  0.071903802	1.774900E+01	  0.071903802	1.636000E+00
258	  0.072104208	-6.441000E+00	  0.072104208	1.747310E+02	  0.072104208	1.776600E+01	  0.072104208	2.010000E+00
259	  0.072304606	-6.447000E+00	  0.072304606	1.738180E+02	  0.072304606	1.779400E+01	  0.072304606	2.358000E+00
260	  0.072505005	-6.452000E+00	  0.072505005	1.728890E+02	  0.072505005	1.782100E+01	  0.072505005	2.713000E+00
261	  0.072705410	-6.458000E+00	  0.072705410	1.719570E+02	  0.072705410	1.785300E+01	  0.072705410	3.068000E+00
262	  0.072905809	-6.463000E+00	  0.072905809	1.710110E+02	  0.072905809	1.788500E+01	  0.072905809	3.430000E+00
263	  0.073106214	-6.473000E+00	  0.073106214	1.701250E+02	  0.073106214	1.793100E+01	  0.073106214	3.767000E+00
264	  0.073306613	-6.486000E+00	  0.073306613	1.691890E+02	  0.073306613	1.798600E+01	  0.073306613	4.123000E+00
265	  0.073507011	-6.496000E+00	  0.073507011	1.682600E+02	  0.073507011	1.803600E+01	  0.073507011	4.477000E+00
266	  0.073707417	-6.505000E+00	  0.073707417	1.673760E+02	  0.073707417	1.808500E+01	  0.073707417	4.814000E+00
267	  0.073907815	-6.516000E+00	  0.073907815	1.664400E+02	  0.073907815	1.814200E+01	  0.073907815	5.170000E+00
268	  0.074108213	-6.522000E+00	  0.074108213	1.655640E+02	  0.074108213	1.818700E+01	  0.074108213	5.505000E+00
269	  0.074308619	-6.539000E+00	  0.074308619	1.646580E+02	  0.074308619	1.826300E+01	  0.074308619	5.849000E+00
270	  0.074509017	-6.548000E+00	  0.074509017	1.637500E+02	  0.074509017	1.832200E+01	  0.074509017	6.196000E+00
271	  0.074709415	-6.562000E+00	  0.074709415	1.628230E+02	  0.074709415	1.839500E+01	  0.074709415	6.549000E+00
272	  0.074909821	-6.574000E+00	  0.074909821	1.619040E+02	  0.074909821	1.846400E+01	  0.074909821	6.899000E+00
273	  0.075110219	-6.588000E+00	  0.075110219	1.609950E+02	  0.075110219	1.854300E+01	  0.075110219	7.245000E+00
274	  0.075310618	-6.601000E+00	  0.075310618	1.600690E+02	  0.075310618	1.861900E+01	  0.075310618	7.598000E+00
275	  0.075511023	-6.611000E+00	  0.075511023	1.591690E+02	  0.075511023	1.869000E+01	  0.075511023	7.942000E+00
276	  0.075711422	-6.624000E+00	  0.075711422	1.582560E+02	  0.075711422	1.877200E+01	  0.075711422	8.290000E+00
277	  0.075911827	-6.633000E+00	  0.075911827	1.573600E+02	  0.075911827	1.884400E+01	  0.075911827	8.634000E+00
278	  0.076112226	-6.646000E+00	  0.076112226	1.564240E+02	  0.076112226	1.893200E+01	  0.076112226	8.992000E+00
279	  0.076312624	-6.656000E+00	  0.076312624	1.554960E+02	  0.076312624	1.901500E+01	  0.076312624	9.348000E+00
280	  0.076513030	-6.667000E+00	  0.076513030	1.545700E+02	  0.076513030	1.910200E+01	  0.076513030	9.703000E+00
281	  0.076713428	-6.676000E+00	  0.076713428	1.536700E+02	  0.076713428	1.918400E+01	  0.076713428	1.005000E+01
282	  0.076913826	-6.687000E+00	  0.076913826	1.527460E+02	  0.076913826	1.927600E+01	  0.076913826	1.040500E+01
283	  0.077114232	-6.695000E+00	  0.077114232	1.518690E+02	  0.077114232	1.936000E+01	  0.077114232	1.074400E+01
284	  0.077314630	-6.703000E+00	  0.077314630	1.510000E+02	  0.077314630	1.944500E+01	  0.077314630	1.108100E+01
285	  0.077515028	-6.709000E+00	  0.077515028	1.501250E+02	  0.077515028	1.952600E+01	  0.077515028	1.142100E+01
286	  0.077715434	-6.718000E+00	  0.077715434	1.492360E+02	  0.077715434	1.961900E+01	  0.077715434	1.176500E+01
287	  0.077915832	-6.727000E+00	  0.077915832	1.483720E+02	  0.077915832	1.971400E+01	  0.077915832	1.210100E+01
288	  0.078116231	-6.739000E+00	  0.078116231	1.474880E+02	  0.078116231	1.982000E+01	  0.078116231	1.244300E+01
289	  0.078316636	-6.747000E+00	  0.078316636	1.466320E+02	  0.078316636	1.991500E+01	  0.078316636	1.277700E+01
290	  0.078517035	-6.755000E+00	  0.078517035	1.457850E+02	  0.078517035	2.001300E+01	  0.078517035	1.310700E+01
291	  0.078717433	-6.764000E+00	  0.078717433	1.449290E+02	  0.078717433	2.011800E+01	  0.078717433	1.344100E+01
292	  0.078917839	-6.776000E+00	  0.078917839	1.441350E+02	  0.078917839	2.022400E+01	  0.078917839	1.374900E+01
293	  0.079118237	-6.786000E+00	  0.079118237	1.433460E+02	  0.079118237	2.032800E+01	  0.079118237	1.405700E+01
294	  0.079318643	-6.796000E+00	  0.079318643	1.425270E+02	  0.079318643	2.043800E+01	  0.079318643	1.437700E+01
295	  0.079519041	-6.815000E+00	  0.079519041	1.417190E+02	  0.079519041	2.057100E+01	  0.079519041	1.468700E+01
296	  0.079719439	-6.826000E+00	  0.079719439	1.409400E+02	  0.079719439	2.068400E+01	  0.079719439	1.499100E+01
297	  0.079919845	-6.843000E+00	  0.079919845	1.401480E+02	  0.079919845	2.081500E+01	  0.079919845	1.529700E+01
298	  0.080120243	-6.857000E+00	  0.080120243	1.393500E+02	  0.080120243	2.094300E+01	  0.080120243	1.560700E+01
299	  0.080320641	-6.880000E+00	  0.080320641	1.385520E+02	  0.080320641	2.109600E+01	  0.080320641	1.591100E+01
300	  0.080521047	-6.898000E+00	  0.080521047	1.377940E+02	  0.080521047	2.123300E+01	  0.080521047	1.620200E+01
301	  0.080721445	-6.920000E+00	  0.080721445	1.369860E+02	  0.080721445	2.139000E+01	  0.080721445	1.651100E+01
302	  0.080921844	-6.942000E+00	  0.080921844	1.362230E+02	  0.080921844	2.154400E+01	  0.080921844	1.680100E+01
303	  0.081122249	-6.963000E+00	  0.081122249	1.354490E+02	  0.081122249	2.170000E+01	  0.081122249	1.709700E+01
304	  0.081322648	-6.986000E+00	  0.081322648	1.346770E+02	  0.081322648	2.186100E+01	  0.081322648	1.739000E+01
305	  0.081523046	-7.012000E+00	  0.081523046	1.338860E+02	  0.081523046	2.203700E+01	  0.081523046	1.768900E+01
306	  0.081723452	-7.035000E+00	  0.081723452	1.330760E+02	  0.081723452	2.221100E+01	  0.081723452	1.799600E+01
307	  0.081923850	-7.063000E+00	  0.081923850	1.322670E+02	  0.081923850	2.240100E+01	  0.081923850	1.829900E+01
308	  0.082124248	-7.084000E+00	  0.082124248	1.315060E+02	  0.082124248	2.256600E+01	  0.082124248	1.859000E+01
309	  0.082324654	-7.114000E+00	  0.082324654	1.306740E+02	  0.082324654	2.277300E+01	  0.082324654	1.889900E+01
310	  0.082525052	-7.137000E+00	  0.082525052	1.298980E+02	  0.082525052	2.295200E+01	  0.082525052	1.919400E+01
311	  0.082725458	-7.165000E+00	  0.082725458	1.291080E+02	  0.082725458	2.314900E+01	  0.082725458	1.948800E+01
312	  0.082925856	-7.188000E+00	  0.082925856	1.283340E+02	  0.082925856	2.333600E+01	  0.082925856	1.978100E+01
313	  0.083126254	-7.215000E+00	  0.083126254	1.275020E+02	  0.083126254	2.354500E+01	  0.083126254	2.009200E+01
314	  0.083326660	-7.238000E+00	  0.083326660	1.267190E+02	  0.083326660	2.373900E+01	  0.083326660	2.038800E+01
315	  0.083527058	-7.258000E+00	  0.083527058	1.259120E+02	  0.083527058	2.393000E+01	  0.083527058	2.069700E+01
316	  0.083727457	-7.281000E+00	  0.083727457	1.251210E+02	  0.083727457	2.413100E+01	  0.083727457	2.099600E+01
317	  0.083927862	-7.307000E+00	  0.083927862	1.243210E+02	  0.083927862	2.434300E+01	  0.083927862	2.129500E+01
318	  0.084128261	-7.329000E+00	  0.084128261	1.235310E+02	  0.084128261	2.454800E+01	  0.084128261	2.159400E+01
319	  0.084328659	-7.351000E+00	  0.084328659	1.227770E+02	  0.084328659	2.474800E+01	  0.084328659	2.187900E+01
320	  0.084529065	-7.368000E+00	  0.084529065	1.219980E+02	  0.084529065	2.494600E+01	  0.084529065	2.217800E+01
321	  0.084729463	-7.388000E+00	  0.084729463	1.212500E+02	  0.084729463	2.514500E+01	  0.084729463	2.246300E+01
322	  0.084929854	-7.410000E+00	  0.084929854	1.204820E+02	  0.084929854	2.535800E+01	  0.084929854	2.275100E+01
323	  0.085130259	-7.423000E+00	  0.085130259	1.197510E+02	  0.085130259	2.554200E+01	  0.085130259	2.303800E+01
324	  0.085330658	-7.436000E+00	  0.085330658	1.189830E+02	  0.085330658	2.573900E+01	  0.085330658	2.333800E+01
325	  0.085531056	-7.455000E+00	  0.085531056	1.182470E+02	  0.085531056	2.594600E+01	  0.085531056	2.361800E+01
326	  0.085731462	-7.476000E+00	  0.085731462	1.175120E+02	  0.085731462	2.616300E+01	  0.085731462	2.389400E+01
327	  0.085931860	-7.495000E+00	  0.085931860	1.168590E+02	  0.085931860	2.635800E+01	  0.085931860	2.413900E+01
328	  0.086132258	-7.512000E+00	  0.086132258	1.161730E+02	  0.086132258	2.655800E+01	  0.086132258	2.440000E+01
329	  0.086332664	-7.530000E+00	  0.086332664	1.154790E+02	  0.086332664	2.676700E+01	  0.086332664	2.466200E+01
330	  0.086533062	-7.552000E+00	  0.086533062	1.148010E+02	  0.086533062	2.698500E+01	  0.086533062	2.491100E+01
331	  0.086733460	-7.571000E+00	  0.086733460	1.141340E+02	  0.086733460	2.719400E+01	  0.086733460	2.516100E+01
332	  0.086933866	-7.593000E+00	  0.086933866	1.134710E+02	  0.086933866	2.741500E+01	  0.086933866	2.540300E+01
333	  0.087134264	-7.612000E+00	  0.087134264	1.128220E+02	  0.087134264	2.762700E+01	  0.087134264	2.564300E+01
334	  0.087334670	-7.639000E+00	  0.087334670	1.121630E+02	  0.087334670	2.786600E+01	  0.087334670	2.587400E+01
335	  0.087535068	-7.661000E+00	  0.087535068	1.114970E+02	  0.087535068	2.809600E+01	  0.087535068	2.611500E+01
336	  0.087735467	-7.687000E+00	  0.087735467	1.108610E+02	  0.087735467	2.833100E+01	  0.087735467	2.633600E+01
337	  0.087935872	-7.713000E+00	  0.087935872	1.102090E+02	  0.087935872	2.857500E+01	  0.087935872	2.656300E+01
338	  0.088136271	-7.739000E+00	  0.088136271	1.095660E+02	  0.088136271	2.881800E+01	  0.088136271	2.678500E+01
339	  0.088336669	-7.766000E+00	  0.088336669	1.089320E+02	  0.088336669	2.906200E+01	  0.088336669	2.700200E+01
340	  0.088537075	-7.792000E+00	  0.088537075	1.082600E+02	  0.088537075	2.932100E+01	  0.088537075	2.723400E+01
341	  0.088737473	-7.820000E+00	  0.088737473	1.076480E+02	  0.088737473	2.956800E+01	  0.088737473	2.743600E+01
342	  0.088937871	-7.851000E+00	  0.088937871	1.069540E+02	  0.088937871	2.985200E+01	  0.088937871	2.766500E+01
343	  0.089138277	-7.875000E+00	  0.089138277	1.062980E+02	  0.089138277	3.010800E+01	  0.089138277	2.789100E+01
344	  0.089338675	-7.911000E+00	  0.089338675	1.056650E+02	  0.089338675	3.039300E+01	  0.089338675	2.808300E+01
345	  0.089539073	-7.932000E+00	  0.089539073	1.050360E+02	  0.089539073	3.064100E+01	  0.089539073	2.829900E+01
346	  0.089739479	-7.966000E+00	  0.089739479	1.043950E+02	  0.089739479	3.092900E+01	  0.089739479	2.849400E+01
347	  0.089939877	-7.996000E+00	  0.089939877	1.037650E+02	  0.089939877	3.120400E+01	  0.089939877	2.869300E+01
348	  0.090140276	-8.016000E+00	  0.090140276	1.030860E+02	  0.090140276	3.147300E+01	  0.090140276	2.892900E+01
349	  0.090340681	-8.043000E+00	  0.090340681	1.024910E+02	  0.090340681	3.173500E+01	  0.090340681	2.911700E+01
350	  0.090541080	-8.069000E+00	  0.090541080	1.017970E+02	  0.090541080	3.203100E+01	  0.090541080	2.934400E+01
351	  0.090741485	-8.100000E+00	  0.090741485	1.011920E+02	  0.090741485	3.231400E+01	  0.090741485	2.952200E+01
352	  0.090941884	-8.125000E+00	  0.090941884	1.005570E+02	  0.090941884	3.259400E+01	  0.090941884	2.972500E+01
353	  0.091142282	-8.156000E+00	  0.091142282	9.993800E+01	  0.091142282	3.288700E+01	  0.091142282	2.990500E+01
354	  0.091342688	-8.174000E+00	  0.091342688	9.933100E+01	  0.091342688	3.314700E+01	  0.091342688	3.010800E+01
355	  0.091543086	-8.205000E+00	  0.091543086	9.872800E+01	  0.091543086	3.344000E+01	  0.091543086	3.027900E+01
356	  0.091743484	-8.227000E+00	  0.091743484	9.810500E+01	  0.091743484	3.372000E+01	  0.091743484	3.047700E+01
357	  0.091943890	-8.248000E+00	  0.091943890	9.749400E+01	  0.091943890	3.399500E+01	  0.091943890	3.067200E+01
358	  0.092144288	-8.267000E+00	  0.092144288	9.691900E+01	  0.092144288	3.425700E+01	  0.092144288	3.085400E+01
359	  0.092344686	-8.291000E+00	  0.092344686	9.637100E+01	  0.092344686	3.452300E+01	  0.092344686	3.101200E+01
360	  0.092545092	-8.309000E+00	  0.092545092	9.577200E+01	  0.092545092	3.479600E+01	  0.092545092	3.120400E+01
361	  0.092745490	-8.336000E+00	  0.092745490	9.524700E+01	  0.092745490	3.506500E+01	  0.092745490	3.134500E+01
362	  0.092945889	-8.360000E+00	  0.092945889	9.473100E+01	  0.092945889	3.532700E+01	  0.092945889	3.148500E+01
363	  0.093146294	-8.380000E+00	  0.093146294	9.419500E+01	  0.093146294	3.558700E+01	  0.093146294	3.164400E+01
364	  0.093346693	-8.401000E+00	  0.093346693	9.371000E+01	  0.093346693	3.583400E+01	  0.093346693	3.177700E+01
365	  0.093547091	-8.423000E+00	  0.093547091	9.318700E+01	  0.093547091	3.609900E+01	  0.093547091	3.192200E+01
366	  0.093747497	-8.445000E+00	  0.093747497	9.271400E+01	  0.093747497	3.634600E+01	  0.093747497	3.204700E+01
367	  0.093947895	-8.464000E+00	  0.093947895	9.219300E+01	  0.093947895	3.660800E+01	  0.093947895	3.219400E+01
368	  0.094148301	-8.487000E+00	  0.094148301	9.170400E+01	  0.094148301	3.686800E+01	  0.094148301	3.231900E+01
369	  0.094348699	-8.511000E+00	  0.094348699	9.124500E+01	  0.094348699	3.712000E+01	  0.094348699	3.242800E+01
370	  0.094549097	-8.534000E+00	  0.094549097	9.079300E+01	  0.094549097	3.736700E+01	  0.094549097	3.253500E+01
371	  0.094749503	-8.559000E+00	  0.094749503	9.034700E+01	  0.094749503	3.762000E+01	  0.094749503	3.263200E+01
372	  0.094949901	-8.578000E+00	  0.094949901	8.988000E+01	  0.094949901	3.787000E+01	  0.094949901	3.275100E+01
373	  0.095150299	-8.596000E+00	  0.095150299	8.940400E+01	  0.095150299	3.812100E+01	  0.095150299	3.287600E+01
374	  0.095350705	-8.619000E+00	  0.095350705	8.899000E+01	  0.095350705	3.835900E+01	  0.095350705	3.296400E+01
375	  0.095551103	-8.643000E+00	  0.095551103	8.851900E+01	  0.095551103	3.862500E+01	  0.095551103	3.306800E+01
376	  0.095751502	-8.660000E+00	  0.095751502	8.804600E+01	  0.095751502	3.887800E+01	  0.095751502	3.319200E+01
377	  0.095951907	-8.679000E+00	  0.095951907	8.759000E+01	  0.095951907	3.913100E+01	  0.095951907	3.329900E+01
378	  0.096152306	-8.701000E+00	  0.096152306	8.716200E+01	  0.096152306	3.937700E+01	  0.096152306	3.338900E+01
379	  0.096352704	-8.717000E+00	  0.096352704	8.675500E+01	  0.096352704	3.960300E+01	  0.096352704	3.348600E+01
380	  0.096553110	-8.738000E+00	  0.096553110	8.630000E+01	  0.096553110	3.986600E+01	  0.096553110	3.358200E+01
381	  0.096753508	-8.748000E+00	  0.096753508	8.586700E+01	  0.096753508	4.009200E+01	  0.096753508	3.370500E+01
382	  0.096953906	-8.761000E+00	  0.096953906	8.544700E+01	  0.096953906	4.032200E+01	  0.096953906	3.381300E+01
383	  0.097154312	-8.774000E+00	  0.097154312	8.499100E+01	  0.097154312	4.056900E+01	  0.097154312	3.393300E+01
384	  0.097354710	-8.790000E+00	  0.097354710	8.457500E+01	  0.097354710	4.080600E+01	  0.097354710	3.402800E+01
385	  0.097555116	-8.797000E+00	  0.097555116	8.412700E+01	  0.097555116	4.104200E+01	  0.097555116	3.415900E+01
386	  0.097755514	-8.807000E+00	  0.097755514	8.371900E+01	  0.097755514	4.126400E+01	  0.097755514	3.426900E+01
387	  0.097955912	-8.817000E+00	  0.097955912	8.332300E+01	  0.097955912	4.148400E+01	  0.097955912	3.437100E+01
388	  0.098156318	-8.825000E+00	  0.098156318	8.289900E+01	  0.098156318	4.171400E+01	  0.098156318	3.448900E+01
389	  0.098356716	-8.833000E+00	  0.098356716	8.249000E+01	  0.098356716	4.193700E+01	  0.098356716	3.460400E+01
390	  0.098557115	-8.838000E+00	  0.098557115	8.209500E+01	  0.098557115	4.214900E+01	  0.098557115	3.472000E+01
391	  0.098757520	-8.844000E+00	  0.098757520	8.168100E+01	  0.098757520	4.237400E+01	  0.098757520	3.483900E+01
392	  0.098957919	-8.844000E+00	  0.098957919	8.125100E+01	  0.098957919	4.259800E+01	  0.098957919	3.498000E+01
393	  0.099158317	-8.849000E+00	  0.099158317	8.089200E+01	  0.099158317	4.279700E+01	  0.099158317	3.508200E+01
394	  0.099358723	-8.849000E+00	  0.099358723	8.045900E+01	  0.099358723	4.302300E+01	  0.099358723	3.522800E+01
395	  0.099559121	-8.850000E+00	  0.099559121	8.008200E+01	  0.099559121	4.322600E+01	  0.099559121	3.534700E+01
396	  0.099759519	-8.851000E+00	  0.099759519	7.971200E+01	  0.099759519	4.342800E+01	  0.099759519	3.546300E+01
397	  0.099959925	-8.849000E+00	  0.099959925	7.936500E+01	  0.099959925	4.360900E+01	  0.099959925	3.558600E+01
398	  0.100160323	-8.848000E+00	  0.100160323	7.898200E+01	  0.100160323	4.381700E+01	  0.100160323	3.571200E+01
399	  0.100360721	-8.843000E+00	  0.100360721	7.853700E+01	  0.100360721	4.405000E+01	  0.100360721	3.587400E+01
400	  0.100561127	-8.847000E+00	  0.100561127	7.814400E+01	  0.100561127	4.427700E+01	  0.100561127	3.598500E+01
401	  0.100761525	-8.844000E+00	  0.100761525	7.778000E+01	  0.100761525	4.447300E+01	  0.100761525	3.611400E+01
402	  0.100961931	-8.845000E+00	  0.100961931	7.738100E+01	  0.100961931	4.469900E+01	  0.100961931	3.623800E+01
403	  0.101162329	-8.835000E+00	  0.101162329	7.694000E+01	  0.101162329	4.492900E+01	  0.101162329	3.641500E+01
404	  0.101362728	-8.827000E+00	  0.101362728	7.655600E+01	  0.101362728	4.513300E+01	  0.101362728	3.656500E+01
405	  0.101563133	-8.829000E+00	  0.101563133	7.616300E+01	  0.101563133	4.536500E+01	  0.101563133	3.668000E+01
406	  0.101763532	-8.819000E+00	  0.101763532	7.575200E+01	  0.101763532	4.558400E+01	  0.101763532	3.684600E+01
407	  0.101963930	-8.817000E+00	  0.101963930	7.532700E+01	  0.101963930	4.583000E+01	  0.101963930	3.698700E+01
408	  0.102164328	-8.815000E+00	  0.102164328	7.483000E+01	  0.102164328	4.612000E+01	  0.102164328	3.714800E+01
409	  0.102364726	-8.802000E+00	  0.102364726	7.434300E+01	  0.102364726	4.638800E+01	  0.102364726	3.734800E+01
410	  0.102565125	-8.795000E+00	  0.102565125	7.395600E+01	  0.102565125	4.661000E+01	  0.102565125	3.749000E+01
411	  0.102765530	-8.779000E+00	  0.102765530	7.345400E+01	  0.102765530	4.688500E+01	  0.102765530	3.770800E+01
412	  0.102965929	-8.773000E+00	  0.102965929	7.298100E+01	  0.102965929	4.716700E+01	  0.102965929	3.787600E+01
413	  0.103166327	-8.756000E+00	  0.103166327	7.250200E+01	  0.103166327	4.743300E+01	  0.103166327	3.808800E+01
414	  0.103366733	-8.744000E+00	  0.103366733	7.201700E+01	  0.103366733	4.771900E+01	  0.103366733	3.828000E+01
415	  0.103567131	-8.737000E+00	  0.103567131	7.149100E+01	  0.103567131	4.804200E+01	  0.103567131	3.846500E+01
416	  0.103767529	-8.723000E+00	  0.103767529	7.099900E+01	  0.103767529	4.833400E+01	  0.103767529	3.866900E+01
417	  0.103967935	-8.707000E+00	  0.103967935	7.048000E+01	  0.103967935	4.864500E+01	  0.103967935	3.888500E+01
418	  0.104168333	-8.686000E+00	  0.104168333	6.994900E+01	  0.104168333	4.895800E+01	  0.104168333	3.913000E+01
419	  0.104368731	-8.675000E+00	  0.104368731	6.942700E+01	  0.104368731	4.928800E+01	  0.104368731	3.932900E+01
420	  0.104569137	-8.644000E+00	  0.104569137	6.891500E+01	  0.104569137	4.957900E+01	  0.104569137	3.961200E+01
421	  0.104769535	-8.627000E+00	  0.104769535	6.834200E+01	  0.104769535	4.994500E+01	  0.104769535	3.984700E+01
422	  0.104969934	-8.604000E+00	  0.104969934	6.779300E+01	  0.104969934	5.028600E+01	  0.104969934	4.010600E+01
423	  0.105170339	-8.581000E+00	  0.105170339	6.721000E+01	  0.105170339	5.065700E+01	  0.105170339	4.037600E+01
424	  0.105370738	-8.556000E+00	  0.105370738	6.666500E+01	  0.105370738	5.100500E+01	  0.105370738	4.064000E+01
425	  0.105571143	-8.545000E+00	  0.105571143	6.613300E+01	  0.105571143	5.137200E+01	  0.105571143	4.083700E+01
426	  0.105771542	-8.515000E+00	  0.105771542	6.553600E+01	  0.105771542	5.176100E+01	  0.105771542	4.113900E+01
427	  0.105971940	-8.497000E+00	  0.105971940	6.497300E+01	  0.105971940	5.214900E+01	  0.105971940	4.138000E+01
428	  0.106172346	-8.471000E+00	  0.106172346	6.441300E+01	  0.106172346	5.253000E+01	  0.106172346	4.165400E+01
429	  0.106372744	-8.447000E+00	  0.106372744	6.383800E+01	  0.106372744	5.293200E+01	  0.106372744	4.192100E+01
430	  0.106573142	-8.430000E+00	  0.106573142	6.325900E+01	  0.106573142	5.335500E+01	  0.106573142	4.215600E+01
431	  0.106773548	-8.405000E+00	  0.106773548	6.264000E+01	  0.106773548	5.380500E+01	  0.106773548	4.243700E+01
432	  0.106973946	-8.390000E+00	  0.106973946	6.214500E+01	  0.106973946	5.417800E+01	  0.106973946	4.263800E+01
433	  0.107174344	-8.367000E+00	  0.107174344	6.147500E+01	  0.107174344	5.468500E+01	  0.107174344	4.292300E+01
434	  0.107374750	-8.341000E+00	  0.107374750	6.090300E+01	  0.107374750	5.511800E+01	  0.107374750	4.319500E+01
435	  0.107575148	-8.328000E+00	  0.107575148	6.027100E+01	  0.107575148	5.562700E+01	  0.107575148	4.341300E+01
436	  0.107775547	-8.303000E+00	  0.107775547	5.966900E+01	  0.107775547	5.610100E+01	  0.107775547	4.368900E+01
437	  0.107975952	-8.294000E+00	  0.107975952	5.898700E+01	  0.107975952	5.667500E+01	  0.107975952	4.388800E+01
438	  0.108176351	-8.269000E+00	  0.108176351	5.843200E+01	  0.108176351	5.712700E+01	  0.108176351	4.414600E+01
439	  0.108376749	-8.260000E+00	  0.108376749	5.778000E+01	  0.108376749	5.769300E+01	  0.108376749	4.433000E+01
440	  0.108577155	-8.240000E+00	  0.108577155	5.711200E+01	  0.108577155	5.826800E+01	  0.108577155	4.458100E+01
441	  0.108777553	-8.230000E+00	  0.108777553	5.639700E+01	  0.108777553	5.890900E+01	  0.108777553	4.477400E+01
442	  0.108977959	-8.216000E+00	  0.108977959	5.573000E+01	  0.108977959	5.951200E+01	  0.108977959	4.497800E+01
443	  0.109178357	-8.205000E+00	  0.109178357	5.501400E+01	  0.109178357	6.017300E+01	  0.109178357	4.516500E+01
444	  0.109378755	-8.192000E+00	  0.109378755	5.432600E+01	  0.109378755	6.081800E+01	  0.109378755	4.535100E+01
445	  0.109579161	-8.177000E+00	  0.109579161	5.359500E+01	  0.109579161	6.151300E+01	  0.109579161	4.555000E+01
446	  0.109779559	-8.161000E+00	  0.109779559	5.292800E+01	  0.109779559	6.215600E+01	  0.109779559	4.574600E+01
447	  0.109979957	-8.155000E+00	  0.109979957	5.216300E+01	  0.109979957	6.291700E+01	  0.109979957	4.587500E+01
448	  0.110180363	-8.137000E+00	  0.110180363	5.141600E+01	  0.110180363	6.366300E+01	  0.110180363	4.607300E+01
449	  0.110380761	-8.131000E+00	  0.110380761	5.064300E+01	  0.110380761	6.445700E+01	  0.110380761	4.618500E+01
450	  0.110581160	-8.117000E+00	  0.110581160	4.988800E+01	  0.110581160	6.524000E+01	  0.110581160	4.633900E+01
451	  0.110781565	-8.111000E+00	  0.110781565	4.913100E+01	  0.110781565	6.604200E+01	  0.110781565	4.642900E+01
452	  0.110981964	-8.098000E+00	  0.110981964	4.831100E+01	  0.110981964	6.692400E+01	  0.110981964	4.655700E+01
453	  0.111182362	-8.090000E+00	  0.111182362	4.760800E+01	  0.111182362	6.769200E+01	  0.111182362	4.663000E+01
454	  0.111382768	-8.080000E+00	  0.111382768	4.679900E+01	  0.111382768	6.859000E+01	  0.111382768	4.671100E+01
455	  0.111583166	-8.075000E+00	  0.111583166	4.603200E+01	  0.111583166	6.945300E+01	  0.111583166	4.673600E+01
456	  0.111783572	-8.068000E+00	  0.111783572	4.522700E+01	  0.111783572	7.037300E+01	  0.111783572	4.676400E+01
457	  0.111983970	-8.062000E+00	  0.111983970	4.441200E+01	  0.111983970	7.131800E+01	  0.111983970	4.675800E+01
458	  0.112184368	-8.061000E+00	  0.112184368	4.360100E+01	  0.112184368	7.226900E+01	  0.112184368	4.670100E+01
459	  0.112384774	-8.052000E+00	  0.112384774	4.280900E+01	  0.112384774	7.321400E+01	  0.112384774	4.668400E+01
460	  0.112585172	-8.056000E+00	  0.112585172	4.197900E+01	  0.112585172	7.420600E+01	  0.112585172	4.654500E+01
461	  0.112785570	-8.048000E+00	  0.112785570	4.117700E+01	  0.112785570	7.518800E+01	  0.112785570	4.648300E+01
462	  0.112985976	-8.048000E+00	  0.112985976	4.034300E+01	  0.112985976	7.621100E+01	  0.112985976	4.632600E+01
463	  0.113186374	-8.051000E+00	  0.113186374	3.953000E+01	  0.113186374	7.721200E+01	  0.113186374	4.612000E+01
464	  0.113386773	-8.056000E+00	  0.113386773	3.868400E+01	  0.113386773	7.826000E+01	  0.113386773	4.586800E+01
465	  0.113587178	-8.059000E+00	  0.113587178	3.782400E+01	  0.113587178	7.933500E+01	  0.113587178	4.560000E+01
466	  0.113787577	-8.071000E+00	  0.113787577	3.697500E+01	  0.113787577	8.038500E+01	  0.113787577	4.523200E+01
467	  0.113987975	-8.079000E+00	  0.113987975	3.609500E+01	  0.113987975	8.148600E+01	  0.113987975	4.485200E+01
468	  0.114188381	-8.088000E+00	  0.114188381	3.522400E+01	  0.114188381	8.257700E+01	  0.114188381	4.443800E+01
469	  0.114388779	-8.098000E+00	  0.114388779	3.431800E+01	  0.114388779	8.371100E+01	  0.114388779	4.396200E+01
470	  0.114589177	-8.112000E+00	  0.114589177	3.343900E+01	  0.114589177	8.479900E+01	  0.114589177	4.343700E+01
471	  0.114789583	-8.129000E+00	  0.114789583	3.254900E+01	  0.114789583	8.588500E+01	  0.114789583	4.283800E+01
472	  0.114989981	-8.149000E+00	  0.114989981	3.158500E+01	  0.114989981	8.704900E+01	  0.114989981	4.213600E+01
473	  0.115190387	-8.167000E+00	  0.115190387	3.067600E+01	  0.115190387	8.813700E+01	  0.115190387	4.143700E+01
474	  0.115390785	-8.184000E+00	  0.115390785	2.968600E+01	  0.115390785	8.932300E+01	  0.115390785	4.065600E+01
475	  0.115591183	-8.208000E+00	  0.115591183	2.874100E+01	  0.115591183	9.041000E+01	  0.115591183	3.980700E+01
476	  0.115791589	-8.233000E+00	  0.115791589	2.777800E+01	  0.115791589	9.148900E+01	  0.115791589	3.888800E+01
477	  0.115991987	-8.265000E+00	  0.115991987	2.677500E+01	  0.115991987	9.255800E+01	  0.115991987	3.784000E+01
478	  0.116192386	-8.290000E+00	  0.116192386	2.575700E+01	  0.116192386	9.366000E+01	  0.116192386	3.679700E+01
479	  0.116392791	-8.319000E+00	  0.116392791	2.475600E+01	  0.116392791	9.468300E+01	  0.116392791	3.568300E+01
480	  0.116593190	-8.352000E+00	  0.116593190	2.373200E+01	  0.116593190	9.567100E+01	  0.116593190	3.447500E+01
481	  0.116793588	-8.383000E+00	  0.116793588	2.264500E+01	  0.116793588	9.670400E+01	  0.116793588	3.317700E+01
482	  0.116993994	-8.417000E+00	  0.116993994	2.157200E+01	  0.116993994	9.766300E+01	  0.116993994	3.183200E+01
483	  0.117194392	-8.452000E+00	  0.117194392	2.050800E+01	  0.117194392	9.854600E+01	  0.117194392	3.044000E+01
484	  0.117394790	-8.494000E+00	  0.117394790	1.947600E+01	  0.117394790	9.929800E+01	  0.117394790	2.900300E+01
485	  0.117595196	-8.534000E+00	  0.117595196	1.838500E+01	  0.117595196	1.000650E+02	  0.117595196	2.748100E+01
486	  0.117795594	-8.577000E+00	  0.117795594	1.727300E+01	  0.117795594	1.007660E+02	  0.117795594	2.588400E+01
487	  0.117995992	-8.618000E+00	  0.117995992	1.613400E+01	  0.117995992	1.014350E+02	  0.117995992	2.423100E+01
