! Anritsu VNA Master:             	Model: MS2036C/10/77
! SN:             	1601066
! /bd0/18may10/255.ew.m9.txt
! Existing Calibration Information:
! TYPE:             	Current Settings	Active Cal Settings
! TIME:             	05/10/2018 01:58:19 PM	05/10/2018 01:50:32 PM
! INTERNAL TEMP:    	56.5 C	56.0 C
! # POINTS:         	492	492
! START FREQ:       	20.000 MHz	20.000 MHz
! STOP FREQ:        	118.396 793 MHz	118.396 793 MHz
! SOURCE POWER:     	High	High
! IFBW:             	50 Hz	50 Hz
! AVG FACTOR:       	  1 	  1 
! REF PLANE 1:      	0 mm	0 mm
! REF PLANE 2:      	0 mm	0 mm
! CAL TYPE:         	Full S22	Full S22
! CAL METHOD:       	SOLT	SOLT
! CAL LINE TYPE:    	Coax	Coax
! DUT PORT 1:       	K-Conn(M)	K-Conn(M)
! DUT PORT 2:       	K-Conn(M)	K-Conn(M)
! CAL STATUS:       	OK: Accuracy High	--
! PROP-V:       	0.700
! CABLE LOSS:       	0.000 dB/m
! REF IMPEDANCE:       	50.0
! Trace Specific Parameters:	TR1	TR2	TR3	TR4
! TRACE.#.Y (GRAPH TYPE)	LOG MAG	PHASE	REAL IMPEDANCE	IMAGINARY IMPEDANCE
! TRACE.#.X 	FREQ.GHZ	FREQ.GHZ	FREQ.GHZ	FREQ.GHZ
! S-PARAMETER	S22	S22	S22	S22
! SMOOTH/APERTURE %	0	0	0	0
! WINDOW	NSL	NSL	NSL	NSL
! GATING	OFF	OFF	OFF	OFF
! FGTD	OFF	OFF	OFF	OFF
Marker Information per Trace:	TR1	TR2	TR3	TR4
!MK1	--	"MK1 TR2:  20.000 MHz,PH:-125.57°"	--	--
!MK2	--	--	"MK2 TR3:  70.100 200 MHz,Z:(16.762 ohm, -1.616 ohm)"	--
!MK3	--	--	--	--
!MK4	--	--	--	--
!MK5	--	--	--	--
!MK6	--	--	--	--
!MK7	--	--	--	--
!MK8	--	--	--	--
PNT	TR1.FREQ.GHZ	TR1.LOG MAG.dB	TR2.FREQ.GHZ	TR2.PHASE.deg	TR3.FREQ.GHZ	TR3.REAL IMPEDANCE.ohm	TR4.FREQ.GHZ	TR4.IMAGINARY IMPEDANCE.ohm
1	  0.020000000	-9.190000E-01	  0.020000000	-1.255690E+02	  0.020000000	3.342000E+00	  0.020000000	-2.562200E+01
2	  0.020200402	-9.290000E-01	  0.020200402	-1.270190E+02	  0.020200402	3.335000E+00	  0.020200402	-2.482900E+01
3	  0.020400802	-9.380000E-01	  0.020400802	-1.284420E+02	  0.020400802	3.324000E+00	  0.020400802	-2.406100E+01
4	  0.020601204	-9.470000E-01	  0.020601204	-1.299090E+02	  0.020601204	3.318000E+00	  0.020601204	-2.327800E+01
5	  0.020801604	-9.580000E-01	  0.020801604	-1.313950E+02	  0.020801604	3.315000E+00	  0.020801604	-2.249500E+01
6	  0.021002004	-9.660000E-01	  0.021002004	-1.329050E+02	  0.021002004	3.305000E+00	  0.021002004	-2.170900E+01
7	  0.021202406	-9.760000E-01	  0.021202406	-1.344170E+02	  0.021202406	3.300000E+00	  0.021202406	-2.093100E+01
8	  0.021402806	-9.850000E-01	  0.021402806	-1.358990E+02	  0.021402806	3.295000E+00	  0.021402806	-2.017600E+01
9	  0.021603208	-9.930000E-01	  0.021603208	-1.373930E+02	  0.021603208	3.290000E+00	  0.021603208	-1.942400E+01
10	  0.021803608	-1.005000E+00	  0.021803608	-1.388880E+02	  0.021803608	3.294000E+00	  0.021803608	-1.867800E+01
11	  0.022004008	-1.014000E+00	  0.022004008	-1.403840E+02	  0.022004008	3.293000E+00	  0.022004008	-1.793900E+01
12	  0.022204408	-1.025000E+00	  0.022204408	-1.418930E+02	  0.022204408	3.300000E+00	  0.022204408	-1.720100E+01
13	  0.022404809	-1.035000E+00	  0.022404809	-1.434390E+02	  0.022404809	3.299000E+00	  0.022404809	-1.645100E+01
14	  0.022605211	-1.048000E+00	  0.022605211	-1.449800E+02	  0.022605211	3.312000E+00	  0.022605211	-1.571100E+01
15	  0.022805611	-1.059000E+00	  0.022805611	-1.465320E+02	  0.022805611	3.319000E+00	  0.022805611	-1.497100E+01
16	  0.023006011	-1.067000E+00	  0.023006011	-1.480820E+02	  0.023006011	3.318000E+00	  0.023006011	-1.424000E+01
17	  0.023206413	-1.073000E+00	  0.023206413	-1.496280E+02	  0.023206413	3.313000E+00	  0.023206413	-1.351500E+01
18	  0.023406813	-1.083000E+00	  0.023406813	-1.511810E+02	  0.023406813	3.319000E+00	  0.023406813	-1.279300E+01
19	  0.023607215	-1.095000E+00	  0.023607215	-1.527490E+02	  0.023607215	3.334000E+00	  0.023607215	-1.206800E+01
20	  0.023807615	-1.109000E+00	  0.023807615	-1.543210E+02	  0.023807615	3.355000E+00	  0.023807615	-1.134700E+01
21	  0.024008015	-1.123000E+00	  0.024008015	-1.559150E+02	  0.024008015	3.376000E+00	  0.024008015	-1.062000E+01
22	  0.024208417	-1.133000E+00	  0.024208417	-1.575380E+02	  0.024208417	3.385000E+00	  0.024208417	-9.884000E+00
23	  0.024408817	-1.143000E+00	  0.024408817	-1.591570E+02	  0.024408817	3.398000E+00	  0.024408817	-9.154000E+00
24	  0.024609219	-1.155000E+00	  0.024609219	-1.607810E+02	  0.024609219	3.415000E+00	  0.024609219	-8.426000E+00
25	  0.024809619	-1.168000E+00	  0.024809619	-1.624160E+02	  0.024809619	3.437000E+00	  0.024809619	-7.697000E+00
26	  0.025010020	-1.183000E+00	  0.025010020	-1.640570E+02	  0.025010020	3.467000E+00	  0.025010020	-6.968000E+00
27	  0.025210422	-1.196000E+00	  0.025210422	-1.656980E+02	  0.025210422	3.492000E+00	  0.025210422	-6.242000E+00
28	  0.025410822	-1.213000E+00	  0.025410822	-1.673550E+02	  0.025410822	3.530000E+00	  0.025410822	-5.512000E+00
29	  0.025611224	-1.229000E+00	  0.025611224	-1.690190E+02	  0.025611224	3.564000E+00	  0.025611224	-4.781000E+00
30	  0.025811624	-1.246000E+00	  0.025811624	-1.707010E+02	  0.025811624	3.605000E+00	  0.025811624	-4.045000E+00
31	  0.026012026	-1.263000E+00	  0.026012026	-1.724030E+02	  0.026012026	3.644000E+00	  0.026012026	-3.302000E+00
32	  0.026212426	-1.278000E+00	  0.026212426	-1.741070E+02	  0.026212426	3.682000E+00	  0.026212426	-2.559000E+00
33	  0.026412826	-1.296000E+00	  0.026412826	-1.758090E+02	  0.026412826	3.728000E+00	  0.026412826	-1.818000E+00
34	  0.026613226	-1.315000E+00	  0.026613226	-1.775280E+02	  0.026613226	3.779000E+00	  0.026613226	-1.072000E+00
35	  0.026813626	-1.335000E+00	  0.026813626	-1.792710E+02	  0.026813626	3.835000E+00	  0.026813626	-3.150000E-01
36	  0.027014028	-1.355000E+00	  0.027014028	1.789920E+02	  0.027014028	3.895000E+00	  0.027014028	4.360000E-01
37	  0.027214428	-1.378000E+00	  0.027214428	1.772460E+02	  0.027214428	3.960000E+00	  0.027214428	1.194000E+00
38	  0.027414829	-1.400000E+00	  0.027414829	1.754970E+02	  0.027414829	4.028000E+00	  0.027414829	1.952000E+00
39	  0.027615231	-1.422000E+00	  0.027615231	1.737220E+02	  0.027615231	4.097000E+00	  0.027615231	2.723000E+00
40	  0.027815631	-1.445000E+00	  0.027815631	1.719460E+02	  0.027815631	4.171000E+00	  0.027815631	3.495000E+00
41	  0.028016033	-1.470000E+00	  0.028016033	1.701570E+02	  0.028016033	4.254000E+00	  0.028016033	4.274000E+00
42	  0.028216433	-1.496000E+00	  0.028216433	1.683450E+02	  0.028216433	4.341000E+00	  0.028216433	5.064000E+00
43	  0.028416833	-1.524000E+00	  0.028416833	1.665410E+02	  0.028416833	4.436000E+00	  0.028416833	5.853000E+00
44	  0.028617235	-1.550000E+00	  0.028617235	1.647280E+02	  0.028617235	4.529000E+00	  0.028617235	6.648000E+00
45	  0.028817635	-1.578000E+00	  0.028817635	1.629030E+02	  0.028817635	4.631000E+00	  0.028817635	7.452000E+00
46	  0.029018037	-1.607000E+00	  0.029018037	1.610860E+02	  0.029018037	4.739000E+00	  0.029018037	8.255000E+00
47	  0.029218437	-1.635000E+00	  0.029218437	1.592400E+02	  0.029218437	4.850000E+00	  0.029218437	9.074000E+00
48	  0.029418837	-1.667000E+00	  0.029418837	1.573940E+02	  0.029418837	4.973000E+00	  0.029418837	9.898000E+00
49	  0.029619239	-1.697000E+00	  0.029619239	1.555240E+02	  0.029619239	5.097000E+00	  0.029619239	1.073700E+01
50	  0.029819639	-1.728000E+00	  0.029819639	1.536330E+02	  0.029819639	5.228000E+00	  0.029819639	1.159000E+01
51	  0.030020041	-1.761000E+00	  0.030020041	1.517600E+02	  0.030020041	5.370000E+00	  0.030020041	1.244100E+01
52	  0.030220442	-1.793000E+00	  0.030220442	1.498710E+02	  0.030220442	5.511000E+00	  0.030220442	1.330500E+01
53	  0.030420844	-1.826000E+00	  0.030420844	1.479810E+02	  0.030420844	5.662000E+00	  0.030420844	1.417500E+01
54	  0.030621244	-1.860000E+00	  0.030621244	1.460880E+02	  0.030621244	5.823000E+00	  0.030621244	1.505400E+01
55	  0.030821642	-1.896000E+00	  0.030821642	1.441950E+02	  0.030821642	5.995000E+00	  0.030821642	1.594100E+01
56	  0.031022044	-1.932000E+00	  0.031022044	1.422720E+02	  0.031022044	6.176000E+00	  0.031022044	1.684900E+01
57	  0.031222444	-1.959000E+00	  0.031222444	1.403540E+02	  0.031222444	6.336000E+00	  0.031222444	1.776600E+01
58	  0.031422846	-1.997000E+00	  0.031422846	1.383970E+02	  0.031422846	6.539000E+00	  0.031422846	1.870900E+01
59	  0.031623244	-2.036000E+00	  0.031623244	1.364360E+02	  0.031623244	6.751000E+00	  0.031623244	1.966500E+01
60	  0.031823646	-2.071000E+00	  0.031823646	1.344710E+02	  0.031823646	6.962000E+00	  0.031823646	2.063400E+01
61	  0.032024048	-2.112000E+00	  0.032024048	1.325030E+02	  0.032024048	7.199000E+00	  0.032024048	2.161500E+01
62	  0.032224450	-2.153000E+00	  0.032224450	1.305350E+02	  0.032224450	7.449000E+00	  0.032224450	2.260800E+01
63	  0.032424849	-2.195000E+00	  0.032424849	1.285300E+02	  0.032424849	7.716000E+00	  0.032424849	2.363300E+01
64	  0.032625251	-2.233000E+00	  0.032625251	1.265440E+02	  0.032625251	7.981000E+00	  0.032625251	2.466300E+01
65	  0.032825653	-2.274000E+00	  0.032825653	1.245290E+02	  0.032825653	8.270000E+00	  0.032825653	2.572300E+01
66	  0.033026051	-2.315000E+00	  0.033026051	1.225090E+02	  0.033026051	8.573000E+00	  0.033026051	2.680200E+01
67	  0.033226453	-2.357000E+00	  0.033226453	1.204850E+02	  0.033226453	8.894000E+00	  0.033226453	2.790000E+01
68	  0.033426855	-2.398000E+00	  0.033426855	1.184710E+02	  0.033426855	9.228000E+00	  0.033426855	2.900900E+01
69	  0.033627257	-2.442000E+00	  0.033627257	1.164510E+02	  0.033627257	9.593000E+00	  0.033627257	3.014000E+01
70	  0.033827655	-2.483000E+00	  0.033827655	1.144300E+02	  0.033827655	9.963000E+00	  0.033827655	3.129200E+01
71	  0.034028057	-2.529000E+00	  0.034028057	1.124230E+02	  0.034028057	1.037000E+01	  0.034028057	3.245300E+01
72	  0.034228459	-2.573000E+00	  0.034228459	1.103720E+02	  0.034228459	1.079700E+01	  0.034228459	3.366400E+01
73	  0.034428857	-2.620000E+00	  0.034428857	1.083270E+02	  0.034428857	1.125900E+01	  0.034428857	3.489100E+01
74	  0.034629259	-2.667000E+00	  0.034629259	1.062440E+02	  0.034629259	1.175200E+01	  0.034629259	3.616700E+01
75	  0.034829661	-2.712000E+00	  0.034829661	1.041910E+02	  0.034829661	1.226000E+01	  0.034829661	3.745100E+01
76	  0.035030060	-2.763000E+00	  0.035030060	1.021490E+02	  0.035030060	1.282400E+01	  0.035030060	3.874700E+01
77	  0.035230462	-2.812000E+00	  0.035230462	1.000780E+02	  0.035230462	1.341600E+01	  0.035230462	4.009100E+01
78	  0.035430863	-2.860000E+00	  0.035430863	9.801100E+01	  0.035430863	1.403900E+01	  0.035430863	4.146400E+01
79	  0.035631265	-2.910000E+00	  0.035631265	9.594900E+01	  0.035631265	1.470800E+01	  0.035631265	4.285900E+01
80	  0.035831664	-2.959000E+00	  0.035831664	9.386500E+01	  0.035831664	1.542100E+01	  0.035831664	4.430400E+01
81	  0.036032066	-3.008000E+00	  0.036032066	9.180500E+01	  0.036032066	1.617500E+01	  0.036032066	4.576100E+01
82	  0.036232468	-3.055000E+00	  0.036232468	8.971400E+01	  0.036232468	1.697900E+01	  0.036232468	4.727800E+01
83	  0.036432866	-3.106000E+00	  0.036432866	8.762500E+01	  0.036432866	1.784900E+01	  0.036432866	4.882400E+01
84	  0.036633268	-3.147000E+00	  0.036633268	8.553000E+01	  0.036633268	1.873300E+01	  0.036633268	5.043000E+01
85	  0.036833670	-3.197000E+00	  0.036833670	8.342400E+01	  0.036833670	1.973000E+01	  0.036833670	5.206600E+01
86	  0.037034072	-3.239000E+00	  0.037034072	8.132100E+01	  0.037034072	2.075200E+01	  0.037034072	5.375700E+01
87	  0.037234470	-3.280000E+00	  0.037234470	7.918300E+01	  0.037234470	2.185900E+01	  0.037234470	5.552400E+01
88	  0.037434869	-3.316000E+00	  0.037434869	7.702200E+01	  0.037434869	2.303300E+01	  0.037434869	5.737200E+01
89	  0.037635271	-3.351000E+00	  0.037635271	7.480400E+01	  0.037635271	2.431700E+01	  0.037635271	5.933000E+01
90	  0.037835669	-3.392000E+00	  0.037835669	7.248400E+01	  0.037835669	2.580100E+01	  0.037835669	6.142200E+01
91	  0.038036071	-3.447000E+00	  0.038036071	7.009100E+01	  0.038036071	2.755100E+01	  0.038036071	6.359300E+01
92	  0.038236473	-3.521000E+00	  0.038236473	6.775900E+01	  0.038236473	2.955500E+01	  0.038236473	6.566200E+01
93	  0.038436871	-3.602000E+00	  0.038436871	6.547600E+01	  0.038436871	3.174200E+01	  0.038436871	6.767400E+01
94	  0.038637273	-3.682000E+00	  0.038637273	6.328900E+01	  0.038637273	3.402900E+01	  0.038637273	6.960000E+01
95	  0.038837675	-3.754000E+00	  0.038837675	6.116000E+01	  0.038837675	3.639300E+01	  0.038837675	7.150300E+01
96	  0.039038073	-3.819000E+00	  0.039038073	5.905000E+01	  0.039038073	3.887500E+01	  0.039038073	7.343100E+01
97	  0.039238475	-3.880000E+00	  0.039238475	5.695300E+01	  0.039238475	4.151700E+01	  0.039238475	7.535700E+01
98	  0.039438877	-3.942000E+00	  0.039438877	5.483700E+01	  0.039438877	4.439700E+01	  0.039438877	7.728600E+01
99	  0.039639279	-4.000000E+00	  0.039639279	5.275200E+01	  0.039639279	4.744800E+01	  0.039639279	7.917400E+01
100	  0.039839678	-4.056000E+00	  0.039839678	5.063800E+01	  0.039839678	5.076700E+01	  0.039839678	8.107500E+01
101	  0.040040080	-4.107000E+00	  0.040040080	4.851800E+01	  0.040040080	5.433900E+01	  0.040040080	8.295700E+01
102	  0.040240481	-4.159000E+00	  0.040240481	4.640700E+01	  0.040240481	5.819200E+01	  0.040240481	8.474100E+01
103	  0.040440880	-4.209000E+00	  0.040440880	4.430500E+01	  0.040440880	6.233700E+01	  0.040440880	8.641400E+01
104	  0.040641282	-4.260000E+00	  0.040641282	4.221100E+01	  0.040641282	6.679600E+01	  0.040641282	8.792900E+01
105	  0.040841684	-4.310000E+00	  0.040841684	4.011900E+01	  0.040841684	7.159200E+01	  0.040841684	8.925600E+01
106	  0.041042086	-4.360000E+00	  0.041042086	3.804800E+01	  0.041042086	7.669800E+01	  0.041042086	9.031900E+01
107	  0.041242484	-4.411000E+00	  0.041242484	3.595000E+01	  0.041242484	8.223600E+01	  0.041242484	9.109000E+01
108	  0.041442886	-4.462000E+00	  0.041442886	3.385600E+01	  0.041442886	8.812900E+01	  0.041442886	9.149600E+01
109	  0.041643288	-4.510000E+00	  0.041643288	3.177500E+01	  0.041643288	9.433600E+01	  0.041643288	9.148500E+01
110	  0.041843686	-4.558000E+00	  0.041843686	2.967200E+01	  0.041843686	1.009510E+02	  0.041843686	9.099000E+01
111	  0.042044088	-4.605000E+00	  0.042044088	2.759000E+01	  0.042044088	1.078020E+02	  0.042044088	8.989700E+01
112	  0.042244490	-4.653000E+00	  0.042244490	2.553000E+01	  0.042244490	1.148180E+02	  0.042244490	8.808400E+01
113	  0.042444889	-4.700000E+00	  0.042444889	2.346000E+01	  0.042444889	1.220370E+02	  0.042444889	8.554800E+01
114	  0.042645290	-4.750000E+00	  0.042645290	2.141200E+01	  0.042645290	1.292110E+02	  0.042645290	8.210400E+01
115	  0.042845692	-4.797000E+00	  0.042845692	1.935200E+01	  0.042845692	1.363820E+02	  0.042845692	7.781100E+01
116	  0.043046094	-4.841000E+00	  0.043046094	1.730700E+01	  0.043046094	1.433150E+02	  0.043046094	7.266700E+01
117	  0.043246493	-4.887000E+00	  0.043246493	1.525800E+01	  0.043246493	1.498820E+02	  0.043246493	6.653800E+01
118	  0.043446895	-4.930000E+00	  0.043446895	1.321400E+01	  0.043446895	1.559150E+02	  0.043446895	5.953500E+01
119	  0.043647297	-4.972000E+00	  0.043647297	1.117800E+01	  0.043647297	1.612590E+02	  0.043647297	5.173600E+01
120	  0.043847695	-5.012000E+00	  0.043847695	9.145000E+00	  0.043847695	1.657500E+02	  0.043847695	4.321100E+01
121	  0.044048097	-5.052000E+00	  0.044048097	7.133000E+00	  0.044048097	1.692170E+02	  0.044048097	3.416700E+01
122	  0.044248499	-5.092000E+00	  0.044248499	5.127000E+00	  0.044248499	1.715260E+02	  0.044248499	2.470500E+01
123	  0.044448901	-5.129000E+00	  0.044448901	3.125000E+00	  0.044448901	1.727970E+02	  0.044448901	1.506200E+01
124	  0.044649299	-5.168000E+00	  0.044649299	1.124000E+00	  0.044649299	1.727940E+02	  0.044649299	5.377000E+00
125	  0.044849701	-5.204000E+00	  0.044849701	-8.600000E-01	  0.044849701	1.717620E+02	  0.044849701	-4.056000E+00
126	  0.045050103	-5.241000E+00	  0.045050103	-2.831000E+00	  0.045050103	1.696170E+02	  0.045050103	-1.307900E+01
127	  0.045250501	-5.273000E+00	  0.045250501	-4.802000E+00	  0.045250501	1.666520E+02	  0.045250501	-2.162600E+01
128	  0.045450903	-5.306000E+00	  0.045450903	-6.763000E+00	  0.045450903	1.628470E+02	  0.045450903	-2.952000E+01
129	  0.045651305	-5.338000E+00	  0.045651305	-8.730000E+00	  0.045651305	1.583830E+02	  0.045651305	-3.675800E+01
130	  0.045851704	-5.368000E+00	  0.045851704	-1.066100E+01	  0.045851704	1.534800E+02	  0.045851704	-4.314400E+01
131	  0.046052102	-5.393000E+00	  0.046052102	-1.260900E+01	  0.046052102	1.482180E+02	  0.046052102	-4.890000E+01
132	  0.046252504	-5.422000E+00	  0.046252504	-1.451100E+01	  0.046252504	1.427330E+02	  0.046252504	-5.373600E+01
133	  0.046452906	-5.450000E+00	  0.046452906	-1.641000E+01	  0.046452906	1.371010E+02	  0.046452906	-5.785300E+01
134	  0.046653304	-5.476000E+00	  0.046653304	-1.831500E+01	  0.046653304	1.314220E+02	  0.046653304	-6.135900E+01
135	  0.046853706	-5.504000E+00	  0.046853706	-2.021000E+01	  0.046853706	1.257510E+02	  0.046853706	-6.416900E+01
136	  0.047054108	-5.530000E+00	  0.047054108	-2.207700E+01	  0.047054108	1.202650E+02	  0.047054108	-6.642100E+01
137	  0.047254506	-5.553000E+00	  0.047254506	-2.394500E+01	  0.047254506	1.149180E+02	  0.047254506	-6.820100E+01
138	  0.047454908	-5.577000E+00	  0.047454908	-2.581800E+01	  0.047454908	1.097100E+02	  0.047454908	-6.952500E+01
139	  0.047655310	-5.599000E+00	  0.047655310	-2.767100E+01	  0.047655310	1.047540E+02	  0.047655310	-7.047800E+01
140	  0.047855709	-5.620000E+00	  0.047855709	-2.947300E+01	  0.047855709	1.001200E+02	  0.047855709	-7.107100E+01
141	  0.048056111	-5.642000E+00	  0.048056111	-3.127800E+01	  0.048056111	9.567600E+01	  0.048056111	-7.133600E+01
142	  0.048256513	-5.664000E+00	  0.048256513	-3.307900E+01	  0.048256513	9.144900E+01	  0.048256513	-7.136800E+01
143	  0.048456915	-5.688000E+00	  0.048456915	-3.486100E+01	  0.048456915	8.747100E+01	  0.048456915	-7.115300E+01
144	  0.048657313	-5.709000E+00	  0.048657313	-3.667800E+01	  0.048657313	8.362700E+01	  0.048657313	-7.078600E+01
145	  0.048857715	-5.726000E+00	  0.048857715	-3.845200E+01	  0.048857715	8.006600E+01	  0.048857715	-7.031900E+01
146	  0.049058117	-5.746000E+00	  0.049058117	-4.022700E+01	  0.049058117	7.669500E+01	  0.049058117	-6.967800E+01
147	  0.049258515	-5.760000E+00	  0.049258515	-4.199800E+01	  0.049258515	7.350400E+01	  0.049258515	-6.899000E+01
148	  0.049458917	-5.779000E+00	  0.049458917	-4.372100E+01	  0.049458917	7.057600E+01	  0.049458917	-6.816800E+01
149	  0.049659319	-5.798000E+00	  0.049659319	-4.547600E+01	  0.049659319	6.775700E+01	  0.049659319	-6.726000E+01
150	  0.049859721	-5.815000E+00	  0.049859721	-4.719100E+01	  0.049859721	6.515100E+01	  0.049859721	-6.632200E+01
151	  0.050060119	-5.833000E+00	  0.050060119	-4.890200E+01	  0.050060119	6.269400E+01	  0.050060119	-6.533000E+01
152	  0.050260521	-5.847000E+00	  0.050260521	-5.061900E+01	  0.050260521	6.035200E+01	  0.050260521	-6.432400E+01
153	  0.050460923	-5.859000E+00	  0.050460923	-5.231800E+01	  0.050460923	5.815000E+01	  0.050460923	-6.331200E+01
154	  0.050661322	-5.871000E+00	  0.050661322	-5.401300E+01	  0.050661322	5.607500E+01	  0.050661322	-6.226600E+01
155	  0.050861724	-5.882000E+00	  0.050861724	-5.568400E+01	  0.050861724	5.412900E+01	  0.050861724	-6.123100E+01
156	  0.051062126	-5.897000E+00	  0.051062126	-5.737800E+01	  0.051062126	5.228100E+01	  0.051062126	-6.012500E+01
157	  0.051262524	-5.907000E+00	  0.051262524	-5.901200E+01	  0.051262524	5.057300E+01	  0.051262524	-5.908100E+01
158	  0.051462926	-5.919000E+00	  0.051462926	-6.067900E+01	  0.051462926	4.892700E+01	  0.051462926	-5.799400E+01
159	  0.051663328	-5.930000E+00	  0.051663328	-6.229500E+01	  0.051663328	4.740500E+01	  0.051663328	-5.694700E+01
160	  0.051863730	-5.940000E+00	  0.051863730	-6.392500E+01	  0.051863730	4.594700E+01	  0.051863730	-5.589000E+01
161	  0.052064128	-5.943000E+00	  0.052064128	-6.553200E+01	  0.052064128	4.455800E+01	  0.052064128	-5.488000E+01
162	  0.052264530	-5.948000E+00	  0.052264530	-6.713800E+01	  0.052264530	4.323800E+01	  0.052264530	-5.386600E+01
163	  0.052464932	-5.955000E+00	  0.052464932	-6.872500E+01	  0.052464932	4.200700E+01	  0.052464932	-5.285200E+01
164	  0.052665330	-5.962000E+00	  0.052665330	-7.030900E+01	  0.052665330	4.083600E+01	  0.052665330	-5.184200E+01
165	  0.052865732	-5.970000E+00	  0.052865732	-7.186900E+01	  0.052865732	3.974200E+01	  0.052865732	-5.084700E+01
166	  0.053066134	-5.978000E+00	  0.053066134	-7.342800E+01	  0.053066134	3.870000E+01	  0.053066134	-4.985800E+01
167	  0.053266536	-5.980000E+00	  0.053266536	-7.496100E+01	  0.053266536	3.769800E+01	  0.053266536	-4.891900E+01
168	  0.053466935	-5.989000E+00	  0.053466935	-7.651100E+01	  0.053466935	3.675900E+01	  0.053466935	-4.794500E+01
169	  0.053667337	-5.994000E+00	  0.053667337	-7.800900E+01	  0.053667337	3.587600E+01	  0.053667337	-4.702800E+01
170	  0.053867739	-6.000000E+00	  0.053867739	-7.952600E+01	  0.053867739	3.502500E+01	  0.053867739	-4.610300E+01
171	  0.054068137	-6.003000E+00	  0.054068137	-8.102500E+01	  0.054068137	3.421300E+01	  0.054068137	-4.520300E+01
172	  0.054268539	-6.006000E+00	  0.054268539	-8.251000E+01	  0.054268539	3.343600E+01	  0.054268539	-4.432500E+01
173	  0.054468941	-6.013000E+00	  0.054468941	-8.397400E+01	  0.054468941	3.272300E+01	  0.054468941	-4.344900E+01
174	  0.054669335	-6.016000E+00	  0.054669335	-8.543500E+01	  0.054669335	3.202200E+01	  0.054669335	-4.259700E+01
175	  0.054869737	-6.021000E+00	  0.054869737	-8.688800E+01	  0.054869737	3.136600E+01	  0.054869737	-4.175000E+01
176	  0.055070139	-6.028000E+00	  0.055070139	-8.831100E+01	  0.055070139	3.075200E+01	  0.055070139	-4.092600E+01
177	  0.055270538	-6.033000E+00	  0.055270538	-8.972200E+01	  0.055270538	3.016500E+01	  0.055270538	-4.011700E+01
178	  0.055470940	-6.038000E+00	  0.055470940	-9.113900E+01	  0.055470940	2.959400E+01	  0.055470940	-3.931800E+01
179	  0.055671342	-6.037000E+00	  0.055671342	-9.254900E+01	  0.055671342	2.903000E+01	  0.055671342	-3.854300E+01
180	  0.055871744	-6.040000E+00	  0.055871744	-9.395100E+01	  0.055871744	2.850500E+01	  0.055871744	-3.777000E+01
181	  0.056072142	-6.041000E+00	  0.056072142	-9.533400E+01	  0.056072142	2.799600E+01	  0.056072142	-3.701900E+01
182	  0.056272544	-6.045000E+00	  0.056272544	-9.670600E+01	  0.056272544	2.752200E+01	  0.056272544	-3.627500E+01
183	  0.056472946	-6.045000E+00	  0.056472946	-9.805900E+01	  0.056472946	2.706200E+01	  0.056472946	-3.555500E+01
184	  0.056673344	-6.048000E+00	  0.056673344	-9.940000E+01	  0.056673344	2.663000E+01	  0.056673344	-3.484100E+01
185	  0.056873746	-6.049000E+00	  0.056873746	-1.007170E+02	  0.056873746	2.621400E+01	  0.056873746	-3.415200E+01
186	  0.057074148	-6.048000E+00	  0.057074148	-1.020510E+02	  0.057074148	2.580000E+01	  0.057074148	-3.346400E+01
187	  0.057274550	-6.046000E+00	  0.057274550	-1.033860E+02	  0.057274550	2.539900E+01	  0.057274550	-3.278300E+01
188	  0.057474948	-6.045000E+00	  0.057474948	-1.047120E+02	  0.057474948	2.501600E+01	  0.057474948	-3.211000E+01
189	  0.057675350	-6.043000E+00	  0.057675350	-1.060260E+02	  0.057675350	2.464700E+01	  0.057675350	-3.145000E+01
190	  0.057875752	-6.039000E+00	  0.057875752	-1.073150E+02	  0.057875752	2.429100E+01	  0.057875752	-3.081100E+01
191	  0.058076151	-6.038000E+00	  0.058076151	-1.086340E+02	  0.058076151	2.395200E+01	  0.058076151	-3.015500E+01
192	  0.058276553	-6.035000E+00	  0.058276553	-1.099180E+02	  0.058276553	2.362300E+01	  0.058276553	-2.952800E+01
193	  0.058476955	-6.031000E+00	  0.058476955	-1.111810E+02	  0.058476955	2.330900E+01	  0.058476955	-2.891600E+01
194	  0.058677353	-6.026000E+00	  0.058677353	-1.124710E+02	  0.058677353	2.299400E+01	  0.058677353	-2.829700E+01
195	  0.058877755	-6.022000E+00	  0.058877755	-1.137610E+02	  0.058877755	2.269400E+01	  0.058877755	-2.768100E+01
196	  0.059078157	-6.014000E+00	  0.059078157	-1.150270E+02	  0.059078157	2.239600E+01	  0.059078157	-2.708700E+01
197	  0.059278559	-6.009000E+00	  0.059278559	-1.162970E+02	  0.059278559	2.211400E+01	  0.059278559	-2.649100E+01
198	  0.059478957	-6.005000E+00	  0.059478957	-1.175760E+02	  0.059478957	2.184400E+01	  0.059478957	-2.589300E+01
199	  0.059679359	-6.001000E+00	  0.059679359	-1.188430E+02	  0.059679359	2.158600E+01	  0.059679359	-2.530500E+01
200	  0.059879761	-5.998000E+00	  0.059879761	-1.200950E+02	  0.059879761	2.134200E+01	  0.059879761	-2.472700E+01
201	  0.060080159	-5.995000E+00	  0.060080159	-1.213340E+02	  0.060080159	2.110900E+01	  0.060080159	-2.415700E+01
202	  0.060280561	-5.992000E+00	  0.060280561	-1.225780E+02	  0.060280561	2.088200E+01	  0.060280561	-2.359000E+01
203	  0.060480963	-5.990000E+00	  0.060480963	-1.238050E+02	  0.060480963	2.067000E+01	  0.060480963	-2.303200E+01
204	  0.060681365	-5.988000E+00	  0.060681365	-1.250500E+02	  0.060681365	2.046000E+01	  0.060681365	-2.247100E+01
205	  0.060881764	-5.985000E+00	  0.060881764	-1.262650E+02	  0.060881764	2.026000E+01	  0.060881764	-2.192700E+01
206	  0.061082166	-5.979000E+00	  0.061082166	-1.274950E+02	  0.061082166	2.005500E+01	  0.061082166	-2.138300E+01
207	  0.061282568	-5.979000E+00	  0.061282568	-1.287130E+02	  0.061282568	1.987500E+01	  0.061282568	-2.084200E+01
208	  0.061482966	-5.977000E+00	  0.061482966	-1.299080E+02	  0.061482966	1.969900E+01	  0.061482966	-2.031600E+01
209	  0.061683368	-5.974000E+00	  0.061683368	-1.311210E+02	  0.061683368	1.952400E+01	  0.061683368	-1.978500E+01
210	  0.061883770	-5.973000E+00	  0.061883770	-1.323160E+02	  0.061883770	1.936300E+01	  0.061883770	-1.926400E+01
211	  0.062084168	-5.973000E+00	  0.062084168	-1.334780E+02	  0.062084168	1.921500E+01	  0.062084168	-1.875900E+01
212	  0.062284570	-5.971000E+00	  0.062284570	-1.346850E+02	  0.062284570	1.905900E+01	  0.062284570	-1.823900E+01
213	  0.062484972	-5.959000E+00	  0.062484972	-1.357940E+02	  0.062484972	1.889400E+01	  0.062484972	-1.777100E+01
214	  0.062685370	-5.959000E+00	  0.062685370	-1.369920E+02	  0.062685370	1.875600E+01	  0.062685370	-1.725900E+01
215	  0.062885776	-5.956000E+00	  0.062885776	-1.381630E+02	  0.062885776	1.861700E+01	  0.062885776	-1.676200E+01
216	  0.063086174	-5.959000E+00	  0.063086174	-1.392990E+02	  0.063086174	1.850300E+01	  0.063086174	-1.627900E+01
217	  0.063286573	-5.957000E+00	  0.063286573	-1.404570E+02	  0.063286573	1.837900E+01	  0.063286573	-1.579100E+01
218	  0.063486971	-5.951000E+00	  0.063486971	-1.415970E+02	  0.063486971	1.824800E+01	  0.063486971	-1.531700E+01
219	  0.063687377	-5.953000E+00	  0.063687377	-1.427080E+02	  0.063687377	1.814700E+01	  0.063687377	-1.485100E+01
220	  0.063887775	-5.953000E+00	  0.063887775	-1.438180E+02	  0.063887775	1.804500E+01	  0.063887775	-1.438800E+01
221	  0.064088173	-5.950000E+00	  0.064088173	-1.449520E+02	  0.064088173	1.793700E+01	  0.064088173	-1.391900E+01
222	  0.064288579	-5.952000E+00	  0.064288579	-1.461080E+02	  0.064288579	1.784300E+01	  0.064288579	-1.344100E+01
223	  0.064488977	-5.958000E+00	  0.064488977	-1.472100E+02	  0.064488977	1.776800E+01	  0.064488977	-1.298500E+01
224	  0.064689375	-5.954000E+00	  0.064689375	-1.483150E+02	  0.064689375	1.766900E+01	  0.064689375	-1.253400E+01
225	  0.064889781	-5.959000E+00	  0.064889781	-1.494030E+02	  0.064889781	1.760000E+01	  0.064889781	-1.208700E+01
226	  0.065090179	-5.958000E+00	  0.065090179	-1.505160E+02	  0.065090179	1.751800E+01	  0.065090179	-1.163400E+01
227	  0.065290578	-5.961000E+00	  0.065290578	-1.515850E+02	  0.065290578	1.745300E+01	  0.065290578	-1.119900E+01
228	  0.065490983	-5.967000E+00	  0.065490983	-1.526500E+02	  0.065490983	1.739500E+01	  0.065490983	-1.076600E+01
229	  0.065691382	-5.967000E+00	  0.065691382	-1.537320E+02	  0.065691382	1.732700E+01	  0.065691382	-1.032900E+01
230	  0.065891780	-5.971000E+00	  0.065891780	-1.547960E+02	  0.065891780	1.727200E+01	  0.065891780	-9.900000E+00
231	  0.066092186	-5.976000E+00	  0.066092186	-1.558430E+02	  0.066092186	1.722600E+01	  0.066092186	-9.478000E+00
232	  0.066292584	-5.976000E+00	  0.066292584	-1.568930E+02	  0.066292584	1.716700E+01	  0.066292584	-9.059000E+00
233	  0.066492982	-5.982000E+00	  0.066492982	-1.579500E+02	  0.066492982	1.712700E+01	  0.066492982	-8.635000E+00
234	  0.066693388	-5.986000E+00	  0.066693388	-1.590120E+02	  0.066693388	1.708200E+01	  0.066693388	-8.212000E+00
235	  0.066893786	-5.994000E+00	  0.066893786	-1.600390E+02	  0.066893786	1.705600E+01	  0.066893786	-7.802000E+00
236	  0.067094192	-5.998000E+00	  0.067094192	-1.610650E+02	  0.067094192	1.702000E+01	  0.067094192	-7.394000E+00
237	  0.067294590	-6.003000E+00	  0.067294590	-1.620660E+02	  0.067294590	1.698900E+01	  0.067294590	-6.998000E+00
238	  0.067494988	-6.005000E+00	  0.067494988	-1.631090E+02	  0.067494988	1.695200E+01	  0.067494988	-6.586000E+00
239	  0.067695394	-6.011000E+00	  0.067695394	-1.641020E+02	  0.067695394	1.693100E+01	  0.067695394	-6.194000E+00
240	  0.067895792	-6.018000E+00	  0.067895792	-1.651190E+02	  0.067895792	1.691300E+01	  0.067895792	-5.793000E+00
241	  0.068096191	-6.019000E+00	  0.068096191	-1.661430E+02	  0.068096191	1.688100E+01	  0.068096191	-5.392000E+00
242	  0.068296596	-6.027000E+00	  0.068296596	-1.671380E+02	  0.068296596	1.687100E+01	  0.068296596	-5.001000E+00
243	  0.068496995	-6.032000E+00	  0.068496995	-1.681040E+02	  0.068496995	1.685700E+01	  0.068496995	-4.622000E+00
244	  0.068697393	-6.038000E+00	  0.068697393	-1.690940E+02	  0.068697393	1.684700E+01	  0.068697393	-4.235000E+00
245	  0.068897791	-6.036000E+00	  0.068897791	-1.700620E+02	  0.068897791	1.681900E+01	  0.068897791	-3.858000E+00
246	  0.069098189	-6.036000E+00	  0.069098189	-1.710500E+02	  0.069098189	1.679800E+01	  0.069098189	-3.473000E+00
247	  0.069298595	-6.040000E+00	  0.069298595	-1.720150E+02	  0.069298595	1.678900E+01	  0.069298595	-3.097000E+00
248	  0.069498993	-6.040000E+00	  0.069498993	-1.729760E+02	  0.069498993	1.677300E+01	  0.069498993	-2.724000E+00
249	  0.069699399	-6.047000E+00	  0.069699399	-1.739670E+02	  0.069699399	1.677700E+01	  0.069699399	-2.338000E+00
250	  0.069899797	-6.048000E+00	  0.069899797	-1.749180E+02	  0.069899797	1.676600E+01	  0.069899797	-1.969000E+00
251	  0.070100196	-6.050000E+00	  0.070100196	-1.758290E+02	  0.070100196	1.676100E+01	  0.070100196	-1.616000E+00
252	  0.070300601	-6.052000E+00	  0.070300601	-1.768020E+02	  0.070300601	1.676000E+01	  0.070300601	-1.239000E+00
253	  0.070501000	-6.051000E+00	  0.070501000	-1.777440E+02	  0.070501000	1.675100E+01	  0.070501000	-8.730000E-01
254	  0.070701398	-6.049000E+00	  0.070701398	-1.786620E+02	  0.070701398	1.674200E+01	  0.070701398	-5.180000E-01
255	  0.070901804	-6.051000E+00	  0.070901804	-1.796000E+02	  0.070901804	1.674500E+01	  0.070901804	-1.540000E-01
256	  0.071102202	-6.052000E+00	  0.071102202	1.794520E+02	  0.071102202	1.674800E+01	  0.071102202	2.120000E-01
257	  0.071302600	-6.055000E+00	  0.071302600	1.785180E+02	  0.071302600	1.675700E+01	  0.071302600	5.730000E-01
258	  0.071503006	-6.059000E+00	  0.071503006	1.775850E+02	  0.071503006	1.677300E+01	  0.071503006	9.350000E-01
259	  0.071703404	-6.063000E+00	  0.071703404	1.766770E+02	  0.071703404	1.678900E+01	  0.071703404	1.286000E+00
260	  0.071903802	-6.064000E+00	  0.071903802	1.757520E+02	  0.071903802	1.680000E+01	  0.071903802	1.645000E+00
261	  0.072104208	-6.068000E+00	  0.072104208	1.748170E+02	  0.072104208	1.682000E+01	  0.072104208	2.007000E+00
262	  0.072304606	-6.071000E+00	  0.072304606	1.739170E+02	  0.072304606	1.683800E+01	  0.072304606	2.356000E+00
263	  0.072505005	-6.075000E+00	  0.072505005	1.729860E+02	  0.072505005	1.686300E+01	  0.072505005	2.716000E+00
264	  0.072705410	-6.080000E+00	  0.072705410	1.720840E+02	  0.072705410	1.689200E+01	  0.072705410	3.066000E+00
265	  0.072905809	-6.082000E+00	  0.072905809	1.711620E+02	  0.072905809	1.691500E+01	  0.072905809	3.423000E+00
266	  0.073106214	-6.088000E+00	  0.073106214	1.702340E+02	  0.073106214	1.694800E+01	  0.073106214	3.783000E+00
267	  0.073306613	-6.095000E+00	  0.073306613	1.693260E+02	  0.073306613	1.698800E+01	  0.073306613	4.135000E+00
268	  0.073507011	-6.102000E+00	  0.073507011	1.684820E+02	  0.073507011	1.702800E+01	  0.073507011	4.462000E+00
269	  0.073707417	-6.111000E+00	  0.073707417	1.675560E+02	  0.073707417	1.707500E+01	  0.073707417	4.821000E+00
270	  0.073907815	-6.117000E+00	  0.073907815	1.666390E+02	  0.073907815	1.711900E+01	  0.073907815	5.177000E+00
271	  0.074108213	-6.121000E+00	  0.074108213	1.657500E+02	  0.074108213	1.715800E+01	  0.074108213	5.523000E+00
272	  0.074308619	-6.130000E+00	  0.074308619	1.648370E+02	  0.074308619	1.721300E+01	  0.074308619	5.878000E+00
273	  0.074509017	-6.136000E+00	  0.074509017	1.639120E+02	  0.074509017	1.726200E+01	  0.074509017	6.238000E+00
274	  0.074709415	-6.146000E+00	  0.074709415	1.629940E+02	  0.074709415	1.732200E+01	  0.074709415	6.595000E+00
275	  0.074909821	-6.151000E+00	  0.074909821	1.621170E+02	  0.074909821	1.737100E+01	  0.074909821	6.937000E+00
276	  0.075110219	-6.164000E+00	  0.075110219	1.611990E+02	  0.075110219	1.744500E+01	  0.075110219	7.293000E+00
277	  0.075310618	-6.171000E+00	  0.075310618	1.602890E+02	  0.075310618	1.750500E+01	  0.075310618	7.648000E+00
278	  0.075511023	-6.176000E+00	  0.075511023	1.594160E+02	  0.075511023	1.755800E+01	  0.075511023	7.991000E+00
279	  0.075711422	-6.185000E+00	  0.075711422	1.585090E+02	  0.075711422	1.762700E+01	  0.075711422	8.345000E+00
280	  0.075911827	-6.190000E+00	  0.075911827	1.576490E+02	  0.075911827	1.768500E+01	  0.075911827	8.683000E+00
281	  0.076112226	-6.194000E+00	  0.076112226	1.567550E+02	  0.076112226	1.774600E+01	  0.076112226	9.034000E+00
282	  0.076312624	-6.206000E+00	  0.076312624	1.558750E+02	  0.076312624	1.782600E+01	  0.076312624	9.378000E+00
283	  0.076513030	-6.212000E+00	  0.076513030	1.549960E+02	  0.076513030	1.789500E+01	  0.076513030	9.724000E+00
284	  0.076713428	-6.223000E+00	  0.076713428	1.541110E+02	  0.076713428	1.797900E+01	  0.076713428	1.007200E+01
285	  0.076913826	-6.229000E+00	  0.076913826	1.532470E+02	  0.076913826	1.805000E+01	  0.076913826	1.041300E+01
286	  0.077114232	-6.239000E+00	  0.077114232	1.523810E+02	  0.077114232	1.813500E+01	  0.077114232	1.075300E+01
287	  0.077314630	-6.245000E+00	  0.077314630	1.515530E+02	  0.077314630	1.820700E+01	  0.077314630	1.108200E+01
288	  0.077515028	-6.254000E+00	  0.077515028	1.506880E+02	  0.077515028	1.829400E+01	  0.077515028	1.142400E+01
289	  0.077715434	-6.266000E+00	  0.077715434	1.498410E+02	  0.077715434	1.838800E+01	  0.077715434	1.175700E+01
290	  0.077915832	-6.275000E+00	  0.077915832	1.489930E+02	  0.077915832	1.847600E+01	  0.077915832	1.209400E+01
291	  0.078116231	-6.284000E+00	  0.078116231	1.481500E+02	  0.078116231	1.856700E+01	  0.078116231	1.242900E+01
292	  0.078316636	-6.294000E+00	  0.078316636	1.473060E+02	  0.078316636	1.866300E+01	  0.078316636	1.276400E+01
293	  0.078517035	-6.305000E+00	  0.078517035	1.464560E+02	  0.078517035	1.876300E+01	  0.078517035	1.310200E+01
294	  0.078717433	-6.315000E+00	  0.078717433	1.456380E+02	  0.078717433	1.886200E+01	  0.078717433	1.342700E+01
295	  0.078917839	-6.331000E+00	  0.078917839	1.448030E+02	  0.078917839	1.897900E+01	  0.078917839	1.375700E+01
296	  0.079118237	-6.343000E+00	  0.079118237	1.440200E+02	  0.079118237	1.908600E+01	  0.079118237	1.406800E+01
297	  0.079318643	-6.358000E+00	  0.079318643	1.431880E+02	  0.079318643	1.920400E+01	  0.079318643	1.439800E+01
298	  0.079519041	-6.374000E+00	  0.079519041	1.423670E+02	  0.079519041	1.932700E+01	  0.079519041	1.472300E+01
299	  0.079719439	-6.385000E+00	  0.079719439	1.415970E+02	  0.079719439	1.943400E+01	  0.079719439	1.503100E+01
300	  0.079919845	-6.399000E+00	  0.079919845	1.407510E+02	  0.079919845	1.956100E+01	  0.079919845	1.536800E+01
301	  0.080120243	-6.417000E+00	  0.080120243	1.399480E+02	  0.080120243	1.969400E+01	  0.080120243	1.568600E+01
302	  0.080320641	-6.431000E+00	  0.080320641	1.391340E+02	  0.080320641	1.982100E+01	  0.080320641	1.601100E+01
303	  0.080521047	-6.448000E+00	  0.080521047	1.383150E+02	  0.080521047	1.996000E+01	  0.080521047	1.633700E+01
304	  0.080721445	-6.465000E+00	  0.080721445	1.375310E+02	  0.080721445	2.009700E+01	  0.080721445	1.664800E+01
305	  0.080921844	-6.481000E+00	  0.080921844	1.367370E+02	  0.080921844	2.023500E+01	  0.080921844	1.696500E+01
306	  0.081122249	-6.502000E+00	  0.081122249	1.359340E+02	  0.081122249	2.038900E+01	  0.081122249	1.728200E+01
307	  0.081322648	-6.519000E+00	  0.081322648	1.351530E+02	  0.081322648	2.053400E+01	  0.081322648	1.759300E+01
308	  0.081523046	-6.536000E+00	  0.081523046	1.343450E+02	  0.081523046	2.068400E+01	  0.081523046	1.791600E+01
309	  0.081723452	-6.553000E+00	  0.081723452	1.335470E+02	  0.081723452	2.083500E+01	  0.081723452	1.823500E+01
310	  0.081923850	-6.566000E+00	  0.081923850	1.327630E+02	  0.081923850	2.097600E+01	  0.081923850	1.855200E+01
311	  0.082124248	-6.583000E+00	  0.082124248	1.319580E+02	  0.082124248	2.113300E+01	  0.082124248	1.887500E+01
312	  0.082324654	-6.601000E+00	  0.082324654	1.311470E+02	  0.082324654	2.129700E+01	  0.082324654	1.920000E+01
313	  0.082525052	-6.618000E+00	  0.082525052	1.303850E+02	  0.082525052	2.145600E+01	  0.082525052	1.950500E+01
314	  0.082725458	-6.637000E+00	  0.082725458	1.296350E+02	  0.082725458	2.162000E+01	  0.082725458	1.980300E+01
315	  0.082925856	-6.655000E+00	  0.082925856	1.288350E+02	  0.082925856	2.179100E+01	  0.082925856	2.012400E+01
316	  0.083126254	-6.677000E+00	  0.083126254	1.280730E+02	  0.083126254	2.197000E+01	  0.083126254	2.042600E+01
317	  0.083326660	-6.694000E+00	  0.083326660	1.272930E+02	  0.083326660	2.214300E+01	  0.083326660	2.073900E+01
318	  0.083527058	-6.712000E+00	  0.083527058	1.265060E+02	  0.083527058	2.232000E+01	  0.083527058	2.105500E+01
319	  0.083727457	-6.725000E+00	  0.083727457	1.257670E+02	  0.083727457	2.247800E+01	  0.083727457	2.135800E+01
320	  0.083927862	-6.749000E+00	  0.083927862	1.250150E+02	  0.083927862	2.267400E+01	  0.083927862	2.165300E+01
321	  0.084128261	-6.771000E+00	  0.084128261	1.242440E+02	  0.084128261	2.287000E+01	  0.084128261	2.195800E+01
322	  0.084328659	-6.788000E+00	  0.084328659	1.235010E+02	  0.084328659	2.305100E+01	  0.084328659	2.225600E+01
323	  0.084529065	-6.809000E+00	  0.084529065	1.227610E+02	  0.084529065	2.324400E+01	  0.084529065	2.255000E+01
324	  0.084729463	-6.833000E+00	  0.084729463	1.220040E+02	  0.084729463	2.345100E+01	  0.084729463	2.284800E+01
325	  0.084929854	-6.849000E+00	  0.084929854	1.212540E+02	  0.084929854	2.364000E+01	  0.084929854	2.315100E+01
326	  0.085130259	-6.869000E+00	  0.085130259	1.204950E+02	  0.085130259	2.384400E+01	  0.085130259	2.345400E+01
327	  0.085330658	-6.889000E+00	  0.085330658	1.197680E+02	  0.085330658	2.404500E+01	  0.085330658	2.374300E+01
328	  0.085531056	-6.909000E+00	  0.085531056	1.190530E+02	  0.085531056	2.424600E+01	  0.085531056	2.402700E+01
329	  0.085731462	-6.930000E+00	  0.085731462	1.183090E+02	  0.085731462	2.445900E+01	  0.085731462	2.432200E+01
330	  0.085931860	-6.950000E+00	  0.085931860	1.175940E+02	  0.085931860	2.466600E+01	  0.085931860	2.460600E+01
331	  0.086132258	-6.970000E+00	  0.086132258	1.169130E+02	  0.086132258	2.486900E+01	  0.086132258	2.487500E+01
332	  0.086332664	-6.996000E+00	  0.086332664	1.161970E+02	  0.086332664	2.510000E+01	  0.086332664	2.515000E+01
333	  0.086533062	-7.015000E+00	  0.086533062	1.154820E+02	  0.086533062	2.531400E+01	  0.086533062	2.543400E+01
334	  0.086733460	-7.045000E+00	  0.086733460	1.147820E+02	  0.086733460	2.556000E+01	  0.086733460	2.569600E+01
335	  0.086933866	-7.064000E+00	  0.086933866	1.140870E+02	  0.086933866	2.577500E+01	  0.086933866	2.597100E+01
336	  0.087134264	-7.088000E+00	  0.087134264	1.133810E+02	  0.087134264	2.601000E+01	  0.087134264	2.624400E+01
337	  0.087334670	-7.112000E+00	  0.087334670	1.126980E+02	  0.087334670	2.624300E+01	  0.087334670	2.650600E+01
338	  0.087535068	-7.134000E+00	  0.087535068	1.119910E+02	  0.087535068	2.648100E+01	  0.087535068	2.678000E+01
339	  0.087735467	-7.158000E+00	  0.087735467	1.113230E+02	  0.087735467	2.671900E+01	  0.087735467	2.703300E+01
340	  0.087935872	-7.186000E+00	  0.087935872	1.106520E+02	  0.087935872	2.697000E+01	  0.087935872	2.728100E+01
341	  0.088136271	-7.207000E+00	  0.088136271	1.099790E+02	  0.088136271	2.720400E+01	  0.088136271	2.754200E+01
342	  0.088336669	-7.235000E+00	  0.088336669	1.092870E+02	  0.088336669	2.746800E+01	  0.088336669	2.779700E+01
343	  0.088537075	-7.260000E+00	  0.088537075	1.086190E+02	  0.088537075	2.772100E+01	  0.088537075	2.804600E+01
344	  0.088737473	-7.285000E+00	  0.088737473	1.079280E+02	  0.088737473	2.798400E+01	  0.088737473	2.830300E+01
345	  0.088937871	-7.310000E+00	  0.088937871	1.072600E+02	  0.088937871	2.824300E+01	  0.088937871	2.855100E+01
346	  0.089138277	-7.337000E+00	  0.089138277	1.065710E+02	  0.089138277	2.851500E+01	  0.089138277	2.880400E+01
347	  0.089338675	-7.363000E+00	  0.089338675	1.059360E+02	  0.089338675	2.877300E+01	  0.089338675	2.903400E+01
348	  0.089539073	-7.389000E+00	  0.089539073	1.052750E+02	  0.089539073	2.904600E+01	  0.089539073	2.927200E+01
349	  0.089739479	-7.419000E+00	  0.089739479	1.046290E+02	  0.089739479	2.932500E+01	  0.089739479	2.949600E+01
350	  0.089939877	-7.445000E+00	  0.089939877	1.039930E+02	  0.089939877	2.959300E+01	  0.089939877	2.972300E+01
351	  0.090140276	-7.470000E+00	  0.090140276	1.033400E+02	  0.090140276	2.986700E+01	  0.090140276	2.995800E+01
352	  0.090340681	-7.498000E+00	  0.090340681	1.027150E+02	  0.090340681	3.014700E+01	  0.090340681	3.017100E+01
353	  0.090541080	-7.524000E+00	  0.090541080	1.020550E+02	  0.090541080	3.043200E+01	  0.090541080	3.040500E+01
354	  0.090741485	-7.556000E+00	  0.090741485	1.014240E+02	  0.090741485	3.073000E+01	  0.090741485	3.061100E+01
355	  0.090941884	-7.587000E+00	  0.090941884	1.008100E+02	  0.090941884	3.102100E+01	  0.090941884	3.081000E+01
356	  0.091142282	-7.615000E+00	  0.091142282	1.001840E+02	  0.091142282	3.131200E+01	  0.091142282	3.102000E+01
357	  0.091342688	-7.648000E+00	  0.091342688	9.957800E+01	  0.091342688	3.161300E+01	  0.091342688	3.120800E+01
358	  0.091543086	-7.677000E+00	  0.091543086	9.892000E+01	  0.091543086	3.192400E+01	  0.091543086	3.142400E+01
359	  0.091743484	-7.709000E+00	  0.091743484	9.832300E+01	  0.091743484	3.222600E+01	  0.091743484	3.160700E+01
360	  0.091943890	-7.740000E+00	  0.091943890	9.768900E+01	  0.091943890	3.254100E+01	  0.091943890	3.180500E+01
361	  0.092144288	-7.770000E+00	  0.092144288	9.709400E+01	  0.092144288	3.284100E+01	  0.092144288	3.198800E+01
362	  0.092344686	-7.798000E+00	  0.092344686	9.647800E+01	  0.092344686	3.314700E+01	  0.092344686	3.218300E+01
363	  0.092545092	-7.833000E+00	  0.092545092	9.588300E+01	  0.092545092	3.346900E+01	  0.092545092	3.234800E+01
364	  0.092745490	-7.863000E+00	  0.092745490	9.530200E+01	  0.092745490	3.377500E+01	  0.092745490	3.251800E+01
365	  0.092945889	-7.898000E+00	  0.092945889	9.474400E+01	  0.092945889	3.408500E+01	  0.092945889	3.266500E+01
366	  0.093146294	-7.928000E+00	  0.093146294	9.415400E+01	  0.093146294	3.440100E+01	  0.093146294	3.283300E+01
367	  0.093346693	-7.961000E+00	  0.093346693	9.359400E+01	  0.093346693	3.471400E+01	  0.093346693	3.298000E+01
368	  0.093547091	-7.997000E+00	  0.093547091	9.300600E+01	  0.093547091	3.504900E+01	  0.093547091	3.312800E+01
369	  0.093747497	-8.030000E+00	  0.093747497	9.246100E+01	  0.093747497	3.536000E+01	  0.093747497	3.326500E+01
370	  0.093947895	-8.063000E+00	  0.093947895	9.191000E+01	  0.093947895	3.567700E+01	  0.093947895	3.340100E+01
371	  0.094148301	-8.098000E+00	  0.094148301	9.136100E+01	  0.094148301	3.600100E+01	  0.094148301	3.352900E+01
372	  0.094348699	-8.127000E+00	  0.094348699	9.081400E+01	  0.094348699	3.630900E+01	  0.094348699	3.367000E+01
373	  0.094549097	-8.165000E+00	  0.094549097	9.029900E+01	  0.094549097	3.663300E+01	  0.094549097	3.376900E+01
374	  0.094749503	-8.200000E+00	  0.094749503	8.973900E+01	  0.094749503	3.696900E+01	  0.094749503	3.389100E+01
375	  0.094949901	-8.231000E+00	  0.094949901	8.925000E+01	  0.094949901	3.726400E+01	  0.094949901	3.399700E+01
376	  0.095150299	-8.264000E+00	  0.095150299	8.873100E+01	  0.095150299	3.758200E+01	  0.095150299	3.410400E+01
377	  0.095350705	-8.300000E+00	  0.095350705	8.821900E+01	  0.095350705	3.790500E+01	  0.095350705	3.419800E+01
378	  0.095551103	-8.333000E+00	  0.095551103	8.771400E+01	  0.095551103	3.821800E+01	  0.095551103	3.429500E+01
379	  0.095751502	-8.366000E+00	  0.095751502	8.718400E+01	  0.095751502	3.854600E+01	  0.095751502	3.439900E+01
380	  0.095951907	-8.399000E+00	  0.095951907	8.671100E+01	  0.095951907	3.884900E+01	  0.095951907	3.447800E+01
381	  0.096152306	-8.429000E+00	  0.096152306	8.619700E+01	  0.096152306	3.916700E+01	  0.096152306	3.457900E+01
382	  0.096352704	-8.459000E+00	  0.096352704	8.573100E+01	  0.096352704	3.946200E+01	  0.096352704	3.466100E+01
383	  0.096553110	-8.493000E+00	  0.096553110	8.524200E+01	  0.096553110	3.978000E+01	  0.096553110	3.473600E+01
384	  0.096753508	-8.522000E+00	  0.096753508	8.479500E+01	  0.096753508	4.006800E+01	  0.096753508	3.480700E+01
385	  0.096953906	-8.553000E+00	  0.096953906	8.435300E+01	  0.096953906	4.035900E+01	  0.096953906	3.486900E+01
386	  0.097154312	-8.587000E+00	  0.097154312	8.386000E+01	  0.097154312	4.068200E+01	  0.097154312	3.493800E+01
387	  0.097354710	-8.613000E+00	  0.097354710	8.338900E+01	  0.097354710	4.097800E+01	  0.097354710	3.502200E+01
388	  0.097555116	-8.638000E+00	  0.097555116	8.297100E+01	  0.097555116	4.124800E+01	  0.097555116	3.508700E+01
389	  0.097755514	-8.668000E+00	  0.097755514	8.253800E+01	  0.097755514	4.153900E+01	  0.097755514	3.513800E+01
390	  0.097955912	-8.696000E+00	  0.097955912	8.209700E+01	  0.097955912	4.182800E+01	  0.097955912	3.519800E+01
391	  0.098156318	-8.722000E+00	  0.098156318	8.169000E+01	  0.098156318	4.209800E+01	  0.098156318	3.524900E+01
392	  0.098356716	-8.745000E+00	  0.098356716	8.125400E+01	  0.098356716	4.237700E+01	  0.098356716	3.531900E+01
393	  0.098557115	-8.772000E+00	  0.098557115	8.082700E+01	  0.098557115	4.266100E+01	  0.098557115	3.537100E+01
394	  0.098757520	-8.789000E+00	  0.098757520	8.042200E+01	  0.098757520	4.291300E+01	  0.098757520	3.544800E+01
395	  0.098957919	-8.818000E+00	  0.098957919	7.999000E+01	  0.098957919	4.320600E+01	  0.098957919	3.549000E+01
396	  0.099158317	-8.836000E+00	  0.099158317	7.959300E+01	  0.099158317	4.345900E+01	  0.099158317	3.555600E+01
397	  0.099358723	-8.850000E+00	  0.099358723	7.918500E+01	  0.099358723	4.370900E+01	  0.099358723	3.564000E+01
398	  0.099559121	-8.872000E+00	  0.099559121	7.881700E+01	  0.099559121	4.395700E+01	  0.099559121	3.568000E+01
399	  0.099759519	-8.891000E+00	  0.099759519	7.841500E+01	  0.099759519	4.421900E+01	  0.099759519	3.573700E+01
400	  0.099959925	-8.898000E+00	  0.099959925	7.805800E+01	  0.099959925	4.443200E+01	  0.099959925	3.582500E+01
401	  0.100160323	-8.914000E+00	  0.100160323	7.769600E+01	  0.100160323	4.466500E+01	  0.100160323	3.588300E+01
402	  0.100360721	-8.933000E+00	  0.100360721	7.733100E+01	  0.100360721	4.491000E+01	  0.100360721	3.592300E+01
403	  0.100561127	-8.944000E+00	  0.100561127	7.691500E+01	  0.100561127	4.516800E+01	  0.100561127	3.601000E+01
404	  0.100761525	-8.955000E+00	  0.100761525	7.661100E+01	  0.100761525	4.536200E+01	  0.100761525	3.606500E+01
405	  0.100961931	-8.958000E+00	  0.100961931	7.620000E+01	  0.100961931	4.560500E+01	  0.100961931	3.617600E+01
406	  0.101162329	-8.976000E+00	  0.101162329	7.577900E+01	  0.101162329	4.588300E+01	  0.101162329	3.623500E+01
407	  0.101362728	-8.974000E+00	  0.101362728	7.549500E+01	  0.101362728	4.604400E+01	  0.101362728	3.632700E+01
408	  0.101563133	-8.984000E+00	  0.101563133	7.515200E+01	  0.101563133	4.626500E+01	  0.101563133	3.638800E+01
409	  0.101763532	-8.986000E+00	  0.101763532	7.474900E+01	  0.101763532	4.650700E+01	  0.101763532	3.649700E+01
410	  0.101963930	-8.994000E+00	  0.101963930	7.445300E+01	  0.101963930	4.669800E+01	  0.101963930	3.655400E+01
411	  0.102164328	-8.998000E+00	  0.102164328	7.407800E+01	  0.102164328	4.692900E+01	  0.102164328	3.664700E+01
412	  0.102364726	-9.009000E+00	  0.102364726	7.365500E+01	  0.102364726	4.720600E+01	  0.102364726	3.672100E+01
413	  0.102565125	-9.008000E+00	  0.102565125	7.339400E+01	  0.102565125	4.736200E+01	  0.102565125	3.679800E+01
414	  0.102765530	-9.006000E+00	  0.102765530	7.298700E+01	  0.102765530	4.760600E+01	  0.102765530	3.692300E+01
415	  0.102965929	-9.003000E+00	  0.102965929	7.263800E+01	  0.102965929	4.781500E+01	  0.102965929	3.703200E+01
416	  0.103166327	-9.007000E+00	  0.103166327	7.226000E+01	  0.103166327	4.805900E+01	  0.103166327	3.711700E+01
417	  0.103366733	-9.000000E+00	  0.103366733	7.187900E+01	  0.103366733	4.828400E+01	  0.103366733	3.725000E+01
418	  0.103567131	-8.999000E+00	  0.103567131	7.149600E+01	  0.103567131	4.852200E+01	  0.103567131	3.736100E+01
419	  0.103767529	-8.996000E+00	  0.103767529	7.117500E+01	  0.103767529	4.872200E+01	  0.103767529	3.745800E+01
420	  0.103967935	-9.006000E+00	  0.103967935	7.073000E+01	  0.103967935	4.902300E+01	  0.103967935	3.753500E+01
421	  0.104168333	-9.002000E+00	  0.104168333	7.032400E+01	  0.104168333	4.927900E+01	  0.104168333	3.765700E+01
422	  0.104368731	-9.002000E+00	  0.104368731	6.995300E+01	  0.104368731	4.952000E+01	  0.104368731	3.775200E+01
423	  0.104569137	-8.996000E+00	  0.104569137	6.954700E+01	  0.104569137	4.977500E+01	  0.104569137	3.788400E+01
424	  0.104769535	-8.991000E+00	  0.104769535	6.917200E+01	  0.104769535	5.001600E+01	  0.104769535	3.799800E+01
425	  0.104969934	-8.992000E+00	  0.104969934	6.878500E+01	  0.104969934	5.027600E+01	  0.104969934	3.809000E+01
426	  0.105170339	-8.994000E+00	  0.105170339	6.830100E+01	  0.105170339	5.060300E+01	  0.105170339	3.820100E+01
427	  0.105370738	-8.986000E+00	  0.105370738	6.791900E+01	  0.105370738	5.084900E+01	  0.105370738	3.833100E+01
428	  0.105571143	-8.979000E+00	  0.105571143	6.744100E+01	  0.105571143	5.116500E+01	  0.105571143	3.847700E+01
429	  0.105771542	-8.975000E+00	  0.105771542	6.699900E+01	  0.105771542	5.146400E+01	  0.105771542	3.859900E+01
430	  0.105971940	-8.967000E+00	  0.105971940	6.654700E+01	  0.105971940	5.176600E+01	  0.105971940	3.874200E+01
431	  0.106172346	-8.960000E+00	  0.106172346	6.607600E+01	  0.106172346	5.208700E+01	  0.106172346	3.888100E+01
432	  0.106372744	-8.953000E+00	  0.106372744	6.565700E+01	  0.106372744	5.237500E+01	  0.106372744	3.900700E+01
433	  0.106573142	-8.950000E+00	  0.106573142	6.513400E+01	  0.106573142	5.274600E+01	  0.106573142	3.913500E+01
434	  0.106773548	-8.945000E+00	  0.106773548	6.470200E+01	  0.106773548	5.305100E+01	  0.106773548	3.925300E+01
435	  0.106973946	-8.933000E+00	  0.106973946	6.420800E+01	  0.106973946	5.339500E+01	  0.106973946	3.941600E+01
436	  0.107174344	-8.926000E+00	  0.107174344	6.370700E+01	  0.107174344	5.375500E+01	  0.107174344	3.955500E+01
437	  0.107374750	-8.920000E+00	  0.107374750	6.319400E+01	  0.107374750	5.413000E+01	  0.107374750	3.968800E+01
438	  0.107575148	-8.907000E+00	  0.107575148	6.267300E+01	  0.107575148	5.450500E+01	  0.107575148	3.985700E+01
439	  0.107775547	-8.895000E+00	  0.107775547	6.211600E+01	  0.107775547	5.491600E+01	  0.107775547	4.002200E+01
440	  0.107975952	-8.886000E+00	  0.107975952	6.158500E+01	  0.107975952	5.531400E+01	  0.107975952	4.016900E+01
441	  0.108176351	-8.872000E+00	  0.108176351	6.108400E+01	  0.108176351	5.568800E+01	  0.108176351	4.032900E+01
442	  0.108376749	-8.860000E+00	  0.108376749	6.054300E+01	  0.108376749	5.610000E+01	  0.108376749	4.049100E+01
443	  0.108577155	-8.850000E+00	  0.108577155	6.000000E+01	  0.108577155	5.652300E+01	  0.108577155	4.063200E+01
444	  0.108777553	-8.849000E+00	  0.108777553	5.943800E+01	  0.108777553	5.697400E+01	  0.108777553	4.073200E+01
445	  0.108977959	-8.830000E+00	  0.108977959	5.886900E+01	  0.108977959	5.741800E+01	  0.108977959	4.092400E+01
446	  0.109178357	-8.816000E+00	  0.109178357	5.828400E+01	  0.109178357	5.788800E+01	  0.109178357	4.108500E+01
447	  0.109378755	-8.795000E+00	  0.109378755	5.772400E+01	  0.109378755	5.833500E+01	  0.109378755	4.128300E+01
448	  0.109579161	-8.780000E+00	  0.109579161	5.713300E+01	  0.109579161	5.882200E+01	  0.109579161	4.144600E+01
449	  0.109779559	-8.768000E+00	  0.109779559	5.657500E+01	  0.109779559	5.929000E+01	  0.109779559	4.158300E+01
450	  0.109979957	-8.757000E+00	  0.109979957	5.602800E+01	  0.109979957	5.975400E+01	  0.109979957	4.171500E+01
451	  0.110180363	-8.743000E+00	  0.110180363	5.540700E+01	  0.110180363	6.028700E+01	  0.110180363	4.186200E+01
452	  0.110380761	-8.730000E+00	  0.110380761	5.478400E+01	  0.110380761	6.083100E+01	  0.110380761	4.200400E+01
453	  0.110581160	-8.714000E+00	  0.110581160	5.415300E+01	  0.110581160	6.138800E+01	  0.110581160	4.215600E+01
454	  0.110781565	-8.699000E+00	  0.110781565	5.356100E+01	  0.110781565	6.191700E+01	  0.110781565	4.230000E+01
455	  0.110981964	-8.694000E+00	  0.110981964	5.291100E+01	  0.110981964	6.251200E+01	  0.110981964	4.237500E+01
456	  0.111182362	-8.677000E+00	  0.111182362	5.228600E+01	  0.111182362	6.308600E+01	  0.111182362	4.252100E+01
457	  0.111382768	-8.666000E+00	  0.111382768	5.167000E+01	  0.111382768	6.366300E+01	  0.111382768	4.261900E+01
458	  0.111583166	-8.663000E+00	  0.111583166	5.100800E+01	  0.111583166	6.429300E+01	  0.111583166	4.266600E+01
459	  0.111783572	-8.651000E+00	  0.111783572	5.037500E+01	  0.111783572	6.490000E+01	  0.111783572	4.276000E+01
460	  0.111983970	-8.645000E+00	  0.111983970	4.970500E+01	  0.111983970	6.555200E+01	  0.111983970	4.280700E+01
461	  0.112184368	-8.632000E+00	  0.112184368	4.900000E+01	  0.112184368	6.624700E+01	  0.112184368	4.289200E+01
462	  0.112384774	-8.636000E+00	  0.112384774	4.828300E+01	  0.112384774	6.696100E+01	  0.112384774	4.284800E+01
463	  0.112585172	-8.627000E+00	  0.112585172	4.764900E+01	  0.112585172	6.760200E+01	  0.112585172	4.289200E+01
464	  0.112785570	-8.625000E+00	  0.112785570	4.688100E+01	  0.112785570	6.838400E+01	  0.112785570	4.286400E+01
465	  0.112985976	-8.617000E+00	  0.112985976	4.617800E+01	  0.112985976	6.911000E+01	  0.112985976	4.287100E+01
466	  0.113186374	-8.617000E+00	  0.113186374	4.545000E+01	  0.113186374	6.986700E+01	  0.113186374	4.281100E+01
467	  0.113386773	-8.620000E+00	  0.113386773	4.472900E+01	  0.113386773	7.062100E+01	  0.113386773	4.271200E+01
468	  0.113587178	-8.619000E+00	  0.113587178	4.394300E+01	  0.113587178	7.145300E+01	  0.113587178	4.262200E+01
469	  0.113787577	-8.628000E+00	  0.113787577	4.316600E+01	  0.113787577	7.227400E+01	  0.113787577	4.244100E+01
470	  0.113987975	-8.632000E+00	  0.113987975	4.238000E+01	  0.113987975	7.311300E+01	  0.113987975	4.227300E+01
471	  0.114188381	-8.640000E+00	  0.114188381	4.159800E+01	  0.114188381	7.395000E+01	  0.114188381	4.206600E+01
472	  0.114388779	-8.642000E+00	  0.114388779	4.076200E+01	  0.114388779	7.485800E+01	  0.114388779	4.186100E+01
473	  0.114589177	-8.654000E+00	  0.114589177	3.991100E+01	  0.114589177	7.577200E+01	  0.114589177	4.156600E+01
474	  0.114789583	-8.663000E+00	  0.114789583	3.912900E+01	  0.114789583	7.661600E+01	  0.114789583	4.128000E+01
475	  0.114989981	-8.672000E+00	  0.114989981	3.823900E+01	  0.114989981	7.758300E+01	  0.114989981	4.094200E+01
476	  0.115190387	-8.683000E+00	  0.115190387	3.741600E+01	  0.115190387	7.847300E+01	  0.115190387	4.058600E+01
477	  0.115390785	-8.703000E+00	  0.115390785	3.651000E+01	  0.115390785	7.943100E+01	  0.115390785	4.010400E+01
478	  0.115591183	-8.716000E+00	  0.115591183	3.561000E+01	  0.115591183	8.039800E+01	  0.115591183	3.964900E+01
479	  0.115791589	-8.738000E+00	  0.115791589	3.473100E+01	  0.115791589	8.131300E+01	  0.115791589	3.911000E+01
480	  0.115991987	-8.760000E+00	  0.115991987	3.379100E+01	  0.115991987	8.228700E+01	  0.115991987	3.850700E+01
481	  0.116192386	-8.776000E+00	  0.116192386	3.287300E+01	  0.116192386	8.324600E+01	  0.116192386	3.792500E+01
482	  0.116392791	-8.792000E+00	  0.116392791	3.194000E+01	  0.116392791	8.421700E+01	  0.116392791	3.730700E+01
483	  0.116593190	-8.820000E+00	  0.116593190	3.100000E+01	  0.116593190	8.513700E+01	  0.116593190	3.656400E+01
484	  0.116793588	-8.842000E+00	  0.116793588	3.001900E+01	  0.116793588	8.610800E+01	  0.116793588	3.580400E+01
485	  0.116993994	-8.868000E+00	  0.116993994	2.905200E+01	  0.116993994	8.702800E+01	  0.116993994	3.498600E+01
486	  0.117194392	-8.907000E+00	  0.117194392	2.805000E+01	  0.117194392	8.790800E+01	  0.117194392	3.402500E+01
487	  0.117394790	-8.927000E+00	  0.117394790	2.709700E+01	  0.117394790	8.879900E+01	  0.117394790	3.319300E+01
488	  0.117595196	-8.969000E+00	  0.117595196	2.608600E+01	  0.117595196	8.961300E+01	  0.117595196	3.213300E+01
489	  0.117795594	-9.003000E+00	  0.117795594	2.508000E+01	  0.117795594	9.043500E+01	  0.117795594	3.110500E+01
490	  0.117995992	-9.047000E+00	  0.117995992	2.408000E+01	  0.117995992	9.115700E+01	  0.117995992	2.998100E+01
491	  0.118196398	-9.090000E+00	  0.118196398	2.304000E+01	  0.118196398	9.188800E+01	  0.118196398	2.880800E+01
492	  0.118396796	-9.133000E+00	  0.118396796	2.199700E+01	  0.118396796	9.257800E+01	  0.118396796	2.760200E+01
