! Anritsu VNA Master:             	Model: MS2036C/10/77
! SN:             	1601066
! /card0/usr/18may27.balun/252b.m4.txt
! Existing Calibration Information:
! TYPE:             	Current Settings	Active Cal Settings
! TIME:             	05/27/2018 12:52:10 PM	05/27/2018 12:49:51 PM
! INTERNAL TEMP:    	52.5 C	52.5 C
! # POINTS:         	500	500
! START FREQ:       	20.000 MHz	20.000 MHz
! STOP FREQ:        	120.000 MHz	120.000 MHz
! SOURCE POWER:     	High	High
! IFBW:             	50 Hz	50 Hz
! AVG FACTOR:       	  1 	  1 
! REF PLANE 1:      	0 mm	0 mm
! REF PLANE 2:      	0 mm	0 mm
! CAL TYPE:         	Full S11	Full S11
! CAL METHOD:       	SOLT	SOLT
! CAL LINE TYPE:    	Coax	Coax
! DUT PORT 1:       	K-Conn(M)	K-Conn(M)
! DUT PORT 2:       	K-Conn(M)	K-Conn(M)
! CAL STATUS:       	OK: Accuracy High	--
! PROP-V:       	0.700
! CABLE LOSS:       	0.000 dB/m
! REF IMPEDANCE:       	50.0
! Trace Specific Parameters:	TR1	TR2	TR3	TR4
! TRACE.#.Y (GRAPH TYPE)	LOG MAG	PHASE	REAL IMPEDANCE	IMAGINARY IMPEDANCE
! TRACE.#.X 	FREQ.GHZ	FREQ.GHZ	FREQ.GHZ	FREQ.GHZ
! S-PARAMETER	S11	S11	S11	S11
! SMOOTH/APERTURE %	0	0	0	0
! WINDOW	NSL	NSL	NSL	NSL
! GATING	OFF	OFF	OFF	OFF
! FGTD	OFF	OFF	OFF	OFF
Marker Information per Trace:	TR1	TR2	TR3	TR4
!MK1	--	--	--	"MK1 TR4:  70.100 200 MHz,Z:(16.325 ohm, -1.076 ohm)"
!MK2	--	--	--	--
!MK3	--	--	--	--
!MK4	--	--	--	--
!MK5	--	--	--	--
!MK6	--	--	--	--
!MK7	--	--	--	--
!MK8	--	--	--	--
PNT	TR1.FREQ.GHZ	TR1.LOG MAG.dB	TR2.FREQ.GHZ	TR2.PHASE.deg	TR3.FREQ.GHZ	TR3.REAL IMPEDANCE.ohm	TR4.FREQ.GHZ	TR4.IMAGINARY IMPEDANCE.ohm
1	  0.020000000	-6.290000E-01	  0.020000000	-1.255930E+02	  0.020000000	2.288000E+00	  0.020000000	-2.565700E+01
2	  0.020200402	-6.280000E-01	  0.020200402	-1.270720E+02	  0.020200402	2.256000E+00	  0.020200402	-2.484800E+01
3	  0.020400802	-6.270000E-01	  0.020400802	-1.285250E+02	  0.020400802	2.224000E+00	  0.020400802	-2.406400E+01
4	  0.020601204	-6.270000E-01	  0.020601204	-1.299470E+02	  0.020601204	2.198000E+00	  0.020601204	-2.330600E+01
5	  0.020801604	-6.320000E-01	  0.020801604	-1.314090E+02	  0.020801604	2.188000E+00	  0.020801604	-2.253400E+01
6	  0.021002004	-6.390000E-01	  0.021002004	-1.329040E+02	  0.021002004	2.188000E+00	  0.021002004	-2.175500E+01
7	  0.021202406	-6.470000E-01	  0.021202406	-1.344120E+02	  0.021202406	2.192000E+00	  0.021202406	-2.097700E+01
8	  0.021402806	-6.550000E-01	  0.021402806	-1.359240E+02	  0.021402806	2.193000E+00	  0.021402806	-2.020600E+01
9	  0.021603208	-6.600000E-01	  0.021603208	-1.374160E+02	  0.021603208	2.186000E+00	  0.021603208	-1.945300E+01
10	  0.021803608	-6.660000E-01	  0.021803608	-1.389200E+02	  0.021803608	2.185000E+00	  0.021803608	-1.870200E+01
11	  0.022004008	-6.720000E-01	  0.022004008	-1.404410E+02	  0.022004008	2.185000E+00	  0.022004008	-1.795000E+01
12	  0.022204408	-6.780000E-01	  0.022204408	-1.419910E+02	  0.022204408	2.184000E+00	  0.022204408	-1.719100E+01
13	  0.022404809	-6.800000E-01	  0.022404809	-1.435560E+02	  0.022404809	2.170000E+00	  0.022404809	-1.643200E+01
14	  0.022605211	-6.820000E-01	  0.022605211	-1.450830E+02	  0.022605211	2.157000E+00	  0.022605211	-1.569800E+01
15	  0.022805611	-6.830000E-01	  0.022805611	-1.466250E+02	  0.022805611	2.141000E+00	  0.022805611	-1.496300E+01
16	  0.023006011	-6.880000E-01	  0.023006011	-1.481460E+02	  0.023006011	2.142000E+00	  0.023006011	-1.424300E+01
17	  0.023206413	-6.940000E-01	  0.023206413	-1.496970E+02	  0.023206413	2.142000E+00	  0.023206413	-1.351500E+01
18	  0.023406813	-7.030000E-01	  0.023406813	-1.512720E+02	  0.023406813	2.155000E+00	  0.023406813	-1.278100E+01
19	  0.023607215	-7.090000E-01	  0.023607215	-1.528730E+02	  0.023607215	2.160000E+00	  0.023607215	-1.204100E+01
20	  0.023807615	-7.180000E-01	  0.023807615	-1.544490E+02	  0.023807615	2.171000E+00	  0.023807615	-1.131600E+01
21	  0.024008015	-7.250000E-01	  0.024008015	-1.560290E+02	  0.024008015	2.181000E+00	  0.024008015	-1.059500E+01
22	  0.024208417	-7.340000E-01	  0.024208417	-1.576220E+02	  0.024208417	2.194000E+00	  0.024208417	-9.871000E+00
23	  0.024408817	-7.460000E-01	  0.024408817	-1.592330E+02	  0.024408817	2.220000E+00	  0.024408817	-9.143000E+00
24	  0.024609219	-7.560000E-01	  0.024609219	-1.608710E+02	  0.024609219	2.239000E+00	  0.024609219	-8.408000E+00
25	  0.024809619	-7.630000E-01	  0.024809619	-1.625330E+02	  0.024809619	2.247000E+00	  0.024809619	-7.665000E+00
26	  0.025010020	-7.690000E-01	  0.025010020	-1.641910E+02	  0.025010020	2.254000E+00	  0.025010020	-6.927000E+00
27	  0.025210422	-7.760000E-01	  0.025210422	-1.658450E+02	  0.025210422	2.267000E+00	  0.025210422	-6.195000E+00
28	  0.025410822	-7.850000E-01	  0.025410822	-1.675090E+02	  0.025410822	2.287000E+00	  0.025410822	-5.460000E+00
29	  0.025611224	-7.950000E-01	  0.025611224	-1.691680E+02	  0.025611224	2.307000E+00	  0.025611224	-4.730000E+00
30	  0.025811624	-8.050000E-01	  0.025811624	-1.708430E+02	  0.025811624	2.331000E+00	  0.025811624	-3.995000E+00
31	  0.026012026	-8.140000E-01	  0.026012026	-1.725480E+02	  0.026012026	2.352000E+00	  0.026012026	-3.248000E+00
32	  0.026212426	-8.280000E-01	  0.026212426	-1.742520E+02	  0.026212426	2.388000E+00	  0.026212426	-2.504000E+00
33	  0.026412826	-8.440000E-01	  0.026412826	-1.759620E+02	  0.026412826	2.430000E+00	  0.026412826	-1.758000E+00
34	  0.026613226	-8.610000E-01	  0.026613226	-1.776950E+02	  0.026613226	2.477000E+00	  0.026613226	-1.003000E+00
35	  0.026813626	-8.760000E-01	  0.026813626	-1.794250E+02	  0.026813626	2.521000E+00	  0.026813626	-2.500000E-01
36	  0.027014028	-8.920000E-01	  0.027014028	1.788480E+02	  0.027014028	2.567000E+00	  0.027014028	5.010000E-01
37	  0.027214428	-9.070000E-01	  0.027214428	1.771080E+02	  0.027214428	2.611000E+00	  0.027214428	1.258000E+00
38	  0.027414829	-9.220000E-01	  0.027414829	1.753710E+02	  0.027414829	2.656000E+00	  0.027414829	2.014000E+00
39	  0.027615231	-9.410000E-01	  0.027615231	1.736180E+02	  0.027615231	2.714000E+00	  0.027615231	2.779000E+00
40	  0.027815631	-9.600000E-01	  0.027815631	1.718470E+02	  0.027815631	2.774000E+00	  0.027815631	3.552000E+00
41	  0.028016033	-9.810000E-01	  0.028016033	1.700470E+02	  0.028016033	2.842000E+00	  0.028016033	4.339000E+00
42	  0.028216433	-1.000000E+00	  0.028216433	1.682380E+02	  0.028216433	2.907000E+00	  0.028216433	5.132000E+00
43	  0.028416833	-1.023000E+00	  0.028416833	1.664300E+02	  0.028416833	2.985000E+00	  0.028416833	5.927000E+00
44	  0.028617235	-1.048000E+00	  0.028617235	1.646200E+02	  0.028617235	3.068000E+00	  0.028617235	6.726000E+00
45	  0.028817635	-1.072000E+00	  0.028817635	1.627940E+02	  0.028817635	3.152000E+00	  0.028817635	7.534000E+00
46	  0.029018037	-1.100000E+00	  0.029018037	1.609440E+02	  0.029018037	3.252000E+00	  0.029018037	8.357000E+00
47	  0.029218437	-1.125000E+00	  0.029218437	1.590630E+02	  0.029218437	3.343000E+00	  0.029218437	9.198000E+00
48	  0.029418837	-1.149000E+00	  0.029418837	1.571920E+02	  0.029418837	3.437000E+00	  0.029418837	1.003900E+01
49	  0.029619239	-1.173000E+00	  0.029619239	1.553520E+02	  0.029619239	3.532000E+00	  0.029619239	1.087100E+01
50	  0.029819639	-1.198000E+00	  0.029819639	1.535040E+02	  0.029819639	3.633000E+00	  0.029819639	1.171200E+01
51	  0.030020041	-1.224000E+00	  0.030020041	1.516510E+02	  0.030020041	3.742000E+00	  0.030020041	1.256100E+01
52	  0.030220442	-1.257000E+00	  0.030220442	1.498210E+02	  0.030220442	3.872000E+00	  0.030220442	1.340500E+01
53	  0.030420844	-1.293000E+00	  0.030420844	1.479450E+02	  0.030420844	4.021000E+00	  0.030420844	1.427700E+01
54	  0.030621244	-1.333000E+00	  0.030621244	1.460500E+02	  0.030621244	4.183000E+00	  0.030621244	1.516400E+01
55	  0.030821644	-1.370000E+00	  0.030821644	1.441110E+02	  0.030821644	4.346000E+00	  0.030821644	1.608100E+01
56	  0.031022044	-1.403000E+00	  0.031022044	1.421520E+02	  0.031022044	4.502000E+00	  0.031022044	1.701700E+01
57	  0.031222444	-1.429000E+00	  0.031222444	1.401720E+02	  0.031222444	4.641000E+00	  0.031222444	1.797500E+01
58	  0.031422846	-1.458000E+00	  0.031422846	1.382160E+02	  0.031422846	4.794000E+00	  0.031422846	1.893100E+01
59	  0.031623244	-1.484000E+00	  0.031623244	1.362560E+02	  0.031623244	4.942000E+00	  0.031623244	1.990200E+01
60	  0.031823646	-1.503000E+00	  0.031823646	1.343140E+02	  0.031823646	5.077000E+00	  0.031823646	2.087700E+01
61	  0.032024048	-1.527000E+00	  0.032024048	1.323920E+02	  0.032024048	5.229000E+00	  0.032024048	2.185400E+01
62	  0.032224450	-1.555000E+00	  0.032224450	1.304800E+02	  0.032224450	5.405000E+00	  0.032224450	2.283700E+01
63	  0.032424849	-1.580000E+00	  0.032424849	1.285620E+02	  0.032424849	5.578000E+00	  0.032424849	2.383900E+01
64	  0.032625251	-1.615000E+00	  0.032625251	1.266490E+02	  0.032625251	5.795000E+00	  0.032625251	2.485000E+01
65	  0.032825653	-1.654000E+00	  0.032825653	1.247000E+02	  0.032825653	6.036000E+00	  0.032825653	2.589400E+01
66	  0.033026051	-1.697000E+00	  0.033026051	1.227540E+02	  0.033026051	6.304000E+00	  0.033026051	2.695100E+01
67	  0.033226453	-1.743000E+00	  0.033226453	1.207760E+02	  0.033226453	6.594000E+00	  0.033226453	2.804200E+01
68	  0.033426855	-1.787000E+00	  0.033426855	1.187660E+02	  0.033426855	6.898000E+00	  0.033426855	2.917100E+01
69	  0.033627257	-1.831000E+00	  0.033627257	1.167110E+02	  0.033627257	7.218000E+00	  0.033627257	3.034500E+01
70	  0.033827655	-1.876000E+00	  0.033827655	1.146600E+02	  0.033827655	7.555000E+00	  0.033827655	3.154000E+01
71	  0.034028057	-1.921000E+00	  0.034028057	1.125850E+02	  0.034028057	7.917000E+00	  0.034028057	3.277300E+01
72	  0.034228459	-1.970000E+00	  0.034228459	1.104630E+02	  0.034228459	8.317000E+00	  0.034228459	3.405700E+01
73	  0.034428857	-2.012000E+00	  0.034428857	1.083800E+02	  0.034428857	8.710000E+00	  0.034428857	3.534900E+01
74	  0.034629259	-2.054000E+00	  0.034629259	1.063090E+02	  0.034629259	9.120000E+00	  0.034629259	3.666100E+01
75	  0.034829661	-2.093000E+00	  0.034829661	1.042370E+02	  0.034829661	9.540000E+00	  0.034829661	3.800700E+01
76	  0.035030060	-2.132000E+00	  0.035030060	1.021900E+02	  0.035030060	9.988000E+00	  0.035030060	3.936700E+01
77	  0.035230462	-2.176000E+00	  0.035230462	1.001740E+02	  0.035230462	1.047800E+01	  0.035230462	4.073200E+01
78	  0.035430863	-2.230000E+00	  0.035430863	9.814300E+01	  0.035430863	1.105100E+01	  0.035430863	4.213000E+01
79	  0.035631265	-2.290000E+00	  0.035631265	9.612500E+01	  0.035631265	1.168500E+01	  0.035631265	4.354400E+01
80	  0.035831664	-2.353000E+00	  0.035831664	9.405500E+01	  0.035831664	1.238100E+01	  0.035831664	4.502700E+01
81	  0.036032066	-2.413000E+00	  0.036032066	9.194300E+01	  0.036032066	1.311600E+01	  0.036032066	4.658200E+01
82	  0.036232468	-2.473000E+00	  0.036232468	8.975100E+01	  0.036232468	1.392200E+01	  0.036232468	4.824000E+01
83	  0.036432866	-2.531000E+00	  0.036432866	8.757900E+01	  0.036432866	1.477000E+01	  0.036432866	4.992800E+01
84	  0.036633268	-2.585000E+00	  0.036633268	8.538900E+01	  0.036633268	1.566500E+01	  0.036633268	5.168500E+01
85	  0.036833670	-2.634000E+00	  0.036833670	8.322200E+01	  0.036833670	1.659000E+01	  0.036833670	5.348200E+01
86	  0.037034072	-2.684000E+00	  0.037034072	8.106400E+01	  0.037034072	1.758400E+01	  0.037034072	5.532200E+01
87	  0.037234470	-2.728000E+00	  0.037234470	7.892500E+01	  0.037234470	1.861500E+01	  0.037234470	5.721200E+01
88	  0.037434869	-2.774000E+00	  0.037434869	7.680700E+01	  0.037434869	1.972900E+01	  0.037434869	5.913400E+01
89	  0.037635271	-2.825000E+00	  0.037635271	7.473500E+01	  0.037635271	2.095300E+01	  0.037635271	6.104900E+01
90	  0.037835669	-2.879000E+00	  0.037835669	7.265300E+01	  0.037835669	2.229100E+01	  0.037835669	6.302000E+01
91	  0.038036071	-2.936000E+00	  0.038036071	7.060700E+01	  0.038036071	2.373700E+01	  0.038036071	6.499600E+01
92	  0.038236473	-2.993000E+00	  0.038236473	6.855500E+01	  0.038236473	2.530700E+01	  0.038236473	6.702300E+01
93	  0.038436871	-3.052000E+00	  0.038436871	6.646600E+01	  0.038436871	2.704700E+01	  0.038436871	6.913100E+01
94	  0.038637273	-3.116000E+00	  0.038637273	6.434800E+01	  0.038637273	2.899300E+01	  0.038637273	7.129700E+01
95	  0.038837675	-3.182000E+00	  0.038837675	6.219800E+01	  0.038837675	3.114800E+01	  0.038837675	7.353200E+01
96	  0.039038073	-3.248000E+00	  0.039038073	6.000000E+01	  0.039038073	3.353200E+01	  0.039038073	7.586600E+01
97	  0.039238475	-3.306000E+00	  0.039238475	5.776800E+01	  0.039238475	3.610800E+01	  0.039238475	7.832300E+01
98	  0.039438877	-3.360000E+00	  0.039438877	5.558100E+01	  0.039438877	3.884300E+01	  0.039438877	8.078800E+01
99	  0.039639279	-3.412000E+00	  0.039639279	5.343800E+01	  0.039639279	4.177200E+01	  0.039639279	8.323200E+01
100	  0.039839678	-3.455000E+00	  0.039839678	5.131700E+01	  0.039839678	4.486300E+01	  0.039839678	8.574600E+01
101	  0.040040080	-3.503000E+00	  0.040040080	4.925500E+01	  0.040040080	4.821200E+01	  0.040040080	8.814200E+01
102	  0.040240481	-3.560000E+00	  0.040240481	4.719900E+01	  0.040240481	5.194200E+01	  0.040240481	9.041200E+01
103	  0.040440880	-3.621000E+00	  0.040440880	4.512000E+01	  0.040440880	5.608500E+01	  0.040440880	9.260900E+01
104	  0.040641282	-3.684000E+00	  0.040641282	4.303600E+01	  0.040641282	6.063000E+01	  0.040641282	9.467800E+01
105	  0.040841684	-3.747000E+00	  0.040841684	4.092600E+01	  0.040841684	6.563300E+01	  0.040841684	9.662600E+01
106	  0.041042086	-3.812000E+00	  0.041042086	3.883100E+01	  0.041042086	7.105100E+01	  0.041042086	9.831800E+01
107	  0.041242484	-3.872000E+00	  0.041242484	3.669800E+01	  0.041242484	7.698500E+01	  0.041242484	9.984900E+01
108	  0.041442886	-3.934000E+00	  0.041442886	3.459700E+01	  0.041442886	8.332800E+01	  0.041442886	1.009580E+02
109	  0.041643288	-3.992000E+00	  0.041643288	3.245700E+01	  0.041643288	9.024600E+01	  0.041643288	1.017590E+02
110	  0.041843686	-4.047000E+00	  0.041843686	3.033000E+01	  0.041843686	9.761100E+01	  0.041843686	1.020560E+02
111	  0.042044088	-4.101000E+00	  0.042044088	2.823000E+01	  0.042044088	1.053550E+02	  0.042044088	1.017220E+02
112	  0.042244490	-4.152000E+00	  0.042244490	2.613900E+01	  0.042244490	1.134860E+02	  0.042244490	1.006930E+02
113	  0.042444889	-4.204000E+00	  0.042444889	2.407200E+01	  0.042444889	1.218770E+02	  0.042444889	9.880300E+01
114	  0.042645290	-4.258000E+00	  0.042645290	2.201500E+01	  0.042645290	1.304520E+02	  0.042645290	9.585500E+01
115	  0.042845692	-4.309000E+00	  0.042845692	1.996600E+01	  0.042845692	1.391110E+02	  0.042845692	9.191800E+01
116	  0.043046094	-4.361000E+00	  0.043046094	1.790200E+01	  0.043046094	1.477460E+02	  0.043046094	8.675200E+01
117	  0.043246493	-4.411000E+00	  0.043246493	1.585700E+01	  0.043246493	1.560400E+02	  0.043246493	8.044300E+01
118	  0.043446895	-4.461000E+00	  0.043446895	1.382100E+01	  0.043446895	1.637660E+02	  0.043446895	7.291200E+01
119	  0.043647297	-4.516000E+00	  0.043647297	1.179300E+01	  0.043647297	1.705890E+02	  0.043647297	6.412800E+01
120	  0.043847695	-4.566000E+00	  0.043847695	9.770000E+00	  0.043847695	1.764740E+02	  0.043847695	5.442100E+01
121	  0.044048097	-4.617000E+00	  0.044048097	7.765000E+00	  0.044048097	1.810460E+02	  0.044048097	4.392100E+01
122	  0.044248499	-4.666000E+00	  0.044248499	5.755000E+00	  0.044248499	1.843170E+02	  0.044248499	3.280700E+01
123	  0.044448901	-4.711000E+00	  0.044448901	3.734000E+00	  0.044448901	1.862430E+02	  0.044448901	2.130200E+01
124	  0.044649299	-4.750000E+00	  0.044649299	1.758000E+00	  0.044649299	1.868070E+02	  0.044649299	9.977000E+00
125	  0.044849701	-4.797000E+00	  0.044849701	-2.100000E-01	  0.044849701	1.856350E+02	  0.044849701	-1.177000E+00
126	  0.045050103	-4.838000E+00	  0.045050103	-2.164000E+00	  0.045050103	1.833020E+02	  0.045050103	-1.180400E+01
127	  0.045250501	-4.885000E+00	  0.045250501	-4.116000E+00	  0.045250501	1.795950E+02	  0.045250501	-2.175600E+01
128	  0.045450903	-4.927000E+00	  0.045450903	-6.045000E+00	  0.045450903	1.750990E+02	  0.045450903	-3.083000E+01
129	  0.045651305	-4.965000E+00	  0.045651305	-8.014000E+00	  0.045651305	1.697720E+02	  0.045651305	-3.922800E+01
130	  0.045851704	-5.005000E+00	  0.045851704	-9.935000E+00	  0.045851704	1.639030E+02	  0.045851704	-4.645700E+01
131	  0.046052106	-5.042000E+00	  0.046052106	-1.186700E+01	  0.046052106	1.576150E+02	  0.046052106	-5.281200E+01
132	  0.046252504	-5.080000E+00	  0.046252504	-1.377500E+01	  0.046252504	1.511200E+02	  0.046252504	-5.815100E+01
133	  0.046452906	-5.118000E+00	  0.046452906	-1.567400E+01	  0.046452906	1.445000E+02	  0.046452906	-6.255700E+01
134	  0.046653304	-5.152000E+00	  0.046653304	-1.755300E+01	  0.046653304	1.380160E+02	  0.046653304	-6.621300E+01
135	  0.046853706	-5.189000E+00	  0.046853706	-1.942700E+01	  0.046853706	1.315780E+02	  0.046853706	-6.907300E+01
136	  0.047054108	-5.222000E+00	  0.047054108	-2.131800E+01	  0.047054108	1.252750E+02	  0.047054108	-7.136300E+01
137	  0.047254506	-5.255000E+00	  0.047254506	-2.318800E+01	  0.047254506	1.192390E+02	  0.047254506	-7.306100E+01
138	  0.047454908	-5.286000E+00	  0.047454908	-2.507100E+01	  0.047454908	1.134020E+02	  0.047454908	-7.428500E+01
139	  0.047655310	-5.317000E+00	  0.047655310	-2.693300E+01	  0.047655310	1.078830E+02	  0.047655310	-7.504800E+01
140	  0.047855709	-5.347000E+00	  0.047855709	-2.879600E+01	  0.047855709	1.026330E+02	  0.047855709	-7.544500E+01
141	  0.048056111	-5.377000E+00	  0.048056111	-3.065800E+01	  0.048056111	9.765500E+01	  0.048056111	-7.552200E+01
142	  0.048256513	-5.404000E+00	  0.048256513	-3.249100E+01	  0.048256513	9.302400E+01	  0.048256513	-7.534800E+01
143	  0.048456915	-5.428000E+00	  0.048456915	-3.435600E+01	  0.048456915	8.858000E+01	  0.048456915	-7.500400E+01
144	  0.048657313	-5.450000E+00	  0.048657313	-3.619400E+01	  0.048657313	8.444600E+01	  0.048657313	-7.448100E+01
145	  0.048857715	-5.469000E+00	  0.048857715	-3.800600E+01	  0.048857715	8.060000E+01	  0.048857715	-7.383700E+01
146	  0.049058117	-5.485000E+00	  0.049058117	-3.978400E+01	  0.049058117	7.703900E+01	  0.049058117	-7.310200E+01
147	  0.049258515	-5.507000E+00	  0.049258515	-4.152400E+01	  0.049258515	7.376300E+01	  0.049258515	-7.219200E+01
148	  0.049458917	-5.524000E+00	  0.049458917	-4.325900E+01	  0.049458917	7.067700E+01	  0.049458917	-7.124400E+01
149	  0.049659319	-5.546000E+00	  0.049659319	-4.498400E+01	  0.049659319	6.779700E+01	  0.049659319	-7.018400E+01
150	  0.049859721	-5.567000E+00	  0.049859721	-4.671000E+01	  0.049859721	6.508100E+01	  0.049859721	-6.907200E+01
151	  0.050060119	-5.590000E+00	  0.050060119	-4.844600E+01	  0.050060119	6.251400E+01	  0.050060119	-6.790400E+01
152	  0.050260521	-5.615000E+00	  0.050260521	-5.017600E+01	  0.050260521	6.011800E+01	  0.050260521	-6.667500E+01
153	  0.050460923	-5.634000E+00	  0.050460923	-5.190700E+01	  0.050460923	5.783600E+01	  0.050460923	-6.548400E+01
154	  0.050661322	-5.652000E+00	  0.050661322	-5.362300E+01	  0.050661322	5.570200E+01	  0.050661322	-6.428600E+01
155	  0.050861724	-5.662000E+00	  0.050861724	-5.535900E+01	  0.050861724	5.363600E+01	  0.050861724	-6.311900E+01
156	  0.051062126	-5.675000E+00	  0.051062126	-5.706300E+01	  0.051062126	5.172900E+01	  0.051062126	-6.194300E+01
157	  0.051262524	-5.684000E+00	  0.051262524	-5.871800E+01	  0.051262524	4.996500E+01	  0.051262524	-6.081400E+01
158	  0.051462926	-5.692000E+00	  0.051462926	-6.035600E+01	  0.051462926	4.830600E+01	  0.051462926	-5.969500E+01
159	  0.051663328	-5.705000E+00	  0.051663328	-6.197300E+01	  0.051663328	4.677700E+01	  0.051663328	-5.855500E+01
160	  0.051863730	-5.719000E+00	  0.051863730	-6.358000E+01	  0.051863730	4.533800E+01	  0.051863730	-5.742100E+01
161	  0.052064128	-5.736000E+00	  0.052064128	-6.520100E+01	  0.052064128	4.397600E+01	  0.052064128	-5.626300E+01
162	  0.052264530	-5.753000E+00	  0.052264530	-6.678900E+01	  0.052264530	4.271000E+01	  0.052264530	-5.513900E+01
163	  0.052464932	-5.765000E+00	  0.052464932	-6.841100E+01	  0.052464932	4.145900E+01	  0.052464932	-5.402600E+01
164	  0.052665330	-5.778000E+00	  0.052665330	-7.000400E+01	  0.052665330	4.029900E+01	  0.052665330	-5.293500E+01
165	  0.052865732	-5.789000E+00	  0.052865732	-7.159200E+01	  0.052865732	3.919300E+01	  0.052865732	-5.186300E+01
166	  0.053066134	-5.806000E+00	  0.053066134	-7.319800E+01	  0.053066134	3.815000E+01	  0.053066134	-5.076800E+01
167	  0.053266536	-5.817000E+00	  0.053266536	-7.480100E+01	  0.053266536	3.714000E+01	  0.053266536	-4.970900E+01
168	  0.053466935	-5.824000E+00	  0.053466935	-7.639300E+01	  0.053466935	3.616400E+01	  0.053466935	-4.868900E+01
169	  0.053667337	-5.830000E+00	  0.053667337	-7.796500E+01	  0.053667337	3.524500E+01	  0.053667337	-4.769100E+01
170	  0.053867739	-5.828000E+00	  0.053867739	-7.952400E+01	  0.053867739	3.434500E+01	  0.053867739	-4.673800E+01
171	  0.054068137	-5.838000E+00	  0.054068137	-8.102500E+01	  0.054068137	3.355900E+01	  0.054068137	-4.579100E+01
172	  0.054268539	-5.841000E+00	  0.054268539	-8.253600E+01	  0.054268539	3.278000E+01	  0.054268539	-4.486900E+01
173	  0.054468941	-5.848000E+00	  0.054468941	-8.398900E+01	  0.054468941	3.207600E+01	  0.054468941	-4.397800E+01
174	  0.054669339	-5.854000E+00	  0.054669339	-8.545700E+01	  0.054669339	3.139400E+01	  0.054669339	-4.309000E+01
175	  0.054869737	-5.861000E+00	  0.054869737	-8.689000E+01	  0.054869737	3.075500E+01	  0.054869737	-4.223200E+01
176	  0.055070139	-5.873000E+00	  0.055070139	-8.836700E+01	  0.055070139	3.014600E+01	  0.055070139	-4.134000E+01
177	  0.055270538	-5.882000E+00	  0.055270538	-8.983300E+01	  0.055270538	2.955500E+01	  0.055270538	-4.047400E+01
178	  0.055470940	-5.890000E+00	  0.055470940	-9.128500E+01	  0.055470940	2.899100E+01	  0.055470940	-3.963000E+01
179	  0.055671342	-5.896000E+00	  0.055671342	-9.276600E+01	  0.055671342	2.843300E+01	  0.055671342	-3.878200E+01
180	  0.055871744	-5.903000E+00	  0.055871744	-9.418700E+01	  0.055871744	2.792200E+01	  0.055871744	-3.797700E+01
181	  0.056072142	-5.906000E+00	  0.056072142	-9.565400E+01	  0.056072142	2.740100E+01	  0.056072142	-3.716400E+01
182	  0.056272544	-5.902000E+00	  0.056272544	-9.707900E+01	  0.056272544	2.689000E+01	  0.056272544	-3.639800E+01
183	  0.056472946	-5.903000E+00	  0.056472946	-9.848500E+01	  0.056472946	2.642000E+01	  0.056472946	-3.564000E+01
184	  0.056673344	-5.906000E+00	  0.056673344	-9.984900E+01	  0.056673344	2.599000E+01	  0.056673344	-3.490600E+01
185	  0.056873746	-5.904000E+00	  0.056873746	-1.012170E+02	  0.056873746	2.555800E+01	  0.056873746	-3.418700E+01
186	  0.057074148	-5.908000E+00	  0.057074148	-1.025540E+02	  0.057074148	2.517100E+01	  0.057074148	-3.347900E+01
187	  0.057274550	-5.910000E+00	  0.057274550	-1.038940E+02	  0.057274550	2.479200E+01	  0.057274550	-3.277800E+01
188	  0.057474948	-5.916000E+00	  0.057474948	-1.052180E+02	  0.057474948	2.444400E+01	  0.057474948	-3.208600E+01
189	  0.057675350	-5.922000E+00	  0.057675350	-1.065550E+02	  0.057675350	2.410300E+01	  0.057675350	-3.139600E+01
190	  0.057875752	-5.924000E+00	  0.057875752	-1.079380E+02	  0.057875752	2.375100E+01	  0.057875752	-3.069400E+01
191	  0.058076151	-5.930000E+00	  0.058076151	-1.092790E+02	  0.058076151	2.343800E+01	  0.058076151	-3.001300E+01
192	  0.058276553	-5.932000E+00	  0.058276553	-1.106120E+02	  0.058276553	2.312300E+01	  0.058276553	-2.934900E+01
193	  0.058476955	-5.932000E+00	  0.058476955	-1.119730E+02	  0.058476955	2.280500E+01	  0.058476955	-2.868100E+01
194	  0.058677353	-5.928000E+00	  0.058677353	-1.133020E+02	  0.058677353	2.249500E+01	  0.058677353	-2.803900E+01
195	  0.058877755	-5.925000E+00	  0.058877755	-1.145950E+02	  0.058877755	2.220500E+01	  0.058877755	-2.741900E+01
196	  0.059078157	-5.923000E+00	  0.059078157	-1.159030E+02	  0.059078157	2.192500E+01	  0.059078157	-2.679500E+01
197	  0.059278559	-5.919000E+00	  0.059278559	-1.171620E+02	  0.059278559	2.166100E+01	  0.059278559	-2.620000E+01
198	  0.059478957	-5.920000E+00	  0.059478957	-1.184160E+02	  0.059478957	2.141900E+01	  0.059478957	-2.560700E+01
199	  0.059679359	-5.917000E+00	  0.059679359	-1.196470E+02	  0.059679359	2.117600E+01	  0.059679359	-2.503300E+01
200	  0.059879761	-5.918000E+00	  0.059879761	-1.208880E+02	  0.059879761	2.095300E+01	  0.059879761	-2.445400E+01
201	  0.060080159	-5.916000E+00	  0.060080159	-1.221160E+02	  0.060080159	2.073100E+01	  0.060080159	-2.388800E+01
202	  0.060280561	-5.918000E+00	  0.060280561	-1.233580E+02	  0.060280561	2.052600E+01	  0.060280561	-2.331600E+01
203	  0.060480963	-5.918000E+00	  0.060480963	-1.245970E+02	  0.060480963	2.032400E+01	  0.060480963	-2.275000E+01
204	  0.060681365	-5.919000E+00	  0.060681365	-1.258280E+02	  0.060681365	2.013300E+01	  0.060681365	-2.219100E+01
205	  0.060881764	-5.918000E+00	  0.060881764	-1.270540E+02	  0.060881764	1.994100E+01	  0.060881764	-2.164000E+01
206	  0.061082166	-5.917000E+00	  0.061082166	-1.282930E+02	  0.061082166	1.975500E+01	  0.061082166	-2.108700E+01
207	  0.061282568	-5.915000E+00	  0.061282568	-1.295040E+02	  0.061282568	1.957500E+01	  0.061282568	-2.055100E+01
208	  0.061482966	-5.909000E+00	  0.061482966	-1.307050E+02	  0.061482966	1.939300E+01	  0.061482966	-2.002600E+01
209	  0.061683368	-5.908000E+00	  0.061683368	-1.319290E+02	  0.061683368	1.922700E+01	  0.061683368	-1.948800E+01
210	  0.061883770	-5.905000E+00	  0.061883770	-1.331060E+02	  0.061883770	1.906600E+01	  0.061883770	-1.897700E+01
211	  0.062084168	-5.902000E+00	  0.062084168	-1.342810E+02	  0.062084168	1.891200E+01	  0.062084168	-1.846900E+01
212	  0.062284570	-5.899000E+00	  0.062284570	-1.354270E+02	  0.062284570	1.876400E+01	  0.062284570	-1.797600E+01
213	  0.062484972	-5.890000E+00	  0.062484972	-1.365330E+02	  0.062484972	1.861400E+01	  0.062484972	-1.750700E+01
214	  0.062685370	-5.891000E+00	  0.062685370	-1.376750E+02	  0.062685370	1.848800E+01	  0.062685370	-1.701700E+01
215	  0.062885776	-5.890000E+00	  0.062885776	-1.388350E+02	  0.062885776	1.836000E+01	  0.062885776	-1.652300E+01
216	  0.063086174	-5.893000E+00	  0.063086174	-1.400350E+02	  0.063086174	1.824300E+01	  0.063086174	-1.601200E+01
217	  0.063286573	-5.892000E+00	  0.063286573	-1.412160E+02	  0.063286573	1.812200E+01	  0.063286573	-1.551500E+01
218	  0.063486971	-5.889000E+00	  0.063486971	-1.423650E+02	  0.063486971	1.800300E+01	  0.063486971	-1.503400E+01
219	  0.063687377	-5.888000E+00	  0.063687377	-1.435070E+02	  0.063687377	1.789400E+01	  0.063687377	-1.455700E+01
220	  0.063887775	-5.882000E+00	  0.063887775	-1.446570E+02	  0.063887775	1.777600E+01	  0.063887775	-1.408100E+01
221	  0.064088173	-5.880000E+00	  0.064088173	-1.457960E+02	  0.064088173	1.767300E+01	  0.064088173	-1.361000E+01
222	  0.064288579	-5.882000E+00	  0.064288579	-1.469450E+02	  0.064288579	1.758400E+01	  0.064288579	-1.313400E+01
223	  0.064488977	-5.878000E+00	  0.064488977	-1.480650E+02	  0.064488977	1.748500E+01	  0.064488977	-1.267500E+01
224	  0.064689375	-5.877000E+00	  0.064689375	-1.491290E+02	  0.064689375	1.740000E+01	  0.064689375	-1.223900E+01
225	  0.064889781	-5.873000E+00	  0.064889781	-1.502350E+02	  0.064889781	1.730900E+01	  0.064889781	-1.178800E+01
226	  0.065090179	-5.873000E+00	  0.065090179	-1.513650E+02	  0.065090179	1.723200E+01	  0.065090179	-1.132700E+01
227	  0.065290578	-5.870000E+00	  0.065290578	-1.524330E+02	  0.065290578	1.715100E+01	  0.065290578	-1.089500E+01
228	  0.065490983	-5.870000E+00	  0.065490983	-1.535040E+02	  0.065490983	1.708300E+01	  0.065490983	-1.046100E+01
229	  0.065691382	-5.870000E+00	  0.065691382	-1.545910E+02	  0.065691382	1.701800E+01	  0.065691382	-1.002200E+01
230	  0.065891780	-5.870000E+00	  0.065891780	-1.557000E+02	  0.065891780	1.695200E+01	  0.065891780	-9.576000E+00
231	  0.066092186	-5.870000E+00	  0.066092186	-1.567710E+02	  0.066092186	1.689400E+01	  0.066092186	-9.145000E+00
232	  0.066292584	-5.871000E+00	  0.066292584	-1.578450E+02	  0.066292584	1.684000E+01	  0.066292584	-8.715000E+00
233	  0.066492982	-5.868000E+00	  0.066492982	-1.589220E+02	  0.066492982	1.677900E+01	  0.066492982	-8.285000E+00
234	  0.066693388	-5.867000E+00	  0.066693388	-1.599710E+02	  0.066693388	1.672600E+01	  0.066693388	-7.867000E+00
235	  0.066893786	-5.868000E+00	  0.066893786	-1.610220E+02	  0.066893786	1.668200E+01	  0.066893786	-7.449000E+00
236	  0.067094192	-5.867000E+00	  0.067094192	-1.620410E+02	  0.067094192	1.663500E+01	  0.067094192	-7.044000E+00
237	  0.067294590	-5.869000E+00	  0.067294590	-1.630950E+02	  0.067294590	1.660000E+01	  0.067294590	-6.626000E+00
238	  0.067494988	-5.868000E+00	  0.067494988	-1.641460E+02	  0.067494988	1.655800E+01	  0.067494988	-6.211000E+00
239	  0.067695394	-5.867000E+00	  0.067695394	-1.651570E+02	  0.067695394	1.652000E+01	  0.067695394	-5.812000E+00
240	  0.067895792	-5.869000E+00	  0.067895792	-1.661890E+02	  0.067895792	1.649100E+01	  0.067895792	-5.405000E+00
241	  0.068096191	-5.871000E+00	  0.068096191	-1.672250E+02	  0.068096191	1.646600E+01	  0.068096191	-4.996000E+00
242	  0.068296596	-5.877000E+00	  0.068296596	-1.682270E+02	  0.068296596	1.645300E+01	  0.068296596	-4.602000E+00
243	  0.068496995	-5.876000E+00	  0.068496995	-1.692480E+02	  0.068496995	1.642600E+01	  0.068496995	-4.201000E+00
244	  0.068697393	-5.876000E+00	  0.068697393	-1.702530E+02	  0.068697393	1.640300E+01	  0.068697393	-3.807000E+00
245	  0.068897791	-5.870000E+00	  0.068897791	-1.712950E+02	  0.068897791	1.636500E+01	  0.068897791	-3.399000E+00
246	  0.069098189	-5.871000E+00	  0.069098189	-1.722950E+02	  0.069098189	1.635000E+01	  0.069098189	-3.008000E+00
247	  0.069298595	-5.874000E+00	  0.069298595	-1.732990E+02	  0.069298595	1.634200E+01	  0.069298595	-2.615000E+00
248	  0.069498993	-5.880000E+00	  0.069498993	-1.742890E+02	  0.069498993	1.634400E+01	  0.069498993	-2.228000E+00
249	  0.069699399	-5.881000E+00	  0.069699399	-1.752850E+02	  0.069699399	1.633300E+01	  0.069699399	-1.838000E+00
250	  0.069899797	-5.883000E+00	  0.069899797	-1.762470E+02	  0.069899797	1.633000E+01	  0.069899797	-1.463000E+00
251	  0.070100196	-5.884000E+00	  0.070100196	-1.772400E+02	  0.070100196	1.632400E+01	  0.070100196	-1.075000E+00
252	  0.070300601	-5.884000E+00	  0.070300601	-1.782200E+02	  0.070300601	1.632000E+01	  0.070300601	-6.930000E-01
253	  0.070501000	-5.890000E+00	  0.070501000	-1.791940E+02	  0.070501000	1.633400E+01	  0.070501000	-3.140000E-01
254	  0.070701398	-5.890000E+00	  0.070701398	1.798290E+02	  0.070701398	1.633200E+01	  0.070701398	6.600000E-02
255	  0.070901804	-5.892000E+00	  0.070901804	1.788670E+02	  0.070901804	1.634000E+01	  0.070901804	4.410000E-01
256	  0.071102202	-5.898000E+00	  0.071102202	1.779060E+02	  0.071102202	1.635800E+01	  0.071102202	8.150000E-01
257	  0.071302600	-5.899000E+00	  0.071302600	1.769740E+02	  0.071302600	1.636700E+01	  0.071302600	1.178000E+00
258	  0.071503006	-5.903000E+00	  0.071503006	1.760230E+02	  0.071503006	1.638400E+01	  0.071503006	1.549000E+00
259	  0.071703404	-5.902000E+00	  0.071703404	1.750770E+02	  0.071703404	1.639000E+01	  0.071703404	1.918000E+00
260	  0.071903802	-5.901000E+00	  0.071903802	1.741150E+02	  0.071903802	1.640000E+01	  0.071903802	2.294000E+00
261	  0.072104208	-5.913000E+00	  0.072104208	1.731640E+02	  0.072104208	1.644400E+01	  0.072104208	2.664000E+00
262	  0.072304606	-5.919000E+00	  0.072304606	1.722410E+02	  0.072304606	1.647500E+01	  0.072304606	3.024000E+00
263	  0.072505005	-5.923000E+00	  0.072505005	1.713410E+02	  0.072505005	1.650200E+01	  0.072505005	3.374000E+00
264	  0.072705410	-5.930000E+00	  0.072705410	1.703960E+02	  0.072705410	1.653900E+01	  0.072705410	3.743000E+00
265	  0.072905809	-5.932000E+00	  0.072905809	1.694850E+02	  0.072905809	1.656300E+01	  0.072905809	4.099000E+00
266	  0.073106214	-5.935000E+00	  0.073106214	1.685460E+02	  0.073106214	1.659500E+01	  0.073106214	4.466000E+00
267	  0.073306613	-5.942000E+00	  0.073306613	1.676330E+02	  0.073306613	1.663700E+01	  0.073306613	4.823000E+00
268	  0.073507011	-5.950000E+00	  0.073507011	1.667060E+02	  0.073507011	1.668600E+01	  0.073507011	5.185000E+00
269	  0.073707417	-5.954000E+00	  0.073707417	1.658130E+02	  0.073707417	1.672500E+01	  0.073707417	5.534000E+00
270	  0.073907815	-5.958000E+00	  0.073907815	1.649010E+02	  0.073907815	1.676400E+01	  0.073907815	5.892000E+00
271	  0.074108213	-5.960000E+00	  0.074108213	1.639990E+02	  0.074108213	1.680100E+01	  0.074108213	6.247000E+00
272	  0.074308619	-5.966000E+00	  0.074308619	1.630770E+02	  0.074308619	1.685300E+01	  0.074308619	6.609000E+00
273	  0.074509017	-5.976000E+00	  0.074509017	1.621960E+02	  0.074509017	1.691300E+01	  0.074509017	6.954000E+00
274	  0.074709415	-5.984000E+00	  0.074709415	1.612900E+02	  0.074709415	1.697400E+01	  0.074709415	7.310000E+00
275	  0.074909821	-5.994000E+00	  0.074909821	1.603950E+02	  0.074909821	1.703900E+01	  0.074909821	7.661000E+00
276	  0.075110219	-5.998000E+00	  0.075110219	1.595080E+02	  0.075110219	1.709000E+01	  0.075110219	8.011000E+00
277	  0.075310618	-6.011000E+00	  0.075310618	1.586200E+02	  0.075310618	1.716800E+01	  0.075310618	8.359000E+00
278	  0.075511023	-6.016000E+00	  0.075511023	1.577080E+02	  0.075511023	1.722900E+01	  0.075511023	8.720000E+00
279	  0.075711422	-6.019000E+00	  0.075711422	1.568110E+02	  0.075711422	1.728300E+01	  0.075711422	9.076000E+00
280	  0.075911827	-6.029000E+00	  0.075911827	1.559540E+02	  0.075911827	1.735800E+01	  0.075911827	9.414000E+00
281	  0.076112226	-6.035000E+00	  0.076112226	1.550600E+02	  0.076112226	1.742500E+01	  0.076112226	9.769000E+00
282	  0.076312624	-6.044000E+00	  0.076312624	1.542000E+02	  0.076312624	1.750100E+01	  0.076312624	1.011000E+01
283	  0.076513030	-6.049000E+00	  0.076513030	1.533050E+02	  0.076513030	1.757100E+01	  0.076513030	1.046700E+01
284	  0.076713428	-6.056000E+00	  0.076713428	1.524330E+02	  0.076713428	1.764800E+01	  0.076713428	1.081400E+01
285	  0.076913826	-6.060000E+00	  0.076913826	1.515910E+02	  0.076913826	1.771600E+01	  0.076913826	1.115100E+01
286	  0.077114232	-6.069000E+00	  0.077114232	1.507410E+02	  0.077114232	1.779700E+01	  0.077114232	1.149100E+01
287	  0.077314630	-6.075000E+00	  0.077314630	1.498720E+02	  0.077314630	1.787700E+01	  0.077314630	1.183900E+01
288	  0.077515028	-6.086000E+00	  0.077515028	1.490330E+02	  0.077515028	1.796900E+01	  0.077515028	1.217400E+01
289	  0.077715434	-6.093000E+00	  0.077715434	1.482270E+02	  0.077715434	1.805100E+01	  0.077715434	1.249800E+01
290	  0.077915832	-6.101000E+00	  0.077915832	1.473950E+02	  0.077915832	1.813800E+01	  0.077915832	1.283300E+01
291	  0.078116231	-6.121000E+00	  0.078116231	1.465480E+02	  0.078116231	1.826300E+01	  0.078116231	1.316700E+01
292	  0.078316636	-6.130000E+00	  0.078316636	1.457150E+02	  0.078316636	1.835900E+01	  0.078316636	1.350300E+01
293	  0.078517035	-6.141000E+00	  0.078517035	1.448610E+02	  0.078517035	1.846200E+01	  0.078517035	1.384600E+01
294	  0.078717433	-6.146000E+00	  0.078717433	1.440130E+02	  0.078717433	1.855400E+01	  0.078717433	1.419200E+01
295	  0.078917839	-6.153000E+00	  0.078917839	1.431870E+02	  0.078917839	1.864900E+01	  0.078917839	1.452800E+01
296	  0.079118237	-6.163000E+00	  0.079118237	1.423800E+02	  0.079118237	1.875400E+01	  0.079118237	1.485400E+01
297	  0.079318643	-6.177000E+00	  0.079318643	1.415740E+02	  0.079318643	1.887300E+01	  0.079318643	1.517900E+01
298	  0.079519041	-6.186000E+00	  0.079519041	1.407610E+02	  0.079519041	1.897900E+01	  0.079519041	1.551000E+01
299	  0.079719439	-6.198000E+00	  0.079719439	1.399200E+02	  0.079719439	1.910000E+01	  0.079719439	1.585200E+01
300	  0.079919845	-6.214000E+00	  0.079919845	1.391240E+02	  0.079919845	1.922900E+01	  0.079919845	1.617200E+01
301	  0.080120243	-6.234000E+00	  0.080120243	1.382960E+02	  0.080120243	1.937400E+01	  0.080120243	1.650400E+01
302	  0.080320641	-6.243000E+00	  0.080320641	1.375080E+02	  0.080320641	1.949000E+01	  0.080320641	1.682700E+01
303	  0.080521047	-6.257000E+00	  0.080521047	1.367280E+02	  0.080521047	1.961800E+01	  0.080521047	1.714400E+01
304	  0.080721445	-6.276000E+00	  0.080721445	1.359110E+02	  0.080721445	1.976900E+01	  0.080721445	1.747300E+01
305	  0.080921844	-6.291000E+00	  0.080921844	1.350660E+02	  0.080921844	1.991200E+01	  0.080921844	1.781800E+01
306	  0.081122249	-6.303000E+00	  0.081122249	1.342460E+02	  0.081122249	2.004900E+01	  0.081122249	1.815500E+01
307	  0.081322648	-6.316000E+00	  0.081322648	1.334300E+02	  0.081322648	2.019000E+01	  0.081322648	1.849000E+01
308	  0.081523046	-6.331000E+00	  0.081523046	1.326210E+02	  0.081523046	2.034100E+01	  0.081523046	1.882100E+01
309	  0.081723452	-6.343000E+00	  0.081723452	1.318040E+02	  0.081723452	2.048500E+01	  0.081723452	1.915800E+01
310	  0.081923850	-6.356000E+00	  0.081923850	1.310000E+02	  0.081923850	2.063300E+01	  0.081923850	1.949000E+01
311	  0.082124248	-6.371000E+00	  0.082124248	1.302320E+02	  0.082124248	2.078500E+01	  0.082124248	1.980600E+01
312	  0.082324654	-6.383000E+00	  0.082324654	1.294390E+02	  0.082324654	2.093500E+01	  0.082324654	2.013500E+01
313	  0.082525052	-6.398000E+00	  0.082525052	1.286730E+02	  0.082525052	2.109100E+01	  0.082525052	2.045100E+01
314	  0.082725458	-6.410000E+00	  0.082725458	1.279110E+02	  0.082725458	2.124100E+01	  0.082725458	2.076800E+01
315	  0.082925856	-6.430000E+00	  0.082925856	1.271580E+02	  0.082925856	2.141500E+01	  0.082925856	2.107400E+01
316	  0.083126254	-6.450000E+00	  0.083126254	1.264330E+02	  0.083126254	2.158700E+01	  0.083126254	2.136800E+01
317	  0.083326660	-6.469000E+00	  0.083326660	1.256590E+02	  0.083326660	2.176700E+01	  0.083326660	2.168500E+01
318	  0.083527058	-6.488000E+00	  0.083527058	1.248890E+02	  0.083527058	2.195200E+01	  0.083527058	2.199900E+01
319	  0.083727457	-6.506000E+00	  0.083727457	1.241160E+02	  0.083727457	2.213300E+01	  0.083727457	2.231800E+01
320	  0.083927862	-6.520000E+00	  0.083927862	1.233260E+02	  0.083927862	2.231300E+01	  0.083927862	2.264700E+01
321	  0.084128261	-6.536000E+00	  0.084128261	1.225860E+02	  0.084128261	2.249100E+01	  0.084128261	2.295400E+01
322	  0.084328659	-6.555000E+00	  0.084328659	1.218460E+02	  0.084328659	2.268100E+01	  0.084328659	2.325700E+01
323	  0.084529065	-6.576000E+00	  0.084529065	1.211040E+02	  0.084529065	2.288000E+01	  0.084529065	2.355900E+01
324	  0.084729463	-6.591000E+00	  0.084729463	1.203970E+02	  0.084729463	2.306000E+01	  0.084729463	2.385200E+01
325	  0.084929861	-6.612000E+00	  0.084929861	1.196720E+02	  0.084929861	2.326200E+01	  0.084929861	2.414700E+01
326	  0.085130267	-6.630000E+00	  0.085130267	1.189660E+02	  0.085130267	2.345200E+01	  0.085130267	2.443700E+01
327	  0.085330658	-6.651000E+00	  0.085330658	1.182170E+02	  0.085330658	2.366700E+01	  0.085330658	2.474200E+01
328	  0.085531056	-6.679000E+00	  0.085531056	1.175200E+02	  0.085531056	2.389300E+01	  0.085531056	2.501500E+01
329	  0.085731462	-6.700000E+00	  0.085731462	1.168000E+02	  0.085731462	2.410700E+01	  0.085731462	2.530700E+01
330	  0.085931860	-6.729000E+00	  0.085931860	1.160800E+02	  0.085931860	2.434800E+01	  0.085931860	2.558700E+01
331	  0.086132258	-6.746000E+00	  0.086132258	1.153200E+02	  0.086132258	2.456500E+01	  0.086132258	2.590300E+01
332	  0.086332664	-6.771000E+00	  0.086332664	1.146160E+02	  0.086332664	2.479700E+01	  0.086332664	2.618100E+01
333	  0.086533062	-6.795000E+00	  0.086533062	1.138770E+02	  0.086533062	2.503600E+01	  0.086533062	2.647700E+01
334	  0.086733460	-6.812000E+00	  0.086733460	1.131410E+02	  0.086733460	2.526000E+01	  0.086733460	2.678100E+01
335	  0.086933866	-6.839000E+00	  0.086933866	1.124320E+02	  0.086933866	2.550900E+01	  0.086933866	2.705800E+01
336	  0.087134264	-6.859000E+00	  0.087134264	1.117110E+02	  0.087134264	2.574400E+01	  0.087134264	2.735100E+01
337	  0.087334670	-6.876000E+00	  0.087334670	1.110130E+02	  0.087334670	2.596800E+01	  0.087334670	2.763800E+01
338	  0.087535068	-6.899000E+00	  0.087535068	1.103170E+02	  0.087535068	2.621200E+01	  0.087535068	2.791500E+01
339	  0.087735467	-6.919000E+00	  0.087735467	1.096480E+02	  0.087735467	2.644300E+01	  0.087735467	2.818500E+01
340	  0.087935872	-6.938000E+00	  0.087935872	1.089700E+02	  0.087935872	2.667900E+01	  0.087935872	2.845900E+01
341	  0.088136271	-6.965000E+00	  0.088136271	1.083280E+02	  0.088136271	2.693100E+01	  0.088136271	2.870200E+01
342	  0.088336669	-6.995000E+00	  0.088336669	1.076580E+02	  0.088336669	2.720300E+01	  0.088336669	2.895200E+01
343	  0.088537075	-7.024000E+00	  0.088537075	1.069750E+02	  0.088537075	2.748000E+01	  0.088537075	2.920900E+01
344	  0.088737473	-7.044000E+00	  0.088737473	1.063120E+02	  0.088737473	2.772800E+01	  0.088737473	2.947100E+01
345	  0.088937871	-7.073000E+00	  0.088937871	1.056470E+02	  0.088937871	2.800600E+01	  0.088937871	2.971800E+01
346	  0.089138277	-7.098000E+00	  0.089138277	1.049500E+02	  0.089138277	2.828600E+01	  0.089138277	2.998600E+01
347	  0.089338675	-7.120000E+00	  0.089338675	1.042920E+02	  0.089338675	2.854800E+01	  0.089338675	3.024100E+01
348	  0.089539073	-7.145000E+00	  0.089539073	1.036440E+02	  0.089539073	2.882000E+01	  0.089539073	3.048500E+01
349	  0.089739479	-7.175000E+00	  0.089739479	1.029770E+02	  0.089739479	2.911500E+01	  0.089739479	3.072600E+01
350	  0.089939877	-7.202000E+00	  0.089939877	1.023450E+02	  0.089939877	2.939500E+01	  0.089939877	3.095700E+01
351	  0.090140276	-7.225000E+00	  0.090140276	1.017300E+02	  0.090140276	2.965900E+01	  0.090140276	3.118800E+01
352	  0.090340681	-7.245000E+00	  0.090340681	1.010990E+02	  0.090340681	2.992600E+01	  0.090340681	3.142800E+01
353	  0.090541080	-7.276000E+00	  0.090541080	1.004800E+02	  0.090541080	3.022300E+01	  0.090541080	3.164200E+01
354	  0.090741485	-7.306000E+00	  0.090741485	9.990900E+01	  0.090741485	3.050500E+01	  0.090741485	3.183200E+01
355	  0.090941884	-7.339000E+00	  0.090941884	9.930900E+01	  0.090941884	3.080700E+01	  0.090941884	3.202900E+01
356	  0.091142282	-7.366000E+00	  0.091142282	9.866400E+01	  0.091142282	3.111100E+01	  0.091142282	3.225600E+01
357	  0.091342688	-7.400000E+00	  0.091342688	9.807800E+01	  0.091342688	3.141700E+01	  0.091342688	3.244100E+01
358	  0.091543086	-7.429000E+00	  0.091543086	9.745000E+01	  0.091543086	3.173100E+01	  0.091543086	3.265100E+01
359	  0.091743484	-7.459000E+00	  0.091743484	9.682000E+01	  0.091743484	3.204700E+01	  0.091743484	3.286200E+01
360	  0.091943890	-7.490000E+00	  0.091943890	9.621600E+01	  0.091943890	3.236100E+01	  0.091943890	3.305500E+01
361	  0.092144288	-7.523000E+00	  0.092144288	9.567700E+01	  0.092144288	3.266000E+01	  0.092144288	3.321200E+01
362	  0.092344686	-7.546000E+00	  0.092344686	9.507700E+01	  0.092344686	3.295700E+01	  0.092344686	3.341900E+01
363	  0.092545092	-7.572000E+00	  0.092545092	9.448000E+01	  0.092545092	3.326500E+01	  0.092545092	3.361500E+01
364	  0.092745490	-7.600000E+00	  0.092745490	9.393000E+01	  0.092745490	3.356100E+01	  0.092745490	3.378500E+01
365	  0.092945889	-7.632000E+00	  0.092945889	9.337400E+01	  0.092945889	3.387500E+01	  0.092945889	3.394500E+01
366	  0.093146294	-7.661000E+00	  0.093146294	9.284800E+01	  0.093146294	3.417300E+01	  0.093146294	3.409500E+01
367	  0.093346693	-7.698000E+00	  0.093346693	9.234400E+01	  0.093346693	3.448400E+01	  0.093346693	3.421500E+01
368	  0.093547091	-7.729000E+00	  0.093547091	9.176400E+01	  0.093547091	3.481500E+01	  0.093547091	3.438000E+01
369	  0.093747497	-7.752000E+00	  0.093747497	9.124300E+01	  0.093747497	3.509600E+01	  0.093747497	3.454200E+01
370	  0.093947895	-7.786000E+00	  0.093947895	9.069600E+01	  0.093947895	3.542600E+01	  0.093947895	3.468100E+01
371	  0.094148301	-7.817000E+00	  0.094148301	9.016900E+01	  0.094148301	3.574200E+01	  0.094148301	3.481600E+01
372	  0.094348699	-7.850000E+00	  0.094348699	8.959400E+01	  0.094348699	3.608600E+01	  0.094348699	3.496400E+01
373	  0.094549097	-7.878000E+00	  0.094549097	8.910100E+01	  0.094549097	3.638100E+01	  0.094549097	3.509100E+01
374	  0.094749503	-7.908000E+00	  0.094749503	8.855600E+01	  0.094749503	3.671000E+01	  0.094749503	3.522900E+01
375	  0.094949901	-7.937000E+00	  0.094949901	8.807000E+01	  0.094949901	3.700900E+01	  0.094949901	3.534600E+01
376	  0.095150299	-7.961000E+00	  0.095150299	8.757200E+01	  0.095150299	3.730400E+01	  0.095150299	3.547900E+01
377	  0.095350705	-7.987000E+00	  0.095350705	8.706900E+01	  0.095350705	3.760700E+01	  0.095350705	3.560800E+01
378	  0.095551103	-8.011000E+00	  0.095551103	8.656700E+01	  0.095551103	3.790800E+01	  0.095551103	3.573900E+01
379	  0.095751502	-8.038000E+00	  0.095751502	8.607500E+01	  0.095751502	3.821600E+01	  0.095751502	3.585300E+01
380	  0.095951907	-8.062000E+00	  0.095951907	8.565000E+01	  0.095951907	3.848300E+01	  0.095951907	3.595000E+01
381	  0.096152306	-8.094000E+00	  0.096152306	8.523200E+01	  0.096152306	3.877100E+01	  0.096152306	3.601600E+01
382	  0.096352704	-8.121000E+00	  0.096352704	8.476400E+01	  0.096352704	3.907200E+01	  0.096352704	3.611400E+01
383	  0.096553110	-8.150000E+00	  0.096553110	8.428800E+01	  0.096553110	3.938300E+01	  0.096553110	3.620800E+01
384	  0.096753508	-8.175000E+00	  0.096753508	8.383400E+01	  0.096753508	3.967400E+01	  0.096753508	3.630600E+01
385	  0.096953906	-8.198000E+00	  0.096953906	8.339400E+01	  0.096953906	3.995500E+01	  0.096953906	3.640100E+01
386	  0.097154312	-8.221000E+00	  0.097154312	8.296900E+01	  0.097154312	4.023200E+01	  0.097154312	3.648600E+01
387	  0.097354710	-8.241000E+00	  0.097354710	8.256800E+01	  0.097354710	4.049000E+01	  0.097354710	3.657200E+01
388	  0.097555116	-8.263000E+00	  0.097555116	8.212900E+01	  0.097555116	4.077300E+01	  0.097555116	3.666500E+01
389	  0.097755514	-8.278000E+00	  0.097755514	8.173000E+01	  0.097755514	4.102000E+01	  0.097755514	3.676500E+01
390	  0.097955912	-8.299000E+00	  0.097955912	8.130200E+01	  0.097955912	4.129700E+01	  0.097955912	3.685500E+01
391	  0.098156318	-8.317000E+00	  0.098156318	8.090300E+01	  0.098156318	4.155500E+01	  0.098156318	3.694000E+01
392	  0.098356716	-8.338000E+00	  0.098356716	8.049900E+01	  0.098356716	4.182400E+01	  0.098356716	3.701500E+01
393	  0.098557115	-8.355000E+00	  0.098557115	8.013000E+01	  0.098557115	4.206500E+01	  0.098557115	3.709200E+01
394	  0.098757520	-8.375000E+00	  0.098757520	7.974300E+01	  0.098757520	4.232600E+01	  0.098757520	3.716000E+01
395	  0.098957919	-8.386000E+00	  0.098957919	7.938000E+01	  0.098957919	4.255300E+01	  0.098957919	3.725100E+01
396	  0.099158317	-8.408000E+00	  0.099158317	7.894200E+01	  0.099158317	4.284800E+01	  0.099158317	3.732900E+01
397	  0.099358723	-8.429000E+00	  0.099358723	7.857100E+01	  0.099358723	4.310500E+01	  0.099358723	3.738500E+01
398	  0.099559121	-8.441000E+00	  0.099559121	7.817400E+01	  0.099559121	4.335800E+01	  0.099559121	3.748100E+01
399	  0.099759519	-8.453000E+00	  0.099759519	7.777300E+01	  0.099759519	4.361500E+01	  0.099759519	3.757600E+01
400	  0.099959925	-8.474000E+00	  0.099959925	7.735300E+01	  0.099959925	4.390400E+01	  0.099959925	3.764300E+01
401	  0.100160323	-8.480000E+00	  0.100160323	7.705800E+01	  0.100160323	4.408700E+01	  0.100160323	3.772300E+01
402	  0.100360721	-8.487000E+00	  0.100360721	7.662800E+01	  0.100360721	4.435400E+01	  0.100360721	3.784500E+01
403	  0.100561127	-8.500000E+00	  0.100561127	7.615700E+01	  0.100561127	4.466200E+01	  0.100561127	3.795300E+01
404	  0.100761525	-8.493000E+00	  0.100761525	7.573400E+01	  0.100761525	4.489700E+01	  0.100761525	3.812500E+01
405	  0.100961931	-8.508000E+00	  0.100961931	7.540800E+01	  0.100961931	4.512500E+01	  0.100961931	3.817600E+01
406	  0.101162329	-8.513000E+00	  0.101162329	7.502100E+01	  0.101162329	4.537100E+01	  0.101162329	3.828400E+01
407	  0.101362728	-8.511000E+00	  0.101362728	7.462300E+01	  0.101362728	4.560800E+01	  0.101362728	3.842600E+01
408	  0.101563133	-8.519000E+00	  0.101563133	7.424800E+01	  0.101563133	4.585600E+01	  0.101563133	3.851700E+01
409	  0.101763532	-8.522000E+00	  0.101763532	7.378100E+01	  0.101763532	4.615200E+01	  0.101763532	3.865800E+01
410	  0.101963930	-8.532000E+00	  0.101963930	7.353600E+01	  0.101963930	4.632600E+01	  0.101963930	3.869700E+01
411	  0.102164336	-8.522000E+00	  0.102164336	7.299400E+01	  0.102164336	4.664700E+01	  0.102164336	3.891000E+01
412	  0.102364734	-8.514000E+00	  0.102364734	7.265200E+01	  0.102364734	4.684800E+01	  0.102364734	3.905200E+01
413	  0.102565132	-8.520000E+00	  0.102565132	7.228300E+01	  0.102565132	4.709600E+01	  0.102565132	3.914600E+01
414	  0.102765530	-8.515000E+00	  0.102765530	7.181800E+01	  0.102765530	4.738700E+01	  0.102765530	3.931300E+01
415	  0.102965929	-8.525000E+00	  0.102965929	7.137400E+01	  0.102965929	4.769800E+01	  0.102965929	3.940800E+01
416	  0.103166327	-8.505000E+00	  0.103166327	7.104600E+01	  0.103166327	4.787200E+01	  0.103166327	3.959900E+01
417	  0.103366733	-8.499000E+00	  0.103366733	7.054100E+01	  0.103366733	4.819600E+01	  0.103366733	3.978200E+01
418	  0.103567131	-8.490000E+00	  0.103567131	7.020700E+01	  0.103567131	4.840200E+01	  0.103567131	3.992300E+01
419	  0.103767529	-8.486000E+00	  0.103767529	6.984800E+01	  0.103767529	4.863700E+01	  0.103767529	4.005200E+01
420	  0.103967935	-8.487000E+00	  0.103967935	6.939300E+01	  0.103967935	4.895100E+01	  0.103967935	4.018300E+01
421	  0.104168333	-8.481000E+00	  0.104168333	6.888200E+01	  0.104168333	4.929100E+01	  0.104168333	4.036400E+01
422	  0.104368731	-8.487000E+00	  0.104368731	6.851700E+01	  0.104368731	4.955800E+01	  0.104368731	4.044200E+01
423	  0.104569137	-8.471000E+00	  0.104569137	6.806300E+01	  0.104569137	4.984700E+01	  0.104569137	4.064900E+01
424	  0.104769535	-8.469000E+00	  0.104769535	6.762200E+01	  0.104769535	5.015600E+01	  0.104769535	4.078700E+01
425	  0.104969934	-8.461000E+00	  0.104969934	6.710700E+01	  0.104969934	5.051100E+01	  0.104969934	4.096900E+01
426	  0.105170339	-8.462000E+00	  0.105170339	6.667800E+01	  0.105170339	5.082400E+01	  0.105170339	4.108800E+01
427	  0.105370738	-8.451000E+00	  0.105370738	6.619500E+01	  0.105370738	5.115700E+01	  0.105370738	4.127600E+01
428	  0.105571143	-8.444000E+00	  0.105571143	6.574100E+01	  0.105571143	5.148200E+01	  0.105571143	4.143400E+01
429	  0.105771542	-8.441000E+00	  0.105771542	6.524400E+01	  0.105771542	5.184700E+01	  0.105771542	4.158600E+01
430	  0.105971940	-8.434000E+00	  0.105971940	6.477400E+01	  0.105971940	5.219200E+01	  0.105971940	4.174200E+01
431	  0.106172346	-8.423000E+00	  0.106172346	6.430400E+01	  0.106172346	5.253100E+01	  0.106172346	4.192400E+01
432	  0.106372744	-8.423000E+00	  0.106372744	6.375200E+01	  0.106372744	5.295800E+01	  0.106372744	4.206700E+01
433	  0.106573142	-8.409000E+00	  0.106573142	6.322300E+01	  0.106573142	5.335000E+01	  0.106573142	4.227200E+01
434	  0.106773548	-8.403000E+00	  0.106773548	6.277300E+01	  0.106773548	5.369600E+01	  0.106773548	4.241500E+01
435	  0.106973946	-8.395000E+00	  0.106973946	6.219300E+01	  0.106973946	5.414600E+01	  0.106973946	4.260200E+01
436	  0.107174344	-8.380000E+00	  0.107174344	6.170400E+01	  0.107174344	5.451800E+01	  0.107174344	4.280000E+01
437	  0.107374750	-8.371000E+00	  0.107374750	6.115700E+01	  0.107374750	5.495200E+01	  0.107374750	4.297600E+01
438	  0.107575148	-8.361000E+00	  0.107575148	6.068100E+01	  0.107575148	5.533200E+01	  0.107575148	4.313600E+01
439	  0.107775547	-8.355000E+00	  0.107775547	6.020900E+01	  0.107775547	5.571800E+01	  0.107775547	4.327800E+01
440	  0.107975952	-8.344000E+00	  0.107975952	5.966000E+01	  0.107975952	5.616800E+01	  0.107975952	4.345900E+01
441	  0.108176351	-8.330000E+00	  0.108176351	5.908200E+01	  0.108176351	5.664400E+01	  0.108176351	4.366000E+01
442	  0.108376749	-8.323000E+00	  0.108376749	5.861500E+01	  0.108376749	5.703900E+01	  0.108376749	4.379800E+01
443	  0.108577155	-8.312000E+00	  0.108577155	5.804900E+01	  0.108577155	5.752200E+01	  0.108577155	4.397300E+01
444	  0.108777553	-8.297000E+00	  0.108777553	5.753500E+01	  0.108777553	5.795800E+01	  0.108777553	4.416300E+01
445	  0.108977959	-8.285000E+00	  0.108977959	5.707600E+01	  0.108977959	5.835700E+01	  0.108977959	4.431700E+01
446	  0.109178357	-8.278000E+00	  0.109178357	5.646800E+01	  0.109178357	5.890000E+01	  0.109178357	4.447100E+01
447	  0.109378755	-8.266000E+00	  0.109378755	5.592600E+01	  0.109378755	5.938500E+01	  0.109378755	4.463700E+01
448	  0.109579161	-8.258000E+00	  0.109579161	5.541000E+01	  0.109579161	5.985700E+01	  0.109579161	4.476700E+01
449	  0.109779559	-8.250000E+00	  0.109779559	5.482800E+01	  0.109779559	6.039600E+01	  0.109779559	4.491300E+01
450	  0.109979957	-8.235000E+00	  0.109979957	5.430900E+01	  0.109979957	6.087600E+01	  0.109979957	4.508400E+01
451	  0.110180363	-8.229000E+00	  0.110180363	5.374200E+01	  0.110180363	6.141600E+01	  0.110180363	4.520000E+01
452	  0.110380761	-8.216000E+00	  0.110380761	5.318800E+01	  0.110380761	6.194500E+01	  0.110380761	4.535600E+01
453	  0.110581160	-8.216000E+00	  0.110581160	5.255800E+01	  0.110581160	6.256700E+01	  0.110581160	4.543100E+01
454	  0.110781565	-8.211000E+00	  0.110781565	5.193900E+01	  0.110781565	6.318200E+01	  0.110781565	4.553000E+01
455	  0.110981964	-8.196000E+00	  0.110981964	5.129200E+01	  0.110981964	6.382600E+01	  0.110981964	4.569200E+01
456	  0.111182362	-8.183000E+00	  0.111182362	5.064600E+01	  0.111182362	6.448100E+01	  0.111182362	4.583300E+01
457	  0.111382768	-8.172000E+00	  0.111382768	5.003700E+01	  0.111382768	6.510800E+01	  0.111382768	4.595200E+01
458	  0.111583166	-8.169000E+00	  0.111583166	4.938500E+01	  0.111583166	6.579200E+01	  0.111583166	4.601200E+01
459	  0.111783572	-8.155000E+00	  0.111783572	4.872100E+01	  0.111783572	6.649400E+01	  0.111783572	4.613300E+01
460	  0.111983970	-8.143000E+00	  0.111983970	4.803100E+01	  0.111983970	6.723600E+01	  0.111983970	4.624300E+01
461	  0.112184368	-8.131000E+00	  0.112184368	4.731600E+01	  0.112184368	6.801600E+01	  0.112184368	4.633500E+01
462	  0.112384774	-8.128000E+00	  0.112384774	4.670100E+01	  0.112384774	6.869700E+01	  0.112384774	4.635700E+01
463	  0.112585172	-8.115000E+00	  0.112585172	4.598700E+01	  0.112585172	6.949700E+01	  0.112585172	4.643700E+01
464	  0.112785570	-8.110000E+00	  0.112785570	4.529400E+01	  0.112785570	7.028400E+01	  0.112785570	4.644700E+01
465	  0.112985976	-8.105000E+00	  0.112985976	4.457200E+01	  0.112985976	7.111300E+01	  0.112985976	4.643800E+01
466	  0.113186374	-8.099000E+00	  0.113186374	4.380600E+01	  0.113186374	7.200600E+01	  0.113186374	4.642800E+01
467	  0.113386773	-8.102000E+00	  0.113386773	4.304700E+01	  0.113386773	7.289300E+01	  0.113386773	4.632500E+01
468	  0.113587178	-8.091000E+00	  0.113587178	4.233000E+01	  0.113587178	7.375200E+01	  0.113587178	4.632100E+01
469	  0.113787577	-8.088000E+00	  0.113787577	4.148900E+01	  0.113787577	7.476400E+01	  0.113787577	4.620900E+01
470	  0.113987975	-8.088000E+00	  0.113987975	4.079400E+01	  0.113987975	7.560700E+01	  0.113987975	4.609300E+01
471	  0.114188381	-8.084000E+00	  0.114188381	4.000600E+01	  0.114188381	7.657500E+01	  0.114188381	4.596300E+01
472	  0.114388779	-8.084000E+00	  0.114388779	3.919300E+01	  0.114388779	7.757800E+01	  0.114388779	4.577300E+01
473	  0.114589177	-8.082000E+00	  0.114589177	3.840300E+01	  0.114589177	7.856300E+01	  0.114589177	4.557600E+01
474	  0.114789583	-8.090000E+00	  0.114789583	3.759000E+01	  0.114789583	7.956800E+01	  0.114789583	4.527400E+01
475	  0.114989981	-8.092000E+00	  0.114989981	3.675400E+01	  0.114989981	8.062000E+01	  0.114989981	4.498500E+01
476	  0.115190387	-8.099000E+00	  0.115190387	3.596900E+01	  0.115190387	8.160000E+01	  0.115190387	4.464400E+01
477	  0.115390785	-8.106000E+00	  0.115390785	3.511100E+01	  0.115390785	8.267300E+01	  0.115390785	4.424300E+01
478	  0.115591183	-8.113000E+00	  0.115591183	3.419200E+01	  0.115591183	8.383000E+01	  0.115591183	4.378400E+01
479	  0.115791589	-8.130000E+00	  0.115791589	3.335700E+01	  0.115791589	8.484700E+01	  0.115791589	4.324600E+01
480	  0.115991987	-8.150000E+00	  0.115991987	3.247500E+01	  0.115991987	8.590700E+01	  0.115991987	4.262200E+01
481	  0.116192386	-8.154000E+00	  0.116192386	3.157800E+01	  0.116192386	8.703600E+01	  0.116192386	4.208500E+01
482	  0.116392791	-8.175000E+00	  0.116392791	3.064600E+01	  0.116392791	8.814200E+01	  0.116392791	4.135000E+01
483	  0.116593190	-8.196000E+00	  0.116593190	2.971300E+01	  0.116593190	8.923800E+01	  0.116593190	4.057600E+01
484	  0.116793588	-8.211000E+00	  0.116793588	2.878600E+01	  0.116793588	9.034000E+01	  0.116793588	3.981800E+01
485	  0.116993994	-8.242000E+00	  0.116993994	2.781300E+01	  0.116993994	9.140200E+01	  0.116993994	3.884500E+01
486	  0.117194392	-8.266000E+00	  0.117194392	2.685900E+01	  0.117194392	9.245300E+01	  0.117194392	3.790200E+01
487	  0.117394790	-8.288000E+00	  0.117394790	2.590400E+01	  0.117394790	9.349000E+01	  0.117394790	3.693300E+01
488	  0.117595196	-8.318000E+00	  0.117595196	2.489800E+01	  0.117595196	9.451700E+01	  0.117595196	3.581500E+01
489	  0.117795594	-8.349000E+00	  0.117795594	2.390800E+01	  0.117795594	9.549100E+01	  0.117795594	3.467100E+01
490	  0.117995992	-8.384000E+00	  0.117995992	2.285400E+01	  0.117995992	9.646800E+01	  0.117995992	3.338500E+01
491	  0.118196398	-8.413000E+00	  0.118196398	2.182000E+01	  0.118196398	9.742000E+01	  0.118196398	3.212200E+01
492	  0.118396796	-8.456000E+00	  0.118396796	2.080900E+01	  0.118396796	9.820600E+01	  0.118396796	3.074400E+01
493	  0.118597202	-8.494000E+00	  0.118597202	1.971400E+01	  0.118597202	9.905400E+01	  0.118597202	2.926900E+01
494	  0.118797600	-8.547000E+00	  0.118797600	1.866100E+01	  0.118797600	9.969900E+01	  0.118797600	2.772300E+01
495	  0.118997999	-8.596000E+00	  0.118997999	1.758400E+01	  0.118997999	1.003240E+02	  0.118997999	2.614100E+01
496	  0.119198404	-8.643000E+00	  0.119198404	1.640100E+01	  0.119198404	1.009980E+02	  0.119198404	2.442300E+01
497	  0.119398803	-8.701000E+00	  0.119398803	1.527200E+01	  0.119398803	1.014570E+02	  0.119398803	2.268600E+01
498	  0.119599201	-8.760000E+00	  0.119599201	1.413700E+01	  0.119599201	1.018400E+02	  0.119599201	2.093000E+01
499	  0.119799607	-8.822000E+00	  0.119799607	1.302600E+01	  0.119799607	1.020930E+02	  0.119799607	1.918000E+01
500	  0.120000005	-8.888000E+00	  0.120000005	1.184500E+01	  0.120000005	1.022840E+02	  0.120000005	1.732900E+01
