! Anritsu VNA Master:             	Model: MS2036C/10/77
! SN:             	1601066
! /card0/usr/18may27.balun/252b.r200.3.txt
! Existing Calibration Information:
! TYPE:             	Current Settings	Active Cal Settings
! TIME:             	05/27/2018 01:05:29 PM	05/27/2018 12:49:51 PM
! INTERNAL TEMP:    	52.3 C	52.5 C
! # POINTS:         	500	500
! START FREQ:       	20.000 MHz	20.000 MHz
! STOP FREQ:        	120.000 MHz	120.000 MHz
! SOURCE POWER:     	High	High
! IFBW:             	50 Hz	50 Hz
! AVG FACTOR:       	  1 	  1 
! REF PLANE 1:      	0 mm	0 mm
! REF PLANE 2:      	0 mm	0 mm
! CAL TYPE:         	Full S11	Full S11
! CAL METHOD:       	SOLT	SOLT
! CAL LINE TYPE:    	Coax	Coax
! DUT PORT 1:       	K-Conn(M)	K-Conn(M)
! DUT PORT 2:       	K-Conn(M)	K-Conn(M)
! CAL STATUS:       	OK: Accuracy High	--
! PROP-V:       	0.700
! CABLE LOSS:       	0.000 dB/m
! REF IMPEDANCE:       	50.0
! Trace Specific Parameters:	TR1	TR2	TR3	TR4
! TRACE.#.Y (GRAPH TYPE)	LOG MAG	PHASE	REAL IMPEDANCE	IMAGINARY IMPEDANCE
! TRACE.#.X 	FREQ.GHZ	FREQ.GHZ	FREQ.GHZ	FREQ.GHZ
! S-PARAMETER	S11	S11	S11	S11
! SMOOTH/APERTURE %	0	0	0	0
! WINDOW	NSL	NSL	NSL	NSL
! GATING	OFF	OFF	OFF	OFF
! FGTD	OFF	OFF	OFF	OFF
Marker Information per Trace:	TR1	TR2	TR3	TR4
!MK1	--	--	--	"MK1 TR4:  70.100 200 MHz,Z:(29.099 ohm, -50.405 ohm)"
!MK2	--	--	--	--
!MK3	--	--	--	--
!MK4	--	--	--	--
!MK5	--	--	--	--
!MK6	--	--	--	--
!MK7	--	--	--	--
!MK8	--	--	--	--
PNT	TR1.FREQ.GHZ	TR1.LOG MAG.dB	TR2.FREQ.GHZ	TR2.PHASE.deg	TR3.FREQ.GHZ	TR3.REAL IMPEDANCE.ohm	TR4.FREQ.GHZ	TR4.IMAGINARY IMPEDANCE.ohm
1	  0.020000000	-4.524000E+00	  0.020000000	-2.250900E+01	  0.020000000	1.267240E+02	  0.020000000	-8.906500E+01
2	  0.020200402	-4.528000E+00	  0.020200402	-2.275200E+01	  0.020200402	1.257440E+02	  0.020200402	-8.917800E+01
3	  0.020400802	-4.538000E+00	  0.020400802	-2.298400E+01	  0.020400802	1.247790E+02	  0.020400802	-8.914200E+01
4	  0.020601204	-4.550000E+00	  0.020601204	-2.323400E+01	  0.020601204	1.237440E+02	  0.020601204	-8.905100E+01
5	  0.020801604	-4.544000E+00	  0.020801604	-2.346400E+01	  0.020801604	1.228900E+02	  0.020801604	-8.938200E+01
6	  0.021002004	-4.536000E+00	  0.021002004	-2.371600E+01	  0.021002004	1.219680E+02	  0.021002004	-8.977900E+01
7	  0.021202406	-4.534000E+00	  0.021202406	-2.395800E+01	  0.021202406	1.210560E+02	  0.021202406	-9.001000E+01
8	  0.021402806	-4.543000E+00	  0.021402806	-2.419600E+01	  0.021402806	1.201140E+02	  0.021402806	-8.996700E+01
9	  0.021603208	-4.549000E+00	  0.021603208	-2.443400E+01	  0.021603208	1.191950E+02	  0.021603208	-8.996000E+01
10	  0.021803608	-4.550000E+00	  0.021803608	-2.465100E+01	  0.021803608	1.183760E+02	  0.021803608	-9.005900E+01
11	  0.022004008	-4.545000E+00	  0.022004008	-2.486400E+01	  0.022004008	1.176090E+02	  0.022004008	-9.032200E+01
12	  0.022204408	-4.527000E+00	  0.022204408	-2.508700E+01	  0.022204408	1.168410E+02	  0.022204408	-9.086100E+01
13	  0.022404809	-4.541000E+00	  0.022404809	-2.529300E+01	  0.022404809	1.160380E+02	  0.022404809	-9.063800E+01
14	  0.022605211	-4.548000E+00	  0.022605211	-2.551400E+01	  0.022605211	1.152080E+02	  0.022605211	-9.056300E+01
15	  0.022805611	-4.555000E+00	  0.022805611	-2.574300E+01	  0.022805611	1.143600E+02	  0.022805611	-9.050700E+01
16	  0.023006011	-4.553000E+00	  0.023006011	-2.597400E+01	  0.023006011	1.135280E+02	  0.023006011	-9.062700E+01
17	  0.023206413	-4.547000E+00	  0.023206413	-2.618800E+01	  0.023206413	1.127790E+02	  0.023206413	-9.086100E+01
18	  0.023406813	-4.542000E+00	  0.023406813	-2.640500E+01	  0.023406813	1.120120E+02	  0.023406813	-9.103600E+01
19	  0.023607215	-4.541000E+00	  0.023607215	-2.664000E+01	  0.023607215	1.111810E+02	  0.023607215	-9.113600E+01
20	  0.023807615	-4.545000E+00	  0.023807615	-2.686500E+01	  0.023807615	1.103840E+02	  0.023807615	-9.110500E+01
21	  0.024008015	-4.544000E+00	  0.024008015	-2.706600E+01	  0.024008015	1.096810E+02	  0.024008015	-9.116000E+01
22	  0.024208417	-4.546000E+00	  0.024208417	-2.727700E+01	  0.024208417	1.089450E+02	  0.024208417	-9.116400E+01
23	  0.024408817	-4.551000E+00	  0.024408817	-2.746500E+01	  0.024408817	1.082910E+02	  0.024408817	-9.109400E+01
24	  0.024609219	-4.556000E+00	  0.024609219	-2.765600E+01	  0.024609219	1.076270E+02	  0.024609219	-9.100400E+01
25	  0.024809619	-4.558000E+00	  0.024809619	-2.786600E+01	  0.024809619	1.069120E+02	  0.024809619	-9.097600E+01
26	  0.025010020	-4.563000E+00	  0.025010020	-2.809000E+01	  0.025010020	1.061500E+02	  0.025010020	-9.089200E+01
27	  0.025210422	-4.567000E+00	  0.025210422	-2.831600E+01	  0.025210422	1.053890E+02	  0.025210422	-9.081300E+01
28	  0.025410822	-4.569000E+00	  0.025410822	-2.856000E+01	  0.025410822	1.045780E+02	  0.025410822	-9.078500E+01
29	  0.025611224	-4.569000E+00	  0.025611224	-2.880800E+01	  0.025611224	1.037580E+02	  0.025611224	-9.079800E+01
30	  0.025811624	-4.572000E+00	  0.025811624	-2.906500E+01	  0.025811624	1.029190E+02	  0.025811624	-9.073800E+01
31	  0.026012026	-4.574000E+00	  0.026012026	-2.933700E+01	  0.026012026	1.020350E+02	  0.026012026	-9.066800E+01
32	  0.026212426	-4.573000E+00	  0.026212426	-2.960500E+01	  0.026212426	1.011730E+02	  0.026212426	-9.067800E+01
33	  0.026412826	-4.575000E+00	  0.026412826	-2.988200E+01	  0.026412826	1.002910E+02	  0.026412826	-9.060500E+01
34	  0.026613226	-4.573000E+00	  0.026613226	-3.014300E+01	  0.026613226	9.946500E+01	  0.026613226	-9.061500E+01
35	  0.026813626	-4.567000E+00	  0.026813626	-3.035800E+01	  0.026813626	9.878500E+01	  0.026813626	-9.070500E+01
36	  0.027014028	-4.565000E+00	  0.027014028	-3.056500E+01	  0.027014028	9.813800E+01	  0.027014028	-9.071100E+01
37	  0.027214428	-4.568000E+00	  0.027214428	-3.075700E+01	  0.027214428	9.754700E+01	  0.027214428	-9.062000E+01
38	  0.027414829	-4.568000E+00	  0.027414829	-3.095000E+01	  0.027414829	9.695200E+01	  0.027414829	-9.057200E+01
39	  0.027615231	-4.570000E+00	  0.027615231	-3.116100E+01	  0.027615231	9.631400E+01	  0.027615231	-9.047000E+01
40	  0.027815631	-4.576000E+00	  0.027815631	-3.141300E+01	  0.027815631	9.555900E+01	  0.027815631	-9.028700E+01
41	  0.028016033	-4.582000E+00	  0.028016033	-3.164300E+01	  0.028016033	9.488000E+01	  0.028016033	-9.011500E+01
42	  0.028216433	-4.582000E+00	  0.028216433	-3.190000E+01	  0.028216433	9.411900E+01	  0.028216433	-9.003400E+01
43	  0.028416833	-4.577000E+00	  0.028416833	-3.216500E+01	  0.028416833	9.332600E+01	  0.028416833	-9.004200E+01
44	  0.028617235	-4.571000E+00	  0.028617235	-3.243600E+01	  0.028617235	9.252000E+01	  0.028617235	-9.007200E+01
45	  0.028817635	-4.569000E+00	  0.028817635	-3.267700E+01	  0.028817635	9.181700E+01	  0.028817635	-9.001600E+01
46	  0.029018037	-4.568000E+00	  0.029018037	-3.291400E+01	  0.029018037	9.113300E+01	  0.029018037	-8.995700E+01
47	  0.029218437	-4.562000E+00	  0.029218437	-3.312800E+01	  0.029218437	9.050700E+01	  0.029218437	-8.997900E+01
48	  0.029418837	-4.556000E+00	  0.029418837	-3.331500E+01	  0.029418837	8.995900E+01	  0.029418837	-9.000700E+01
49	  0.029619239	-4.554000E+00	  0.029619239	-3.347600E+01	  0.029619239	8.950100E+01	  0.029619239	-8.997800E+01
50	  0.029819639	-4.551000E+00	  0.029819639	-3.362400E+01	  0.029819639	8.907600E+01	  0.029819639	-8.996300E+01
51	  0.030020041	-4.548000E+00	  0.030020041	-3.378300E+01	  0.030020041	8.862400E+01	  0.030020041	-8.994300E+01
52	  0.030220442	-4.535000E+00	  0.030220442	-3.397900E+01	  0.030220442	8.804000E+01	  0.030220442	-9.007700E+01
53	  0.030420844	-4.554000E+00	  0.030420844	-3.419100E+01	  0.030420844	8.751800E+01	  0.030420844	-8.962900E+01
54	  0.030621244	-4.530000E+00	  0.030621244	-3.443800E+01	  0.030621244	8.676300E+01	  0.030621244	-8.992600E+01
55	  0.030821644	-4.543000E+00	  0.030821644	-3.467400E+01	  0.030821644	8.616700E+01	  0.030821644	-8.958200E+01
56	  0.031022044	-4.532000E+00	  0.031022044	-3.492200E+01	  0.031022044	8.546300E+01	  0.031022044	-8.962600E+01
57	  0.031222444	-4.526000E+00	  0.031222444	-3.511900E+01	  0.031222444	8.491100E+01	  0.031222444	-8.963300E+01
58	  0.031422846	-4.534000E+00	  0.031422846	-3.539700E+01	  0.031422846	8.421100E+01	  0.031422846	-8.932100E+01
59	  0.031623244	-4.546000E+00	  0.031623244	-3.566400E+01	  0.031623244	8.356000E+01	  0.031623244	-8.895700E+01
60	  0.031823646	-4.560000E+00	  0.031823646	-3.592900E+01	  0.031823646	8.293500E+01	  0.031823646	-8.855400E+01
61	  0.032024048	-4.559000E+00	  0.032024048	-3.618200E+01	  0.032024048	8.228400E+01	  0.032024048	-8.841600E+01
62	  0.032224450	-4.560000E+00	  0.032224450	-3.644200E+01	  0.032224450	8.163000E+01	  0.032224450	-8.823800E+01
63	  0.032424849	-4.560000E+00	  0.032424849	-3.667800E+01	  0.032424849	8.103700E+01	  0.032424849	-8.809600E+01
64	  0.032625251	-4.555000E+00	  0.032625251	-3.690300E+01	  0.032625251	8.046000E+01	  0.032625251	-8.802700E+01
65	  0.032825653	-4.554000E+00	  0.032825653	-3.712000E+01	  0.032825653	7.992000E+01	  0.032825653	-8.790400E+01
66	  0.033026051	-4.553000E+00	  0.033026051	-3.731000E+01	  0.033026051	7.945400E+01	  0.033026051	-8.778300E+01
67	  0.033226453	-4.560000E+00	  0.033226453	-3.749000E+01	  0.033226453	7.904900E+01	  0.033226453	-8.754700E+01
68	  0.033426855	-4.567000E+00	  0.033426855	-3.771600E+01	  0.033426855	7.853600E+01	  0.033426855	-8.728700E+01
69	  0.033627257	-4.571000E+00	  0.033627257	-3.796400E+01	  0.033627257	7.796500E+01	  0.033627257	-8.704500E+01
70	  0.033827655	-4.570000E+00	  0.033827655	-3.824100E+01	  0.033827655	7.730800E+01	  0.033827655	-8.686400E+01
71	  0.034028057	-4.573000E+00	  0.034028057	-3.851400E+01	  0.034028057	7.668200E+01	  0.034028057	-8.663500E+01
72	  0.034228459	-4.572000E+00	  0.034228459	-3.875500E+01	  0.034228459	7.612200E+01	  0.034228459	-8.647500E+01
73	  0.034428857	-4.572000E+00	  0.034428857	-3.898600E+01	  0.034428857	7.559300E+01	  0.034428857	-8.630100E+01
74	  0.034629259	-4.577000E+00	  0.034629259	-3.921500E+01	  0.034629259	7.509900E+01	  0.034629259	-8.605900E+01
75	  0.034829661	-4.560000E+00	  0.034829661	-3.948600E+01	  0.034829661	7.440500E+01	  0.034829661	-8.611000E+01
76	  0.035030060	-4.552000E+00	  0.035030060	-3.968900E+01	  0.035030060	7.391600E+01	  0.035030060	-8.606100E+01
77	  0.035230462	-4.550000E+00	  0.035230462	-3.989400E+01	  0.035230462	7.344800E+01	  0.035230462	-8.593800E+01
78	  0.035430863	-4.548000E+00	  0.035430863	-4.006900E+01	  0.035430863	7.305400E+01	  0.035430863	-8.583000E+01
79	  0.035631265	-4.550000E+00	  0.035631265	-4.024500E+01	  0.035631265	7.268200E+01	  0.035631265	-8.565400E+01
80	  0.035831664	-4.549000E+00	  0.035831664	-4.041500E+01	  0.035831664	7.230500E+01	  0.035831664	-8.554300E+01
81	  0.036032066	-4.557000E+00	  0.036032066	-4.063500E+01	  0.036032066	7.187800E+01	  0.036032066	-8.524900E+01
82	  0.036232468	-4.564000E+00	  0.036232468	-4.083300E+01	  0.036232468	7.149300E+01	  0.036232468	-8.498900E+01
83	  0.036432866	-4.580000E+00	  0.036432866	-4.108700E+01	  0.036432866	7.104500E+01	  0.036432866	-8.455700E+01
84	  0.036633268	-4.585000E+00	  0.036633268	-4.135600E+01	  0.036633268	7.051000E+01	  0.036633268	-8.427200E+01
85	  0.036833670	-4.589000E+00	  0.036833670	-4.160800E+01	  0.036833670	7.000900E+01	  0.036833670	-8.401900E+01
86	  0.037034072	-4.589000E+00	  0.037034072	-4.187300E+01	  0.037034072	6.946500E+01	  0.037034072	-8.380700E+01
87	  0.037234470	-4.590000E+00	  0.037234470	-4.211600E+01	  0.037234470	6.898100E+01	  0.037234470	-8.359200E+01
88	  0.037434869	-4.595000E+00	  0.037434869	-4.234000E+01	  0.037434869	6.856100E+01	  0.037434869	-8.333400E+01
89	  0.037635271	-4.595000E+00	  0.037635271	-4.261900E+01	  0.037635271	6.800800E+01	  0.037635271	-8.310100E+01
90	  0.037835669	-4.589000E+00	  0.037835669	-4.289300E+01	  0.037835669	6.743600E+01	  0.037835669	-8.295300E+01
91	  0.038036071	-4.580000E+00	  0.038036071	-4.315000E+01	  0.038036071	6.688800E+01	  0.038036071	-8.284600E+01
92	  0.038236473	-4.573000E+00	  0.038236473	-4.337100E+01	  0.038236473	6.641900E+01	  0.038236473	-8.275300E+01
93	  0.038436871	-4.570000E+00	  0.038436871	-4.353400E+01	  0.038436871	6.609300E+01	  0.038436871	-8.264400E+01
94	  0.038637273	-4.575000E+00	  0.038637273	-4.371700E+01	  0.038637273	6.577200E+01	  0.038637273	-8.242700E+01
95	  0.038837675	-4.581000E+00	  0.038837675	-4.391500E+01	  0.038837675	6.543300E+01	  0.038837675	-8.217900E+01
96	  0.039038073	-4.588000E+00	  0.039038073	-4.415800E+01	  0.039038073	6.502300E+01	  0.039038073	-8.187600E+01
97	  0.039238475	-4.599000E+00	  0.039238475	-4.438800E+01	  0.039238475	6.465900E+01	  0.039238475	-8.154400E+01
98	  0.039438877	-4.603000E+00	  0.039438877	-4.464900E+01	  0.039438877	6.420600E+01	  0.039438877	-8.126800E+01
99	  0.039639279	-4.604000E+00	  0.039639279	-4.492400E+01	  0.039639279	6.371000E+01	  0.039639279	-8.102000E+01
100	  0.039839678	-4.596000E+00	  0.039839678	-4.518500E+01	  0.039839678	6.319700E+01	  0.039839678	-8.088300E+01
101	  0.040040080	-4.600000E+00	  0.040040080	-4.542700E+01	  0.040040080	6.278900E+01	  0.040040080	-8.062600E+01
102	  0.040240481	-4.597000E+00	  0.040240481	-4.567900E+01	  0.040240481	6.232800E+01	  0.040240481	-8.044100E+01
103	  0.040440880	-4.596000E+00	  0.040440880	-4.594300E+01	  0.040440880	6.186100E+01	  0.040440880	-8.021900E+01
104	  0.040641282	-4.587000E+00	  0.040641282	-4.615200E+01	  0.040641282	6.144900E+01	  0.040641282	-8.013200E+01
105	  0.040841684	-4.584000E+00	  0.040841684	-4.635000E+01	  0.040841684	6.109100E+01	  0.040841684	-7.998900E+01
106	  0.041042086	-4.582000E+00	  0.041042086	-4.653600E+01	  0.041042086	6.076300E+01	  0.041042086	-7.984200E+01
107	  0.041242484	-4.582000E+00	  0.041242484	-4.674000E+01	  0.041242484	6.042000E+01	  0.041242484	-7.965600E+01
108	  0.041442886	-4.587000E+00	  0.041442886	-4.695000E+01	  0.041442886	6.010100E+01	  0.041442886	-7.940800E+01
109	  0.041643288	-4.593000E+00	  0.041643288	-4.717500E+01	  0.041643288	5.976500E+01	  0.041643288	-7.913600E+01
110	  0.041843686	-4.599000E+00	  0.041843686	-4.740400E+01	  0.041843686	5.942200E+01	  0.041843686	-7.886500E+01
111	  0.042044088	-4.605000E+00	  0.042044088	-4.765500E+01	  0.042044088	5.904600E+01	  0.042044088	-7.858100E+01
112	  0.042244490	-4.606000E+00	  0.042244490	-4.788400E+01	  0.042244490	5.868600E+01	  0.042244490	-7.835500E+01
113	  0.042444889	-4.607000E+00	  0.042444889	-4.813800E+01	  0.042444889	5.828800E+01	  0.042444889	-7.811400E+01
114	  0.042645290	-4.606000E+00	  0.042645290	-4.836800E+01	  0.042645290	5.791600E+01	  0.042645290	-7.791600E+01
115	  0.042845692	-4.608000E+00	  0.042845692	-4.861500E+01	  0.042845692	5.754000E+01	  0.042845692	-7.767300E+01
116	  0.043046094	-4.603000E+00	  0.043046094	-4.885700E+01	  0.043046094	5.713600E+01	  0.043046094	-7.749900E+01
117	  0.043246493	-4.598000E+00	  0.043246493	-4.912400E+01	  0.043246493	5.669600E+01	  0.043246493	-7.730400E+01
118	  0.043446895	-4.582000E+00	  0.043446895	-4.933400E+01	  0.043446895	5.627600E+01	  0.043446895	-7.727600E+01
119	  0.043647297	-4.581000E+00	  0.043647297	-4.954100E+01	  0.043647297	5.596000E+01	  0.043647297	-7.709100E+01
120	  0.043847695	-4.582000E+00	  0.043847695	-4.970000E+01	  0.043847695	5.572400E+01	  0.043847695	-7.693800E+01
121	  0.044048097	-4.586000E+00	  0.044048097	-4.985900E+01	  0.044048097	5.551000E+01	  0.044048097	-7.675200E+01
122	  0.044248499	-4.591000E+00	  0.044248499	-5.005900E+01	  0.044248499	5.524500E+01	  0.044248499	-7.651900E+01
123	  0.044448901	-4.598000E+00	  0.044448901	-5.024600E+01	  0.044448901	5.501300E+01	  0.044448901	-7.627700E+01
124	  0.044649299	-4.605000E+00	  0.044649299	-5.046300E+01	  0.044649299	5.474000E+01	  0.044649299	-7.600600E+01
125	  0.044849701	-4.612000E+00	  0.044849701	-5.068800E+01	  0.044849701	5.445500E+01	  0.044849701	-7.573500E+01
126	  0.045050103	-4.616000E+00	  0.045050103	-5.092400E+01	  0.045050103	5.414500E+01	  0.045050103	-7.547700E+01
127	  0.045250501	-4.621000E+00	  0.045250501	-5.116500E+01	  0.045250501	5.383100E+01	  0.045250501	-7.521200E+01
128	  0.045450903	-4.620000E+00	  0.045450903	-5.141800E+01	  0.045450903	5.346900E+01	  0.045450903	-7.498800E+01
129	  0.045651305	-4.620000E+00	  0.045651305	-5.167300E+01	  0.045651305	5.311600E+01	  0.045651305	-7.475300E+01
130	  0.045851704	-4.613000E+00	  0.045851704	-5.192700E+01	  0.045851704	5.272000E+01	  0.045851704	-7.458400E+01
131	  0.046052106	-4.613000E+00	  0.046052106	-5.214700E+01	  0.046052106	5.241800E+01	  0.046052106	-7.438400E+01
132	  0.046252504	-4.610000E+00	  0.046252504	-5.235600E+01	  0.046252504	5.211900E+01	  0.046252504	-7.421300E+01
133	  0.046452906	-4.614000E+00	  0.046452906	-5.257600E+01	  0.046452906	5.184700E+01	  0.046452906	-7.397600E+01
134	  0.046653304	-4.622000E+00	  0.046653304	-5.278500E+01	  0.046653304	5.161600E+01	  0.046653304	-7.371500E+01
135	  0.046853706	-4.628000E+00	  0.046853706	-5.303000E+01	  0.046853706	5.133200E+01	  0.046853706	-7.343200E+01
136	  0.047054108	-4.635000E+00	  0.047054108	-5.329600E+01	  0.047054108	5.102300E+01	  0.047054108	-7.313300E+01
137	  0.047254506	-4.637000E+00	  0.047254506	-5.354800E+01	  0.047254506	5.070800E+01	  0.047254506	-7.288500E+01
138	  0.047454908	-4.643000E+00	  0.047454908	-5.380000E+01	  0.047454908	5.042100E+01	  0.047454908	-7.260400E+01
139	  0.047655310	-4.647000E+00	  0.047655310	-5.404900E+01	  0.047655310	5.012600E+01	  0.047655310	-7.234600E+01
140	  0.047855709	-4.647000E+00	  0.047855709	-5.433200E+01	  0.047855709	4.977600E+01	  0.047855709	-7.208100E+01
141	  0.048056111	-4.646000E+00	  0.048056111	-5.461200E+01	  0.048056111	4.941900E+01	  0.048056111	-7.183600E+01
142	  0.048256513	-4.632000E+00	  0.048256513	-5.488900E+01	  0.048256513	4.899500E+01	  0.048256513	-7.169400E+01
143	  0.048456915	-4.638000E+00	  0.048456915	-5.519500E+01	  0.048456915	4.865400E+01	  0.048456915	-7.137400E+01
144	  0.048657313	-4.634000E+00	  0.048657313	-5.545700E+01	  0.048657313	4.831500E+01	  0.048657313	-7.116400E+01
145	  0.048857715	-4.628000E+00	  0.048857715	-5.569100E+01	  0.048857715	4.799800E+01	  0.048857715	-7.100000E+01
146	  0.049058117	-4.620000E+00	  0.049058117	-5.589200E+01	  0.049058117	4.771400E+01	  0.049058117	-7.087500E+01
147	  0.049258515	-4.620000E+00	  0.049258515	-5.608700E+01	  0.049258515	4.748400E+01	  0.049258515	-7.069700E+01
148	  0.049458917	-4.616000E+00	  0.049458917	-5.627900E+01	  0.049458917	4.723600E+01	  0.049458917	-7.055300E+01
149	  0.049659319	-4.622000E+00	  0.049659319	-5.647900E+01	  0.049659319	4.704000E+01	  0.049659319	-7.032300E+01
150	  0.049859721	-4.623000E+00	  0.049859721	-5.668100E+01	  0.049859721	4.681400E+01	  0.049859721	-7.013200E+01
151	  0.050060119	-4.626000E+00	  0.050060119	-5.689200E+01	  0.050060119	4.659300E+01	  0.050060119	-6.991500E+01
152	  0.050260521	-4.632000E+00	  0.050260521	-5.711400E+01	  0.050260521	4.637500E+01	  0.050260521	-6.966900E+01
153	  0.050460923	-4.633000E+00	  0.050460923	-5.734000E+01	  0.050460923	4.613000E+01	  0.050460923	-6.945500E+01
154	  0.050661322	-4.633000E+00	  0.050661322	-5.758800E+01	  0.050661322	4.585200E+01	  0.050661322	-6.923100E+01
155	  0.050861724	-4.628000E+00	  0.050861724	-5.781800E+01	  0.050861724	4.556600E+01	  0.050861724	-6.906100E+01
156	  0.051062126	-4.623000E+00	  0.051062126	-5.805400E+01	  0.051062126	4.528200E+01	  0.051062126	-6.887900E+01
157	  0.051262524	-4.618000E+00	  0.051262524	-5.824600E+01	  0.051262524	4.503900E+01	  0.051262524	-6.874600E+01
158	  0.051462926	-4.617000E+00	  0.051462926	-5.845000E+01	  0.051462926	4.481600E+01	  0.051462926	-6.856700E+01
159	  0.051663328	-4.620000E+00	  0.051663328	-5.862700E+01	  0.051663328	4.464400E+01	  0.051663328	-6.838600E+01
160	  0.051863730	-4.621000E+00	  0.051863730	-5.880900E+01	  0.051863730	4.445900E+01	  0.051863730	-6.821200E+01
161	  0.052064128	-4.627000E+00	  0.052064128	-5.902000E+01	  0.052064128	4.427100E+01	  0.052064128	-6.798100E+01
162	  0.052264530	-4.634000E+00	  0.052264530	-5.922200E+01	  0.052264530	4.410100E+01	  0.052264530	-6.775100E+01
163	  0.052464932	-4.639000E+00	  0.052464932	-5.944800E+01	  0.052464932	4.389300E+01	  0.052464932	-6.751700E+01
164	  0.052665330	-4.644000E+00	  0.052665330	-5.967800E+01	  0.052665330	4.368700E+01	  0.052665330	-6.727600E+01
165	  0.052865732	-4.648000E+00	  0.052865732	-5.989800E+01	  0.052865732	4.348800E+01	  0.052865732	-6.705000E+01
166	  0.053066134	-4.654000E+00	  0.053066134	-6.013500E+01	  0.053066134	4.327900E+01	  0.053066134	-6.680300E+01
167	  0.053266536	-4.658000E+00	  0.053266536	-6.040300E+01	  0.053266536	4.303600E+01	  0.053266536	-6.653800E+01
168	  0.053466935	-4.659000E+00	  0.053466935	-6.067400E+01	  0.053466935	4.277100E+01	  0.053466935	-6.629200E+01
169	  0.053667337	-4.659000E+00	  0.053667337	-6.095000E+01	  0.053667337	4.250000E+01	  0.053667337	-6.604800E+01
170	  0.053867739	-4.653000E+00	  0.053867739	-6.123400E+01	  0.053867739	4.218700E+01	  0.053867739	-6.583700E+01
171	  0.054068137	-4.654000E+00	  0.054068137	-6.147900E+01	  0.054068137	4.196000E+01	  0.054068137	-6.561000E+01
172	  0.054268539	-4.652000E+00	  0.054268539	-6.172600E+01	  0.054268539	4.170900E+01	  0.054268539	-6.540800E+01
173	  0.054468941	-4.650000E+00	  0.054468941	-6.194300E+01	  0.054468941	4.149100E+01	  0.054468941	-6.523100E+01
174	  0.054669339	-4.649000E+00	  0.054669339	-6.216500E+01	  0.054669339	4.127700E+01	  0.054669339	-6.504200E+01
175	  0.054869737	-4.648000E+00	  0.054869737	-6.237200E+01	  0.054869737	4.108200E+01	  0.054869737	-6.486200E+01
176	  0.055070139	-4.652000E+00	  0.055070139	-6.257200E+01	  0.055070139	4.091900E+01	  0.055070139	-6.466300E+01
177	  0.055270538	-4.658000E+00	  0.055270538	-6.282000E+01	  0.055270538	4.072100E+01	  0.055270538	-6.441500E+01
178	  0.055470940	-4.659000E+00	  0.055470940	-6.304200E+01	  0.055470940	4.052700E+01	  0.055470940	-6.421200E+01
179	  0.055671342	-4.662000E+00	  0.055671342	-6.328600E+01	  0.055671342	4.032300E+01	  0.055671342	-6.398300E+01
180	  0.055871744	-4.664000E+00	  0.055871744	-6.353500E+01	  0.055871744	4.011100E+01	  0.055871744	-6.375700E+01
181	  0.056072142	-4.666000E+00	  0.056072142	-6.380400E+01	  0.056072142	3.988200E+01	  0.056072142	-6.351500E+01
182	  0.056272544	-4.657000E+00	  0.056272544	-6.405500E+01	  0.056272544	3.961300E+01	  0.056272544	-6.334700E+01
183	  0.056472946	-4.656000E+00	  0.056472946	-6.428900E+01	  0.056472946	3.940300E+01	  0.056472946	-6.315100E+01
184	  0.056673344	-4.653000E+00	  0.056673344	-6.452000E+01	  0.056673344	3.918600E+01	  0.056673344	-6.296800E+01
185	  0.056873746	-4.652000E+00	  0.056873746	-6.471600E+01	  0.056873746	3.901300E+01	  0.056873746	-6.280600E+01
186	  0.057074148	-4.652000E+00	  0.057074148	-6.492500E+01	  0.057074148	3.883300E+01	  0.057074148	-6.262700E+01
187	  0.057274550	-4.655000E+00	  0.057274550	-6.513200E+01	  0.057274550	3.867600E+01	  0.057274550	-6.243300E+01
188	  0.057474948	-4.657000E+00	  0.057474948	-6.532700E+01	  0.057474948	3.852400E+01	  0.057474948	-6.225500E+01
189	  0.057675350	-4.662000E+00	  0.057675350	-6.553700E+01	  0.057675350	3.837500E+01	  0.057675350	-6.205000E+01
190	  0.057875752	-4.664000E+00	  0.057875752	-6.577800E+01	  0.057875752	3.818800E+01	  0.057875752	-6.183300E+01
191	  0.058076151	-4.670000E+00	  0.058076151	-6.598300E+01	  0.058076151	3.805300E+01	  0.058076151	-6.162700E+01
192	  0.058276553	-4.672000E+00	  0.058276553	-6.618900E+01	  0.058276553	3.789700E+01	  0.058276553	-6.144100E+01
193	  0.058476955	-4.674000E+00	  0.058476955	-6.646600E+01	  0.058476955	3.768000E+01	  0.058476955	-6.120000E+01
194	  0.058677353	-4.677000E+00	  0.058677353	-6.674400E+01	  0.058677353	3.747900E+01	  0.058677353	-6.094600E+01
195	  0.058877755	-4.677000E+00	  0.058877755	-6.698200E+01	  0.058877755	3.728700E+01	  0.058877755	-6.074800E+01
196	  0.059078157	-4.679000E+00	  0.059078157	-6.727200E+01	  0.059078157	3.706900E+01	  0.059078157	-6.049700E+01
197	  0.059278559	-4.677000E+00	  0.059278559	-6.753400E+01	  0.059278559	3.685300E+01	  0.059278559	-6.029000E+01
198	  0.059478957	-4.679000E+00	  0.059478957	-6.775700E+01	  0.059478957	3.669500E+01	  0.059478957	-6.009100E+01
199	  0.059679359	-4.673000E+00	  0.059679359	-6.800100E+01	  0.059679359	3.647400E+01	  0.059679359	-5.991900E+01
200	  0.059879761	-4.671000E+00	  0.059879761	-6.823500E+01	  0.059879761	3.628700E+01	  0.059879761	-5.973200E+01
201	  0.060080159	-4.670000E+00	  0.060080159	-6.845200E+01	  0.060080159	3.611600E+01	  0.060080159	-5.956000E+01
202	  0.060280561	-4.670000E+00	  0.060280561	-6.865300E+01	  0.060280561	3.596400E+01	  0.060280561	-5.939600E+01
203	  0.060480963	-4.673000E+00	  0.060480963	-6.887100E+01	  0.060480963	3.582200E+01	  0.060480963	-5.919800E+01
204	  0.060681365	-4.677000E+00	  0.060681365	-6.908700E+01	  0.060681365	3.568000E+01	  0.060681365	-5.900500E+01
205	  0.060881764	-4.677000E+00	  0.060881764	-6.932400E+01	  0.060881764	3.550800E+01	  0.060881764	-5.880800E+01
206	  0.061082166	-4.681000E+00	  0.061082166	-6.955400E+01	  0.061082166	3.536200E+01	  0.061082166	-5.860200E+01
207	  0.061282568	-4.682000E+00	  0.061282568	-6.982900E+01	  0.061282568	3.516900E+01	  0.061282568	-5.837300E+01
208	  0.061482966	-4.677000E+00	  0.061482966	-7.006600E+01	  0.061482966	3.497600E+01	  0.061482966	-5.820100E+01
209	  0.061683368	-4.679000E+00	  0.061683368	-7.030400E+01	  0.061683368	3.481600E+01	  0.061683368	-5.800000E+01
210	  0.061883770	-4.676000E+00	  0.061883770	-7.054000E+01	  0.061883770	3.463700E+01	  0.061883770	-5.781900E+01
211	  0.062084168	-4.674000E+00	  0.062084168	-7.074000E+01	  0.062084168	3.448700E+01	  0.062084168	-5.766600E+01
212	  0.062284570	-4.672000E+00	  0.062284570	-7.095800E+01	  0.062284570	3.432500E+01	  0.062284570	-5.750100E+01
213	  0.062484972	-4.666000E+00	  0.062484972	-7.112200E+01	  0.062484972	3.417900E+01	  0.062484972	-5.739600E+01
214	  0.062685370	-4.666000E+00	  0.062685370	-7.131600E+01	  0.062685370	3.404800E+01	  0.062685370	-5.723800E+01
215	  0.062885776	-4.667000E+00	  0.062885776	-7.149800E+01	  0.062885776	3.392600E+01	  0.062885776	-5.709100E+01
216	  0.063086174	-4.671000E+00	  0.063086174	-7.173700E+01	  0.063086174	3.378900E+01	  0.063086174	-5.687900E+01
217	  0.063286573	-4.673000E+00	  0.063286573	-7.193300E+01	  0.063286573	3.366800E+01	  0.063286573	-5.671300E+01
218	  0.063486971	-4.676000E+00	  0.063486971	-7.215900E+01	  0.063486971	3.353600E+01	  0.063486971	-5.651800E+01
219	  0.063687377	-4.679000E+00	  0.063687377	-7.238700E+01	  0.063687377	3.340000E+01	  0.063687377	-5.632400E+01
220	  0.063887775	-4.678000E+00	  0.063887775	-7.263000E+01	  0.063887775	3.323300E+01	  0.063887775	-5.613700E+01
221	  0.064088173	-4.685000E+00	  0.064088173	-7.285900E+01	  0.064088173	3.312100E+01	  0.064088173	-5.592700E+01
222	  0.064288579	-4.693000E+00	  0.064288579	-7.312600E+01	  0.064288579	3.299100E+01	  0.064288579	-5.568200E+01
223	  0.064488977	-4.690000E+00	  0.064488977	-7.337200E+01	  0.064488977	3.282300E+01	  0.064488977	-5.549700E+01
224	  0.064689375	-4.684000E+00	  0.064689375	-7.359700E+01	  0.064689375	3.264800E+01	  0.064689375	-5.534700E+01
225	  0.064889781	-4.685000E+00	  0.064889781	-7.387500E+01	  0.064889781	3.247600E+01	  0.064889781	-5.512600E+01
226	  0.065090179	-4.688000E+00	  0.065090179	-7.410500E+01	  0.065090179	3.234900E+01	  0.065090179	-5.493400E+01
227	  0.065290578	-4.685000E+00	  0.065290578	-7.433800E+01	  0.065290578	3.219200E+01	  0.065290578	-5.476300E+01
228	  0.065490983	-4.656000E+00	  0.065490983	-7.455200E+01	  0.065490983	3.191100E+01	  0.065490983	-5.471400E+01
229	  0.065691382	-4.669000E+00	  0.065691382	-7.478100E+01	  0.065691382	3.183900E+01	  0.065691382	-5.448300E+01
230	  0.065891780	-4.673000E+00	  0.065891780	-7.499400E+01	  0.065891780	3.172800E+01	  0.065891780	-5.430400E+01
231	  0.066092186	-4.684000E+00	  0.066092186	-7.525400E+01	  0.066092186	3.163000E+01	  0.066092186	-5.405800E+01
232	  0.066292584	-4.688000E+00	  0.066292584	-7.548500E+01	  0.066292584	3.151300E+01	  0.066292584	-5.386400E+01
233	  0.066492982	-4.696000E+00	  0.066492982	-7.574300E+01	  0.066492982	3.140200E+01	  0.066492982	-5.363500E+01
234	  0.066693388	-4.683000E+00	  0.066693388	-7.598900E+01	  0.066693388	3.119400E+01	  0.066693388	-5.349500E+01
235	  0.066893786	-4.689000E+00	  0.066893786	-7.623400E+01	  0.066893786	3.108000E+01	  0.066893786	-5.328600E+01
236	  0.067094192	-4.679000E+00	  0.067094192	-7.650400E+01	  0.067094192	3.087600E+01	  0.067094192	-5.311700E+01
237	  0.067294590	-4.694000E+00	  0.067294590	-7.672400E+01	  0.067294590	3.082300E+01	  0.067294590	-5.289500E+01
238	  0.067494988	-4.696000E+00	  0.067494988	-7.699900E+01	  0.067494988	3.067600E+01	  0.067494988	-5.268000E+01
239	  0.067695394	-4.689000E+00	  0.067695394	-7.719800E+01	  0.067695394	3.053100E+01	  0.067695394	-5.255400E+01
240	  0.067895792	-4.685000E+00	  0.067895792	-7.744100E+01	  0.067895792	3.037400E+01	  0.067895792	-5.238600E+01
241	  0.068096191	-4.675000E+00	  0.068096191	-7.769100E+01	  0.068096191	3.018900E+01	  0.068096191	-5.223200E+01
242	  0.068296596	-4.681000E+00	  0.068296596	-7.788100E+01	  0.068296596	3.011500E+01	  0.068296596	-5.206800E+01
243	  0.068496995	-4.686000E+00	  0.068496995	-7.807500E+01	  0.068496995	3.003200E+01	  0.068496995	-5.190500E+01
244	  0.068697393	-4.683000E+00	  0.068697393	-7.833000E+01	  0.068697393	2.988000E+01	  0.068697393	-5.172400E+01
245	  0.068897791	-4.684000E+00	  0.068897791	-7.857600E+01	  0.068897791	2.975400E+01	  0.068897791	-5.153600E+01
246	  0.069098189	-4.690000E+00	  0.069098189	-7.879200E+01	  0.069098189	2.966500E+01	  0.069098189	-5.135700E+01
247	  0.069298595	-4.698000E+00	  0.069298595	-7.902800E+01	  0.069298595	2.958200E+01	  0.069298595	-5.115100E+01
248	  0.069498993	-4.701000E+00	  0.069498993	-7.924100E+01	  0.069498993	2.948200E+01	  0.069498993	-5.098600E+01
249	  0.069699399	-4.704000E+00	  0.069699399	-7.951300E+01	  0.069699399	2.935800E+01	  0.069699399	-5.077300E+01
250	  0.069899797	-4.702000E+00	  0.069899797	-7.974200E+01	  0.069899797	2.922800E+01	  0.069899797	-5.061200E+01
251	  0.070100196	-4.704000E+00	  0.070100196	-8.001400E+01	  0.070100196	2.909900E+01	  0.070100196	-5.040500E+01
252	  0.070300601	-4.707000E+00	  0.070300601	-8.026400E+01	  0.070300601	2.898300E+01	  0.070300601	-5.021500E+01
253	  0.070501000	-4.703000E+00	  0.070501000	-8.046900E+01	  0.070501000	2.886200E+01	  0.070501000	-5.007700E+01
254	  0.070701398	-4.703000E+00	  0.070701398	-8.069900E+01	  0.070701398	2.874700E+01	  0.070701398	-4.990800E+01
255	  0.070901804	-4.704000E+00	  0.070901804	-8.092800E+01	  0.070901804	2.863500E+01	  0.070901804	-4.974100E+01
256	  0.071102202	-4.705000E+00	  0.071102202	-8.113500E+01	  0.071102202	2.853800E+01	  0.071102202	-4.958700E+01
257	  0.071302600	-4.702000E+00	  0.071302600	-8.135800E+01	  0.071302600	2.841200E+01	  0.071302600	-4.943600E+01
258	  0.071503006	-4.708000E+00	  0.071503006	-8.158700E+01	  0.071503006	2.833000E+01	  0.071503006	-4.925200E+01
259	  0.071703404	-4.706000E+00	  0.071703404	-8.184500E+01	  0.071703404	2.819500E+01	  0.071703404	-4.907300E+01
260	  0.071903802	-4.711000E+00	  0.071903802	-8.208400E+01	  0.071903802	2.810200E+01	  0.071903802	-4.888700E+01
261	  0.072104208	-4.697000E+00	  0.072104208	-8.232200E+01	  0.072104208	2.792400E+01	  0.072104208	-4.876000E+01
262	  0.072304606	-4.708000E+00	  0.072304606	-8.256500E+01	  0.072304606	2.786300E+01	  0.072304606	-4.855000E+01
263	  0.072505005	-4.680000E+00	  0.072505005	-8.279500E+01	  0.072505005	2.761900E+01	  0.072505005	-4.847600E+01
264	  0.072705410	-4.713000E+00	  0.072705410	-8.305700E+01	  0.072705410	2.765600E+01	  0.072705410	-4.818500E+01
265	  0.072905809	-4.713000E+00	  0.072905809	-8.327700E+01	  0.072905809	2.755200E+01	  0.072905809	-4.803100E+01
266	  0.073106214	-4.712000E+00	  0.073106214	-8.351500E+01	  0.073106214	2.743800E+01	  0.073106214	-4.786600E+01
267	  0.073306613	-4.711000E+00	  0.073306613	-8.373800E+01	  0.073306613	2.732900E+01	  0.073306613	-4.771400E+01
268	  0.073507011	-4.716000E+00	  0.073507011	-8.394800E+01	  0.073507011	2.726000E+01	  0.073507011	-4.754900E+01
269	  0.073707417	-4.693000E+00	  0.073707417	-8.416400E+01	  0.073707417	2.705500E+01	  0.073707417	-4.746700E+01
270	  0.073907815	-4.715000E+00	  0.073907815	-8.436600E+01	  0.073907815	2.706900E+01	  0.073907815	-4.725900E+01
271	  0.074108213	-4.709000E+00	  0.074108213	-8.457900E+01	  0.074108213	2.694500E+01	  0.074108213	-4.712900E+01
272	  0.074308619	-4.720000E+00	  0.074308619	-8.478100E+01	  0.074308619	2.690400E+01	  0.074308619	-4.695800E+01
273	  0.074509017	-4.702000E+00	  0.074509017	-8.504500E+01	  0.074509017	2.670800E+01	  0.074509017	-4.682500E+01
274	  0.074709415	-4.723000E+00	  0.074709415	-8.525000E+01	  0.074709415	2.671500E+01	  0.074709415	-4.662200E+01
275	  0.074909821	-4.718000E+00	  0.074909821	-8.546800E+01	  0.074909821	2.659900E+01	  0.074909821	-4.648500E+01
276	  0.075110219	-4.734000E+00	  0.075110219	-8.572400E+01	  0.075110219	2.655700E+01	  0.075110219	-4.626600E+01
277	  0.075310618	-4.720000E+00	  0.075310618	-8.599300E+01	  0.075310618	2.638100E+01	  0.075310618	-4.611900E+01
278	  0.075511023	-4.736000E+00	  0.075511023	-8.620600E+01	  0.075511023	2.636300E+01	  0.075511023	-4.592900E+01
279	  0.075711422	-4.734000E+00	  0.075711422	-8.644200E+01	  0.075711422	2.625300E+01	  0.075711422	-4.577400E+01
280	  0.075911827	-4.731000E+00	  0.075911827	-8.668300E+01	  0.075911827	2.614000E+01	  0.075911827	-4.561800E+01
281	  0.076112226	-4.729000E+00	  0.076112226	-8.694900E+01	  0.076112226	2.602300E+01	  0.076112226	-4.544100E+01
282	  0.076312624	-4.731000E+00	  0.076312624	-8.712100E+01	  0.076312624	2.595900E+01	  0.076312624	-4.532000E+01
283	  0.076513030	-4.735000E+00	  0.076513030	-8.735700E+01	  0.076513030	2.588200E+01	  0.076513030	-4.514900E+01
284	  0.076713428	-4.734000E+00	  0.076713428	-8.758000E+01	  0.076713428	2.578500E+01	  0.076713428	-4.500200E+01
285	  0.076913826	-4.736000E+00	  0.076913826	-8.780800E+01	  0.076913826	2.570400E+01	  0.076913826	-4.484300E+01
286	  0.077114232	-4.737000E+00	  0.077114232	-8.804200E+01	  0.077114232	2.561400E+01	  0.077114232	-4.468300E+01
287	  0.077314630	-4.741000E+00	  0.077314630	-8.830900E+01	  0.077314630	2.552300E+01	  0.077314630	-4.449500E+01
288	  0.077515028	-4.749000E+00	  0.077515028	-8.854600E+01	  0.077515028	2.546400E+01	  0.077515028	-4.431700E+01
289	  0.077715434	-4.752000E+00	  0.077715434	-8.880700E+01	  0.077715434	2.537700E+01	  0.077715434	-4.413400E+01
290	  0.077915832	-4.757000E+00	  0.077915832	-8.907800E+01	  0.077915832	2.529200E+01	  0.077915832	-4.394300E+01
291	  0.078116231	-4.756000E+00	  0.078116231	-8.929600E+01	  0.078116231	2.520400E+01	  0.078116231	-4.380000E+01
292	  0.078316636	-4.754000E+00	  0.078316636	-8.956700E+01	  0.078316636	2.509100E+01	  0.078316636	-4.362600E+01
293	  0.078517035	-4.750000E+00	  0.078517035	-8.983300E+01	  0.078517035	2.497300E+01	  0.078517035	-4.346100E+01
294	  0.078717433	-4.753000E+00	  0.078717433	-9.005200E+01	  0.078717433	2.490300E+01	  0.078717433	-4.331000E+01
295	  0.078917839	-4.754000E+00	  0.078917839	-9.028100E+01	  0.078917839	2.482300E+01	  0.078917839	-4.315700E+01
296	  0.079118237	-4.746000E+00	  0.079118237	-9.052000E+01	  0.079118237	2.469800E+01	  0.079118237	-4.302200E+01
297	  0.079318643	-4.748000E+00	  0.079318643	-9.072300E+01	  0.079318643	2.463100E+01	  0.079318643	-4.288500E+01
298	  0.079519041	-4.749000E+00	  0.079519041	-9.092900E+01	  0.079519041	2.455900E+01	  0.079519041	-4.274800E+01
299	  0.079719439	-4.752000E+00	  0.079719439	-9.116500E+01	  0.079719439	2.448800E+01	  0.079719439	-4.258600E+01
300	  0.079919845	-4.754000E+00	  0.079919845	-9.138900E+01	  0.079919845	2.441200E+01	  0.079919845	-4.243800E+01
301	  0.080120243	-4.750000E+00	  0.080120243	-9.158500E+01	  0.080120243	2.432700E+01	  0.080120243	-4.232000E+01
302	  0.080320641	-4.756000E+00	  0.080320641	-9.185800E+01	  0.080320641	2.425300E+01	  0.080320641	-4.213000E+01
303	  0.080521047	-4.758000E+00	  0.080521047	-9.210600E+01	  0.080521047	2.417500E+01	  0.080521047	-4.196600E+01
304	  0.080721445	-4.760000E+00	  0.080721445	-9.237300E+01	  0.080721445	2.408800E+01	  0.080721445	-4.179100E+01
305	  0.080921844	-4.764000E+00	  0.080921844	-9.257000E+01	  0.080921844	2.403500E+01	  0.080921844	-4.165600E+01
306	  0.081122249	-4.764000E+00	  0.081122249	-9.284200E+01	  0.081122249	2.394200E+01	  0.081122249	-4.148200E+01
307	  0.081322648	-4.764000E+00	  0.081322648	-9.310400E+01	  0.081322648	2.385200E+01	  0.081322648	-4.131500E+01
308	  0.081523046	-4.759000E+00	  0.081523046	-9.331600E+01	  0.081523046	2.375600E+01	  0.081523046	-4.119300E+01
309	  0.081723452	-4.759000E+00	  0.081723452	-9.354000E+01	  0.081723452	2.368000E+01	  0.081723452	-4.105100E+01
310	  0.081923850	-4.759000E+00	  0.081923850	-9.373700E+01	  0.081923850	2.361300E+01	  0.081923850	-4.092700E+01
311	  0.082124248	-4.759000E+00	  0.082124248	-9.395700E+01	  0.082124248	2.354000E+01	  0.082124248	-4.078700E+01
312	  0.082324654	-4.759000E+00	  0.082324654	-9.417500E+01	  0.082324654	2.346800E+01	  0.082324654	-4.065000E+01
313	  0.082525052	-4.761000E+00	  0.082525052	-9.442900E+01	  0.082525052	2.339200E+01	  0.082525052	-4.048600E+01
314	  0.082725458	-4.764000E+00	  0.082725458	-9.465900E+01	  0.082725458	2.333000E+01	  0.082725458	-4.033500E+01
315	  0.082925856	-4.770000E+00	  0.082925856	-9.490200E+01	  0.082925856	2.327600E+01	  0.082925856	-4.017000E+01
316	  0.083126254	-4.771000E+00	  0.083126254	-9.516500E+01	  0.083126254	2.319400E+01	  0.083126254	-4.000400E+01
317	  0.083326660	-4.778000E+00	  0.083326660	-9.539000E+01	  0.083326660	2.314900E+01	  0.083326660	-3.985000E+01
318	  0.083527058	-4.773000E+00	  0.083527058	-9.564900E+01	  0.083527058	2.304500E+01	  0.083527058	-3.970000E+01
319	  0.083727457	-4.772000E+00	  0.083727457	-9.589000E+01	  0.083727457	2.296300E+01	  0.083727457	-3.955400E+01
320	  0.083927862	-4.775000E+00	  0.083927862	-9.611300E+01	  0.083927862	2.290400E+01	  0.083927862	-3.941100E+01
321	  0.084128261	-4.773000E+00	  0.084128261	-9.637500E+01	  0.084128261	2.281600E+01	  0.084128261	-3.925300E+01
322	  0.084328659	-4.765000E+00	  0.084328659	-9.659300E+01	  0.084328659	2.271600E+01	  0.084328659	-3.913500E+01
323	  0.084529065	-4.763000E+00	  0.084529065	-9.679500E+01	  0.084529065	2.264600E+01	  0.084529065	-3.901500E+01
324	  0.084729463	-4.768000E+00	  0.084729463	-9.702300E+01	  0.084729463	2.259400E+01	  0.084729463	-3.886700E+01
325	  0.084929861	-4.768000E+00	  0.084929861	-9.724700E+01	  0.084929861	2.252500E+01	  0.084929861	-3.873000E+01
326	  0.085130267	-4.767000E+00	  0.085130267	-9.747000E+01	  0.085130267	2.245600E+01	  0.085130267	-3.859500E+01
327	  0.085330658	-4.772000E+00	  0.085330658	-9.767100E+01	  0.085330658	2.241500E+01	  0.085330658	-3.846400E+01
328	  0.085531056	-4.773000E+00	  0.085531056	-9.792100E+01	  0.085531056	2.234200E+01	  0.085531056	-3.831000E+01
329	  0.085731462	-4.780000E+00	  0.085731462	-9.813800E+01	  0.085731462	2.230500E+01	  0.085731462	-3.816600E+01
330	  0.085931860	-4.782000E+00	  0.085931860	-9.833400E+01	  0.085931860	2.225800E+01	  0.085931860	-3.804200E+01
331	  0.086132258	-4.784000E+00	  0.086132258	-9.860600E+01	  0.086132258	2.218500E+01	  0.086132258	-3.787500E+01
332	  0.086332664	-4.784000E+00	  0.086332664	-9.886700E+01	  0.086332664	2.210900E+01	  0.086332664	-3.771800E+01
333	  0.086533062	-4.786000E+00	  0.086533062	-9.910200E+01	  0.086533062	2.204800E+01	  0.086533062	-3.757400E+01
334	  0.086733460	-4.783000E+00	  0.086733460	-9.935900E+01	  0.086733460	2.196100E+01	  0.086733460	-3.742600E+01
335	  0.086933866	-4.779000E+00	  0.086933866	-9.957700E+01	  0.086933866	2.188400E+01	  0.086933866	-3.730400E+01
336	  0.087134264	-4.785000E+00	  0.087134264	-9.977500E+01	  0.087134264	2.185000E+01	  0.087134264	-3.717500E+01
337	  0.087334670	-4.785000E+00	  0.087334670	-1.000360E+02	  0.087334670	2.177600E+01	  0.087334670	-3.702100E+01
338	  0.087535068	-4.784000E+00	  0.087535068	-1.002270E+02	  0.087535068	2.172100E+01	  0.087535068	-3.690900E+01
339	  0.087735467	-4.789000E+00	  0.087735467	-1.004810E+02	  0.087735467	2.167000E+01	  0.087735467	-3.674900E+01
340	  0.087935872	-4.793000E+00	  0.087935872	-1.006870E+02	  0.087935872	2.162600E+01	  0.087935872	-3.662100E+01
341	  0.088136271	-4.797000E+00	  0.088136271	-1.009540E+02	  0.088136271	2.156900E+01	  0.088136271	-3.645600E+01
342	  0.088336669	-4.804000E+00	  0.088336669	-1.011690E+02	  0.088336669	2.153600E+01	  0.088336669	-3.631800E+01
343	  0.088537075	-4.804000E+00	  0.088537075	-1.014010E+02	  0.088537075	2.147500E+01	  0.088537075	-3.618200E+01
344	  0.088737473	-4.811000E+00	  0.088737473	-1.016690E+02	  0.088737473	2.142800E+01	  0.088737473	-3.601300E+01
345	  0.088937871	-4.808000E+00	  0.088937871	-1.019270E+02	  0.088937871	2.134700E+01	  0.088937871	-3.586900E+01
346	  0.089138277	-4.810000E+00	  0.089138277	-1.021810E+02	  0.089138277	2.128700E+01	  0.089138277	-3.571700E+01
347	  0.089338675	-4.810000E+00	  0.089338675	-1.024380E+02	  0.089338675	2.122100E+01	  0.089338675	-3.556800E+01
348	  0.089539073	-4.806000E+00	  0.089539073	-1.026860E+02	  0.089539073	2.114000E+01	  0.089539073	-3.543200E+01
349	  0.089739479	-4.806000E+00	  0.089739479	-1.029020E+02	  0.089739479	2.108200E+01	  0.089739479	-3.530800E+01
350	  0.089939877	-4.803000E+00	  0.089939877	-1.031370E+02	  0.089939877	2.101100E+01	  0.089939877	-3.517700E+01
351	  0.090140276	-4.804000E+00	  0.090140276	-1.033930E+02	  0.090140276	2.094800E+01	  0.090140276	-3.502900E+01
352	  0.090340681	-4.808000E+00	  0.090340681	-1.036090E+02	  0.090340681	2.090700E+01	  0.090340681	-3.489900E+01
353	  0.090541080	-4.809000E+00	  0.090541080	-1.038350E+02	  0.090541080	2.085400E+01	  0.090541080	-3.476800E+01
354	  0.090741485	-4.811000E+00	  0.090741485	-1.040860E+02	  0.090741485	2.080000E+01	  0.090741485	-3.462000E+01
355	  0.090941884	-4.815000E+00	  0.090941884	-1.043240E+02	  0.090941884	2.075500E+01	  0.090941884	-3.447800E+01
356	  0.091142282	-4.821000E+00	  0.091142282	-1.045750E+02	  0.091142282	2.071300E+01	  0.091142282	-3.432700E+01
357	  0.091342688	-4.819000E+00	  0.091342688	-1.048330E+02	  0.091342688	2.064400E+01	  0.091342688	-3.418300E+01
358	  0.091543086	-4.820000E+00	  0.091543086	-1.050690E+02	  0.091543086	2.058800E+01	  0.091543086	-3.404900E+01
359	  0.091743484	-4.821000E+00	  0.091743484	-1.053010E+02	  0.091743484	2.053700E+01	  0.091743484	-3.391600E+01
360	  0.091943890	-4.817000E+00	  0.091943890	-1.055670E+02	  0.091943890	2.045800E+01	  0.091943890	-3.377200E+01
361	  0.092144288	-4.818000E+00	  0.092144288	-1.058190E+02	  0.092144288	2.040100E+01	  0.092144288	-3.362800E+01
362	  0.092344686	-4.816000E+00	  0.092344686	-1.060640E+02	  0.092344686	2.033400E+01	  0.092344686	-3.349500E+01
363	  0.092545092	-4.816000E+00	  0.092545092	-1.062880E+02	  0.092545092	2.028000E+01	  0.092545092	-3.337000E+01
364	  0.092745490	-4.813000E+00	  0.092745490	-1.065530E+02	  0.092745490	2.020800E+01	  0.092745490	-3.322700E+01
365	  0.092945889	-4.812000E+00	  0.092945889	-1.067650E+02	  0.092945889	2.015400E+01	  0.092945889	-3.311000E+01
366	  0.093146294	-4.811000E+00	  0.093146294	-1.069690E+02	  0.093146294	2.010500E+01	  0.093146294	-3.299700E+01
367	  0.093346693	-4.813000E+00	  0.093346693	-1.072180E+02	  0.093346693	2.005200E+01	  0.093346693	-3.285700E+01
368	  0.093547091	-4.811000E+00	  0.093547091	-1.073980E+02	  0.093547091	2.000600E+01	  0.093547091	-3.275900E+01
369	  0.093747497	-4.818000E+00	  0.093747497	-1.076330E+02	  0.093747497	1.997800E+01	  0.093747497	-3.261900E+01
370	  0.093947895	-4.821000E+00	  0.093947895	-1.078600E+02	  0.093947895	1.993600E+01	  0.093947895	-3.248900E+01
371	  0.094148301	-4.819000E+00	  0.094148301	-1.080610E+02	  0.094148301	1.988300E+01	  0.094148301	-3.238200E+01
372	  0.094348699	-4.821000E+00	  0.094348699	-1.083010E+02	  0.094348699	1.983500E+01	  0.094348699	-3.224800E+01
373	  0.094549097	-4.820000E+00	  0.094549097	-1.085300E+02	  0.094549097	1.978100E+01	  0.094549097	-3.212400E+01
374	  0.094749503	-4.821000E+00	  0.094749503	-1.087430E+02	  0.094749503	1.974000E+01	  0.094749503	-3.200400E+01
375	  0.094949901	-4.819000E+00	  0.094949901	-1.089570E+02	  0.094949901	1.968300E+01	  0.094949901	-3.189100E+01
376	  0.095150299	-4.822000E+00	  0.095150299	-1.091740E+02	  0.095150299	1.964900E+01	  0.095150299	-3.176700E+01
377	  0.095350705	-4.825000E+00	  0.095350705	-1.093920E+02	  0.095350705	1.961000E+01	  0.095350705	-3.164600E+01
378	  0.095551103	-4.824000E+00	  0.095551103	-1.095880E+02	  0.095551103	1.956600E+01	  0.095551103	-3.153900E+01
379	  0.095751502	-4.829000E+00	  0.095751502	-1.098060E+02	  0.095751502	1.953600E+01	  0.095751502	-3.141500E+01
380	  0.095951907	-4.833000E+00	  0.095951907	-1.100290E+02	  0.095951907	1.950400E+01	  0.095951907	-3.128800E+01
381	  0.096152306	-4.836000E+00	  0.096152306	-1.102810E+02	  0.096152306	1.946100E+01	  0.096152306	-3.114700E+01
382	  0.096352704	-4.846000E+00	  0.096352704	-1.105220E+02	  0.096352704	1.944500E+01	  0.096352704	-3.100400E+01
383	  0.096553110	-4.848000E+00	  0.096553110	-1.107630E+02	  0.096553110	1.940200E+01	  0.096553110	-3.087100E+01
384	  0.096753508	-4.854000E+00	  0.096753508	-1.110290E+02	  0.096753508	1.936800E+01	  0.096753508	-3.072000E+01
385	  0.096953906	-4.853000E+00	  0.096953906	-1.112930E+02	  0.096953906	1.930900E+01	  0.096953906	-3.058100E+01
386	  0.097154312	-4.858000E+00	  0.097154312	-1.115630E+02	  0.097154312	1.927100E+01	  0.097154312	-3.043000E+01
387	  0.097354710	-4.860000E+00	  0.097354710	-1.118280E+02	  0.097354710	1.922500E+01	  0.097354710	-3.028600E+01
388	  0.097555116	-4.862000E+00	  0.097555116	-1.120840E+02	  0.097555116	1.917900E+01	  0.097555116	-3.014800E+01
389	  0.097755514	-4.864000E+00	  0.097755514	-1.123870E+02	  0.097755514	1.912600E+01	  0.097755514	-2.998400E+01
390	  0.097955912	-4.862000E+00	  0.097955912	-1.126330E+02	  0.097955912	1.907100E+01	  0.097955912	-2.985600E+01
391	  0.098156318	-4.862000E+00	  0.098156318	-1.128900E+02	  0.098156318	1.901800E+01	  0.098156318	-2.972100E+01
392	  0.098356716	-4.860000E+00	  0.098356716	-1.131490E+02	  0.098356716	1.895900E+01	  0.098356716	-2.958800E+01
393	  0.098557115	-4.860000E+00	  0.098557115	-1.134180E+02	  0.098557115	1.890900E+01	  0.098557115	-2.944600E+01
394	  0.098757520	-4.862000E+00	  0.098757520	-1.136320E+02	  0.098757520	1.887200E+01	  0.098757520	-2.933100E+01
395	  0.098957919	-4.865000E+00	  0.098957919	-1.139270E+02	  0.098957919	1.882600E+01	  0.098957919	-2.917300E+01
396	  0.099158317	-4.862000E+00	  0.099158317	-1.141570E+02	  0.099158317	1.877200E+01	  0.099158317	-2.905700E+01
397	  0.099358723	-4.859000E+00	  0.099358723	-1.144030E+02	  0.099358723	1.871600E+01	  0.099358723	-2.893100E+01
398	  0.099559121	-4.856000E+00	  0.099559121	-1.146200E+02	  0.099559121	1.866500E+01	  0.099559121	-2.882200E+01
399	  0.099759519	-4.855000E+00	  0.099759519	-1.148820E+02	  0.099759519	1.861400E+01	  0.099759519	-2.868700E+01
400	  0.099959925	-4.849000E+00	  0.099959925	-1.150680E+02	  0.099959925	1.855700E+01	  0.099959925	-2.859800E+01
401	  0.100160323	-4.850000E+00	  0.100160323	-1.153750E+02	  0.100160323	1.850500E+01	  0.100160323	-2.843800E+01
402	  0.100360721	-4.846000E+00	  0.100360721	-1.155840E+02	  0.100360721	1.845200E+01	  0.100360721	-2.833500E+01
403	  0.100561127	-4.842000E+00	  0.100561127	-1.157560E+02	  0.100561127	1.840700E+01	  0.100561127	-2.825000E+01
404	  0.100761525	-4.849000E+00	  0.100761525	-1.159770E+02	  0.100761525	1.839200E+01	  0.100761525	-2.812700E+01
405	  0.100961931	-4.843000E+00	  0.100961931	-1.162070E+02	  0.100961931	1.832800E+01	  0.100961931	-2.801700E+01
406	  0.101162329	-4.846000E+00	  0.101162329	-1.163930E+02	  0.101162329	1.830500E+01	  0.101162329	-2.791800E+01
407	  0.101362728	-4.853000E+00	  0.101362728	-1.165590E+02	  0.101362728	1.830100E+01	  0.101362728	-2.782400E+01
408	  0.101563133	-4.857000E+00	  0.101563133	-1.168220E+02	  0.101563133	1.826600E+01	  0.101563133	-2.768500E+01
409	  0.101763532	-4.859000E+00	  0.101763532	-1.170130E+02	  0.101763532	1.824100E+01	  0.101763532	-2.758400E+01
410	  0.101963930	-4.856000E+00	  0.101963930	-1.173250E+02	  0.101963930	1.817700E+01	  0.101963930	-2.742800E+01
411	  0.102164336	-4.868000E+00	  0.102164336	-1.174850E+02	  0.102164336	1.818800E+01	  0.102164336	-2.733300E+01
412	  0.102364734	-4.872000E+00	  0.102364734	-1.177630E+02	  0.102364734	1.815500E+01	  0.102364734	-2.718700E+01
413	  0.102565132	-4.867000E+00	  0.102565132	-1.179810E+02	  0.102565132	1.809900E+01	  0.102565132	-2.708200E+01
414	  0.102765530	-4.874000E+00	  0.102765530	-1.182430E+02	  0.102765530	1.807900E+01	  0.102765530	-2.694200E+01
415	  0.102965929	-4.867000E+00	  0.102965929	-1.185060E+02	  0.102965929	1.801100E+01	  0.102965929	-2.681600E+01
416	  0.103166327	-4.872000E+00	  0.103166327	-1.187410E+02	  0.103166327	1.798600E+01	  0.103166327	-2.669300E+01
417	  0.103366733	-4.872000E+00	  0.103366733	-1.190270E+02	  0.103366733	1.794000E+01	  0.103366733	-2.654800E+01
418	  0.103567131	-4.874000E+00	  0.103567131	-1.192770E+02	  0.103567131	1.790400E+01	  0.103567131	-2.642100E+01
419	  0.103767529	-4.870000E+00	  0.103767529	-1.195580E+02	  0.103767529	1.784600E+01	  0.103767529	-2.628400E+01
420	  0.103967935	-4.870000E+00	  0.103967935	-1.197700E+02	  0.103967935	1.781000E+01	  0.103967935	-2.617800E+01
421	  0.104168333	-4.873000E+00	  0.104168333	-1.200290E+02	  0.104168333	1.777700E+01	  0.104168333	-2.604500E+01
422	  0.104368731	-4.873000E+00	  0.104368731	-1.202590E+02	  0.104368731	1.774100E+01	  0.104368731	-2.593000E+01
423	  0.104569137	-4.873000E+00	  0.104569137	-1.204750E+02	  0.104569137	1.770900E+01	  0.104569137	-2.582200E+01
424	  0.104769535	-4.873000E+00	  0.104769535	-1.207330E+02	  0.104769535	1.766700E+01	  0.104769535	-2.569400E+01
425	  0.104969934	-4.872000E+00	  0.104969934	-1.209420E+02	  0.104969934	1.763100E+01	  0.104969934	-2.559100E+01
426	  0.105170339	-4.871000E+00	  0.105170339	-1.211770E+02	  0.105170339	1.758800E+01	  0.105170339	-2.547700E+01
427	  0.105370738	-4.866000E+00	  0.105370738	-1.214090E+02	  0.105370738	1.753600E+01	  0.105370738	-2.536600E+01
428	  0.105571143	-4.870000E+00	  0.105571143	-1.216550E+02	  0.105571143	1.751400E+01	  0.105571143	-2.524000E+01
429	  0.105771542	-4.869000E+00	  0.105771542	-1.218650E+02	  0.105771542	1.747700E+01	  0.105771542	-2.513800E+01
430	  0.105971940	-4.872000E+00	  0.105971940	-1.221020E+02	  0.105971940	1.744900E+01	  0.105971940	-2.501800E+01
431	  0.106172346	-4.868000E+00	  0.106172346	-1.223090E+02	  0.106172346	1.740500E+01	  0.106172346	-2.492000E+01
432	  0.106372744	-4.869000E+00	  0.106372744	-1.224850E+02	  0.106372744	1.738100E+01	  0.106372744	-2.483300E+01
433	  0.106573142	-4.868000E+00	  0.106573142	-1.226940E+02	  0.106573142	1.734900E+01	  0.106573142	-2.473000E+01
434	  0.106773548	-4.875000E+00	  0.106773548	-1.229510E+02	  0.106773548	1.733300E+01	  0.106773548	-2.459800E+01
435	  0.106973946	-4.880000E+00	  0.106973946	-1.231530E+02	  0.106973946	1.731900E+01	  0.106973946	-2.449400E+01
436	  0.107174344	-4.888000E+00	  0.107174344	-1.233770E+02	  0.107174344	1.731100E+01	  0.107174344	-2.437700E+01
437	  0.107374750	-4.889000E+00	  0.107374750	-1.235990E+02	  0.107374750	1.728000E+01	  0.107374750	-2.426900E+01
438	  0.107575148	-4.892000E+00	  0.107575148	-1.238630E+02	  0.107575148	1.725300E+01	  0.107575148	-2.413600E+01
439	  0.107775547	-4.896000E+00	  0.107775547	-1.240920E+02	  0.107775547	1.723100E+01	  0.107775547	-2.402200E+01
440	  0.107975952	-4.898000E+00	  0.107975952	-1.243560E+02	  0.107975952	1.720100E+01	  0.107975952	-2.389200E+01
441	  0.108176351	-4.904000E+00	  0.108176351	-1.245910E+02	  0.108176351	1.718700E+01	  0.108176351	-2.377200E+01
442	  0.108376749	-4.910000E+00	  0.108376749	-1.249040E+02	  0.108376749	1.716000E+01	  0.108376749	-2.361600E+01
443	  0.108577155	-4.916000E+00	  0.108577155	-1.251440E+02	  0.108577155	1.714500E+01	  0.108577155	-2.349500E+01
444	  0.108777553	-4.914000E+00	  0.108777553	-1.253730E+02	  0.108777553	1.710600E+01	  0.108777553	-2.338700E+01
445	  0.108977959	-4.920000E+00	  0.108977959	-1.256780E+02	  0.108977959	1.708400E+01	  0.108977959	-2.323400E+01
446	  0.109178357	-4.910000E+00	  0.109178357	-1.258990E+02	  0.109178357	1.702000E+01	  0.109178357	-2.313800E+01
447	  0.109378755	-4.920000E+00	  0.109378755	-1.261670E+02	  0.109378755	1.701700E+01	  0.109378755	-2.300000E+01
448	  0.109579161	-4.917000E+00	  0.109579161	-1.264740E+02	  0.109579161	1.696600E+01	  0.109579161	-2.285600E+01
449	  0.109779559	-4.914000E+00	  0.109779559	-1.266930E+02	  0.109779559	1.692600E+01	  0.109779559	-2.275500E+01
450	  0.109979957	-4.909000E+00	  0.109979957	-1.269670E+02	  0.109979957	1.687400E+01	  0.109979957	-2.262800E+01
451	  0.110180363	-4.904000E+00	  0.110180363	-1.271990E+02	  0.110180363	1.682800E+01	  0.110180363	-2.252200E+01
452	  0.110380761	-4.906000E+00	  0.110380761	-1.274670E+02	  0.110380761	1.679800E+01	  0.110380761	-2.239300E+01
453	  0.110581160	-4.901000E+00	  0.110581160	-1.276870E+02	  0.110581160	1.675400E+01	  0.110581160	-2.229300E+01
454	  0.110781565	-4.900000E+00	  0.110781565	-1.279440E+02	  0.110781565	1.671700E+01	  0.110781565	-2.217300E+01
455	  0.110981964	-4.905000E+00	  0.110981964	-1.281600E+02	  0.110981964	1.670600E+01	  0.110981964	-2.206600E+01
456	  0.111182362	-4.896000E+00	  0.111182362	-1.283700E+02	  0.111182362	1.664900E+01	  0.111182362	-2.197500E+01
457	  0.111382768	-4.900000E+00	  0.111382768	-1.286160E+02	  0.111382768	1.663100E+01	  0.111382768	-2.185500E+01
458	  0.111583166	-4.896000E+00	  0.111583166	-1.287980E+02	  0.111583166	1.659500E+01	  0.111583166	-2.177300E+01
459	  0.111783572	-4.900000E+00	  0.111783572	-1.290490E+02	  0.111783572	1.657600E+01	  0.111783572	-2.165100E+01
460	  0.111983970	-4.902000E+00	  0.111983970	-1.292220E+02	  0.111983970	1.656000E+01	  0.111983970	-2.156800E+01
461	  0.112184368	-4.906000E+00	  0.112184368	-1.294860E+02	  0.112184368	1.654100E+01	  0.112184368	-2.144100E+01
462	  0.112384774	-4.906000E+00	  0.112384774	-1.296980E+02	  0.112384774	1.651600E+01	  0.112384774	-2.134100E+01
463	  0.112585172	-4.907000E+00	  0.112585172	-1.298990E+02	  0.112585172	1.649400E+01	  0.112585172	-2.124700E+01
464	  0.112785570	-4.904000E+00	  0.112785570	-1.301700E+02	  0.112785570	1.645200E+01	  0.112785570	-2.112200E+01
465	  0.112985976	-4.905000E+00	  0.112985976	-1.303840E+02	  0.112985976	1.642900E+01	  0.112985976	-2.102100E+01
466	  0.113186374	-4.912000E+00	  0.113186374	-1.306080E+02	  0.113186374	1.642200E+01	  0.113186374	-2.091200E+01
467	  0.113386773	-4.912000E+00	  0.113386773	-1.308410E+02	  0.113386773	1.639500E+01	  0.113386773	-2.080300E+01
468	  0.113587178	-4.919000E+00	  0.113587178	-1.310770E+02	  0.113587178	1.638900E+01	  0.113587178	-2.068800E+01
469	  0.113787577	-4.920000E+00	  0.113787577	-1.313080E+02	  0.113787577	1.636400E+01	  0.113787577	-2.058100E+01
470	  0.113987975	-4.920000E+00	  0.113987975	-1.315870E+02	  0.113987975	1.633100E+01	  0.113987975	-2.045100E+01
471	  0.114188381	-4.922000E+00	  0.114188381	-1.318560E+02	  0.114188381	1.630700E+01	  0.114188381	-2.032500E+01
472	  0.114388779	-4.930000E+00	  0.114388779	-1.321200E+02	  0.114388779	1.630100E+01	  0.114388779	-2.019700E+01
473	  0.114589177	-4.933000E+00	  0.114589177	-1.323320E+02	  0.114589177	1.628600E+01	  0.114589177	-2.009700E+01
474	  0.114789583	-4.929000E+00	  0.114789583	-1.325470E+02	  0.114789583	1.624900E+01	  0.114789583	-2.000100E+01
475	  0.114989981	-4.933000E+00	  0.114989981	-1.328020E+02	  0.114989981	1.623100E+01	  0.114989981	-1.988200E+01
476	  0.115190387	-4.931000E+00	  0.115190387	-1.330890E+02	  0.115190387	1.619400E+01	  0.115190387	-1.975100E+01
477	  0.115390785	-4.928000E+00	  0.115390785	-1.333030E+02	  0.115390785	1.616100E+01	  0.115390785	-1.965500E+01
478	  0.115591183	-4.935000E+00	  0.115591183	-1.335600E+02	  0.115591183	1.615500E+01	  0.115591183	-1.953200E+01
479	  0.115791589	-4.926000E+00	  0.115791589	-1.338280E+02	  0.115791589	1.609800E+01	  0.115791589	-1.941600E+01
480	  0.115991987	-4.931000E+00	  0.115991987	-1.340790E+02	  0.115991987	1.608400E+01	  0.115991987	-1.929800E+01
481	  0.116192386	-4.931000E+00	  0.116192386	-1.343050E+02	  0.116192386	1.605900E+01	  0.116192386	-1.919500E+01
482	  0.116392791	-4.932000E+00	  0.116392791	-1.345060E+02	  0.116392791	1.604000E+01	  0.116392791	-1.910300E+01
483	  0.116593190	-4.925000E+00	  0.116593190	-1.347480E+02	  0.116593190	1.599400E+01	  0.116593190	-1.899800E+01
484	  0.116793588	-4.926000E+00	  0.116793588	-1.349680E+02	  0.116793588	1.597400E+01	  0.116793588	-1.889700E+01
485	  0.116993994	-4.926000E+00	  0.116993994	-1.352360E+02	  0.116993994	1.594600E+01	  0.116993994	-1.877500E+01
486	  0.117194392	-4.929000E+00	  0.117194392	-1.354310E+02	  0.117194392	1.593600E+01	  0.117194392	-1.868500E+01
487	  0.117394790	-4.927000E+00	  0.117394790	-1.357260E+02	  0.117394790	1.590000E+01	  0.117394790	-1.855200E+01
488	  0.117595196	-4.932000E+00	  0.117595196	-1.359260E+02	  0.117595196	1.589400E+01	  0.117595196	-1.845900E+01
489	  0.117795594	-4.934000E+00	  0.117795594	-1.362060E+02	  0.117795594	1.587000E+01	  0.117795594	-1.833100E+01
490	  0.117995992	-4.929000E+00	  0.117995992	-1.364200E+02	  0.117995992	1.583400E+01	  0.117995992	-1.823800E+01
491	  0.118196398	-4.937000E+00	  0.118196398	-1.366050E+02	  0.118196398	1.583900E+01	  0.118196398	-1.814900E+01
492	  0.118396796	-4.939000E+00	  0.118396796	-1.368870E+02	  0.118396796	1.581600E+01	  0.118396796	-1.802200E+01
493	  0.118597202	-4.941000E+00	  0.118597202	-1.370850E+02	  0.118597202	1.580400E+01	  0.118597202	-1.793100E+01
494	  0.118797600	-4.946000E+00	  0.118797600	-1.373540E+02	  0.118797600	1.579000E+01	  0.118797600	-1.780800E+01
495	  0.118997999	-4.946000E+00	  0.118997999	-1.375960E+02	  0.118997999	1.576700E+01	  0.118997999	-1.769900E+01
496	  0.119198404	-4.948000E+00	  0.119198404	-1.378380E+02	  0.119198404	1.575000E+01	  0.119198404	-1.758900E+01
497	  0.119398803	-4.946000E+00	  0.119398803	-1.380810E+02	  0.119398803	1.572000E+01	  0.119398803	-1.748200E+01
498	  0.119599201	-4.946000E+00	  0.119599201	-1.383700E+02	  0.119599201	1.569300E+01	  0.119599201	-1.735300E+01
499	  0.119799607	-4.948000E+00	  0.119799607	-1.385790E+02	  0.119799607	1.568100E+01	  0.119799607	-1.725800E+01
500	  0.120000005	-4.955000E+00	  0.120000005	-1.388350E+02	  0.120000005	1.567400E+01	  0.120000005	-1.714100E+01
