! Anritsu VNA Master:             	Model: MS2036C/10/77
! SN:             	1601066
! /bd0/18may26.balun/2a.m2.txt
! Existing Calibration Information:
! TYPE:             	Current Settings	Active Cal Settings
! TIME:             	05/26/2018 07:49:36 PM	05/26/2018 07:26:54 PM
! INTERNAL TEMP:    	45.3 C	45.5 C
! # POINTS:         	500	500
! START FREQ:       	20.000 MHz	20.000 MHz
! STOP FREQ:        	120.000 MHz	120.000 MHz
! SOURCE POWER:     	High	High
! IFBW:             	50 Hz	50 Hz
! AVG FACTOR:       	  1 	  1 
! REF PLANE 1:      	0 mm	0 mm
! REF PLANE 2:      	0 mm	0 mm
! CAL TYPE:         	Full S11	Full S11
! CAL METHOD:       	SOLT	SOLT
! CAL LINE TYPE:    	Coax	Coax
! DUT PORT 1:       	K-Conn(M)	K-Conn(M)
! DUT PORT 2:       	K-Conn(M)	K-Conn(M)
! CAL STATUS:       	OK: Accuracy High	--
! PROP-V:       	0.700
! CABLE LOSS:       	0.000 dB/m
! REF IMPEDANCE:       	50.0
! Trace Specific Parameters:	TR1	TR2	TR3	TR4
! TRACE.#.Y (GRAPH TYPE)	LOG MAG	PHASE	REAL IMPEDANCE	IMAGINARY IMPEDANCE
! TRACE.#.X 	FREQ.GHZ	FREQ.GHZ	FREQ.GHZ	FREQ.GHZ
! S-PARAMETER	S11	S11	S11	S11
! SMOOTH/APERTURE %	0	0	0	0
! WINDOW	NSL	NSL	NSL	NSL
! GATING	OFF	OFF	OFF	OFF
! FGTD	OFF	OFF	OFF	OFF
Marker Information per Trace:	TR1	TR2	TR3	TR4
!MK1	--	--	--	--
!MK2	--	--	--	--
!MK3	--	--	--	--
!MK4	--	--	--	--
!MK5	--	--	--	--
!MK6	--	--	--	--
!MK7	--	--	--	--
!MK8	--	--	--	--
PNT	TR1.FREQ.GHZ	TR1.LOG MAG.dB	TR2.FREQ.GHZ	TR2.PHASE.deg	TR3.FREQ.GHZ	TR3.REAL IMPEDANCE.ohm	TR4.FREQ.GHZ	TR4.IMAGINARY IMPEDANCE.ohm
1	  0.020000000	-6.190000E-01	  0.020000000	-1.255860E+02	  0.020000000	2.251000E+00	  0.020000000	-2.566200E+01
2	  0.020200402	-6.150000E-01	  0.020200402	-1.270740E+02	  0.020200402	2.209000E+00	  0.020200402	-2.484900E+01
3	  0.020400802	-6.140000E-01	  0.020400802	-1.285320E+02	  0.020400802	2.177000E+00	  0.020400802	-2.406200E+01
4	  0.020601204	-6.130000E-01	  0.020601204	-1.299860E+02	  0.020601204	2.148000E+00	  0.020601204	-2.328700E+01
5	  0.020801604	-6.160000E-01	  0.020801604	-1.314690E+02	  0.020801604	2.134000E+00	  0.020801604	-2.250500E+01
6	  0.021002004	-6.210000E-01	  0.021002004	-1.329780E+02	  0.021002004	2.126000E+00	  0.021002004	-2.171800E+01
7	  0.021202406	-6.290000E-01	  0.021202406	-1.345020E+02	  0.021202406	2.127000E+00	  0.021202406	-2.093300E+01
8	  0.021402806	-6.320000E-01	  0.021402806	-1.360200E+02	  0.021402806	2.116000E+00	  0.021402806	-2.015900E+01
9	  0.021603208	-6.360000E-01	  0.021603208	-1.375480E+02	  0.021603208	2.107000E+00	  0.021603208	-1.938900E+01
10	  0.021803608	-6.400000E-01	  0.021803608	-1.390630E+02	  0.021803608	2.098000E+00	  0.021803608	-1.863300E+01
11	  0.022004008	-6.460000E-01	  0.022004008	-1.406140E+02	  0.022004008	2.098000E+00	  0.022004008	-1.786700E+01
12	  0.022204408	-6.490000E-01	  0.022204408	-1.421830E+02	  0.022204408	2.088000E+00	  0.022204408	-1.709900E+01
13	  0.022404809	-6.520000E-01	  0.022404809	-1.437540E+02	  0.022404809	2.078000E+00	  0.022404809	-1.633900E+01
14	  0.022605211	-6.520000E-01	  0.022605211	-1.453260E+02	  0.022605211	2.059000E+00	  0.022605211	-1.558400E+01
15	  0.022805611	-6.540000E-01	  0.022805611	-1.468770E+02	  0.022805611	2.048000E+00	  0.022805611	-1.484500E+01
16	  0.023006011	-6.580000E-01	  0.023006011	-1.484440E+02	  0.023006011	2.046000E+00	  0.023006011	-1.410500E+01
17	  0.023206413	-6.670000E-01	  0.023206413	-1.500240E+02	  0.023206413	2.059000E+00	  0.023206413	-1.336400E+01
18	  0.023406813	-6.740000E-01	  0.023406813	-1.516350E+02	  0.023406813	2.064000E+00	  0.023406813	-1.261500E+01
19	  0.023607215	-6.820000E-01	  0.023607215	-1.532740E+02	  0.023607215	2.074000E+00	  0.023607215	-1.185800E+01
20	  0.023807615	-6.900000E-01	  0.023807615	-1.548840E+02	  0.023807615	2.085000E+00	  0.023807615	-1.111900E+01
21	  0.024008015	-7.000000E-01	  0.024008015	-1.564970E+02	  0.024008015	2.102000E+00	  0.024008015	-1.038300E+01
22	  0.024208417	-7.110000E-01	  0.024208417	-1.581240E+02	  0.024208417	2.122000E+00	  0.024208417	-9.645000E+00
23	  0.024408817	-7.220000E-01	  0.024408817	-1.597690E+02	  0.024408817	2.144000E+00	  0.024408817	-8.903000E+00
24	  0.024609219	-7.330000E-01	  0.024609219	-1.614420E+02	  0.024609219	2.164000E+00	  0.024609219	-8.153000E+00
25	  0.024809619	-7.380000E-01	  0.024809619	-1.631290E+02	  0.024809619	2.170000E+00	  0.024809619	-7.401000E+00
26	  0.025010020	-7.430000E-01	  0.025010020	-1.648140E+02	  0.025010020	2.177000E+00	  0.025010020	-6.652000E+00
27	  0.025210422	-7.530000E-01	  0.025210422	-1.664870E+02	  0.025210422	2.196000E+00	  0.025210422	-5.912000E+00
28	  0.025410822	-7.620000E-01	  0.025410822	-1.681640E+02	  0.025410822	2.216000E+00	  0.025410822	-5.172000E+00
29	  0.025611224	-7.720000E-01	  0.025611224	-1.698510E+02	  0.025611224	2.239000E+00	  0.025611224	-4.430000E+00
30	  0.025811624	-7.810000E-01	  0.025811624	-1.715520E+02	  0.025811624	2.259000E+00	  0.025811624	-3.684000E+00
31	  0.026012026	-7.920000E-01	  0.026012026	-1.732710E+02	  0.026012026	2.287000E+00	  0.026012026	-2.933000E+00
32	  0.026212426	-8.070000E-01	  0.026212426	-1.749960E+02	  0.026212426	2.327000E+00	  0.026212426	-2.179000E+00
33	  0.026412826	-8.240000E-01	  0.026412826	-1.767270E+02	  0.026412826	2.374000E+00	  0.026412826	-1.425000E+00
34	  0.026613226	-8.400000E-01	  0.026613226	-1.784670E+02	  0.026613226	2.417000E+00	  0.026613226	-6.670000E-01
35	  0.026813626	-8.570000E-01	  0.026813626	1.797740E+02	  0.026813626	2.466000E+00	  0.026813626	9.800000E-02
36	  0.027014028	-8.720000E-01	  0.027014028	1.780240E+02	  0.027014028	2.511000E+00	  0.027014028	8.590000E-01
37	  0.027214428	-8.880000E-01	  0.027214428	1.762710E+02	  0.027214428	2.556000E+00	  0.027214428	1.623000E+00
38	  0.027414829	-9.050000E-01	  0.027414829	1.744970E+02	  0.027414829	2.609000E+00	  0.027414829	2.396000E+00
39	  0.027615231	-9.250000E-01	  0.027615231	1.727210E+02	  0.027615231	2.671000E+00	  0.027615231	3.171000E+00
40	  0.027815631	-9.450000E-01	  0.027815631	1.709040E+02	  0.027815631	2.736000E+00	  0.027815631	3.965000E+00
41	  0.028016033	-9.670000E-01	  0.028016033	1.690740E+02	  0.028016033	2.806000E+00	  0.028016033	4.766000E+00
42	  0.028216433	-9.870000E-01	  0.028216433	1.672310E+02	  0.028216433	2.874000E+00	  0.028216433	5.576000E+00
43	  0.028416833	-1.011000E+00	  0.028416833	1.653940E+02	  0.028416833	2.954000E+00	  0.028416833	6.385000E+00
44	  0.028617235	-1.035000E+00	  0.028617235	1.635460E+02	  0.028617235	3.038000E+00	  0.028617235	7.202000E+00
45	  0.028817635	-1.061000E+00	  0.028817635	1.616780E+02	  0.028817635	3.129000E+00	  0.028817635	8.032000E+00
46	  0.029018037	-1.087000E+00	  0.029018037	1.597790E+02	  0.029018037	3.223000E+00	  0.029018037	8.879000E+00
47	  0.029218437	-1.111000E+00	  0.029218437	1.578680E+02	  0.029218437	3.315000E+00	  0.029218437	9.737000E+00
48	  0.029418837	-1.130000E+00	  0.029418837	1.559740E+02	  0.029418837	3.395000E+00	  0.029418837	1.059200E+01
49	  0.029619239	-1.151000E+00	  0.029619239	1.541030E+02	  0.029619239	3.483000E+00	  0.029619239	1.144200E+01
50	  0.029819639	-1.175000E+00	  0.029819639	1.522420E+02	  0.029819639	3.582000E+00	  0.029819639	1.229400E+01
51	  0.030020041	-1.202000E+00	  0.030020041	1.503730E+02	  0.030020041	3.697000E+00	  0.030020041	1.315500E+01
52	  0.030220442	-1.234000E+00	  0.030220442	1.484900E+02	  0.030220442	3.827000E+00	  0.030220442	1.402900E+01
53	  0.030420844	-1.271000E+00	  0.030420844	1.465670E+02	  0.030420844	3.980000E+00	  0.030420844	1.492800E+01
54	  0.030621244	-1.310000E+00	  0.030621244	1.446140E+02	  0.030621244	4.144000E+00	  0.030621244	1.585000E+01
55	  0.030821644	-1.344000E+00	  0.030821644	1.426220E+02	  0.030821644	4.300000E+00	  0.030821644	1.680000E+01
56	  0.031022044	-1.375000E+00	  0.031022044	1.406190E+02	  0.031022044	4.453000E+00	  0.031022044	1.776700E+01
57	  0.031222444	-1.403000E+00	  0.031222444	1.386110E+02	  0.031222444	4.600000E+00	  0.031222444	1.874700E+01
58	  0.031422846	-1.430000E+00	  0.031422846	1.366180E+02	  0.031422846	4.753000E+00	  0.031422846	1.973200E+01
59	  0.031623244	-1.459000E+00	  0.031623244	1.346270E+02	  0.031623244	4.916000E+00	  0.031623244	2.072900E+01
60	  0.031823646	-1.482000E+00	  0.031823646	1.326830E+02	  0.031823646	5.065000E+00	  0.031823646	2.171500E+01
61	  0.032024048	-1.509000E+00	  0.032024048	1.307260E+02	  0.032024048	5.237000E+00	  0.032024048	2.272200E+01
62	  0.032224450	-1.539000E+00	  0.032224450	1.287840E+02	  0.032224450	5.423000E+00	  0.032224450	2.373400E+01
63	  0.032424849	-1.575000E+00	  0.032424849	1.268370E+02	  0.032424849	5.641000E+00	  0.032424849	2.476200E+01
64	  0.032625251	-1.615000E+00	  0.032625251	1.248690E+02	  0.032625251	5.885000E+00	  0.032625251	2.581500E+01
65	  0.032825653	-1.662000E+00	  0.032825653	1.229020E+02	  0.032825653	6.164000E+00	  0.032825653	2.688200E+01
66	  0.033026051	-1.711000E+00	  0.033026051	1.208950E+02	  0.033026051	6.469000E+00	  0.033026051	2.798800E+01
67	  0.033226453	-1.759000E+00	  0.033226453	1.188910E+02	  0.033226453	6.781000E+00	  0.033226453	2.911200E+01
68	  0.033426855	-1.809000E+00	  0.033426855	1.168540E+02	  0.033426855	7.119000E+00	  0.033426855	3.027300E+01
69	  0.033627257	-1.857000E+00	  0.033627257	1.147880E+02	  0.033627257	7.469000E+00	  0.033627257	3.147400E+01
70	  0.033827655	-1.903000E+00	  0.033827655	1.126840E+02	  0.033827655	7.833000E+00	  0.033827655	3.272300E+01
71	  0.034028057	-1.955000E+00	  0.034028057	1.105930E+02	  0.034028057	8.241000E+00	  0.034028057	3.398600E+01
72	  0.034228459	-2.002000E+00	  0.034228459	1.084800E+02	  0.034228459	8.656000E+00	  0.034228459	3.529200E+01
73	  0.034428857	-2.044000E+00	  0.034428857	1.064050E+02	  0.034428857	9.066000E+00	  0.034428857	3.660600E+01
74	  0.034629259	-2.084000E+00	  0.034629259	1.043070E+02	  0.034629259	9.492000E+00	  0.034629259	3.796700E+01
75	  0.034829661	-2.123000E+00	  0.034829661	1.022790E+02	  0.034829661	9.936000E+00	  0.034829661	3.931300E+01
76	  0.035030060	-2.167000E+00	  0.035030060	1.002950E+02	  0.035030060	1.041800E+01	  0.035030060	4.065600E+01
77	  0.035230462	-2.220000E+00	  0.035230462	9.831500E+01	  0.035230462	1.097500E+01	  0.035230462	4.201600E+01
78	  0.035430863	-2.277000E+00	  0.035430863	9.630600E+01	  0.035430863	1.158700E+01	  0.035430863	4.342600E+01
79	  0.035631265	-2.338000E+00	  0.035631265	9.427600E+01	  0.035631265	1.226400E+01	  0.035631265	4.487700E+01
80	  0.035831664	-2.404000E+00	  0.035831664	9.220500E+01	  0.035831664	1.301400E+01	  0.035831664	4.638900E+01
81	  0.036032066	-2.464000E+00	  0.036032066	9.008700E+01	  0.036032066	1.379800E+01	  0.036032066	4.798100E+01
82	  0.036232468	-2.524000E+00	  0.036232468	8.795200E+01	  0.036232468	1.463500E+01	  0.036232468	4.963000E+01
83	  0.036432866	-2.584000E+00	  0.036432866	8.576200E+01	  0.036432866	1.555300E+01	  0.036432866	5.136800E+01
84	  0.036633268	-2.636000E+00	  0.036633268	8.361100E+01	  0.036633268	1.647800E+01	  0.036633268	5.313600E+01
85	  0.036833670	-2.685000E+00	  0.036833670	8.147300E+01	  0.036833670	1.745200E+01	  0.036833670	5.494700E+01
86	  0.037034072	-2.734000E+00	  0.037034072	7.934400E+01	  0.037034072	1.849800E+01	  0.037034072	5.680200E+01
87	  0.037234470	-2.779000E+00	  0.037234470	7.724500E+01	  0.037234470	1.958500E+01	  0.037234470	5.869400E+01
88	  0.037434869	-2.824000E+00	  0.037434869	7.519100E+01	  0.037434869	2.074200E+01	  0.037434869	6.059400E+01
89	  0.037635271	-2.873000E+00	  0.037635271	7.312300E+01	  0.037635271	2.202400E+01	  0.037635271	6.254900E+01
90	  0.037835669	-2.923000E+00	  0.037835669	7.108500E+01	  0.037835669	2.339700E+01	  0.037835669	6.452600E+01
91	  0.038036071	-2.976000E+00	  0.038036071	6.901500E+01	  0.038036071	2.491900E+01	  0.038036071	6.657700E+01
92	  0.038236473	-3.040000E+00	  0.038236473	6.694300E+01	  0.038236473	2.664800E+01	  0.038236473	6.864000E+01
93	  0.038436871	-3.107000E+00	  0.038436871	6.486300E+01	  0.038436871	2.855500E+01	  0.038436871	7.073500E+01
94	  0.038637273	-3.175000E+00	  0.038637273	6.277800E+01	  0.038637273	3.062700E+01	  0.038637273	7.287400E+01
95	  0.038837675	-3.240000E+00	  0.038837675	6.065900E+01	  0.038837675	3.289000E+01	  0.038837675	7.509600E+01
96	  0.039038073	-3.301000E+00	  0.039038073	5.846000E+01	  0.039038073	3.539400E+01	  0.039038073	7.747400E+01
97	  0.039238475	-3.357000E+00	  0.039238475	5.631900E+01	  0.039238475	3.802400E+01	  0.039238475	7.984300E+01
98	  0.039438877	-3.403000E+00	  0.039438877	5.420100E+01	  0.039438877	4.078000E+01	  0.039438877	8.228900E+01
99	  0.039639279	-3.447000E+00	  0.039639279	5.211600E+01	  0.039639279	4.373900E+01	  0.039639279	8.472700E+01
100	  0.039839678	-3.492000E+00	  0.039839678	5.009900E+01	  0.039839678	4.688500E+01	  0.039839678	8.708000E+01
101	  0.040040080	-3.541000E+00	  0.040040080	4.812700E+01	  0.040040080	5.027400E+01	  0.040040080	8.933100E+01
102	  0.040240481	-3.595000E+00	  0.040240481	4.612100E+01	  0.040240481	5.407600E+01	  0.040240481	9.152300E+01
103	  0.040440880	-3.655000E+00	  0.040440880	4.412100E+01	  0.040440880	5.825100E+01	  0.040440880	9.356800E+01
104	  0.040641282	-3.719000E+00	  0.040641282	4.208000E+01	  0.040641282	6.289700E+01	  0.040641282	9.550000E+01
105	  0.040841684	-3.782000E+00	  0.040841684	4.004900E+01	  0.040841684	6.791200E+01	  0.040841684	9.724800E+01
106	  0.041042086	-3.844000E+00	  0.041042086	3.799300E+01	  0.041042086	7.338900E+01	  0.041042086	9.882000E+01
107	  0.041242484	-3.905000E+00	  0.041242484	3.593600E+01	  0.041242484	7.930700E+01	  0.041242484	1.001050E+02
108	  0.041442886	-3.962000E+00	  0.041442886	3.386100E+01	  0.041442886	8.570200E+01	  0.041442886	1.011190E+02
109	  0.041643288	-4.019000E+00	  0.041643288	3.179300E+01	  0.041643288	9.254200E+01	  0.041643288	1.016930E+02
110	  0.041843686	-4.070000E+00	  0.041843686	2.971900E+01	  0.041843686	9.984300E+01	  0.041843686	1.018400E+02
111	  0.042044088	-4.124000E+00	  0.042044088	2.766900E+01	  0.042044088	1.075070E+02	  0.042044088	1.012850E+02
112	  0.042244490	-4.173000E+00	  0.042244490	2.563400E+01	  0.042244490	1.154980E+02	  0.042244490	1.000880E+02
113	  0.042444889	-4.223000E+00	  0.042444889	2.363900E+01	  0.042444889	1.236390E+02	  0.042444889	9.804800E+01
114	  0.042645290	-4.275000E+00	  0.042645290	2.160800E+01	  0.042645290	1.321220E+02	  0.042645290	9.495500E+01
115	  0.042845692	-4.321000E+00	  0.042845692	1.957600E+01	  0.042845692	1.407290E+02	  0.042845692	9.096400E+01
116	  0.043046094	-4.368000E+00	  0.043046094	1.759400E+01	  0.043046094	1.490340E+02	  0.043046094	8.590800E+01
117	  0.043246493	-4.416000E+00	  0.043246493	1.557700E+01	  0.043246493	1.571830E+02	  0.043246493	7.955300E+01
118	  0.043446895	-4.462000E+00	  0.043446895	1.359200E+01	  0.043446895	1.647140E+02	  0.043446895	7.213100E+01
119	  0.043647297	-4.514000E+00	  0.043647297	1.159800E+01	  0.043647297	1.713900E+02	  0.043647297	6.341100E+01
120	  0.043847695	-4.562000E+00	  0.043847695	9.644000E+00	  0.043847695	1.770060E+02	  0.043847695	5.394100E+01
121	  0.044048097	-4.605000E+00	  0.044048097	7.649000E+00	  0.044048097	1.817470E+02	  0.044048097	4.355800E+01
122	  0.044248499	-4.649000E+00	  0.044248499	5.694000E+00	  0.044248499	1.850180E+02	  0.044248499	3.270800E+01
123	  0.044448901	-4.689000E+00	  0.044448901	3.721000E+00	  0.044448901	1.870520E+02	  0.044448901	2.143300E+01
124	  0.044649299	-4.729000E+00	  0.044649299	1.825000E+00	  0.044649299	1.875240E+02	  0.044649299	1.044400E+01
125	  0.044849701	-4.771000E+00	  0.044849701	-8.300000E-02	  0.044849701	1.865880E+02	  0.044849701	-4.700000E-01
126	  0.045050103	-4.813000E+00	  0.045050103	-1.984000E+00	  0.045050103	1.843400E+02	  0.045050103	-1.094700E+01
127	  0.045250501	-4.858000E+00	  0.045250501	-3.877000E+00	  0.045250501	1.808310E+02	  0.045250501	-2.076200E+01
128	  0.045450903	-4.900000E+00	  0.045450903	-5.780000E+00	  0.045450903	1.764340E+02	  0.045450903	-2.988600E+01
129	  0.045651305	-4.945000E+00	  0.045651305	-7.663000E+00	  0.045651305	1.711820E+02	  0.045651305	-3.800800E+01
130	  0.045851704	-4.982000E+00	  0.045851704	-9.582000E+00	  0.045851704	1.654270E+02	  0.045851704	-4.546800E+01
131	  0.046052106	-5.023000E+00	  0.046052106	-1.147000E+01	  0.046052106	1.592090E+02	  0.046052106	-5.180500E+01
132	  0.046252504	-5.060000E+00	  0.046252504	-1.335900E+01	  0.046252504	1.527910E+02	  0.046252504	-5.730100E+01
133	  0.046452906	-5.097000E+00	  0.046452906	-1.520000E+01	  0.046452906	1.463560E+02	  0.046452906	-6.177500E+01
134	  0.046653304	-5.136000E+00	  0.046653304	-1.705700E+01	  0.046653304	1.398320E+02	  0.046653304	-6.547800E+01
135	  0.046853706	-5.174000E+00	  0.046853706	-1.892300E+01	  0.046853706	1.333550E+02	  0.046853706	-6.847300E+01
136	  0.047054108	-5.210000E+00	  0.047054108	-2.078300E+01	  0.047054108	1.270680E+02	  0.047054108	-7.083400E+01
137	  0.047254506	-5.240000E+00	  0.047254506	-2.264400E+01	  0.047254506	1.210140E+02	  0.047254506	-7.272800E+01
138	  0.047454908	-5.275000E+00	  0.047454908	-2.449800E+01	  0.047454908	1.151580E+02	  0.047454908	-7.398400E+01
139	  0.047655310	-5.308000E+00	  0.047655310	-2.632900E+01	  0.047655310	1.096420E+02	  0.047655310	-7.482600E+01
140	  0.047855709	-5.340000E+00	  0.047855709	-2.813900E+01	  0.047855709	1.044410E+02	  0.047855709	-7.527900E+01
141	  0.048056111	-5.370000E+00	  0.048056111	-2.997300E+01	  0.048056111	9.944800E+01	  0.048056111	-7.545300E+01
142	  0.048256513	-5.397000E+00	  0.048256513	-3.176200E+01	  0.048256513	9.483300E+01	  0.048256513	-7.538200E+01
143	  0.048456915	-5.421000E+00	  0.048456915	-3.359600E+01	  0.048456915	9.036000E+01	  0.048456915	-7.513200E+01
144	  0.048657313	-5.442000E+00	  0.048657313	-3.539600E+01	  0.048657313	8.621200E+01	  0.048657313	-7.470400E+01
145	  0.048857715	-5.464000E+00	  0.048857715	-3.714200E+01	  0.048857715	8.241200E+01	  0.048857715	-7.411400E+01
146	  0.049058117	-5.485000E+00	  0.049058117	-3.886300E+01	  0.049058117	7.887300E+01	  0.049058117	-7.339300E+01
147	  0.049258515	-5.508000E+00	  0.049258515	-4.055300E+01	  0.049258515	7.559800E+01	  0.049258515	-7.254300E+01
148	  0.049458917	-5.529000E+00	  0.049458917	-4.222100E+01	  0.049458917	7.254200E+01	  0.049458917	-7.163900E+01
149	  0.049659319	-5.556000E+00	  0.049659319	-4.390600E+01	  0.049659319	6.964800E+01	  0.049659319	-7.058300E+01
150	  0.049859721	-5.580000E+00	  0.049859721	-4.556900E+01	  0.049859721	6.694700E+01	  0.049859721	-6.952500E+01
151	  0.050060119	-5.609000E+00	  0.050060119	-4.728900E+01	  0.050060119	6.432700E+01	  0.050060119	-6.834100E+01
152	  0.050260521	-5.634000E+00	  0.050260521	-4.895500E+01	  0.050260521	6.193200E+01	  0.050260521	-6.718600E+01
153	  0.050460923	-5.661000E+00	  0.050460923	-5.065200E+01	  0.050460923	5.963400E+01	  0.050460923	-6.597800E+01
154	  0.050661322	-5.683000E+00	  0.050661322	-5.233700E+01	  0.050661322	5.746500E+01	  0.050661322	-6.480300E+01
155	  0.050861724	-5.700000E+00	  0.050861724	-5.404500E+01	  0.050861724	5.537400E+01	  0.050861724	-6.363300E+01
156	  0.051062126	-5.715000E+00	  0.051062126	-5.571700E+01	  0.051062126	5.343300E+01	  0.051062126	-6.248800E+01
157	  0.051262524	-5.729000E+00	  0.051262524	-5.734100E+01	  0.051262524	5.164800E+01	  0.051262524	-6.136800E+01
158	  0.051462926	-5.744000E+00	  0.051462926	-5.897800E+01	  0.051462926	4.994200E+01	  0.051462926	-6.023200E+01
159	  0.051663328	-5.764000E+00	  0.051663328	-6.056200E+01	  0.051663328	4.840400E+01	  0.051663328	-5.909000E+01
160	  0.051863730	-5.779000E+00	  0.051863730	-6.215700E+01	  0.051863730	4.691700E+01	  0.051863730	-5.797200E+01
161	  0.052064128	-5.798000E+00	  0.052064128	-6.374300E+01	  0.052064128	4.552700E+01	  0.052064128	-5.684400E+01
162	  0.052264530	-5.817000E+00	  0.052264530	-6.533300E+01	  0.052264530	4.420700E+01	  0.052264530	-5.571700E+01
163	  0.052464932	-5.829000E+00	  0.052464932	-6.695000E+01	  0.052464932	4.290000E+01	  0.052464932	-5.462400E+01
164	  0.052665330	-5.846000E+00	  0.052665330	-6.852700E+01	  0.052665330	4.171300E+01	  0.052665330	-5.353200E+01
165	  0.052865732	-5.862000E+00	  0.052865732	-7.010300E+01	  0.052865732	4.057700E+01	  0.052865732	-5.246100E+01
166	  0.053066134	-5.875000E+00	  0.053066134	-7.168300E+01	  0.053066134	3.948600E+01	  0.053066134	-5.140500E+01
167	  0.053266536	-5.883000E+00	  0.053266536	-7.323500E+01	  0.053266536	3.844500E+01	  0.053266536	-5.040000E+01
168	  0.053466935	-5.892000E+00	  0.053466935	-7.480100E+01	  0.053466935	3.744500E+01	  0.053466935	-4.939300E+01
169	  0.053667337	-5.895000E+00	  0.053667337	-7.635000E+01	  0.053667337	3.648100E+01	  0.053667337	-4.842500E+01
170	  0.053867739	-5.898000E+00	  0.053867739	-7.785500E+01	  0.053867739	3.558700E+01	  0.053867739	-4.749300E+01
171	  0.054068137	-5.904000E+00	  0.054068137	-7.931700E+01	  0.054068137	3.476500E+01	  0.054068137	-4.658400E+01
172	  0.054268539	-5.914000E+00	  0.054268539	-8.078800E+01	  0.054268539	3.398900E+01	  0.054268539	-4.566500E+01
173	  0.054468941	-5.922000E+00	  0.054468941	-8.220600E+01	  0.054468941	3.327100E+01	  0.054468941	-4.478800E+01
174	  0.054669339	-5.932000E+00	  0.054669339	-8.360200E+01	  0.054669339	3.259700E+01	  0.054669339	-4.393000E+01
175	  0.054869737	-5.947000E+00	  0.054869737	-8.503500E+01	  0.054869737	3.195100E+01	  0.054869737	-4.304600E+01
176	  0.055070139	-5.961000E+00	  0.055070139	-8.649300E+01	  0.055070139	3.132100E+01	  0.055070139	-4.215700E+01
177	  0.055270538	-5.976000E+00	  0.055270538	-8.791500E+01	  0.055270538	3.073200E+01	  0.055270538	-4.130100E+01
178	  0.055470940	-5.987000E+00	  0.055470940	-8.938300E+01	  0.055470940	3.013800E+01	  0.055470940	-4.043700E+01
179	  0.055671342	-6.002000E+00	  0.055671342	-9.083600E+01	  0.055671342	2.958800E+01	  0.055671342	-3.958100E+01
180	  0.055871744	-6.008000E+00	  0.055871744	-9.228600E+01	  0.055871744	2.902600E+01	  0.055871744	-3.876400E+01
181	  0.056072142	-6.014000E+00	  0.056072142	-9.376100E+01	  0.056072142	2.848300E+01	  0.056072142	-3.793800E+01
182	  0.056272544	-6.020000E+00	  0.056272544	-9.517200E+01	  0.056272544	2.798100E+01	  0.056272544	-3.715700E+01
183	  0.056472946	-6.027000E+00	  0.056472946	-9.657000E+01	  0.056472946	2.750800E+01	  0.056472946	-3.638800E+01
184	  0.056673344	-6.032000E+00	  0.056673344	-9.796500E+01	  0.056673344	2.704600E+01	  0.056673344	-3.563500E+01
185	  0.056873746	-6.040000E+00	  0.056873746	-9.933400E+01	  0.056873746	2.662200E+01	  0.056873746	-3.489500E+01
186	  0.057074148	-6.042000E+00	  0.057074148	-1.006710E+02	  0.057074148	2.620300E+01	  0.057074148	-3.419100E+01
187	  0.057274550	-6.050000E+00	  0.057274550	-1.020350E+02	  0.057274550	2.581300E+01	  0.057274550	-3.346800E+01
188	  0.057474948	-6.059000E+00	  0.057474948	-1.033860E+02	  0.057474948	2.544100E+01	  0.057474948	-3.275800E+01
189	  0.057675350	-6.066000E+00	  0.057675350	-1.047320E+02	  0.057675350	2.508200E+01	  0.057675350	-3.206000E+01
190	  0.057875752	-6.076000E+00	  0.057875752	-1.061080E+02	  0.057875752	2.473400E+01	  0.057875752	-3.135000E+01
191	  0.058076151	-6.081000E+00	  0.058076151	-1.074570E+02	  0.058076151	2.439400E+01	  0.058076151	-3.066700E+01
192	  0.058276553	-6.084000E+00	  0.058276553	-1.087760E+02	  0.058276553	2.406400E+01	  0.058276553	-3.001000E+01
193	  0.058476955	-6.089000E+00	  0.058476955	-1.101500E+02	  0.058476955	2.374200E+01	  0.058476955	-2.932700E+01
194	  0.058677353	-6.087000E+00	  0.058677353	-1.114560E+02	  0.058677353	2.342300E+01	  0.058677353	-2.869600E+01
195	  0.058877755	-6.088000E+00	  0.058877755	-1.127720E+02	  0.058877755	2.312100E+01	  0.058877755	-2.806000E+01
196	  0.059078157	-6.086000E+00	  0.059078157	-1.140540E+02	  0.059078157	2.283200E+01	  0.059078157	-2.744900E+01
197	  0.059278559	-6.085000E+00	  0.059278559	-1.153130E+02	  0.059278559	2.255600E+01	  0.059278559	-2.685300E+01
198	  0.059478957	-6.090000E+00	  0.059478957	-1.165280E+02	  0.059478957	2.231800E+01	  0.059478957	-2.627300E+01
199	  0.059679359	-6.098000E+00	  0.059679359	-1.177640E+02	  0.059679359	2.209500E+01	  0.059679359	-2.568300E+01
200	  0.059879761	-6.099000E+00	  0.059879761	-1.190150E+02	  0.059879761	2.185400E+01	  0.059879761	-2.510100E+01
201	  0.060080159	-6.107000E+00	  0.060080159	-1.202150E+02	  0.060080159	2.165200E+01	  0.060080159	-2.453800E+01
202	  0.060280561	-6.114000E+00	  0.060280561	-1.214810E+02	  0.060280561	2.144400E+01	  0.060280561	-2.394900E+01
203	  0.060480963	-6.122000E+00	  0.060480963	-1.227380E+02	  0.060480963	2.124600E+01	  0.060480963	-2.336900E+01
204	  0.060681365	-6.128000E+00	  0.060681365	-1.240030E+02	  0.060681365	2.104700E+01	  0.060681365	-2.279200E+01
205	  0.060881764	-6.134000E+00	  0.060881764	-1.252430E+02	  0.060881764	2.086200E+01	  0.060881764	-2.222900E+01
206	  0.061082166	-6.138000E+00	  0.061082166	-1.264840E+02	  0.061082166	2.067500E+01	  0.061082166	-2.167200E+01
207	  0.061282568	-6.141000E+00	  0.061282568	-1.277430E+02	  0.061282568	2.049200E+01	  0.061282568	-2.111200E+01
208	  0.061482966	-6.143000E+00	  0.061482966	-1.289600E+02	  0.061482966	2.031600E+01	  0.061482966	-2.057600E+01
209	  0.061683368	-6.145000E+00	  0.061683368	-1.301900E+02	  0.061683368	2.014400E+01	  0.061683368	-2.003700E+01
210	  0.061883770	-6.146000E+00	  0.061883770	-1.313940E+02	  0.061883770	1.998000E+01	  0.061883770	-1.951300E+01
211	  0.062084168	-6.146000E+00	  0.062084168	-1.325930E+02	  0.062084168	1.982200E+01	  0.062084168	-1.899400E+01
212	  0.062284570	-6.148000E+00	  0.062284570	-1.337750E+02	  0.062284570	1.967300E+01	  0.062284570	-1.848600E+01
213	  0.062484972	-6.146000E+00	  0.062484972	-1.349060E+02	  0.062484972	1.952700E+01	  0.062484972	-1.800300E+01
214	  0.062685370	-6.149000E+00	  0.062685370	-1.360900E+02	  0.062685370	1.939200E+01	  0.062685370	-1.749800E+01
215	  0.062885776	-6.153000E+00	  0.062885776	-1.372470E+02	  0.062885776	1.926900E+01	  0.062885776	-1.700500E+01
216	  0.063086174	-6.155000E+00	  0.063086174	-1.384530E+02	  0.063086174	1.914000E+01	  0.063086174	-1.649600E+01
217	  0.063286573	-6.155000E+00	  0.063286573	-1.396220E+02	  0.063286573	1.901400E+01	  0.063286573	-1.600600E+01
218	  0.063486971	-6.155000E+00	  0.063486971	-1.408150E+02	  0.063486971	1.888800E+01	  0.063486971	-1.550900E+01
219	  0.063687377	-6.155000E+00	  0.063687377	-1.419710E+02	  0.063687377	1.877300E+01	  0.063687377	-1.502900E+01
220	  0.063887775	-6.151000E+00	  0.063887775	-1.431460E+02	  0.063887775	1.864900E+01	  0.063887775	-1.454500E+01
221	  0.064088173	-6.153000E+00	  0.064088173	-1.442860E+02	  0.064088173	1.854700E+01	  0.064088173	-1.407500E+01
222	  0.064288579	-6.155000E+00	  0.064288579	-1.453830E+02	  0.064288579	1.845500E+01	  0.064288579	-1.362400E+01
223	  0.064488977	-6.156000E+00	  0.064488977	-1.465050E+02	  0.064488977	1.836000E+01	  0.064488977	-1.316500E+01
224	  0.064689375	-6.162000E+00	  0.064689375	-1.476050E+02	  0.064689375	1.828600E+01	  0.064689375	-1.271400E+01
225	  0.064889781	-6.163000E+00	  0.064889781	-1.487330E+02	  0.064889781	1.820000E+01	  0.064889781	-1.225600E+01
226	  0.065090179	-6.166000E+00	  0.065090179	-1.498450E+02	  0.065090179	1.812300E+01	  0.065090179	-1.180500E+01
227	  0.065290578	-6.171000E+00	  0.065290578	-1.509520E+02	  0.065290578	1.805300E+01	  0.065290578	-1.135800E+01
228	  0.065490983	-6.170000E+00	  0.065490983	-1.520300E+02	  0.065490983	1.797700E+01	  0.065490983	-1.092500E+01
229	  0.065691382	-6.177000E+00	  0.065691382	-1.531570E+02	  0.065691382	1.792000E+01	  0.065691382	-1.047100E+01
230	  0.065891780	-6.181000E+00	  0.065891780	-1.542360E+02	  0.065891780	1.786000E+01	  0.065891780	-1.003900E+01
231	  0.066092186	-6.182000E+00	  0.066092186	-1.553230E+02	  0.066092186	1.779600E+01	  0.066092186	-9.607000E+00
232	  0.066292584	-6.188000E+00	  0.066292584	-1.564240E+02	  0.066292584	1.774800E+01	  0.066292584	-9.168000E+00
233	  0.066492982	-6.187000E+00	  0.066492982	-1.575400E+02	  0.066492982	1.768400E+01	  0.066492982	-8.727000E+00
234	  0.066693388	-6.190000E+00	  0.066693388	-1.585890E+02	  0.066693388	1.763700E+01	  0.066693388	-8.311000E+00
235	  0.066893786	-6.192000E+00	  0.066893786	-1.596910E+02	  0.066893786	1.758700E+01	  0.066893786	-7.877000E+00
236	  0.067094192	-6.197000E+00	  0.067094192	-1.607440E+02	  0.067094192	1.755100E+01	  0.067094192	-7.462000E+00
237	  0.067294590	-6.197000E+00	  0.067294590	-1.618190E+02	  0.067294590	1.750200E+01	  0.067294590	-7.041000E+00
238	  0.067494988	-6.197000E+00	  0.067494988	-1.628470E+02	  0.067494988	1.745900E+01	  0.067494988	-6.639000E+00
239	  0.067695394	-6.195000E+00	  0.067695394	-1.638780E+02	  0.067695394	1.741500E+01	  0.067695394	-6.237000E+00
240	  0.067895792	-6.196000E+00	  0.067895792	-1.649300E+02	  0.067895792	1.737900E+01	  0.067895792	-5.826000E+00
241	  0.068096191	-6.198000E+00	  0.068096191	-1.659690E+02	  0.068096191	1.734800E+01	  0.068096191	-5.421000E+00
242	  0.068296596	-6.204000E+00	  0.068296596	-1.669890E+02	  0.068296596	1.733200E+01	  0.068296596	-5.024000E+00
243	  0.068496995	-6.207000E+00	  0.068496995	-1.680090E+02	  0.068496995	1.731000E+01	  0.068496995	-4.627000E+00
244	  0.068697393	-6.207000E+00	  0.068697393	-1.690550E+02	  0.068697393	1.728200E+01	  0.068697393	-4.222000E+00
245	  0.068897791	-6.209000E+00	  0.068897791	-1.700380E+02	  0.068897791	1.726200E+01	  0.068897791	-3.841000E+00
246	  0.069098189	-6.215000E+00	  0.069098189	-1.710410E+02	  0.069098189	1.725500E+01	  0.069098189	-3.452000E+00
247	  0.069298595	-6.211000E+00	  0.069298595	-1.720670E+02	  0.069298595	1.722500E+01	  0.069298595	-3.056000E+00
248	  0.069498993	-6.220000E+00	  0.069498993	-1.730570E+02	  0.069498993	1.723100E+01	  0.069498993	-2.673000E+00
249	  0.069699399	-6.222000E+00	  0.069699399	-1.740250E+02	  0.069699399	1.722300E+01	  0.069699399	-2.300000E+00
250	  0.069899797	-6.233000E+00	  0.069899797	-1.750310E+02	  0.069899797	1.723600E+01	  0.069899797	-1.911000E+00
251	  0.070100196	-6.235000E+00	  0.070100196	-1.760020E+02	  0.070100196	1.723100E+01	  0.070100196	-1.537000E+00
252	  0.070300601	-6.244000E+00	  0.070300601	-1.769980E+02	  0.070300601	1.724700E+01	  0.070300601	-1.154000E+00
253	  0.070501000	-6.244000E+00	  0.070501000	-1.779820E+02	  0.070501000	1.724100E+01	  0.070501000	-7.750000E-01
254	  0.070701398	-6.255000E+00	  0.070701398	-1.789460E+02	  0.070701398	1.726600E+01	  0.070701398	-4.040000E-01
255	  0.070901804	-6.258000E+00	  0.070901804	-1.799360E+02	  0.070901804	1.727200E+01	  0.070901804	-2.400000E-02
256	  0.071102202	-6.263000E+00	  0.071102202	1.790650E+02	  0.071102202	1.728600E+01	  0.071102202	3.590000E-01
257	  0.071302600	-6.269000E+00	  0.071302600	1.781050E+02	  0.071302600	1.730400E+01	  0.071302600	7.270000E-01
258	  0.071503006	-6.278000E+00	  0.071503006	1.771190E+02	  0.071503006	1.733100E+01	  0.071503006	1.106000E+00
259	  0.071703404	-6.282000E+00	  0.071703404	1.761290E+02	  0.071703404	1.735100E+01	  0.071703404	1.486000E+00
260	  0.071903802	-6.290000E+00	  0.071903802	1.751460E+02	  0.071903802	1.738100E+01	  0.071903802	1.863000E+00
261	  0.072104208	-6.299000E+00	  0.072104208	1.741690E+02	  0.072104208	1.741600E+01	  0.072104208	2.237000E+00
262	  0.072304606	-6.309000E+00	  0.072304606	1.732450E+02	  0.072304606	1.745400E+01	  0.072304606	2.592000E+00
263	  0.072505005	-6.310000E+00	  0.072505005	1.723020E+02	  0.072505005	1.747300E+01	  0.072505005	2.954000E+00
264	  0.072705410	-6.309000E+00	  0.072705410	1.713220E+02	  0.072705410	1.749000E+01	  0.072705410	3.331000E+00
265	  0.072905809	-6.319000E+00	  0.072905809	1.703580E+02	  0.072905809	1.753500E+01	  0.072905809	3.701000E+00
266	  0.073106214	-6.326000E+00	  0.073106214	1.694040E+02	  0.073106214	1.757500E+01	  0.073106214	4.067000E+00
267	  0.073306613	-6.331000E+00	  0.073306613	1.684740E+02	  0.073306613	1.761400E+01	  0.073306613	4.425000E+00
268	  0.073507011	-6.336000E+00	  0.073507011	1.675570E+02	  0.073507011	1.765000E+01	  0.073507011	4.778000E+00
269	  0.073707417	-6.340000E+00	  0.073707417	1.666110E+02	  0.073707417	1.769000E+01	  0.073707417	5.142000E+00
270	  0.073907815	-6.344000E+00	  0.073907815	1.656940E+02	  0.073907815	1.773200E+01	  0.073907815	5.495000E+00
271	  0.074108213	-6.347000E+00	  0.074108213	1.647840E+02	  0.074108213	1.777200E+01	  0.074108213	5.847000E+00
272	  0.074308619	-6.354000E+00	  0.074308619	1.638640E+02	  0.074308619	1.782200E+01	  0.074308619	6.202000E+00
273	  0.074509017	-6.367000E+00	  0.074509017	1.629530E+02	  0.074509017	1.789100E+01	  0.074509017	6.552000E+00
274	  0.074709415	-6.375000E+00	  0.074709415	1.620400E+02	  0.074709415	1.795100E+01	  0.074709415	6.904000E+00
275	  0.074909821	-6.381000E+00	  0.074909821	1.611290E+02	  0.074909821	1.800700E+01	  0.074909821	7.256000E+00
276	  0.075110219	-6.388000E+00	  0.075110219	1.602590E+02	  0.075110219	1.806700E+01	  0.075110219	7.592000E+00
277	  0.075310618	-6.400000E+00	  0.075310618	1.593450E+02	  0.075310618	1.814200E+01	  0.075310618	7.945000E+00
278	  0.075511023	-6.409000E+00	  0.075511023	1.584370E+02	  0.075511023	1.821100E+01	  0.075511023	8.296000E+00
279	  0.075711422	-6.416000E+00	  0.075711422	1.575470E+02	  0.075711422	1.827900E+01	  0.075711422	8.641000E+00
280	  0.075911827	-6.430000E+00	  0.075911827	1.566490E+02	  0.075911827	1.836400E+01	  0.075911827	8.988000E+00
281	  0.076112226	-6.433000E+00	  0.076112226	1.557680E+02	  0.076112226	1.842400E+01	  0.076112226	9.332000E+00
282	  0.076312624	-6.443000E+00	  0.076312624	1.548800E+02	  0.076312624	1.850400E+01	  0.076312624	9.676000E+00
283	  0.076513030	-6.456000E+00	  0.076513030	1.540050E+02	  0.076513030	1.859400E+01	  0.076513030	1.001500E+01
284	  0.076713428	-6.462000E+00	  0.076713428	1.531030E+02	  0.076713428	1.867000E+01	  0.076713428	1.036800E+01
285	  0.076913826	-6.474000E+00	  0.076913826	1.522280E+02	  0.076913826	1.876000E+01	  0.076913826	1.070700E+01
286	  0.077114232	-6.485000E+00	  0.077114232	1.513730E+02	  0.077114232	1.885000E+01	  0.077114232	1.104000E+01
287	  0.077314630	-6.495000E+00	  0.077314630	1.505050E+02	  0.077314630	1.894000E+01	  0.077314630	1.137900E+01
288	  0.077515028	-6.509000E+00	  0.077515028	1.496490E+02	  0.077515028	1.904200E+01	  0.077515028	1.171100E+01
289	  0.077715434	-6.524000E+00	  0.077715434	1.488150E+02	  0.077715434	1.914700E+01	  0.077715434	1.203500E+01
290	  0.077915832	-6.534000E+00	  0.077915832	1.479370E+02	  0.077915832	1.924600E+01	  0.077915832	1.237900E+01
291	  0.078116231	-6.550000E+00	  0.078116231	1.470790E+02	  0.078116231	1.936100E+01	  0.078116231	1.271200E+01
292	  0.078316636	-6.562000E+00	  0.078316636	1.462270E+02	  0.078316636	1.946600E+01	  0.078316636	1.304600E+01
293	  0.078517035	-6.576000E+00	  0.078517035	1.453400E+02	  0.078517035	1.958500E+01	  0.078517035	1.339200E+01
294	  0.078717433	-6.582000E+00	  0.078717433	1.444750E+02	  0.078717433	1.968000E+01	  0.078717433	1.373600E+01
295	  0.078917839	-6.597000E+00	  0.078917839	1.436890E+02	  0.078917839	1.979400E+01	  0.078917839	1.404200E+01
296	  0.079118237	-6.612000E+00	  0.079118237	1.428130E+02	  0.079118237	1.992000E+01	  0.079118237	1.438500E+01
297	  0.079318643	-6.621000E+00	  0.079318643	1.419790E+02	  0.079318643	2.003100E+01	  0.079318643	1.471600E+01
298	  0.079519041	-6.637000E+00	  0.079519041	1.411570E+02	  0.079519041	2.015800E+01	  0.079519041	1.503700E+01
299	  0.079719439	-6.656000E+00	  0.079719439	1.402850E+02	  0.079719439	2.030200E+01	  0.079719439	1.537800E+01
300	  0.079919845	-6.674000E+00	  0.079919845	1.394840E+02	  0.079919845	2.043800E+01	  0.079919845	1.569000E+01
301	  0.080120243	-6.690000E+00	  0.080120243	1.386490E+02	  0.080120243	2.057600E+01	  0.080120243	1.601800E+01
302	  0.080320641	-6.714000E+00	  0.080320641	1.378210E+02	  0.080320641	2.073900E+01	  0.080320641	1.633600E+01
303	  0.080521047	-6.732000E+00	  0.080521047	1.369670E+02	  0.080521047	2.088800E+01	  0.080521047	1.667100E+01
304	  0.080721445	-6.750000E+00	  0.080721445	1.361540E+02	  0.080721445	2.103900E+01	  0.080721445	1.698800E+01
305	  0.080921844	-6.768000E+00	  0.080921844	1.352900E+02	  0.080921844	2.119700E+01	  0.080921844	1.732700E+01
306	  0.081122249	-6.783000E+00	  0.081122249	1.344440E+02	  0.081122249	2.134500E+01	  0.081122249	1.766300E+01
307	  0.081322648	-6.802000E+00	  0.081322648	1.336140E+02	  0.081322648	2.150800E+01	  0.081322648	1.798700E+01
308	  0.081523046	-6.819000E+00	  0.081523046	1.327620E+02	  0.081523046	2.167000E+01	  0.081523046	1.832400E+01
309	  0.081723452	-6.831000E+00	  0.081723452	1.319640E+02	  0.081723452	2.181600E+01	  0.081723452	1.864200E+01
310	  0.081923850	-6.851000E+00	  0.081923850	1.311690E+02	  0.081923850	2.198500E+01	  0.081923850	1.895300E+01
311	  0.082124248	-6.873000E+00	  0.082124248	1.304050E+02	  0.082124248	2.215800E+01	  0.082124248	1.924800E+01
312	  0.082324654	-6.884000E+00	  0.082324654	1.295990E+02	  0.082324654	2.230800E+01	  0.082324654	1.957300E+01
313	  0.082525052	-6.901000E+00	  0.082525052	1.288080E+02	  0.082525052	2.247900E+01	  0.082525052	1.988400E+01
314	  0.082725458	-6.925000E+00	  0.082725458	1.280350E+02	  0.082725458	2.266700E+01	  0.082725458	2.018200E+01
315	  0.082925856	-6.947000E+00	  0.082925856	1.272910E+02	  0.082925856	2.284600E+01	  0.082925856	2.047000E+01
316	  0.083126254	-6.967000E+00	  0.083126254	1.265130E+02	  0.083126254	2.303100E+01	  0.083126254	2.077400E+01
317	  0.083326660	-6.993000E+00	  0.083326660	1.257620E+02	  0.083326660	2.322800E+01	  0.083326660	2.106000E+01
318	  0.083527058	-7.014000E+00	  0.083527058	1.249300E+02	  0.083527058	2.343100E+01	  0.083527058	2.138600E+01
319	  0.083727457	-7.035000E+00	  0.083727457	1.241740E+02	  0.083727457	2.362200E+01	  0.083727457	2.168000E+01
320	  0.083927862	-7.055000E+00	  0.083927862	1.234020E+02	  0.083927862	2.381700E+01	  0.083927862	2.198100E+01
321	  0.084128261	-7.071000E+00	  0.084128261	1.226670E+02	  0.084128261	2.399700E+01	  0.084128261	2.227100E+01
322	  0.084328659	-7.098000E+00	  0.084328659	1.218950E+02	  0.084328659	2.422000E+01	  0.084328659	2.256400E+01
323	  0.084529065	-7.117000E+00	  0.084529065	1.211630E+02	  0.084529065	2.441200E+01	  0.084529065	2.285000E+01
324	  0.084729463	-7.138000E+00	  0.084729463	1.203970E+02	  0.084729463	2.462200E+01	  0.084729463	2.314700E+01
325	  0.084929861	-7.164000E+00	  0.084929861	1.196770E+02	  0.084929861	2.484000E+01	  0.084929861	2.341800E+01
326	  0.085130267	-7.184000E+00	  0.085130267	1.189460E+02	  0.085130267	2.504600E+01	  0.085130267	2.370100E+01
327	  0.085330658	-7.214000E+00	  0.085330658	1.181950E+02	  0.085330658	2.528700E+01	  0.085330658	2.397900E+01
328	  0.085531056	-7.238000E+00	  0.085531056	1.174980E+02	  0.085531056	2.550400E+01	  0.085531056	2.424100E+01
329	  0.085731462	-7.261000E+00	  0.085731462	1.167870E+02	  0.085731462	2.572200E+01	  0.085731462	2.451100E+01
330	  0.085931860	-7.294000E+00	  0.085931860	1.160020E+02	  0.085931860	2.599000E+01	  0.085931860	2.479700E+01
331	  0.086132258	-7.314000E+00	  0.086132258	1.152510E+02	  0.086132258	2.621800E+01	  0.086132258	2.508600E+01
332	  0.086332664	-7.338000E+00	  0.086332664	1.145080E+02	  0.086332664	2.645800E+01	  0.086332664	2.536600E+01
333	  0.086533062	-7.360000E+00	  0.086533062	1.137700E+02	  0.086533062	2.669400E+01	  0.086533062	2.564700E+01
334	  0.086733460	-7.382000E+00	  0.086733460	1.130330E+02	  0.086733460	2.693300E+01	  0.086733460	2.592700E+01
335	  0.086933866	-7.403000E+00	  0.086933866	1.123500E+02	  0.086933866	2.716100E+01	  0.086933866	2.618400E+01
336	  0.087134264	-7.427000E+00	  0.087134264	1.116340E+02	  0.087134264	2.740700E+01	  0.087134264	2.645100E+01
337	  0.087334670	-7.446000E+00	  0.087334670	1.109640E+02	  0.087334670	2.763400E+01	  0.087334670	2.670400E+01
338	  0.087535068	-7.473000E+00	  0.087535068	1.102820E+02	  0.087535068	2.788600E+01	  0.087535068	2.695000E+01
339	  0.087735467	-7.497000E+00	  0.087735467	1.095900E+02	  0.087735467	2.813700E+01	  0.087735467	2.720400E+01
340	  0.087935872	-7.519000E+00	  0.087935872	1.089430E+02	  0.087935872	2.837400E+01	  0.087935872	2.744100E+01
341	  0.088136271	-7.547000E+00	  0.088136271	1.082920E+02	  0.088136271	2.863200E+01	  0.088136271	2.766800E+01
342	  0.088336669	-7.582000E+00	  0.088336669	1.076750E+02	  0.088336669	2.890100E+01	  0.088336669	2.786800E+01
343	  0.088537075	-7.606000E+00	  0.088537075	1.069570E+02	  0.088537075	2.917300E+01	  0.088537075	2.812900E+01
344	  0.088737473	-7.634000E+00	  0.088737473	1.062850E+02	  0.088737473	2.944400E+01	  0.088737473	2.836200E+01
345	  0.088937871	-7.662000E+00	  0.088937871	1.056140E+02	  0.088937871	2.972200E+01	  0.088937871	2.859100E+01
346	  0.089138277	-7.689000E+00	  0.089138277	1.049590E+02	  0.089138277	2.999200E+01	  0.089138277	2.881800E+01
347	  0.089338675	-7.717000E+00	  0.089338675	1.042870E+02	  0.089338675	3.027600E+01	  0.089338675	2.904500E+01
348	  0.089539073	-7.747000E+00	  0.089539073	1.036420E+02	  0.089539073	3.055900E+01	  0.089539073	2.925700E+01
349	  0.089739479	-7.771000E+00	  0.089739479	1.030070E+02	  0.089739479	3.082400E+01	  0.089739479	2.947700E+01
350	  0.089939877	-7.792000E+00	  0.089939877	1.023480E+02	  0.089939877	3.109500E+01	  0.089939877	2.970900E+01
351	  0.090140276	-7.826000E+00	  0.090140276	1.017250E+02	  0.090140276	3.139300E+01	  0.090140276	2.989800E+01
352	  0.090340681	-7.854000E+00	  0.090340681	1.010900E+02	  0.090340681	3.168000E+01	  0.090340681	3.010300E+01
353	  0.090541080	-7.886000E+00	  0.090541080	1.004780E+02	  0.090541080	3.197200E+01	  0.090541080	3.029000E+01
354	  0.090741485	-7.919000E+00	  0.090741485	9.985400E+01	  0.090741485	3.227600E+01	  0.090741485	3.047600E+01
355	  0.090941884	-7.950000E+00	  0.090941884	9.923300E+01	  0.090941884	3.257500E+01	  0.090941884	3.066400E+01
356	  0.091142282	-7.983000E+00	  0.091142282	9.860200E+01	  0.091142282	3.288800E+01	  0.091142282	3.084900E+01
357	  0.091342688	-8.012000E+00	  0.091342688	9.797400E+01	  0.091342688	3.319100E+01	  0.091342688	3.103900E+01
358	  0.091543086	-8.040000E+00	  0.091543086	9.733600E+01	  0.091543086	3.349700E+01	  0.091543086	3.123600E+01
359	  0.091743484	-8.062000E+00	  0.091743484	9.671500E+01	  0.091743484	3.378700E+01	  0.091743484	3.143600E+01
360	  0.091943890	-8.086000E+00	  0.091943890	9.610500E+01	  0.091943890	3.407800E+01	  0.091943890	3.162800E+01
361	  0.092144288	-8.113000E+00	  0.092144288	9.553300E+01	  0.092144288	3.436900E+01	  0.092144288	3.179200E+01
362	  0.092344686	-8.134000E+00	  0.092344686	9.498300E+01	  0.092344686	3.463500E+01	  0.092344686	3.196300E+01
363	  0.092545092	-8.155000E+00	  0.092545092	9.439500E+01	  0.092545092	3.492100E+01	  0.092545092	3.214600E+01
364	  0.092745490	-8.179000E+00	  0.092745490	9.384000E+01	  0.092745490	3.520300E+01	  0.092745490	3.230800E+01
365	  0.092945889	-8.208000E+00	  0.092945889	9.331900E+01	  0.092945889	3.548900E+01	  0.092945889	3.243900E+01
366	  0.093146294	-8.232000E+00	  0.093146294	9.275700E+01	  0.093146294	3.577800E+01	  0.093146294	3.260100E+01
367	  0.093346693	-8.268000E+00	  0.093346693	9.229900E+01	  0.093346693	3.606000E+01	  0.093346693	3.268600E+01
368	  0.093547091	-8.287000E+00	  0.093547091	9.176900E+01	  0.093547091	3.632800E+01	  0.093547091	3.284400E+01
369	  0.093747497	-8.317000E+00	  0.093747497	9.127900E+01	  0.093747497	3.661200E+01	  0.093747497	3.295300E+01
370	  0.093947895	-8.342000E+00	  0.093947895	9.071500E+01	  0.093947895	3.691600E+01	  0.093947895	3.310300E+01
371	  0.094148301	-8.372000E+00	  0.094148301	9.021500E+01	  0.094148301	3.720700E+01	  0.094148301	3.321300E+01
372	  0.094348699	-8.400000E+00	  0.094348699	8.967400E+01	  0.094348699	3.751300E+01	  0.094348699	3.334100E+01
373	  0.094549097	-8.433000E+00	  0.094549097	8.920800E+01	  0.094549097	3.780100E+01	  0.094549097	3.342500E+01
374	  0.094749503	-8.453000E+00	  0.094749503	8.870400E+01	  0.094749503	3.807500E+01	  0.094749503	3.355700E+01
375	  0.094949901	-8.475000E+00	  0.094949901	8.822800E+01	  0.094949901	3.834300E+01	  0.094949901	3.367400E+01
376	  0.095150299	-8.497000E+00	  0.095150299	8.773900E+01	  0.095150299	3.862000E+01	  0.095150299	3.379000E+01
377	  0.095350705	-8.521000E+00	  0.095350705	8.723900E+01	  0.095350705	3.890900E+01	  0.095350705	3.390400E+01
378	  0.095551103	-8.549000E+00	  0.095551103	8.680600E+01	  0.095551103	3.917700E+01	  0.095551103	3.398100E+01
379	  0.095751502	-8.575000E+00	  0.095751502	8.632500E+01	  0.095751502	3.946400E+01	  0.095751502	3.407900E+01
380	  0.095951907	-8.602000E+00	  0.095951907	8.584900E+01	  0.095951907	3.975500E+01	  0.095951907	3.416700E+01
381	  0.096152306	-8.622000E+00	  0.096152306	8.543700E+01	  0.096152306	3.999800E+01	  0.096152306	3.425600E+01
382	  0.096352704	-8.649000E+00	  0.096352704	8.491800E+01	  0.096352704	4.031300E+01	  0.096352704	3.435500E+01
383	  0.096553110	-8.672000E+00	  0.096553110	8.446000E+01	  0.096553110	4.058900E+01	  0.096553110	3.444600E+01
384	  0.096753508	-8.697000E+00	  0.096753508	8.393400E+01	  0.096753508	4.090500E+01	  0.096753508	3.455300E+01
385	  0.096953906	-8.715000E+00	  0.096953906	8.350200E+01	  0.096953906	4.116200E+01	  0.096953906	3.464400E+01
386	  0.097154312	-8.736000E+00	  0.097154312	8.308500E+01	  0.097154312	4.141700E+01	  0.097154312	3.472200E+01
387	  0.097354710	-8.748000E+00	  0.097354710	8.265600E+01	  0.097354710	4.166100E+01	  0.097354710	3.483100E+01
388	  0.097555116	-8.762000E+00	  0.097555116	8.220500E+01	  0.097555116	4.192400E+01	  0.097555116	3.493600E+01
389	  0.097755514	-8.785000E+00	  0.097755514	8.175900E+01	  0.097755514	4.220400E+01	  0.097755514	3.501200E+01
390	  0.097955912	-8.792000E+00	  0.097955912	8.133400E+01	  0.097955912	4.244000E+01	  0.097955912	3.513100E+01
391	  0.098156318	-8.808000E+00	  0.098156318	8.093500E+01	  0.098156318	4.268400E+01	  0.098156318	3.521000E+01
392	  0.098356716	-8.824000E+00	  0.098356716	8.052300E+01	  0.098356716	4.293500E+01	  0.098356716	3.529400E+01
393	  0.098557115	-8.834000E+00	  0.098557115	8.014000E+01	  0.098557115	4.316000E+01	  0.098557115	3.538600E+01
394	  0.098757520	-8.844000E+00	  0.098757520	7.972600E+01	  0.098757520	4.340400E+01	  0.098757520	3.548600E+01
395	  0.098957919	-8.862000E+00	  0.098957919	7.932400E+01	  0.098957919	4.366000E+01	  0.098957919	3.555200E+01
396	  0.099158317	-8.873000E+00	  0.099158317	7.889100E+01	  0.099158317	4.392000E+01	  0.099158317	3.565100E+01
397	  0.099358723	-8.882000E+00	  0.099358723	7.850000E+01	  0.099358723	4.415200E+01	  0.099358723	3.574500E+01
398	  0.099559121	-8.896000E+00	  0.099559121	7.807300E+01	  0.099559121	4.441800E+01	  0.099559121	3.582900E+01
399	  0.099759519	-8.901000E+00	  0.099759519	7.766900E+01	  0.099759519	4.465400E+01	  0.099759519	3.593800E+01
400	  0.099959925	-8.903000E+00	  0.099959925	7.724400E+01	  0.099959925	4.489700E+01	  0.099959925	3.606500E+01
401	  0.100160323	-8.918000E+00	  0.100160323	7.680200E+01	  0.100160323	4.517900E+01	  0.100160323	3.614300E+01
402	  0.100360721	-8.905000E+00	  0.100360721	7.638400E+01	  0.100360721	4.539100E+01	  0.100360721	3.632200E+01
403	  0.100561127	-8.914000E+00	  0.100561127	7.594500E+01	  0.100561127	4.566300E+01	  0.100561127	3.642300E+01
404	  0.100761525	-8.909000E+00	  0.100761525	7.557700E+01	  0.100761525	4.586800E+01	  0.100761525	3.655200E+01
405	  0.100961931	-8.920000E+00	  0.100961931	7.512500E+01	  0.100961931	4.615500E+01	  0.100961931	3.664700E+01
406	  0.101162329	-8.924000E+00	  0.101162329	7.472100E+01	  0.101162329	4.640300E+01	  0.101162329	3.674900E+01
407	  0.101362728	-8.924000E+00	  0.101362728	7.427000E+01	  0.101362728	4.667400E+01	  0.101362728	3.688100E+01
408	  0.101563133	-8.929000E+00	  0.101563133	7.382300E+01	  0.101563133	4.695300E+01	  0.101563133	3.699200E+01
409	  0.101763532	-8.920000E+00	  0.101763532	7.345800E+01	  0.101763532	4.715800E+01	  0.101763532	3.713400E+01
410	  0.101963930	-8.917000E+00	  0.101963930	7.297700E+01	  0.101963930	4.744700E+01	  0.101963930	3.728600E+01
411	  0.102164336	-8.920000E+00	  0.102164336	7.254700E+01	  0.102164336	4.771900E+01	  0.102164336	3.739800E+01
412	  0.102364734	-8.912000E+00	  0.102364734	7.215200E+01	  0.102364734	4.795300E+01	  0.102364734	3.753900E+01
413	  0.102565132	-8.908000E+00	  0.102565132	7.168900E+01	  0.102565132	4.823700E+01	  0.102565132	3.768600E+01
414	  0.102765530	-8.895000E+00	  0.102765530	7.122200E+01	  0.102765530	4.851200E+01	  0.102765530	3.786800E+01
415	  0.102965929	-8.887000E+00	  0.102965929	7.077000E+01	  0.102965929	4.878800E+01	  0.102965929	3.802800E+01
416	  0.103166327	-8.868000E+00	  0.103166327	7.030600E+01	  0.103166327	4.905500E+01	  0.103166327	3.823800E+01
417	  0.103366733	-8.862000E+00	  0.103366733	6.990900E+01	  0.103366733	4.930600E+01	  0.103366733	3.837200E+01
418	  0.103567131	-8.853000E+00	  0.103567131	6.947600E+01	  0.103567131	4.957700E+01	  0.103567131	3.852600E+01
419	  0.103767529	-8.842000E+00	  0.103767529	6.900500E+01	  0.103767529	4.987400E+01	  0.103767529	3.869800E+01
420	  0.103967935	-8.824000E+00	  0.103967935	6.861000E+01	  0.103967935	5.010900E+01	  0.103967935	3.888500E+01
421	  0.104168333	-8.827000E+00	  0.104168333	6.814200E+01	  0.104168333	5.043600E+01	  0.104168333	3.898900E+01
422	  0.104368731	-8.803000E+00	  0.104368731	6.768000E+01	  0.104368731	5.071400E+01	  0.104368731	3.921700E+01
423	  0.104569137	-8.791000E+00	  0.104569137	6.723200E+01	  0.104569137	5.100600E+01	  0.104569137	3.938800E+01
424	  0.104769535	-8.788000E+00	  0.104769535	6.671700E+01	  0.104769535	5.136300E+01	  0.104769535	3.953300E+01
425	  0.104969934	-8.773000E+00	  0.104969934	6.626100E+01	  0.104969934	5.166500E+01	  0.104969934	3.971400E+01
426	  0.105170339	-8.761000E+00	  0.105170339	6.575800E+01	  0.105170339	5.200700E+01	  0.105170339	3.989500E+01
427	  0.105370738	-8.734000E+00	  0.105370738	6.530100E+01	  0.105370738	5.229700E+01	  0.105370738	4.013700E+01
428	  0.105571143	-8.729000E+00	  0.105571143	6.476600E+01	  0.105571143	5.268300E+01	  0.105571143	4.028700E+01
429	  0.105771542	-8.706000E+00	  0.105771542	6.433000E+01	  0.105771542	5.297300E+01	  0.105771542	4.050100E+01
430	  0.105971940	-8.691000E+00	  0.105971940	6.381300E+01	  0.105971940	5.333900E+01	  0.105971940	4.069500E+01
431	  0.106172346	-8.676000E+00	  0.106172346	6.328500E+01	  0.106172346	5.372000E+01	  0.106172346	4.088900E+01
432	  0.106372744	-8.658000E+00	  0.106372744	6.280400E+01	  0.106372744	5.406500E+01	  0.106372744	4.108600E+01
433	  0.106573142	-8.644000E+00	  0.106573142	6.230500E+01	  0.106573142	5.443400E+01	  0.106573142	4.126800E+01
434	  0.106773548	-8.616000E+00	  0.106773548	6.175000E+01	  0.106773548	5.483100E+01	  0.106773548	4.153400E+01
435	  0.106973946	-8.598000E+00	  0.106973946	6.117300E+01	  0.106973946	5.526900E+01	  0.106973946	4.175000E+01
436	  0.107174344	-8.574000E+00	  0.107174344	6.066300E+01	  0.107174344	5.564800E+01	  0.107174344	4.198500E+01
437	  0.107374750	-8.558000E+00	  0.107374750	6.009300E+01	  0.107374750	5.609700E+01	  0.107374750	4.218300E+01
438	  0.107575148	-8.543000E+00	  0.107575148	5.952900E+01	  0.107575148	5.654500E+01	  0.107575148	4.237800E+01
439	  0.107775547	-8.516000E+00	  0.107775547	5.894100E+01	  0.107775547	5.700700E+01	  0.107775547	4.263800E+01
440	  0.107975952	-8.512000E+00	  0.107975952	5.834200E+01	  0.107975952	5.751400E+01	  0.107975952	4.276800E+01
441	  0.108176351	-8.481000E+00	  0.108176351	5.774400E+01	  0.108176351	5.799600E+01	  0.108176351	4.305000E+01
442	  0.108376749	-8.469000E+00	  0.108376749	5.718800E+01	  0.108376749	5.847000E+01	  0.108376749	4.321500E+01
443	  0.108577155	-8.448000E+00	  0.108577155	5.654300E+01	  0.108577155	5.902000E+01	  0.108577155	4.344200E+01
444	  0.108777553	-8.431000E+00	  0.108777553	5.595500E+01	  0.108777553	5.953200E+01	  0.108777553	4.363400E+01
445	  0.108977959	-8.409000E+00	  0.108977959	5.532100E+01	  0.108977959	6.009000E+01	  0.108977959	4.385800E+01
446	  0.109178357	-8.403000E+00	  0.109178357	5.464400E+01	  0.109178357	6.071100E+01	  0.109178357	4.399100E+01
447	  0.109378755	-8.386000E+00	  0.109378755	5.401100E+01	  0.109378755	6.129200E+01	  0.109378755	4.417400E+01
448	  0.109579161	-8.373000E+00	  0.109579161	5.331500E+01	  0.109579161	6.194400E+01	  0.109579161	4.433400E+01
449	  0.109779559	-8.355000E+00	  0.109779559	5.266400E+01	  0.109779559	6.256000E+01	  0.109779559	4.451700E+01
450	  0.109979957	-8.345000E+00	  0.109979957	5.196800E+01	  0.109979957	6.323500E+01	  0.109979957	4.464400E+01
451	  0.110180363	-8.333000E+00	  0.110180363	5.124300E+01	  0.110180363	6.394800E+01	  0.110180363	4.478300E+01
452	  0.110380761	-8.327000E+00	  0.110380761	5.049400E+01	  0.110380761	6.470000E+01	  0.110380761	4.487300E+01
453	  0.110581160	-8.312000E+00	  0.110581160	4.974100E+01	  0.110581160	6.546400E+01	  0.110581160	4.501200E+01
454	  0.110781565	-8.302000E+00	  0.110781565	4.902700E+01	  0.110781565	6.620100E+01	  0.110781565	4.510000E+01
455	  0.110981964	-8.296000E+00	  0.110981964	4.828400E+01	  0.110981964	6.698000E+01	  0.110981964	4.515800E+01
456	  0.111182362	-8.285000E+00	  0.111182362	4.753100E+01	  0.111182362	6.778100E+01	  0.111182362	4.523300E+01
457	  0.111382768	-8.272000E+00	  0.111382768	4.681300E+01	  0.111382768	6.855600E+01	  0.111382768	4.531200E+01
458	  0.111583166	-8.259000E+00	  0.111583166	4.606700E+01	  0.111583166	6.937300E+01	  0.111583166	4.538500E+01
459	  0.111783572	-8.254000E+00	  0.111783572	4.522200E+01	  0.111783572	7.031000E+01	  0.111783572	4.537600E+01
460	  0.111983970	-8.249000E+00	  0.111983970	4.447800E+01	  0.111983970	7.114500E+01	  0.111983970	4.535200E+01
461	  0.112184368	-8.235000E+00	  0.112184368	4.374800E+01	  0.112184368	7.198100E+01	  0.112184368	4.538600E+01
462	  0.112384774	-8.229000E+00	  0.112384774	4.290600E+01	  0.112384774	7.295300E+01	  0.112384774	4.533100E+01
463	  0.112585172	-8.226000E+00	  0.112585172	4.215100E+01	  0.112585172	7.383100E+01	  0.112585172	4.523700E+01
464	  0.112785570	-8.223000E+00	  0.112785570	4.134100E+01	  0.112785570	7.478400E+01	  0.112785570	4.512600E+01
465	  0.112985976	-8.215000E+00	  0.112985976	4.046500E+01	  0.112985976	7.583300E+01	  0.112985976	4.501500E+01
466	  0.113186374	-8.226000E+00	  0.113186374	3.971000E+01	  0.113186374	7.671800E+01	  0.113186374	4.475400E+01
467	  0.113386773	-8.210000E+00	  0.113386773	3.889300E+01	  0.113386773	7.773000E+01	  0.113386773	4.467200E+01
468	  0.113587178	-8.221000E+00	  0.113587178	3.802300E+01	  0.113587178	7.876700E+01	  0.113587178	4.433800E+01
469	  0.113787577	-8.222000E+00	  0.113787577	3.720800E+01	  0.113787577	7.976100E+01	  0.113787577	4.406500E+01
470	  0.113987975	-8.222000E+00	  0.113987975	3.640200E+01	  0.113987975	8.075400E+01	  0.113987975	4.378700E+01
471	  0.114188381	-8.229000E+00	  0.114188381	3.546600E+01	  0.114188381	8.189300E+01	  0.114188381	4.336300E+01
472	  0.114388779	-8.240000E+00	  0.114388779	3.460600E+01	  0.114388779	8.292900E+01	  0.114388779	4.290700E+01
473	  0.114589177	-8.247000E+00	  0.114589177	3.376900E+01	  0.114589177	8.394900E+01	  0.114589177	4.246700E+01
474	  0.114789583	-8.256000E+00	  0.114789583	3.284600E+01	  0.114789583	8.507000E+01	  0.114789583	4.193300E+01
475	  0.114989981	-8.273000E+00	  0.114989981	3.196800E+01	  0.114989981	8.610100E+01	  0.114989981	4.132000E+01
476	  0.115190387	-8.293000E+00	  0.115190387	3.104300E+01	  0.115190387	8.716900E+01	  0.115190387	4.061700E+01
477	  0.115390785	-8.308000E+00	  0.115390785	3.006800E+01	  0.115390785	8.831100E+01	  0.115390785	3.988900E+01
478	  0.115591183	-8.322000E+00	  0.115591183	2.913500E+01	  0.115591183	8.939100E+01	  0.115591183	3.914900E+01
479	  0.115791589	-8.339000E+00	  0.115791589	2.816700E+01	  0.115791589	9.048800E+01	  0.115791589	3.832100E+01
480	  0.115991987	-8.356000E+00	  0.115991987	2.721000E+01	  0.115991987	9.155500E+01	  0.115991987	3.746100E+01
481	  0.116192386	-8.383000E+00	  0.116192386	2.622700E+01	  0.116192386	9.258400E+01	  0.116192386	3.646300E+01
482	  0.116392791	-8.401000E+00	  0.116392791	2.524900E+01	  0.116392791	9.362400E+01	  0.116392791	3.548900E+01
483	  0.116593190	-8.429000E+00	  0.116593190	2.420500E+01	  0.116593190	9.465500E+01	  0.116593190	3.433900E+01
484	  0.116793588	-8.450000E+00	  0.116793588	2.320700E+01	  0.116793588	9.564900E+01	  0.116793588	3.324500E+01
485	  0.116993994	-8.481000E+00	  0.116993994	2.218400E+01	  0.116993994	9.656300E+01	  0.116993994	3.200500E+01
486	  0.117194392	-8.510000E+00	  0.117194392	2.116500E+01	  0.117194392	9.744700E+01	  0.117194392	3.074900E+01
487	  0.117394790	-8.544000E+00	  0.117394790	2.011000E+01	  0.117394790	9.829100E+01	  0.117394790	2.938200E+01
488	  0.117595196	-8.581000E+00	  0.117595196	1.905600E+01	  0.117595196	9.905700E+01	  0.117595196	2.796000E+01
489	  0.117795594	-8.617000E+00	  0.117795594	1.799900E+01	  0.117795594	9.978500E+01	  0.117795594	2.651200E+01
490	  0.117995992	-8.653000E+00	  0.117995992	1.690900E+01	  0.117995992	1.004750E+02	  0.117995992	2.498700E+01
491	  0.118196398	-8.699000E+00	  0.118196398	1.582400E+01	  0.118196398	1.010290E+02	  0.118196398	2.339500E+01
492	  0.118396796	-8.746000E+00	  0.118396796	1.472700E+01	  0.118396796	1.015110E+02	  0.118396796	2.175800E+01
493	  0.118597202	-8.796000E+00	  0.118597202	1.362000E+01	  0.118597202	1.019040E+02	  0.118597202	2.008100E+01
494	  0.118797600	-8.850000E+00	  0.118797600	1.249700E+01	  0.118797600	1.022070E+02	  0.118797600	1.836000E+01
495	  0.118997999	-8.902000E+00	  0.118997999	1.130600E+01	  0.118997999	1.024910E+02	  0.118997999	1.655100E+01
496	  0.119198404	-8.963000E+00	  0.119198404	1.015900E+01	  0.119198404	1.025900E+02	  0.119198404	1.477000E+01
497	  0.119398803	-9.028000E+00	  0.119398803	9.018000E+00	  0.119398803	1.025690E+02	  0.119398803	1.299700E+01
498	  0.119599201	-9.095000E+00	  0.119599201	7.802000E+00	  0.119599201	1.024890E+02	  0.119599201	1.113700E+01
499	  0.119799607	-9.170000E+00	  0.119799607	6.559000E+00	  0.119799607	1.022590E+02	  0.119799607	9.247000E+00
500	  0.120000005	-9.245000E+00	  0.120000005	5.338000E+00	  0.120000005	1.019430E+02	  0.120000005	7.427000E+00
