! Anritsu VNA Master:             	Model: MS2036C/10/77
! SN:             	1601066
! /bd0/18may26.balun/2a.r50.txt
! Existing Calibration Information:
! TYPE:             	Current Settings	Active Cal Settings
! TIME:             	05/26/2018 07:45:04 PM	05/26/2018 07:26:54 PM
! INTERNAL TEMP:    	45.0 C	45.5 C
! # POINTS:         	500	500
! START FREQ:       	20.000 MHz	20.000 MHz
! STOP FREQ:        	120.000 MHz	120.000 MHz
! SOURCE POWER:     	High	High
! IFBW:             	50 Hz	50 Hz
! AVG FACTOR:       	  1 	  1 
! REF PLANE 1:      	0 mm	0 mm
! REF PLANE 2:      	0 mm	0 mm
! CAL TYPE:         	Full S11	Full S11
! CAL METHOD:       	SOLT	SOLT
! CAL LINE TYPE:    	Coax	Coax
! DUT PORT 1:       	K-Conn(M)	K-Conn(M)
! DUT PORT 2:       	K-Conn(M)	K-Conn(M)
! CAL STATUS:       	OK: Accuracy High	--
! PROP-V:       	0.700
! CABLE LOSS:       	0.000 dB/m
! REF IMPEDANCE:       	50.0
! Trace Specific Parameters:	TR1	TR2	TR3	TR4
! TRACE.#.Y (GRAPH TYPE)	LOG MAG	PHASE	REAL IMPEDANCE	IMAGINARY IMPEDANCE
! TRACE.#.X 	FREQ.GHZ	FREQ.GHZ	FREQ.GHZ	FREQ.GHZ
! S-PARAMETER	S11	S11	S11	S11
! SMOOTH/APERTURE %	0	0	0	0
! WINDOW	NSL	NSL	NSL	NSL
! GATING	OFF	OFF	OFF	OFF
! FGTD	OFF	OFF	OFF	OFF
Marker Information per Trace:	TR1	TR2	TR3	TR4
!MK1	--	--	--	--
!MK2	--	--	--	--
!MK3	--	--	--	--
!MK4	--	--	--	--
!MK5	--	--	--	--
!MK6	--	--	--	--
!MK7	--	--	--	--
!MK8	--	--	--	--
PNT	TR1.FREQ.GHZ	TR1.LOG MAG.dB	TR2.FREQ.GHZ	TR2.PHASE.deg	TR3.FREQ.GHZ	TR3.REAL IMPEDANCE.ohm	TR4.FREQ.GHZ	TR4.IMAGINARY IMPEDANCE.ohm
1	  0.020000000	-3.945200E+01	  0.020000000	5.530500E+01	  0.020000000	5.060200E+01	  0.020000000	8.860000E-01
2	  0.020200402	-3.954200E+01	  0.020200402	5.607200E+01	  0.020200402	5.058400E+01	  0.020200402	8.840000E-01
3	  0.020400802	-3.948700E+01	  0.020400802	5.618400E+01	  0.020400802	5.058500E+01	  0.020400802	8.910000E-01
4	  0.020601204	-3.952500E+01	  0.020601204	5.524800E+01	  0.020601204	5.059800E+01	  0.020601204	8.780000E-01
5	  0.020801604	-3.957400E+01	  0.020801604	5.513400E+01	  0.020801604	5.059600E+01	  0.020801604	8.720000E-01
6	  0.021002004	-3.957900E+01	  0.021002004	5.416000E+01	  0.021002004	5.061000E+01	  0.021002004	8.610000E-01
7	  0.021202406	-3.953300E+01	  0.021202406	5.450500E+01	  0.021202406	5.060800E+01	  0.021202406	8.690000E-01
8	  0.021402806	-3.957200E+01	  0.021402806	5.449200E+01	  0.021402806	5.060600E+01	  0.021402806	8.650000E-01
9	  0.021603208	-3.956300E+01	  0.021603208	5.396100E+01	  0.021603208	5.061500E+01	  0.021603208	8.600000E-01
10	  0.021803608	-3.947500E+01	  0.021803608	5.254200E+01	  0.021803608	5.064300E+01	  0.021803608	8.540000E-01
11	  0.022004008	-3.946300E+01	  0.022004008	5.272200E+01	  0.022004008	5.064100E+01	  0.022004008	8.570000E-01
12	  0.022204408	-3.935600E+01	  0.022204408	5.219400E+01	  0.022204408	5.065700E+01	  0.022204408	8.620000E-01
13	  0.022404809	-3.917000E+01	  0.022404809	5.128700E+01	  0.022404809	5.068500E+01	  0.022404809	8.700000E-01
14	  0.022605211	-3.919900E+01	  0.022605211	5.033900E+01	  0.022605211	5.069700E+01	  0.022605211	8.550000E-01
15	  0.022805611	-3.915100E+01	  0.022805611	4.973000E+01	  0.022805611	5.071000E+01	  0.022805611	8.530000E-01
16	  0.023006011	-3.897300E+01	  0.023006011	5.008400E+01	  0.023006011	5.071900E+01	  0.023006011	8.750000E-01
17	  0.023206413	-3.883700E+01	  0.023206413	4.990000E+01	  0.023206413	5.073400E+01	  0.023206413	8.870000E-01
18	  0.023406813	-3.882500E+01	  0.023406813	4.936700E+01	  0.023406813	5.074300E+01	  0.023406813	8.810000E-01
19	  0.023607215	-3.865900E+01	  0.023607215	4.984900E+01	  0.023607215	5.074900E+01	  0.023607215	9.050000E-01
20	  0.023807615	-3.850100E+01	  0.023807615	5.009400E+01	  0.023807615	5.075900E+01	  0.023807615	9.250000E-01
21	  0.024008015	-3.847600E+01	  0.024008015	5.023200E+01	  0.024008015	5.075900E+01	  0.024008015	9.300000E-01
22	  0.024208417	-3.834500E+01	  0.024208417	5.038200E+01	  0.024208417	5.076800E+01	  0.024208417	9.460000E-01
23	  0.024408817	-3.824000E+01	  0.024408817	5.072100E+01	  0.024408817	5.077200E+01	  0.024408817	9.620000E-01
24	  0.024609219	-3.826200E+01	  0.024609219	5.053800E+01	  0.024609219	5.077300E+01	  0.024609219	9.570000E-01
25	  0.024809619	-3.824100E+01	  0.024809619	5.029700E+01	  0.024809619	5.077900E+01	  0.024809619	9.560000E-01
26	  0.025010020	-3.829300E+01	  0.025010020	5.109200E+01	  0.025010020	5.076100E+01	  0.025010020	9.610000E-01
27	  0.025210422	-3.821700E+01	  0.025210422	5.123600E+01	  0.025210422	5.076500E+01	  0.025210422	9.720000E-01
28	  0.025410822	-3.821100E+01	  0.025410822	5.088800E+01	  0.025410822	5.077100E+01	  0.025410822	9.680000E-01
29	  0.025611224	-3.824300E+01	  0.025611224	5.152600E+01	  0.025611224	5.075800E+01	  0.025611224	9.720000E-01
30	  0.025811624	-3.831400E+01	  0.025811624	5.069000E+01	  0.025811624	5.076600E+01	  0.025811624	9.530000E-01
31	  0.026012026	-3.822500E+01	  0.026012026	5.044200E+01	  0.026012026	5.077800E+01	  0.026012026	9.600000E-01
32	  0.026212426	-3.820500E+01	  0.026212426	5.007400E+01	  0.026212426	5.078600E+01	  0.026212426	9.570000E-01
33	  0.026412826	-3.818100E+01	  0.026412826	4.954500E+01	  0.026412826	5.079700E+01	  0.026412826	9.530000E-01
34	  0.026613226	-3.825800E+01	  0.026613226	4.887500E+01	  0.026613226	5.080100E+01	  0.026613226	9.350000E-01
35	  0.026813626	-3.819100E+01	  0.026813626	4.808800E+01	  0.026813626	5.082000E+01	  0.026813626	9.310000E-01
36	  0.027014028	-3.804500E+01	  0.027014028	4.777200E+01	  0.027014028	5.083900E+01	  0.027014028	9.430000E-01
37	  0.027214428	-3.809000E+01	  0.027214428	4.690500E+01	  0.027214428	5.085000E+01	  0.027214428	9.250000E-01
38	  0.027414829	-3.800700E+01	  0.027414829	4.665000E+01	  0.027414829	5.086200E+01	  0.027414829	9.300000E-01
39	  0.027615231	-3.790100E+01	  0.027615231	4.609200E+01	  0.027615231	5.088200E+01	  0.027615231	9.330000E-01
40	  0.027815631	-3.775900E+01	  0.027815631	4.529900E+01	  0.027815631	5.091000E+01	  0.027815631	9.360000E-01
41	  0.028016033	-3.758700E+01	  0.028016033	4.553600E+01	  0.028016033	5.092400E+01	  0.028016033	9.590000E-01
42	  0.028216433	-3.744400E+01	  0.028216433	4.482100E+01	  0.028216433	5.095100E+01	  0.028216433	9.640000E-01
43	  0.028416833	-3.737000E+01	  0.028416833	4.524000E+01	  0.028416833	5.095200E+01	  0.028416833	9.790000E-01
44	  0.028617235	-3.722900E+01	  0.028617235	4.498200E+01	  0.028617235	5.097200E+01	  0.028617235	9.910000E-01
45	  0.028817635	-3.714300E+01	  0.028817635	4.556500E+01	  0.028817635	5.097200E+01	  0.028817635	1.011000E+00
46	  0.029018037	-3.702800E+01	  0.029018037	4.557200E+01	  0.029018037	5.098400E+01	  0.029018037	1.025000E+00
47	  0.029218437	-3.700300E+01	  0.029218437	4.573200E+01	  0.029218437	5.098400E+01	  0.029218437	1.031000E+00
48	  0.029418837	-3.692300E+01	  0.029418837	4.628100E+01	  0.029418837	5.098300E+01	  0.029418837	1.050000E+00
49	  0.029619239	-3.688800E+01	  0.029619239	4.674700E+01	  0.029619239	5.097800E+01	  0.029619239	1.062000E+00
50	  0.029819639	-3.686300E+01	  0.029819639	4.704900E+01	  0.029819639	5.097600E+01	  0.029819639	1.070000E+00
51	  0.030020041	-3.684700E+01	  0.030020041	4.693200E+01	  0.030020041	5.097900E+01	  0.030020041	1.070000E+00
52	  0.030220442	-3.681800E+01	  0.030220442	4.744200E+01	  0.030220442	5.097300E+01	  0.030220442	1.083000E+00
53	  0.030420844	-3.682200E+01	  0.030420844	4.759300E+01	  0.030420844	5.097000E+01	  0.030420844	1.085000E+00
54	  0.030621244	-3.685900E+01	  0.030621244	4.751000E+01	  0.030621244	5.096700E+01	  0.030621244	1.079000E+00
55	  0.030821644	-3.687500E+01	  0.030821644	4.724500E+01	  0.030821644	5.097000E+01	  0.030821644	1.072000E+00
56	  0.031022044	-3.685000E+01	  0.031022044	4.747100E+01	  0.031022044	5.096900E+01	  0.031022044	1.079000E+00
57	  0.031222444	-3.691200E+01	  0.031222444	4.742800E+01	  0.031222444	5.096300E+01	  0.031222444	1.071000E+00
58	  0.031422846	-3.686300E+01	  0.031422846	4.754800E+01	  0.031422846	5.096600E+01	  0.031422846	1.079000E+00
59	  0.031623244	-3.687200E+01	  0.031623244	4.605900E+01	  0.031623244	5.099300E+01	  0.031623244	1.052000E+00
60	  0.031823646	-3.688300E+01	  0.031823646	4.578200E+01	  0.031823646	5.099700E+01	  0.031823646	1.046000E+00
61	  0.032024048	-3.684900E+01	  0.032024048	4.574400E+01	  0.032024048	5.100200E+01	  0.032024048	1.050000E+00
62	  0.032224450	-3.672300E+01	  0.032224450	4.513100E+01	  0.032224450	5.102800E+01	  0.032224450	1.054000E+00
63	  0.032424849	-3.677100E+01	  0.032424849	4.437900E+01	  0.032424849	5.103600E+01	  0.032424849	1.035000E+00
64	  0.032625251	-3.670600E+01	  0.032625251	4.303400E+01	  0.032625251	5.106900E+01	  0.032625251	1.018000E+00
65	  0.032825653	-3.656700E+01	  0.032825653	4.233400E+01	  0.032825653	5.109900E+01	  0.032825653	1.022000E+00
66	  0.033026051	-3.655500E+01	  0.033026051	4.276000E+01	  0.033026051	5.109300E+01	  0.033026051	1.031000E+00
67	  0.033226453	-3.634200E+01	  0.033226453	4.267600E+01	  0.033226453	5.112100E+01	  0.033226453	1.056000E+00
68	  0.033426855	-3.627000E+01	  0.033426855	4.161400E+01	  0.033426855	5.115100E+01	  0.033426855	1.044000E+00
69	  0.033627257	-3.608200E+01	  0.033627257	4.154200E+01	  0.033627257	5.117700E+01	  0.033627257	1.065000E+00
70	  0.033827655	-3.595700E+01	  0.033827655	4.184400E+01	  0.033827655	5.118900E+01	  0.033827655	1.088000E+00
71	  0.034028057	-3.596000E+01	  0.034028057	4.172600E+01	  0.034028057	5.119000E+01	  0.034028057	1.085000E+00
72	  0.034228459	-3.586200E+01	  0.034228459	4.149600E+01	  0.034228459	5.120800E+01	  0.034228459	1.092000E+00
73	  0.034428857	-3.575300E+01	  0.034428857	4.226200E+01	  0.034428857	5.120800E+01	  0.034428857	1.123000E+00
74	  0.034629259	-3.560400E+01	  0.034629259	4.214200E+01	  0.034629259	5.123200E+01	  0.034629259	1.140000E+00
75	  0.034829661	-3.554900E+01	  0.034829661	4.265500E+01	  0.034829661	5.122900E+01	  0.034829661	1.159000E+00
76	  0.035030060	-3.553200E+01	  0.035030060	4.376700E+01	  0.035030060	5.120800E+01	  0.035030060	1.185000E+00
77	  0.035230462	-3.553200E+01	  0.035230462	4.377900E+01	  0.035230462	5.120800E+01	  0.035230462	1.185000E+00
78	  0.035430863	-3.552300E+01	  0.035430863	4.454500E+01	  0.035430863	5.119300E+01	  0.035430863	1.202000E+00
79	  0.035631265	-3.546900E+01	  0.035631265	4.462600E+01	  0.035631265	5.119900E+01	  0.035631265	1.212000E+00
80	  0.035831664	-3.550100E+01	  0.035831664	4.448600E+01	  0.035831664	5.119700E+01	  0.035831664	1.204000E+00
81	  0.036032066	-3.553400E+01	  0.036032066	4.491900E+01	  0.036032066	5.118300E+01	  0.036032066	1.209000E+00
82	  0.036232468	-3.551700E+01	  0.036232468	4.483500E+01	  0.036232468	5.118700E+01	  0.036232468	1.209000E+00
83	  0.036432866	-3.559600E+01	  0.036432866	4.410400E+01	  0.036432866	5.119200E+01	  0.036432866	1.183000E+00
84	  0.036633268	-3.566400E+01	  0.036633268	4.430700E+01	  0.036633268	5.117900E+01	  0.036633268	1.178000E+00
85	  0.036833670	-3.562800E+01	  0.036833670	4.428200E+01	  0.036833670	5.118400E+01	  0.036833670	1.182000E+00
86	  0.037034072	-3.567300E+01	  0.037034072	4.372100E+01	  0.037034072	5.119000E+01	  0.037034072	1.164000E+00
87	  0.037234470	-3.559100E+01	  0.037234470	4.309000E+01	  0.037234470	5.121400E+01	  0.037234470	1.162000E+00
88	  0.037434869	-3.562300E+01	  0.037434869	4.274200E+01	  0.037434869	5.121700E+01	  0.037434869	1.151000E+00
89	  0.037635271	-3.556600E+01	  0.037635271	4.218800E+01	  0.037635271	5.123600E+01	  0.037635271	1.146000E+00
90	  0.037835669	-3.554000E+01	  0.037835669	4.225600E+01	  0.037835669	5.123900E+01	  0.037835669	1.151000E+00
91	  0.038036071	-3.539700E+01	  0.038036071	4.163200E+01	  0.038036071	5.127200E+01	  0.038036071	1.157000E+00
92	  0.038236473	-3.542700E+01	  0.038236473	4.120100E+01	  0.038236473	5.127700E+01	  0.038236473	1.143000E+00
93	  0.038436871	-3.532000E+01	  0.038436871	4.088900E+01	  0.038436871	5.129900E+01	  0.038436871	1.151000E+00
94	  0.038637273	-3.522800E+01	  0.038637273	4.057700E+01	  0.038637273	5.131900E+01	  0.038637273	1.156000E+00
95	  0.038837675	-3.513700E+01	  0.038837675	4.005200E+01	  0.038837675	5.134400E+01	  0.038837675	1.156000E+00
96	  0.039038073	-3.502600E+01	  0.039038073	4.001600E+01	  0.039038073	5.136200E+01	  0.039038073	1.171000E+00
97	  0.039238475	-3.492200E+01	  0.039238475	3.956900E+01	  0.039238475	5.138800E+01	  0.039238475	1.175000E+00
98	  0.039438877	-3.482100E+01	  0.039438877	3.990000E+01	  0.039438877	5.139800E+01	  0.039438877	1.197000E+00
99	  0.039639279	-3.475800E+01	  0.039639279	4.001800E+01	  0.039639279	5.140500E+01	  0.039639279	1.209000E+00
100	  0.039839678	-3.474700E+01	  0.039839678	4.025800E+01	  0.039839678	5.140200E+01	  0.039839678	1.216000E+00
101	  0.040040080	-3.461600E+01	  0.040040080	4.084600E+01	  0.040040080	5.141000E+01	  0.040040080	1.250000E+00
102	  0.040240481	-3.452900E+01	  0.040240481	4.099700E+01	  0.040240481	5.142100E+01	  0.040240481	1.266000E+00
103	  0.040440880	-3.451500E+01	  0.040440880	4.178700E+01	  0.040440880	5.140500E+01	  0.040440880	1.288000E+00
104	  0.040641282	-3.452600E+01	  0.040641282	4.185400E+01	  0.040641282	5.140200E+01	  0.040641282	1.288000E+00
105	  0.040841684	-3.451200E+01	  0.040841684	4.219600E+01	  0.040841684	5.139600E+01	  0.040841684	1.299000E+00
106	  0.041042086	-3.458200E+01	  0.041042086	4.204700E+01	  0.041042086	5.138800E+01	  0.041042086	1.284000E+00
107	  0.041242484	-3.458500E+01	  0.041242484	4.197300E+01	  0.041242484	5.138900E+01	  0.041242484	1.282000E+00
108	  0.041442886	-3.461300E+01	  0.041442886	4.256000E+01	  0.041442886	5.137100E+01	  0.041442886	1.292000E+00
109	  0.041643288	-3.462200E+01	  0.041643288	4.189200E+01	  0.041643288	5.138500E+01	  0.041643288	1.274000E+00
110	  0.041843686	-3.461200E+01	  0.041843686	4.204400E+01	  0.041843686	5.138400E+01	  0.041843686	1.280000E+00
111	  0.042044088	-3.464700E+01	  0.042044088	4.180700E+01	  0.042044088	5.138300E+01	  0.042044088	1.269000E+00
112	  0.042244490	-3.465300E+01	  0.042244490	4.181000E+01	  0.042244490	5.138200E+01	  0.042244490	1.268000E+00
113	  0.042444889	-3.463800E+01	  0.042444889	4.155000E+01	  0.042444889	5.139100E+01	  0.042444889	1.264000E+00
114	  0.042645290	-3.464100E+01	  0.042645290	4.047800E+01	  0.042645290	5.141400E+01	  0.042645290	1.237000E+00
115	  0.042845692	-3.462800E+01	  0.042845692	4.018900E+01	  0.042845692	5.142300E+01	  0.042845692	1.232000E+00
116	  0.043046094	-3.464900E+01	  0.043046094	4.033000E+01	  0.043046094	5.141600E+01	  0.043046094	1.232000E+00
117	  0.043246493	-3.455600E+01	  0.043246493	3.980300E+01	  0.043246493	5.144300E+01	  0.043246493	1.233000E+00
118	  0.043446895	-3.446400E+01	  0.043446895	3.959700E+01	  0.043446895	5.146300E+01	  0.043446895	1.241000E+00
119	  0.043647297	-3.444600E+01	  0.043647297	3.859100E+01	  0.043647297	5.148800E+01	  0.043647297	1.217000E+00
120	  0.043847695	-3.443000E+01	  0.043847695	3.883400E+01	  0.043847695	5.148600E+01	  0.043847695	1.226000E+00
121	  0.044048097	-3.425200E+01	  0.044048097	3.847400E+01	  0.044048097	5.152500E+01	  0.044048097	1.243000E+00
122	  0.044248499	-3.427300E+01	  0.044248499	3.838300E+01	  0.044248499	5.152300E+01	  0.044248499	1.237000E+00
123	  0.044448901	-3.417900E+01	  0.044448901	3.837600E+01	  0.044448901	5.154000E+01	  0.044448901	1.251000E+00
124	  0.044649299	-3.409800E+01	  0.044649299	3.818200E+01	  0.044649299	5.155900E+01	  0.044649299	1.258000E+00
125	  0.044849701	-3.401100E+01	  0.044849701	3.863000E+01	  0.044849701	5.156500E+01	  0.044849701	1.283000E+00
126	  0.045050103	-3.401800E+01	  0.045050103	3.824400E+01	  0.045050103	5.157200E+01	  0.045050103	1.271000E+00
127	  0.045250501	-3.389200E+01	  0.045250501	3.893400E+01	  0.045250501	5.157900E+01	  0.045250501	1.310000E+00
128	  0.045450903	-3.391000E+01	  0.045450903	3.885600E+01	  0.045450903	5.157800E+01	  0.045450903	1.305000E+00
129	  0.045651305	-3.389800E+01	  0.045651305	3.981400E+01	  0.045651305	5.155700E+01	  0.045651305	1.333000E+00
130	  0.045851704	-3.389800E+01	  0.045851704	4.008300E+01	  0.045851704	5.155100E+01	  0.045851704	1.340000E+00
131	  0.046052106	-3.391600E+01	  0.046052106	3.993700E+01	  0.046052106	5.155100E+01	  0.046052106	1.333000E+00
132	  0.046252504	-3.390300E+01	  0.046252504	3.967600E+01	  0.046252504	5.155900E+01	  0.046252504	1.328000E+00
133	  0.046452906	-3.389900E+01	  0.046452906	4.021600E+01	  0.046452906	5.154700E+01	  0.046452906	1.344000E+00
134	  0.046653304	-3.394400E+01	  0.046653304	4.059300E+01	  0.046653304	5.153000E+01	  0.046653304	1.347000E+00
135	  0.046853706	-3.398600E+01	  0.046853706	4.013500E+01	  0.046853706	5.153400E+01	  0.046853706	1.328000E+00
136	  0.047054108	-3.404100E+01	  0.047054108	3.994700E+01	  0.047054108	5.152800E+01	  0.047054108	1.314000E+00
137	  0.047254506	-3.403800E+01	  0.047254506	3.967200E+01	  0.047254506	5.153500E+01	  0.047254506	1.307000E+00
138	  0.047454908	-3.412200E+01	  0.047454908	3.973300E+01	  0.047454908	5.151900E+01	  0.047454908	1.296000E+00
139	  0.047655310	-3.411500E+01	  0.047655310	3.883400E+01	  0.047655310	5.154100E+01	  0.047655310	1.273000E+00
140	  0.047855709	-3.404400E+01	  0.047855709	3.873900E+01	  0.047855709	5.155600E+01	  0.047855709	1.281000E+00
141	  0.048056111	-3.410700E+01	  0.048056111	3.824600E+01	  0.048056111	5.155600E+01	  0.048056111	1.258000E+00
142	  0.048256513	-3.407100E+01	  0.048256513	3.767900E+01	  0.048256513	5.157500E+01	  0.048256513	1.248000E+00
143	  0.048456915	-3.407700E+01	  0.048456915	3.696400E+01	  0.048456915	5.159000E+01	  0.048456915	1.227000E+00
144	  0.048657313	-3.405100E+01	  0.048657313	3.674400E+01	  0.048657313	5.160000E+01	  0.048657313	1.225000E+00
145	  0.048857715	-3.399000E+01	  0.048857715	3.612800E+01	  0.048857715	5.162500E+01	  0.048857715	1.216000E+00
146	  0.049058117	-3.384400E+01	  0.049058117	3.577400E+01	  0.049058117	5.166000E+01	  0.049058117	1.227000E+00
147	  0.049258515	-3.383800E+01	  0.049258515	3.526000E+01	  0.049258515	5.167300E+01	  0.049258515	1.213000E+00
148	  0.049458917	-3.377500E+01	  0.049458917	3.529400E+01	  0.049458917	5.168400E+01	  0.049458917	1.223000E+00
149	  0.049659319	-3.372800E+01	  0.049659319	3.535100E+01	  0.049659319	5.169200E+01	  0.049659319	1.231000E+00
150	  0.049859721	-3.365300E+01	  0.049859721	3.475600E+01	  0.049859721	5.172000E+01	  0.049859721	1.225000E+00
151	  0.050060119	-3.362000E+01	  0.050060119	3.505900E+01	  0.050060119	5.172000E+01	  0.050060119	1.239000E+00
152	  0.050260521	-3.347200E+01	  0.050260521	3.514000E+01	  0.050260521	5.174800E+01	  0.050260521	1.263000E+00
153	  0.050460923	-3.342100E+01	  0.050460923	3.534700E+01	  0.050460923	5.175400E+01	  0.050460923	1.277000E+00
154	  0.050661322	-3.338400E+01	  0.050661322	3.539100E+01	  0.050661322	5.176000E+01	  0.050661322	1.284000E+00
155	  0.050861724	-3.341400E+01	  0.050861724	3.572500E+01	  0.050861724	5.174600E+01	  0.050861724	1.290000E+00
156	  0.051062126	-3.338900E+01	  0.051062126	3.602800E+01	  0.051062126	5.174400E+01	  0.051062126	1.303000E+00
157	  0.051262524	-3.328900E+01	  0.051262524	3.595400E+01	  0.051262524	5.176600E+01	  0.051262524	1.316000E+00
158	  0.051462926	-3.334200E+01	  0.051462926	3.602800E+01	  0.051462926	5.175400E+01	  0.051462926	1.310000E+00
159	  0.051663328	-3.333700E+01	  0.051663328	3.605300E+01	  0.051663328	5.175400E+01	  0.051663328	1.312000E+00
160	  0.051863730	-3.337800E+01	  0.051863730	3.608500E+01	  0.051863730	5.174500E+01	  0.051863730	1.306000E+00
161	  0.052064128	-3.338300E+01	  0.052064128	3.603600E+01	  0.052064128	5.174500E+01	  0.052064128	1.304000E+00
162	  0.052264530	-3.341500E+01	  0.052264530	3.578800E+01	  0.052264530	5.174500E+01	  0.052264530	1.292000E+00
163	  0.052464932	-3.344300E+01	  0.052464932	3.568700E+01	  0.052464932	5.174100E+01	  0.052464932	1.284000E+00
164	  0.052665330	-3.340400E+01	  0.052665330	3.547100E+01	  0.052665330	5.175400E+01	  0.052665330	1.284000E+00
165	  0.052865732	-3.349600E+01	  0.052865732	3.496100E+01	  0.052865732	5.174700E+01	  0.052865732	1.254000E+00
166	  0.053066134	-3.344500E+01	  0.053066134	3.475700E+01	  0.053066134	5.176200E+01	  0.053066134	1.255000E+00
167	  0.053266536	-3.346000E+01	  0.053266536	3.395000E+01	  0.053266536	5.177700E+01	  0.053266536	1.228000E+00
168	  0.053466935	-3.345300E+01	  0.053466935	3.384500E+01	  0.053466935	5.178100E+01	  0.053466935	1.226000E+00
169	  0.053667337	-3.341700E+01	  0.053667337	3.305900E+01	  0.053667337	5.180600E+01	  0.053667337	1.206000E+00
170	  0.053867739	-3.335300E+01	  0.053867739	3.287000E+01	  0.053867739	5.182400E+01	  0.053867739	1.209000E+00
171	  0.054068137	-3.334700E+01	  0.054068137	3.220800E+01	  0.054068137	5.183900E+01	  0.054068137	1.189000E+00
172	  0.054268539	-3.331800E+01	  0.054268539	3.214500E+01	  0.054268539	5.184700E+01	  0.054268539	1.191000E+00
173	  0.054468941	-3.316700E+01	  0.054468941	3.206800E+01	  0.054468941	5.188100E+01	  0.054468941	1.210000E+00
174	  0.054669339	-3.311800E+01	  0.054669339	3.169500E+01	  0.054669339	5.190000E+01	  0.054669339	1.204000E+00
175	  0.054869737	-3.301500E+01	  0.054869737	3.110000E+01	  0.054869737	5.193600E+01	  0.054869737	1.199000E+00
176	  0.055070139	-3.299000E+01	  0.055070139	3.119700E+01	  0.055070139	5.194000E+01	  0.055070139	1.206000E+00
177	  0.055270538	-3.293300E+01	  0.055270538	3.119700E+01	  0.055270538	5.195300E+01	  0.055270538	1.214000E+00
178	  0.055470940	-3.282400E+01	  0.055470940	3.118400E+01	  0.055470940	5.197800E+01	  0.055470940	1.230000E+00
179	  0.055671342	-3.277500E+01	  0.055671342	3.180600E+01	  0.055671342	5.197500E+01	  0.055671342	1.259000E+00
180	  0.055871744	-3.275600E+01	  0.055871744	3.158200E+01	  0.055871744	5.198500E+01	  0.055871744	1.254000E+00
181	  0.056072142	-3.273400E+01	  0.056072142	3.170000E+01	  0.056072142	5.198700E+01	  0.056072142	1.261000E+00
182	  0.056272544	-3.271800E+01	  0.056272544	3.158600E+01	  0.056272544	5.199300E+01	  0.056272544	1.260000E+00
183	  0.056472946	-3.266400E+01	  0.056472946	3.188800E+01	  0.056472946	5.199900E+01	  0.056472946	1.279000E+00
184	  0.056673344	-3.261000E+01	  0.056673344	3.164400E+01	  0.056673344	5.201700E+01	  0.056673344	1.278000E+00
185	  0.056873746	-3.261900E+01	  0.056873746	3.232500E+01	  0.056873746	5.199900E+01	  0.056873746	1.301000E+00
186	  0.057074148	-3.262600E+01	  0.057074148	3.209600E+01	  0.057074148	5.200300E+01	  0.057074148	1.292000E+00
187	  0.057274550	-3.259000E+01	  0.057274550	3.198300E+01	  0.057274550	5.201400E+01	  0.057274550	1.293000E+00
188	  0.057474948	-3.262600E+01	  0.057474948	3.210800E+01	  0.057474948	5.200300E+01	  0.057474948	1.292000E+00
189	  0.057675350	-3.267700E+01	  0.057675350	3.182300E+01	  0.057675350	5.199700E+01	  0.057675350	1.274000E+00
190	  0.057875752	-3.270500E+01	  0.057875752	3.193000E+01	  0.057875752	5.198900E+01	  0.057875752	1.274000E+00
191	  0.058076151	-3.268100E+01	  0.058076151	3.169700E+01	  0.058076151	5.199900E+01	  0.058076151	1.269000E+00
192	  0.058276553	-3.268100E+01	  0.058276553	3.130600E+01	  0.058276553	5.200800E+01	  0.058276553	1.255000E+00
193	  0.058476955	-3.269100E+01	  0.058476955	3.162600E+01	  0.058476955	5.199900E+01	  0.058476955	1.265000E+00
194	  0.058677353	-3.269400E+01	  0.058677353	3.063300E+01	  0.058677353	5.202100E+01	  0.058677353	1.230000E+00
195	  0.058877755	-3.268300E+01	  0.058877755	3.096400E+01	  0.058877755	5.201600E+01	  0.058877755	1.243000E+00
196	  0.059078157	-3.264800E+01	  0.059078157	2.994100E+01	  0.059078157	5.204700E+01	  0.059078157	1.211000E+00
197	  0.059278559	-3.264200E+01	  0.059278559	2.987700E+01	  0.059278559	5.205000E+01	  0.059278559	1.210000E+00
198	  0.059478957	-3.260800E+01	  0.059478957	2.955500E+01	  0.059478957	5.206500E+01	  0.059478957	1.203000E+00
199	  0.059679359	-3.249900E+01	  0.059679359	2.942100E+01	  0.059679359	5.209400E+01	  0.059679359	1.214000E+00
200	  0.059879761	-3.244800E+01	  0.059879761	2.906900E+01	  0.059879761	5.211500E+01	  0.059879761	1.208000E+00
201	  0.060080159	-3.237200E+01	  0.060080159	2.862800E+01	  0.060080159	5.214300E+01	  0.060080159	1.203000E+00
202	  0.060280561	-3.230500E+01	  0.060280561	2.876800E+01	  0.060280561	5.215700E+01	  0.060280561	1.218000E+00
203	  0.060480963	-3.232100E+01	  0.060480963	2.874500E+01	  0.060480963	5.215300E+01	  0.060480963	1.214000E+00
204	  0.060681365	-3.225700E+01	  0.060681365	2.897400E+01	  0.060681365	5.216400E+01	  0.060681365	1.233000E+00
205	  0.060881764	-3.220400E+01	  0.060881764	2.880100E+01	  0.060881764	5.218200E+01	  0.060881764	1.234000E+00
206	  0.061082166	-3.215400E+01	  0.061082166	2.920200E+01	  0.061082166	5.218500E+01	  0.061082166	1.257000E+00
207	  0.061282568	-3.216800E+01	  0.061282568	2.929900E+01	  0.061282568	5.218000E+01	  0.061282568	1.258000E+00
208	  0.061482966	-3.209700E+01	  0.061482966	2.913700E+01	  0.061482966	5.220200E+01	  0.061482966	1.263000E+00
209	  0.061683368	-3.202300E+01	  0.061683368	2.908600E+01	  0.061683368	5.222200E+01	  0.061683368	1.272000E+00
210	  0.061883770	-3.203900E+01	  0.061883770	2.945400E+01	  0.061883770	5.220900E+01	  0.061883770	1.284000E+00
211	  0.062084168	-3.202900E+01	  0.062084168	2.965100E+01	  0.062084168	5.220700E+01	  0.062084168	1.294000E+00
212	  0.062284570	-3.202100E+01	  0.062284570	2.979200E+01	  0.062284570	5.220600E+01	  0.062284570	1.300000E+00
213	  0.062484972	-3.197700E+01	  0.062484972	2.965300E+01	  0.062484972	5.222100E+01	  0.062484972	1.302000E+00
214	  0.062685370	-3.203400E+01	  0.062685370	2.987200E+01	  0.062685370	5.220100E+01	  0.062685370	1.301000E+00
215	  0.062885776	-3.196800E+01	  0.062885776	2.952600E+01	  0.062885776	5.222600E+01	  0.062885776	1.298000E+00
216	  0.063086174	-3.205300E+01	  0.063086174	3.004100E+01	  0.063086174	5.219200E+01	  0.063086174	1.305000E+00
217	  0.063286573	-3.207000E+01	  0.063286573	2.964200E+01	  0.063286573	5.219700E+01	  0.063286573	1.287000E+00
218	  0.063486971	-3.210300E+01	  0.063486971	2.984300E+01	  0.063486971	5.218400E+01	  0.063486971	1.289000E+00
219	  0.063687377	-3.217200E+01	  0.063687377	2.951700E+01	  0.063687377	5.217400E+01	  0.063687377	1.266000E+00
220	  0.063887775	-3.213200E+01	  0.063887775	2.931600E+01	  0.063887775	5.218900E+01	  0.063887775	1.265000E+00
221	  0.064088173	-3.212000E+01	  0.064088173	2.929100E+01	  0.064088173	5.219200E+01	  0.064088173	1.265000E+00
222	  0.064288579	-3.207500E+01	  0.064288579	2.898100E+01	  0.064288579	5.221100E+01	  0.064288579	1.260000E+00
223	  0.064488977	-3.202000E+01	  0.064488977	2.859300E+01	  0.064488977	5.223400E+01	  0.064488977	1.253000E+00
224	  0.064689375	-3.198300E+01	  0.064689375	2.848700E+01	  0.064689375	5.224600E+01	  0.064689375	1.255000E+00
225	  0.064889781	-3.207300E+01	  0.064889781	2.867000E+01	  0.064889781	5.221800E+01	  0.064889781	1.248000E+00
226	  0.065090179	-3.204800E+01	  0.065090179	2.853200E+01	  0.065090179	5.222800E+01	  0.065090179	1.247000E+00
227	  0.065290578	-3.195800E+01	  0.065290578	2.786200E+01	  0.065290578	5.226700E+01	  0.065290578	1.233000E+00
228	  0.065490983	-3.200100E+01	  0.065490983	2.815900E+01	  0.065490983	5.224900E+01	  0.065490983	1.239000E+00
229	  0.065691382	-3.195600E+01	  0.065691382	2.814400E+01	  0.065691382	5.226100E+01	  0.065691382	1.245000E+00
230	  0.065891780	-3.191000E+01	  0.065891780	2.818100E+01	  0.065891780	5.227200E+01	  0.065891780	1.253000E+00
231	  0.066092186	-3.194800E+01	  0.066092186	2.760500E+01	  0.066092186	5.227500E+01	  0.066092186	1.224000E+00
232	  0.066292584	-3.188600E+01	  0.066292584	2.750900E+01	  0.066292584	5.229400E+01	  0.066292584	1.230000E+00
233	  0.066492982	-3.187500E+01	  0.066492982	2.826400E+01	  0.066492982	5.228000E+01	  0.066492982	1.262000E+00
234	  0.066693388	-3.192900E+01	  0.066693388	2.793400E+01	  0.066693388	5.227300E+01	  0.066693388	1.241000E+00
235	  0.066893786	-3.186000E+01	  0.066893786	2.793300E+01	  0.066893786	5.229100E+01	  0.066893786	1.251000E+00
236	  0.067094192	-3.193400E+01	  0.067094192	2.801700E+01	  0.067094192	5.227000E+01	  0.067094192	1.243000E+00
237	  0.067294590	-3.186900E+01	  0.067294590	2.749400E+01	  0.067294590	5.229900E+01	  0.067294590	1.232000E+00
238	  0.067494988	-3.186200E+01	  0.067494988	2.764900E+01	  0.067494988	5.229700E+01	  0.067494988	1.239000E+00
239	  0.067695394	-3.186900E+01	  0.067695394	2.795200E+01	  0.067695394	5.228900E+01	  0.067695394	1.250000E+00
240	  0.067895792	-3.186400E+01	  0.067895792	2.773100E+01	  0.067895792	5.229500E+01	  0.067895792	1.242000E+00
241	  0.068096191	-3.190500E+01	  0.068096191	2.727500E+01	  0.068096191	5.229400E+01	  0.068096191	1.217000E+00
242	  0.068296596	-3.194700E+01	  0.068296596	2.720800E+01	  0.068296596	5.228400E+01	  0.068296596	1.209000E+00
243	  0.068496995	-3.202000E+01	  0.068496995	2.645100E+01	  0.068496995	5.228100E+01	  0.068496995	1.167000E+00
244	  0.068697393	-3.192800E+01	  0.068697393	2.664600E+01	  0.068697393	5.230200E+01	  0.068697393	1.188000E+00
245	  0.068897791	-3.196300E+01	  0.068897791	2.659500E+01	  0.068897791	5.229400E+01	  0.068897791	1.181000E+00
246	  0.069098189	-3.194200E+01	  0.069098189	2.593200E+01	  0.069098189	5.231300E+01	  0.069098189	1.157000E+00
247	  0.069298595	-3.202600E+01	  0.069298595	2.558900E+01	  0.069298595	5.229800E+01	  0.069298595	1.132000E+00
248	  0.069498993	-3.197500E+01	  0.069498993	2.478500E+01	  0.069498993	5.232800E+01	  0.069498993	1.105000E+00
249	  0.069699399	-3.204300E+01	  0.069699399	2.491800E+01	  0.069699399	5.230700E+01	  0.069699399	1.102000E+00
250	  0.069899797	-3.200700E+01	  0.069899797	2.420900E+01	  0.069899797	5.233100E+01	  0.069899797	1.077000E+00
251	  0.070100196	-3.187000E+01	  0.070100196	2.467200E+01	  0.070100196	5.235900E+01	  0.070100196	1.115000E+00
252	  0.070300601	-3.190400E+01	  0.070300601	2.409200E+01	  0.070300601	5.236100E+01	  0.070300601	1.086000E+00
253	  0.070501000	-3.180200E+01	  0.070501000	2.393000E+01	  0.070501000	5.239300E+01	  0.070501000	1.092000E+00
254	  0.070701398	-3.182200E+01	  0.070701398	2.338100E+01	  0.070701398	5.239800E+01	  0.070701398	1.066000E+00
255	  0.070901804	-3.177700E+01	  0.070901804	2.353900E+01	  0.070901804	5.240800E+01	  0.070901804	1.079000E+00
256	  0.071102202	-3.178200E+01	  0.071102202	2.315400E+01	  0.071102202	5.241400E+01	  0.071102202	1.062000E+00
257	  0.071302600	-3.172000E+01	  0.071302600	2.320200E+01	  0.071302600	5.243100E+01	  0.071302600	1.072000E+00
258	  0.071503006	-3.162100E+01	  0.071503006	2.262300E+01	  0.071503006	5.247100E+01	  0.071503006	1.059000E+00
259	  0.071703404	-3.165200E+01	  0.071703404	2.303200E+01	  0.071703404	5.245400E+01	  0.071703404	1.073000E+00
260	  0.071903802	-3.162300E+01	  0.071903802	2.295400E+01	  0.071903802	5.246300E+01	  0.071903802	1.074000E+00
261	  0.072104208	-3.155400E+01	  0.072104208	2.278600E+01	  0.072104208	5.248700E+01	  0.072104208	1.075000E+00
262	  0.072304606	-3.155900E+01	  0.072304606	2.264800E+01	  0.072304606	5.248800E+01	  0.072304606	1.068000E+00
263	  0.072505005	-3.157100E+01	  0.072505005	2.264400E+01	  0.072505005	5.248500E+01	  0.072505005	1.067000E+00
264	  0.072705410	-3.154500E+01	  0.072705410	2.302200E+01	  0.072705410	5.248500E+01	  0.072705410	1.087000E+00
265	  0.072905809	-3.153300E+01	  0.072905809	2.262900E+01	  0.072905809	5.249600E+01	  0.072905809	1.071000E+00
266	  0.073106214	-3.151900E+01	  0.073106214	2.292400E+01	  0.073106214	5.249400E+01	  0.073106214	1.086000E+00
267	  0.073306613	-3.152300E+01	  0.073306613	2.300200E+01	  0.073306613	5.249200E+01	  0.073306613	1.089000E+00
268	  0.073507011	-3.150900E+01	  0.073507011	2.265600E+01	  0.073507011	5.250200E+01	  0.073507011	1.075000E+00
269	  0.073707417	-3.157900E+01	  0.073707417	2.304900E+01	  0.073707417	5.247400E+01	  0.073707417	1.084000E+00
270	  0.073907815	-3.152100E+01	  0.073907815	2.259900E+01	  0.073907815	5.250000E+01	  0.073907815	1.071000E+00
271	  0.074108213	-3.151100E+01	  0.074108213	2.264400E+01	  0.074108213	5.250200E+01	  0.074108213	1.075000E+00
272	  0.074308619	-3.150400E+01	  0.074308619	2.204900E+01	  0.074308619	5.251600E+01	  0.074308619	1.049000E+00
273	  0.074509017	-3.154900E+01	  0.074509017	2.240000E+01	  0.074509017	5.249600E+01	  0.074509017	1.059000E+00
274	  0.074709415	-3.154600E+01	  0.074709415	2.208200E+01	  0.074709415	5.250300E+01	  0.074709415	1.045000E+00
275	  0.074909821	-3.148200E+01	  0.074909821	2.186800E+01	  0.074909821	5.252600E+01	  0.074909821	1.043000E+00
276	  0.075110219	-3.157100E+01	  0.075110219	2.158100E+01	  0.075110219	5.250500E+01	  0.075110219	1.020000E+00
277	  0.075310618	-3.153400E+01	  0.075310618	2.128300E+01	  0.075310618	5.252100E+01	  0.075310618	1.011000E+00
278	  0.075511023	-3.154700E+01	  0.075511023	2.146300E+01	  0.075511023	5.251400E+01	  0.075511023	1.017000E+00
279	  0.075711422	-3.155800E+01	  0.075711422	2.080900E+01	  0.075711422	5.252300E+01	  0.075711422	9.860000E-01
280	  0.075911827	-3.149000E+01	  0.075911827	2.140100E+01	  0.075911827	5.253200E+01	  0.075911827	1.021000E+00
281	  0.076112226	-3.155800E+01	  0.076112226	2.077200E+01	  0.076112226	5.252400E+01	  0.076112226	9.850000E-01
282	  0.076312624	-3.152700E+01	  0.076312624	2.092600E+01	  0.076312624	5.253000E+01	  0.076312624	9.950000E-01
283	  0.076513030	-3.157400E+01	  0.076513030	2.039800E+01	  0.076513030	5.252600E+01	  0.076513030	9.660000E-01
284	  0.076713428	-3.155900E+01	  0.076713428	2.032500E+01	  0.076713428	5.253200E+01	  0.076713428	9.650000E-01
285	  0.076913826	-3.157100E+01	  0.076913826	2.024700E+01	  0.076913826	5.252900E+01	  0.076913826	9.600000E-01
286	  0.077114232	-3.163700E+01	  0.077114232	2.000200E+01	  0.077114232	5.251400E+01	  0.077114232	9.410000E-01
287	  0.077314630	-3.153900E+01	  0.077314630	1.946000E+01	  0.077314630	5.255200E+01	  0.077314630	9.280000E-01
288	  0.077515028	-3.155400E+01	  0.077515028	1.927900E+01	  0.077515028	5.255100E+01	  0.077515028	9.180000E-01
289	  0.077715434	-3.152700E+01	  0.077715434	1.859800E+01	  0.077715434	5.257000E+01	  0.077715434	8.900000E-01
290	  0.077915832	-3.147100E+01	  0.077915832	1.886300E+01	  0.077915832	5.258300E+01	  0.077915832	9.080000E-01
291	  0.078116231	-3.154200E+01	  0.078116231	1.847800E+01	  0.078116231	5.256800E+01	  0.078116231	8.820000E-01
292	  0.078316636	-3.156700E+01	  0.078316636	1.813900E+01	  0.078316636	5.256600E+01	  0.078316636	8.640000E-01
293	  0.078517035	-3.152500E+01	  0.078517035	1.776400E+01	  0.078517035	5.258400E+01	  0.078517035	8.510000E-01
294	  0.078717433	-3.148200E+01	  0.078717433	1.779400E+01	  0.078717433	5.259700E+01	  0.078717433	8.570000E-01
295	  0.078917839	-3.157700E+01	  0.078917839	1.743300E+01	  0.078917839	5.257400E+01	  0.078917839	8.310000E-01
296	  0.079118237	-3.149300E+01	  0.079118237	1.696000E+01	  0.079118237	5.260700E+01	  0.079118237	8.170000E-01
297	  0.079318643	-3.145000E+01	  0.079318643	1.676200E+01	  0.079318643	5.262300E+01	  0.079318643	8.120000E-01
298	  0.079519041	-3.142800E+01	  0.079519041	1.696500E+01	  0.079519041	5.262600E+01	  0.079519041	8.240000E-01
299	  0.079719439	-3.139000E+01	  0.079719439	1.630400E+01	  0.079719439	5.264800E+01	  0.079719439	7.970000E-01
300	  0.079919845	-3.139600E+01	  0.079919845	1.583200E+01	  0.079919845	5.265300E+01	  0.079919845	7.740000E-01
301	  0.080120243	-3.137000E+01	  0.080120243	1.596600E+01	  0.080120243	5.265900E+01	  0.080120243	7.830000E-01
302	  0.080320641	-3.131800E+01	  0.080320641	1.524700E+01	  0.080320641	5.268600E+01	  0.080320641	7.530000E-01
303	  0.080521047	-3.117400E+01	  0.080521047	1.530200E+01	  0.080521047	5.273100E+01	  0.080521047	7.690000E-01
304	  0.080721445	-3.121800E+01	  0.080721445	1.542600E+01	  0.080721445	5.271500E+01	  0.080721445	7.710000E-01
305	  0.080921844	-3.118800E+01	  0.080921844	1.493500E+01	  0.080921844	5.273200E+01	  0.080921844	7.500000E-01
306	  0.081122249	-3.117800E+01	  0.081122249	1.499300E+01	  0.081122249	5.273400E+01	  0.081122249	7.530000E-01
307	  0.081322648	-3.111700E+01	  0.081322648	1.491500E+01	  0.081322648	5.275500E+01	  0.081322648	7.550000E-01
308	  0.081523046	-3.111500E+01	  0.081523046	1.478000E+01	  0.081523046	5.275700E+01	  0.081523046	7.490000E-01
309	  0.081723452	-3.107600E+01	  0.081723452	1.469400E+01	  0.081723452	5.277100E+01	  0.081723452	7.480000E-01
310	  0.081923850	-3.105900E+01	  0.081923850	1.495300E+01	  0.081923850	5.277300E+01	  0.081923850	7.620000E-01
311	  0.082124248	-3.112000E+01	  0.082124248	1.403500E+01	  0.082124248	5.276600E+01	  0.082124248	7.110000E-01
312	  0.082324654	-3.105100E+01	  0.082324654	1.462300E+01	  0.082324654	5.278100E+01	  0.082324654	7.470000E-01
313	  0.082525052	-3.110000E+01	  0.082525052	1.459000E+01	  0.082525052	5.276500E+01	  0.082525052	7.410000E-01
314	  0.082725458	-3.106800E+01	  0.082725458	1.391000E+01	  0.082725458	5.278500E+01	  0.082725458	7.100000E-01
315	  0.082925856	-3.105600E+01	  0.082925856	1.392100E+01	  0.082925856	5.278800E+01	  0.082925856	7.110000E-01
316	  0.083126254	-3.104100E+01	  0.083126254	1.407200E+01	  0.083126254	5.279100E+01	  0.083126254	7.200000E-01
317	  0.083326660	-3.106800E+01	  0.083326660	1.377500E+01	  0.083326660	5.278600E+01	  0.083326660	7.030000E-01
318	  0.083527058	-3.099400E+01	  0.083527058	1.374900E+01	  0.083527058	5.281100E+01	  0.083527058	7.080000E-01
319	  0.083727457	-3.105700E+01	  0.083727457	1.315400E+01	  0.083727457	5.279800E+01	  0.083727457	6.730000E-01
320	  0.083927862	-3.103200E+01	  0.083927862	1.304100E+01	  0.083927862	5.280800E+01	  0.083927862	6.690000E-01
321	  0.084128261	-3.103200E+01	  0.084128261	1.291700E+01	  0.084128261	5.280900E+01	  0.084128261	6.630000E-01
322	  0.084328659	-3.096500E+01	  0.084328659	1.232100E+01	  0.084328659	5.283800E+01	  0.084328659	6.380000E-01
323	  0.084529065	-3.096100E+01	  0.084529065	1.218000E+01	  0.084529065	5.284100E+01	  0.084529065	6.310000E-01
324	  0.084729463	-3.094700E+01	  0.084729463	1.248400E+01	  0.084729463	5.284300E+01	  0.084729463	6.480000E-01
325	  0.084929861	-3.086600E+01	  0.084929861	1.180000E+01	  0.084929861	5.287800E+01	  0.084929861	6.190000E-01
326	  0.085130267	-3.093500E+01	  0.085130267	1.202400E+01	  0.085130267	5.285200E+01	  0.085130267	6.250000E-01
327	  0.085330658	-3.082000E+01	  0.085330658	1.196600E+01	  0.085330658	5.289200E+01	  0.085330658	6.310000E-01
328	  0.085531056	-3.080300E+01	  0.085531056	1.149500E+01	  0.085531056	5.290300E+01	  0.085531056	6.080000E-01
329	  0.085731462	-3.079400E+01	  0.085731462	1.182900E+01	  0.085731462	5.290200E+01	  0.085731462	6.260000E-01
330	  0.085931860	-3.080000E+01	  0.085931860	1.127100E+01	  0.085931860	5.290700E+01	  0.085931860	5.960000E-01
331	  0.086132258	-3.072900E+01	  0.086132258	1.130600E+01	  0.086132258	5.293100E+01	  0.086132258	6.030000E-01
332	  0.086332664	-3.078900E+01	  0.086332664	1.129200E+01	  0.086332664	5.291000E+01	  0.086332664	5.980000E-01
333	  0.086533062	-3.068000E+01	  0.086533062	1.145700E+01	  0.086533062	5.294600E+01	  0.086533062	6.150000E-01
334	  0.086733460	-3.070500E+01	  0.086733460	1.121400E+01	  0.086733460	5.294000E+01	  0.086733460	6.000000E-01
335	  0.086933866	-3.072500E+01	  0.086933866	1.153800E+01	  0.086933866	5.292900E+01	  0.086933866	6.160000E-01
336	  0.087134264	-3.064700E+01	  0.087134264	1.129300E+01	  0.087134264	5.296000E+01	  0.087134264	6.090000E-01
337	  0.087334670	-3.071100E+01	  0.087334670	1.136200E+01	  0.087334670	5.293600E+01	  0.087334670	6.080000E-01
338	  0.087535068	-3.072900E+01	  0.087535068	1.080200E+01	  0.087535068	5.293600E+01	  0.087535068	5.770000E-01
339	  0.087735467	-3.069300E+01	  0.087735467	1.053700E+01	  0.087735467	5.295100E+01	  0.087735467	5.650000E-01
340	  0.087935872	-3.071800E+01	  0.087935872	1.012100E+01	  0.087935872	5.294700E+01	  0.087935872	5.420000E-01
341	  0.088136271	-3.072200E+01	  0.088136271	1.048800E+01	  0.088136271	5.294200E+01	  0.088136271	5.610000E-01
342	  0.088336669	-3.077400E+01	  0.088336669	9.987000E+00	  0.088336669	5.292900E+01	  0.088336669	5.310000E-01
343	  0.088537075	-3.071900E+01	  0.088537075	9.699000E+00	  0.088537075	5.295100E+01	  0.088537075	5.190000E-01
344	  0.088737473	-3.070700E+01	  0.088737473	9.866000E+00	  0.088737473	5.295300E+01	  0.088737473	5.290000E-01
345	  0.088937871	-3.070600E+01	  0.088937871	9.404000E+00	  0.088937871	5.295800E+01	  0.088937871	5.050000E-01
346	  0.089138277	-3.071800E+01	  0.089138277	8.869000E+00	  0.089138277	5.295900E+01	  0.089138277	4.750000E-01
347	  0.089338675	-3.066100E+01	  0.089338675	8.607000E+00	  0.089338675	5.298100E+01	  0.089338675	4.650000E-01
348	  0.089539073	-3.064500E+01	  0.089539073	7.947000E+00	  0.089539073	5.299200E+01	  0.089539073	4.300000E-01
349	  0.089739479	-3.068100E+01	  0.089739479	8.254000E+00	  0.089739479	5.297700E+01	  0.089739479	4.450000E-01
350	  0.089939877	-3.057200E+01	  0.089939877	7.684000E+00	  0.089939877	5.302000E+01	  0.089939877	4.200000E-01
351	  0.090140276	-3.056700E+01	  0.090140276	7.675000E+00	  0.090140276	5.302200E+01	  0.090140276	4.190000E-01
352	  0.090340681	-3.044800E+01	  0.090340681	7.402000E+00	  0.090340681	5.306700E+01	  0.090340681	4.110000E-01
353	  0.090541080	-3.041500E+01	  0.090541080	7.106000E+00	  0.090541080	5.308200E+01	  0.090541080	3.960000E-01
354	  0.090741485	-3.041000E+01	  0.090741485	7.131000E+00	  0.090741485	5.308300E+01	  0.090741485	3.970000E-01
355	  0.090941884	-3.034400E+01	  0.090941884	7.051000E+00	  0.090941884	5.310800E+01	  0.090941884	3.960000E-01
356	  0.091142282	-3.030200E+01	  0.091142282	6.670000E+00	  0.091142282	5.312600E+01	  0.091142282	3.770000E-01
357	  0.091342688	-3.025700E+01	  0.091342688	6.899000E+00	  0.091342688	5.314200E+01	  0.091342688	3.920000E-01
358	  0.091543086	-3.021900E+01	  0.091543086	7.251000E+00	  0.091543086	5.315300E+01	  0.091543086	4.140000E-01
359	  0.091743484	-3.014000E+01	  0.091743484	7.156000E+00	  0.091743484	5.318400E+01	  0.091743484	4.120000E-01
360	  0.091943890	-3.016400E+01	  0.091943890	7.501000E+00	  0.091943890	5.317200E+01	  0.091943890	4.310000E-01
361	  0.092144288	-3.015600E+01	  0.092144288	7.410000E+00	  0.092144288	5.317600E+01	  0.092144288	4.260000E-01
362	  0.092344686	-3.019400E+01	  0.092344686	7.553000E+00	  0.092344686	5.316000E+01	  0.092344686	4.320000E-01
363	  0.092545092	-3.014000E+01	  0.092545092	8.123000E+00	  0.092545092	5.317600E+01	  0.092545092	4.680000E-01
364	  0.092745490	-3.012400E+01	  0.092745490	7.858000E+00	  0.092745490	5.318400E+01	  0.092745490	4.530000E-01
365	  0.092945889	-3.019100E+01	  0.092945889	8.034000E+00	  0.092945889	5.315700E+01	  0.092945889	4.600000E-01
366	  0.093146294	-3.015800E+01	  0.093146294	8.132000E+00	  0.093146294	5.316900E+01	  0.093146294	4.670000E-01
367	  0.093346693	-3.023100E+01	  0.093346693	8.179000E+00	  0.093346693	5.314100E+01	  0.093346693	4.660000E-01
368	  0.093547091	-3.018600E+01	  0.093547091	8.046000E+00	  0.093547091	5.315900E+01	  0.093547091	4.610000E-01
369	  0.093747497	-3.033400E+01	  0.093747497	8.024000E+00	  0.093747497	5.310400E+01	  0.093747497	4.510000E-01
370	  0.093947895	-3.031800E+01	  0.093947895	7.965000E+00	  0.093947895	5.311100E+01	  0.093947895	4.490000E-01
371	  0.094148301	-3.029400E+01	  0.094148301	7.656000E+00	  0.094148301	5.312200E+01	  0.094148301	4.330000E-01
372	  0.094348699	-3.034000E+01	  0.094348699	7.279000E+00	  0.094348699	5.310800E+01	  0.094348699	4.090000E-01
373	  0.094549097	-3.038500E+01	  0.094549097	7.298000E+00	  0.094549097	5.309100E+01	  0.094549097	4.080000E-01
374	  0.094749503	-3.039200E+01	  0.094749503	7.016000E+00	  0.094749503	5.309100E+01	  0.094749503	3.920000E-01
375	  0.094949901	-3.043800E+01	  0.094949901	6.774000E+00	  0.094949901	5.307600E+01	  0.094949901	3.760000E-01
376	  0.095150299	-3.040900E+01	  0.095150299	6.226000E+00	  0.095150299	5.309000E+01	  0.095150299	3.470000E-01
377	  0.095350705	-3.041500E+01	  0.095350705	6.269000E+00	  0.095350705	5.308700E+01	  0.095350705	3.490000E-01
378	  0.095551103	-3.038300E+01	  0.095551103	5.710000E+00	  0.095551103	5.310300E+01	  0.095551103	3.200000E-01
379	  0.095751502	-3.037100E+01	  0.095751502	5.327000E+00	  0.095751502	5.310900E+01	  0.095751502	2.990000E-01
380	  0.095951907	-3.035600E+01	  0.095951907	5.183000E+00	  0.095951907	5.311500E+01	  0.095951907	2.910000E-01
381	  0.096152306	-3.036500E+01	  0.096152306	5.189000E+00	  0.096152306	5.311200E+01	  0.096152306	2.910000E-01
382	  0.096352704	-3.027300E+01	  0.096352704	4.833000E+00	  0.096352704	5.314800E+01	  0.096352704	2.740000E-01
383	  0.096553110	-3.024900E+01	  0.096553110	4.511000E+00	  0.096553110	5.315900E+01	  0.096553110	2.570000E-01
384	  0.096753508	-3.020400E+01	  0.096753508	4.179000E+00	  0.096753508	5.317700E+01	  0.096753508	2.390000E-01
385	  0.096953906	-3.018500E+01	  0.096953906	4.235000E+00	  0.096953906	5.318400E+01	  0.096953906	2.430000E-01
386	  0.097154312	-3.020400E+01	  0.097154312	4.218000E+00	  0.097154312	5.317700E+01	  0.097154312	2.410000E-01
387	  0.097354710	-3.021100E+01	  0.097354710	4.224000E+00	  0.097354710	5.317400E+01	  0.097354710	2.410000E-01
388	  0.097555116	-3.018600E+01	  0.097555116	4.081000E+00	  0.097555116	5.318500E+01	  0.097555116	2.340000E-01
389	  0.097755514	-3.021200E+01	  0.097755514	3.743000E+00	  0.097755514	5.317600E+01	  0.097755514	2.140000E-01
390	  0.097955912	-3.022700E+01	  0.097955912	3.894000E+00	  0.097955912	5.317000E+01	  0.097955912	2.220000E-01
391	  0.098156318	-3.017900E+01	  0.098156318	3.972000E+00	  0.098156318	5.318800E+01	  0.098156318	2.280000E-01
392	  0.098356716	-3.024600E+01	  0.098356716	3.754000E+00	  0.098356716	5.316300E+01	  0.098356716	2.140000E-01
393	  0.098557115	-3.018900E+01	  0.098557115	3.912000E+00	  0.098557115	5.318400E+01	  0.098557115	2.240000E-01
394	  0.098757520	-3.021500E+01	  0.098757520	3.626000E+00	  0.098757520	5.317500E+01	  0.098757520	2.070000E-01
395	  0.098957919	-3.024300E+01	  0.098957919	3.231000E+00	  0.098957919	5.316600E+01	  0.098957919	1.840000E-01
396	  0.099158317	-3.025200E+01	  0.099158317	3.155000E+00	  0.099158317	5.316300E+01	  0.099158317	1.790000E-01
397	  0.099358723	-3.025800E+01	  0.099358723	3.201000E+00	  0.099358723	5.316100E+01	  0.099358723	1.820000E-01
398	  0.099559121	-3.028700E+01	  0.099559121	2.411000E+00	  0.099559121	5.315200E+01	  0.099559121	1.360000E-01
399	  0.099759519	-3.033000E+01	  0.099759519	2.329000E+00	  0.099759519	5.313600E+01	  0.099759519	1.310000E-01
400	  0.099959925	-3.022300E+01	  0.099959925	1.317000E+00	  0.099959925	5.317900E+01	  0.099959925	7.500000E-02
401	  0.100160323	-3.022300E+01	  0.100160323	1.642000E+00	  0.100160323	5.317800E+01	  0.100160323	9.400000E-02
402	  0.100360721	-3.028200E+01	  0.100360721	1.780000E+00	  0.100360721	5.315600E+01	  0.100360721	1.010000E-01
403	  0.100561127	-3.024100E+01	  0.100561127	1.105000E+00	  0.100561127	5.317200E+01	  0.100561127	6.300000E-02
404	  0.100761525	-3.023000E+01	  0.100761525	7.280000E-01	  0.100761525	5.317700E+01	  0.100761525	4.100000E-02
405	  0.100961931	-3.021000E+01	  0.100961931	3.670000E-01	  0.100961931	5.318400E+01	  0.100961931	2.100000E-02
406	  0.101162329	-3.000700E+01	  0.101162329	-5.110000E-01	  0.101162329	5.326200E+01	  0.101162329	-3.000000E-02
407	  0.101362728	-2.995400E+01	  0.101362728	-7.370000E-01	  0.101362728	5.328300E+01	  0.101362728	-4.300000E-02
408	  0.101563133	-2.996800E+01	  0.101563133	-6.920000E-01	  0.101563133	5.327700E+01	  0.101563133	-4.000000E-02
409	  0.101763532	-2.995000E+01	  0.101763532	-1.589000E+00	  0.101763532	5.328300E+01	  0.101763532	-9.400000E-02
410	  0.101963930	-2.985700E+01	  0.101963930	-5.100000E-01	  0.101963930	5.332100E+01	  0.101963930	-3.000000E-02
411	  0.102164336	-2.985000E+01	  0.102164336	-8.000000E-01	  0.102164336	5.332300E+01	  0.102164336	-4.700000E-02
412	  0.102364734	-2.985000E+01	  0.102364734	-8.820000E-01	  0.102364734	5.332300E+01	  0.102364734	-5.200000E-02
413	  0.102565132	-2.979600E+01	  0.102565132	-1.133000E+00	  0.102565132	5.334400E+01	  0.102565132	-6.800000E-02
414	  0.102765530	-2.974500E+01	  0.102765530	-7.050000E-01	  0.102765530	5.336500E+01	  0.102765530	-4.200000E-02
415	  0.102965929	-2.973700E+01	  0.102965929	-4.880000E-01	  0.102965929	5.336900E+01	  0.102965929	-2.900000E-02
416	  0.103166327	-2.972300E+01	  0.103166327	-6.450000E-01	  0.103166327	5.337400E+01	  0.103166327	-3.900000E-02
417	  0.103366733	-2.972500E+01	  0.103366733	-5.610000E-01	  0.103366733	5.337300E+01	  0.103366733	-3.400000E-02
418	  0.103567131	-2.968600E+01	  0.103567131	-2.940000E-01	  0.103567131	5.338900E+01	  0.103567131	-1.800000E-02
419	  0.103767529	-2.968200E+01	  0.103767529	-3.430000E-01	  0.103767529	5.339100E+01	  0.103767529	-2.100000E-02
420	  0.103967935	-2.964600E+01	  0.103967935	3.860000E-01	  0.103967935	5.340500E+01	  0.103967935	2.300000E-02
421	  0.104168333	-2.974000E+01	  0.104168333	-2.350000E-01	  0.104168333	5.336700E+01	  0.104168333	-1.400000E-02
422	  0.104368731	-2.968200E+01	  0.104368731	3.090000E-01	  0.104368731	5.339100E+01	  0.104368731	1.800000E-02
423	  0.104569137	-2.967000E+01	  0.104569137	4.650000E-01	  0.104569137	5.339600E+01	  0.104569137	2.800000E-02
424	  0.104769535	-2.959200E+01	  0.104769535	-2.110000E-01	  0.104769535	5.342700E+01	  0.104769535	-1.300000E-02
425	  0.104969934	-2.964900E+01	  0.104969934	-4.600000E-02	  0.104969934	5.340400E+01	  0.104969934	-2.000000E-03
426	  0.105170339	-2.973500E+01	  0.105170339	-6.610000E-01	  0.105170339	5.336900E+01	  0.105170339	-4.000000E-02
427	  0.105370738	-2.971700E+01	  0.105370738	-3.070000E-01	  0.105370738	5.337600E+01	  0.105370738	-1.800000E-02
428	  0.105571143	-2.967600E+01	  0.105571143	-4.910000E-01	  0.105571143	5.339300E+01	  0.105571143	-3.000000E-02
429	  0.105771542	-2.977800E+01	  0.105771542	-1.980000E-01	  0.105771542	5.335200E+01	  0.105771542	-1.100000E-02
430	  0.105971940	-2.974800E+01	  0.105971940	-1.025000E+00	  0.105971940	5.336400E+01	  0.105971940	-6.200000E-02
431	  0.106172346	-2.969100E+01	  0.106172346	-8.520000E-01	  0.106172346	5.338700E+01	  0.106172346	-5.200000E-02
432	  0.106372744	-2.973900E+01	  0.106372744	-1.412000E+00	  0.106372744	5.336700E+01	  0.106372744	-8.500000E-02
433	  0.106573142	-2.974900E+01	  0.106573142	-8.520000E-01	  0.106573142	5.336300E+01	  0.106573142	-5.100000E-02
434	  0.106773548	-2.971900E+01	  0.106773548	-9.070000E-01	  0.106773548	5.337500E+01	  0.106773548	-5.500000E-02
435	  0.106973946	-2.973600E+01	  0.106973946	-1.408000E+00	  0.106973946	5.336800E+01	  0.106973946	-8.500000E-02
436	  0.107174344	-2.980500E+01	  0.107174344	-1.258000E+00	  0.107174344	5.334100E+01	  0.107174344	-7.500000E-02
437	  0.107374750	-2.973600E+01	  0.107374750	-1.681000E+00	  0.107374750	5.336700E+01	  0.107374750	-1.020000E-01
438	  0.107575148	-2.976000E+01	  0.107575148	-2.025000E+00	  0.107575148	5.335700E+01	  0.107575148	-1.220000E-01
439	  0.107775547	-2.976600E+01	  0.107775547	-1.604000E+00	  0.107775547	5.335600E+01	  0.107775547	-9.700000E-02
440	  0.107975952	-2.981500E+01	  0.107975952	-2.038000E+00	  0.107975952	5.333500E+01	  0.107975952	-1.220000E-01
441	  0.108176351	-2.982400E+01	  0.108176351	-2.048000E+00	  0.108176351	5.333200E+01	  0.108176351	-1.230000E-01
442	  0.108376749	-2.977800E+01	  0.108376749	-1.488000E+00	  0.108376749	5.335100E+01	  0.108376749	-9.000000E-02
443	  0.108577155	-2.975000E+01	  0.108577155	-2.778000E+00	  0.108577155	5.335900E+01	  0.108577155	-1.680000E-01
444	  0.108777553	-2.978800E+01	  0.108777553	-2.043000E+00	  0.108777553	5.334600E+01	  0.108777553	-1.230000E-01
445	  0.108977959	-2.981400E+01	  0.108977959	-1.640000E+00	  0.108977959	5.333600E+01	  0.108977959	-9.800000E-02
446	  0.109178357	-2.982300E+01	  0.109178357	-3.143000E+00	  0.109178357	5.332900E+01	  0.109178357	-1.880000E-01
447	  0.109378755	-2.993700E+01	  0.109378755	-2.774000E+00	  0.109378755	5.328500E+01	  0.109378755	-1.640000E-01
448	  0.109579161	-2.987000E+01	  0.109579161	-3.511000E+00	  0.109579161	5.330900E+01	  0.109579161	-2.090000E-01
449	  0.109779559	-2.986100E+01	  0.109779559	-3.699000E+00	  0.109779559	5.331200E+01	  0.109779559	-2.210000E-01
450	  0.109979957	-2.987900E+01	  0.109979957	-3.502000E+00	  0.109979957	5.330500E+01	  0.109979957	-2.090000E-01
451	  0.110180363	-2.989500E+01	  0.110180363	-3.720000E+00	  0.110180363	5.329800E+01	  0.110180363	-2.210000E-01
452	  0.110380761	-2.987500E+01	  0.110380761	-4.564000E+00	  0.110380761	5.330200E+01	  0.110380761	-2.720000E-01
453	  0.110581160	-2.986000E+01	  0.110581160	-4.385000E+00	  0.110581160	5.330900E+01	  0.110581160	-2.620000E-01
454	  0.110781565	-2.982200E+01	  0.110781565	-4.752000E+00	  0.110781565	5.332200E+01	  0.110781565	-2.850000E-01
455	  0.110981964	-2.976600E+01	  0.110981964	-5.466000E+00	  0.110981964	5.334000E+01	  0.110981964	-3.300000E-01
456	  0.111182362	-2.978100E+01	  0.111182362	-5.764000E+00	  0.111182362	5.333200E+01	  0.111182362	-3.470000E-01
457	  0.111382768	-2.974300E+01	  0.111382768	-5.501000E+00	  0.111382768	5.334900E+01	  0.111382768	-3.330000E-01
458	  0.111583166	-2.971700E+01	  0.111583166	-5.607000E+00	  0.111583166	5.335900E+01	  0.111583166	-3.410000E-01
459	  0.111783572	-2.974100E+01	  0.111783572	-5.816000E+00	  0.111783572	5.334800E+01	  0.111783572	-3.520000E-01
460	  0.111983970	-2.968600E+01	  0.111983970	-5.985000E+00	  0.111983970	5.336900E+01	  0.111983970	-3.650000E-01
461	  0.112184368	-2.971900E+01	  0.112184368	-6.151000E+00	  0.112184368	5.335500E+01	  0.112184368	-3.730000E-01
462	  0.112384774	-2.955500E+01	  0.112384774	-6.185000E+00	  0.112384774	5.342000E+01	  0.112384774	-3.830000E-01
463	  0.112585172	-2.962400E+01	  0.112585172	-6.279000E+00	  0.112585172	5.339200E+01	  0.112585172	-3.860000E-01
464	  0.112785570	-2.960100E+01	  0.112785570	-6.124000E+00	  0.112785570	5.340200E+01	  0.112785570	-3.770000E-01
465	  0.112985976	-2.963000E+01	  0.112985976	-6.403000E+00	  0.112985976	5.338800E+01	  0.112985976	-3.930000E-01
466	  0.113186374	-2.967900E+01	  0.113186374	-6.659000E+00	  0.113186374	5.336700E+01	  0.113186374	-4.060000E-01
467	  0.113386773	-2.964400E+01	  0.113386773	-6.668000E+00	  0.113386773	5.338100E+01	  0.113386773	-4.080000E-01
468	  0.113587178	-2.961100E+01	  0.113587178	-6.501000E+00	  0.113587178	5.339500E+01	  0.113587178	-4.000000E-01
469	  0.113787577	-2.959900E+01	  0.113787577	-6.474000E+00	  0.113787577	5.340000E+01	  0.113787577	-3.990000E-01
470	  0.113987975	-2.961900E+01	  0.113987975	-6.158000E+00	  0.113987975	5.339500E+01	  0.113987975	-3.780000E-01
471	  0.114188381	-2.953300E+01	  0.114188381	-6.721000E+00	  0.114188381	5.342500E+01	  0.114188381	-4.170000E-01
472	  0.114388779	-2.961800E+01	  0.114388779	-6.992000E+00	  0.114388779	5.338900E+01	  0.114388779	-4.300000E-01
473	  0.114589177	-2.964000E+01	  0.114589177	-6.596000E+00	  0.114589177	5.338300E+01	  0.114589177	-4.040000E-01
474	  0.114789583	-2.964200E+01	  0.114789583	-7.229000E+00	  0.114789583	5.337700E+01	  0.114789583	-4.430000E-01
475	  0.114989981	-2.969800E+01	  0.114989981	-7.536000E+00	  0.114989981	5.335200E+01	  0.114989981	-4.580000E-01
476	  0.115190387	-2.969500E+01	  0.115190387	-7.682000E+00	  0.115190387	5.335200E+01	  0.115190387	-4.670000E-01
477	  0.115390785	-2.970600E+01	  0.115390785	-7.887000E+00	  0.115390785	5.334600E+01	  0.115390785	-4.790000E-01
478	  0.115591183	-2.968100E+01	  0.115591183	-7.977000E+00	  0.115591183	5.335500E+01	  0.115591183	-4.860000E-01
479	  0.115791589	-2.960800E+01	  0.115791589	-7.998000E+00	  0.115791589	5.338400E+01	  0.115791589	-4.920000E-01
480	  0.115991987	-2.961500E+01	  0.115991987	-8.359000E+00	  0.115991987	5.337800E+01	  0.115991987	-5.130000E-01
481	  0.116192386	-2.965200E+01	  0.116192386	-8.664000E+00	  0.116192386	5.336000E+01	  0.116192386	-5.290000E-01
482	  0.116392791	-2.958400E+01	  0.116392791	-8.653000E+00	  0.116392791	5.338700E+01	  0.116392791	-5.330000E-01
483	  0.116593190	-2.962900E+01	  0.116593190	-8.844000E+00	  0.116593190	5.336700E+01	  0.116593190	-5.420000E-01
484	  0.116793588	-2.962200E+01	  0.116793588	-8.851000E+00	  0.116793588	5.337000E+01	  0.116793588	-5.430000E-01
485	  0.116993994	-2.960400E+01	  0.116993994	-9.123000E+00	  0.116993994	5.337400E+01	  0.116993994	-5.600000E-01
486	  0.117194392	-2.951500E+01	  0.117194392	-9.253000E+00	  0.117194392	5.340900E+01	  0.117194392	-5.740000E-01
487	  0.117394790	-2.947900E+01	  0.117394790	-9.549000E+00	  0.117394790	5.342100E+01	  0.117394790	-5.950000E-01
488	  0.117595196	-2.954500E+01	  0.117595196	-9.644000E+00	  0.117595196	5.339300E+01	  0.117595196	-5.960000E-01
489	  0.117795594	-2.950700E+01	  0.117795594	-8.985000E+00	  0.117795594	5.341500E+01	  0.117795594	-5.590000E-01
490	  0.117995992	-2.949300E+01	  0.117995992	-9.533000E+00	  0.117995992	5.341500E+01	  0.117995992	-5.930000E-01
491	  0.118196398	-2.950400E+01	  0.118196398	-9.630000E+00	  0.118196398	5.340900E+01	  0.118196398	-5.980000E-01
492	  0.118396796	-2.953300E+01	  0.118396796	-9.198000E+00	  0.118396796	5.340200E+01	  0.118396796	-5.700000E-01
493	  0.118597202	-2.947800E+01	  0.118597202	-9.372000E+00	  0.118597202	5.342300E+01	  0.118597202	-5.840000E-01
494	  0.118797600	-2.952200E+01	  0.118797600	-9.229000E+00	  0.118797600	5.340700E+01	  0.118797600	-5.730000E-01
495	  0.118997999	-2.951600E+01	  0.118997999	-9.726000E+00	  0.118997999	5.340300E+01	  0.118997999	-6.030000E-01
496	  0.119198404	-2.955500E+01	  0.119198404	-9.708000E+00	  0.119198404	5.338800E+01	  0.119198404	-5.990000E-01
497	  0.119398803	-2.960000E+01	  0.119398803	-9.908000E+00	  0.119398803	5.336800E+01	  0.119398803	-6.080000E-01
498	  0.119599201	-2.957100E+01	  0.119599201	-9.727000E+00	  0.119599201	5.338100E+01	  0.119599201	-5.990000E-01
499	  0.119799607	-2.965300E+01	  0.119799607	-9.520000E+00	  0.119799607	5.335100E+01	  0.119799607	-5.810000E-01
500	  0.120000005	-2.968200E+01	  0.120000005	-9.820000E+00	  0.120000005	5.333600E+01	  0.120000005	-5.970000E-01
