! Anritsu VNA Master:             	Model: MS2036C/10/77
! SN:             	1601066
! /card0/usr/18may27.balun/252b.47.3.txt
! Existing Calibration Information:
! TYPE:             	Current Settings	Active Cal Settings
! TIME:             	05/27/2018 12:56:45 PM	05/27/2018 12:49:51 PM
! INTERNAL TEMP:    	52.3 C	52.5 C
! # POINTS:         	500	500
! START FREQ:       	20.000 MHz	20.000 MHz
! STOP FREQ:        	120.000 MHz	120.000 MHz
! SOURCE POWER:     	High	High
! IFBW:             	50 Hz	50 Hz
! AVG FACTOR:       	  1 	  1 
! REF PLANE 1:      	0 mm	0 mm
! REF PLANE 2:      	0 mm	0 mm
! CAL TYPE:         	Full S11	Full S11
! CAL METHOD:       	SOLT	SOLT
! CAL LINE TYPE:    	Coax	Coax
! DUT PORT 1:       	K-Conn(M)	K-Conn(M)
! DUT PORT 2:       	K-Conn(M)	K-Conn(M)
! CAL STATUS:       	OK: Accuracy High	--
! PROP-V:       	0.700
! CABLE LOSS:       	0.000 dB/m
! REF IMPEDANCE:       	50.0
! Trace Specific Parameters:	TR1	TR2	TR3	TR4
! TRACE.#.Y (GRAPH TYPE)	LOG MAG	PHASE	REAL IMPEDANCE	IMAGINARY IMPEDANCE
! TRACE.#.X 	FREQ.GHZ	FREQ.GHZ	FREQ.GHZ	FREQ.GHZ
! S-PARAMETER	S11	S11	S11	S11
! SMOOTH/APERTURE %	0	0	0	0
! WINDOW	NSL	NSL	NSL	NSL
! GATING	OFF	OFF	OFF	OFF
! FGTD	OFF	OFF	OFF	OFF
Marker Information per Trace:	TR1	TR2	TR3	TR4
!MK1	--	--	--	"MK1 TR4:  70.100 200 MHz,Z:(0.769 ohm, -1.131 ohm)"
!MK2	--	--	--	--
!MK3	--	--	--	--
!MK4	--	--	--	--
!MK5	--	--	--	--
!MK6	--	--	--	--
!MK7	--	--	--	--
!MK8	--	--	--	--
PNT	TR1.FREQ.GHZ	TR1.LOG MAG.dB	TR2.FREQ.GHZ	TR2.PHASE.deg	TR3.FREQ.GHZ	TR3.REAL IMPEDANCE.ohm	TR4.FREQ.GHZ	TR4.IMAGINARY IMPEDANCE.ohm
1	  0.020000000	-2.900000E-02	  0.020000000	-5.616100E+01	  0.020000000	3.890000E-01	  0.020000000	-9.371600E+01
2	  0.020200402	-2.600000E-02	  0.020200402	-5.673500E+01	  0.020200402	3.360000E-01	  0.020200402	-9.259600E+01
3	  0.020400802	-2.400000E-02	  0.020400802	-5.727700E+01	  0.020400802	3.100000E-01	  0.020400802	-9.155800E+01
4	  0.020601204	-2.400000E-02	  0.020601204	-5.782400E+01	  0.020601204	2.960000E-01	  0.020601204	-9.052700E+01
5	  0.020801604	-2.200000E-02	  0.020801604	-5.837400E+01	  0.020801604	2.750000E-01	  0.020801604	-8.951000E+01
6	  0.021002004	-2.300000E-02	  0.021002004	-5.895800E+01	  0.021002004	2.810000E-01	  0.021002004	-8.844800E+01
7	  0.021202406	-2.600000E-02	  0.021202406	-5.951400E+01	  0.021202406	3.070000E-01	  0.021202406	-8.745400E+01
8	  0.021402806	-2.800000E-02	  0.021402806	-6.006200E+01	  0.021402806	3.220000E-01	  0.021402806	-8.649300E+01
9	  0.021603208	-3.100000E-02	  0.021603208	-6.060200E+01	  0.021603208	3.550000E-01	  0.021603208	-8.555800E+01
10	  0.021803608	-3.400000E-02	  0.021803608	-6.113200E+01	  0.021803608	3.850000E-01	  0.021803608	-8.465700E+01
11	  0.022004008	-3.500000E-02	  0.022004008	-6.164400E+01	  0.022004008	3.940000E-01	  0.022004008	-8.380000E+01
12	  0.022204408	-4.000000E-02	  0.022204408	-6.220200E+01	  0.022204408	4.330000E-01	  0.022204408	-8.287900E+01
13	  0.022404809	-4.100000E-02	  0.022404809	-6.276700E+01	  0.022404809	4.410000E-01	  0.022404809	-8.196400E+01
14	  0.022605211	-4.100000E-02	  0.022605211	-6.331300E+01	  0.022605211	4.380000E-01	  0.022605211	-8.109200E+01
15	  0.022805611	-4.100000E-02	  0.022805611	-6.386700E+01	  0.022805611	4.230000E-01	  0.022805611	-8.022100E+01
16	  0.023006011	-3.400000E-02	  0.023006011	-6.441900E+01	  0.023006011	3.480000E-01	  0.023006011	-7.936700E+01
17	  0.023206413	-2.600000E-02	  0.023206413	-6.497000E+01	  0.023206413	2.670000E-01	  0.023206413	-7.852700E+01
18	  0.023406813	-2.000000E-02	  0.023406813	-6.552300E+01	  0.023406813	2.000000E-01	  0.023406813	-7.769700E+01
19	  0.023607215	-1.700000E-02	  0.023607215	-6.607500E+01	  0.023607215	1.710000E-01	  0.023607215	-7.688200E+01
20	  0.023807615	-1.900000E-02	  0.023807615	-6.659800E+01	  0.023807615	1.850000E-01	  0.023807615	-7.611900E+01
21	  0.024008015	-2.200000E-02	  0.024008015	-6.708200E+01	  0.024008015	2.080000E-01	  0.024008015	-7.542200E+01
22	  0.024208417	-2.700000E-02	  0.024208417	-6.757000E+01	  0.024208417	2.540000E-01	  0.024208417	-7.472900E+01
23	  0.024408817	-3.200000E-02	  0.024408817	-6.804700E+01	  0.024408817	3.010000E-01	  0.024408817	-7.406000E+01
24	  0.024609219	-3.800000E-02	  0.024609219	-6.855900E+01	  0.024609219	3.490000E-01	  0.024609219	-7.335200E+01
25	  0.024809619	-4.100000E-02	  0.024809619	-6.908900E+01	  0.024809619	3.730000E-01	  0.024809619	-7.262700E+01
26	  0.025010020	-4.600000E-02	  0.025010020	-6.966100E+01	  0.025010020	4.110000E-01	  0.025010020	-7.185600E+01
27	  0.025210422	-4.700000E-02	  0.025210422	-7.022900E+01	  0.025210422	4.130000E-01	  0.025210422	-7.110200E+01
28	  0.025410822	-5.000000E-02	  0.025410822	-7.080200E+01	  0.025410822	4.370000E-01	  0.025410822	-7.035100E+01
29	  0.025611224	-5.100000E-02	  0.025611224	-7.138000E+01	  0.025611224	4.310000E-01	  0.025611224	-6.960500E+01
30	  0.025811624	-5.200000E-02	  0.025811624	-7.195700E+01	  0.025811624	4.370000E-01	  0.025811624	-6.887100E+01
31	  0.026012026	-4.800000E-02	  0.026012026	-7.252500E+01	  0.026012026	4.010000E-01	  0.026012026	-6.815800E+01
32	  0.026212426	-4.400000E-02	  0.026212426	-7.307900E+01	  0.026212426	3.620000E-01	  0.026212426	-6.747100E+01
33	  0.026412826	-4.400000E-02	  0.026412826	-7.362700E+01	  0.026412826	3.540000E-01	  0.026412826	-6.680100E+01
34	  0.026613226	-4.700000E-02	  0.026613226	-7.414100E+01	  0.026613226	3.720000E-01	  0.026613226	-6.618000E+01
35	  0.026813626	-4.800000E-02	  0.026813626	-7.463500E+01	  0.026813626	3.820000E-01	  0.026813626	-6.559000E+01
36	  0.027014028	-5.300000E-02	  0.027014028	-7.510900E+01	  0.027014028	4.100000E-01	  0.027014028	-6.503000E+01
37	  0.027214428	-6.400000E-02	  0.027214428	-7.561100E+01	  0.027214428	4.920000E-01	  0.027214428	-6.444300E+01
38	  0.027414829	-7.300000E-02	  0.027414829	-7.614900E+01	  0.027414829	5.560000E-01	  0.027414829	-6.382100E+01
39	  0.027615231	-8.100000E-02	  0.027615231	-7.673200E+01	  0.027615231	6.070000E-01	  0.027615231	-6.315700E+01
40	  0.027815631	-8.300000E-02	  0.027815631	-7.734300E+01	  0.027815631	6.160000E-01	  0.027815631	-6.246900E+01
41	  0.028016033	-8.300000E-02	  0.028016033	-7.793900E+01	  0.028016033	6.060000E-01	  0.028016033	-6.180700E+01
42	  0.028216433	-7.400000E-02	  0.028216433	-7.854800E+01	  0.028216433	5.320000E-01	  0.028216433	-6.114100E+01
43	  0.028416833	-6.500000E-02	  0.028416833	-7.915200E+01	  0.028416833	4.650000E-01	  0.028416833	-6.048800E+01
44	  0.028617235	-5.600000E-02	  0.028617235	-7.974200E+01	  0.028617235	3.950000E-01	  0.028617235	-5.985900E+01
45	  0.028817635	-4.800000E-02	  0.028817635	-8.027900E+01	  0.028817635	3.380000E-01	  0.028817635	-5.929200E+01
46	  0.029018037	-3.900000E-02	  0.029018037	-8.078000E+01	  0.029018037	2.710000E-01	  0.029018037	-5.876900E+01
47	  0.029218437	-3.100000E-02	  0.029218437	-8.122200E+01	  0.029218437	2.150000E-01	  0.029218437	-5.831100E+01
48	  0.029418837	-2.500000E-02	  0.029418837	-8.165800E+01	  0.029418837	1.720000E-01	  0.029418837	-5.786500E+01
49	  0.029619239	-2.300000E-02	  0.029619239	-8.206300E+01	  0.029619239	1.590000E-01	  0.029619239	-5.745300E+01
50	  0.029819639	-2.600000E-02	  0.029819639	-8.251600E+01	  0.029819639	1.720000E-01	  0.029819639	-5.699700E+01
51	  0.030020041	-3.100000E-02	  0.030020041	-8.299600E+01	  0.030020041	2.080000E-01	  0.030020041	-5.651800E+01
52	  0.030220442	-3.900000E-02	  0.030220442	-8.350800E+01	  0.030220442	2.550000E-01	  0.030220442	-5.601000E+01
53	  0.030420844	-5.100000E-02	  0.030420844	-8.403800E+01	  0.030420844	3.290000E-01	  0.030420844	-5.549100E+01
54	  0.030621244	-6.100000E-02	  0.030621244	-8.462300E+01	  0.030621244	3.870000E-01	  0.030621244	-5.492400E+01
55	  0.030821644	-6.300000E-02	  0.030821644	-8.517600E+01	  0.030821644	4.010000E-01	  0.030821644	-5.439500E+01
56	  0.031022044	-6.500000E-02	  0.031022044	-8.572800E+01	  0.031022044	4.070000E-01	  0.031022044	-5.387100E+01
57	  0.031222444	-6.100000E-02	  0.031222444	-8.628100E+01	  0.031222444	3.810000E-01	  0.031222444	-5.335300E+01
58	  0.031422846	-6.300000E-02	  0.031422846	-8.684100E+01	  0.031422846	3.840000E-01	  0.031422846	-5.283300E+01
59	  0.031623244	-6.600000E-02	  0.031623244	-8.736600E+01	  0.031623244	4.020000E-01	  0.031623244	-5.235100E+01
60	  0.031823646	-6.400000E-02	  0.031823646	-8.787700E+01	  0.031823646	3.840000E-01	  0.031823646	-5.188600E+01
61	  0.032024048	-6.100000E-02	  0.032024048	-8.836100E+01	  0.032024048	3.620000E-01	  0.032024048	-5.144900E+01
62	  0.032224450	-6.200000E-02	  0.032224450	-8.882000E+01	  0.032224450	3.680000E-01	  0.032224450	-5.103900E+01
63	  0.032424849	-7.200000E-02	  0.032424849	-8.928000E+01	  0.032424849	4.210000E-01	  0.032424849	-5.062900E+01
64	  0.032625251	-8.100000E-02	  0.032625251	-8.977500E+01	  0.032625251	4.720000E-01	  0.032625251	-5.019400E+01
65	  0.032825653	-9.200000E-02	  0.032825653	-9.029800E+01	  0.032825653	5.300000E-01	  0.032825653	-4.973700E+01
66	  0.033026051	-1.000000E-01	  0.033026051	-9.083800E+01	  0.033026051	5.670000E-01	  0.033026051	-4.927000E+01
67	  0.033226453	-1.070000E-01	  0.033226453	-9.140200E+01	  0.033226453	6.010000E-01	  0.033226453	-4.878700E+01
68	  0.033426855	-1.100000E-01	  0.033426855	-9.197600E+01	  0.033426855	6.160000E-01	  0.033426855	-4.830000E+01
69	  0.033627257	-1.150000E-01	  0.033627257	-9.258100E+01	  0.033627257	6.340000E-01	  0.033627257	-4.779200E+01
70	  0.033827655	-1.150000E-01	  0.033827655	-9.319800E+01	  0.033827655	6.300000E-01	  0.033827655	-4.728000E+01
71	  0.034028057	-1.120000E-01	  0.034028057	-9.377200E+01	  0.034028057	6.060000E-01	  0.034028057	-4.680800E+01
72	  0.034228459	-1.010000E-01	  0.034228459	-9.431200E+01	  0.034228459	5.450000E-01	  0.034228459	-4.636800E+01
73	  0.034428857	-9.100000E-02	  0.034428857	-9.484500E+01	  0.034428857	4.850000E-01	  0.034428857	-4.593800E+01
74	  0.034629259	-7.900000E-02	  0.034629259	-9.534000E+01	  0.034629259	4.180000E-01	  0.034629259	-4.554200E+01
75	  0.034829661	-6.900000E-02	  0.034829661	-9.583300E+01	  0.034829661	3.640000E-01	  0.034829661	-4.515000E+01
76	  0.035030060	-6.400000E-02	  0.035030060	-9.628300E+01	  0.035030060	3.350000E-01	  0.035030060	-4.479500E+01
77	  0.035230462	-6.200000E-02	  0.035230462	-9.673100E+01	  0.035230462	3.210000E-01	  0.035230462	-4.444400E+01
78	  0.035430863	-5.900000E-02	  0.035430863	-9.715700E+01	  0.035430863	3.060000E-01	  0.035430863	-4.411200E+01
79	  0.035631265	-6.700000E-02	  0.035631265	-9.761800E+01	  0.035631265	3.410000E-01	  0.035631265	-4.375600E+01
80	  0.035831664	-7.400000E-02	  0.035831664	-9.811100E+01	  0.035831664	3.780000E-01	  0.035831664	-4.337700E+01
81	  0.036032066	-8.400000E-02	  0.036032066	-9.865500E+01	  0.036032066	4.210000E-01	  0.036032066	-4.296200E+01
82	  0.036232468	-9.100000E-02	  0.036232468	-9.917800E+01	  0.036232468	4.550000E-01	  0.036232468	-4.256700E+01
83	  0.036432866	-9.700000E-02	  0.036432866	-9.976600E+01	  0.036432866	4.780000E-01	  0.036432866	-4.212600E+01
84	  0.036633268	-9.900000E-02	  0.036633268	-1.003280E+02	  0.036633268	4.860000E-01	  0.036633268	-4.170800E+01
85	  0.036833670	-1.020000E-01	  0.036833670	-1.008990E+02	  0.036833670	4.970000E-01	  0.036833670	-4.128800E+01
86	  0.037034072	-9.500000E-02	  0.037034072	-1.014300E+02	  0.037034072	4.570000E-01	  0.037034072	-4.089900E+01
87	  0.037234470	-8.600000E-02	  0.037234470	-1.019390E+02	  0.037234470	4.100000E-01	  0.037234470	-4.053100E+01
88	  0.037434869	-7.900000E-02	  0.037434869	-1.023960E+02	  0.037434869	3.740000E-01	  0.037434869	-4.020200E+01
89	  0.037635271	-7.200000E-02	  0.037635271	-1.028480E+02	  0.037635271	3.420000E-01	  0.037635271	-3.987800E+01
90	  0.037835669	-7.500000E-02	  0.037835669	-1.032690E+02	  0.037835669	3.510000E-01	  0.037835669	-3.957900E+01
91	  0.038036071	-8.300000E-02	  0.038036071	-1.037370E+02	  0.038036071	3.870000E-01	  0.038036071	-3.924700E+01
92	  0.038236473	-9.100000E-02	  0.038236473	-1.042280E+02	  0.038236473	4.220000E-01	  0.038236473	-3.890200E+01
93	  0.038436871	-9.700000E-02	  0.038436871	-1.047230E+02	  0.038436871	4.490000E-01	  0.038436871	-3.855600E+01
94	  0.038637273	-1.070000E-01	  0.038637273	-1.052270E+02	  0.038637273	4.880000E-01	  0.038637273	-3.820600E+01
95	  0.038837675	-1.160000E-01	  0.038837675	-1.057450E+02	  0.038837675	5.290000E-01	  0.038837675	-3.784900E+01
96	  0.039038073	-1.250000E-01	  0.039038073	-1.063000E+02	  0.039038073	5.630000E-01	  0.039038073	-3.746900E+01
97	  0.039238475	-1.320000E-01	  0.039238475	-1.068420E+02	  0.039238475	5.920000E-01	  0.039238475	-3.710100E+01
98	  0.039438877	-1.320000E-01	  0.039438877	-1.073930E+02	  0.039438877	5.880000E-01	  0.039438877	-3.672900E+01
99	  0.039639279	-1.280000E-01	  0.039639279	-1.079530E+02	  0.039639279	5.650000E-01	  0.039639279	-3.635500E+01
100	  0.039839678	-1.240000E-01	  0.039839678	-1.084720E+02	  0.039839678	5.430000E-01	  0.039839678	-3.601000E+01
101	  0.040040080	-1.170000E-01	  0.040040080	-1.089650E+02	  0.040040080	5.110000E-01	  0.040040080	-3.568400E+01
102	  0.040240481	-1.090000E-01	  0.040240481	-1.094370E+02	  0.040240481	4.740000E-01	  0.040240481	-3.537500E+01
103	  0.040440880	-1.060000E-01	  0.040440880	-1.099150E+02	  0.040440880	4.550000E-01	  0.040440880	-3.506300E+01
104	  0.040641282	-1.020000E-01	  0.040641282	-1.103840E+02	  0.040641282	4.380000E-01	  0.040641282	-3.475900E+01
105	  0.040841684	-1.030000E-01	  0.040841684	-1.108540E+02	  0.040841684	4.390000E-01	  0.040841684	-3.445500E+01
106	  0.041042086	-1.060000E-01	  0.041042086	-1.113210E+02	  0.041042086	4.500000E-01	  0.041042086	-3.415600E+01
107	  0.041242484	-1.120000E-01	  0.041242484	-1.117830E+02	  0.041242484	4.720000E-01	  0.041242484	-3.386100E+01
108	  0.041442886	-1.250000E-01	  0.041442886	-1.122810E+02	  0.041442886	5.230000E-01	  0.041442886	-3.354400E+01
109	  0.041643288	-1.340000E-01	  0.041643288	-1.128000E+02	  0.041643288	5.580000E-01	  0.041643288	-3.321600E+01
110	  0.041843686	-1.410000E-01	  0.041843686	-1.133380E+02	  0.041843686	5.850000E-01	  0.041843686	-3.287900E+01
111	  0.042044088	-1.440000E-01	  0.042044088	-1.138990E+02	  0.042044088	5.900000E-01	  0.042044088	-3.252900E+01
112	  0.042244490	-1.380000E-01	  0.042244490	-1.144440E+02	  0.042244490	5.630000E-01	  0.042244490	-3.219200E+01
113	  0.042444889	-1.270000E-01	  0.042444889	-1.149690E+02	  0.042444889	5.150000E-01	  0.042444889	-3.186900E+01
114	  0.042645290	-1.140000E-01	  0.042645290	-1.154530E+02	  0.042645290	4.600000E-01	  0.042645290	-3.157400E+01
115	  0.042845692	-1.090000E-01	  0.042845692	-1.159180E+02	  0.042845692	4.380000E-01	  0.042845692	-3.129100E+01
116	  0.043046094	-1.090000E-01	  0.043046094	-1.163400E+02	  0.043046094	4.350000E-01	  0.043046094	-3.103500E+01
117	  0.043246493	-1.100000E-01	  0.043246493	-1.167940E+02	  0.043246493	4.390000E-01	  0.043246493	-3.076100E+01
118	  0.043446895	-1.160000E-01	  0.043446895	-1.172530E+02	  0.043446895	4.580000E-01	  0.043446895	-3.048600E+01
119	  0.043647297	-1.180000E-01	  0.043647297	-1.177300E+02	  0.043647297	4.670000E-01	  0.043647297	-3.020100E+01
120	  0.043847695	-1.230000E-01	  0.043847695	-1.181870E+02	  0.043847695	4.830000E-01	  0.043847695	-2.992900E+01
121	  0.044048097	-1.320000E-01	  0.044048097	-1.186580E+02	  0.044048097	5.160000E-01	  0.044048097	-2.965100E+01
122	  0.044248499	-1.400000E-01	  0.044248499	-1.191730E+02	  0.044248499	5.440000E-01	  0.044248499	-2.934700E+01
123	  0.044448901	-1.440000E-01	  0.044448901	-1.196670E+02	  0.044448901	5.540000E-01	  0.044448901	-2.905800E+01
124	  0.044649299	-1.470000E-01	  0.044649299	-1.201780E+02	  0.044649299	5.640000E-01	  0.044649299	-2.876100E+01
125	  0.044849701	-1.460000E-01	  0.044849701	-1.206880E+02	  0.044849701	5.580000E-01	  0.044849701	-2.846500E+01
126	  0.045050103	-1.430000E-01	  0.045050103	-1.211770E+02	  0.045050103	5.430000E-01	  0.045050103	-2.818400E+01
127	  0.045250501	-1.420000E-01	  0.045250501	-1.216650E+02	  0.045250501	5.360000E-01	  0.045250501	-2.790300E+01
128	  0.045450903	-1.400000E-01	  0.045450903	-1.221450E+02	  0.045450903	5.260000E-01	  0.045450903	-2.763000E+01
129	  0.045651305	-1.400000E-01	  0.045651305	-1.226460E+02	  0.045651305	5.250000E-01	  0.045651305	-2.734500E+01
130	  0.045851704	-1.360000E-01	  0.045851704	-1.231320E+02	  0.045851704	5.080000E-01	  0.045851704	-2.707100E+01
131	  0.046052106	-1.340000E-01	  0.046052106	-1.236190E+02	  0.046052106	4.980000E-01	  0.046052106	-2.679600E+01
132	  0.046252504	-1.340000E-01	  0.046252504	-1.240750E+02	  0.046252504	4.970000E-01	  0.046252504	-2.654100E+01
133	  0.046452906	-1.370000E-01	  0.046452906	-1.245410E+02	  0.046452906	5.060000E-01	  0.046452906	-2.628100E+01
134	  0.046653304	-1.480000E-01	  0.046653304	-1.249710E+02	  0.046653304	5.420000E-01	  0.046653304	-2.604100E+01
135	  0.046853706	-1.590000E-01	  0.046853706	-1.254680E+02	  0.046853706	5.810000E-01	  0.046853706	-2.576600E+01
136	  0.047054108	-1.660000E-01	  0.047054108	-1.259810E+02	  0.047054108	6.040000E-01	  0.047054108	-2.548300E+01
137	  0.047254506	-1.700000E-01	  0.047254506	-1.265280E+02	  0.047254506	6.160000E-01	  0.047254506	-2.518300E+01
138	  0.047454908	-1.680000E-01	  0.047454908	-1.270710E+02	  0.047454908	6.060000E-01	  0.047454908	-2.488700E+01
139	  0.047655310	-1.610000E-01	  0.047655310	-1.275710E+02	  0.047655310	5.770000E-01	  0.047655310	-2.461500E+01
140	  0.047855709	-1.520000E-01	  0.047855709	-1.280730E+02	  0.047855709	5.430000E-01	  0.047855709	-2.434400E+01
141	  0.048056111	-1.470000E-01	  0.048056111	-1.285350E+02	  0.048056111	5.230000E-01	  0.048056111	-2.409500E+01
142	  0.048256513	-1.460000E-01	  0.048256513	-1.289920E+02	  0.048256513	5.150000E-01	  0.048256513	-2.385000E+01
143	  0.048456915	-1.470000E-01	  0.048456915	-1.294440E+02	  0.048456915	5.200000E-01	  0.048456915	-2.360900E+01
144	  0.048657313	-1.500000E-01	  0.048657313	-1.298950E+02	  0.048657313	5.260000E-01	  0.048657313	-2.336800E+01
145	  0.048857715	-1.500000E-01	  0.048857715	-1.303390E+02	  0.048857715	5.250000E-01	  0.048857715	-2.313300E+01
146	  0.049058117	-1.570000E-01	  0.049058117	-1.307710E+02	  0.049058117	5.470000E-01	  0.049058117	-2.290400E+01
147	  0.049258515	-1.640000E-01	  0.049258515	-1.312440E+02	  0.049258515	5.700000E-01	  0.049258515	-2.265400E+01
148	  0.049458917	-1.670000E-01	  0.049458917	-1.317260E+02	  0.049458917	5.790000E-01	  0.049458917	-2.240200E+01
149	  0.049659319	-1.710000E-01	  0.049659319	-1.322000E+02	  0.049659319	5.910000E-01	  0.049659319	-2.215400E+01
150	  0.049859721	-1.720000E-01	  0.049859721	-1.326860E+02	  0.049859721	5.930000E-01	  0.049859721	-2.190000E+01
151	  0.050060119	-1.720000E-01	  0.050060119	-1.331560E+02	  0.050060119	5.900000E-01	  0.050060119	-2.165600E+01
152	  0.050260521	-1.740000E-01	  0.050260521	-1.336080E+02	  0.050260521	5.940000E-01	  0.050260521	-2.142200E+01
153	  0.050460923	-1.740000E-01	  0.050460923	-1.340830E+02	  0.050460923	5.910000E-01	  0.050460923	-2.117800E+01
154	  0.050661322	-1.730000E-01	  0.050661322	-1.345570E+02	  0.050661322	5.880000E-01	  0.050661322	-2.093400E+01
155	  0.050861724	-1.740000E-01	  0.050861724	-1.350480E+02	  0.050861724	5.860000E-01	  0.050861724	-2.068300E+01
156	  0.051062126	-1.700000E-01	  0.051062126	-1.355120E+02	  0.051062126	5.740000E-01	  0.051062126	-2.044600E+01
157	  0.051262524	-1.680000E-01	  0.051262524	-1.359800E+02	  0.051262524	5.640000E-01	  0.051262524	-2.020900E+01
158	  0.051462926	-1.670000E-01	  0.051462926	-1.364130E+02	  0.051462926	5.590000E-01	  0.051462926	-1.998900E+01
159	  0.051663328	-1.690000E-01	  0.051663328	-1.368450E+02	  0.051663328	5.650000E-01	  0.051663328	-1.977100E+01
160	  0.051863730	-1.740000E-01	  0.051863730	-1.372760E+02	  0.051863730	5.800000E-01	  0.051863730	-1.955400E+01
161	  0.052064128	-1.830000E-01	  0.052064128	-1.377410E+02	  0.052064128	6.050000E-01	  0.052064128	-1.932000E+01
162	  0.052264530	-1.910000E-01	  0.052264530	-1.382220E+02	  0.052264530	6.320000E-01	  0.052264530	-1.907900E+01
163	  0.052464932	-1.930000E-01	  0.052464932	-1.387390E+02	  0.052464932	6.340000E-01	  0.052464932	-1.882100E+01
164	  0.052665330	-1.930000E-01	  0.052665330	-1.392220E+02	  0.052665330	6.330000E-01	  0.052665330	-1.858100E+01
165	  0.052865732	-1.880000E-01	  0.052865732	-1.397280E+02	  0.052865732	6.150000E-01	  0.052865732	-1.833000E+01
166	  0.053066134	-1.860000E-01	  0.053066134	-1.402130E+02	  0.053066134	6.070000E-01	  0.053066134	-1.809000E+01
167	  0.053266536	-1.840000E-01	  0.053266536	-1.406760E+02	  0.053266536	5.970000E-01	  0.053266536	-1.786200E+01
168	  0.053466935	-1.800000E-01	  0.053466935	-1.411390E+02	  0.053466935	5.830000E-01	  0.053466935	-1.763500E+01
169	  0.053667337	-1.800000E-01	  0.053667337	-1.415850E+02	  0.053667337	5.830000E-01	  0.053667337	-1.741600E+01
170	  0.053867739	-1.740000E-01	  0.053867739	-1.420350E+02	  0.053867739	5.630000E-01	  0.053867739	-1.719600E+01
171	  0.054068137	-1.820000E-01	  0.054068137	-1.424740E+02	  0.054068137	5.840000E-01	  0.054068137	-1.698300E+01
172	  0.054268539	-1.850000E-01	  0.054268539	-1.429120E+02	  0.054268539	5.930000E-01	  0.054268539	-1.677000E+01
173	  0.054468941	-1.920000E-01	  0.054468941	-1.433570E+02	  0.054468941	6.140000E-01	  0.054468941	-1.655400E+01
174	  0.054669339	-1.930000E-01	  0.054669339	-1.438280E+02	  0.054669339	6.160000E-01	  0.054669339	-1.632600E+01
175	  0.054869737	-1.970000E-01	  0.054869737	-1.442930E+02	  0.054869737	6.270000E-01	  0.054869737	-1.610200E+01
176	  0.055070139	-1.980000E-01	  0.055070139	-1.447530E+02	  0.055070139	6.270000E-01	  0.055070139	-1.588100E+01
177	  0.055270538	-1.970000E-01	  0.055270538	-1.452100E+02	  0.055270538	6.240000E-01	  0.055270538	-1.566100E+01
178	  0.055470940	-1.980000E-01	  0.055470940	-1.456590E+02	  0.055470940	6.250000E-01	  0.055470940	-1.544700E+01
179	  0.055671342	-1.990000E-01	  0.055671342	-1.461100E+02	  0.055671342	6.270000E-01	  0.055671342	-1.523100E+01
180	  0.055871744	-2.020000E-01	  0.055871744	-1.465640E+02	  0.055871744	6.360000E-01	  0.055871744	-1.501500E+01
181	  0.056072142	-2.030000E-01	  0.056072142	-1.470430E+02	  0.056072142	6.370000E-01	  0.056072142	-1.478700E+01
182	  0.056272544	-2.010000E-01	  0.056272544	-1.475060E+02	  0.056272544	6.290000E-01	  0.056272544	-1.456800E+01
183	  0.056472946	-2.010000E-01	  0.056472946	-1.479760E+02	  0.056472946	6.260000E-01	  0.056472946	-1.434600E+01
184	  0.056673344	-1.980000E-01	  0.056673344	-1.484090E+02	  0.056673344	6.180000E-01	  0.056673344	-1.414200E+01
185	  0.056873746	-1.990000E-01	  0.056873746	-1.488390E+02	  0.056873746	6.170000E-01	  0.056873746	-1.393900E+01
186	  0.057074148	-2.010000E-01	  0.057074148	-1.492720E+02	  0.057074148	6.230000E-01	  0.057074148	-1.373600E+01
187	  0.057274550	-2.050000E-01	  0.057274550	-1.497090E+02	  0.057274550	6.340000E-01	  0.057274550	-1.353100E+01
188	  0.057474948	-2.100000E-01	  0.057474948	-1.501410E+02	  0.057474948	6.500000E-01	  0.057474948	-1.332900E+01
189	  0.057675350	-2.150000E-01	  0.057675350	-1.506010E+02	  0.057675350	6.610000E-01	  0.057675350	-1.311400E+01
190	  0.057875752	-2.150000E-01	  0.057875752	-1.510850E+02	  0.057875752	6.620000E-01	  0.057875752	-1.288800E+01
191	  0.058076151	-2.180000E-01	  0.058076151	-1.515410E+02	  0.058076151	6.690000E-01	  0.058076151	-1.267600E+01
192	  0.058276553	-2.150000E-01	  0.058276553	-1.520150E+02	  0.058276553	6.570000E-01	  0.058276553	-1.245700E+01
193	  0.058476955	-2.120000E-01	  0.058476955	-1.524760E+02	  0.058476955	6.480000E-01	  0.058476955	-1.224300E+01
194	  0.058677353	-2.110000E-01	  0.058677353	-1.529360E+02	  0.058677353	6.440000E-01	  0.058677353	-1.203100E+01
195	  0.058877755	-2.080000E-01	  0.058877755	-1.533710E+02	  0.058877755	6.330000E-01	  0.058877755	-1.183100E+01
196	  0.059078157	-2.080000E-01	  0.059078157	-1.537900E+02	  0.059078157	6.320000E-01	  0.059078157	-1.163800E+01
197	  0.059278559	-2.110000E-01	  0.059278559	-1.542230E+02	  0.059278559	6.390000E-01	  0.059278559	-1.143800E+01
198	  0.059478957	-2.160000E-01	  0.059478957	-1.546540E+02	  0.059478957	6.550000E-01	  0.059478957	-1.124100E+01
199	  0.059679359	-2.180000E-01	  0.059679359	-1.550900E+02	  0.059679359	6.590000E-01	  0.059679359	-1.104100E+01
200	  0.059879761	-2.200000E-01	  0.059879761	-1.555420E+02	  0.059879761	6.650000E-01	  0.059879761	-1.083500E+01
201	  0.060080159	-2.230000E-01	  0.060080159	-1.559900E+02	  0.060080159	6.710000E-01	  0.060080159	-1.063000E+01
202	  0.060280561	-2.190000E-01	  0.060280561	-1.564180E+02	  0.060280561	6.590000E-01	  0.060280561	-1.043500E+01
203	  0.060480963	-2.200000E-01	  0.060480963	-1.568580E+02	  0.060480963	6.610000E-01	  0.060480963	-1.023500E+01
204	  0.060681365	-2.240000E-01	  0.060681365	-1.572820E+02	  0.060681365	6.720000E-01	  0.060681365	-1.004200E+01
205	  0.060881764	-2.250000E-01	  0.060881764	-1.577220E+02	  0.060881764	6.730000E-01	  0.060881764	-9.842000E+00
206	  0.061082166	-2.290000E-01	  0.061082166	-1.581540E+02	  0.061082166	6.830000E-01	  0.061082166	-9.647000E+00
207	  0.061282568	-2.290000E-01	  0.061282568	-1.586130E+02	  0.061282568	6.830000E-01	  0.061282568	-9.439000E+00
208	  0.061482966	-2.280000E-01	  0.061482966	-1.590660E+02	  0.061482966	6.800000E-01	  0.061482966	-9.235000E+00
209	  0.061683368	-2.280000E-01	  0.061683368	-1.595030E+02	  0.061683368	6.790000E-01	  0.061683368	-9.038000E+00
210	  0.061883770	-2.290000E-01	  0.061883770	-1.599370E+02	  0.061883770	6.790000E-01	  0.061883770	-8.843000E+00
211	  0.062084168	-2.280000E-01	  0.062084168	-1.603740E+02	  0.062084168	6.770000E-01	  0.062084168	-8.646000E+00
212	  0.062284570	-2.300000E-01	  0.062284570	-1.608000E+02	  0.062284570	6.830000E-01	  0.062284570	-8.454000E+00
213	  0.062484972	-2.320000E-01	  0.062484972	-1.612010E+02	  0.062484972	6.860000E-01	  0.062484972	-8.275000E+00
214	  0.062685370	-2.320000E-01	  0.062685370	-1.616140E+02	  0.062685370	6.860000E-01	  0.062685370	-8.090000E+00
215	  0.062885776	-2.340000E-01	  0.062885776	-1.620650E+02	  0.062885776	6.920000E-01	  0.062885776	-7.888000E+00
216	  0.063086174	-2.380000E-01	  0.063086174	-1.625090E+02	  0.063086174	7.040000E-01	  0.063086174	-7.690000E+00
217	  0.063286573	-2.390000E-01	  0.063286573	-1.629550E+02	  0.063286573	7.040000E-01	  0.063286573	-7.490000E+00
218	  0.063486971	-2.380000E-01	  0.063486971	-1.634250E+02	  0.063486971	7.000000E-01	  0.063486971	-7.281000E+00
219	  0.063687377	-2.390000E-01	  0.063687377	-1.638610E+02	  0.063687377	7.010000E-01	  0.063687377	-7.087000E+00
220	  0.063887775	-2.350000E-01	  0.063887775	-1.642950E+02	  0.063887775	6.900000E-01	  0.063887775	-6.894000E+00
221	  0.064088173	-2.350000E-01	  0.064088173	-1.647190E+02	  0.064088173	6.890000E-01	  0.064088173	-6.706000E+00
222	  0.064288579	-2.370000E-01	  0.064288579	-1.651370E+02	  0.064288579	6.950000E-01	  0.064288579	-6.520000E+00
223	  0.064488977	-2.380000E-01	  0.064488977	-1.655800E+02	  0.064488977	6.960000E-01	  0.064488977	-6.324000E+00
224	  0.064689375	-2.400000E-01	  0.064689375	-1.659870E+02	  0.064689375	7.010000E-01	  0.064689375	-6.143000E+00
225	  0.064889781	-2.420000E-01	  0.064889781	-1.664370E+02	  0.064889781	7.080000E-01	  0.064889781	-5.944000E+00
226	  0.065090179	-2.430000E-01	  0.065090179	-1.668690E+02	  0.065090179	7.090000E-01	  0.065090179	-5.753000E+00
227	  0.065290578	-2.430000E-01	  0.065290578	-1.672950E+02	  0.065290578	7.080000E-01	  0.065290578	-5.565000E+00
228	  0.065490983	-2.440000E-01	  0.065490983	-1.676970E+02	  0.065490983	7.100000E-01	  0.065490983	-5.387000E+00
229	  0.065691382	-2.430000E-01	  0.065691382	-1.681280E+02	  0.065691382	7.070000E-01	  0.065691382	-5.197000E+00
230	  0.065891780	-2.470000E-01	  0.065891780	-1.685520E+02	  0.065891780	7.190000E-01	  0.065891780	-5.010000E+00
231	  0.066092186	-2.480000E-01	  0.066092186	-1.689790E+02	  0.066092186	7.230000E-01	  0.066092186	-4.822000E+00
232	  0.066292584	-2.490000E-01	  0.066292584	-1.694020E+02	  0.066292584	7.250000E-01	  0.066292584	-4.636000E+00
233	  0.066492982	-2.480000E-01	  0.066492982	-1.698480E+02	  0.066492982	7.210000E-01	  0.066492982	-4.440000E+00
234	  0.066693388	-2.500000E-01	  0.066693388	-1.702610E+02	  0.066693388	7.250000E-01	  0.066693388	-4.258000E+00
235	  0.066893786	-2.510000E-01	  0.066893786	-1.707010E+02	  0.066893786	7.270000E-01	  0.066893786	-4.065000E+00
236	  0.067094192	-2.520000E-01	  0.067094192	-1.711440E+02	  0.067094192	7.290000E-01	  0.067094192	-3.870000E+00
237	  0.067294590	-2.540000E-01	  0.067294590	-1.715480E+02	  0.067294590	7.350000E-01	  0.067294590	-3.693000E+00
238	  0.067494988	-2.580000E-01	  0.067494988	-1.719800E+02	  0.067494988	7.460000E-01	  0.067494988	-3.504000E+00
239	  0.067695394	-2.550000E-01	  0.067695394	-1.723860E+02	  0.067695394	7.390000E-01	  0.067695394	-3.326000E+00
240	  0.067895792	-2.570000E-01	  0.067895792	-1.727990E+02	  0.067895792	7.430000E-01	  0.067895792	-3.145000E+00
241	  0.068096191	-2.580000E-01	  0.068096191	-1.732320E+02	  0.068096191	7.470000E-01	  0.068096191	-2.955000E+00
242	  0.068296596	-2.620000E-01	  0.068296596	-1.736410E+02	  0.068296596	7.580000E-01	  0.068296596	-2.776000E+00
243	  0.068496995	-2.630000E-01	  0.068496995	-1.740740E+02	  0.068496995	7.590000E-01	  0.068496995	-2.587000E+00
244	  0.068697393	-2.630000E-01	  0.068697393	-1.745020E+02	  0.068697393	7.600000E-01	  0.068697393	-2.400000E+00
245	  0.068897791	-2.610000E-01	  0.068897791	-1.749220E+02	  0.068897791	7.530000E-01	  0.068897791	-2.216000E+00
246	  0.069098189	-2.610000E-01	  0.069098189	-1.753350E+02	  0.069098189	7.520000E-01	  0.069098189	-2.035000E+00
247	  0.069298595	-2.590000E-01	  0.069298595	-1.757490E+02	  0.069298595	7.490000E-01	  0.069298595	-1.854000E+00
248	  0.069498993	-2.610000E-01	  0.069498993	-1.761570E+02	  0.069498993	7.520000E-01	  0.069498993	-1.676000E+00
249	  0.069699399	-2.650000E-01	  0.069699399	-1.765830E+02	  0.069699399	7.640000E-01	  0.069699399	-1.490000E+00
250	  0.069899797	-2.660000E-01	  0.069899797	-1.769980E+02	  0.069899797	7.680000E-01	  0.069899797	-1.309000E+00
251	  0.070100196	-2.660000E-01	  0.070100196	-1.774080E+02	  0.070100196	7.680000E-01	  0.070100196	-1.130000E+00
252	  0.070300601	-2.680000E-01	  0.070300601	-1.778160E+02	  0.070300601	7.720000E-01	  0.070300601	-9.520000E-01
253	  0.070501000	-2.690000E-01	  0.070501000	-1.782420E+02	  0.070501000	7.760000E-01	  0.070501000	-7.660000E-01
254	  0.070701398	-2.680000E-01	  0.070701398	-1.786250E+02	  0.070701398	7.740000E-01	  0.070701398	-5.990000E-01
255	  0.070901804	-2.700000E-01	  0.070901804	-1.790210E+02	  0.070901804	7.780000E-01	  0.070901804	-4.260000E-01
256	  0.071102202	-2.720000E-01	  0.071102202	-1.794480E+02	  0.071102202	7.840000E-01	  0.071102202	-2.400000E-01
257	  0.071302600	-2.720000E-01	  0.071302600	-1.798520E+02	  0.071302600	7.850000E-01	  0.071302600	-6.400000E-02
258	  0.071503006	-2.730000E-01	  0.071503006	1.797280E+02	  0.071503006	7.850000E-01	  0.071503006	1.180000E-01
259	  0.071703404	-2.730000E-01	  0.071703404	1.793070E+02	  0.071703404	7.870000E-01	  0.071703404	3.010000E-01
260	  0.071903802	-2.720000E-01	  0.071903802	1.788900E+02	  0.071903802	7.830000E-01	  0.071903802	4.830000E-01
261	  0.072104208	-2.760000E-01	  0.072104208	1.784950E+02	  0.072104208	7.940000E-01	  0.072104208	6.560000E-01
262	  0.072304606	-2.790000E-01	  0.072304606	1.780710E+02	  0.072304606	8.040000E-01	  0.072304606	8.410000E-01
263	  0.072505005	-2.790000E-01	  0.072505005	1.776730E+02	  0.072505005	8.030000E-01	  0.072505005	1.015000E+00
264	  0.072705410	-2.800000E-01	  0.072705410	1.772770E+02	  0.072705410	8.060000E-01	  0.072705410	1.187000E+00
265	  0.072905809	-2.810000E-01	  0.072905809	1.768700E+02	  0.072905809	8.090000E-01	  0.072905809	1.365000E+00
266	  0.073106214	-2.780000E-01	  0.073106214	1.764720E+02	  0.073106214	8.010000E-01	  0.073106214	1.539000E+00
267	  0.073306613	-2.810000E-01	  0.073306613	1.760720E+02	  0.073306613	8.090000E-01	  0.073306613	1.713000E+00
268	  0.073507011	-2.850000E-01	  0.073507011	1.756460E+02	  0.073507011	8.210000E-01	  0.073507011	1.899000E+00
269	  0.073707417	-2.850000E-01	  0.073707417	1.752190E+02	  0.073707417	8.240000E-01	  0.073707417	2.086000E+00
270	  0.073907815	-2.830000E-01	  0.073907815	1.748100E+02	  0.073907815	8.170000E-01	  0.073907815	2.265000E+00
271	  0.074108213	-2.820000E-01	  0.074108213	1.744190E+02	  0.074108213	8.150000E-01	  0.074108213	2.436000E+00
272	  0.074308619	-2.810000E-01	  0.074308619	1.740240E+02	  0.074308619	8.110000E-01	  0.074308619	2.609000E+00
273	  0.074509017	-2.820000E-01	  0.074509017	1.736200E+02	  0.074509017	8.160000E-01	  0.074509017	2.785000E+00
274	  0.074709415	-2.840000E-01	  0.074709415	1.732090E+02	  0.074709415	8.220000E-01	  0.074709415	2.965000E+00
275	  0.074909821	-2.880000E-01	  0.074909821	1.727900E+02	  0.074909821	8.340000E-01	  0.074909821	3.149000E+00
276	  0.075110219	-2.910000E-01	  0.075110219	1.723790E+02	  0.075110219	8.420000E-01	  0.075110219	3.328000E+00
277	  0.075310618	-2.930000E-01	  0.075310618	1.719770E+02	  0.075310618	8.480000E-01	  0.075310618	3.505000E+00
278	  0.075511023	-2.940000E-01	  0.075511023	1.715790E+02	  0.075511023	8.500000E-01	  0.075511023	3.679000E+00
279	  0.075711422	-2.940000E-01	  0.075711422	1.711840E+02	  0.075711422	8.530000E-01	  0.075711422	3.853000E+00
280	  0.075911827	-2.950000E-01	  0.075911827	1.707880E+02	  0.075911827	8.570000E-01	  0.075911827	4.026000E+00
281	  0.076112226	-2.970000E-01	  0.076112226	1.703730E+02	  0.076112226	8.610000E-01	  0.076112226	4.208000E+00
282	  0.076312624	-2.970000E-01	  0.076312624	1.699850E+02	  0.076312624	8.620000E-01	  0.076312624	4.379000E+00
283	  0.076513030	-2.950000E-01	  0.076513030	1.695590E+02	  0.076513030	8.580000E-01	  0.076513030	4.566000E+00
284	  0.076713428	-2.960000E-01	  0.076713428	1.691680E+02	  0.076713428	8.590000E-01	  0.076713428	4.738000E+00
285	  0.076913826	-2.960000E-01	  0.076913826	1.687410E+02	  0.076913826	8.620000E-01	  0.076913826	4.926000E+00
286	  0.077114232	-2.960000E-01	  0.077114232	1.683450E+02	  0.077114232	8.610000E-01	  0.077114232	5.101000E+00
287	  0.077314630	-2.930000E-01	  0.077314630	1.679440E+02	  0.077314630	8.540000E-01	  0.077314630	5.278000E+00
288	  0.077515028	-2.950000E-01	  0.077515028	1.675510E+02	  0.077515028	8.610000E-01	  0.077515028	5.451000E+00
289	  0.077715434	-2.990000E-01	  0.077715434	1.671630E+02	  0.077715434	8.730000E-01	  0.077715434	5.622000E+00
290	  0.077915832	-2.980000E-01	  0.077915832	1.667810E+02	  0.077915832	8.690000E-01	  0.077915832	5.791000E+00
291	  0.078116231	-3.000000E-01	  0.078116231	1.663850E+02	  0.078116231	8.770000E-01	  0.078116231	5.966000E+00
292	  0.078316636	-3.020000E-01	  0.078316636	1.660070E+02	  0.078316636	8.840000E-01	  0.078316636	6.133000E+00
293	  0.078517035	-3.030000E-01	  0.078517035	1.655980E+02	  0.078517035	8.880000E-01	  0.078517035	6.315000E+00
294	  0.078717433	-3.020000E-01	  0.078717433	1.652000E+02	  0.078717433	8.860000E-01	  0.078717433	6.491000E+00
295	  0.078917839	-3.050000E-01	  0.078917839	1.647980E+02	  0.078917839	8.930000E-01	  0.078917839	6.669000E+00
296	  0.079118237	-3.020000E-01	  0.079118237	1.643980E+02	  0.079118237	8.850000E-01	  0.079118237	6.847000E+00
297	  0.079318643	-3.010000E-01	  0.079318643	1.640260E+02	  0.079318643	8.840000E-01	  0.079318643	7.013000E+00
298	  0.079519041	-2.980000E-01	  0.079519041	1.636540E+02	  0.079519041	8.780000E-01	  0.079519041	7.178000E+00
299	  0.079719439	-3.010000E-01	  0.079719439	1.632720E+02	  0.079719439	8.850000E-01	  0.079719439	7.348000E+00
300	  0.079919845	-3.050000E-01	  0.079919845	1.628730E+02	  0.079919845	8.980000E-01	  0.079919845	7.526000E+00
301	  0.080120243	-3.090000E-01	  0.080120243	1.624700E+02	  0.080120243	9.100000E-01	  0.080120243	7.706000E+00
302	  0.080320641	-3.080000E-01	  0.080320641	1.620860E+02	  0.080320641	9.100000E-01	  0.080320641	7.878000E+00
303	  0.080521047	-3.120000E-01	  0.080521047	1.617120E+02	  0.080521047	9.220000E-01	  0.080521047	8.045000E+00
304	  0.080721445	-3.150000E-01	  0.080721445	1.613090E+02	  0.080721445	9.310000E-01	  0.080721445	8.225000E+00
305	  0.080921844	-3.170000E-01	  0.080921844	1.609190E+02	  0.080921844	9.380000E-01	  0.080921844	8.400000E+00
306	  0.081122249	-3.130000E-01	  0.081122249	1.605370E+02	  0.081122249	9.290000E-01	  0.081122249	8.571000E+00
307	  0.081322648	-3.150000E-01	  0.081322648	1.601360E+02	  0.081322648	9.350000E-01	  0.081322648	8.752000E+00
308	  0.081523046	-3.140000E-01	  0.081523046	1.597350E+02	  0.081523046	9.330000E-01	  0.081523046	8.932000E+00
309	  0.081723452	-3.140000E-01	  0.081723452	1.593450E+02	  0.081723452	9.350000E-01	  0.081723452	9.108000E+00
310	  0.081923850	-3.150000E-01	  0.081923850	1.589420E+02	  0.081923850	9.380000E-01	  0.081923850	9.289000E+00
311	  0.082124248	-3.140000E-01	  0.082124248	1.585640E+02	  0.082124248	9.380000E-01	  0.082124248	9.460000E+00
312	  0.082324654	-3.180000E-01	  0.082324654	1.581600E+02	  0.082324654	9.500000E-01	  0.082324654	9.642000E+00
313	  0.082525052	-3.150000E-01	  0.082525052	1.577710E+02	  0.082525052	9.440000E-01	  0.082525052	9.819000E+00
314	  0.082725458	-3.130000E-01	  0.082725458	1.573890E+02	  0.082725458	9.380000E-01	  0.082725458	9.992000E+00
315	  0.082925856	-3.130000E-01	  0.082925856	1.570090E+02	  0.082925856	9.400000E-01	  0.082925856	1.016400E+01
316	  0.083126254	-3.160000E-01	  0.083126254	1.566640E+02	  0.083126254	9.480000E-01	  0.083126254	1.032100E+01
317	  0.083326660	-3.180000E-01	  0.083326660	1.562940E+02	  0.083326660	9.570000E-01	  0.083326660	1.049000E+01
318	  0.083527058	-3.220000E-01	  0.083527058	1.559210E+02	  0.083527058	9.700000E-01	  0.083527058	1.065900E+01
319	  0.083727457	-3.230000E-01	  0.083727457	1.555210E+02	  0.083727457	9.740000E-01	  0.083727457	1.084200E+01
320	  0.083927862	-3.230000E-01	  0.083927862	1.551140E+02	  0.083927862	9.760000E-01	  0.083927862	1.102800E+01
321	  0.084128261	-3.240000E-01	  0.084128261	1.547160E+02	  0.084128261	9.810000E-01	  0.084128261	1.121000E+01
322	  0.084328659	-3.230000E-01	  0.084328659	1.543400E+02	  0.084328659	9.800000E-01	  0.084328659	1.138200E+01
323	  0.084529065	-3.220000E-01	  0.084529065	1.539590E+02	  0.084529065	9.760000E-01	  0.084529065	1.155700E+01
324	  0.084729463	-3.210000E-01	  0.084729463	1.536110E+02	  0.084729463	9.750000E-01	  0.084729463	1.171800E+01
325	  0.084929861	-3.230000E-01	  0.084929861	1.532310E+02	  0.084929861	9.850000E-01	  0.084929861	1.189300E+01
326	  0.085130267	-3.240000E-01	  0.085130267	1.528440E+02	  0.085130267	9.870000E-01	  0.085130267	1.207100E+01
327	  0.085330658	-3.260000E-01	  0.085330658	1.524480E+02	  0.085330658	9.940000E-01	  0.085330658	1.225400E+01
328	  0.085531056	-3.290000E-01	  0.085531056	1.520720E+02	  0.085531056	1.005000E+00	  0.085531056	1.242700E+01
329	  0.085731462	-3.320000E-01	  0.085731462	1.516850E+02	  0.085731462	1.017000E+00	  0.085731462	1.260700E+01
330	  0.085931860	-3.340000E-01	  0.085931860	1.513210E+02	  0.085931860	1.026000E+00	  0.085931860	1.277600E+01
331	  0.086132258	-3.350000E-01	  0.086132258	1.509140E+02	  0.086132258	1.029000E+00	  0.086132258	1.296500E+01
332	  0.086332664	-3.370000E-01	  0.086332664	1.505530E+02	  0.086332664	1.037000E+00	  0.086332664	1.313300E+01
333	  0.086533062	-3.360000E-01	  0.086533062	1.501700E+02	  0.086533062	1.037000E+00	  0.086533062	1.331200E+01
334	  0.086733460	-3.340000E-01	  0.086733460	1.497640E+02	  0.086733460	1.032000E+00	  0.086733460	1.350200E+01
335	  0.086933866	-3.340000E-01	  0.086933866	1.493920E+02	  0.086933866	1.034000E+00	  0.086933866	1.367600E+01
336	  0.087134264	-3.340000E-01	  0.087134264	1.489910E+02	  0.087134264	1.037000E+00	  0.087134264	1.386400E+01
337	  0.087334670	-3.360000E-01	  0.087334670	1.486220E+02	  0.087334670	1.043000E+00	  0.087334670	1.403800E+01
338	  0.087535068	-3.350000E-01	  0.087535068	1.482300E+02	  0.087535068	1.042000E+00	  0.087535068	1.422200E+01
339	  0.087735467	-3.310000E-01	  0.087735467	1.478530E+02	  0.087735467	1.033000E+00	  0.087735467	1.440000E+01
340	  0.087935872	-3.290000E-01	  0.087935872	1.474880E+02	  0.087935872	1.028000E+00	  0.087935872	1.457300E+01
341	  0.088136271	-3.270000E-01	  0.088136271	1.471300E+02	  0.088136271	1.025000E+00	  0.088136271	1.474300E+01
342	  0.088336669	-3.280000E-01	  0.088336669	1.467890E+02	  0.088336669	1.030000E+00	  0.088336669	1.490400E+01
343	  0.088537075	-3.290000E-01	  0.088537075	1.464420E+02	  0.088537075	1.033000E+00	  0.088537075	1.506900E+01
344	  0.088737473	-3.340000E-01	  0.088737473	1.460770E+02	  0.088737473	1.051000E+00	  0.088737473	1.524300E+01
345	  0.088937871	-3.360000E-01	  0.088937871	1.457120E+02	  0.088937871	1.059000E+00	  0.088937871	1.541700E+01
346	  0.089138277	-3.370000E-01	  0.089138277	1.453140E+02	  0.089138277	1.065000E+00	  0.089138277	1.560700E+01
347	  0.089338675	-3.350000E-01	  0.089338675	1.449450E+02	  0.089338675	1.063000E+00	  0.089338675	1.578400E+01
348	  0.089539073	-3.360000E-01	  0.089539073	1.445790E+02	  0.089539073	1.066000E+00	  0.089539073	1.596000E+01
349	  0.089739479	-3.360000E-01	  0.089739479	1.442060E+02	  0.089739479	1.070000E+00	  0.089739479	1.613900E+01
350	  0.089939877	-3.390000E-01	  0.089939877	1.438420E+02	  0.089939877	1.081000E+00	  0.089939877	1.631500E+01
351	  0.090140276	-3.410000E-01	  0.090140276	1.434780E+02	  0.090140276	1.088000E+00	  0.090140276	1.649000E+01
352	  0.090340681	-3.380000E-01	  0.090340681	1.430950E+02	  0.090340681	1.083000E+00	  0.090340681	1.667600E+01
353	  0.090541080	-3.380000E-01	  0.090541080	1.427240E+02	  0.090541080	1.084000E+00	  0.090541080	1.685600E+01
354	  0.090741485	-3.410000E-01	  0.090741485	1.423580E+02	  0.090741485	1.095000E+00	  0.090741485	1.703400E+01
355	  0.090941884	-3.420000E-01	  0.090941884	1.419820E+02	  0.090941884	1.102000E+00	  0.090941884	1.721700E+01
356	  0.091142282	-3.440000E-01	  0.091142282	1.416330E+02	  0.091142282	1.111000E+00	  0.091142282	1.738700E+01
357	  0.091342688	-3.490000E-01	  0.091342688	1.412590E+02	  0.091342688	1.130000E+00	  0.091342688	1.757000E+01
358	  0.091543086	-3.480000E-01	  0.091543086	1.408870E+02	  0.091543086	1.129000E+00	  0.091543086	1.775300E+01
359	  0.091743484	-3.480000E-01	  0.091743484	1.404960E+02	  0.091743484	1.132000E+00	  0.091743484	1.794500E+01
360	  0.091943890	-3.460000E-01	  0.091943890	1.401110E+02	  0.091943890	1.128000E+00	  0.091943890	1.813500E+01
361	  0.092144288	-3.490000E-01	  0.092144288	1.397500E+02	  0.092144288	1.140000E+00	  0.092144288	1.831300E+01
362	  0.092344686	-3.480000E-01	  0.092344686	1.393670E+02	  0.092344686	1.139000E+00	  0.092344686	1.850300E+01
363	  0.092545092	-3.480000E-01	  0.092545092	1.390030E+02	  0.092545092	1.143000E+00	  0.092545092	1.868400E+01
364	  0.092745490	-3.450000E-01	  0.092745490	1.386330E+02	  0.092745490	1.134000E+00	  0.092745490	1.886800E+01
365	  0.092945889	-3.430000E-01	  0.092945889	1.382580E+02	  0.092945889	1.133000E+00	  0.092945889	1.905500E+01
366	  0.093146294	-3.390000E-01	  0.093146294	1.378910E+02	  0.093146294	1.122000E+00	  0.093146294	1.923900E+01
367	  0.093346693	-3.400000E-01	  0.093346693	1.375680E+02	  0.093346693	1.126000E+00	  0.093346693	1.940000E+01
368	  0.093547091	-3.410000E-01	  0.093547091	1.372140E+02	  0.093547091	1.134000E+00	  0.093547091	1.957800E+01
369	  0.093747497	-3.390000E-01	  0.093747497	1.368760E+02	  0.093747497	1.129000E+00	  0.093747497	1.974900E+01
370	  0.093947895	-3.390000E-01	  0.093947895	1.365260E+02	  0.093947895	1.131000E+00	  0.093947895	1.992500E+01
371	  0.094148301	-3.410000E-01	  0.094148301	1.361710E+02	  0.094148301	1.141000E+00	  0.094148301	2.010500E+01
372	  0.094348699	-3.450000E-01	  0.094348699	1.358010E+02	  0.094348699	1.157000E+00	  0.094348699	2.029200E+01
373	  0.094549097	-3.450000E-01	  0.094549097	1.354510E+02	  0.094549097	1.159000E+00	  0.094549097	2.047100E+01
374	  0.094749503	-3.460000E-01	  0.094749503	1.350870E+02	  0.094749503	1.166000E+00	  0.094749503	2.065600E+01
375	  0.094949901	-3.490000E-01	  0.094949901	1.347510E+02	  0.094949901	1.179000E+00	  0.094949901	2.082800E+01
376	  0.095150299	-3.510000E-01	  0.095150299	1.343910E+02	  0.095150299	1.190000E+00	  0.095150299	2.101200E+01
377	  0.095350705	-3.520000E-01	  0.095350705	1.340140E+02	  0.095350705	1.196000E+00	  0.095350705	2.120500E+01
378	  0.095551103	-3.510000E-01	  0.095551103	1.336270E+02	  0.095551103	1.195000E+00	  0.095551103	2.140500E+01
379	  0.095751502	-3.500000E-01	  0.095751502	1.332490E+02	  0.095751502	1.196000E+00	  0.095751502	2.160000E+01
380	  0.095951907	-3.490000E-01	  0.095951907	1.328910E+02	  0.095951907	1.198000E+00	  0.095951907	2.178600E+01
381	  0.096152306	-3.530000E-01	  0.096152306	1.325720E+02	  0.096152306	1.214000E+00	  0.096152306	2.195100E+01
382	  0.096352704	-3.570000E-01	  0.096352704	1.322030E+02	  0.096352704	1.230000E+00	  0.096352704	2.214300E+01
383	  0.096553110	-3.620000E-01	  0.096553110	1.318340E+02	  0.096553110	1.252000E+00	  0.096553110	2.233600E+01
384	  0.096753508	-3.640000E-01	  0.096753508	1.314620E+02	  0.096753508	1.260000E+00	  0.096753508	2.253100E+01
385	  0.096953906	-3.640000E-01	  0.096953906	1.310740E+02	  0.096953906	1.264000E+00	  0.096953906	2.273500E+01
386	  0.097154312	-3.630000E-01	  0.097154312	1.307310E+02	  0.097154312	1.264000E+00	  0.097154312	2.291500E+01
387	  0.097354710	-3.630000E-01	  0.097354710	1.303580E+02	  0.097354710	1.270000E+00	  0.097354710	2.311300E+01
388	  0.097555116	-3.630000E-01	  0.097555116	1.299820E+02	  0.097555116	1.274000E+00	  0.097555116	2.331200E+01
389	  0.097755514	-3.610000E-01	  0.097755514	1.296240E+02	  0.097755514	1.270000E+00	  0.097755514	2.350200E+01
390	  0.097955912	-3.610000E-01	  0.097955912	1.292560E+02	  0.097955912	1.272000E+00	  0.097955912	2.369900E+01
391	  0.098156318	-3.570000E-01	  0.098156318	1.288870E+02	  0.098156318	1.263000E+00	  0.098156318	2.389600E+01
392	  0.098356716	-3.560000E-01	  0.098356716	1.285260E+02	  0.098356716	1.264000E+00	  0.098356716	2.409000E+01
393	  0.098557115	-3.530000E-01	  0.098557115	1.281920E+02	  0.098557115	1.258000E+00	  0.098557115	2.427000E+01
394	  0.098757520	-3.550000E-01	  0.098757520	1.278510E+02	  0.098757520	1.266000E+00	  0.098757520	2.445400E+01
395	  0.098957919	-3.520000E-01	  0.098957919	1.275260E+02	  0.098957919	1.260000E+00	  0.098957919	2.463000E+01
396	  0.099158317	-3.530000E-01	  0.099158317	1.271870E+02	  0.099158317	1.267000E+00	  0.099158317	2.481400E+01
397	  0.099358723	-3.510000E-01	  0.099358723	1.268330E+02	  0.099358723	1.264000E+00	  0.099358723	2.500700E+01
398	  0.099559121	-3.520000E-01	  0.099559121	1.265060E+02	  0.099559121	1.272000E+00	  0.099559121	2.518500E+01
399	  0.099759519	-3.490000E-01	  0.099759519	1.261710E+02	  0.099759519	1.266000E+00	  0.099759519	2.536900E+01
400	  0.099959925	-3.570000E-01	  0.099959925	1.258370E+02	  0.099959925	1.298000E+00	  0.099959925	2.555100E+01
401	  0.100160323	-3.590000E-01	  0.100160323	1.255300E+02	  0.100160323	1.310000E+00	  0.100160323	2.572000E+01
402	  0.100360721	-3.590000E-01	  0.100360721	1.251670E+02	  0.100360721	1.311000E+00	  0.100360721	2.592100E+01
403	  0.100561127	-3.620000E-01	  0.100561127	1.248060E+02	  0.100561127	1.328000E+00	  0.100561127	2.612100E+01
404	  0.100761525	-3.550000E-01	  0.100761525	1.244260E+02	  0.100761525	1.306000E+00	  0.100761525	2.633300E+01
405	  0.100961931	-3.540000E-01	  0.100961931	1.241050E+02	  0.100961931	1.308000E+00	  0.100961931	2.651200E+01
406	  0.101162329	-3.560000E-01	  0.101162329	1.237520E+02	  0.101162329	1.319000E+00	  0.101162329	2.670900E+01
407	  0.101362728	-3.560000E-01	  0.101362728	1.233970E+02	  0.101362728	1.321000E+00	  0.101362728	2.690900E+01
408	  0.101563133	-3.590000E-01	  0.101563133	1.230550E+02	  0.101563133	1.337000E+00	  0.101563133	2.710100E+01
409	  0.101763532	-3.610000E-01	  0.101763532	1.226950E+02	  0.101763532	1.349000E+00	  0.101763532	2.730400E+01
410	  0.101963930	-3.650000E-01	  0.101963930	1.224050E+02	  0.101963930	1.369000E+00	  0.101963930	2.746800E+01
411	  0.102164336	-3.620000E-01	  0.102164336	1.219890E+02	  0.102164336	1.363000E+00	  0.102164336	2.770500E+01
412	  0.102364734	-3.620000E-01	  0.102364734	1.216540E+02	  0.102364734	1.366000E+00	  0.102364734	2.789700E+01
413	  0.102565132	-3.630000E-01	  0.102565132	1.213100E+02	  0.102565132	1.375000E+00	  0.102565132	2.809400E+01
414	  0.102765530	-3.640000E-01	  0.102765530	1.209520E+02	  0.102765530	1.386000E+00	  0.102765530	2.829900E+01
415	  0.102965929	-3.720000E-01	  0.102965929	1.205610E+02	  0.102965929	1.422000E+00	  0.102965929	2.852400E+01
416	  0.103166327	-3.650000E-01	  0.103166327	1.202430E+02	  0.103166327	1.399000E+00	  0.103166327	2.870800E+01
417	  0.103366733	-3.660000E-01	  0.103366733	1.198930E+02	  0.103366733	1.407000E+00	  0.103366733	2.891200E+01
418	  0.103567131	-3.650000E-01	  0.103567131	1.195330E+02	  0.103567131	1.408000E+00	  0.103567131	2.912200E+01
419	  0.103767529	-3.660000E-01	  0.103767529	1.192110E+02	  0.103767529	1.417000E+00	  0.103767529	2.931000E+01
420	  0.103967935	-3.640000E-01	  0.103967935	1.188490E+02	  0.103967935	1.416000E+00	  0.103967935	2.952300E+01
421	  0.104168333	-3.640000E-01	  0.104168333	1.185120E+02	  0.104168333	1.421000E+00	  0.104168333	2.972100E+01
422	  0.104368731	-3.690000E-01	  0.104368731	1.181800E+02	  0.104368731	1.442000E+00	  0.104368731	2.991700E+01
423	  0.104569137	-3.690000E-01	  0.104569137	1.178250E+02	  0.104569137	1.447000E+00	  0.104569137	3.012800E+01
424	  0.104769535	-3.640000E-01	  0.104769535	1.174990E+02	  0.104769535	1.436000E+00	  0.104769535	3.032200E+01
425	  0.104969934	-3.600000E-01	  0.104969934	1.171510E+02	  0.104969934	1.425000E+00	  0.104969934	3.053000E+01
426	  0.105170339	-3.710000E-01	  0.105170339	1.168230E+02	  0.105170339	1.472000E+00	  0.105170339	3.072600E+01
427	  0.105370738	-3.700000E-01	  0.105370738	1.164680E+02	  0.105370738	1.473000E+00	  0.105370738	3.094000E+01
428	  0.105571143	-3.740000E-01	  0.105571143	1.161460E+02	  0.105571143	1.495000E+00	  0.105571143	3.113400E+01
429	  0.105771542	-3.720000E-01	  0.105771542	1.158010E+02	  0.105771542	1.492000E+00	  0.105771542	3.134300E+01
430	  0.105971940	-3.730000E-01	  0.105971940	1.154490E+02	  0.105971940	1.504000E+00	  0.105971940	3.155700E+01
431	  0.106172346	-3.660000E-01	  0.106172346	1.151050E+02	  0.106172346	1.482000E+00	  0.106172346	3.176900E+01
432	  0.106372744	-3.710000E-01	  0.106372744	1.147670E+02	  0.106372744	1.504000E+00	  0.106372744	3.197500E+01
433	  0.106573142	-3.720000E-01	  0.106573142	1.143930E+02	  0.106573142	1.518000E+00	  0.106573142	3.220500E+01
434	  0.106773548	-3.730000E-01	  0.106773548	1.140850E+02	  0.106773548	1.527000E+00	  0.106773548	3.239500E+01
435	  0.106973946	-3.750000E-01	  0.106973946	1.137370E+02	  0.106973946	1.538000E+00	  0.106973946	3.261200E+01
436	  0.107174344	-3.690000E-01	  0.107174344	1.133740E+02	  0.107174344	1.523000E+00	  0.107174344	3.283800E+01
437	  0.107374750	-3.700000E-01	  0.107374750	1.130050E+02	  0.107374750	1.532000E+00	  0.107374750	3.306800E+01
438	  0.107575148	-3.680000E-01	  0.107575148	1.126650E+02	  0.107575148	1.532000E+00	  0.107575148	3.328200E+01
439	  0.107775547	-3.700000E-01	  0.107775547	1.123610E+02	  0.107775547	1.546000E+00	  0.107775547	3.347400E+01
440	  0.107975952	-3.680000E-01	  0.107975952	1.119950E+02	  0.107975952	1.544000E+00	  0.107975952	3.370600E+01
441	  0.108176351	-3.700000E-01	  0.108176351	1.116190E+02	  0.108176351	1.556000E+00	  0.108176351	3.394500E+01
442	  0.108376749	-3.700000E-01	  0.108376749	1.113380E+02	  0.108376749	1.562000E+00	  0.108376749	3.412400E+01
443	  0.108577155	-3.670000E-01	  0.108577155	1.109600E+02	  0.108577155	1.557000E+00	  0.108577155	3.436600E+01
444	  0.108777553	-3.640000E-01	  0.108777553	1.106390E+02	  0.108777553	1.551000E+00	  0.108777553	3.457300E+01
445	  0.108977959	-3.650000E-01	  0.108977959	1.103310E+02	  0.108977959	1.559000E+00	  0.108977959	3.477200E+01
446	  0.109178357	-3.690000E-01	  0.109178357	1.099780E+02	  0.109178357	1.583000E+00	  0.109178357	3.500100E+01
447	  0.109378755	-3.680000E-01	  0.109378755	1.096460E+02	  0.109378755	1.588000E+00	  0.109378755	3.521700E+01
448	  0.109579161	-3.640000E-01	  0.109579161	1.093300E+02	  0.109579161	1.577000E+00	  0.109579161	3.542300E+01
449	  0.109779559	-3.660000E-01	  0.109779559	1.089810E+02	  0.109779559	1.591000E+00	  0.109779559	3.565200E+01
450	  0.109979957	-3.630000E-01	  0.109979957	1.086710E+02	  0.109979957	1.585000E+00	  0.109979957	3.585700E+01
451	  0.110180363	-3.670000E-01	  0.110180363	1.083830E+02	  0.110180363	1.605000E+00	  0.110180363	3.604700E+01
452	  0.110380761	-3.600000E-01	  0.110380761	1.080460E+02	  0.110380761	1.585000E+00	  0.110380761	3.627200E+01
453	  0.110581160	-3.720000E-01	  0.110581160	1.077480E+02	  0.110581160	1.641000E+00	  0.110581160	3.646900E+01
454	  0.110781565	-3.720000E-01	  0.110781565	1.073900E+02	  0.110781565	1.651000E+00	  0.110781565	3.670800E+01
455	  0.110981964	-3.750000E-01	  0.110981964	1.070250E+02	  0.110981964	1.672000E+00	  0.110981964	3.695400E+01
456	  0.111182362	-3.700000E-01	  0.111182362	1.066960E+02	  0.111182362	1.654000E+00	  0.111182362	3.717700E+01
457	  0.111382768	-3.700000E-01	  0.111382768	1.063320E+02	  0.111382768	1.661000E+00	  0.111382768	3.742300E+01
458	  0.111583166	-3.720000E-01	  0.111583166	1.060100E+02	  0.111583166	1.678000E+00	  0.111583166	3.764300E+01
459	  0.111783572	-3.750000E-01	  0.111783572	1.056940E+02	  0.111783572	1.700000E+00	  0.111783572	3.785900E+01
460	  0.111983970	-3.710000E-01	  0.111983970	1.053610E+02	  0.111983970	1.690000E+00	  0.111983970	3.808800E+01
461	  0.112184368	-3.720000E-01	  0.112184368	1.050300E+02	  0.112184368	1.701000E+00	  0.112184368	3.831700E+01
462	  0.112384774	-3.690000E-01	  0.112384774	1.047180E+02	  0.112384774	1.697000E+00	  0.112384774	3.853400E+01
463	  0.112585172	-3.680000E-01	  0.112585172	1.043270E+02	  0.112585172	1.700000E+00	  0.112585172	3.880600E+01
464	  0.112785570	-3.660000E-01	  0.112785570	1.040190E+02	  0.112785570	1.699000E+00	  0.112785570	3.902200E+01
465	  0.112985976	-3.670000E-01	  0.112985976	1.036860E+02	  0.112985976	1.709000E+00	  0.112985976	3.925600E+01
466	  0.113186374	-3.670000E-01	  0.113186374	1.033600E+02	  0.113186374	1.716000E+00	  0.113186374	3.948600E+01
467	  0.113386773	-3.700000E-01	  0.113386773	1.030470E+02	  0.113386773	1.736000E+00	  0.113386773	3.970800E+01
468	  0.113587178	-3.700000E-01	  0.113587178	1.026940E+02	  0.113587178	1.748000E+00	  0.113587178	3.996000E+01
469	  0.113787577	-3.700000E-01	  0.113787577	1.023550E+02	  0.113787577	1.756000E+00	  0.113787577	4.020200E+01
470	  0.113987975	-3.670000E-01	  0.113987975	1.020850E+02	  0.113987975	1.748000E+00	  0.113987975	4.039700E+01
471	  0.114188381	-3.670000E-01	  0.114188381	1.017390E+02	  0.114188381	1.759000E+00	  0.114188381	4.064700E+01
472	  0.114388779	-3.660000E-01	  0.114388779	1.014140E+02	  0.114388779	1.760000E+00	  0.114388779	4.088300E+01
473	  0.114589177	-3.680000E-01	  0.114589177	1.010940E+02	  0.114589177	1.777000E+00	  0.114589177	4.111600E+01
474	  0.114789583	-3.700000E-01	  0.114789583	1.007440E+02	  0.114789583	1.795000E+00	  0.114789583	4.137200E+01
475	  0.114989981	-3.670000E-01	  0.114989981	1.004460E+02	  0.114989981	1.789000E+00	  0.114989981	4.159200E+01
476	  0.115190387	-3.660000E-01	  0.115190387	1.001290E+02	  0.115190387	1.794000E+00	  0.115190387	4.182600E+01
477	  0.115390785	-3.650000E-01	  0.115390785	9.980800E+01	  0.115390785	1.796000E+00	  0.115390785	4.206500E+01
478	  0.115591183	-3.670000E-01	  0.115591183	9.945500E+01	  0.115591183	1.816000E+00	  0.115591183	4.232900E+01
479	  0.115791589	-3.730000E-01	  0.115791589	9.917700E+01	  0.115791589	1.850000E+00	  0.115791589	4.253600E+01
480	  0.115991987	-3.770000E-01	  0.115991987	9.885700E+01	  0.115991987	1.880000E+00	  0.115991987	4.277700E+01
481	  0.116192386	-3.720000E-01	  0.116192386	9.852500E+01	  0.116192386	1.865000E+00	  0.116192386	4.302800E+01
482	  0.116392791	-3.730000E-01	  0.116392791	9.814600E+01	  0.116392791	1.881000E+00	  0.116392791	4.331600E+01
483	  0.116593190	-3.780000E-01	  0.116593190	9.783000E+01	  0.116593190	1.914000E+00	  0.116593190	4.355800E+01
484	  0.116793588	-3.760000E-01	  0.116793588	9.751300E+01	  0.116793588	1.917000E+00	  0.116793588	4.380200E+01
485	  0.116993994	-3.780000E-01	  0.116993994	9.718600E+01	  0.116993994	1.936000E+00	  0.116993994	4.405300E+01
486	  0.117194392	-3.780000E-01	  0.117194392	9.684100E+01	  0.117194392	1.947000E+00	  0.117194392	4.432200E+01
487	  0.117394790	-3.790000E-01	  0.117394790	9.653800E+01	  0.117394790	1.958000E+00	  0.117394790	4.455800E+01
488	  0.117595196	-3.800000E-01	  0.117595196	9.619900E+01	  0.117595196	1.975000E+00	  0.117595196	4.482400E+01
489	  0.117795594	-3.740000E-01	  0.117795594	9.586100E+01	  0.117795594	1.952000E+00	  0.117795594	4.509100E+01
490	  0.117995992	-3.750000E-01	  0.117995992	9.553800E+01	  0.117995992	1.971000E+00	  0.117995992	4.534700E+01
491	  0.118196398	-3.730000E-01	  0.118196398	9.514500E+01	  0.118196398	1.973000E+00	  0.118196398	4.566100E+01
492	  0.118396796	-3.720000E-01	  0.118396796	9.487400E+01	  0.118396796	1.976000E+00	  0.118396796	4.587800E+01
493	  0.118597202	-3.710000E-01	  0.118597202	9.452200E+01	  0.118597202	1.981000E+00	  0.118597202	4.616100E+01
494	  0.118797600	-3.730000E-01	  0.118797600	9.423000E+01	  0.118797600	2.001000E+00	  0.118797600	4.639800E+01
495	  0.118997999	-3.690000E-01	  0.118997999	9.389900E+01	  0.118997999	1.989000E+00	  0.118997999	4.666800E+01
496	  0.119198404	-3.690000E-01	  0.119198404	9.357200E+01	  0.119198404	1.999000E+00	  0.119198404	4.693500E+01
497	  0.119398803	-3.700000E-01	  0.119398803	9.328200E+01	  0.119398803	2.018000E+00	  0.119398803	4.717300E+01
498	  0.119599201	-3.710000E-01	  0.119599201	9.297000E+01	  0.119599201	2.030000E+00	  0.119599201	4.743100E+01
499	  0.119799607	-3.680000E-01	  0.119799607	9.265600E+01	  0.119799607	2.026000E+00	  0.119799607	4.769300E+01
500	  0.120000005	-3.670000E-01	  0.120000005	9.232900E+01	  0.120000005	2.034000E+00	  0.120000005	4.796500E+01
