! Anritsu VNA Master:             	Model: MS2036C/10/77
! SN:             	1601066
! /card0/usr/18may27.balun/252b.m6.txt
! Existing Calibration Information:
! TYPE:             	Current Settings	Active Cal Settings
! TIME:             	05/27/2018 01:17:04 PM	05/27/2018 01:14:08 PM
! INTERNAL TEMP:    	52.0 C	52.0 C
! # POINTS:         	500	500
! START FREQ:       	20.000 MHz	20.000 MHz
! STOP FREQ:        	120.000 MHz	120.000 MHz
! SOURCE POWER:     	High	High
! IFBW:             	50 Hz	50 Hz
! AVG FACTOR:       	  1 	  1 
! REF PLANE 1:      	0 mm	0 mm
! REF PLANE 2:      	0 mm	0 mm
! CAL TYPE:         	Full S11	Full S11
! CAL METHOD:       	SOLT	SOLT
! CAL LINE TYPE:    	Coax	Coax
! DUT PORT 1:       	K-Conn(M)	K-Conn(M)
! DUT PORT 2:       	K-Conn(M)	K-Conn(M)
! CAL STATUS:       	OK: Accuracy High	--
! PROP-V:       	0.700
! CABLE LOSS:       	0.000 dB/m
! REF IMPEDANCE:       	50.0
! Trace Specific Parameters:	TR1	TR2	TR3	TR4
! TRACE.#.Y (GRAPH TYPE)	LOG MAG	PHASE	REAL IMPEDANCE	IMAGINARY IMPEDANCE
! TRACE.#.X 	FREQ.GHZ	FREQ.GHZ	FREQ.GHZ	FREQ.GHZ
! S-PARAMETER	S11	S11	S11	S11
! SMOOTH/APERTURE %	0	0	0	0
! WINDOW	NSL	NSL	NSL	NSL
! GATING	OFF	OFF	OFF	OFF
! FGTD	OFF	OFF	OFF	OFF
Marker Information per Trace:	TR1	TR2	TR3	TR4
!MK1	--	--	--	"MK1 TR4:  70.100 200 MHz,Z:(16.318 ohm, -1.242 ohm)"
!MK2	--	--	--	--
!MK3	--	--	--	--
!MK4	--	--	--	--
!MK5	--	--	--	--
!MK6	--	--	--	--
!MK7	--	--	--	--
!MK8	--	--	--	--
PNT	TR1.FREQ.GHZ	TR1.LOG MAG.dB	TR2.FREQ.GHZ	TR2.PHASE.deg	TR3.FREQ.GHZ	TR3.REAL IMPEDANCE.ohm	TR4.FREQ.GHZ	TR4.IMAGINARY IMPEDANCE.ohm
1	  0.020000000	-6.290000E-01	  0.020000000	-1.254970E+02	  0.020000000	2.291000E+00	  0.020000000	-2.571000E+01
2	  0.020200402	-6.270000E-01	  0.020200402	-1.269800E+02	  0.020200402	2.251000E+00	  0.020200402	-2.489900E+01
3	  0.020400802	-6.260000E-01	  0.020400802	-1.284270E+02	  0.020400802	2.222000E+00	  0.020400802	-2.411700E+01
4	  0.020601204	-6.280000E-01	  0.020601204	-1.298630E+02	  0.020601204	2.201000E+00	  0.020601204	-2.335000E+01
5	  0.020801604	-6.320000E-01	  0.020801604	-1.313140E+02	  0.020801604	2.191000E+00	  0.020801604	-2.258400E+01
6	  0.021002004	-6.390000E-01	  0.021002004	-1.328150E+02	  0.021002004	2.189000E+00	  0.021002004	-2.180100E+01
7	  0.021202406	-6.470000E-01	  0.021202406	-1.343310E+02	  0.021202406	2.191000E+00	  0.021202406	-2.101900E+01
8	  0.021402806	-6.540000E-01	  0.021402806	-1.358300E+02	  0.021402806	2.191000E+00	  0.021402806	-2.025300E+01
9	  0.021603208	-6.590000E-01	  0.021603208	-1.373350E+02	  0.021603208	2.187000E+00	  0.021603208	-1.949400E+01
10	  0.021803608	-6.660000E-01	  0.021803608	-1.388320E+02	  0.021803608	2.186000E+00	  0.021803608	-1.874600E+01
11	  0.022004008	-6.720000E-01	  0.022004008	-1.403640E+02	  0.022004008	2.186000E+00	  0.022004008	-1.798800E+01
12	  0.022204408	-6.780000E-01	  0.022204408	-1.419160E+02	  0.022204408	2.183000E+00	  0.022204408	-1.722700E+01
13	  0.022404809	-6.800000E-01	  0.022404809	-1.434650E+02	  0.022404809	2.171000E+00	  0.022404809	-1.647600E+01
14	  0.022605211	-6.820000E-01	  0.022605211	-1.449940E+02	  0.022605211	2.157000E+00	  0.022605211	-1.574000E+01
15	  0.022805611	-6.820000E-01	  0.022805611	-1.465290E+02	  0.022805611	2.140000E+00	  0.022805611	-1.500900E+01
16	  0.023006011	-6.850000E-01	  0.023006011	-1.480520E+02	  0.023006011	2.134000E+00	  0.023006011	-1.428800E+01
17	  0.023206413	-6.930000E-01	  0.023206413	-1.496130E+02	  0.023206413	2.141000E+00	  0.023206413	-1.355400E+01
18	  0.023406813	-7.020000E-01	  0.023406813	-1.511850E+02	  0.023406813	2.154000E+00	  0.023406813	-1.282100E+01
19	  0.023607215	-7.080000E-01	  0.023607215	-1.527540E+02	  0.023607215	2.158000E+00	  0.023607215	-1.209500E+01
20	  0.023807615	-7.160000E-01	  0.023807615	-1.543490E+02	  0.023807615	2.168000E+00	  0.023807615	-1.136200E+01
21	  0.024008015	-7.240000E-01	  0.024008015	-1.559290E+02	  0.024008015	2.178000E+00	  0.024008015	-1.064000E+01
22	  0.024208417	-7.330000E-01	  0.024208417	-1.575040E+02	  0.024208417	2.193000E+00	  0.024208417	-9.925000E+00
23	  0.024408817	-7.450000E-01	  0.024408817	-1.591200E+02	  0.024408817	2.217000E+00	  0.024408817	-9.195000E+00
24	  0.024609219	-7.570000E-01	  0.024609219	-1.607480E+02	  0.024609219	2.240000E+00	  0.024609219	-8.463000E+00
25	  0.024809619	-7.640000E-01	  0.024809619	-1.624140E+02	  0.024809619	2.252000E+00	  0.024809619	-7.718000E+00
26	  0.025010020	-7.680000E-01	  0.025010020	-1.640730E+02	  0.025010020	2.254000E+00	  0.025010020	-6.980000E+00
27	  0.025210422	-7.760000E-01	  0.025210422	-1.657230E+02	  0.025210422	2.268000E+00	  0.025210422	-6.249000E+00
28	  0.025410822	-7.840000E-01	  0.025410822	-1.673870E+02	  0.025410822	2.284000E+00	  0.025410822	-5.514000E+00
29	  0.025611224	-7.940000E-01	  0.025611224	-1.690400E+02	  0.025611224	2.306000E+00	  0.025611224	-4.786000E+00
30	  0.025811624	-8.040000E-01	  0.025811624	-1.707510E+02	  0.025811624	2.330000E+00	  0.025811624	-4.035000E+00
31	  0.026012026	-8.150000E-01	  0.026012026	-1.724430E+02	  0.026012026	2.354000E+00	  0.026012026	-3.294000E+00
32	  0.026212426	-8.270000E-01	  0.026212426	-1.741560E+02	  0.026212426	2.387000E+00	  0.026212426	-2.546000E+00
33	  0.026412826	-8.460000E-01	  0.026412826	-1.758710E+02	  0.026412826	2.436000E+00	  0.026412826	-1.797000E+00
34	  0.026613226	-8.620000E-01	  0.026613226	-1.776060E+02	  0.026613226	2.482000E+00	  0.026613226	-1.041000E+00
35	  0.026813626	-8.770000E-01	  0.026813626	-1.793380E+02	  0.026813626	2.524000E+00	  0.026813626	-2.880000E-01
36	  0.027014028	-8.930000E-01	  0.027014028	1.789230E+02	  0.027014028	2.569000E+00	  0.027014028	4.680000E-01
37	  0.027214428	-9.080000E-01	  0.027214428	1.771880E+02	  0.027214428	2.613000E+00	  0.027214428	1.223000E+00
38	  0.027414829	-9.230000E-01	  0.027414829	1.754390E+02	  0.027414829	2.660000E+00	  0.027414829	1.985000E+00
39	  0.027615231	-9.390000E-01	  0.027615231	1.736930E+02	  0.027615231	2.710000E+00	  0.027615231	2.746000E+00
40	  0.027815631	-9.610000E-01	  0.027815631	1.719210E+02	  0.027815631	2.777000E+00	  0.027815631	3.519000E+00
41	  0.028016033	-9.810000E-01	  0.028016033	1.701280E+02	  0.028016033	2.841000E+00	  0.028016033	4.304000E+00
42	  0.028216433	-1.000000E+00	  0.028216433	1.683220E+02	  0.028216433	2.906000E+00	  0.028216433	5.095000E+00
43	  0.028416833	-1.023000E+00	  0.028416833	1.665190E+02	  0.028416833	2.982000E+00	  0.028416833	5.888000E+00
44	  0.028617235	-1.046000E+00	  0.028617235	1.647210E+02	  0.028617235	3.061000E+00	  0.028617235	6.681000E+00
45	  0.028817635	-1.071000E+00	  0.028817635	1.628970E+02	  0.028817635	3.150000E+00	  0.028817635	7.489000E+00
46	  0.029018037	-1.098000E+00	  0.029018037	1.610480E+02	  0.029018037	3.246000E+00	  0.029018037	8.311000E+00
47	  0.029218437	-1.124000E+00	  0.029218437	1.591770E+02	  0.029218437	3.340000E+00	  0.029218437	9.147000E+00
48	  0.029418837	-1.148000E+00	  0.029418837	1.573170E+02	  0.029418837	3.431000E+00	  0.029418837	9.982000E+00
49	  0.029619239	-1.171000E+00	  0.029619239	1.554830E+02	  0.029619239	3.525000E+00	  0.029619239	1.081200E+01
50	  0.029819639	-1.196000E+00	  0.029819639	1.536370E+02	  0.029819639	3.626000E+00	  0.029819639	1.165100E+01
51	  0.030020041	-1.223000E+00	  0.030020041	1.518040E+02	  0.030020041	3.735000E+00	  0.030020041	1.249100E+01
52	  0.030220442	-1.255000E+00	  0.030220442	1.499590E+02	  0.030220442	3.866000E+00	  0.030220442	1.334100E+01
53	  0.030420844	-1.293000E+00	  0.030420844	1.480890E+02	  0.030420844	4.016000E+00	  0.030420844	1.420900E+01
54	  0.030621244	-1.333000E+00	  0.030621244	1.461940E+02	  0.030621244	4.180000E+00	  0.030621244	1.509600E+01
55	  0.030821644	-1.369000E+00	  0.030821644	1.442560E+02	  0.030821644	4.339000E+00	  0.030821644	1.601200E+01
56	  0.031022044	-1.403000E+00	  0.031022044	1.422940E+02	  0.031022044	4.498000E+00	  0.031022044	1.694800E+01
57	  0.031222444	-1.430000E+00	  0.031222444	1.403320E+02	  0.031222444	4.637000E+00	  0.031222444	1.789700E+01
58	  0.031422846	-1.459000E+00	  0.031422846	1.383560E+02	  0.031422846	4.792000E+00	  0.031422846	1.886200E+01
59	  0.031623244	-1.484000E+00	  0.031623244	1.363920E+02	  0.031623244	4.940000E+00	  0.031623244	1.983300E+01
60	  0.031823646	-1.505000E+00	  0.031823646	1.344630E+02	  0.031823646	5.078000E+00	  0.031823646	2.080100E+01
61	  0.032024048	-1.529000E+00	  0.032024048	1.325270E+02	  0.032024048	5.231000E+00	  0.032024048	2.178400E+01
62	  0.032224450	-1.553000E+00	  0.032224450	1.306200E+02	  0.032224450	5.392000E+00	  0.032224450	2.276500E+01
63	  0.032424849	-1.581000E+00	  0.032424849	1.286990E+02	  0.032424849	5.573000E+00	  0.032424849	2.376700E+01
64	  0.032625251	-1.617000E+00	  0.032625251	1.267740E+02	  0.032625251	5.794000E+00	  0.032625251	2.478200E+01
65	  0.032825653	-1.656000E+00	  0.032825653	1.248320E+02	  0.032825653	6.035000E+00	  0.032825653	2.582100E+01
66	  0.033026051	-1.697000E+00	  0.033026051	1.228920E+02	  0.033026051	6.296000E+00	  0.033026051	2.687400E+01
67	  0.033226453	-1.742000E+00	  0.033226453	1.209050E+02	  0.033226453	6.582000E+00	  0.033226453	2.797000E+01
68	  0.033426855	-1.786000E+00	  0.033426855	1.189040E+02	  0.033426855	6.884000E+00	  0.033426855	2.909100E+01
69	  0.033627257	-1.832000E+00	  0.033627257	1.168660E+02	  0.033627257	7.207000E+00	  0.033627257	3.025400E+01
70	  0.033827655	-1.876000E+00	  0.033827655	1.148010E+02	  0.033827655	7.543000E+00	  0.033827655	3.145600E+01
71	  0.034028057	-1.924000E+00	  0.034028057	1.127130E+02	  0.034028057	7.917000E+00	  0.034028057	3.269200E+01
72	  0.034228459	-1.972000E+00	  0.034228459	1.106430E+02	  0.034228459	8.307000E+00	  0.034228459	3.394400E+01
73	  0.034428857	-2.016000E+00	  0.034428857	1.085410E+02	  0.034428857	8.708000E+00	  0.034428857	3.524300E+01
74	  0.034629259	-2.054000E+00	  0.034629259	1.064800E+02	  0.034629259	9.101000E+00	  0.034629259	3.654900E+01
75	  0.034829661	-2.090000E+00	  0.034829661	1.044070E+02	  0.034829661	9.509000E+00	  0.034829661	3.789500E+01
76	  0.035030060	-2.131000E+00	  0.035030060	1.023680E+02	  0.035030060	9.959000E+00	  0.035030060	3.924500E+01
77	  0.035230462	-2.176000E+00	  0.035230462	1.003520E+02	  0.035230462	1.045200E+01	  0.035230462	4.060700E+01
78	  0.035430863	-2.232000E+00	  0.035430863	9.833300E+01	  0.035430863	1.102800E+01	  0.035430863	4.199100E+01
79	  0.035631265	-2.290000E+00	  0.035631265	9.631600E+01	  0.035631265	1.165100E+01	  0.035631265	4.340200E+01
80	  0.035831664	-2.352000E+00	  0.035831664	9.425200E+01	  0.035831664	1.233700E+01	  0.035831664	4.487800E+01
81	  0.036032066	-2.411000E+00	  0.036032066	9.212800E+01	  0.036032066	1.306800E+01	  0.036032066	4.643900E+01
82	  0.036232468	-2.476000E+00	  0.036232468	8.994500E+01	  0.036232468	1.389300E+01	  0.036232468	4.807800E+01
83	  0.036432866	-2.531000E+00	  0.036432866	8.776300E+01	  0.036432866	1.472200E+01	  0.036432866	4.977500E+01
84	  0.036633268	-2.583000E+00	  0.036633268	8.555500E+01	  0.036633268	1.560700E+01	  0.036633268	5.154600E+01
85	  0.036833670	-2.635000E+00	  0.036833670	8.339700E+01	  0.036833670	1.654000E+01	  0.036833670	5.332500E+01
86	  0.037034072	-2.684000E+00	  0.037034072	8.121700E+01	  0.037034072	1.753300E+01	  0.037034072	5.518300E+01
87	  0.037234470	-2.729000E+00	  0.037234470	7.907700E+01	  0.037234470	1.856400E+01	  0.037234470	5.706600E+01
88	  0.037434869	-2.773000E+00	  0.037434869	7.697800E+01	  0.037434869	1.965900E+01	  0.037434869	5.896800E+01
89	  0.037635271	-2.825000E+00	  0.037635271	7.490400E+01	  0.037635271	2.087200E+01	  0.037635271	6.088000E+01
90	  0.037835669	-2.877000E+00	  0.037835669	7.281400E+01	  0.037835669	2.219900E+01	  0.037835669	6.285800E+01
91	  0.038036071	-2.936000E+00	  0.038036071	7.077100E+01	  0.038036071	2.365100E+01	  0.038036071	6.481800E+01
92	  0.038236473	-2.993000E+00	  0.038236473	6.871900E+01	  0.038236473	2.521300E+01	  0.038236473	6.684100E+01
93	  0.038436871	-3.050000E+00	  0.038436871	6.665400E+01	  0.038436871	2.691000E+01	  0.038436871	6.892600E+01
94	  0.038637273	-3.116000E+00	  0.038637273	6.454200E+01	  0.038637273	2.884900E+01	  0.038637273	7.107200E+01
95	  0.038837675	-3.184000E+00	  0.038837675	6.237700E+01	  0.038837675	3.101500E+01	  0.038837675	7.330900E+01
96	  0.039038073	-3.246000E+00	  0.039038073	6.019000E+01	  0.039038073	3.334700E+01	  0.039038073	7.564100E+01
97	  0.039238475	-3.307000E+00	  0.039238475	5.798300E+01	  0.039238475	3.590500E+01	  0.039238475	7.804000E+01
98	  0.039438877	-3.360000E+00	  0.039438877	5.579500E+01	  0.039438877	3.860700E+01	  0.039438877	8.050800E+01
99	  0.039639279	-3.410000E+00	  0.039639279	5.365200E+01	  0.039639279	4.149000E+01	  0.039639279	8.296800E+01
100	  0.039839678	-3.455000E+00	  0.039839678	5.155100E+01	  0.039839678	4.454600E+01	  0.039839678	8.543200E+01
101	  0.040040080	-3.505000E+00	  0.040040080	4.948100E+01	  0.040040080	4.789200E+01	  0.040040080	8.781200E+01
102	  0.040240481	-3.562000E+00	  0.040240481	4.741500E+01	  0.040240481	5.160300E+01	  0.040240481	9.009600E+01
103	  0.040440880	-3.621000E+00	  0.040440880	4.536900E+01	  0.040440880	5.563300E+01	  0.040440880	9.226800E+01
104	  0.040641282	-3.683000E+00	  0.040641282	4.328000E+01	  0.040641282	6.013500E+01	  0.040641282	9.435900E+01
105	  0.040841684	-3.746000E+00	  0.040841684	4.118500E+01	  0.040841684	6.505400E+01	  0.040841684	9.629800E+01
106	  0.041042086	-3.813000E+00	  0.041042086	3.908400E+01	  0.041042086	7.044600E+01	  0.041042086	9.798500E+01
107	  0.041242484	-3.871000E+00	  0.041242484	3.697700E+01	  0.041242484	7.623100E+01	  0.041242484	9.955200E+01
108	  0.041442886	-3.932000E+00	  0.041442886	3.486300E+01	  0.041442886	8.253500E+01	  0.041442886	1.007320E+02
109	  0.041643288	-3.988000E+00	  0.041643288	3.276200E+01	  0.041643288	8.925500E+01	  0.041643288	1.015760E+02
110	  0.041843686	-4.046000E+00	  0.041843686	3.061800E+01	  0.041843686	9.661100E+01	  0.041843686	1.019050E+02
111	  0.042044088	-4.099000E+00	  0.042044088	2.853400E+01	  0.042044088	1.042180E+02	  0.042044088	1.016640E+02
112	  0.042244490	-4.152000E+00	  0.042244490	2.646200E+01	  0.042244490	1.122030E+02	  0.042244490	1.007080E+02
113	  0.042444889	-4.204000E+00	  0.042444889	2.440800E+01	  0.042444889	1.204710E+02	  0.042444889	9.892900E+01
114	  0.042645290	-4.255000E+00	  0.042645290	2.236000E+01	  0.042645290	1.289710E+02	  0.042645290	9.624700E+01
115	  0.042845692	-4.309000E+00	  0.042845692	2.031100E+01	  0.042845692	1.375760E+02	  0.042845692	9.242000E+01
116	  0.043046094	-4.360000E+00	  0.043046094	1.825100E+01	  0.043046094	1.462000E+02	  0.043046094	8.748400E+01
117	  0.043246493	-4.413000E+00	  0.043246493	1.623400E+01	  0.043246493	1.543600E+02	  0.043246493	8.139100E+01
118	  0.043446895	-4.465000E+00	  0.043446895	1.416900E+01	  0.043446895	1.622370E+02	  0.043446895	7.394400E+01
119	  0.043647297	-4.519000E+00	  0.043647297	1.214600E+01	  0.043647297	1.691490E+02	  0.043647297	6.540900E+01
120	  0.043847695	-4.574000E+00	  0.043847695	1.011300E+01	  0.043847695	1.750880E+02	  0.043847695	5.576700E+01
121	  0.044048097	-4.626000E+00	  0.044048097	8.076000E+00	  0.044048097	1.798830E+02	  0.044048097	4.527600E+01
122	  0.044248499	-4.674000E+00	  0.044248499	6.046000E+00	  0.044248499	1.834060E+02	  0.044248499	3.422100E+01
123	  0.044448901	-4.719000E+00	  0.044448901	4.011000E+00	  0.044448901	1.855400E+02	  0.044448901	2.275000E+01
124	  0.044649299	-4.764000E+00	  0.044649299	1.995000E+00	  0.044649299	1.861280E+02	  0.044649299	1.124600E+01
125	  0.044849701	-4.807000E+00	  0.044849701	1.000000E-02	  0.044849701	1.852470E+02	  0.044849701	6.100000E-02
126	  0.045050103	-4.850000E+00	  0.045050103	-1.972000E+00	  0.045050103	1.830110E+02	  0.045050103	-1.071600E+01
127	  0.045250501	-4.892000E+00	  0.045250501	-3.948000E+00	  0.045250501	1.796000E+02	  0.045250501	-2.083600E+01
128	  0.045450903	-4.933000E+00	  0.045450903	-5.913000E+00	  0.045450903	1.751460E+02	  0.045450903	-3.012400E+01
129	  0.045651305	-4.971000E+00	  0.045651305	-7.880000E+00	  0.045651305	1.699220E+02	  0.045651305	-3.856500E+01
130	  0.045851704	-5.009000E+00	  0.045851704	-9.822000E+00	  0.045851704	1.640940E+02	  0.045851704	-4.594900E+01
131	  0.046052106	-5.042000E+00	  0.046052106	-1.176600E+01	  0.046052106	1.579280E+02	  0.046052106	-5.248000E+01
132	  0.046252504	-5.075000E+00	  0.046252504	-1.367400E+01	  0.046252504	1.515160E+02	  0.046252504	-5.794000E+01
133	  0.046452906	-5.108000E+00	  0.046452906	-1.556400E+01	  0.046452906	1.450170E+02	  0.046452906	-6.249200E+01
134	  0.046653304	-5.144000E+00	  0.046653304	-1.741800E+01	  0.046653304	1.385640E+02	  0.046653304	-6.610300E+01
135	  0.046853706	-5.175000E+00	  0.046853706	-1.928000E+01	  0.046853706	1.322050E+02	  0.046853706	-6.909900E+01
136	  0.047054108	-5.210000E+00	  0.047054108	-2.111700E+01	  0.047054108	1.260200E+02	  0.047054108	-7.133700E+01
137	  0.047254506	-5.241000E+00	  0.047254506	-2.296600E+01	  0.047254506	1.200210E+02	  0.047254506	-7.309700E+01
138	  0.047454908	-5.269000E+00	  0.047454908	-2.480800E+01	  0.047454908	1.142770E+02	  0.047454908	-7.438600E+01
139	  0.047655310	-5.298000E+00	  0.047655310	-2.661900E+01	  0.047655310	1.088560E+02	  0.047655310	-7.520900E+01
140	  0.047855709	-5.328000E+00	  0.047855709	-2.841700E+01	  0.047855709	1.037170E+02	  0.047855709	-7.562600E+01
141	  0.048056111	-5.361000E+00	  0.048056111	-3.023900E+01	  0.048056111	9.876800E+01	  0.048056111	-7.568600E+01
142	  0.048256513	-5.389000E+00	  0.048256513	-3.206200E+01	  0.048256513	9.409300E+01	  0.048256513	-7.555200E+01
143	  0.048456915	-5.412000E+00	  0.048456915	-3.386300E+01	  0.048456915	8.972800E+01	  0.048456915	-7.526500E+01
144	  0.048657313	-5.436000E+00	  0.048657313	-3.568100E+01	  0.048657313	8.556700E+01	  0.048657313	-7.475700E+01
145	  0.048857715	-5.459000E+00	  0.048857715	-3.749600E+01	  0.048857715	8.165300E+01	  0.048857715	-7.409600E+01
146	  0.049058117	-5.480000E+00	  0.049058117	-3.927100E+01	  0.049058117	7.804300E+01	  0.049058117	-7.333400E+01
147	  0.049258515	-5.501000E+00	  0.049258515	-4.102300E+01	  0.049258515	7.468800E+01	  0.049258515	-7.245400E+01
148	  0.049458917	-5.523000E+00	  0.049458917	-4.274500E+01	  0.049458917	7.158300E+01	  0.049458917	-7.148800E+01
149	  0.049659319	-5.547000E+00	  0.049659319	-4.449200E+01	  0.049659319	6.862300E+01	  0.049659319	-7.041500E+01
150	  0.049859721	-5.572000E+00	  0.049859721	-4.625300E+01	  0.049859721	6.581800E+01	  0.049859721	-6.926700E+01
151	  0.050060119	-5.597000E+00	  0.050060119	-4.800500E+01	  0.050060119	6.319800E+01	  0.050060119	-6.807900E+01
152	  0.050260521	-5.619000E+00	  0.050260521	-4.978300E+01	  0.050260521	6.068500E+01	  0.050260521	-6.686800E+01
153	  0.050460923	-5.643000E+00	  0.050460923	-5.153000E+01	  0.050460923	5.837400E+01	  0.050460923	-6.562700E+01
154	  0.050661322	-5.660000E+00	  0.050661322	-5.326000E+01	  0.050661322	5.619100E+01	  0.050661322	-6.444300E+01
155	  0.050861724	-5.675000E+00	  0.050861724	-5.505300E+01	  0.050861724	5.405200E+01	  0.050861724	-6.321000E+01
156	  0.051062126	-5.682000E+00	  0.051062126	-5.676100E+01	  0.051062126	5.209900E+01	  0.051062126	-6.208000E+01
157	  0.051262524	-5.689000E+00	  0.051262524	-5.845200E+01	  0.051262524	5.027100E+01	  0.051262524	-6.094600E+01
158	  0.051462926	-5.701000E+00	  0.051462926	-6.011500E+01	  0.051462926	4.858800E+01	  0.051462926	-5.979300E+01
159	  0.051663328	-5.710000E+00	  0.051663328	-6.174100E+01	  0.051663328	4.702000E+01	  0.051663328	-5.867600E+01
160	  0.051863730	-5.726000E+00	  0.051863730	-6.337600E+01	  0.051863730	4.555300E+01	  0.051863730	-5.751500E+01
161	  0.052064128	-5.738000E+00	  0.052064128	-6.495700E+01	  0.052064128	4.419400E+01	  0.052064128	-5.641400E+01
162	  0.052264530	-5.750000E+00	  0.052264530	-6.656700E+01	  0.052264530	4.288200E+01	  0.052264530	-5.529600E+01
163	  0.052464932	-5.762000E+00	  0.052464932	-6.817800E+01	  0.052464932	4.163200E+01	  0.052464932	-5.418900E+01
164	  0.052665330	-5.773000E+00	  0.052665330	-6.977100E+01	  0.052665330	4.045100E+01	  0.052665330	-5.311000E+01
165	  0.052865732	-5.782000E+00	  0.052865732	-7.132100E+01	  0.052865732	3.935600E+01	  0.052865732	-5.207100E+01
166	  0.053066134	-5.799000E+00	  0.053066134	-7.291100E+01	  0.053066134	3.831800E+01	  0.053066134	-5.097900E+01
167	  0.053266536	-5.803000E+00	  0.053266536	-7.451200E+01	  0.053266536	3.726700E+01	  0.053266536	-4.995100E+01
168	  0.053466935	-5.814000E+00	  0.053466935	-7.605700E+01	  0.053466935	3.633200E+01	  0.053466935	-4.893700E+01
169	  0.053667337	-5.820000E+00	  0.053667337	-7.764400E+01	  0.053667337	3.539300E+01	  0.053667337	-4.792800E+01
170	  0.053867739	-5.820000E+00	  0.053867739	-7.917400E+01	  0.053867739	3.450900E+01	  0.053867739	-4.698400E+01
171	  0.054068137	-5.827000E+00	  0.054068137	-8.068500E+01	  0.054068137	3.369900E+01	  0.054068137	-4.603700E+01
172	  0.054268539	-5.834000E+00	  0.054268539	-8.215100E+01	  0.054268539	3.295000E+01	  0.054268539	-4.512500E+01
173	  0.054468941	-5.843000E+00	  0.054468941	-8.360000E+01	  0.054468941	3.224900E+01	  0.054468941	-4.422600E+01
174	  0.054669339	-5.848000E+00	  0.054669339	-8.505400E+01	  0.054669339	3.155900E+01	  0.054669339	-4.334800E+01
175	  0.054869737	-5.860000E+00	  0.054869737	-8.650500E+01	  0.054869737	3.092900E+01	  0.054869737	-4.245700E+01
176	  0.055070139	-5.874000E+00	  0.055070139	-8.798100E+01	  0.055070139	3.031800E+01	  0.055070139	-4.156000E+01
177	  0.055270538	-5.880000E+00	  0.055270538	-8.942200E+01	  0.055270538	2.972100E+01	  0.055270538	-4.071400E+01
178	  0.055470940	-5.893000E+00	  0.055470940	-9.090400E+01	  0.055470940	2.915400E+01	  0.055470940	-3.983800E+01
179	  0.055671342	-5.902000E+00	  0.055671342	-9.236700E+01	  0.055671342	2.860800E+01	  0.055671342	-3.899100E+01
180	  0.055871744	-5.908000E+00	  0.055871744	-9.383100E+01	  0.055871744	2.807000E+01	  0.055871744	-3.816300E+01
181	  0.056072142	-5.909000E+00	  0.056072142	-9.529700E+01	  0.056072142	2.753700E+01	  0.056072142	-3.735300E+01
182	  0.056272544	-5.908000E+00	  0.056272544	-9.674400E+01	  0.056272544	2.702300E+01	  0.056272544	-3.656800E+01
183	  0.056472946	-5.902000E+00	  0.056472946	-9.814800E+01	  0.056472946	2.653000E+01	  0.056472946	-3.582200E+01
184	  0.056673344	-5.906000E+00	  0.056673344	-9.953700E+01	  0.056673344	2.608900E+01	  0.056673344	-3.507200E+01
185	  0.056873746	-5.908000E+00	  0.056873746	-1.009190E+02	  0.056873746	2.566400E+01	  0.056873746	-3.433500E+01
186	  0.057074148	-5.905000E+00	  0.057074148	-1.022510E+02	  0.057074148	2.525300E+01	  0.057074148	-3.364100E+01
187	  0.057274550	-5.907000E+00	  0.057274550	-1.035890E+02	  0.057274550	2.486700E+01	  0.057274550	-3.294200E+01
188	  0.057474948	-5.910000E+00	  0.057474948	-1.049240E+02	  0.057474948	2.450400E+01	  0.057474948	-3.224800E+01
189	  0.057675350	-5.913000E+00	  0.057675350	-1.062380E+02	  0.057675350	2.415700E+01	  0.057675350	-3.157300E+01
190	  0.057875752	-5.919000E+00	  0.057875752	-1.075980E+02	  0.057875752	2.382200E+01	  0.057875752	-3.087300E+01
191	  0.058076151	-5.925000E+00	  0.058076151	-1.089090E+02	  0.058076151	2.351300E+01	  0.058076151	-3.020500E+01
192	  0.058276553	-5.926000E+00	  0.058276553	-1.102490E+02	  0.058276553	2.318700E+01	  0.058276553	-2.953900E+01
193	  0.058476955	-5.927000E+00	  0.058476955	-1.115690E+02	  0.058476955	2.288200E+01	  0.058476955	-2.888600E+01
194	  0.058677353	-5.924000E+00	  0.058677353	-1.129050E+02	  0.058677353	2.257000E+01	  0.058677353	-2.823800E+01
195	  0.058877755	-5.920000E+00	  0.058877755	-1.141860E+02	  0.058877755	2.227700E+01	  0.058877755	-2.762300E+01
196	  0.059078157	-5.918000E+00	  0.059078157	-1.154980E+02	  0.059078157	2.199300E+01	  0.059078157	-2.699500E+01
197	  0.059278559	-5.920000E+00	  0.059278559	-1.167500E+02	  0.059278559	2.174400E+01	  0.059278559	-2.639500E+01
198	  0.059478957	-5.917000E+00	  0.059478957	-1.179770E+02	  0.059478957	2.149200E+01	  0.059478957	-2.581800E+01
199	  0.059679359	-5.918000E+00	  0.059679359	-1.192100E+02	  0.059679359	2.126000E+01	  0.059679359	-2.523700E+01
200	  0.059879761	-5.919000E+00	  0.059879761	-1.204770E+02	  0.059879761	2.103200E+01	  0.059879761	-2.464300E+01
201	  0.060080159	-5.923000E+00	  0.060080159	-1.217120E+02	  0.060080159	2.082300E+01	  0.060080159	-2.406700E+01
202	  0.060280561	-5.921000E+00	  0.060280561	-1.229720E+02	  0.060280561	2.060200E+01	  0.060280561	-2.348900E+01
203	  0.060480963	-5.923000E+00	  0.060480963	-1.242220E+02	  0.060480963	2.039900E+01	  0.060480963	-2.291600E+01
204	  0.060681365	-5.923000E+00	  0.060681365	-1.254690E+02	  0.060681365	2.020000E+01	  0.060681365	-2.235000E+01
205	  0.060881764	-5.921000E+00	  0.060881764	-1.267130E+02	  0.060881764	2.000100E+01	  0.060881764	-2.179100E+01
206	  0.061082166	-5.917000E+00	  0.061082166	-1.279480E+02	  0.061082166	1.980500E+01	  0.061082166	-2.124200E+01
207	  0.061282568	-5.915000E+00	  0.061282568	-1.292010E+02	  0.061282568	1.961700E+01	  0.061282568	-2.068600E+01
208	  0.061482966	-5.907000E+00	  0.061482966	-1.304100E+02	  0.061482966	1.942600E+01	  0.061482966	-2.015800E+01
209	  0.061683368	-5.901000E+00	  0.061683368	-1.316250E+02	  0.061683368	1.924600E+01	  0.061683368	-1.962800E+01
210	  0.061883770	-5.900000E+00	  0.061883770	-1.328380E+02	  0.061883770	1.908700E+01	  0.061883770	-1.909800E+01
211	  0.062084168	-5.892000E+00	  0.062084168	-1.340030E+02	  0.062084168	1.891600E+01	  0.062084168	-1.859800E+01
212	  0.062284570	-5.890000E+00	  0.062284570	-1.351510E+02	  0.062284570	1.877200E+01	  0.062284570	-1.810200E+01
213	  0.062484972	-5.879000E+00	  0.062484972	-1.362770E+02	  0.062484972	1.861100E+01	  0.062484972	-1.762500E+01
214	  0.062685370	-5.875000E+00	  0.062685370	-1.373930E+02	  0.062685370	1.847300E+01	  0.062685370	-1.714900E+01
215	  0.062885776	-5.876000E+00	  0.062885776	-1.385320E+02	  0.062885776	1.835300E+01	  0.062885776	-1.666200E+01
216	  0.063086174	-5.880000E+00	  0.063086174	-1.396900E+02	  0.063086174	1.824300E+01	  0.063086174	-1.616700E+01
217	  0.063286573	-5.880000E+00	  0.063286573	-1.408420E+02	  0.063286573	1.812500E+01	  0.063286573	-1.568000E+01
218	  0.063486971	-5.875000E+00	  0.063486971	-1.419860E+02	  0.063486971	1.800200E+01	  0.063486971	-1.520100E+01
219	  0.063687377	-5.877000E+00	  0.063687377	-1.431260E+02	  0.063687377	1.790000E+01	  0.063687377	-1.472200E+01
220	  0.063887775	-5.866000E+00	  0.063887775	-1.442500E+02	  0.063887775	1.776700E+01	  0.063887775	-1.426000E+01
221	  0.064088173	-5.866000E+00	  0.064088173	-1.453660E+02	  0.064088173	1.767000E+01	  0.064088173	-1.379600E+01
222	  0.064288579	-5.871000E+00	  0.064288579	-1.464740E+02	  0.064288579	1.759100E+01	  0.064288579	-1.333400E+01
223	  0.064488977	-5.869000E+00	  0.064488977	-1.475590E+02	  0.064488977	1.750000E+01	  0.064488977	-1.288700E+01
224	  0.064689375	-5.869000E+00	  0.064689375	-1.486700E+02	  0.064689375	1.741300E+01	  0.064689375	-1.243100E+01
225	  0.064889781	-5.864000E+00	  0.064889781	-1.497370E+02	  0.064889781	1.732100E+01	  0.064889781	-1.199600E+01
226	  0.065090179	-5.865000E+00	  0.065090179	-1.508490E+02	  0.065090179	1.724400E+01	  0.065090179	-1.154200E+01
227	  0.065290578	-5.872000E+00	  0.065290578	-1.519250E+02	  0.065290578	1.719100E+01	  0.065290578	-1.110000E+01
228	  0.065490983	-5.870000E+00	  0.065490983	-1.530410E+02	  0.065490983	1.711100E+01	  0.065490983	-1.064900E+01
229	  0.065691382	-5.871000E+00	  0.065691382	-1.541400E+02	  0.065691382	1.704700E+01	  0.065691382	-1.020400E+01
230	  0.065891780	-5.872000E+00	  0.065891780	-1.552070E+02	  0.065891780	1.698600E+01	  0.065891780	-9.773000E+00
231	  0.066092186	-5.874000E+00	  0.066092186	-1.562750E+02	  0.066092186	1.693000E+01	  0.066092186	-9.343000E+00
232	  0.066292584	-5.876000E+00	  0.066292584	-1.573920E+02	  0.066292584	1.687500E+01	  0.066292584	-8.894000E+00
233	  0.066492982	-5.874000E+00	  0.066492982	-1.584690E+02	  0.066492982	1.681600E+01	  0.066492982	-8.464000E+00
234	  0.066693388	-5.873000E+00	  0.066693388	-1.595210E+02	  0.066693388	1.676300E+01	  0.066693388	-8.045000E+00
235	  0.066893786	-5.871000E+00	  0.066893786	-1.606060E+02	  0.066893786	1.670800E+01	  0.066893786	-7.614000E+00
236	  0.067094192	-5.871000E+00	  0.067094192	-1.616780E+02	  0.067094192	1.666000E+01	  0.067094192	-7.187000E+00
237	  0.067294590	-5.873000E+00	  0.067294590	-1.627120E+02	  0.067294590	1.662300E+01	  0.067294590	-6.777000E+00
238	  0.067494988	-5.874000E+00	  0.067494988	-1.637600E+02	  0.067494988	1.658600E+01	  0.067494988	-6.362000E+00
239	  0.067695394	-5.870000E+00	  0.067695394	-1.648010E+02	  0.067695394	1.654000E+01	  0.067695394	-5.952000E+00
240	  0.067895792	-5.871000E+00	  0.067895792	-1.658250E+02	  0.067895792	1.650800E+01	  0.067895792	-5.548000E+00
241	  0.068096191	-5.870000E+00	  0.068096191	-1.668660E+02	  0.068096191	1.647400E+01	  0.068096191	-5.138000E+00
242	  0.068296596	-5.871000E+00	  0.068296596	-1.678430E+02	  0.068296596	1.645000E+01	  0.068296596	-4.753000E+00
243	  0.068496995	-5.874000E+00	  0.068496995	-1.688610E+02	  0.068496995	1.642900E+01	  0.068496995	-4.353000E+00
244	  0.068697393	-5.872000E+00	  0.068697393	-1.698840E+02	  0.068697393	1.639900E+01	  0.068697393	-3.952000E+00
245	  0.068897791	-5.869000E+00	  0.068897791	-1.709010E+02	  0.068897791	1.637000E+01	  0.068897791	-3.554000E+00
246	  0.069098189	-5.867000E+00	  0.069098189	-1.719020E+02	  0.069098189	1.634700E+01	  0.069098189	-3.162000E+00
247	  0.069298595	-5.869000E+00	  0.069298595	-1.728770E+02	  0.069298595	1.633600E+01	  0.069298595	-2.780000E+00
248	  0.069498993	-5.874000E+00	  0.069498993	-1.738790E+02	  0.069498993	1.633200E+01	  0.069498993	-2.388000E+00
249	  0.069699399	-5.876000E+00	  0.069699399	-1.748290E+02	  0.069699399	1.632600E+01	  0.069699399	-2.017000E+00
250	  0.069899797	-5.880000E+00	  0.069899797	-1.758190E+02	  0.069899797	1.632500E+01	  0.069899797	-1.630000E+00
251	  0.070100196	-5.880000E+00	  0.070100196	-1.768140E+02	  0.070100196	1.631700E+01	  0.070100196	-1.242000E+00
252	  0.070300601	-5.885000E+00	  0.070300601	-1.777580E+02	  0.070300601	1.632600E+01	  0.070300601	-8.730000E-01
253	  0.070501000	-5.888000E+00	  0.070501000	-1.787410E+02	  0.070501000	1.632800E+01	  0.070501000	-4.900000E-01
254	  0.070701398	-5.892000E+00	  0.070701398	-1.797440E+02	  0.070701398	1.633800E+01	  0.070701398	-9.900000E-02
255	  0.070901804	-5.896000E+00	  0.070901804	1.793200E+02	  0.070901804	1.634700E+01	  0.070901804	2.640000E-01
256	  0.071102202	-5.901000E+00	  0.071102202	1.783320E+02	  0.071102202	1.636300E+01	  0.071102202	6.490000E-01
257	  0.071302600	-5.904000E+00	  0.071302600	1.773830E+02	  0.071302600	1.637600E+01	  0.071302600	1.019000E+00
258	  0.071503006	-5.906000E+00	  0.071503006	1.764130E+02	  0.071503006	1.638800E+01	  0.071503006	1.397000E+00
259	  0.071703404	-5.910000E+00	  0.071703404	1.754360E+02	  0.071703404	1.640800E+01	  0.071703404	1.778000E+00
260	  0.071903802	-5.914000E+00	  0.071903802	1.744840E+02	  0.071903802	1.642900E+01	  0.071903802	2.149000E+00
261	  0.072104208	-5.920000E+00	  0.072104208	1.735300E+02	  0.072104208	1.645700E+01	  0.072104208	2.520000E+00
262	  0.072304606	-5.925000E+00	  0.072304606	1.725670E+02	  0.072304606	1.648500E+01	  0.072304606	2.895000E+00
263	  0.072505005	-5.929000E+00	  0.072505005	1.716760E+02	  0.072505005	1.650900E+01	  0.072505005	3.243000E+00
264	  0.072705410	-5.930000E+00	  0.072705410	1.707290E+02	  0.072705410	1.653100E+01	  0.072705410	3.613000E+00
265	  0.072905809	-5.932000E+00	  0.072905809	1.697610E+02	  0.072905809	1.655700E+01	  0.072905809	3.991000E+00
266	  0.073106214	-5.935000E+00	  0.073106214	1.688580E+02	  0.073106214	1.658700E+01	  0.073106214	4.344000E+00
267	  0.073306613	-5.944000E+00	  0.073306613	1.679450E+02	  0.073306613	1.663500E+01	  0.073306613	4.700000E+00
268	  0.073507011	-5.947000E+00	  0.073507011	1.670290E+02	  0.073507011	1.666800E+01	  0.073507011	5.059000E+00
269	  0.073707417	-5.949000E+00	  0.073707417	1.661310E+02	  0.073707417	1.670000E+01	  0.073707417	5.411000E+00
270	  0.073907815	-5.948000E+00	  0.073907815	1.652300E+02	  0.073907815	1.672700E+01	  0.073907815	5.765000E+00
271	  0.074108213	-5.947000E+00	  0.074108213	1.643570E+02	  0.074108213	1.675500E+01	  0.074108213	6.109000E+00
272	  0.074308619	-5.955000E+00	  0.074308619	1.634350E+02	  0.074308619	1.681100E+01	  0.074308619	6.470000E+00
273	  0.074509017	-5.965000E+00	  0.074509017	1.625660E+02	  0.074509017	1.687000E+01	  0.074509017	6.811000E+00
274	  0.074709415	-5.973000E+00	  0.074709415	1.617000E+02	  0.074709415	1.692700E+01	  0.074709415	7.150000E+00
275	  0.074909821	-5.977000E+00	  0.074909821	1.607880E+02	  0.074909821	1.697600E+01	  0.074909821	7.510000E+00
276	  0.075110219	-5.985000E+00	  0.075110219	1.599230E+02	  0.075110219	1.703600E+01	  0.075110219	7.850000E+00
277	  0.075310618	-5.995000E+00	  0.075310618	1.590530E+02	  0.075310618	1.710600E+01	  0.075310618	8.192000E+00
278	  0.075511023	-6.005000E+00	  0.075511023	1.581700E+02	  0.075511023	1.717500E+01	  0.075511023	8.540000E+00
279	  0.075711422	-6.008000E+00	  0.075711422	1.573140E+02	  0.075711422	1.722800E+01	  0.075711422	8.879000E+00
280	  0.075911827	-6.018000E+00	  0.075911827	1.564460E+02	  0.075911827	1.730100E+01	  0.075911827	9.222000E+00
281	  0.076112226	-6.031000E+00	  0.076112226	1.555760E+02	  0.076112226	1.738500E+01	  0.076112226	9.564000E+00
282	  0.076312624	-6.037000E+00	  0.076312624	1.546630E+02	  0.076312624	1.745500E+01	  0.076312624	9.927000E+00
283	  0.076513030	-6.044000E+00	  0.076513030	1.538180E+02	  0.076513030	1.752600E+01	  0.076513030	1.026300E+01
284	  0.076713428	-6.053000E+00	  0.076713428	1.529590E+02	  0.076713428	1.760500E+01	  0.076713428	1.060400E+01
285	  0.076913826	-6.062000E+00	  0.076913826	1.520670E+02	  0.076913826	1.768900E+01	  0.076913826	1.095900E+01
286	  0.077114232	-6.068000E+00	  0.077114232	1.512190E+02	  0.077114232	1.776200E+01	  0.077114232	1.129800E+01
287	  0.077314630	-6.081000E+00	  0.077314630	1.503230E+02	  0.077314630	1.786000E+01	  0.077314630	1.165400E+01
288	  0.077515028	-6.094000E+00	  0.077515028	1.494870E+02	  0.077515028	1.795700E+01	  0.077515028	1.198600E+01
289	  0.077715434	-6.100000E+00	  0.077715434	1.486620E+02	  0.077715434	1.803700E+01	  0.077715434	1.231700E+01
290	  0.077915832	-6.114000E+00	  0.077915832	1.478180E+02	  0.077915832	1.814100E+01	  0.077915832	1.265300E+01
291	  0.078116231	-6.127000E+00	  0.078116231	1.469440E+02	  0.078116231	1.824600E+01	  0.078116231	1.300200E+01
292	  0.078316636	-6.136000E+00	  0.078316636	1.460840E+02	  0.078316636	1.834300E+01	  0.078316636	1.334800E+01
293	  0.078517035	-6.145000E+00	  0.078517035	1.452240E+02	  0.078517035	1.844100E+01	  0.078517035	1.369500E+01
294	  0.078717433	-6.154000E+00	  0.078717433	1.443560E+02	  0.078717433	1.854300E+01	  0.078717433	1.404600E+01
295	  0.078917839	-6.163000E+00	  0.078917839	1.435510E+02	  0.078917839	1.864400E+01	  0.078917839	1.437100E+01
296	  0.079118237	-6.165000E+00	  0.079118237	1.427320E+02	  0.079118237	1.872700E+01	  0.079118237	1.470800E+01
297	  0.079318643	-6.177000E+00	  0.079318643	1.419070E+02	  0.079318643	1.883900E+01	  0.079318643	1.504100E+01
298	  0.079519041	-6.182000E+00	  0.079519041	1.410920E+02	  0.079519041	1.893400E+01	  0.079519041	1.537500E+01
299	  0.079719439	-6.195000E+00	  0.079719439	1.402800E+02	  0.079719439	1.905400E+01	  0.079719439	1.570400E+01
300	  0.079919845	-6.208000E+00	  0.079919845	1.394450E+02	  0.079919845	1.917800E+01	  0.079919845	1.604300E+01
301	  0.080120243	-6.222000E+00	  0.080120243	1.386420E+02	  0.080120243	1.930300E+01	  0.080120243	1.636800E+01
302	  0.080320641	-6.235000E+00	  0.080320641	1.378500E+02	  0.080320641	1.942800E+01	  0.080320641	1.669000E+01
303	  0.080521047	-6.246000E+00	  0.080521047	1.370540E+02	  0.080521047	1.955100E+01	  0.080521047	1.701500E+01
304	  0.080721445	-6.261000E+00	  0.080721445	1.362770E+02	  0.080721445	1.968300E+01	  0.080721445	1.733100E+01
305	  0.080921844	-6.277000E+00	  0.080921844	1.354720E+02	  0.080921844	1.982400E+01	  0.080921844	1.765800E+01
306	  0.081122249	-6.288000E+00	  0.081122249	1.346730E+02	  0.081122249	1.995500E+01	  0.081122249	1.798600E+01
307	  0.081322648	-6.301000E+00	  0.081322648	1.338570E+02	  0.081322648	2.009300E+01	  0.081322648	1.832100E+01
308	  0.081523046	-6.321000E+00	  0.081523046	1.330770E+02	  0.081523046	2.025300E+01	  0.081523046	1.863500E+01
309	  0.081723452	-6.332000E+00	  0.081723452	1.322720E+02	  0.081723452	2.039000E+01	  0.081723452	1.896900E+01
310	  0.081923850	-6.348000E+00	  0.081923850	1.314960E+02	  0.081923850	2.054100E+01	  0.081923850	1.928600E+01
311	  0.082124248	-6.362000E+00	  0.082124248	1.307220E+02	  0.082124248	2.068800E+01	  0.082124248	1.960500E+01
312	  0.082324654	-6.376000E+00	  0.082324654	1.299300E+02	  0.082324654	2.084200E+01	  0.082324654	1.993100E+01
313	  0.082525052	-6.393000E+00	  0.082525052	1.291870E+02	  0.082525052	2.099800E+01	  0.082525052	2.023500E+01
314	  0.082725458	-6.407000E+00	  0.082725458	1.284070E+02	  0.082725458	2.115600E+01	  0.082725458	2.055700E+01
315	  0.082925856	-6.425000E+00	  0.082925856	1.276690E+02	  0.082925856	2.132200E+01	  0.082925856	2.085800E+01
316	  0.083126254	-6.447000E+00	  0.083126254	1.269310E+02	  0.083126254	2.150100E+01	  0.083126254	2.115500E+01
317	  0.083326660	-6.469000E+00	  0.083326660	1.261530E+02	  0.083326660	2.168800E+01	  0.083326660	2.146900E+01
318	  0.083527058	-6.489000E+00	  0.083527058	1.253970E+02	  0.083527058	2.187000E+01	  0.083527058	2.177600E+01
319	  0.083727457	-6.504000E+00	  0.083727457	1.246220E+02	  0.083727457	2.204200E+01	  0.083727457	2.209900E+01
320	  0.083927862	-6.519000E+00	  0.083927862	1.238000E+02	  0.083927862	2.222700E+01	  0.083927862	2.244100E+01
321	  0.084128261	-6.538000E+00	  0.084128261	1.230490E+02	  0.084128261	2.241600E+01	  0.084128261	2.274700E+01
322	  0.084328659	-6.554000E+00	  0.084328659	1.222960E+02	  0.084328659	2.259600E+01	  0.084328659	2.306000E+01
323	  0.084529065	-6.571000E+00	  0.084529065	1.215710E+02	  0.084529065	2.277900E+01	  0.084529065	2.335900E+01
324	  0.084729463	-6.594000E+00	  0.084729463	1.208440E+02	  0.084729463	2.298200E+01	  0.084729463	2.365100E+01
325	  0.084929861	-6.612000E+00	  0.084929861	1.200920E+02	  0.084929861	2.317800E+01	  0.084929861	2.396100E+01
326	  0.085130267	-6.630000E+00	  0.085130267	1.193900E+02	  0.085130267	2.337000E+01	  0.085130267	2.424800E+01
327	  0.085330658	-6.654000E+00	  0.085330658	1.186770E+02	  0.085330658	2.358200E+01	  0.085330658	2.453400E+01
328	  0.085531056	-6.676000E+00	  0.085531056	1.179450E+02	  0.085531056	2.379600E+01	  0.085531056	2.483000E+01
329	  0.085731462	-6.698000E+00	  0.085731462	1.172460E+02	  0.085731462	2.400600E+01	  0.085731462	2.511100E+01
330	  0.085931860	-6.727000E+00	  0.085931860	1.165230E+02	  0.085931860	2.424600E+01	  0.085931860	2.539200E+01
331	  0.086132258	-6.745000E+00	  0.086132258	1.157790E+02	  0.086132258	2.446100E+01	  0.086132258	2.569800E+01
332	  0.086332664	-6.766000E+00	  0.086332664	1.150490E+02	  0.086332664	2.468300E+01	  0.086332664	2.599500E+01
333	  0.086533062	-6.789000E+00	  0.086533062	1.143180E+02	  0.086533062	2.491800E+01	  0.086533062	2.628800E+01
334	  0.086733460	-6.807000E+00	  0.086733460	1.136210E+02	  0.086733460	2.513100E+01	  0.086733460	2.657400E+01
335	  0.086933866	-6.828000E+00	  0.086933866	1.129060E+02	  0.086933866	2.536200E+01	  0.086933866	2.686300E+01
336	  0.087134264	-6.851000E+00	  0.087134264	1.121980E+02	  0.087134264	2.560000E+01	  0.087134264	2.714500E+01
337	  0.087334670	-6.872000E+00	  0.087334670	1.115220E+02	  0.087334670	2.582700E+01	  0.087334670	2.741700E+01
338	  0.087535068	-6.890000E+00	  0.087535068	1.108730E+02	  0.087535068	2.604500E+01	  0.087535068	2.767800E+01
339	  0.087735467	-6.909000E+00	  0.087735467	1.101950E+02	  0.087735467	2.627400E+01	  0.087735467	2.795300E+01
340	  0.087935872	-6.930000E+00	  0.087935872	1.095130E+02	  0.087935872	2.651200E+01	  0.087935872	2.822600E+01
341	  0.088136271	-6.962000E+00	  0.088136271	1.088490E+02	  0.088136271	2.678100E+01	  0.088136271	2.847200E+01
342	  0.088336669	-6.990000E+00	  0.088336669	1.082130E+02	  0.088336669	2.703700E+01	  0.088336669	2.871000E+01
343	  0.088537075	-7.020000E+00	  0.088537075	1.075540E+02	  0.088537075	2.730600E+01	  0.088537075	2.895400E+01
344	  0.088737473	-7.041000E+00	  0.088737473	1.068610E+02	  0.088737473	2.756300E+01	  0.088737473	2.922800E+01
345	  0.088937871	-7.074000E+00	  0.088937871	1.062180E+02	  0.088937871	2.784200E+01	  0.088937871	2.945900E+01
346	  0.089138277	-7.095000E+00	  0.089138277	1.054940E+02	  0.089138277	2.811700E+01	  0.089138277	2.974500E+01
347	  0.089338675	-7.127000E+00	  0.089338675	1.048740E+02	  0.089338675	2.839200E+01	  0.089338675	2.996500E+01
348	  0.089539073	-7.150000E+00	  0.089539073	1.041840E+02	  0.089539073	2.866900E+01	  0.089539073	3.023100E+01
349	  0.089739479	-7.181000E+00	  0.089739479	1.035240E+02	  0.089739479	2.896200E+01	  0.089739479	3.046700E+01
350	  0.089939877	-7.208000E+00	  0.089939877	1.029010E+02	  0.089939877	2.923800E+01	  0.089939877	3.069300E+01
351	  0.090140276	-7.232000E+00	  0.090140276	1.022730E+02	  0.090140276	2.950600E+01	  0.090140276	3.092700E+01
352	  0.090340681	-7.259000E+00	  0.090340681	1.016010E+02	  0.090340681	2.980300E+01	  0.090340681	3.117300E+01
353	  0.090541080	-7.286000E+00	  0.090541080	1.009940E+02	  0.090541080	3.008300E+01	  0.090541080	3.138700E+01
354	  0.090741485	-7.317000E+00	  0.090741485	1.003780E+02	  0.090741485	3.037900E+01	  0.090741485	3.159700E+01
355	  0.090941884	-7.352000E+00	  0.090941884	9.978300E+01	  0.090941884	3.068200E+01	  0.090941884	3.178700E+01
356	  0.091142282	-7.377000E+00	  0.091142282	9.912900E+01	  0.091142282	3.098300E+01	  0.091142282	3.202200E+01
357	  0.091342688	-7.410000E+00	  0.091342688	9.853000E+01	  0.091342688	3.128800E+01	  0.091342688	3.221500E+01
358	  0.091543086	-7.440000E+00	  0.091543086	9.789200E+01	  0.091543086	3.160300E+01	  0.091543086	3.242800E+01
359	  0.091743484	-7.464000E+00	  0.091743484	9.724900E+01	  0.091743484	3.190500E+01	  0.091743484	3.265900E+01
360	  0.091943890	-7.495000E+00	  0.091943890	9.664200E+01	  0.091943890	3.221900E+01	  0.091943890	3.285300E+01
361	  0.092144288	-7.524000E+00	  0.092144288	9.602700E+01	  0.092144288	3.253200E+01	  0.092144288	3.305400E+01
362	  0.092344686	-7.546000E+00	  0.092344686	9.546900E+01	  0.092344686	3.280800E+01	  0.092344686	3.324500E+01
363	  0.092545092	-7.575000E+00	  0.092545092	9.490600E+01	  0.092545092	3.310800E+01	  0.092545092	3.342000E+01
364	  0.092745490	-7.600000E+00	  0.092745490	9.436700E+01	  0.092745490	3.339000E+01	  0.092745490	3.359300E+01
365	  0.092945889	-7.623000E+00	  0.092945889	9.377500E+01	  0.092945889	3.369000E+01	  0.092945889	3.379200E+01
366	  0.093146294	-7.656000E+00	  0.093146294	9.324700E+01	  0.093146294	3.399600E+01	  0.093146294	3.393600E+01
367	  0.093346693	-7.681000E+00	  0.093346693	9.275300E+01	  0.093346693	3.426900E+01	  0.093346693	3.408400E+01
368	  0.093547091	-7.716000E+00	  0.093547091	9.224400E+01	  0.093547091	3.457600E+01	  0.093547091	3.421100E+01
369	  0.093747497	-7.745000E+00	  0.093747497	9.174400E+01	  0.093747497	3.486700E+01	  0.093747497	3.434500E+01
370	  0.093947895	-7.776000E+00	  0.093947895	9.120300E+01	  0.093947895	3.518100E+01	  0.093947895	3.449300E+01
371	  0.094148301	-7.805000E+00	  0.094148301	9.071600E+01	  0.094148301	3.547200E+01	  0.094148301	3.461800E+01
372	  0.094348699	-7.837000E+00	  0.094348699	9.020100E+01	  0.094348699	3.578300E+01	  0.094348699	3.474600E+01
373	  0.094549097	-7.864000E+00	  0.094549097	8.968600E+01	  0.094549097	3.608400E+01	  0.094549097	3.488500E+01
374	  0.094749503	-7.902000E+00	  0.094749503	8.919700E+01	  0.094749503	3.640600E+01	  0.094749503	3.498000E+01
375	  0.094949901	-7.923000E+00	  0.094949901	8.869500E+01	  0.094949901	3.668800E+01	  0.094949901	3.512700E+01
376	  0.095150299	-7.946000E+00	  0.095150299	8.822500E+01	  0.095150299	3.696300E+01	  0.095150299	3.525500E+01
377	  0.095350705	-7.977000E+00	  0.095350705	8.773900E+01	  0.095350705	3.727100E+01	  0.095350705	3.536100E+01
378	  0.095551103	-8.005000E+00	  0.095551103	8.726200E+01	  0.095551103	3.756600E+01	  0.095551103	3.547200E+01
379	  0.095751502	-8.033000E+00	  0.095751502	8.680500E+01	  0.095751502	3.785600E+01	  0.095751502	3.557200E+01
380	  0.095951907	-8.065000E+00	  0.095951907	8.633200E+01	  0.095951907	3.816500E+01	  0.095951907	3.566500E+01
381	  0.096152306	-8.100000E+00	  0.096152306	8.585400E+01	  0.096152306	3.848600E+01	  0.096152306	3.574700E+01
382	  0.096352704	-8.129000E+00	  0.096352704	8.542800E+01	  0.096352704	3.876700E+01	  0.096352704	3.582500E+01
383	  0.096553110	-8.156000E+00	  0.096553110	8.492800E+01	  0.096553110	3.908300E+01	  0.096553110	3.593600E+01
384	  0.096753508	-8.185000E+00	  0.096753508	8.446200E+01	  0.096753508	3.938700E+01	  0.096753508	3.602600E+01
385	  0.096953906	-8.214000E+00	  0.096953906	8.397200E+01	  0.096953906	3.970700E+01	  0.096953906	3.612000E+01
386	  0.097154312	-8.233000E+00	  0.097154312	8.349100E+01	  0.097154312	3.999700E+01	  0.097154312	3.624500E+01
387	  0.097354710	-8.265000E+00	  0.097354710	8.307200E+01	  0.097354710	4.029000E+01	  0.097354710	3.630000E+01
388	  0.097555116	-8.285000E+00	  0.097555116	8.261200E+01	  0.097555116	4.057800E+01	  0.097555116	3.640600E+01
389	  0.097755514	-8.302000E+00	  0.097755514	8.216600E+01	  0.097755514	4.085000E+01	  0.097755514	3.651800E+01
390	  0.097955912	-8.315000E+00	  0.097955912	8.171700E+01	  0.097955912	4.111900E+01	  0.097955912	3.664100E+01
391	  0.098156318	-8.339000E+00	  0.098156318	8.129700E+01	  0.098156318	4.139800E+01	  0.098156318	3.671700E+01
392	  0.098356716	-8.357000E+00	  0.098356716	8.086800E+01	  0.098356716	4.167100E+01	  0.098356716	3.681300E+01
393	  0.098557115	-8.371000E+00	  0.098557115	8.046500E+01	  0.098557115	4.192400E+01	  0.098557115	3.690800E+01
394	  0.098757520	-8.389000E+00	  0.098757520	8.006500E+01	  0.098757520	4.218400E+01	  0.098757520	3.699100E+01
395	  0.098957919	-8.397000E+00	  0.098957919	7.970500E+01	  0.098957919	4.240000E+01	  0.098957919	3.709400E+01
396	  0.099158317	-8.409000E+00	  0.099158317	7.926400E+01	  0.099158317	4.267100E+01	  0.099158317	3.721000E+01
397	  0.099358723	-8.427000E+00	  0.099358723	7.891400E+01	  0.099358723	4.290900E+01	  0.099358723	3.726800E+01
398	  0.099559121	-8.436000E+00	  0.099559121	7.851200E+01	  0.099559121	4.315600E+01	  0.099559121	3.737800E+01
399	  0.099759519	-8.449000E+00	  0.099759519	7.813200E+01	  0.099759519	4.340100E+01	  0.099759519	3.746500E+01
400	  0.099959925	-8.459000E+00	  0.099959925	7.777600E+01	  0.099959925	4.362600E+01	  0.099959925	3.755300E+01
401	  0.100160323	-8.463000E+00	  0.100160323	7.740700E+01	  0.100160323	4.384700E+01	  0.100160323	3.766700E+01
402	  0.100360721	-8.473000E+00	  0.100360721	7.707800E+01	  0.100360721	4.406100E+01	  0.100360721	3.774300E+01
403	  0.100561127	-8.480000E+00	  0.100561127	7.669700E+01	  0.100561127	4.429800E+01	  0.100561127	3.784900E+01
404	  0.100761525	-8.477000E+00	  0.100761525	7.628700E+01	  0.100761525	4.453300E+01	  0.100761525	3.799800E+01
405	  0.100961931	-8.483000E+00	  0.100961931	7.602900E+01	  0.100961931	4.469900E+01	  0.100961931	3.806400E+01
406	  0.101162329	-8.502000E+00	  0.101162329	7.563500E+01	  0.101162329	4.497600E+01	  0.101162329	3.812400E+01
407	  0.101362728	-8.504000E+00	  0.101362728	7.528000E+01	  0.101362728	4.519500E+01	  0.101362728	3.823400E+01
408	  0.101563133	-8.516000E+00	  0.101563133	7.489400E+01	  0.101563133	4.545400E+01	  0.101563133	3.831600E+01
409	  0.101763532	-8.516000E+00	  0.101763532	7.451800E+01	  0.101763532	4.568400E+01	  0.101763532	3.843800E+01
410	  0.101963930	-8.522000E+00	  0.101963930	7.418200E+01	  0.101963930	4.590200E+01	  0.101963930	3.852700E+01
411	  0.102164336	-8.517000E+00	  0.102164336	7.378900E+01	  0.102164336	4.613700E+01	  0.102164336	3.867300E+01
412	  0.102364734	-8.525000E+00	  0.102364734	7.333500E+01	  0.102364734	4.643700E+01	  0.102364734	3.879100E+01
413	  0.102565132	-8.526000E+00	  0.102565132	7.295500E+01	  0.102565132	4.668100E+01	  0.102565132	3.890500E+01
414	  0.102765530	-8.524000E+00	  0.102765530	7.255100E+01	  0.102765530	4.693300E+01	  0.102765530	3.904400E+01
415	  0.102965929	-8.529000E+00	  0.102965929	7.205500E+01	  0.102965929	4.726200E+01	  0.102965929	3.918000E+01
416	  0.103166327	-8.520000E+00	  0.103166327	7.166100E+01	  0.103166327	4.750000E+01	  0.103166327	3.934100E+01
417	  0.103366733	-8.517000E+00	  0.103366733	7.125100E+01	  0.103366733	4.776300E+01	  0.103366733	3.948100E+01
418	  0.103567131	-8.515000E+00	  0.103567131	7.089000E+01	  0.103567131	4.799600E+01	  0.103567131	3.960400E+01
419	  0.103767529	-8.512000E+00	  0.103767529	7.041100E+01	  0.103767529	4.830900E+01	  0.103767529	3.976400E+01
420	  0.103967935	-8.507000E+00	  0.103967935	6.996400E+01	  0.103967935	4.860200E+01	  0.103967935	3.991900E+01
421	  0.104168333	-8.498000E+00	  0.104168333	6.949900E+01	  0.104168333	4.890100E+01	  0.104168333	4.010000E+01
422	  0.104368731	-8.496000E+00	  0.104368731	6.911200E+01	  0.104368731	4.916100E+01	  0.104368731	4.022700E+01
423	  0.104569137	-8.491000E+00	  0.104569137	6.856200E+01	  0.104569137	4.953300E+01	  0.104569137	4.041300E+01
424	  0.104769535	-8.480000E+00	  0.104769535	6.814900E+01	  0.104769535	4.980400E+01	  0.104769535	4.058000E+01
425	  0.104969934	-8.473000E+00	  0.104969934	6.771700E+01	  0.104969934	5.009600E+01	  0.104969934	4.073900E+01
426	  0.105170339	-8.461000E+00	  0.105170339	6.720800E+01	  0.105170339	5.043800E+01	  0.105170339	4.094300E+01
427	  0.105370738	-8.460000E+00	  0.105370738	6.679100E+01	  0.105370738	5.073900E+01	  0.105370738	4.106300E+01
428	  0.105571143	-8.446000E+00	  0.105571143	6.624800E+01	  0.105571143	5.110900E+01	  0.105571143	4.128600E+01
429	  0.105771542	-8.431000E+00	  0.105771542	6.582300E+01	  0.105771542	5.139600E+01	  0.105771542	4.147700E+01
430	  0.105971940	-8.427000E+00	  0.105971940	6.541800E+01	  0.105971940	5.169300E+01	  0.105971940	4.160700E+01
431	  0.106172346	-8.422000E+00	  0.106172346	6.488700E+01	  0.106172346	5.208400E+01	  0.106172346	4.177600E+01
432	  0.106372744	-8.414000E+00	  0.106372744	6.440300E+01	  0.106372744	5.244000E+01	  0.106372744	4.194300E+01
433	  0.106573142	-8.404000E+00	  0.106573142	6.391400E+01	  0.106573142	5.279900E+01	  0.106573142	4.212400E+01
434	  0.106773548	-8.397000E+00	  0.106773548	6.345400E+01	  0.106773548	5.314700E+01	  0.106773548	4.227800E+01
435	  0.106973946	-8.386000E+00	  0.106973946	6.290900E+01	  0.106973946	5.355900E+01	  0.106973946	4.247300E+01
436	  0.107174344	-8.374000E+00	  0.107174344	6.242600E+01	  0.107174344	5.392500E+01	  0.107174344	4.265400E+01
437	  0.107374750	-8.370000E+00	  0.107374750	6.192000E+01	  0.107374750	5.432800E+01	  0.107374750	4.279800E+01
438	  0.107575148	-8.361000E+00	  0.107575148	6.141100E+01	  0.107575148	5.472900E+01	  0.107575148	4.296700E+01
439	  0.107775547	-8.365000E+00	  0.107775547	6.094800E+01	  0.107775547	5.511600E+01	  0.107775547	4.305700E+01
440	  0.107975952	-8.355000E+00	  0.107975952	6.039600E+01	  0.107975952	5.556200E+01	  0.107975952	4.323500E+01
441	  0.108176351	-8.342000E+00	  0.108176351	5.986700E+01	  0.108176351	5.598900E+01	  0.108176351	4.342600E+01
442	  0.108376749	-8.340000E+00	  0.108376749	5.927400E+01	  0.108376749	5.649200E+01	  0.108376749	4.356400E+01
443	  0.108577155	-8.323000E+00	  0.108577155	5.877500E+01	  0.108577155	5.690100E+01	  0.108577155	4.376300E+01
444	  0.108777553	-8.323000E+00	  0.108777553	5.820500E+01	  0.108777553	5.739800E+01	  0.108777553	4.387800E+01
445	  0.108977959	-8.309000E+00	  0.108977959	5.770500E+01	  0.108977959	5.782200E+01	  0.108977959	4.405700E+01
446	  0.109178357	-8.300000E+00	  0.109178357	5.710600E+01	  0.109178357	5.834800E+01	  0.109178357	4.422300E+01
447	  0.109378755	-8.289000E+00	  0.109378755	5.653700E+01	  0.109378755	5.885000E+01	  0.109378755	4.439300E+01
448	  0.109579161	-8.282000E+00	  0.109579161	5.596400E+01	  0.109579161	5.936800E+01	  0.109579161	4.453200E+01
449	  0.109779559	-8.266000E+00	  0.109779559	5.536800E+01	  0.109779559	5.990500E+01	  0.109779559	4.472600E+01
450	  0.109979957	-8.262000E+00	  0.109979957	5.488000E+01	  0.109979957	6.035900E+01	  0.109979957	4.482900E+01
451	  0.110180363	-8.254000E+00	  0.110180363	5.419000E+01	  0.110180363	6.100800E+01	  0.110180363	4.497800E+01
452	  0.110380761	-8.231000E+00	  0.110380761	5.363400E+01	  0.110380761	6.152300E+01	  0.110380761	4.519800E+01
453	  0.110581160	-8.219000E+00	  0.110581160	5.298900E+01	  0.110581160	6.214400E+01	  0.110581160	4.535700E+01
454	  0.110781565	-8.216000E+00	  0.110781565	5.240400E+01	  0.110781565	6.272000E+01	  0.110781565	4.544400E+01
455	  0.110981964	-8.196000E+00	  0.110981964	5.177300E+01	  0.110981964	6.333900E+01	  0.110981964	4.564200E+01
456	  0.111182362	-8.182000E+00	  0.111182362	5.121700E+01	  0.111182362	6.389500E+01	  0.111182362	4.578900E+01
457	  0.111382768	-8.175000E+00	  0.111382768	5.053900E+01	  0.111382768	6.458700E+01	  0.111382768	4.589700E+01
458	  0.111583166	-8.164000E+00	  0.111583166	4.997200E+01	  0.111583166	6.517300E+01	  0.111583166	4.601000E+01
459	  0.111783572	-8.153000E+00	  0.111783572	4.930200E+01	  0.111783572	6.587400E+01	  0.111783572	4.612600E+01
460	  0.111983970	-8.145000E+00	  0.111983970	4.864100E+01	  0.111983970	6.657800E+01	  0.111983970	4.620700E+01
461	  0.112184368	-8.141000E+00	  0.112184368	4.798800E+01	  0.112184368	6.728300E+01	  0.112184368	4.625400E+01
462	  0.112384774	-8.123000E+00	  0.112384774	4.738200E+01	  0.112384774	6.794300E+01	  0.112384774	4.639200E+01
463	  0.112585172	-8.131000E+00	  0.112585172	4.664800E+01	  0.112585172	6.875500E+01	  0.112585172	4.633100E+01
464	  0.112785570	-8.116000E+00	  0.112785570	4.597000E+01	  0.112785570	6.951600E+01	  0.112785570	4.642700E+01
465	  0.112985976	-8.119000E+00	  0.112985976	4.524600E+01	  0.112985976	7.033600E+01	  0.112985976	4.638000E+01
466	  0.113186374	-8.106000E+00	  0.113186374	4.451200E+01	  0.113186374	7.118200E+01	  0.113186374	4.642600E+01
467	  0.113386773	-8.105000E+00	  0.113386773	4.377800E+01	  0.113386773	7.203400E+01	  0.113386773	4.637600E+01
468	  0.113587178	-8.106000E+00	  0.113587178	4.304200E+01	  0.113587178	7.289600E+01	  0.113587178	4.629500E+01
469	  0.113787577	-8.103000E+00	  0.113787577	4.227100E+01	  0.113787577	7.381100E+01	  0.113787577	4.621100E+01
470	  0.113987975	-8.104000E+00	  0.113987975	4.152700E+01	  0.113987975	7.470000E+01	  0.113987975	4.608900E+01
471	  0.114188381	-8.108000E+00	  0.114188381	4.070600E+01	  0.114188381	7.568700E+01	  0.114188381	4.590900E+01
472	  0.114388779	-8.107000E+00	  0.114388779	3.987700E+01	  0.114388779	7.669900E+01	  0.114388779	4.574300E+01
473	  0.114589177	-8.114000E+00	  0.114589177	3.907700E+01	  0.114589177	7.767200E+01	  0.114589177	4.549800E+01
474	  0.114789583	-8.114000E+00	  0.114789583	3.823500E+01	  0.114789583	7.871600E+01	  0.114789583	4.527100E+01
475	  0.114989981	-8.121000E+00	  0.114989981	3.739700E+01	  0.114989981	7.974700E+01	  0.114989981	4.495600E+01
476	  0.115190387	-8.127000E+00	  0.115190387	3.657700E+01	  0.115190387	8.076300E+01	  0.115190387	4.463300E+01
477	  0.115390785	-8.139000E+00	  0.115390785	3.568600E+01	  0.115390785	8.185500E+01	  0.115390785	4.419500E+01
478	  0.115591183	-8.144000E+00	  0.115591183	3.479600E+01	  0.115591183	8.296800E+01	  0.115591183	4.378900E+01
479	  0.115791589	-8.153000E+00	  0.115791589	3.387300E+01	  0.115791589	8.411400E+01	  0.115791589	4.329800E+01
480	  0.115991987	-8.158000E+00	  0.115991987	3.299500E+01	  0.115991987	8.521500E+01	  0.115991987	4.282500E+01
481	  0.116192386	-8.181000E+00	  0.116192386	3.211700E+01	  0.116192386	8.625100E+01	  0.116192386	4.216500E+01
482	  0.116392791	-8.191000E+00	  0.116392791	3.118500E+01	  0.116392791	8.739600E+01	  0.116392791	4.154900E+01
483	  0.116593190	-8.214000E+00	  0.116593190	3.028300E+01	  0.116593190	8.844000E+01	  0.116593190	4.079500E+01
484	  0.116793588	-8.229000E+00	  0.116793588	2.933100E+01	  0.116793588	8.957300E+01	  0.116793588	4.004600E+01
485	  0.116993994	-8.252000E+00	  0.116993994	2.835900E+01	  0.116993994	9.067500E+01	  0.116993994	3.916700E+01
486	  0.117194392	-8.268000E+00	  0.117194392	2.745200E+01	  0.117194392	9.171500E+01	  0.117194392	3.835400E+01
487	  0.117394790	-8.296000E+00	  0.117394790	2.646200E+01	  0.117394790	9.277500E+01	  0.117394790	3.734000E+01
488	  0.117595196	-8.324000E+00	  0.117595196	2.554200E+01	  0.117595196	9.372200E+01	  0.117595196	3.634200E+01
489	  0.117795594	-8.360000E+00	  0.117795594	2.452800E+01	  0.117795594	9.470200E+01	  0.117795594	3.515700E+01
490	  0.117995992	-8.392000E+00	  0.117995992	2.345400E+01	  0.117995992	9.573900E+01	  0.117995992	3.391200E+01
491	  0.118196398	-8.425000E+00	  0.118196398	2.248700E+01	  0.118196398	9.660400E+01	  0.118196398	3.271400E+01
492	  0.118396796	-8.473000E+00	  0.118396796	2.141900E+01	  0.118396796	9.743600E+01	  0.118396796	3.127300E+01
493	  0.118597202	-8.515000E+00	  0.118597202	2.035800E+01	  0.118597202	9.824500E+01	  0.118597202	2.984400E+01
494	  0.118797600	-8.561000E+00	  0.118797600	1.928600E+01	  0.118797600	9.898200E+01	  0.118797600	2.834800E+01
495	  0.118997999	-8.614000E+00	  0.118997999	1.820400E+01	  0.118997999	9.961300E+01	  0.118997999	2.676800E+01
496	  0.119198404	-8.664000E+00	  0.119198404	1.706600E+01	  0.119198404	1.002500E+02	  0.119198404	2.511500E+01
497	  0.119398803	-8.722000E+00	  0.119398803	1.593700E+01	  0.119398803	1.007460E+02	  0.119398803	2.341000E+01
498	  0.119599201	-8.782000E+00	  0.119599201	1.480500E+01	  0.119599201	1.011490E+02	  0.119599201	2.167600E+01
499	  0.119799607	-8.838000E+00	  0.119799607	1.364000E+01	  0.119799607	1.015280E+02	  0.119799607	1.991000E+01
500	  0.120000005	-8.908000E+00	  0.120000005	1.245800E+01	  0.120000005	1.017260E+02	  0.120000005	1.806000E+01
