! Anritsu VNA Master:             	Model: MS2036C/10/77
! SN:             	1601066
! /card0/usr/18may27.balun/252b.r20..3.txt
! Existing Calibration Information:
! TYPE:             	Current Settings	Active Cal Settings
! TIME:             	05/27/2018 01:01:36 PM	05/27/2018 12:49:51 PM
! INTERNAL TEMP:    	52.3 C	52.5 C
! # POINTS:         	500	500
! START FREQ:       	20.000 MHz	20.000 MHz
! STOP FREQ:        	120.000 MHz	120.000 MHz
! SOURCE POWER:     	High	High
! IFBW:             	50 Hz	50 Hz
! AVG FACTOR:       	  1 	  1 
! REF PLANE 1:      	0 mm	0 mm
! REF PLANE 2:      	0 mm	0 mm
! CAL TYPE:         	Full S11	Full S11
! CAL METHOD:       	SOLT	SOLT
! CAL LINE TYPE:    	Coax	Coax
! DUT PORT 1:       	K-Conn(M)	K-Conn(M)
! DUT PORT 2:       	K-Conn(M)	K-Conn(M)
! CAL STATUS:       	OK: Accuracy High	--
! PROP-V:       	0.700
! CABLE LOSS:       	0.000 dB/m
! REF IMPEDANCE:       	50.0
! Trace Specific Parameters:	TR1	TR2	TR3	TR4
! TRACE.#.Y (GRAPH TYPE)	LOG MAG	PHASE	REAL IMPEDANCE	IMAGINARY IMPEDANCE
! TRACE.#.X 	FREQ.GHZ	FREQ.GHZ	FREQ.GHZ	FREQ.GHZ
! S-PARAMETER	S11	S11	S11	S11
! SMOOTH/APERTURE %	0	0	0	0
! WINDOW	NSL	NSL	NSL	NSL
! GATING	OFF	OFF	OFF	OFF
! FGTD	OFF	OFF	OFF	OFF
Marker Information per Trace:	TR1	TR2	TR3	TR4
!MK1	--	--	--	"MK1 TR4:  70.100 200 MHz,Z:(32.692 ohm, 35.160 ohm)"
!MK2	--	--	--	--
!MK3	--	--	--	--
!MK4	--	--	--	--
!MK5	--	--	--	--
!MK6	--	--	--	--
!MK7	--	--	--	--
!MK8	--	--	--	--
PNT	TR1.FREQ.GHZ	TR1.LOG MAG.dB	TR2.FREQ.GHZ	TR2.PHASE.deg	TR3.FREQ.GHZ	TR3.REAL IMPEDANCE.ohm	TR4.FREQ.GHZ	TR4.IMAGINARY IMPEDANCE.ohm
1	  0.020000000	-7.288000E+00	  0.020000000	1.544710E+02	  0.020000000	2.067800E+01	  0.020000000	9.469000E+00
2	  0.020200402	-7.290000E+00	  0.020200402	1.542190E+02	  0.020200402	2.070100E+01	  0.020200402	9.563000E+00
3	  0.020400802	-7.287000E+00	  0.020400802	1.539890E+02	  0.020400802	2.071000E+01	  0.020400802	9.651000E+00
4	  0.020601204	-7.289000E+00	  0.020601204	1.537380E+02	  0.020601204	2.073100E+01	  0.020601204	9.745000E+00
5	  0.020801604	-7.285000E+00	  0.020801604	1.534840E+02	  0.020801604	2.074000E+01	  0.020801604	9.843000E+00
6	  0.021002004	-7.280000E+00	  0.021002004	1.532500E+02	  0.021002004	2.074300E+01	  0.021002004	9.934000E+00
7	  0.021202406	-7.280000E+00	  0.021202406	1.530000E+02	  0.021202406	2.076200E+01	  0.021202406	1.002900E+01
8	  0.021402806	-7.285000E+00	  0.021402806	1.527610E+02	  0.021402806	2.079300E+01	  0.021402806	1.011600E+01
9	  0.021603208	-7.292000E+00	  0.021603208	1.525360E+02	  0.021603208	2.082600E+01	  0.021603208	1.019800E+01
10	  0.021803608	-7.292000E+00	  0.021803608	1.523010E+02	  0.021803608	2.084400E+01	  0.021803608	1.028700E+01
11	  0.022004008	-7.299000E+00	  0.022004008	1.520440E+02	  0.022004008	2.088000E+01	  0.022004008	1.038100E+01
12	  0.022204408	-7.301000E+00	  0.022204408	1.518200E+02	  0.022204408	2.090100E+01	  0.022204408	1.046600E+01
13	  0.022404809	-7.301000E+00	  0.022404809	1.515470E+02	  0.022404809	2.092300E+01	  0.022404809	1.056900E+01
14	  0.022605211	-7.307000E+00	  0.022605211	1.512990E+02	  0.022605211	2.095700E+01	  0.022605211	1.066000E+01
15	  0.022805611	-7.308000E+00	  0.022805611	1.510380E+02	  0.022805611	2.098000E+01	  0.022805611	1.075800E+01
16	  0.023006011	-7.308000E+00	  0.023006011	1.507670E+02	  0.023006011	2.100100E+01	  0.023006011	1.086100E+01
17	  0.023206413	-7.309000E+00	  0.023206413	1.504810E+02	  0.023206413	2.102700E+01	  0.023206413	1.096900E+01
18	  0.023406813	-7.308000E+00	  0.023406813	1.501980E+02	  0.023406813	2.104800E+01	  0.023406813	1.107800E+01
19	  0.023607215	-7.308000E+00	  0.023607215	1.499090E+02	  0.023607215	2.107000E+01	  0.023607215	1.118800E+01
20	  0.023807615	-7.306000E+00	  0.023807615	1.496280E+02	  0.023807615	2.109000E+01	  0.023807615	1.129500E+01
21	  0.024008015	-7.306000E+00	  0.024008015	1.493690E+02	  0.024008015	2.111000E+01	  0.024008015	1.139500E+01
22	  0.024208417	-7.304000E+00	  0.024208417	1.491220E+02	  0.024208417	2.112600E+01	  0.024208417	1.149000E+01
23	  0.024408817	-7.306000E+00	  0.024408817	1.488870E+02	  0.024408817	2.115100E+01	  0.024408817	1.157900E+01
24	  0.024609219	-7.307000E+00	  0.024609219	1.486530E+02	  0.024609219	2.117600E+01	  0.024609219	1.166700E+01
25	  0.024809619	-7.306000E+00	  0.024809619	1.484260E+02	  0.024809619	2.119300E+01	  0.024809619	1.175400E+01
26	  0.025010020	-7.304000E+00	  0.025010020	1.481830E+02	  0.025010020	2.120800E+01	  0.025010020	1.184800E+01
27	  0.025210422	-7.311000E+00	  0.025210422	1.479280E+02	  0.025210422	2.124800E+01	  0.025210422	1.194200E+01
28	  0.025410822	-7.311000E+00	  0.025410822	1.476580E+02	  0.025410822	2.127100E+01	  0.025410822	1.204500E+01
29	  0.025611224	-7.311000E+00	  0.025611224	1.473870E+02	  0.025611224	2.129700E+01	  0.025611224	1.214900E+01
30	  0.025811624	-7.301000E+00	  0.025811624	1.471190E+02	  0.025811624	2.129500E+01	  0.025811624	1.225800E+01
31	  0.026012026	-7.296000E+00	  0.026012026	1.468740E+02	  0.026012026	2.130700E+01	  0.026012026	1.235400E+01
32	  0.026212426	-7.297000E+00	  0.026212426	1.466020E+02	  0.026212426	2.133400E+01	  0.026212426	1.245800E+01
33	  0.026412826	-7.293000E+00	  0.026412826	1.463470E+02	  0.026412826	2.134700E+01	  0.026412826	1.255800E+01
34	  0.026613226	-7.291000E+00	  0.026613226	1.461430E+02	  0.026613226	2.136000E+01	  0.026613226	1.263900E+01
35	  0.026813626	-7.289000E+00	  0.026813626	1.459330E+02	  0.026813626	2.137600E+01	  0.026813626	1.272000E+01
36	  0.027014028	-7.293000E+00	  0.027014028	1.457280E+02	  0.027014028	2.140500E+01	  0.027014028	1.279700E+01
37	  0.027214428	-7.293000E+00	  0.027214428	1.455330E+02	  0.027214428	2.142500E+01	  0.027214428	1.287200E+01
38	  0.027414829	-7.298000E+00	  0.027414829	1.453450E+02	  0.027414829	2.145600E+01	  0.027414829	1.294100E+01
39	  0.027615231	-7.303000E+00	  0.027615231	1.451170E+02	  0.027615231	2.149000E+01	  0.027615231	1.302600E+01
40	  0.027815631	-7.309000E+00	  0.027815631	1.448690E+02	  0.027815631	2.153000E+01	  0.027815631	1.311700E+01
41	  0.028016033	-7.314000E+00	  0.028016033	1.445850E+02	  0.028016033	2.157100E+01	  0.028016033	1.322300E+01
42	  0.028216433	-7.316000E+00	  0.028216433	1.443050E+02	  0.028216433	2.160400E+01	  0.028216433	1.333000E+01
43	  0.028416833	-7.321000E+00	  0.028416833	1.440130E+02	  0.028416833	2.164600E+01	  0.028416833	1.344000E+01
44	  0.028617235	-7.321000E+00	  0.028617235	1.437320E+02	  0.028617235	2.167500E+01	  0.028617235	1.354800E+01
45	  0.028817635	-7.320000E+00	  0.028817635	1.434160E+02	  0.028817635	2.170500E+01	  0.028817635	1.367100E+01
46	  0.029018037	-7.320000E+00	  0.029018037	1.431410E+02	  0.029018037	2.173300E+01	  0.029018037	1.377700E+01
47	  0.029218437	-7.316000E+00	  0.029218437	1.428360E+02	  0.029218437	2.175400E+01	  0.029218437	1.389900E+01
48	  0.029418837	-7.311000E+00	  0.029418837	1.425980E+02	  0.029418837	2.176700E+01	  0.029418837	1.399400E+01
49	  0.029619239	-7.307000E+00	  0.029619239	1.423790E+02	  0.029619239	2.178100E+01	  0.029619239	1.408200E+01
50	  0.029819639	-7.303000E+00	  0.029819639	1.421700E+02	  0.029819639	2.179400E+01	  0.029819639	1.416600E+01
51	  0.030020041	-7.300000E+00	  0.030020041	1.419520E+02	  0.030020041	2.180700E+01	  0.030020041	1.425300E+01
52	  0.030220442	-7.303000E+00	  0.030220442	1.417560E+02	  0.030220442	2.183800E+01	  0.030220442	1.432700E+01
53	  0.030420844	-7.307000E+00	  0.030420844	1.415290E+02	  0.030420844	2.187300E+01	  0.030420844	1.441200E+01
54	  0.030621244	-7.309000E+00	  0.030621244	1.413000E+02	  0.030621244	2.190400E+01	  0.030621244	1.450000E+01
55	  0.030821644	-7.316000E+00	  0.030821644	1.409990E+02	  0.030821644	2.195400E+01	  0.030821644	1.461200E+01
56	  0.031022044	-7.315000E+00	  0.031022044	1.407070E+02	  0.031022044	2.198400E+01	  0.031022044	1.472700E+01
57	  0.031222444	-7.304000E+00	  0.031222444	1.404600E+02	  0.031222444	2.198400E+01	  0.031222444	1.483100E+01
58	  0.031422846	-7.302000E+00	  0.031422846	1.402090E+02	  0.031422846	2.200700E+01	  0.031422846	1.493100E+01
59	  0.031623244	-7.299000E+00	  0.031623244	1.399170E+02	  0.031623244	2.203500E+01	  0.031623244	1.504700E+01
60	  0.031823646	-7.292000E+00	  0.031823646	1.396660E+02	  0.031823646	2.204400E+01	  0.031823646	1.515100E+01
61	  0.032024048	-7.286000E+00	  0.032024048	1.394470E+02	  0.032024048	2.205500E+01	  0.032024048	1.524100E+01
62	  0.032224450	-7.281000E+00	  0.032224450	1.392270E+02	  0.032224450	2.206700E+01	  0.032224450	1.533200E+01
63	  0.032424849	-7.273000E+00	  0.032424849	1.389990E+02	  0.032424849	2.207500E+01	  0.032424849	1.542700E+01
64	  0.032625251	-7.269000E+00	  0.032625251	1.388170E+02	  0.032625251	2.208700E+01	  0.032625251	1.550100E+01
65	  0.032825653	-7.271000E+00	  0.032825653	1.385990E+02	  0.032825653	2.211800E+01	  0.032825653	1.558600E+01
66	  0.033026051	-7.275000E+00	  0.033026051	1.384100E+02	  0.033026051	2.214900E+01	  0.033026051	1.565800E+01
67	  0.033226453	-7.284000E+00	  0.033226453	1.381780E+02	  0.033226453	2.220200E+01	  0.033226453	1.574100E+01
68	  0.033426855	-7.291000E+00	  0.033426855	1.379220E+02	  0.033426855	2.225100E+01	  0.033426855	1.583600E+01
69	  0.033627257	-7.292000E+00	  0.033627257	1.376590E+02	  0.033627257	2.228700E+01	  0.033627257	1.593900E+01
70	  0.033827655	-7.298000E+00	  0.033827655	1.373760E+02	  0.033827655	2.233700E+01	  0.033827655	1.604600E+01
71	  0.034028057	-7.304000E+00	  0.034028057	1.371010E+02	  0.034028057	2.238800E+01	  0.034028057	1.614900E+01
72	  0.034228459	-7.314000E+00	  0.034228459	1.367990E+02	  0.034228459	2.245200E+01	  0.034228459	1.625900E+01
73	  0.034428857	-7.311000E+00	  0.034428857	1.365110E+02	  0.034428857	2.248100E+01	  0.034428857	1.637600E+01
74	  0.034629259	-7.313000E+00	  0.034629259	1.362350E+02	  0.034629259	2.252100E+01	  0.034629259	1.648300E+01
75	  0.034829661	-7.310000E+00	  0.034829661	1.359600E+02	  0.034829661	2.254900E+01	  0.034829661	1.659500E+01
76	  0.035030060	-7.302000E+00	  0.035030060	1.356870E+02	  0.035030060	2.256500E+01	  0.035030060	1.670900E+01
77	  0.035230462	-7.291000E+00	  0.035230462	1.353970E+02	  0.035230462	2.257500E+01	  0.035230462	1.683400E+01
78	  0.035430863	-7.287000E+00	  0.035430863	1.351720E+02	  0.035430863	2.259200E+01	  0.035430863	1.692800E+01
79	  0.035631265	-7.281000E+00	  0.035631265	1.349840E+02	  0.035631265	2.260200E+01	  0.035631265	1.700700E+01
80	  0.035831664	-7.282000E+00	  0.035831664	1.348160E+02	  0.035831664	2.262900E+01	  0.035831664	1.707300E+01
81	  0.036032066	-7.283000E+00	  0.036032066	1.345790E+02	  0.036032066	2.266400E+01	  0.036032066	1.716600E+01
82	  0.036232468	-7.291000E+00	  0.036232468	1.343280E+02	  0.036232468	2.271700E+01	  0.036232468	1.725900E+01
83	  0.036432866	-7.296000E+00	  0.036432866	1.340730E+02	  0.036432866	2.276600E+01	  0.036432866	1.735600E+01
84	  0.036633268	-7.304000E+00	  0.036633268	1.337960E+02	  0.036633268	2.282600E+01	  0.036633268	1.745900E+01
85	  0.036833670	-7.304000E+00	  0.036833670	1.335140E+02	  0.036833670	2.286600E+01	  0.036833670	1.757200E+01
86	  0.037034072	-7.305000E+00	  0.037034072	1.332710E+02	  0.037034072	2.290300E+01	  0.037034072	1.766700E+01
87	  0.037234470	-7.302000E+00	  0.037234470	1.329900E+02	  0.037234470	2.293300E+01	  0.037234470	1.778300E+01
88	  0.037434869	-7.295000E+00	  0.037434869	1.327130E+02	  0.037434869	2.295400E+01	  0.037434869	1.790000E+01
89	  0.037635271	-7.284000E+00	  0.037635271	1.324910E+02	  0.037635271	2.295700E+01	  0.037635271	1.800000E+01
90	  0.037835669	-7.280000E+00	  0.037835669	1.322270E+02	  0.037835669	2.298600E+01	  0.037835669	1.810900E+01
91	  0.038036071	-7.273000E+00	  0.038036071	1.320050E+02	  0.038036071	2.299800E+01	  0.038036071	1.820600E+01
92	  0.038236473	-7.272000E+00	  0.038236473	1.318200E+02	  0.038236473	2.302500E+01	  0.038236473	1.828000E+01
93	  0.038436871	-7.271000E+00	  0.038436871	1.316170E+02	  0.038436871	2.305100E+01	  0.038436871	1.836300E+01
94	  0.038637273	-7.274000E+00	  0.038637273	1.314250E+02	  0.038637273	2.308800E+01	  0.038637273	1.843800E+01
95	  0.038837675	-7.281000E+00	  0.038837675	1.311980E+02	  0.038837675	2.314000E+01	  0.038837675	1.852200E+01
96	  0.039038073	-7.286000E+00	  0.039038073	1.309360E+02	  0.039038073	2.319200E+01	  0.039038073	1.862300E+01
97	  0.039238475	-7.293000E+00	  0.039238475	1.306640E+02	  0.039238475	2.325100E+01	  0.039238475	1.872600E+01
98	  0.039438877	-7.296000E+00	  0.039438877	1.303950E+02	  0.039438877	2.330200E+01	  0.039438877	1.883000E+01
99	  0.039639279	-7.301000E+00	  0.039639279	1.301620E+02	  0.039639279	2.335200E+01	  0.039639279	1.891900E+01
100	  0.039839678	-7.302000E+00	  0.039839678	1.298640E+02	  0.039839678	2.339900E+01	  0.039839678	1.903900E+01
101	  0.040040080	-7.298000E+00	  0.040040080	1.296000E+02	  0.040040080	2.343100E+01	  0.040040080	1.914900E+01
102	  0.040240481	-7.295000E+00	  0.040240481	1.293280E+02	  0.040240481	2.346400E+01	  0.040240481	1.926300E+01
103	  0.040440880	-7.290000E+00	  0.040440880	1.290460E+02	  0.040440880	2.349600E+01	  0.040440880	1.938300E+01
104	  0.040641282	-7.282000E+00	  0.040641282	1.287690E+02	  0.040641282	2.351700E+01	  0.040641282	1.950400E+01
105	  0.040841684	-7.273000E+00	  0.040841684	1.285490E+02	  0.040841684	2.352900E+01	  0.040841684	1.960300E+01
106	  0.041042086	-7.272000E+00	  0.041042086	1.283480E+02	  0.041042086	2.356000E+01	  0.041042086	1.968500E+01
107	  0.041242484	-7.273000E+00	  0.041242484	1.281390E+02	  0.041242484	2.359500E+01	  0.041242484	1.977000E+01
108	  0.041442886	-7.275000E+00	  0.041442886	1.279870E+02	  0.041442886	2.362700E+01	  0.041442886	1.982900E+01
109	  0.041643288	-7.285000E+00	  0.041643288	1.277430E+02	  0.041643288	2.369400E+01	  0.041643288	1.991700E+01
110	  0.041843686	-7.290000E+00	  0.041843686	1.274670E+02	  0.041843686	2.375200E+01	  0.041843686	2.002500E+01
111	  0.042044088	-7.295000E+00	  0.042044088	1.272080E+02	  0.042044088	2.380900E+01	  0.042044088	2.012500E+01
112	  0.042244490	-7.298000E+00	  0.042244490	1.269730E+02	  0.042244490	2.385500E+01	  0.042244490	2.021800E+01
113	  0.042444889	-7.299000E+00	  0.042444889	1.266920E+02	  0.042444889	2.390800E+01	  0.042444889	2.033100E+01
114	  0.042645290	-7.300000E+00	  0.042645290	1.264080E+02	  0.042645290	2.395700E+01	  0.042645290	2.044700E+01
115	  0.042845692	-7.294000E+00	  0.042845692	1.261630E+02	  0.042845692	2.398400E+01	  0.042845692	2.055300E+01
116	  0.043046094	-7.290000E+00	  0.043046094	1.258570E+02	  0.043046094	2.402500E+01	  0.043046094	2.068400E+01
117	  0.043246493	-7.281000E+00	  0.043246493	1.256030E+02	  0.043246493	2.404400E+01	  0.043246493	2.079900E+01
118	  0.043446895	-7.276000E+00	  0.043446895	1.253990E+02	  0.043446895	2.406800E+01	  0.043446895	2.088800E+01
119	  0.043647297	-7.276000E+00	  0.043647297	1.251810E+02	  0.043647297	2.410600E+01	  0.043647297	2.097700E+01
120	  0.043847695	-7.277000E+00	  0.043847695	1.249580E+02	  0.043847695	2.414900E+01	  0.043847695	2.106800E+01
121	  0.044048097	-7.282000E+00	  0.044048097	1.247230E+02	  0.044048097	2.420500E+01	  0.044048097	2.115800E+01
122	  0.044248499	-7.287000E+00	  0.044248499	1.244800E+02	  0.044248499	2.426000E+01	  0.044248499	2.125400E+01
123	  0.044448901	-7.290000E+00	  0.044448901	1.242370E+02	  0.044448901	2.431400E+01	  0.044448901	2.134900E+01
124	  0.044649299	-7.292000E+00	  0.044649299	1.239630E+02	  0.044649299	2.436800E+01	  0.044649299	2.146100E+01
125	  0.044849701	-7.297000E+00	  0.044849701	1.236930E+02	  0.044849701	2.443200E+01	  0.044849701	2.156600E+01
126	  0.045050103	-7.299000E+00	  0.045050103	1.234240E+02	  0.045050103	2.448700E+01	  0.045050103	2.167500E+01
127	  0.045250501	-7.299000E+00	  0.045250501	1.231470E+02	  0.045250501	2.453800E+01	  0.045250501	2.178900E+01
128	  0.045450903	-7.298000E+00	  0.045450903	1.228770E+02	  0.045450903	2.458500E+01	  0.045450903	2.190300E+01
129	  0.045651305	-7.289000E+00	  0.045651305	1.225660E+02	  0.045651305	2.462000E+01	  0.045651305	2.204300E+01
130	  0.045851704	-7.284000E+00	  0.045851704	1.222900E+02	  0.045851704	2.465900E+01	  0.045851704	2.216400E+01
131	  0.046052106	-7.272000E+00	  0.046052106	1.220490E+02	  0.046052106	2.467100E+01	  0.046052106	2.227900E+01
132	  0.046252504	-7.263000E+00	  0.046252504	1.218200E+02	  0.046252504	2.469200E+01	  0.046252504	2.238600E+01
133	  0.046452906	-7.259000E+00	  0.046452906	1.216280E+02	  0.046452906	2.471800E+01	  0.046452906	2.247100E+01
134	  0.046653304	-7.261000E+00	  0.046653304	1.214440E+02	  0.046653304	2.475700E+01	  0.046653304	2.254700E+01
135	  0.046853706	-7.262000E+00	  0.046853706	1.212370E+02	  0.046853706	2.480100E+01	  0.046853706	2.263200E+01
136	  0.047054108	-7.268000E+00	  0.047054108	1.210090E+02	  0.047054108	2.486200E+01	  0.047054108	2.272000E+01
137	  0.047254506	-7.273000E+00	  0.047254506	1.207870E+02	  0.047254506	2.492000E+01	  0.047254506	2.280600E+01
138	  0.047454908	-7.275000E+00	  0.047454908	1.205440E+02	  0.047454908	2.497300E+01	  0.047454908	2.290500E+01
139	  0.047655310	-7.277000E+00	  0.047655310	1.202970E+02	  0.047655310	2.503000E+01	  0.047655310	2.300500E+01
140	  0.047855709	-7.276000E+00	  0.047855709	1.200600E+02	  0.047855709	2.507400E+01	  0.047855709	2.310600E+01
141	  0.048056111	-7.275000E+00	  0.048056111	1.198030E+02	  0.048056111	2.512400E+01	  0.048056111	2.321500E+01
142	  0.048256513	-7.273000E+00	  0.048256513	1.195060E+02	  0.048256513	2.518000E+01	  0.048256513	2.334300E+01
143	  0.048456915	-7.263000E+00	  0.048456915	1.192970E+02	  0.048456915	2.519500E+01	  0.048456915	2.344500E+01
144	  0.048657313	-7.258000E+00	  0.048657313	1.190540E+02	  0.048657313	2.523100E+01	  0.048657313	2.355300E+01
145	  0.048857715	-7.260000E+00	  0.048857715	1.188130E+02	  0.048857715	2.528500E+01	  0.048857715	2.365400E+01
146	  0.049058117	-7.260000E+00	  0.049058117	1.186010E+02	  0.049058117	2.533000E+01	  0.049058117	2.374300E+01
147	  0.049258515	-7.260000E+00	  0.049258515	1.184120E+02	  0.049258515	2.536900E+01	  0.049258515	2.382300E+01
148	  0.049458917	-7.266000E+00	  0.049458917	1.182130E+02	  0.049458917	2.542900E+01	  0.049458917	2.389800E+01
149	  0.049659319	-7.270000E+00	  0.049659319	1.179720E+02	  0.049659319	2.549100E+01	  0.049659319	2.399500E+01
150	  0.049859721	-7.275000E+00	  0.049859721	1.177280E+02	  0.049859721	2.555700E+01	  0.049859721	2.409100E+01
151	  0.050060119	-7.283000E+00	  0.050060119	1.174480E+02	  0.050060119	2.564100E+01	  0.050060119	2.419800E+01
152	  0.050260521	-7.285000E+00	  0.050260521	1.171800E+02	  0.050260521	2.570400E+01	  0.050260521	2.430900E+01
153	  0.050460923	-7.286000E+00	  0.050460923	1.169360E+02	  0.050460923	2.576100E+01	  0.050460923	2.441100E+01
154	  0.050661322	-7.286000E+00	  0.050661322	1.166860E+02	  0.050661322	2.581700E+01	  0.050661322	2.451700E+01
155	  0.050861724	-7.287000E+00	  0.050861724	1.163660E+02	  0.050861724	2.588900E+01	  0.050861724	2.465200E+01
156	  0.051062126	-7.281000E+00	  0.051062126	1.160620E+02	  0.051062126	2.594000E+01	  0.051062126	2.479100E+01
157	  0.051262524	-7.276000E+00	  0.051262524	1.157660E+02	  0.051262524	2.599300E+01	  0.051262524	2.492400E+01
158	  0.051462926	-7.270000E+00	  0.051462926	1.155270E+02	  0.051462926	2.603200E+01	  0.051462926	2.503400E+01
159	  0.051663328	-7.266000E+00	  0.051663328	1.152880E+02	  0.051663328	2.607300E+01	  0.051663328	2.514300E+01
160	  0.051863730	-7.267000E+00	  0.051863730	1.150930E+02	  0.051863730	2.612300E+01	  0.051863730	2.522400E+01
161	  0.052064128	-7.263000E+00	  0.052064128	1.148630E+02	  0.052064128	2.616300E+01	  0.052064128	2.533000E+01
162	  0.052264530	-7.266000E+00	  0.052264530	1.146300E+02	  0.052264530	2.622700E+01	  0.052264530	2.542500E+01
163	  0.052464932	-7.270000E+00	  0.052464932	1.143980E+02	  0.052464932	2.629200E+01	  0.052464932	2.551800E+01
164	  0.052665330	-7.275000E+00	  0.052665330	1.141540E+02	  0.052665330	2.636200E+01	  0.052665330	2.561600E+01
165	  0.052865732	-7.275000E+00	  0.052865732	1.139080E+02	  0.052865732	2.642200E+01	  0.052865732	2.572100E+01
166	  0.053066134	-7.277000E+00	  0.053066134	1.136470E+02	  0.053066134	2.648900E+01	  0.053066134	2.583100E+01
167	  0.053266536	-7.273000E+00	  0.053266536	1.133840E+02	  0.053266536	2.653900E+01	  0.053266536	2.595100E+01
168	  0.053466935	-7.272000E+00	  0.053466935	1.130890E+02	  0.053466935	2.660800E+01	  0.053466935	2.607900E+01
169	  0.053667337	-7.262000E+00	  0.053667337	1.128120E+02	  0.053667337	2.664800E+01	  0.053667337	2.621400E+01
170	  0.053867739	-7.259000E+00	  0.053867739	1.126180E+02	  0.053867739	2.668700E+01	  0.053867739	2.630300E+01
171	  0.054068137	-7.253000E+00	  0.054068137	1.123350E+02	  0.054068137	2.674000E+01	  0.054068137	2.643500E+01
172	  0.054268539	-7.253000E+00	  0.054268539	1.121270E+02	  0.054268539	2.679100E+01	  0.054268539	2.652500E+01
173	  0.054468941	-7.251000E+00	  0.054468941	1.119110E+02	  0.054468941	2.683700E+01	  0.054468941	2.662400E+01
174	  0.054669339	-7.250000E+00	  0.054669339	1.117100E+02	  0.054669339	2.688600E+01	  0.054669339	2.671200E+01
175	  0.054869737	-7.251000E+00	  0.054869737	1.114730E+02	  0.054869737	2.694800E+01	  0.054869737	2.681400E+01
176	  0.055070139	-7.250000E+00	  0.055070139	1.112420E+02	  0.055070139	2.700500E+01	  0.055070139	2.691500E+01
177	  0.055270538	-7.253000E+00	  0.055270538	1.110130E+02	  0.055270538	2.707000E+01	  0.055270538	2.701100E+01
178	  0.055470940	-7.257000E+00	  0.055470940	1.107730E+02	  0.055470940	2.714300E+01	  0.055470940	2.710800E+01
179	  0.055671342	-7.260000E+00	  0.055671342	1.105660E+02	  0.055671342	2.720700E+01	  0.055671342	2.719200E+01
180	  0.055871744	-7.260000E+00	  0.055871744	1.103260E+02	  0.055871744	2.726800E+01	  0.055871744	2.729800E+01
181	  0.056072142	-7.258000E+00	  0.056072142	1.100260E+02	  0.056072142	2.734000E+01	  0.056072142	2.743300E+01
182	  0.056272544	-7.258000E+00	  0.056272544	1.097370E+02	  0.056272544	2.741500E+01	  0.056272544	2.756000E+01
183	  0.056472946	-7.253000E+00	  0.056472946	1.094600E+02	  0.056472946	2.747600E+01	  0.056472946	2.768900E+01
184	  0.056673344	-7.252000E+00	  0.056673344	1.092300E+02	  0.056673344	2.753200E+01	  0.056673344	2.779200E+01
185	  0.056873746	-7.250000E+00	  0.056873746	1.089560E+02	  0.056873746	2.760100E+01	  0.056873746	2.791600E+01
186	  0.057074148	-7.248000E+00	  0.057074148	1.087750E+02	  0.057074148	2.764300E+01	  0.057074148	2.799900E+01
187	  0.057274550	-7.245000E+00	  0.057274550	1.085380E+02	  0.057274550	2.770000E+01	  0.057274550	2.810800E+01
188	  0.057474948	-7.246000E+00	  0.057474948	1.083130E+02	  0.057474948	2.776400E+01	  0.057474948	2.820500E+01
189	  0.057675350	-7.250000E+00	  0.057675350	1.080940E+02	  0.057675350	2.783400E+01	  0.057675350	2.829500E+01
190	  0.057875752	-7.250000E+00	  0.057875752	1.078770E+02	  0.057875752	2.789500E+01	  0.057875752	2.839100E+01
191	  0.058076151	-7.252000E+00	  0.058076151	1.076420E+02	  0.058076151	2.796700E+01	  0.058076151	2.849000E+01
192	  0.058276553	-7.255000E+00	  0.058276553	1.073590E+02	  0.058276553	2.805500E+01	  0.058276553	2.860900E+01
193	  0.058476955	-7.256000E+00	  0.058476955	1.071040E+02	  0.058476955	2.813000E+01	  0.058476955	2.872000E+01
194	  0.058677353	-7.255000E+00	  0.058677353	1.068510E+02	  0.058677353	2.819800E+01	  0.058677353	2.883400E+01
195	  0.058877755	-7.253000E+00	  0.058877755	1.065680E+02	  0.058877755	2.827200E+01	  0.058877755	2.896300E+01
196	  0.059078157	-7.249000E+00	  0.059078157	1.063040E+02	  0.059078157	2.833600E+01	  0.059078157	2.908900E+01
197	  0.059278559	-7.246000E+00	  0.059278559	1.060570E+02	  0.059278559	2.839900E+01	  0.059278559	2.920400E+01
198	  0.059478957	-7.242000E+00	  0.059478957	1.058160E+02	  0.059478957	2.845600E+01	  0.059478957	2.931900E+01
199	  0.059679359	-7.242000E+00	  0.059679359	1.055950E+02	  0.059679359	2.852100E+01	  0.059679359	2.941700E+01
200	  0.059879761	-7.238000E+00	  0.059879761	1.053960E+02	  0.059879761	2.856700E+01	  0.059879761	2.951400E+01
201	  0.060080159	-7.239000E+00	  0.060080159	1.051610E+02	  0.060080159	2.863900E+01	  0.060080159	2.961700E+01
202	  0.060280561	-7.237000E+00	  0.060280561	1.049200E+02	  0.060280561	2.870600E+01	  0.060280561	2.972800E+01
203	  0.060480963	-7.238000E+00	  0.060480963	1.047060E+02	  0.060480963	2.877300E+01	  0.060480963	2.982200E+01
204	  0.060681365	-7.240000E+00	  0.060681365	1.044650E+02	  0.060681365	2.885100E+01	  0.060681365	2.992600E+01
205	  0.060881764	-7.243000E+00	  0.060881764	1.042570E+02	  0.060881764	2.892300E+01	  0.060881764	3.001300E+01
206	  0.061082166	-7.242000E+00	  0.061082166	1.040030E+02	  0.061082166	2.899800E+01	  0.061082166	3.012800E+01
207	  0.061282568	-7.245000E+00	  0.061282568	1.037320E+02	  0.061282568	2.908900E+01	  0.061282568	3.024300E+01
208	  0.061482966	-7.243000E+00	  0.061482966	1.034790E+02	  0.061482966	2.916000E+01	  0.061482966	3.036200E+01
209	  0.061683368	-7.240000E+00	  0.061683368	1.031890E+02	  0.061683368	2.924200E+01	  0.061683368	3.049800E+01
210	  0.061883770	-7.238000E+00	  0.061883770	1.029310E+02	  0.061883770	2.931600E+01	  0.061883770	3.061800E+01
211	  0.062084168	-7.236000E+00	  0.062084168	1.027160E+02	  0.062084168	2.937900E+01	  0.062084168	3.071800E+01
212	  0.062284570	-7.232000E+00	  0.062284570	1.024810E+02	  0.062284570	2.943900E+01	  0.062284570	3.083400E+01
213	  0.062484972	-7.223000E+00	  0.062484972	1.022610E+02	  0.062484972	2.948300E+01	  0.062484972	3.095200E+01
214	  0.062685370	-7.222000E+00	  0.062685370	1.020440E+02	  0.062685370	2.955100E+01	  0.062685370	3.105100E+01
215	  0.062885776	-7.222000E+00	  0.062885776	1.017960E+02	  0.062885776	2.963000E+01	  0.062885776	3.116300E+01
216	  0.063086174	-7.222000E+00	  0.063086174	1.016100E+02	  0.063086174	2.968900E+01	  0.063086174	3.124800E+01
217	  0.063286573	-7.225000E+00	  0.063286573	1.013750E+02	  0.063286573	2.977600E+01	  0.063286573	3.134700E+01
218	  0.063486971	-7.228000E+00	  0.063486971	1.011430E+02	  0.063486971	2.986100E+01	  0.063486971	3.144600E+01
219	  0.063687377	-7.227000E+00	  0.063687377	1.008890E+02	  0.063687377	2.994000E+01	  0.063687377	3.156500E+01
220	  0.063887775	-7.231000E+00	  0.063887775	1.006330E+02	  0.063887775	3.003900E+01	  0.063887775	3.167000E+01
221	  0.064088173	-7.231000E+00	  0.064088173	1.003700E+02	  0.064088173	3.012600E+01	  0.064088173	3.179000E+01
222	  0.064288579	-7.224000E+00	  0.064288579	1.000820E+02	  0.064288579	3.019900E+01	  0.064288579	3.193800E+01
223	  0.064488977	-7.226000E+00	  0.064488977	9.983000E+01	  0.064488977	3.029100E+01	  0.064488977	3.204800E+01
224	  0.064689375	-7.223000E+00	  0.064689375	9.954300E+01	  0.064689375	3.038200E+01	  0.064689375	3.218400E+01
225	  0.064889781	-7.222000E+00	  0.064889781	9.930600E+01	  0.064889781	3.045800E+01	  0.064889781	3.229500E+01
226	  0.065090179	-7.214000E+00	  0.065090179	9.906300E+01	  0.065090179	3.051700E+01	  0.065090179	3.242500E+01
227	  0.065290578	-7.213000E+00	  0.065290578	9.886900E+01	  0.065290578	3.058300E+01	  0.065290578	3.251500E+01
228	  0.065490983	-7.214000E+00	  0.065490983	9.864100E+01	  0.065490983	3.066400E+01	  0.065490983	3.261800E+01
229	  0.065691382	-7.213000E+00	  0.065691382	9.842200E+01	  0.065691382	3.073900E+01	  0.065691382	3.272000E+01
230	  0.065891780	-7.207000E+00	  0.065891780	9.822500E+01	  0.065891780	3.079000E+01	  0.065891780	3.282400E+01
231	  0.066092186	-7.213000E+00	  0.066092186	9.801900E+01	  0.066092186	3.088000E+01	  0.066092186	3.290500E+01
232	  0.066292584	-7.204000E+00	  0.066292584	9.772300E+01	  0.066292584	3.095800E+01	  0.066292584	3.306300E+01
233	  0.066492982	-7.208000E+00	  0.066492982	9.749400E+01	  0.066492982	3.105300E+01	  0.066492982	3.315800E+01
234	  0.066693388	-7.214000E+00	  0.066693388	9.724600E+01	  0.066693388	3.116000E+01	  0.066693388	3.325900E+01
235	  0.066893786	-7.209000E+00	  0.066893786	9.700000E+01	  0.066893786	3.123400E+01	  0.066893786	3.338400E+01
236	  0.067094192	-7.210000E+00	  0.067094192	9.672300E+01	  0.067094192	3.133800E+01	  0.067094192	3.350900E+01
237	  0.067294590	-7.211000E+00	  0.067294590	9.646700E+01	  0.067294590	3.143500E+01	  0.067294590	3.362400E+01
238	  0.067494988	-7.203000E+00	  0.067494988	9.626600E+01	  0.067494988	3.148500E+01	  0.067494988	3.373600E+01
239	  0.067695394	-7.201000E+00	  0.067695394	9.600900E+01	  0.067695394	3.157700E+01	  0.067695394	3.385900E+01
240	  0.067895792	-7.197000E+00	  0.067895792	9.579500E+01	  0.067895792	3.164200E+01	  0.067895792	3.397000E+01
241	  0.068096191	-7.199000E+00	  0.068096191	9.552700E+01	  0.068096191	3.175100E+01	  0.068096191	3.408800E+01
242	  0.068296596	-7.194000E+00	  0.068296596	9.532400E+01	  0.068296596	3.181300E+01	  0.068296596	3.419400E+01
243	  0.068496995	-7.196000E+00	  0.068496995	9.511900E+01	  0.068496995	3.189500E+01	  0.068496995	3.428600E+01
244	  0.068697393	-7.201000E+00	  0.068697393	9.490700E+01	  0.068697393	3.199200E+01	  0.068697393	3.437000E+01
245	  0.068897791	-7.194000E+00	  0.068897791	9.466500E+01	  0.068897791	3.206500E+01	  0.068897791	3.450000E+01
246	  0.069098189	-7.198000E+00	  0.069098189	9.445900E+01	  0.069098189	3.215600E+01	  0.069098189	3.458600E+01
247	  0.069298595	-7.200000E+00	  0.069298595	9.417600E+01	  0.069298595	3.227300E+01	  0.069298595	3.471100E+01
248	  0.069498993	-7.202000E+00	  0.069498993	9.388800E+01	  0.069498993	3.239100E+01	  0.069498993	3.484200E+01
249	  0.069699399	-7.201000E+00	  0.069699399	9.366600E+01	  0.069699399	3.247800E+01	  0.069699399	3.494500E+01
250	  0.069899797	-7.204000E+00	  0.069899797	9.339600E+01	  0.069899797	3.259100E+01	  0.069899797	3.506600E+01
251	  0.070100196	-7.207000E+00	  0.070100196	9.317400E+01	  0.070100196	3.269100E+01	  0.070100196	3.516000E+01
252	  0.070300601	-7.199000E+00	  0.070300601	9.294100E+01	  0.070300601	3.275900E+01	  0.070300601	3.529100E+01
253	  0.070501000	-7.199000E+00	  0.070501000	9.267700E+01	  0.070501000	3.286700E+01	  0.070501000	3.541300E+01
254	  0.070701398	-7.196000E+00	  0.070701398	9.244800E+01	  0.070701398	3.295100E+01	  0.070701398	3.552800E+01
255	  0.070901804	-7.198000E+00	  0.070901804	9.224800E+01	  0.070901804	3.304000E+01	  0.070901804	3.561500E+01
256	  0.071102202	-7.190000E+00	  0.071102202	9.196600E+01	  0.071102202	3.313200E+01	  0.071102202	3.576800E+01
257	  0.071302600	-7.193000E+00	  0.071302600	9.178200E+01	  0.071302600	3.321700E+01	  0.071302600	3.584600E+01
258	  0.071503006	-7.193000E+00	  0.071503006	9.154300E+01	  0.071503006	3.331500E+01	  0.071503006	3.596100E+01
259	  0.071703404	-7.194000E+00	  0.071703404	9.130900E+01	  0.071703404	3.341700E+01	  0.071703404	3.606600E+01
260	  0.071903802	-7.195000E+00	  0.071903802	9.107500E+01	  0.071903802	3.352000E+01	  0.071903802	3.617300E+01
261	  0.072104208	-7.199000E+00	  0.072104208	9.080400E+01	  0.072104208	3.364500E+01	  0.072104208	3.629000E+01
262	  0.072304606	-7.197000E+00	  0.072304606	9.056800E+01	  0.072304606	3.374100E+01	  0.072304606	3.640500E+01
263	  0.072505005	-7.197000E+00	  0.072505005	9.029100E+01	  0.072505005	3.386100E+01	  0.072505005	3.653500E+01
264	  0.072705410	-7.195000E+00	  0.072705410	9.003900E+01	  0.072705410	3.396400E+01	  0.072705410	3.665800E+01
265	  0.072905809	-7.186000E+00	  0.072905809	8.980900E+01	  0.072905809	3.403400E+01	  0.072905809	3.679400E+01
266	  0.073106214	-7.186000E+00	  0.073106214	8.952000E+01	  0.073106214	3.416300E+01	  0.073106214	3.692900E+01
267	  0.073306613	-7.184000E+00	  0.073306613	8.932500E+01	  0.073306613	3.424200E+01	  0.073306613	3.702600E+01
268	  0.073507011	-7.187000E+00	  0.073507011	8.908900E+01	  0.073507011	3.435700E+01	  0.073507011	3.712800E+01
269	  0.073707417	-7.187000E+00	  0.073707417	8.886900E+01	  0.073707417	3.445500E+01	  0.073707417	3.723300E+01
270	  0.073907815	-7.180000E+00	  0.073907815	8.861200E+01	  0.073907815	3.454700E+01	  0.073907815	3.737600E+01
271	  0.074108213	-7.182000E+00	  0.074108213	8.838700E+01	  0.074108213	3.465700E+01	  0.074108213	3.747400E+01
272	  0.074308619	-7.178000E+00	  0.074308619	8.817000E+01	  0.074308619	3.474100E+01	  0.074308619	3.759000E+01
273	  0.074509017	-7.184000E+00	  0.074509017	8.793500E+01	  0.074509017	3.487000E+01	  0.074509017	3.768100E+01
274	  0.074709415	-7.183000E+00	  0.074709415	8.766000E+01	  0.074709415	3.499300E+01	  0.074709415	3.781400E+01
275	  0.074909821	-7.189000E+00	  0.074909821	8.739700E+01	  0.074909821	3.513100E+01	  0.074909821	3.792200E+01
276	  0.075110219	-7.188000E+00	  0.075110219	8.716000E+01	  0.075110219	3.524100E+01	  0.075110219	3.803500E+01
277	  0.075310618	-7.190000E+00	  0.075310618	8.691300E+01	  0.075310618	3.536200E+01	  0.075310618	3.814600E+01
278	  0.075511023	-7.187000E+00	  0.075511023	8.662500E+01	  0.075511023	3.548900E+01	  0.075511023	3.829200E+01
279	  0.075711422	-7.181000E+00	  0.075711422	8.639300E+01	  0.075711422	3.558000E+01	  0.075711422	3.842100E+01
280	  0.075911827	-7.183000E+00	  0.075911827	8.613000E+01	  0.075911827	3.571200E+01	  0.075911827	3.853900E+01
281	  0.076112226	-7.174000E+00	  0.076112226	8.593500E+01	  0.076112226	3.578000E+01	  0.076112226	3.865800E+01
282	  0.076312624	-7.175000E+00	  0.076312624	8.568500E+01	  0.076312624	3.590200E+01	  0.076312624	3.877500E+01
283	  0.076513030	-7.162000E+00	  0.076513030	8.547600E+01	  0.076513030	3.596300E+01	  0.076513030	3.891700E+01
284	  0.076713428	-7.165000E+00	  0.076713428	8.526200E+01	  0.076713428	3.607900E+01	  0.076713428	3.900700E+01
285	  0.076913826	-7.168000E+00	  0.076913826	8.503400E+01	  0.076913826	3.620000E+01	  0.076913826	3.910600E+01
286	  0.077114232	-7.167000E+00	  0.077114232	8.478000E+01	  0.077114232	3.632200E+01	  0.077114232	3.922900E+01
287	  0.077314630	-7.169000E+00	  0.077314630	8.455500E+01	  0.077314630	3.644100E+01	  0.077314630	3.932900E+01
288	  0.077515028	-7.163000E+00	  0.077515028	8.432600E+01	  0.077515028	3.653700E+01	  0.077515028	3.945900E+01
289	  0.077715434	-7.168000E+00	  0.077715434	8.409700E+01	  0.077715434	3.666900E+01	  0.077715434	3.955000E+01
290	  0.077915832	-7.165000E+00	  0.077915832	8.386800E+01	  0.077915832	3.677500E+01	  0.077915832	3.967000E+01
291	  0.078116231	-7.166000E+00	  0.078116231	8.360400E+01	  0.078116231	3.691500E+01	  0.078116231	3.978900E+01
292	  0.078316636	-7.168000E+00	  0.078316636	8.333900E+01	  0.078316636	3.705800E+01	  0.078316636	3.990900E+01
293	  0.078517035	-7.164000E+00	  0.078517035	8.309900E+01	  0.078517035	3.716700E+01	  0.078517035	4.003900E+01
294	  0.078717433	-7.157000E+00	  0.078717433	8.287100E+01	  0.078717433	3.726600E+01	  0.078717433	4.016800E+01
295	  0.078917839	-7.155000E+00	  0.078917839	8.264900E+01	  0.078917839	3.737500E+01	  0.078917839	4.028300E+01
296	  0.079118237	-7.157000E+00	  0.079118237	8.242300E+01	  0.079118237	3.750000E+01	  0.079118237	4.038300E+01
297	  0.079318643	-7.151000E+00	  0.079318643	8.220100E+01	  0.079318643	3.759900E+01	  0.079318643	4.051000E+01
298	  0.079519041	-7.150000E+00	  0.079519041	8.197300E+01	  0.079519041	3.771900E+01	  0.079519041	4.062000E+01
299	  0.079719439	-7.147000E+00	  0.079719439	8.173800E+01	  0.079719439	3.783600E+01	  0.079719439	4.074300E+01
300	  0.079919845	-7.153000E+00	  0.079919845	8.148800E+01	  0.079919845	3.798700E+01	  0.079919845	4.084300E+01
301	  0.080120243	-7.154000E+00	  0.080120243	8.123000E+01	  0.080120243	3.813300E+01	  0.080120243	4.095900E+01
302	  0.080320641	-7.153000E+00	  0.080320641	8.101600E+01	  0.080320641	3.824400E+01	  0.080320641	4.106700E+01
303	  0.080521047	-7.156000E+00	  0.080521047	8.078000E+01	  0.080521047	3.838600E+01	  0.080521047	4.116600E+01
304	  0.080721445	-7.159000E+00	  0.080721445	8.051500E+01	  0.080721445	3.854000E+01	  0.080721445	4.128300E+01
305	  0.080921844	-7.154000E+00	  0.080921844	8.023300E+01	  0.080921844	3.868400E+01	  0.080921844	4.143300E+01
306	  0.081122249	-7.151000E+00	  0.081122249	7.998400E+01	  0.081122249	3.881300E+01	  0.081122249	4.156400E+01
307	  0.081322648	-7.148000E+00	  0.081322648	7.978700E+01	  0.081322648	3.891400E+01	  0.081322648	4.167000E+01
308	  0.081523046	-7.143000E+00	  0.081523046	7.953000E+01	  0.081523046	3.904400E+01	  0.081523046	4.181000E+01
309	  0.081723452	-7.140000E+00	  0.081723452	7.933200E+01	  0.081723452	3.914700E+01	  0.081723452	4.191600E+01
310	  0.081923850	-7.137000E+00	  0.081923850	7.906800E+01	  0.081923850	3.929200E+01	  0.081923850	4.205100E+01
311	  0.082124248	-7.140000E+00	  0.082124248	7.885800E+01	  0.082124248	3.942000E+01	  0.082124248	4.214200E+01
312	  0.082324654	-7.139000E+00	  0.082324654	7.863700E+01	  0.082324654	3.954700E+01	  0.082324654	4.224900E+01
313	  0.082525052	-7.142000E+00	  0.082525052	7.840000E+01	  0.082525052	3.969500E+01	  0.082525052	4.235000E+01
314	  0.082725458	-7.142000E+00	  0.082725458	7.818200E+01	  0.082725458	3.982400E+01	  0.082725458	4.245300E+01
315	  0.082925856	-7.143000E+00	  0.082925856	7.792400E+01	  0.082925856	3.997800E+01	  0.082925856	4.257300E+01
316	  0.083126254	-7.146000E+00	  0.083126254	7.771500E+01	  0.083126254	4.011200E+01	  0.083126254	4.265900E+01
317	  0.083326660	-7.145000E+00	  0.083326660	7.744200E+01	  0.083326660	4.027500E+01	  0.083326660	4.279000E+01
318	  0.083527058	-7.152000E+00	  0.083527058	7.718700E+01	  0.083527058	4.044900E+01	  0.083527058	4.288500E+01
319	  0.083727457	-7.148000E+00	  0.083727457	7.692300E+01	  0.083727457	4.059700E+01	  0.083727457	4.302600E+01
320	  0.083927862	-7.142000E+00	  0.083927862	7.670400E+01	  0.083927862	4.071400E+01	  0.083927862	4.315100E+01
321	  0.084128261	-7.141000E+00	  0.084128261	7.645800E+01	  0.084128261	4.086200E+01	  0.084128261	4.327100E+01
322	  0.084328659	-7.138000E+00	  0.084328659	7.620300E+01	  0.084328659	4.101000E+01	  0.084328659	4.340500E+01
323	  0.084529065	-7.136000E+00	  0.084529065	7.597600E+01	  0.084529065	4.114600E+01	  0.084529065	4.351900E+01
324	  0.084729463	-7.130000E+00	  0.084729463	7.577600E+01	  0.084729463	4.125200E+01	  0.084729463	4.363800E+01
325	  0.084929861	-7.131000E+00	  0.084929861	7.552700E+01	  0.084929861	4.141200E+01	  0.084929861	4.375300E+01
326	  0.085130267	-7.135000E+00	  0.085130267	7.528800E+01	  0.085130267	4.157500E+01	  0.085130267	4.385000E+01
327	  0.085330658	-7.136000E+00	  0.085330658	7.502400E+01	  0.085330658	4.174700E+01	  0.085330658	4.396900E+01
328	  0.085531056	-7.136000E+00	  0.085531056	7.479400E+01	  0.085531056	4.189400E+01	  0.085531056	4.407700E+01
329	  0.085731462	-7.136000E+00	  0.085731462	7.454700E+01	  0.085731462	4.205500E+01	  0.085731462	4.419200E+01
330	  0.085931860	-7.138000E+00	  0.085931860	7.430900E+01	  0.085931860	4.221700E+01	  0.085931860	4.429300E+01
331	  0.086132258	-7.135000E+00	  0.086132258	7.401500E+01	  0.086132258	4.239800E+01	  0.086132258	4.444700E+01
332	  0.086332664	-7.136000E+00	  0.086332664	7.379000E+01	  0.086332664	4.255200E+01	  0.086332664	4.454500E+01
333	  0.086533062	-7.132000E+00	  0.086533062	7.354200E+01	  0.086533062	4.270200E+01	  0.086533062	4.468000E+01
334	  0.086733460	-7.122000E+00	  0.086733460	7.333500E+01	  0.086733460	4.281000E+01	  0.086733460	4.482100E+01
335	  0.086933866	-7.121000E+00	  0.086933866	7.307800E+01	  0.086933866	4.297900E+01	  0.086933866	4.494600E+01
336	  0.087134264	-7.115000E+00	  0.087134264	7.286300E+01	  0.087134264	4.310500E+01	  0.087134264	4.507300E+01
337	  0.087334670	-7.108000E+00	  0.087334670	7.265100E+01	  0.087334670	4.322900E+01	  0.087334670	4.520200E+01
338	  0.087535068	-7.113000E+00	  0.087535068	7.239800E+01	  0.087535068	4.341700E+01	  0.087535068	4.529900E+01
339	  0.087735467	-7.108000E+00	  0.087735467	7.220600E+01	  0.087735467	4.353600E+01	  0.087735467	4.540800E+01
340	  0.087935872	-7.110000E+00	  0.087935872	7.199700E+01	  0.087935872	4.368400E+01	  0.087935872	4.549900E+01
341	  0.088136271	-7.113000E+00	  0.088136271	7.178900E+01	  0.088136271	4.383800E+01	  0.088136271	4.558200E+01
342	  0.088336669	-7.111000E+00	  0.088336669	7.155200E+01	  0.088336669	4.400000E+01	  0.088336669	4.569800E+01
343	  0.088537075	-7.116000E+00	  0.088537075	7.129700E+01	  0.088537075	4.419500E+01	  0.088537075	4.579200E+01
344	  0.088737473	-7.119000E+00	  0.088737473	7.105200E+01	  0.088737473	4.437800E+01	  0.088737473	4.589100E+01
345	  0.088937871	-7.120000E+00	  0.088937871	7.082500E+01	  0.088937871	4.454200E+01	  0.088937871	4.599200E+01
346	  0.089138277	-7.117000E+00	  0.089138277	7.058000E+01	  0.089138277	4.470900E+01	  0.089138277	4.611700E+01
347	  0.089338675	-7.114000E+00	  0.089338675	7.034100E+01	  0.089338675	4.487200E+01	  0.089338675	4.624200E+01
348	  0.089539073	-7.108000E+00	  0.089539073	7.010600E+01	  0.089539073	4.502500E+01	  0.089539073	4.637800E+01
349	  0.089739479	-7.110000E+00	  0.089739479	6.986100E+01	  0.089739479	4.520900E+01	  0.089739479	4.648300E+01
350	  0.089939877	-7.109000E+00	  0.089939877	6.959900E+01	  0.089939877	4.539900E+01	  0.089939877	4.660600E+01
351	  0.090140276	-7.107000E+00	  0.090140276	6.940900E+01	  0.090140276	4.553400E+01	  0.090140276	4.670300E+01
352	  0.090340681	-7.105000E+00	  0.090340681	6.916900E+01	  0.090340681	4.570600E+01	  0.090340681	4.682200E+01
353	  0.090541080	-7.104000E+00	  0.090541080	6.893100E+01	  0.090541080	4.588100E+01	  0.090541080	4.693600E+01
354	  0.090741485	-7.108000E+00	  0.090741485	6.872900E+01	  0.090741485	4.604700E+01	  0.090741485	4.700500E+01
355	  0.090941884	-7.107000E+00	  0.090941884	6.848300E+01	  0.090941884	4.623000E+01	  0.090941884	4.712300E+01
356	  0.091142282	-7.105000E+00	  0.091142282	6.823600E+01	  0.091142282	4.641100E+01	  0.091142282	4.724500E+01
357	  0.091342688	-7.112000E+00	  0.091342688	6.799900E+01	  0.091342688	4.661600E+01	  0.091342688	4.731300E+01
358	  0.091543086	-7.108000E+00	  0.091543086	6.774100E+01	  0.091543086	4.680200E+01	  0.091543086	4.745100E+01
359	  0.091743484	-7.107000E+00	  0.091743484	6.750300E+01	  0.091743484	4.698600E+01	  0.091743484	4.756000E+01
360	  0.091943890	-7.099000E+00	  0.091943890	6.725800E+01	  0.091943890	4.715200E+01	  0.091943890	4.771400E+01
361	  0.092144288	-7.099000E+00	  0.092144288	6.705000E+01	  0.092144288	4.731800E+01	  0.092144288	4.780200E+01
362	  0.092344686	-7.097000E+00	  0.092344686	6.681600E+01	  0.092344686	4.749500E+01	  0.092344686	4.792100E+01
363	  0.092545092	-7.094000E+00	  0.092545092	6.658900E+01	  0.092545092	4.767000E+01	  0.092545092	4.803200E+01
364	  0.092745490	-7.090000E+00	  0.092745490	6.636300E+01	  0.092745490	4.783800E+01	  0.092745490	4.815400E+01
365	  0.092945889	-7.094000E+00	  0.092945889	6.615500E+01	  0.092945889	4.801700E+01	  0.092945889	4.822700E+01
366	  0.093146294	-7.091000E+00	  0.093146294	6.592800E+01	  0.093146294	4.819100E+01	  0.093146294	4.834400E+01
367	  0.093346693	-7.096000E+00	  0.093346693	6.573500E+01	  0.093346693	4.836400E+01	  0.093346693	4.840100E+01
368	  0.093547091	-7.099000E+00	  0.093547091	6.547600E+01	  0.093547091	4.858500E+01	  0.093547091	4.849800E+01
369	  0.093747497	-7.100000E+00	  0.093747497	6.524300E+01	  0.093747497	4.878000E+01	  0.093747497	4.859200E+01
370	  0.093947895	-7.101000E+00	  0.093947895	6.499000E+01	  0.093947895	4.899500E+01	  0.093947895	4.869400E+01
371	  0.094148301	-7.102000E+00	  0.094148301	6.473100E+01	  0.094148301	4.921200E+01	  0.094148301	4.880100E+01
372	  0.094348699	-7.106000E+00	  0.094348699	6.447900E+01	  0.094348699	4.943500E+01	  0.094348699	4.888900E+01
373	  0.094549097	-7.101000E+00	  0.094549097	6.420300E+01	  0.094549097	4.965500E+01	  0.094549097	4.903400E+01
374	  0.094749503	-7.096000E+00	  0.094749503	6.398100E+01	  0.094749503	4.982900E+01	  0.094749503	4.915800E+01
375	  0.094949901	-7.100000E+00	  0.094949901	6.373500E+01	  0.094949901	5.005400E+01	  0.094949901	4.923600E+01
376	  0.095150299	-7.094000E+00	  0.095150299	6.347800E+01	  0.095150299	5.025700E+01	  0.095150299	4.938100E+01
377	  0.095350705	-7.092000E+00	  0.095350705	6.323600E+01	  0.095350705	5.046400E+01	  0.095350705	4.949100E+01
378	  0.095551103	-7.093000E+00	  0.095551103	6.298100E+01	  0.095551103	5.068800E+01	  0.095551103	4.959400E+01
379	  0.095751502	-7.089000E+00	  0.095751502	6.272200E+01	  0.095751502	5.090500E+01	  0.095751502	4.972500E+01
380	  0.095951907	-7.085000E+00	  0.095951907	6.249400E+01	  0.095951907	5.109800E+01	  0.095951907	4.984000E+01
381	  0.096152306	-7.086000E+00	  0.096152306	6.229300E+01	  0.096152306	5.127800E+01	  0.096152306	4.992200E+01
382	  0.096352704	-7.084000E+00	  0.096352704	6.205700E+01	  0.096352704	5.148500E+01	  0.096352704	5.002900E+01
383	  0.096553110	-7.086000E+00	  0.096553110	6.181300E+01	  0.096553110	5.170900E+01	  0.096553110	5.011800E+01
384	  0.096753508	-7.087000E+00	  0.096753508	6.157200E+01	  0.096753508	5.193100E+01	  0.096753508	5.021100E+01
385	  0.096953906	-7.081000E+00	  0.096953906	6.132700E+01	  0.096953906	5.213900E+01	  0.096953906	5.034500E+01
386	  0.097154312	-7.077000E+00	  0.097154312	6.113100E+01	  0.097154312	5.230900E+01	  0.097154312	5.044600E+01
387	  0.097354710	-7.070000E+00	  0.097354710	6.091100E+01	  0.097354710	5.249400E+01	  0.097354710	5.057700E+01
388	  0.097555116	-7.069000E+00	  0.097555116	6.066300E+01	  0.097555116	5.272100E+01	  0.097555116	5.068600E+01
389	  0.097755514	-7.062000E+00	  0.097755514	6.047600E+01	  0.097755514	5.287800E+01	  0.097755514	5.080000E+01
390	  0.097955912	-7.066000E+00	  0.097955912	6.026700E+01	  0.097955912	5.308500E+01	  0.097955912	5.086000E+01
391	  0.098156318	-7.061000E+00	  0.098156318	6.005600E+01	  0.098156318	5.327000E+01	  0.098156318	5.097600E+01
392	  0.098356716	-7.060000E+00	  0.098356716	5.984200E+01	  0.098356716	5.347100E+01	  0.098356716	5.106700E+01
393	  0.098557115	-7.059000E+00	  0.098557115	5.964500E+01	  0.098557115	5.365800E+01	  0.098557115	5.114800E+01
394	  0.098757520	-7.063000E+00	  0.098757520	5.944000E+01	  0.098757520	5.386400E+01	  0.098757520	5.120500E+01
395	  0.098957919	-7.064000E+00	  0.098957919	5.923000E+01	  0.098957919	5.406900E+01	  0.098957919	5.128100E+01
396	  0.099158317	-7.070000E+00	  0.099158317	5.898500E+01	  0.099158317	5.432200E+01	  0.099158317	5.133600E+01
397	  0.099358723	-7.073000E+00	  0.099358723	5.874600E+01	  0.099358723	5.456300E+01	  0.099358723	5.140600E+01
398	  0.099559121	-7.073000E+00	  0.099559121	5.850900E+01	  0.099559121	5.479800E+01	  0.099559121	5.149100E+01
399	  0.099759519	-7.071000E+00	  0.099759519	5.827300E+01	  0.099759519	5.502500E+01	  0.099759519	5.159500E+01
400	  0.099959925	-7.072000E+00	  0.099959925	5.804300E+01	  0.099959925	5.525500E+01	  0.099959925	5.167500E+01
401	  0.100160323	-7.076000E+00	  0.100160323	5.783900E+01	  0.100160323	5.546900E+01	  0.100160323	5.172300E+01
402	  0.100360721	-7.075000E+00	  0.100360721	5.753800E+01	  0.100360721	5.576800E+01	  0.100360721	5.184100E+01
403	  0.100561127	-7.075000E+00	  0.100561127	5.727200E+01	  0.100561127	5.604000E+01	  0.100561127	5.193400E+01
404	  0.100761525	-7.070000E+00	  0.100761525	5.701100E+01	  0.100761525	5.629200E+01	  0.100761525	5.206400E+01
405	  0.100961931	-7.075000E+00	  0.100961931	5.677900E+01	  0.100961931	5.654300E+01	  0.100961931	5.211000E+01
406	  0.101162329	-7.075000E+00	  0.101162329	5.658200E+01	  0.101162329	5.674700E+01	  0.101162329	5.217800E+01
407	  0.101362728	-7.070000E+00	  0.101362728	5.625900E+01	  0.101362728	5.707000E+01	  0.101362728	5.232600E+01
408	  0.101563133	-7.068000E+00	  0.101563133	5.603600E+01	  0.101563133	5.729800E+01	  0.101563133	5.241500E+01
409	  0.101763532	-7.068000E+00	  0.101763532	5.579400E+01	  0.101763532	5.755400E+01	  0.101763532	5.249800E+01
410	  0.101963930	-7.073000E+00	  0.101963930	5.560100E+01	  0.101963930	5.776800E+01	  0.101963930	5.253000E+01
411	  0.102164336	-7.061000E+00	  0.102164336	5.532900E+01	  0.102164336	5.803100E+01	  0.102164336	5.270400E+01
412	  0.102364734	-7.054000E+00	  0.102364734	5.509900E+01	  0.102364734	5.826100E+01	  0.102364734	5.283400E+01
413	  0.102565132	-7.058000E+00	  0.102565132	5.485500E+01	  0.102565132	5.853400E+01	  0.102565132	5.288100E+01
414	  0.102765530	-7.055000E+00	  0.102765530	5.464800E+01	  0.102765530	5.875100E+01	  0.102765530	5.297200E+01
415	  0.102965929	-7.062000E+00	  0.102965929	5.437700E+01	  0.102965929	5.906000E+01	  0.102965929	5.301100E+01
416	  0.103166327	-7.053000E+00	  0.103166327	5.419100E+01	  0.103166327	5.924500E+01	  0.103166327	5.313500E+01
417	  0.103366733	-7.047000E+00	  0.103366733	5.395100E+01	  0.103366733	5.949900E+01	  0.103366733	5.324800E+01
418	  0.103567131	-7.047000E+00	  0.103567131	5.376600E+01	  0.103567131	5.970300E+01	  0.103567131	5.331200E+01
419	  0.103767529	-7.045000E+00	  0.103767529	5.357800E+01	  0.103767529	5.991000E+01	  0.103767529	5.337800E+01
420	  0.103967935	-7.056000E+00	  0.103967935	5.328100E+01	  0.103967935	6.026400E+01	  0.103967935	5.338900E+01
421	  0.104168333	-7.050000E+00	  0.104168333	5.306700E+01	  0.104168333	6.049300E+01	  0.104168333	5.349500E+01
422	  0.104368731	-7.056000E+00	  0.104368731	5.285800E+01	  0.104368731	6.074100E+01	  0.104368731	5.351800E+01
423	  0.104569137	-7.053000E+00	  0.104569137	5.264300E+01	  0.104569137	6.097900E+01	  0.104569137	5.360000E+01
424	  0.104769535	-7.050000E+00	  0.104769535	5.239800E+01	  0.104769535	6.125600E+01	  0.104769535	5.369000E+01
425	  0.104969934	-7.050000E+00	  0.104969934	5.213400E+01	  0.104969934	6.155800E+01	  0.104969934	5.377000E+01
426	  0.105170339	-7.054000E+00	  0.105170339	5.188400E+01	  0.105170339	6.185600E+01	  0.105170339	5.380600E+01
427	  0.105370738	-7.052000E+00	  0.105370738	5.163200E+01	  0.105370738	6.214500E+01	  0.105370738	5.389100E+01
428	  0.105571143	-7.054000E+00	  0.105571143	5.144100E+01	  0.105571143	6.237300E+01	  0.105571143	5.392400E+01
429	  0.105771542	-7.055000E+00	  0.105771542	5.113700E+01	  0.105771542	6.273400E+01	  0.105771542	5.399700E+01
430	  0.105971940	-7.054000E+00	  0.105971940	5.094100E+01	  0.105971940	6.296400E+01	  0.105971940	5.405500E+01
431	  0.106172346	-7.053000E+00	  0.106172346	5.066300E+01	  0.106172346	6.329300E+01	  0.106172346	5.413600E+01
432	  0.106372744	-7.055000E+00	  0.106372744	5.045200E+01	  0.106372744	6.354800E+01	  0.106372744	5.417300E+01
433	  0.106573142	-7.051000E+00	  0.106573142	5.015500E+01	  0.106573142	6.390200E+01	  0.106573142	5.427000E+01
434	  0.106773548	-7.055000E+00	  0.106773548	4.992100E+01	  0.106773548	6.419100E+01	  0.106773548	5.429600E+01
435	  0.106973946	-7.046000E+00	  0.106973946	4.969100E+01	  0.106973946	6.445800E+01	  0.106973946	5.442500E+01
436	  0.107174344	-7.040000E+00	  0.107174344	4.943700E+01	  0.107174344	6.476200E+01	  0.107174344	5.452400E+01
437	  0.107374750	-7.038000E+00	  0.107374750	4.920700E+01	  0.107374750	6.504200E+01	  0.107374750	5.459800E+01
438	  0.107575148	-7.029000E+00	  0.107575148	4.902000E+01	  0.107575148	6.526200E+01	  0.107575148	5.471000E+01
439	  0.107775547	-7.030000E+00	  0.107775547	4.878500E+01	  0.107775547	6.555800E+01	  0.107775547	5.474700E+01
440	  0.107975952	-7.032000E+00	  0.107975952	4.856300E+01	  0.107975952	6.583900E+01	  0.107975952	5.477800E+01
441	  0.108176351	-7.028000E+00	  0.108176351	4.830600E+01	  0.108176351	6.615900E+01	  0.108176351	5.486100E+01
442	  0.108376749	-7.026000E+00	  0.108376749	4.811600E+01	  0.108376749	6.639700E+01	  0.108376749	5.491600E+01
443	  0.108577155	-7.020000E+00	  0.108577155	4.788600E+01	  0.108577155	6.668300E+01	  0.108577155	5.501600E+01
444	  0.108777553	-7.020000E+00	  0.108777553	4.768000E+01	  0.108777553	6.694700E+01	  0.108777553	5.505400E+01
445	  0.108977959	-7.019000E+00	  0.108977959	4.752500E+01	  0.108977959	6.714600E+01	  0.108977959	5.508700E+01
446	  0.109178357	-7.019000E+00	  0.109178357	4.724600E+01	  0.109178357	6.750800E+01	  0.109178357	5.513600E+01
447	  0.109378755	-7.019000E+00	  0.109378755	4.706400E+01	  0.109378755	6.774500E+01	  0.109378755	5.517000E+01
448	  0.109579161	-7.016000E+00	  0.109579161	4.684300E+01	  0.109579161	6.803100E+01	  0.109579161	5.522600E+01
449	  0.109779559	-7.022000E+00	  0.109779559	4.658900E+01	  0.109779559	6.837000E+01	  0.109779559	5.522000E+01
450	  0.109979957	-7.023000E+00	  0.109979957	4.638700E+01	  0.109979957	6.863900E+01	  0.109979957	5.524100E+01
451	  0.110180363	-7.027000E+00	  0.110180363	4.620300E+01	  0.110180363	6.888500E+01	  0.110180363	5.523400E+01
452	  0.110380761	-7.023000E+00	  0.110380761	4.599200E+01	  0.110380761	6.916400E+01	  0.110380761	5.529200E+01
453	  0.110581160	-7.023000E+00	  0.110581160	4.570800E+01	  0.110581160	6.954400E+01	  0.110581160	5.533100E+01
454	  0.110781565	-7.035000E+00	  0.110781565	4.549100E+01	  0.110781565	6.984600E+01	  0.110781565	5.525000E+01
455	  0.110981964	-7.032000E+00	  0.110981964	4.519200E+01	  0.110981964	7.024800E+01	  0.110981964	5.531000E+01
456	  0.111182362	-7.037000E+00	  0.111182362	4.496000E+01	  0.111182362	7.056600E+01	  0.111182362	5.529200E+01
457	  0.111382768	-7.026000E+00	  0.111382768	4.473600E+01	  0.111382768	7.086400E+01	  0.111382768	5.541500E+01
458	  0.111583166	-7.034000E+00	  0.111583166	4.446900E+01	  0.111583166	7.123600E+01	  0.111583166	5.536500E+01
459	  0.111783572	-7.030000E+00	  0.111783572	4.422200E+01	  0.111783572	7.157500E+01	  0.111783572	5.542300E+01
460	  0.111983970	-7.028000E+00	  0.111983970	4.397800E+01	  0.111983970	7.191300E+01	  0.111983970	5.545500E+01
461	  0.112184368	-7.027000E+00	  0.112184368	4.372600E+01	  0.112184368	7.226500E+01	  0.112184368	5.548400E+01
462	  0.112384774	-7.021000E+00	  0.112384774	4.352200E+01	  0.112384774	7.254900E+01	  0.112384774	5.554900E+01
463	  0.112585172	-7.015000E+00	  0.112585172	4.328000E+01	  0.112585172	7.288800E+01	  0.112585172	5.561500E+01
464	  0.112785570	-7.018000E+00	  0.112785570	4.309800E+01	  0.112785570	7.314600E+01	  0.112785570	5.559900E+01
465	  0.112985976	-7.016000E+00	  0.112985976	4.283800E+01	  0.112985976	7.351600E+01	  0.112985976	5.562600E+01
466	  0.113186374	-7.015000E+00	  0.113186374	4.259000E+01	  0.113186374	7.387100E+01	  0.113186374	5.564300E+01
467	  0.113386773	-7.021000E+00	  0.113386773	4.235600E+01	  0.113386773	7.420800E+01	  0.113386773	5.559400E+01
468	  0.113587178	-7.013000E+00	  0.113587178	4.214800E+01	  0.113587178	7.450800E+01	  0.113587178	5.567100E+01
469	  0.113787577	-7.012000E+00	  0.113787577	4.188000E+01	  0.113787577	7.489700E+01	  0.113787577	5.568400E+01
470	  0.113987975	-7.013000E+00	  0.113987975	4.173300E+01	  0.113987975	7.511100E+01	  0.113987975	5.566800E+01
471	  0.114188381	-7.007000E+00	  0.114188381	4.149700E+01	  0.114188381	7.545600E+01	  0.114188381	5.572800E+01
472	  0.114388779	-7.007000E+00	  0.114388779	4.126600E+01	  0.114388779	7.579600E+01	  0.114388779	5.572400E+01
473	  0.114589177	-7.009000E+00	  0.114589177	4.100100E+01	  0.114589177	7.618800E+01	  0.114589177	5.569900E+01
474	  0.114789583	-7.008000E+00	  0.114789583	4.078300E+01	  0.114789583	7.651200E+01	  0.114789583	5.569600E+01
475	  0.114989981	-7.012000E+00	  0.114989981	4.059500E+01	  0.114989981	7.679000E+01	  0.114989981	5.564900E+01
476	  0.115190387	-7.010000E+00	  0.115190387	4.038900E+01	  0.115190387	7.709900E+01	  0.115190387	5.565100E+01
477	  0.115390785	-7.003000E+00	  0.115390785	4.018600E+01	  0.115390785	7.740700E+01	  0.115390785	5.571400E+01
478	  0.115591183	-7.008000E+00	  0.115591183	3.988000E+01	  0.115591183	7.786700E+01	  0.115591183	5.564200E+01
479	  0.115791589	-7.015000E+00	  0.115791589	3.966400E+01	  0.115791589	7.819000E+01	  0.115791589	5.555200E+01
480	  0.115991987	-7.016000E+00	  0.115991987	3.943300E+01	  0.115991987	7.854000E+01	  0.115991987	5.552200E+01
481	  0.116192386	-7.012000E+00	  0.116192386	3.921100E+01	  0.116192386	7.888000E+01	  0.116192386	5.553200E+01
482	  0.116392791	-7.010000E+00	  0.116392791	3.893800E+01	  0.116392791	7.930200E+01	  0.116392791	5.552000E+01
483	  0.116593190	-7.014000E+00	  0.116593190	3.867600E+01	  0.116593190	7.970200E+01	  0.116593190	5.545300E+01
484	  0.116793588	-7.009000E+00	  0.116793588	3.843300E+01	  0.116793588	8.008100E+01	  0.116793588	5.546500E+01
485	  0.116993994	-7.013000E+00	  0.116993994	3.820100E+01	  0.116993994	8.043800E+01	  0.116993994	5.539000E+01
486	  0.117194392	-7.009000E+00	  0.117194392	3.793700E+01	  0.117194392	8.085500E+01	  0.117194392	5.539200E+01
487	  0.117394790	-7.012000E+00	  0.117394790	3.777000E+01	  0.117394790	8.111300E+01	  0.117394790	5.532800E+01
488	  0.117595196	-7.005000E+00	  0.117595196	3.751000E+01	  0.117595196	8.152800E+01	  0.117595196	5.534800E+01
489	  0.117795594	-7.003000E+00	  0.117795594	3.726900E+01	  0.117795594	8.191200E+01	  0.117795594	5.532800E+01
490	  0.117995992	-7.004000E+00	  0.117995992	3.704800E+01	  0.117995992	8.226000E+01	  0.117995992	5.526800E+01
491	  0.118196398	-6.997000E+00	  0.118196398	3.676900E+01	  0.118196398	8.271300E+01	  0.118196398	5.527800E+01
492	  0.118396796	-6.996000E+00	  0.118396796	3.661900E+01	  0.118396796	8.295500E+01	  0.118396796	5.525900E+01
493	  0.118597202	-6.994000E+00	  0.118597202	3.634300E+01	  0.118597202	8.340100E+01	  0.118597202	5.521600E+01
494	  0.118797600	-6.995000E+00	  0.118797600	3.618000E+01	  0.118797600	8.366400E+01	  0.118797600	5.516600E+01
495	  0.118997999	-6.991000E+00	  0.118997999	3.593500E+01	  0.118997999	8.406400E+01	  0.118997999	5.513800E+01
496	  0.119198404	-6.989000E+00	  0.119198404	3.570800E+01	  0.119198404	8.443800E+01	  0.119198404	5.510500E+01
497	  0.119398803	-6.990000E+00	  0.119398803	3.548900E+01	  0.119398803	8.479100E+01	  0.119398803	5.503000E+01
498	  0.119599201	-6.995000E+00	  0.119599201	3.524100E+01	  0.119599201	8.518600E+01	  0.119599201	5.490300E+01
499	  0.119799607	-6.990000E+00	  0.119799607	3.505800E+01	  0.119799607	8.549400E+01	  0.119799607	5.489800E+01
500	  0.120000005	-6.992000E+00	  0.120000005	3.484200E+01	  0.120000005	8.584500E+01	  0.120000005	5.480500E+01
