! Anritsu VNA Master:             	Model: MS2036C/10/77
! SN:             	1601066
! /card0/usr/18may27.balun/252b.r200.txt
! Existing Calibration Information:
! TYPE:             	Current Settings	Active Cal Settings
! TIME:             	05/27/2018 12:08:07 PM	05/27/2018 11:54:56 AM
! INTERNAL TEMP:    	51.5 C	49.3 C
! # POINTS:         	500	500
! START FREQ:       	20.000 MHz	20.000 MHz
! STOP FREQ:        	120.000 MHz	120.000 MHz
! SOURCE POWER:     	High	High
! IFBW:             	50 Hz	50 Hz
! AVG FACTOR:       	  1 	  1 
! REF PLANE 1:      	0 mm	0 mm
! REF PLANE 2:      	0 mm	0 mm
! CAL TYPE:         	Full S11	Full S11
! CAL METHOD:       	SOLT	SOLT
! CAL LINE TYPE:    	Coax	Coax
! DUT PORT 1:       	K-Conn(M)	K-Conn(M)
! DUT PORT 2:       	K-Conn(M)	K-Conn(M)
! CAL STATUS:       	OK: Accuracy High	--
! PROP-V:       	0.700
! CABLE LOSS:       	0.000 dB/m
! REF IMPEDANCE:       	50.0
! Trace Specific Parameters:	TR1	TR2	TR3	TR4
! TRACE.#.Y (GRAPH TYPE)	LOG MAG	PHASE	REAL IMPEDANCE	IMAGINARY IMPEDANCE
! TRACE.#.X 	FREQ.GHZ	FREQ.GHZ	FREQ.GHZ	FREQ.GHZ
! S-PARAMETER	S11	S11	S11	S11
! SMOOTH/APERTURE %	0	0	0	0
! WINDOW	NSL	NSL	NSL	NSL
! GATING	OFF	OFF	OFF	OFF
! FGTD	OFF	OFF	OFF	OFF
Marker Information per Trace:	TR1	TR2	TR3	TR4
!MK1	--	--	--	"MK1 TR4:  70.100 200 MHz,Z:(30.267 ohm, -52.389 ohm)"
!MK2	--	--	--	--
!MK3	--	--	--	--
!MK4	--	--	--	--
!MK5	--	--	--	--
!MK6	--	--	--	--
!MK7	--	--	--	--
!MK8	--	--	--	--
PNT	TR1.FREQ.GHZ	TR1.LOG MAG.dB	TR2.FREQ.GHZ	TR2.PHASE.deg	TR3.FREQ.GHZ	TR3.REAL IMPEDANCE.ohm	TR4.FREQ.GHZ	TR4.IMAGINARY IMPEDANCE.ohm
1	  0.020000000	-4.543000E+00	  0.020000000	-2.183200E+01	  0.020000000	1.292670E+02	  0.020000000	-8.784900E+01
2	  0.020200402	-4.544000E+00	  0.020200402	-2.204100E+01	  0.020200402	1.284370E+02	  0.020200402	-8.805900E+01
3	  0.020400802	-4.540000E+00	  0.020400802	-2.224500E+01	  0.020400802	1.276510E+02	  0.020400802	-8.835700E+01
4	  0.020601204	-4.539000E+00	  0.020601204	-2.243200E+01	  0.020601204	1.269280E+02	  0.020601204	-8.858500E+01
5	  0.020801604	-4.540000E+00	  0.020801604	-2.262800E+01	  0.020801604	1.261510E+02	  0.020801604	-8.874800E+01
6	  0.021002004	-4.541000E+00	  0.021002004	-2.281800E+01	  0.021002004	1.254050E+02	  0.021002004	-8.890200E+01
7	  0.021202406	-4.542000E+00	  0.021202406	-2.302600E+01	  0.021202406	1.245930E+02	  0.021202406	-8.908200E+01
8	  0.021402806	-4.546000E+00	  0.021402806	-2.322300E+01	  0.021402806	1.238090E+02	  0.021402806	-8.914800E+01
9	  0.021603208	-4.550000E+00	  0.021603208	-2.341500E+01	  0.021603208	1.230500E+02	  0.021603208	-8.920700E+01
10	  0.021803608	-4.554000E+00	  0.021803608	-2.361200E+01	  0.021803608	1.222770E+02	  0.021803608	-8.926300E+01
11	  0.022004008	-4.558000E+00	  0.022004008	-2.382900E+01	  0.022004008	1.214300E+02	  0.022004008	-8.932500E+01
12	  0.022204408	-4.562000E+00	  0.022204408	-2.404100E+01	  0.022204408	1.206100E+02	  0.022204408	-8.937800E+01
13	  0.022404809	-4.566000E+00	  0.022404809	-2.424900E+01	  0.022404809	1.198140E+02	  0.022404809	-8.942900E+01
14	  0.022605211	-4.572000E+00	  0.022605211	-2.449600E+01	  0.022605211	1.188670E+02	  0.022605211	-8.943800E+01
15	  0.022805611	-4.574000E+00	  0.022805611	-2.475400E+01	  0.022805611	1.179020E+02	  0.022805611	-8.954400E+01
16	  0.023006011	-4.576000E+00	  0.023006011	-2.501100E+01	  0.023006011	1.169520E+02	  0.023006011	-8.964400E+01
17	  0.023206413	-4.575000E+00	  0.023206413	-2.529200E+01	  0.023206413	1.159330E+02	  0.023206413	-8.982600E+01
18	  0.023406813	-4.574000E+00	  0.023406813	-2.554100E+01	  0.023406813	1.150320E+02	  0.023406813	-8.995500E+01
19	  0.023607215	-4.572000E+00	  0.023607215	-2.582600E+01	  0.023607215	1.140140E+02	  0.023607215	-9.013300E+01
20	  0.023807615	-4.572000E+00	  0.023807615	-2.608200E+01	  0.023807615	1.130950E+02	  0.023807615	-9.022300E+01
21	  0.024008015	-4.570000E+00	  0.024008015	-2.635500E+01	  0.024008015	1.121320E+02	  0.024008015	-9.037300E+01
22	  0.024208417	-4.569000E+00	  0.024208417	-2.658500E+01	  0.024208417	1.113220E+02	  0.024208417	-9.046600E+01
23	  0.024408817	-4.570000E+00	  0.024408817	-2.680600E+01	  0.024408817	1.105490E+02	  0.024408817	-9.051200E+01
24	  0.024609219	-4.571000E+00	  0.024609219	-2.701700E+01	  0.024609219	1.098110E+02	  0.024609219	-9.053200E+01
25	  0.024809619	-4.570000E+00	  0.024809619	-2.722900E+01	  0.024809619	1.090800E+02	  0.024809619	-9.061700E+01
26	  0.025010020	-4.569000E+00	  0.025010020	-2.743000E+01	  0.025010020	1.083880E+02	  0.025010020	-9.067100E+01
27	  0.025210422	-4.568000E+00	  0.025210422	-2.765500E+01	  0.025210422	1.076200E+02	  0.025210422	-9.073900E+01
28	  0.025410822	-4.566000E+00	  0.025410822	-2.786500E+01	  0.025410822	1.069080E+02	  0.025410822	-9.079500E+01
29	  0.025611224	-4.564000E+00	  0.025611224	-2.807500E+01	  0.025611224	1.062000E+02	  0.025611224	-9.086200E+01
30	  0.025811624	-4.563000E+00	  0.025811624	-2.827300E+01	  0.025811624	1.055360E+02	  0.025811624	-9.091600E+01
31	  0.026012026	-4.562000E+00	  0.026012026	-2.848400E+01	  0.026012026	1.048320E+02	  0.026012026	-9.093000E+01
32	  0.026212426	-4.562000E+00	  0.026212426	-2.869200E+01	  0.026212426	1.041410E+02	  0.026212426	-9.095500E+01
33	  0.026412826	-4.562000E+00	  0.026412826	-2.892100E+01	  0.026412826	1.033880E+02	  0.026412826	-9.093700E+01
34	  0.026613226	-4.562000E+00	  0.026613226	-2.911300E+01	  0.026613226	1.027600E+02	  0.026613226	-9.094300E+01
35	  0.026813626	-4.560000E+00	  0.026813626	-2.929600E+01	  0.026813626	1.021640E+02	  0.026813626	-9.098200E+01
36	  0.027014028	-4.563000E+00	  0.027014028	-2.946100E+01	  0.027014028	1.016310E+02	  0.027014028	-9.089800E+01
37	  0.027214428	-4.569000E+00	  0.027214428	-2.961600E+01	  0.027214428	1.011370E+02	  0.027214428	-9.076600E+01
38	  0.027414829	-4.573000E+00	  0.027414829	-2.980300E+01	  0.027414829	1.005430E+02	  0.027414829	-9.065400E+01
39	  0.027615231	-4.579000E+00	  0.027615231	-3.000800E+01	  0.027615231	9.989500E+01	  0.027615231	-9.051400E+01
40	  0.027815631	-4.588000E+00	  0.027815631	-3.024600E+01	  0.027815631	9.915700E+01	  0.027815631	-9.028600E+01
41	  0.028016033	-4.598000E+00	  0.028016033	-3.050900E+01	  0.028016033	9.835000E+01	  0.028016033	-9.005300E+01
42	  0.028216433	-4.600000E+00	  0.028216433	-3.079700E+01	  0.028216433	9.746700E+01	  0.028216433	-8.994800E+01
43	  0.028416833	-4.599000E+00	  0.028416833	-3.111800E+01	  0.028416833	9.648700E+01	  0.028416833	-8.990400E+01
44	  0.028617235	-4.597000E+00	  0.028617235	-3.141300E+01	  0.028617235	9.559300E+01	  0.028617235	-8.988500E+01
45	  0.028817635	-4.594000E+00	  0.028817635	-3.171400E+01	  0.028817635	9.469300E+01	  0.028817635	-8.985100E+01
46	  0.029018037	-4.591000E+00	  0.029018037	-3.200100E+01	  0.029018037	9.383700E+01	  0.029018037	-8.983300E+01
47	  0.029218437	-4.585000E+00	  0.029218437	-3.225900E+01	  0.029218437	9.307000E+01	  0.029218437	-8.986000E+01
48	  0.029418837	-4.578000E+00	  0.029418837	-3.248300E+01	  0.029418837	9.240100E+01	  0.029418837	-8.991700E+01
49	  0.029619239	-4.573000E+00	  0.029619239	-3.269300E+01	  0.029619239	9.178000E+01	  0.029619239	-8.994200E+01
50	  0.029819639	-4.565000E+00	  0.029819639	-3.287400E+01	  0.029819639	9.123900E+01	  0.029819639	-9.002200E+01
51	  0.030020041	-4.558000E+00	  0.030020041	-3.303000E+01	  0.030020041	9.077500E+01	  0.030020041	-9.009500E+01
52	  0.030220442	-4.555000E+00	  0.030220442	-3.321100E+01	  0.030220442	9.025000E+01	  0.030220442	-9.007600E+01
53	  0.030420844	-4.556000E+00	  0.030420844	-3.342200E+01	  0.030420844	8.965800E+01	  0.030420844	-8.995800E+01
54	  0.030621244	-4.555000E+00	  0.030621244	-3.361300E+01	  0.030621244	8.912100E+01	  0.030621244	-8.989100E+01
55	  0.030821644	-4.555000E+00	  0.030821644	-3.381100E+01	  0.030821644	8.856600E+01	  0.030821644	-8.980400E+01
56	  0.031022044	-4.555000E+00	  0.031022044	-3.400700E+01	  0.031022044	8.802500E+01	  0.031022044	-8.970900E+01
57	  0.031222444	-4.547000E+00	  0.031222444	-3.415000E+01	  0.031222444	8.760700E+01	  0.031222444	-8.977100E+01
58	  0.031422846	-4.553000E+00	  0.031422846	-3.435300E+01	  0.031422846	8.707400E+01	  0.031422846	-8.955800E+01
59	  0.031623244	-4.556000E+00	  0.031623244	-3.453400E+01	  0.031623244	8.658800E+01	  0.031623244	-8.942500E+01
60	  0.031823646	-4.557000E+00	  0.031823646	-3.473800E+01	  0.031823646	8.604400E+01	  0.031823646	-8.929400E+01
61	  0.032024048	-4.557000E+00	  0.032024048	-3.489000E+01	  0.032024048	8.563900E+01	  0.032024048	-8.920700E+01
62	  0.032224450	-4.559000E+00	  0.032224450	-3.509900E+01	  0.032224450	8.508900E+01	  0.032224450	-8.906800E+01
63	  0.032424849	-4.557000E+00	  0.032424849	-3.526000E+01	  0.032424849	8.465800E+01	  0.032424849	-8.901100E+01
64	  0.032625251	-4.554000E+00	  0.032625251	-3.542700E+01	  0.032625251	8.421000E+01	  0.032625251	-8.895700E+01
65	  0.032825653	-4.557000E+00	  0.032825653	-3.559200E+01	  0.032825653	8.379000E+01	  0.032825653	-8.881000E+01
66	  0.033026051	-4.564000E+00	  0.033026051	-3.575600E+01	  0.033026051	8.339300E+01	  0.033026051	-8.859400E+01
67	  0.033226453	-4.578000E+00	  0.033226453	-3.593600E+01	  0.033226453	8.298400E+01	  0.033226453	-8.825800E+01
68	  0.033426855	-4.587000E+00	  0.033426855	-3.616200E+01	  0.033426855	8.244800E+01	  0.033426855	-8.796500E+01
69	  0.033627257	-4.597000E+00	  0.033627257	-3.644300E+01	  0.033627257	8.178100E+01	  0.033627257	-8.762200E+01
70	  0.033827655	-4.606000E+00	  0.033827655	-3.675300E+01	  0.033827655	8.104600E+01	  0.033827655	-8.729100E+01
71	  0.034028057	-4.612000E+00	  0.034028057	-3.708200E+01	  0.034028057	8.026300E+01	  0.034028057	-8.698500E+01
72	  0.034228459	-4.618000E+00	  0.034228459	-3.737700E+01	  0.034228459	7.957300E+01	  0.034228459	-8.670700E+01
73	  0.034428857	-4.619000E+00	  0.034428857	-3.767700E+01	  0.034428857	7.886000E+01	  0.034428857	-8.649200E+01
74	  0.034629259	-4.613000E+00	  0.034629259	-3.797700E+01	  0.034629259	7.812400E+01	  0.034629259	-8.638500E+01
75	  0.034829661	-4.609000E+00	  0.034829661	-3.829100E+01	  0.034829661	7.736700E+01	  0.034829661	-8.623900E+01
76	  0.035030060	-4.599000E+00	  0.035030060	-3.858200E+01	  0.035030060	7.665200E+01	  0.035030060	-8.617800E+01
77	  0.035230462	-4.592000E+00	  0.035230462	-3.885400E+01	  0.035230462	7.599100E+01	  0.035230462	-8.610100E+01
78	  0.035430863	-4.585000E+00	  0.035430863	-3.907300E+01	  0.035430863	7.546000E+01	  0.035430863	-8.603600E+01
79	  0.035631265	-4.581000E+00	  0.035631265	-3.929300E+01	  0.035631265	7.494300E+01	  0.035631265	-8.594200E+01
80	  0.035831664	-4.579000E+00	  0.035831664	-3.950200E+01	  0.035831664	7.446800E+01	  0.035831664	-8.580800E+01
81	  0.036032066	-4.580000E+00	  0.036032066	-3.972000E+01	  0.036032066	7.398500E+01	  0.036032066	-8.563800E+01
82	  0.036232468	-4.584000E+00	  0.036232468	-3.993800E+01	  0.036232468	7.352400E+01	  0.036232468	-8.541200E+01
83	  0.036432866	-4.580000E+00	  0.036432866	-4.017300E+01	  0.036432866	7.299300E+01	  0.036432866	-8.528500E+01
84	  0.036633268	-4.582000E+00	  0.036633268	-4.039200E+01	  0.036633268	7.253000E+01	  0.036633268	-8.508400E+01
85	  0.036833670	-4.581000E+00	  0.036833670	-4.060600E+01	  0.036833670	7.206700E+01	  0.036833670	-8.492700E+01
86	  0.037034072	-4.583000E+00	  0.037034072	-4.083300E+01	  0.037034072	7.159300E+01	  0.037034072	-8.472100E+01
87	  0.037234470	-4.580000E+00	  0.037234470	-4.102000E+01	  0.037234470	7.118200E+01	  0.037234470	-8.461800E+01
88	  0.037434869	-4.580000E+00	  0.037434869	-4.118700E+01	  0.037434869	7.083200E+01	  0.037434869	-8.448300E+01
89	  0.037635271	-4.574000E+00	  0.037635271	-4.138400E+01	  0.037635271	7.038700E+01	  0.037635271	-8.441100E+01
90	  0.037835669	-4.570000E+00	  0.037835669	-4.159200E+01	  0.037835669	6.993700E+01	  0.037835669	-8.429500E+01
91	  0.038036071	-4.564000E+00	  0.038036071	-4.179900E+01	  0.038036071	6.947900E+01	  0.038036071	-8.420400E+01
92	  0.038236473	-4.557000E+00	  0.038236473	-4.197500E+01	  0.038236473	6.908500E+01	  0.038236473	-8.414600E+01
93	  0.038436871	-4.557000E+00	  0.038436871	-4.209600E+01	  0.038436871	6.884000E+01	  0.038436871	-8.404600E+01
94	  0.038637273	-4.561000E+00	  0.038637273	-4.223700E+01	  0.038637273	6.858000E+01	  0.038637273	-8.386900E+01
95	  0.038837675	-4.571000E+00	  0.038837675	-4.240300E+01	  0.038837675	6.829900E+01	  0.038837675	-8.360500E+01
96	  0.039038073	-4.582000E+00	  0.039038073	-4.261200E+01	  0.039038073	6.794500E+01	  0.039038073	-8.328500E+01
97	  0.039238475	-4.594000E+00	  0.039238475	-4.283600E+01	  0.039238475	6.757400E+01	  0.039238475	-8.293900E+01
98	  0.039438877	-4.600000E+00	  0.039438877	-4.309500E+01	  0.039438877	6.710300E+01	  0.039438877	-8.264400E+01
99	  0.039639279	-4.606000E+00	  0.039639279	-4.334400E+01	  0.039639279	6.665900E+01	  0.039639279	-8.235500E+01
100	  0.039839678	-4.612000E+00	  0.039839678	-4.359000E+01	  0.039839678	6.622000E+01	  0.039839678	-8.207600E+01
101	  0.040040080	-4.609000E+00	  0.040040080	-4.386500E+01	  0.040040080	6.568800E+01	  0.040040080	-8.187400E+01
102	  0.040240481	-4.606000E+00	  0.040240481	-4.411200E+01	  0.040240481	6.520700E+01	  0.040240481	-8.170100E+01
103	  0.040440880	-4.600000E+00	  0.040440880	-4.436900E+01	  0.040440880	6.469700E+01	  0.040440880	-8.155600E+01
104	  0.040641282	-4.596000E+00	  0.040641282	-4.458000E+01	  0.040641282	6.428500E+01	  0.040641282	-8.142100E+01
105	  0.040841684	-4.589000E+00	  0.040841684	-4.477700E+01	  0.040841684	6.388800E+01	  0.040841684	-8.133100E+01
106	  0.041042086	-4.591000E+00	  0.041042086	-4.496000E+01	  0.041042086	6.357000E+01	  0.041042086	-8.114500E+01
107	  0.041242484	-4.596000E+00	  0.041242484	-4.514200E+01	  0.041242484	6.327200E+01	  0.041242484	-8.092800E+01
108	  0.041442886	-4.599000E+00	  0.041442886	-4.533800E+01	  0.041442886	6.294100E+01	  0.041442886	-8.071700E+01
109	  0.041643288	-4.605000E+00	  0.041643288	-4.558400E+01	  0.041643288	6.253900E+01	  0.041643288	-8.043500E+01
110	  0.041843686	-4.613000E+00	  0.041843686	-4.582300E+01	  0.041843686	6.216900E+01	  0.041843686	-8.012900E+01
111	  0.042044088	-4.617000E+00	  0.042044088	-4.607400E+01	  0.042044088	6.176200E+01	  0.042044088	-7.985400E+01
112	  0.042244490	-4.620000E+00	  0.042244490	-4.628100E+01	  0.042244490	6.142100E+01	  0.042244490	-7.964600E+01
113	  0.042444889	-4.622000E+00	  0.042444889	-4.651900E+01	  0.042444889	6.103100E+01	  0.042444889	-7.940500E+01
114	  0.042645290	-4.625000E+00	  0.042645290	-4.676800E+01	  0.042645290	6.062700E+01	  0.042645290	-7.915800E+01
115	  0.042845692	-4.628000E+00	  0.042845692	-4.701400E+01	  0.042845692	6.023400E+01	  0.042845692	-7.890500E+01
116	  0.043046094	-4.625000E+00	  0.043046094	-4.728200E+01	  0.043046094	5.977400E+01	  0.043046094	-7.870000E+01
117	  0.043246493	-4.623000E+00	  0.043246493	-4.754400E+01	  0.043246493	5.933400E+01	  0.043246493	-7.848700E+01
118	  0.043446895	-4.616000E+00	  0.043446895	-4.782500E+01	  0.043446895	5.884000E+01	  0.043446895	-7.830500E+01
119	  0.043647297	-4.611000E+00	  0.043647297	-4.804800E+01	  0.043647297	5.845500E+01	  0.043647297	-7.815400E+01
120	  0.043847695	-4.608000E+00	  0.043847695	-4.825800E+01	  0.043847695	5.810300E+01	  0.043847695	-7.799400E+01
121	  0.044048097	-4.611000E+00	  0.044048097	-4.844300E+01	  0.044048097	5.782500E+01	  0.044048097	-7.780200E+01
122	  0.044248499	-4.617000E+00	  0.044248499	-4.867100E+01	  0.044248499	5.750400E+01	  0.044248499	-7.753300E+01
123	  0.044448901	-4.624000E+00	  0.044448901	-4.893400E+01	  0.044448901	5.714100E+01	  0.044448901	-7.722200E+01
124	  0.044649299	-4.626000E+00	  0.044649299	-4.920300E+01	  0.044649299	5.674400E+01	  0.044649299	-7.695300E+01
125	  0.044849701	-4.628000E+00	  0.044849701	-4.949200E+01	  0.044849701	5.631400E+01	  0.044849701	-7.667400E+01
126	  0.045050103	-4.629000E+00	  0.045050103	-4.976600E+01	  0.045050103	5.591200E+01	  0.045050103	-7.640900E+01
127	  0.045250501	-4.623000E+00	  0.045250501	-5.004200E+01	  0.045250501	5.546600E+01	  0.045250501	-7.622000E+01
128	  0.045450903	-4.615000E+00	  0.045450903	-5.031600E+01	  0.045450903	5.501800E+01	  0.045450903	-7.604300E+01
129	  0.045651305	-4.607000E+00	  0.045651305	-5.057200E+01	  0.045651305	5.459600E+01	  0.045651305	-7.588600E+01
130	  0.045851704	-4.596000E+00	  0.045851704	-5.082700E+01	  0.045851704	5.416100E+01	  0.045851704	-7.575700E+01
131	  0.046052106	-4.584000E+00	  0.046052106	-5.101000E+01	  0.046052106	5.382800E+01	  0.046052106	-7.569800E+01
132	  0.046252504	-4.576000E+00	  0.046252504	-5.119400E+01	  0.046252504	5.351500E+01	  0.046252504	-7.560300E+01
133	  0.046452906	-4.573000E+00	  0.046452906	-5.136000E+01	  0.046452906	5.326300E+01	  0.046452906	-7.547700E+01
134	  0.046653304	-4.576000E+00	  0.046653304	-5.149200E+01	  0.046653304	5.309400E+01	  0.046653304	-7.532900E+01
135	  0.046853706	-4.577000E+00	  0.046853706	-5.164000E+01	  0.046853706	5.289600E+01	  0.046853706	-7.517900E+01
136	  0.047054108	-4.579000E+00	  0.047054108	-5.180300E+01	  0.047054108	5.268300E+01	  0.047054108	-7.500900E+01
137	  0.047254506	-4.578000E+00	  0.047254506	-5.197400E+01	  0.047254506	5.244500E+01	  0.047254506	-7.485200E+01
138	  0.047454908	-4.580000E+00	  0.047454908	-5.210900E+01	  0.047454908	5.227200E+01	  0.047454908	-7.471100E+01
139	  0.047655310	-4.583000E+00	  0.047655310	-5.226700E+01	  0.047655310	5.207500E+01	  0.047655310	-7.453500E+01
140	  0.047855709	-4.590000E+00	  0.047855709	-5.243400E+01	  0.047855709	5.189300E+01	  0.047855709	-7.431700E+01
141	  0.048056111	-4.593000E+00	  0.048056111	-5.260300E+01	  0.048056111	5.168300E+01	  0.048056111	-7.413600E+01
142	  0.048256513	-4.596000E+00	  0.048256513	-5.278700E+01	  0.048256513	5.145500E+01	  0.048256513	-7.394100E+01
143	  0.048456915	-4.598000E+00	  0.048456915	-5.300200E+01	  0.048456915	5.118300E+01	  0.048456915	-7.372400E+01
144	  0.048657313	-4.597000E+00	  0.048657313	-5.319900E+01	  0.048657313	5.091900E+01	  0.048657313	-7.354900E+01
145	  0.048857715	-4.599000E+00	  0.048857715	-5.339600E+01	  0.048857715	5.067600E+01	  0.048857715	-7.334800E+01
146	  0.049058117	-4.604000E+00	  0.049058117	-5.355800E+01	  0.049058117	5.049900E+01	  0.049058117	-7.315100E+01
147	  0.049258515	-4.609000E+00	  0.049258515	-5.373500E+01	  0.049258515	5.029800E+01	  0.049258515	-7.295100E+01
148	  0.049458917	-4.619000E+00	  0.049458917	-5.393100E+01	  0.049458917	5.010900E+01	  0.049458917	-7.268600E+01
149	  0.049659319	-4.628000E+00	  0.049659319	-5.417900E+01	  0.049659319	4.985000E+01	  0.049659319	-7.238200E+01
150	  0.049859721	-4.637000E+00	  0.049859721	-5.442100E+01	  0.049859721	4.960500E+01	  0.049859721	-7.208200E+01
151	  0.050060119	-4.648000E+00	  0.050060119	-5.470700E+01	  0.050060119	4.931300E+01	  0.050060119	-7.173400E+01
152	  0.050260521	-4.655000E+00	  0.050260521	-5.499200E+01	  0.050260521	4.900500E+01	  0.050260521	-7.141800E+01
153	  0.050460923	-4.663000E+00	  0.050460923	-5.529700E+01	  0.050460923	4.868100E+01	  0.050460923	-7.108000E+01
154	  0.050661322	-4.666000E+00	  0.050661322	-5.562600E+01	  0.050661322	4.830400E+01	  0.050661322	-7.075700E+01
155	  0.050861724	-4.661000E+00	  0.050861724	-5.594300E+01	  0.050861724	4.789700E+01	  0.050861724	-7.051200E+01
156	  0.051062126	-4.655000E+00	  0.051062126	-5.628100E+01	  0.051062126	4.746600E+01	  0.051062126	-7.025200E+01
157	  0.051262524	-4.647000E+00	  0.051262524	-5.655000E+01	  0.051262524	4.710700E+01	  0.051262524	-7.006900E+01
158	  0.051462926	-4.643000E+00	  0.051462926	-5.683700E+01	  0.051462926	4.675300E+01	  0.051462926	-6.984100E+01
159	  0.051663328	-4.636000E+00	  0.051663328	-5.706300E+01	  0.051663328	4.645700E+01	  0.051663328	-6.968600E+01
160	  0.051863730	-4.634000E+00	  0.051863730	-5.729800E+01	  0.051863730	4.618200E+01	  0.051863730	-6.948500E+01
161	  0.052064128	-4.634000E+00	  0.052064128	-5.753500E+01	  0.052064128	4.591700E+01	  0.052064128	-6.927100E+01
162	  0.052264530	-4.631000E+00	  0.052264530	-5.777800E+01	  0.052264530	4.562900E+01	  0.052264530	-6.907600E+01
163	  0.052464932	-4.628000E+00	  0.052464932	-5.799900E+01	  0.052464932	4.536900E+01	  0.052464932	-6.889800E+01
164	  0.052665330	-4.625000E+00	  0.052665330	-5.820700E+01	  0.052665330	4.512700E+01	  0.052665330	-6.872800E+01
165	  0.052865732	-4.626000E+00	  0.052865732	-5.840900E+01	  0.052865732	4.491300E+01	  0.052865732	-6.854100E+01
166	  0.053066134	-4.623000E+00	  0.053066134	-5.860500E+01	  0.053066134	4.468300E+01	  0.053066134	-6.838700E+01
167	  0.053266536	-4.621000E+00	  0.053266536	-5.881700E+01	  0.053266536	4.445100E+01	  0.053266536	-6.820300E+01
168	  0.053466935	-4.619000E+00	  0.053466935	-5.903600E+01	  0.053466935	4.420600E+01	  0.053466935	-6.802300E+01
169	  0.053667337	-4.617000E+00	  0.053667337	-5.926400E+01	  0.053667337	4.395800E+01	  0.053667337	-6.782900E+01
170	  0.053867739	-4.614000E+00	  0.053867739	-5.946500E+01	  0.053867739	4.372700E+01	  0.053867739	-6.767300E+01
171	  0.054068137	-4.616000E+00	  0.054068137	-5.966400E+01	  0.054068137	4.353700E+01	  0.054068137	-6.747600E+01
172	  0.054268539	-4.612000E+00	  0.054268539	-5.985200E+01	  0.054268539	4.332100E+01	  0.054268539	-6.733500E+01
173	  0.054468941	-4.613000E+00	  0.054468941	-6.000500E+01	  0.054468941	4.317400E+01	  0.054468941	-6.718700E+01
174	  0.054669339	-4.615000E+00	  0.054669339	-6.017600E+01	  0.054669339	4.301300E+01	  0.054669339	-6.702100E+01
175	  0.054869737	-4.620000E+00	  0.054869737	-6.036600E+01	  0.054869737	4.284900E+01	  0.054869737	-6.682200E+01
176	  0.055070139	-4.626000E+00	  0.055070139	-6.054600E+01	  0.055070139	4.270300E+01	  0.055070139	-6.662100E+01
177	  0.055270538	-4.636000E+00	  0.055270538	-6.075600E+01	  0.055270538	4.255700E+01	  0.055270538	-6.636600E+01
178	  0.055470940	-4.643000E+00	  0.055470940	-6.097000E+01	  0.055470940	4.239000E+01	  0.055470940	-6.613000E+01
179	  0.055671342	-4.647000E+00	  0.055671342	-6.121900E+01	  0.055671342	4.217000E+01	  0.055671342	-6.588300E+01
180	  0.055871744	-4.653000E+00	  0.055871744	-6.150400E+01	  0.055871744	4.193000E+01	  0.055871744	-6.559400E+01
181	  0.056072142	-4.654000E+00	  0.056072142	-6.178500E+01	  0.056072142	4.166400E+01	  0.056072142	-6.534400E+01
182	  0.056272544	-4.649000E+00	  0.056272544	-6.205500E+01	  0.056272544	4.138100E+01	  0.056272544	-6.513700E+01
183	  0.056472946	-4.647000E+00	  0.056472946	-6.230700E+01	  0.056472946	4.113200E+01	  0.056472946	-6.493000E+01
184	  0.056673344	-4.647000E+00	  0.056673344	-6.256000E+01	  0.056673344	4.089600E+01	  0.056673344	-6.470900E+01
185	  0.056873746	-4.643000E+00	  0.056873746	-6.281000E+01	  0.056873746	4.064400E+01	  0.056873746	-6.451400E+01
186	  0.057074148	-4.637000E+00	  0.057074148	-6.301400E+01	  0.057074148	4.042800E+01	  0.057074148	-6.436800E+01
187	  0.057274550	-4.639000E+00	  0.057274550	-6.322500E+01	  0.057274550	4.024300E+01	  0.057274550	-6.417600E+01
188	  0.057474948	-4.638000E+00	  0.057474948	-6.344900E+01	  0.057474948	4.003700E+01	  0.057474948	-6.398600E+01
189	  0.057675350	-4.633000E+00	  0.057675350	-6.365900E+01	  0.057675350	3.982100E+01	  0.057675350	-6.383300E+01
190	  0.057875752	-4.636000E+00	  0.057875752	-6.387800E+01	  0.057875752	3.964600E+01	  0.057875752	-6.362400E+01
191	  0.058076151	-4.635000E+00	  0.058076151	-6.405200E+01	  0.058076151	3.949100E+01	  0.058076151	-6.347600E+01
192	  0.058276553	-4.636000E+00	  0.058276553	-6.424100E+01	  0.058276553	3.933100E+01	  0.058276553	-6.330600E+01
193	  0.058476955	-4.634000E+00	  0.058476955	-6.445300E+01	  0.058476955	3.913400E+01	  0.058476955	-6.313500E+01
194	  0.058677353	-4.638000E+00	  0.058677353	-6.466900E+01	  0.058677353	3.897200E+01	  0.058677353	-6.292600E+01
195	  0.058877755	-4.641000E+00	  0.058877755	-6.489600E+01	  0.058877755	3.879700E+01	  0.058877755	-6.271300E+01
196	  0.059078157	-4.640000E+00	  0.059078157	-6.511900E+01	  0.059078157	3.859900E+01	  0.059078157	-6.253100E+01
197	  0.059278559	-4.643000E+00	  0.059278559	-6.535100E+01	  0.059278559	3.842100E+01	  0.059278559	-6.231400E+01
198	  0.059478957	-4.640000E+00	  0.059478957	-6.553400E+01	  0.059478957	3.825400E+01	  0.059478957	-6.217300E+01
199	  0.059679359	-4.639000E+00	  0.059679359	-6.572800E+01	  0.059679359	3.809000E+01	  0.059679359	-6.200900E+01
200	  0.059879761	-4.644000E+00	  0.059879761	-6.592800E+01	  0.059879761	3.795400E+01	  0.059879761	-6.181200E+01
201	  0.060080159	-4.648000E+00	  0.060080159	-6.612500E+01	  0.060080159	3.781400E+01	  0.060080159	-6.162500E+01
202	  0.060280561	-4.655000E+00	  0.060280561	-6.631400E+01	  0.060280561	3.769900E+01	  0.060280561	-6.142800E+01
203	  0.060480963	-4.662000E+00	  0.060480963	-6.652600E+01	  0.060480963	3.756500E+01	  0.060480963	-6.121300E+01
204	  0.060681365	-4.671000E+00	  0.060681365	-6.675600E+01	  0.060681365	3.743200E+01	  0.060681365	-6.097100E+01
205	  0.060881764	-4.680000E+00	  0.060881764	-6.701500E+01	  0.060881764	3.727700E+01	  0.060881764	-6.070500E+01
206	  0.061082166	-4.687000E+00	  0.061082166	-6.727200E+01	  0.061082166	3.711300E+01	  0.061082166	-6.045500E+01
207	  0.061282568	-4.692000E+00	  0.061282568	-6.756100E+01	  0.061282568	3.691400E+01	  0.061282568	-6.019000E+01
208	  0.061482966	-4.692000E+00	  0.061482966	-6.785900E+01	  0.061482966	3.668700E+01	  0.061482966	-5.994100E+01
209	  0.061683368	-4.694000E+00	  0.061683368	-6.815700E+01	  0.061683368	3.647200E+01	  0.061683368	-5.968300E+01
210	  0.061883770	-4.693000E+00	  0.061883770	-6.844800E+01	  0.061883770	3.624500E+01	  0.061883770	-5.945000E+01
211	  0.062084168	-4.692000E+00	  0.062084168	-6.872000E+01	  0.062084168	3.603300E+01	  0.062084168	-5.923300E+01
212	  0.062284570	-4.689000E+00	  0.062284570	-6.897700E+01	  0.062284570	3.582800E+01	  0.062284570	-5.903500E+01
213	  0.062484972	-4.682000E+00	  0.062484972	-6.921300E+01	  0.062484972	3.561900E+01	  0.062484972	-5.887400E+01
214	  0.062685370	-4.677000E+00	  0.062685370	-6.946200E+01	  0.062685370	3.540700E+01	  0.062685370	-5.869500E+01
215	  0.062885776	-4.672000E+00	  0.062885776	-6.967400E+01	  0.062885776	3.523100E+01	  0.062885776	-5.854300E+01
216	  0.063086174	-4.674000E+00	  0.063086174	-6.992400E+01	  0.063086174	3.505800E+01	  0.063086174	-5.833200E+01
217	  0.063286573	-4.671000E+00	  0.063286573	-7.015500E+01	  0.063286573	3.487900E+01	  0.063286573	-5.815700E+01
218	  0.063486971	-4.667000E+00	  0.063486971	-7.036300E+01	  0.063486971	3.470900E+01	  0.063486971	-5.800800E+01
219	  0.063687377	-4.665000E+00	  0.063687377	-7.060100E+01	  0.063687377	3.453300E+01	  0.063687377	-5.782300E+01
220	  0.063887775	-4.661000E+00	  0.063887775	-7.082000E+01	  0.063887775	3.436000E+01	  0.063887775	-5.766400E+01
221	  0.064088173	-4.656000E+00	  0.064088173	-7.102500E+01	  0.064088173	3.419500E+01	  0.064088173	-5.751700E+01
222	  0.064288579	-4.661000E+00	  0.064288579	-7.123000E+01	  0.064288579	3.408000E+01	  0.064288579	-5.733000E+01
223	  0.064488977	-4.660000E+00	  0.064488977	-7.145200E+01	  0.064488977	3.392000E+01	  0.064488977	-5.715900E+01
224	  0.064689375	-4.655000E+00	  0.064689375	-7.167400E+01	  0.064689375	3.374500E+01	  0.064689375	-5.700100E+01
225	  0.064889781	-4.652000E+00	  0.064889781	-7.185600E+01	  0.064889781	3.361000E+01	  0.064889781	-5.686600E+01
226	  0.065090179	-4.650000E+00	  0.065090179	-7.201800E+01	  0.065090179	3.349000E+01	  0.065090179	-5.674600E+01
227	  0.065290578	-4.650000E+00	  0.065290578	-7.220500E+01	  0.065290578	3.336400E+01	  0.065290578	-5.659700E+01
228	  0.065490983	-4.651000E+00	  0.065490983	-7.238400E+01	  0.065490983	3.325500E+01	  0.065490983	-5.644800E+01
229	  0.065691382	-4.656000E+00	  0.065691382	-7.256300E+01	  0.065691382	3.316200E+01	  0.065691382	-5.628500E+01
230	  0.065891780	-4.663000E+00	  0.065891780	-7.272800E+01	  0.065891780	3.309200E+01	  0.065891780	-5.612400E+01
231	  0.066092186	-4.663000E+00	  0.066092186	-7.294800E+01	  0.066092186	3.295300E+01	  0.066092186	-5.594600E+01
232	  0.066292584	-4.671000E+00	  0.066292584	-7.317500E+01	  0.066292584	3.284500E+01	  0.066292584	-5.573600E+01
233	  0.066492982	-4.677000E+00	  0.066492982	-7.339900E+01	  0.066492982	3.273800E+01	  0.066492982	-5.553100E+01
234	  0.066693388	-4.677000E+00	  0.066693388	-7.365400E+01	  0.066693388	3.257700E+01	  0.066693388	-5.532900E+01
235	  0.066893786	-4.685000E+00	  0.066893786	-7.392400E+01	  0.066893786	3.244600E+01	  0.066893786	-5.508800E+01
236	  0.067094192	-4.687000E+00	  0.067094192	-7.416200E+01	  0.067094192	3.231000E+01	  0.067094192	-5.489300E+01
237	  0.067294590	-4.686000E+00	  0.067294590	-7.443800E+01	  0.067294590	3.213200E+01	  0.067294590	-5.468300E+01
238	  0.067494988	-4.686000E+00	  0.067494988	-7.469100E+01	  0.067494988	3.197900E+01	  0.067494988	-5.448600E+01
239	  0.067695394	-4.682000E+00	  0.067695394	-7.494000E+01	  0.067695394	3.180900E+01	  0.067695394	-5.430800E+01
240	  0.067895792	-4.680000E+00	  0.067895792	-7.513200E+01	  0.067895792	3.168500E+01	  0.067895792	-5.416600E+01
241	  0.068096191	-4.680000E+00	  0.068096191	-7.537900E+01	  0.068096191	3.153600E+01	  0.068096191	-5.397600E+01
242	  0.068296596	-4.676000E+00	  0.068296596	-7.560800E+01	  0.068296596	3.138200E+01	  0.068296596	-5.381400E+01
243	  0.068496995	-4.675000E+00	  0.068496995	-7.583100E+01	  0.068496995	3.124300E+01	  0.068496995	-5.364900E+01
244	  0.068697393	-4.669000E+00	  0.068697393	-7.602400E+01	  0.068697393	3.110000E+01	  0.068697393	-5.352400E+01
245	  0.068897791	-4.668000E+00	  0.068897791	-7.621600E+01	  0.068897791	3.098300E+01	  0.068897791	-5.338100E+01
246	  0.069098189	-4.669000E+00	  0.069098189	-7.645400E+01	  0.069098189	3.085300E+01	  0.069098189	-5.319400E+01
247	  0.069298595	-4.673000E+00	  0.069298595	-7.667600E+01	  0.069298595	3.074500E+01	  0.069298595	-5.301000E+01
248	  0.069498993	-4.673000E+00	  0.069498993	-7.688000E+01	  0.069498993	3.062800E+01	  0.069498993	-5.285600E+01
249	  0.069699399	-4.666000E+00	  0.069699399	-7.707900E+01	  0.069699399	3.048400E+01	  0.069699399	-5.272800E+01
250	  0.069899797	-4.670000E+00	  0.069899797	-7.727600E+01	  0.069899797	3.039400E+01	  0.069899797	-5.256400E+01
251	  0.070100196	-4.670000E+00	  0.070100196	-7.750800E+01	  0.070100196	3.026600E+01	  0.070100196	-5.238800E+01
252	  0.070300601	-4.674000E+00	  0.070300601	-7.771200E+01	  0.070300601	3.017300E+01	  0.070300601	-5.222000E+01
253	  0.070501000	-4.672000E+00	  0.070501000	-7.790600E+01	  0.070501000	3.005800E+01	  0.070501000	-5.208100E+01
254	  0.070701398	-4.674000E+00	  0.070701398	-7.807700E+01	  0.070701398	2.997000E+01	  0.070701398	-5.194800E+01
255	  0.070901804	-4.675000E+00	  0.070901804	-7.828300E+01	  0.070901804	2.986700E+01	  0.070901804	-5.178700E+01
256	  0.071102202	-4.684000E+00	  0.071102202	-7.846800E+01	  0.071102202	2.980800E+01	  0.071102202	-5.161900E+01
257	  0.071302600	-4.684000E+00	  0.071302600	-7.866900E+01	  0.071302600	2.970500E+01	  0.071302600	-5.146700E+01
258	  0.071503006	-4.692000E+00	  0.071503006	-7.894200E+01	  0.071503006	2.959600E+01	  0.071503006	-5.123700E+01
259	  0.071703404	-4.700000E+00	  0.071703404	-7.917200E+01	  0.071703404	2.951400E+01	  0.071703404	-5.104000E+01
260	  0.071903802	-4.705000E+00	  0.071903802	-7.942100E+01	  0.071903802	2.940800E+01	  0.071903802	-5.083900E+01
261	  0.072104208	-4.715000E+00	  0.072104208	-7.969300E+01	  0.072104208	2.931600E+01	  0.072104208	-5.060300E+01
262	  0.072304606	-4.726000E+00	  0.072304606	-7.998800E+01	  0.072304606	2.921400E+01	  0.072304606	-5.035200E+01
263	  0.072505005	-4.723000E+00	  0.072505005	-8.028300E+01	  0.072505005	2.905100E+01	  0.072505005	-5.014600E+01
264	  0.072705410	-4.735000E+00	  0.072705410	-8.055700E+01	  0.072705410	2.896700E+01	  0.072705410	-4.990800E+01
265	  0.072905809	-4.731000E+00	  0.072905809	-8.085500E+01	  0.072905809	2.880100E+01	  0.072905809	-4.970500E+01
266	  0.073106214	-4.728000E+00	  0.073106214	-8.113000E+01	  0.073106214	2.865000E+01	  0.073106214	-4.951600E+01
267	  0.073306613	-4.724000E+00	  0.073306613	-8.138400E+01	  0.073306613	2.850500E+01	  0.073306613	-4.934600E+01
268	  0.073507011	-4.724000E+00	  0.073507011	-8.166400E+01	  0.073507011	2.836800E+01	  0.073507011	-4.914500E+01
269	  0.073707417	-4.715000E+00	  0.073707417	-8.193600E+01	  0.073707417	2.819400E+01	  0.073707417	-4.897800E+01
270	  0.073907815	-4.714000E+00	  0.073907815	-8.215700E+01	  0.073907815	2.808500E+01	  0.073907815	-4.882200E+01
271	  0.074108213	-4.702000E+00	  0.074108213	-8.237700E+01	  0.074108213	2.792300E+01	  0.074108213	-4.870400E+01
272	  0.074308619	-4.703000E+00	  0.074308619	-8.263700E+01	  0.074308619	2.780400E+01	  0.074308619	-4.851500E+01
273	  0.074509017	-4.698000E+00	  0.074509017	-8.285400E+01	  0.074509017	2.767700E+01	  0.074509017	-4.837800E+01
274	  0.074709415	-4.697000E+00	  0.074709415	-8.307300E+01	  0.074709415	2.757300E+01	  0.074709415	-4.822400E+01
275	  0.074909821	-4.694000E+00	  0.074909821	-8.328300E+01	  0.074909821	2.745900E+01	  0.074909821	-4.808500E+01
276	  0.075110219	-4.688000E+00	  0.075110219	-8.349000E+01	  0.075110219	2.733500E+01	  0.075110219	-4.795700E+01
277	  0.075310618	-4.683000E+00	  0.075310618	-8.374100E+01	  0.075310618	2.719800E+01	  0.075310618	-4.779500E+01
278	  0.075511023	-4.680000E+00	  0.075511023	-8.393700E+01	  0.075511023	2.709900E+01	  0.075511023	-4.766300E+01
279	  0.075711422	-4.682000E+00	  0.075711422	-8.410000E+01	  0.075711422	2.703200E+01	  0.075711422	-4.754500E+01
280	  0.075911827	-4.677000E+00	  0.075911827	-8.429500E+01	  0.075911827	2.692400E+01	  0.075911827	-4.742100E+01
281	  0.076112226	-4.677000E+00	  0.076112226	-8.451300E+01	  0.076112226	2.682500E+01	  0.076112226	-4.726900E+01
282	  0.076312624	-4.674000E+00	  0.076312624	-8.464100E+01	  0.076312624	2.675500E+01	  0.076312624	-4.718800E+01
283	  0.076513030	-4.671000E+00	  0.076513030	-8.482600E+01	  0.076513030	2.666000E+01	  0.076513030	-4.706700E+01
284	  0.076713428	-4.679000E+00	  0.076713428	-8.501000E+01	  0.076713428	2.661800E+01	  0.076713428	-4.691500E+01
285	  0.076913826	-4.685000E+00	  0.076913826	-8.521300E+01	  0.076913826	2.655400E+01	  0.076913826	-4.675800E+01
286	  0.077114232	-4.689000E+00	  0.077114232	-8.539000E+01	  0.077114232	2.649600E+01	  0.077114232	-4.662400E+01
287	  0.077314630	-4.695000E+00	  0.077314630	-8.563300E+01	  0.077314630	2.641900E+01	  0.077314630	-4.643900E+01
288	  0.077515028	-4.710000E+00	  0.077515028	-8.585500E+01	  0.077515028	2.639400E+01	  0.077515028	-4.624200E+01
289	  0.077715434	-4.712000E+00	  0.077715434	-8.608100E+01	  0.077715434	2.630500E+01	  0.077715434	-4.608200E+01
290	  0.077915832	-4.720000E+00	  0.077915832	-8.636100E+01	  0.077915832	2.622700E+01	  0.077915832	-4.586600E+01
291	  0.078116231	-4.728000E+00	  0.078116231	-8.661000E+01	  0.078116231	2.615600E+01	  0.078116231	-4.567600E+01
292	  0.078316636	-4.733000E+00	  0.078316636	-8.687600E+01	  0.078316636	2.606900E+01	  0.078316636	-4.548100E+01
293	  0.078517035	-4.733000E+00	  0.078517035	-8.712300E+01	  0.078517035	2.596600E+01	  0.078517035	-4.531400E+01
294	  0.078717433	-4.728000E+00	  0.078717433	-8.740200E+01	  0.078717433	2.583000E+01	  0.078717433	-4.513900E+01
295	  0.078917839	-4.730000E+00	  0.078917839	-8.766500E+01	  0.078917839	2.573200E+01	  0.078917839	-4.495600E+01
296	  0.079118237	-4.729000E+00	  0.079118237	-8.791700E+01	  0.079118237	2.562800E+01	  0.079118237	-4.478800E+01
297	  0.079318643	-4.725000E+00	  0.079318643	-8.816200E+01	  0.079318643	2.551400E+01	  0.079318643	-4.463300E+01
298	  0.079519041	-4.724000E+00	  0.079519041	-8.840300E+01	  0.079519041	2.541200E+01	  0.079519041	-4.447600E+01
299	  0.079719439	-4.726000E+00	  0.079719439	-8.864800E+01	  0.079719439	2.532700E+01	  0.079719439	-4.430600E+01
300	  0.079919845	-4.721000E+00	  0.079919845	-8.887900E+01	  0.079919845	2.521200E+01	  0.079919845	-4.416600E+01
301	  0.080120243	-4.723000E+00	  0.080120243	-8.909900E+01	  0.080120243	2.513600E+01	  0.080120243	-4.401400E+01
302	  0.080320641	-4.722000E+00	  0.080320641	-8.935100E+01	  0.080320641	2.503600E+01	  0.080320641	-4.384900E+01
303	  0.080521047	-4.723000E+00	  0.080521047	-8.957300E+01	  0.080521047	2.495300E+01	  0.080521047	-4.370100E+01
304	  0.080721445	-4.718000E+00	  0.080721445	-8.981400E+01	  0.080721445	2.484100E+01	  0.080721445	-4.355400E+01
305	  0.080921844	-4.720000E+00	  0.080921844	-9.005100E+01	  0.080921844	2.476100E+01	  0.080921844	-4.339200E+01
306	  0.081122249	-4.719000E+00	  0.081122249	-9.028800E+01	  0.081122249	2.466600E+01	  0.081122249	-4.324100E+01
307	  0.081322648	-4.718000E+00	  0.081322648	-9.044900E+01	  0.081322648	2.460400E+01	  0.081322648	-4.313600E+01
308	  0.081523046	-4.717000E+00	  0.081523046	-9.069400E+01	  0.081523046	2.450800E+01	  0.081523046	-4.297900E+01
309	  0.081723452	-4.711000E+00	  0.081723452	-9.087900E+01	  0.081723452	2.441600E+01	  0.081723452	-4.287100E+01
310	  0.081923850	-4.713000E+00	  0.081923850	-9.108000E+01	  0.081923850	2.434900E+01	  0.081923850	-4.273700E+01
311	  0.082124248	-4.716000E+00	  0.082124248	-9.128100E+01	  0.082124248	2.429000E+01	  0.082124248	-4.259800E+01
312	  0.082324654	-4.719000E+00	  0.082324654	-9.147900E+01	  0.082324654	2.423100E+01	  0.082324654	-4.246300E+01
313	  0.082525052	-4.721000E+00	  0.082525052	-9.170400E+01	  0.082525052	2.416100E+01	  0.082525052	-4.231100E+01
314	  0.082725458	-4.730000E+00	  0.082725458	-9.191800E+01	  0.082725458	2.412200E+01	  0.082725458	-4.215300E+01
315	  0.082925856	-4.742000E+00	  0.082925856	-9.212400E+01	  0.082925856	2.410100E+01	  0.082925856	-4.199100E+01
316	  0.083126254	-4.749000E+00	  0.083126254	-9.238600E+01	  0.083126254	2.403900E+01	  0.083126254	-4.180700E+01
317	  0.083326660	-4.755000E+00	  0.083326660	-9.265500E+01	  0.083326660	2.396800E+01	  0.083326660	-4.162300E+01
318	  0.083527058	-4.761000E+00	  0.083527058	-9.291300E+01	  0.083527058	2.390600E+01	  0.083527058	-4.144300E+01
319	  0.083727457	-4.768000E+00	  0.083727457	-9.316300E+01	  0.083727457	2.384900E+01	  0.083727457	-4.126800E+01
320	  0.083927862	-4.763000E+00	  0.083927862	-9.341300E+01	  0.083927862	2.374100E+01	  0.083927862	-4.112200E+01
321	  0.084128261	-4.769000E+00	  0.084128261	-9.366100E+01	  0.084128261	2.368100E+01	  0.084128261	-4.095200E+01
322	  0.084328659	-4.761000E+00	  0.084328659	-9.392700E+01	  0.084328659	2.356000E+01	  0.084328659	-4.080200E+01
323	  0.084529065	-4.763000E+00	  0.084529065	-9.417100E+01	  0.084529065	2.348700E+01	  0.084529065	-4.064300E+01
324	  0.084729463	-4.764000E+00	  0.084729463	-9.442700E+01	  0.084729463	2.340400E+01	  0.084729463	-4.048100E+01
325	  0.084929861	-4.761000E+00	  0.084929861	-9.466400E+01	  0.084929861	2.331500E+01	  0.084929861	-4.033900E+01
326	  0.085130267	-4.765000E+00	  0.085130267	-9.492500E+01	  0.085130267	2.324500E+01	  0.085130267	-4.016800E+01
327	  0.085330658	-4.759000E+00	  0.085330658	-9.515100E+01	  0.085330658	2.314800E+01	  0.085330658	-4.003900E+01
328	  0.085531056	-4.760000E+00	  0.085531056	-9.539400E+01	  0.085531056	2.307200E+01	  0.085531056	-3.988700E+01
329	  0.085731462	-4.764000E+00	  0.085731462	-9.561700E+01	  0.085731462	2.301900E+01	  0.085731462	-3.973900E+01
330	  0.085931860	-4.762000E+00	  0.085931860	-9.586700E+01	  0.085931860	2.293200E+01	  0.085931860	-3.958800E+01
331	  0.086132258	-4.763000E+00	  0.086132258	-9.615200E+01	  0.086132258	2.284600E+01	  0.086132258	-3.941100E+01
332	  0.086332664	-4.760000E+00	  0.086332664	-9.638300E+01	  0.086332664	2.276000E+01	  0.086332664	-3.927500E+01
333	  0.086533062	-4.754000E+00	  0.086533062	-9.665700E+01	  0.086533062	2.265200E+01	  0.086533062	-3.911800E+01
334	  0.086733460	-4.750000E+00	  0.086733460	-9.689800E+01	  0.086733460	2.256000E+01	  0.086733460	-3.897900E+01
335	  0.086933866	-4.746000E+00	  0.086933866	-9.711700E+01	  0.086933866	2.247600E+01	  0.086933866	-3.885400E+01
336	  0.087134264	-4.744000E+00	  0.087134264	-9.732400E+01	  0.087134264	2.240500E+01	  0.087134264	-3.873100E+01
337	  0.087334670	-4.741000E+00	  0.087334670	-9.755100E+01	  0.087334670	2.232800E+01	  0.087334670	-3.859700E+01
338	  0.087535068	-4.739000E+00	  0.087535068	-9.775700E+01	  0.087535068	2.225500E+01	  0.087535068	-3.847700E+01
339	  0.087735467	-4.741000E+00	  0.087735467	-9.799100E+01	  0.087735467	2.219400E+01	  0.087735467	-3.833000E+01
340	  0.087935872	-4.743000E+00	  0.087935872	-9.820500E+01	  0.087935872	2.213700E+01	  0.087935872	-3.819800E+01
341	  0.088136271	-4.748000E+00	  0.088136271	-9.843400E+01	  0.088136271	2.208900E+01	  0.088136271	-3.805000E+01
342	  0.088336669	-4.748000E+00	  0.088336669	-9.866400E+01	  0.088336669	2.202500E+01	  0.088336669	-3.790900E+01
343	  0.088537075	-4.752000E+00	  0.088537075	-9.885700E+01	  0.088537075	2.198400E+01	  0.088537075	-3.778600E+01
344	  0.088737473	-4.753000E+00	  0.088737473	-9.910000E+01	  0.088737473	2.191900E+01	  0.088737473	-3.763800E+01
345	  0.088937871	-4.756000E+00	  0.088937871	-9.933000E+01	  0.088937871	2.186300E+01	  0.088937871	-3.749500E+01
346	  0.089138277	-4.753000E+00	  0.089138277	-9.957300E+01	  0.089138277	2.178400E+01	  0.089138277	-3.735400E+01
347	  0.089338675	-4.752000E+00	  0.089338675	-9.980900E+01	  0.089338675	2.171300E+01	  0.089338675	-3.721600E+01
348	  0.089539073	-4.747000E+00	  0.089539073	-1.000110E+02	  0.089539073	2.163300E+01	  0.089539073	-3.710600E+01
349	  0.089739479	-4.742000E+00	  0.089739479	-1.002280E+02	  0.089739479	2.155400E+01	  0.089739479	-3.698600E+01
350	  0.089939877	-4.742000E+00	  0.089939877	-1.004300E+02	  0.089939877	2.149700E+01	  0.089939877	-3.686700E+01
351	  0.090140276	-4.743000E+00	  0.090140276	-1.006280E+02	  0.090140276	2.144900E+01	  0.090140276	-3.674600E+01
352	  0.090340681	-4.740000E+00	  0.090340681	-1.008060E+02	  0.090340681	2.138900E+01	  0.090340681	-3.664600E+01
353	  0.090541080	-4.747000E+00	  0.090541080	-1.009950E+02	  0.090541080	2.136500E+01	  0.090541080	-3.652200E+01
354	  0.090741485	-4.745000E+00	  0.090741485	-1.012100E+02	  0.090741485	2.129700E+01	  0.090741485	-3.640000E+01
355	  0.090941884	-4.759000E+00	  0.090941884	-1.013850E+02	  0.090941884	2.130500E+01	  0.090941884	-3.627100E+01
356	  0.091142282	-4.757000E+00	  0.091142282	-1.015850E+02	  0.091142282	2.124300E+01	  0.091142282	-3.615800E+01
357	  0.091342688	-4.767000E+00	  0.091342688	-1.018340E+02	  0.091342688	2.121300E+01	  0.091342688	-3.599500E+01
358	  0.091543086	-4.773000E+00	  0.091543086	-1.020380E+02	  0.091543086	2.118500E+01	  0.091543086	-3.586500E+01
359	  0.091743484	-4.773000E+00	  0.091743484	-1.022920E+02	  0.091743484	2.111600E+01	  0.091743484	-3.571800E+01
360	  0.091943890	-4.781000E+00	  0.091943890	-1.025180E+02	  0.091943890	2.108700E+01	  0.091943890	-3.557300E+01
361	  0.092144288	-4.784000E+00	  0.092144288	-1.027550E+02	  0.092144288	2.103600E+01	  0.092144288	-3.543100E+01
362	  0.092344686	-4.788000E+00	  0.092344686	-1.030150E+02	  0.092344686	2.098400E+01	  0.092344686	-3.527400E+01
363	  0.092545092	-4.790000E+00	  0.092545092	-1.032680E+02	  0.092545092	2.092900E+01	  0.092545092	-3.512400E+01
364	  0.092745490	-4.798000E+00	  0.092745490	-1.035570E+02	  0.092745490	2.088400E+01	  0.092745490	-3.494500E+01
365	  0.092945889	-4.797000E+00	  0.092945889	-1.037850E+02	  0.092945889	2.082100E+01	  0.092945889	-3.481600E+01
366	  0.093146294	-4.806000E+00	  0.093146294	-1.040650E+02	  0.093146294	2.078600E+01	  0.093146294	-3.464100E+01
367	  0.093346693	-4.805000E+00	  0.093346693	-1.043550E+02	  0.093346693	2.070900E+01	  0.093346693	-3.447700E+01
368	  0.093547091	-4.809000E+00	  0.093547091	-1.046450E+02	  0.093547091	2.065400E+01	  0.093547091	-3.430500E+01
369	  0.093747497	-4.813000E+00	  0.093747497	-1.049150E+02	  0.093747497	2.059900E+01	  0.093747497	-3.414700E+01
370	  0.093947895	-4.816000E+00	  0.093947895	-1.052130E+02	  0.093947895	2.053900E+01	  0.093947895	-3.397400E+01
371	  0.094148301	-4.817000E+00	  0.094148301	-1.055050E+02	  0.094148301	2.047100E+01	  0.094148301	-3.380800E+01
372	  0.094348699	-4.814000E+00	  0.094348699	-1.058100E+02	  0.094348699	2.038700E+01	  0.094348699	-3.364100E+01
373	  0.094549097	-4.811000E+00	  0.094549097	-1.061030E+02	  0.094549097	2.030600E+01	  0.094549097	-3.348200E+01
374	  0.094749503	-4.797000E+00	  0.094749503	-1.063880E+02	  0.094749503	2.018800E+01	  0.094749503	-3.334300E+01
375	  0.094949901	-4.791000E+00	  0.094949901	-1.066540E+02	  0.094949901	2.010300E+01	  0.094949901	-3.320400E+01
376	  0.095150299	-4.786000E+00	  0.095150299	-1.068990E+02	  0.095150299	2.002600E+01	  0.095150299	-3.307500E+01
377	  0.095350705	-4.778000E+00	  0.095350705	-1.071380E+02	  0.095350705	1.994500E+01	  0.095350705	-3.295300E+01
378	  0.095551103	-4.767000E+00	  0.095551103	-1.073460E+02	  0.095551103	1.985500E+01	  0.095551103	-3.285500E+01
379	  0.095751502	-4.757000E+00	  0.095751502	-1.075740E+02	  0.095751502	1.976600E+01	  0.095751502	-3.274400E+01
380	  0.095951907	-4.753000E+00	  0.095951907	-1.077560E+02	  0.095951907	1.971200E+01	  0.095951907	-3.264800E+01
381	  0.096152306	-4.750000E+00	  0.096152306	-1.079460E+02	  0.096152306	1.966000E+01	  0.096152306	-3.254700E+01
382	  0.096352704	-4.750000E+00	  0.096352704	-1.081230E+02	  0.096352704	1.961800E+01	  0.096352704	-3.245000E+01
383	  0.096553110	-4.746000E+00	  0.096553110	-1.083200E+02	  0.096553110	1.956000E+01	  0.096553110	-3.234700E+01
384	  0.096753508	-4.745000E+00	  0.096753508	-1.084810E+02	  0.096753508	1.952200E+01	  0.096753508	-3.225900E+01
385	  0.096953906	-4.745000E+00	  0.096953906	-1.086620E+02	  0.096953906	1.948000E+01	  0.096953906	-3.215900E+01
386	  0.097154312	-4.743000E+00	  0.097154312	-1.088360E+02	  0.097154312	1.943700E+01	  0.097154312	-3.206600E+01
387	  0.097354710	-4.746000E+00	  0.097354710	-1.090360E+02	  0.097354710	1.940200E+01	  0.097354710	-3.195300E+01
388	  0.097555116	-4.751000E+00	  0.097555116	-1.091970E+02	  0.097555116	1.938800E+01	  0.097555116	-3.185600E+01
389	  0.097755514	-4.753000E+00	  0.097755514	-1.093700E+02	  0.097755514	1.935500E+01	  0.097755514	-3.176000E+01
390	  0.097955912	-4.756000E+00	  0.097955912	-1.095610E+02	  0.097955912	1.932600E+01	  0.097955912	-3.165100E+01
391	  0.098156318	-4.759000E+00	  0.098156318	-1.097570E+02	  0.098156318	1.929700E+01	  0.098156318	-3.153900E+01
392	  0.098356716	-4.764000E+00	  0.098356716	-1.099580E+02	  0.098356716	1.927300E+01	  0.098356716	-3.142200E+01
393	  0.098557115	-4.774000E+00	  0.098557115	-1.101500E+02	  0.098557115	1.926600E+01	  0.098557115	-3.130500E+01
394	  0.098757520	-4.782000E+00	  0.098757520	-1.103650E+02	  0.098757520	1.925100E+01	  0.098757520	-3.117700E+01
395	  0.098957919	-4.792000E+00	  0.098957919	-1.105880E+02	  0.098957919	1.923800E+01	  0.098957919	-3.104300E+01
396	  0.099158317	-4.793000E+00	  0.099158317	-1.108270E+02	  0.099158317	1.919400E+01	  0.099158317	-3.091200E+01
397	  0.099358723	-4.798000E+00	  0.099358723	-1.110690E+02	  0.099358723	1.916200E+01	  0.099358723	-3.077500E+01
398	  0.099559121	-4.805000E+00	  0.099559121	-1.113390E+02	  0.099559121	1.913000E+01	  0.099559121	-3.062100E+01
399	  0.099759519	-4.809000E+00	  0.099759519	-1.115720E+02	  0.099759519	1.909600E+01	  0.099759519	-3.049100E+01
400	  0.099959925	-4.815000E+00	  0.099959925	-1.118000E+02	  0.099959925	1.907300E+01	  0.099959925	-3.036100E+01
401	  0.100160323	-4.815000E+00	  0.100160323	-1.121170E+02	  0.100160323	1.901000E+01	  0.100160323	-3.019200E+01
402	  0.100360721	-4.814000E+00	  0.100360721	-1.124410E+02	  0.100360721	1.894100E+01	  0.100360721	-3.002100E+01
403	  0.100561127	-4.814000E+00	  0.100561127	-1.126390E+02	  0.100561127	1.890100E+01	  0.100561127	-2.991600E+01
404	  0.100761525	-4.817000E+00	  0.100761525	-1.128570E+02	  0.100761525	1.886800E+01	  0.100761525	-2.979700E+01
405	  0.100961931	-4.812000E+00	  0.100961931	-1.131330E+02	  0.100961931	1.879500E+01	  0.100961931	-2.965800E+01
406	  0.101162329	-4.807000E+00	  0.101162329	-1.133880E+02	  0.101162329	1.873000E+01	  0.101162329	-2.952900E+01
407	  0.101362728	-4.801000E+00	  0.101362728	-1.135270E+02	  0.101362728	1.868100E+01	  0.101362728	-2.946400E+01
408	  0.101563133	-4.807000E+00	  0.101563133	-1.138010E+02	  0.101563133	1.865000E+01	  0.101563133	-2.931200E+01
409	  0.101763532	-4.807000E+00	  0.101763532	-1.140310E+02	  0.101763532	1.860800E+01	  0.101763532	-2.919100E+01
410	  0.101963930	-4.807000E+00	  0.101963930	-1.142400E+02	  0.101963930	1.856900E+01	  0.101963930	-2.908100E+01
411	  0.102164336	-4.817000E+00	  0.102164336	-1.145220E+02	  0.102164336	1.854900E+01	  0.102164336	-2.892100E+01
412	  0.102364734	-4.807000E+00	  0.102364734	-1.147130E+02	  0.102364734	1.848000E+01	  0.102364734	-2.883400E+01
413	  0.102565132	-4.822000E+00	  0.102565132	-1.149490E+02	  0.102565132	1.848500E+01	  0.102565132	-2.869300E+01
414	  0.102765530	-4.815000E+00	  0.102765530	-1.151550E+02	  0.102765530	1.842600E+01	  0.102765530	-2.859400E+01
415	  0.102965929	-4.821000E+00	  0.102965929	-1.154080E+02	  0.102965929	1.839900E+01	  0.102965929	-2.845600E+01
416	  0.103166327	-4.821000E+00	  0.103166327	-1.156800E+02	  0.103166327	1.835000E+01	  0.103166327	-2.831400E+01
417	  0.103366733	-4.832000E+00	  0.103366733	-1.158580E+02	  0.103366733	1.835600E+01	  0.103366733	-2.820900E+01
418	  0.103567131	-4.837000E+00	  0.103567131	-1.161480E+02	  0.103567131	1.831800E+01	  0.103567131	-2.805500E+01
419	  0.103767529	-4.838000E+00	  0.103767529	-1.163240E+02	  0.103767529	1.829300E+01	  0.103767529	-2.796200E+01
420	  0.103967935	-4.843000E+00	  0.103967935	-1.166310E+02	  0.103967935	1.825300E+01	  0.103967935	-2.779900E+01
421	  0.104168333	-4.850000E+00	  0.104168333	-1.169070E+02	  0.104168333	1.823000E+01	  0.104168333	-2.764800E+01
422	  0.104368731	-4.854000E+00	  0.104368731	-1.171450E+02	  0.104368731	1.820100E+01	  0.104368731	-2.752200E+01
423	  0.104569137	-4.857000E+00	  0.104569137	-1.174040E+02	  0.104569137	1.816600E+01	  0.104569137	-2.738700E+01
424	  0.104769535	-4.858000E+00	  0.104769535	-1.176730E+02	  0.104769535	1.812300E+01	  0.104769535	-2.724900E+01
425	  0.104969934	-4.859000E+00	  0.104969934	-1.179530E+02	  0.104969934	1.807600E+01	  0.104969934	-2.710600E+01
426	  0.105170339	-4.860000E+00	  0.105170339	-1.182040E+02	  0.105170339	1.803700E+01	  0.105170339	-2.697800E+01
427	  0.105370738	-4.857000E+00	  0.105370738	-1.185220E+02	  0.105370738	1.797500E+01	  0.105370738	-2.681900E+01
428	  0.105571143	-4.850000E+00	  0.105571143	-1.187920E+02	  0.105571143	1.790500E+01	  0.105571143	-2.669100E+01
429	  0.105771542	-4.853000E+00	  0.105771542	-1.190580E+02	  0.105771542	1.787200E+01	  0.105771542	-2.655400E+01
430	  0.105971940	-4.848000E+00	  0.105971940	-1.193170E+02	  0.105971940	1.781200E+01	  0.105971940	-2.642900E+01
431	  0.106172346	-4.829000E+00	  0.106172346	-1.195520E+02	  0.106172346	1.771100E+01	  0.106172346	-2.633100E+01
432	  0.106372744	-4.834000E+00	  0.106372744	-1.197540E+02	  0.106372744	1.769300E+01	  0.106372744	-2.622500E+01
433	  0.106573142	-4.824000E+00	  0.106573142	-1.200000E+02	  0.106573142	1.762100E+01	  0.106573142	-2.611200E+01
434	  0.106773548	-4.821000E+00	  0.106773548	-1.202240E+02	  0.106773548	1.757600E+01	  0.106773548	-2.600300E+01
435	  0.106973946	-4.814000E+00	  0.106973946	-1.204170E+02	  0.106973946	1.752300E+01	  0.106973946	-2.591300E+01
436	  0.107174344	-4.814000E+00	  0.107174344	-1.206330E+02	  0.107174344	1.748800E+01	  0.107174344	-2.580600E+01
437	  0.107374750	-4.813000E+00	  0.107374750	-1.208320E+02	  0.107374750	1.745300E+01	  0.107374750	-2.570700E+01
438	  0.107575148	-4.810000E+00	  0.107575148	-1.210760E+02	  0.107575148	1.740700E+01	  0.107575148	-2.558800E+01
439	  0.107775547	-4.809000E+00	  0.107775547	-1.212630E+02	  0.107775547	1.737200E+01	  0.107775547	-2.549800E+01
440	  0.107975952	-4.808000E+00	  0.107975952	-1.214750E+02	  0.107975952	1.733600E+01	  0.107975952	-2.539300E+01
441	  0.108176351	-4.805000E+00	  0.108176351	-1.216400E+02	  0.108176351	1.730100E+01	  0.108176351	-2.531400E+01
442	  0.108376749	-4.814000E+00	  0.108376749	-1.218450E+02	  0.108376749	1.730200E+01	  0.108376749	-2.520300E+01
443	  0.108577155	-4.801000E+00	  0.108577155	-1.220310E+02	  0.108577155	1.722900E+01	  0.108577155	-2.512500E+01
444	  0.108777553	-4.810000E+00	  0.108777553	-1.222640E+02	  0.108777553	1.722200E+01	  0.108777553	-2.500000E+01
445	  0.108977959	-4.815000E+00	  0.108977959	-1.224650E+02	  0.108977959	1.721000E+01	  0.108977959	-2.489600E+01
446	  0.109178357	-4.819000E+00	  0.109178357	-1.226620E+02	  0.109178357	1.719400E+01	  0.109178357	-2.479500E+01
447	  0.109378755	-4.829000E+00	  0.109378755	-1.228590E+02	  0.109378755	1.719800E+01	  0.109378755	-2.468800E+01
448	  0.109579161	-4.828000E+00	  0.109579161	-1.231040E+02	  0.109579161	1.715600E+01	  0.109579161	-2.456900E+01
449	  0.109779559	-4.836000E+00	  0.109779559	-1.233560E+02	  0.109779559	1.714600E+01	  0.109779559	-2.443800E+01
450	  0.109979957	-4.837000E+00	  0.109979957	-1.236030E+02	  0.109979957	1.711400E+01	  0.109979957	-2.431600E+01
451	  0.110180363	-4.838000E+00	  0.110180363	-1.238040E+02	  0.110180363	1.708700E+01	  0.110180363	-2.421800E+01
452	  0.110380761	-4.843000E+00	  0.110380761	-1.240960E+02	  0.110380761	1.706000E+01	  0.110380761	-2.407000E+01
453	  0.110581160	-4.844000E+00	  0.110581160	-1.243240E+02	  0.110581160	1.703300E+01	  0.110581160	-2.395800E+01
454	  0.110781565	-4.853000E+00	  0.110781565	-1.245930E+02	  0.110781565	1.702300E+01	  0.110781565	-2.381900E+01
455	  0.110981964	-4.855000E+00	  0.110981964	-1.248530E+02	  0.110981964	1.699100E+01	  0.110981964	-2.369200E+01
456	  0.111182362	-4.855000E+00	  0.111182362	-1.250710E+02	  0.111182362	1.696100E+01	  0.111182362	-2.358600E+01
457	  0.111382768	-4.851000E+00	  0.111382768	-1.253640E+02	  0.111382768	1.690800E+01	  0.111382768	-2.344900E+01
458	  0.111583166	-4.849000E+00	  0.111583166	-1.255530E+02	  0.111583166	1.687600E+01	  0.111583166	-2.335900E+01
459	  0.111783572	-4.851000E+00	  0.111783572	-1.258350E+02	  0.111783572	1.684500E+01	  0.111783572	-2.322100E+01
460	  0.111983970	-4.854000E+00	  0.111983970	-1.260370E+02	  0.111983970	1.682700E+01	  0.111983970	-2.312100E+01
461	  0.112184368	-4.856000E+00	  0.112184368	-1.263190E+02	  0.112184368	1.679300E+01	  0.112184368	-2.298500E+01
462	  0.112384774	-4.850000E+00	  0.112384774	-1.265480E+02	  0.112384774	1.674300E+01	  0.112384774	-2.288100E+01
463	  0.112585172	-4.854000E+00	  0.112585172	-1.267680E+02	  0.112585172	1.672700E+01	  0.112585172	-2.277200E+01
464	  0.112785570	-4.845000E+00	  0.112785570	-1.270180E+02	  0.112785570	1.666700E+01	  0.112785570	-2.266000E+01
465	  0.112985976	-4.855000E+00	  0.112985976	-1.272360E+02	  0.112985976	1.666800E+01	  0.112985976	-2.254700E+01
466	  0.113186374	-4.859000E+00	  0.113186374	-1.274620E+02	  0.113186374	1.665200E+01	  0.113186374	-2.243600E+01
467	  0.113386773	-4.858000E+00	  0.113386773	-1.277130E+02	  0.113386773	1.661500E+01	  0.113386773	-2.231800E+01
468	  0.113587178	-4.862000E+00	  0.113587178	-1.279110E+02	  0.113587178	1.660200E+01	  0.113587178	-2.222100E+01
469	  0.113787577	-4.863000E+00	  0.113787577	-1.281620E+02	  0.113787577	1.657400E+01	  0.113787577	-2.210100E+01
470	  0.113987975	-4.866000E+00	  0.113987975	-1.284270E+02	  0.113987975	1.655100E+01	  0.113987975	-2.197200E+01
471	  0.114188381	-4.869000E+00	  0.114188381	-1.286660E+02	  0.114188381	1.652800E+01	  0.114188381	-2.185700E+01
472	  0.114388779	-4.870000E+00	  0.114388779	-1.289290E+02	  0.114388779	1.650000E+01	  0.114388779	-2.173200E+01
473	  0.114589177	-4.876000E+00	  0.114589177	-1.291740E+02	  0.114589177	1.648700E+01	  0.114589177	-2.161200E+01
474	  0.114789583	-4.877000E+00	  0.114789583	-1.294100E+02	  0.114789583	1.645900E+01	  0.114789583	-2.150100E+01
475	  0.114989981	-4.875000E+00	  0.114989981	-1.296470E+02	  0.114989981	1.642700E+01	  0.114989981	-2.139000E+01
476	  0.115190387	-4.881000E+00	  0.115190387	-1.298910E+02	  0.115190387	1.641400E+01	  0.115190387	-2.127100E+01
477	  0.115390785	-4.879000E+00	  0.115390785	-1.301540E+02	  0.115390785	1.637400E+01	  0.115390785	-2.115000E+01
478	  0.115591183	-4.876000E+00	  0.115591183	-1.304360E+02	  0.115591183	1.633200E+01	  0.115591183	-2.102100E+01
479	  0.115791589	-4.875000E+00	  0.115791589	-1.306620E+02	  0.115791589	1.630300E+01	  0.115791589	-2.091600E+01
480	  0.115991987	-4.872000E+00	  0.115991987	-1.309250E+02	  0.115991987	1.626200E+01	  0.115991987	-2.079500E+01
481	  0.116192386	-4.871000E+00	  0.116192386	-1.311640E+02	  0.116192386	1.623000E+01	  0.116192386	-2.068500E+01
482	  0.116392791	-4.867000E+00	  0.116392791	-1.313960E+02	  0.116392791	1.619200E+01	  0.116392791	-2.058100E+01
483	  0.116593190	-4.860000E+00	  0.116593190	-1.316390E+02	  0.116593190	1.614200E+01	  0.116593190	-2.047300E+01
484	  0.116793588	-4.858000E+00	  0.116793588	-1.318350E+02	  0.116793588	1.611400E+01	  0.116793588	-2.038400E+01
485	  0.116993994	-4.855000E+00	  0.116993994	-1.320740E+02	  0.116993994	1.607600E+01	  0.116993994	-2.027600E+01
486	  0.117194392	-4.851000E+00	  0.117194392	-1.322970E+02	  0.117194392	1.603900E+01	  0.117194392	-2.017500E+01
487	  0.117394790	-4.850000E+00	  0.117394790	-1.325250E+02	  0.117394790	1.601100E+01	  0.117394790	-2.007000E+01
488	  0.117595196	-4.851000E+00	  0.117595196	-1.327140E+02	  0.117595196	1.599200E+01	  0.117595196	-1.998200E+01
489	  0.117795594	-4.847000E+00	  0.117795594	-1.329730E+02	  0.117795594	1.595200E+01	  0.117795594	-1.986600E+01
490	  0.117995992	-4.845000E+00	  0.117995992	-1.331700E+02	  0.117995992	1.592500E+01	  0.117995992	-1.977600E+01
491	  0.118196398	-4.845000E+00	  0.118196398	-1.333460E+02	  0.118196398	1.590400E+01	  0.118196398	-1.969600E+01
492	  0.118396796	-4.847000E+00	  0.118396796	-1.335650E+02	  0.118396796	1.588600E+01	  0.118396796	-1.959400E+01
493	  0.118597202	-4.850000E+00	  0.118597202	-1.337420E+02	  0.118597202	1.587800E+01	  0.118597202	-1.951000E+01
494	  0.118797600	-4.856000E+00	  0.118797600	-1.339790E+02	  0.118797600	1.586800E+01	  0.118797600	-1.939700E+01
495	  0.118997999	-4.854000E+00	  0.118997999	-1.341910E+02	  0.118997999	1.584000E+01	  0.118997999	-1.930100E+01
496	  0.119198404	-4.855000E+00	  0.119198404	-1.344370E+02	  0.119198404	1.581900E+01	  0.119198404	-1.918800E+01
497	  0.119398803	-4.860000E+00	  0.119398803	-1.346560E+02	  0.119398803	1.580800E+01	  0.119398803	-1.908500E+01
498	  0.119599201	-4.867000E+00	  0.119599201	-1.348700E+02	  0.119599201	1.580800E+01	  0.119599201	-1.898300E+01
499	  0.119799607	-4.877000E+00	  0.119799607	-1.351280E+02	  0.119799607	1.581200E+01	  0.119799607	-1.885800E+01
500	  0.120000005	-4.874000E+00	  0.120000005	-1.353410E+02	  0.120000005	1.578100E+01	  0.120000005	-1.876300E+01
