! Anritsu VNA Master:             	Model: MS2036C/10/77
! SN:             	1601066
! /card0/usr/18may27.balun/5a..47.2.txt
! Existing Calibration Information:
! TYPE:             	Current Settings	Active Cal Settings
! TIME:             	05/27/2018 05:15:45 PM	05/27/2018 05:09:13 PM
! INTERNAL TEMP:    	53.3 C	53.3 C
! # POINTS:         	500	500
! START FREQ:       	20.000 MHz	20.000 MHz
! STOP FREQ:        	120.000 MHz	120.000 MHz
! SOURCE POWER:     	High	High
! IFBW:             	50 Hz	50 Hz
! AVG FACTOR:       	  1 	  1 
! REF PLANE 1:      	0 mm	0 mm
! REF PLANE 2:      	0 mm	0 mm
! CAL TYPE:         	Full S11	Full S11
! CAL METHOD:       	SOLT	SOLT
! CAL LINE TYPE:    	Coax	Coax
! DUT PORT 1:       	K-Conn(M)	K-Conn(M)
! DUT PORT 2:       	K-Conn(M)	K-Conn(M)
! CAL STATUS:       	OK: Accuracy High	--
! PROP-V:       	0.700
! CABLE LOSS:       	0.000 dB/m
! REF IMPEDANCE:       	50.0
! Trace Specific Parameters:	TR1	TR2	TR3	TR4
! TRACE.#.Y (GRAPH TYPE)	LOG MAG	PHASE	REAL IMPEDANCE	IMAGINARY IMPEDANCE
! TRACE.#.X 	FREQ.GHZ	FREQ.GHZ	FREQ.GHZ	FREQ.GHZ
! S-PARAMETER	S11	S11	S11	S11
! SMOOTH/APERTURE %	0	0	0	0
! WINDOW	NSL	NSL	NSL	NSL
! GATING	OFF	OFF	OFF	OFF
! FGTD	OFF	OFF	OFF	OFF
Marker Information per Trace:	TR1	TR2	TR3	TR4
!MK1	--	--	--	"MK1 TR4:  70.100 200 MHz,Z:(0.737 ohm, -1.313 ohm)"
!MK2	--	--	--	--
!MK3	--	--	--	--
!MK4	--	--	--	--
!MK5	--	--	--	--
!MK6	--	--	--	--
!MK7	--	--	--	--
!MK8	--	--	--	--
PNT	TR1.FREQ.GHZ	TR1.LOG MAG.dB	TR2.FREQ.GHZ	TR2.PHASE.deg	TR3.FREQ.GHZ	TR3.REAL IMPEDANCE.ohm	TR4.FREQ.GHZ	TR4.IMAGINARY IMPEDANCE.ohm
1	  0.020000000	-2.800000E-02	  0.020000000	-5.602500E+01	  0.020000000	3.680000E-01	  0.020000000	-9.398400E+01
2	  0.020200402	-2.500000E-02	  0.020200402	-5.658000E+01	  0.020200402	3.240000E-01	  0.020200402	-9.289700E+01
3	  0.020400802	-2.100000E-02	  0.020400802	-5.712500E+01	  0.020400802	2.710000E-01	  0.020400802	-9.184700E+01
4	  0.020601204	-2.100000E-02	  0.020601204	-5.767700E+01	  0.020601204	2.600000E-01	  0.020601204	-9.080400E+01
5	  0.020801604	-2.100000E-02	  0.020801604	-5.822700E+01	  0.020801604	2.590000E-01	  0.020801604	-8.978100E+01
6	  0.021002004	-2.000000E-02	  0.021002004	-5.881000E+01	  0.021002004	2.450000E-01	  0.021002004	-8.871600E+01
7	  0.021202406	-2.300000E-02	  0.021202406	-5.935200E+01	  0.021202406	2.700000E-01	  0.021202406	-8.774300E+01
8	  0.021402806	-2.300000E-02	  0.021402806	-5.990000E+01	  0.021402806	2.690000E-01	  0.021402806	-8.677600E+01
9	  0.021603208	-2.800000E-02	  0.021603208	-6.044400E+01	  0.021603208	3.200000E-01	  0.021603208	-8.583100E+01
10	  0.021803608	-3.200000E-02	  0.021803608	-6.096500E+01	  0.021803608	3.620000E-01	  0.021803608	-8.494100E+01
11	  0.022004008	-3.500000E-02	  0.022004008	-6.149200E+01	  0.022004008	3.870000E-01	  0.022004008	-8.405300E+01
12	  0.022204408	-3.800000E-02	  0.022204408	-6.203100E+01	  0.022204408	4.150000E-01	  0.022204408	-8.315900E+01
13	  0.022404809	-4.200000E-02	  0.022404809	-6.259500E+01	  0.022404809	4.480000E-01	  0.022404809	-8.224100E+01
14	  0.022605211	-4.100000E-02	  0.022605211	-6.315100E+01	  0.022605211	4.360000E-01	  0.022605211	-8.134900E+01
15	  0.022805611	-4.100000E-02	  0.022805611	-6.371400E+01	  0.022805611	4.310000E-01	  0.022805611	-8.046000E+01
16	  0.023006011	-3.400000E-02	  0.023006011	-6.426700E+01	  0.023006011	3.470000E-01	  0.023006011	-7.960100E+01
17	  0.023206413	-2.700000E-02	  0.023206413	-6.484300E+01	  0.023206413	2.750000E-01	  0.023206413	-7.872000E+01
18	  0.023406813	-2.200000E-02	  0.023406813	-6.539300E+01	  0.023406813	2.210000E-01	  0.023406813	-7.789200E+01
19	  0.023607215	-1.800000E-02	  0.023607215	-6.593400E+01	  0.023607215	1.820000E-01	  0.023607215	-7.708900E+01
20	  0.023807615	-1.800000E-02	  0.023807615	-6.645700E+01	  0.023807615	1.770000E-01	  0.023807615	-7.632300E+01
21	  0.024008015	-2.200000E-02	  0.024008015	-6.695400E+01	  0.024008015	2.160000E-01	  0.024008015	-7.560600E+01
22	  0.024208417	-2.700000E-02	  0.024208417	-6.744200E+01	  0.024208417	2.520000E-01	  0.024208417	-7.491100E+01
23	  0.024408817	-3.100000E-02	  0.024408817	-6.792700E+01	  0.024408817	2.910000E-01	  0.024408817	-7.422900E+01
24	  0.024609219	-3.600000E-02	  0.024609219	-6.841600E+01	  0.024609219	3.290000E-01	  0.024609219	-7.354900E+01
25	  0.024809619	-4.200000E-02	  0.024809619	-6.896000E+01	  0.024809619	3.830000E-01	  0.024809619	-7.280300E+01
26	  0.025010020	-4.500000E-02	  0.025010020	-6.951000E+01	  0.025010020	4.060000E-01	  0.025010020	-7.205800E+01
27	  0.025210422	-4.700000E-02	  0.025210422	-7.007200E+01	  0.025210422	4.170000E-01	  0.025210422	-7.130900E+01
28	  0.025410822	-4.700000E-02	  0.025410822	-7.066800E+01	  0.025410822	4.120000E-01	  0.025410822	-7.052600E+01
29	  0.025611224	-4.700000E-02	  0.025611224	-7.123600E+01	  0.025611224	4.050000E-01	  0.025611224	-6.979000E+01
30	  0.025811624	-4.900000E-02	  0.025811624	-7.179900E+01	  0.025811624	4.150000E-01	  0.025811624	-6.907000E+01
31	  0.026012026	-4.400000E-02	  0.026012026	-7.236500E+01	  0.026012026	3.630000E-01	  0.026012026	-6.835700E+01
32	  0.026212426	-4.100000E-02	  0.026212426	-7.290500E+01	  0.026212426	3.380000E-01	  0.026212426	-6.768600E+01
33	  0.026412826	-3.900000E-02	  0.026412826	-7.344800E+01	  0.026412826	3.180000E-01	  0.026412826	-6.701900E+01
34	  0.026613226	-3.900000E-02	  0.026613226	-7.395800E+01	  0.026613226	3.150000E-01	  0.026613226	-6.640100E+01
35	  0.026813626	-4.300000E-02	  0.026813626	-7.445800E+01	  0.026813626	3.400000E-01	  0.026813626	-6.580100E+01
36	  0.027014028	-5.000000E-02	  0.027014028	-7.492600E+01	  0.027014028	3.900000E-01	  0.027014028	-6.524600E+01
37	  0.027214428	-5.700000E-02	  0.027214428	-7.541000E+01	  0.027214428	4.410000E-01	  0.027214428	-6.467800E+01
38	  0.027414829	-6.900000E-02	  0.027414829	-7.594500E+01	  0.027414829	5.250000E-01	  0.027414829	-6.405700E+01
39	  0.027615231	-7.400000E-02	  0.027615231	-7.652200E+01	  0.027615231	5.570000E-01	  0.027615231	-6.339500E+01
40	  0.027815631	-7.900000E-02	  0.027815631	-7.711000E+01	  0.027815631	5.860000E-01	  0.027815631	-6.273000E+01
41	  0.028016033	-7.800000E-02	  0.028016033	-7.769900E+01	  0.028016033	5.760000E-01	  0.028016033	-6.207300E+01
42	  0.028216433	-7.100000E-02	  0.028216433	-7.832800E+01	  0.028216433	5.190000E-01	  0.028216433	-6.138200E+01
43	  0.028416833	-6.400000E-02	  0.028416833	-7.893900E+01	  0.028416833	4.610000E-01	  0.028416833	-6.071800E+01
44	  0.028617235	-5.400000E-02	  0.028617235	-7.950100E+01	  0.028617235	3.860000E-01	  0.028617235	-6.011500E+01
45	  0.028817635	-4.600000E-02	  0.028817635	-8.005200E+01	  0.028817635	3.210000E-01	  0.028817635	-5.953100E+01
46	  0.029018037	-3.700000E-02	  0.029018037	-8.054200E+01	  0.029018037	2.550000E-01	  0.029018037	-5.901600E+01
47	  0.029218437	-2.900000E-02	  0.029218437	-8.097400E+01	  0.029218437	2.030000E-01	  0.029218437	-5.856800E+01
48	  0.029418837	-2.200000E-02	  0.029418837	-8.142300E+01	  0.029418837	1.540000E-01	  0.029418837	-5.810600E+01
49	  0.029619239	-2.000000E-02	  0.029619239	-8.184200E+01	  0.029619239	1.350000E-01	  0.029619239	-5.767800E+01
50	  0.029819639	-2.300000E-02	  0.029819639	-8.228600E+01	  0.029819639	1.530000E-01	  0.029819639	-5.722800E+01
51	  0.030020041	-2.800000E-02	  0.030020041	-8.274900E+01	  0.030020041	1.900000E-01	  0.030020041	-5.676300E+01
52	  0.030220442	-3.500000E-02	  0.030220442	-8.324900E+01	  0.030220442	2.290000E-01	  0.030220442	-5.626700E+01
53	  0.030420844	-4.600000E-02	  0.030420844	-8.378900E+01	  0.030420844	3.020000E-01	  0.030420844	-5.573500E+01
54	  0.030621244	-5.500000E-02	  0.030621244	-8.434100E+01	  0.030621244	3.550000E-01	  0.030621244	-5.519700E+01
55	  0.030821644	-5.900000E-02	  0.030821644	-8.489800E+01	  0.030821644	3.780000E-01	  0.030821644	-5.466000E+01
56	  0.031022044	-6.000000E-02	  0.031022044	-8.546800E+01	  0.031022044	3.770000E-01	  0.031022044	-5.411800E+01
57	  0.031222444	-5.800000E-02	  0.031222444	-8.601900E+01	  0.031222444	3.620000E-01	  0.031222444	-5.359800E+01
58	  0.031422846	-5.700000E-02	  0.031422846	-8.656700E+01	  0.031422846	3.520000E-01	  0.031422846	-5.308700E+01
59	  0.031623244	-6.000000E-02	  0.031623244	-8.710300E+01	  0.031623244	3.660000E-01	  0.031623244	-5.259200E+01
60	  0.031823646	-5.600000E-02	  0.031823646	-8.762800E+01	  0.031823646	3.400000E-01	  0.031823646	-5.211200E+01
61	  0.032024048	-5.400000E-02	  0.032024048	-8.811100E+01	  0.032024048	3.220000E-01	  0.032024048	-5.167400E+01
62	  0.032224450	-5.700000E-02	  0.032224450	-8.856000E+01	  0.032224450	3.420000E-01	  0.032224450	-5.127100E+01
63	  0.032424849	-6.300000E-02	  0.032424849	-8.903300E+01	  0.032424849	3.730000E-01	  0.032424849	-5.084900E+01
64	  0.032625251	-7.300000E-02	  0.032625251	-8.952200E+01	  0.032625251	4.270000E-01	  0.032625251	-5.041600E+01
65	  0.032825653	-8.300000E-02	  0.032825653	-9.004100E+01	  0.032825653	4.800000E-01	  0.032825653	-4.996100E+01
66	  0.033026051	-9.300000E-02	  0.033026051	-9.058100E+01	  0.033026051	5.320000E-01	  0.033026051	-4.949200E+01
67	  0.033226453	-9.900000E-02	  0.033226453	-9.113200E+01	  0.033226453	5.610000E-01	  0.033226453	-4.901800E+01
68	  0.033426855	-1.040000E-01	  0.033426855	-9.172400E+01	  0.033426855	5.810000E-01	  0.033426855	-4.851400E+01
69	  0.033627257	-1.110000E-01	  0.033627257	-9.233000E+01	  0.033627257	6.170000E-01	  0.033627257	-4.800200E+01
70	  0.033827655	-1.120000E-01	  0.033827655	-9.293100E+01	  0.033827655	6.140000E-01	  0.033827655	-4.750000E+01
71	  0.034028057	-1.080000E-01	  0.034028057	-9.351700E+01	  0.034028057	5.860000E-01	  0.034028057	-4.701700E+01
72	  0.034228459	-9.800000E-02	  0.034228459	-9.408000E+01	  0.034228459	5.300000E-01	  0.034228459	-4.655700E+01
73	  0.034428857	-8.900000E-02	  0.034428857	-9.462600E+01	  0.034428857	4.740000E-01	  0.034428857	-4.611400E+01
74	  0.034629259	-7.700000E-02	  0.034629259	-9.511100E+01	  0.034629259	4.090000E-01	  0.034629259	-4.572500E+01
75	  0.034829661	-6.900000E-02	  0.034829661	-9.560000E+01	  0.034829661	3.620000E-01	  0.034829661	-4.533500E+01
76	  0.035030060	-6.200000E-02	  0.035030060	-9.606300E+01	  0.035030060	3.230000E-01	  0.035030060	-4.496900E+01
77	  0.035230462	-5.700000E-02	  0.035230462	-9.650600E+01	  0.035230462	2.950000E-01	  0.035230462	-4.462000E+01
78	  0.035430863	-5.600000E-02	  0.035430863	-9.695100E+01	  0.035430863	2.910000E-01	  0.035430863	-4.427300E+01
79	  0.035631265	-6.300000E-02	  0.035631265	-9.740300E+01	  0.035631265	3.220000E-01	  0.035631265	-4.392200E+01
80	  0.035831664	-7.200000E-02	  0.035831664	-9.787700E+01	  0.035831664	3.660000E-01	  0.035831664	-4.355700E+01
81	  0.036032066	-8.000000E-02	  0.036032066	-9.839500E+01	  0.036032066	4.030000E-01	  0.036032066	-4.316000E+01
82	  0.036232468	-8.700000E-02	  0.036232468	-9.894700E+01	  0.036232468	4.340000E-01	  0.036232468	-4.274100E+01
83	  0.036432866	-9.100000E-02	  0.036432866	-9.949500E+01	  0.036432866	4.510000E-01	  0.036432866	-4.232900E+01
84	  0.036633268	-9.700000E-02	  0.036633268	-1.000720E+02	  0.036633268	4.750000E-01	  0.036633268	-4.189900E+01
85	  0.036833670	-9.800000E-02	  0.036833670	-1.006060E+02	  0.036833670	4.790000E-01	  0.036833670	-4.150400E+01
86	  0.037034072	-9.300000E-02	  0.037034072	-1.011490E+02	  0.037034072	4.530000E-01	  0.037034072	-4.110500E+01
87	  0.037234470	-8.100000E-02	  0.037234470	-1.016610E+02	  0.037234470	3.920000E-01	  0.037234470	-4.073200E+01
88	  0.037434869	-7.300000E-02	  0.037434869	-1.021120E+02	  0.037434869	3.480000E-01	  0.037434869	-4.040600E+01
89	  0.037635271	-6.600000E-02	  0.037635271	-1.025350E+02	  0.037635271	3.130000E-01	  0.037635271	-4.010300E+01
90	  0.037835669	-6.900000E-02	  0.037835669	-1.029670E+02	  0.037835669	3.260000E-01	  0.037835669	-3.979300E+01
91	  0.038036071	-7.500000E-02	  0.038036071	-1.034410E+02	  0.038036071	3.500000E-01	  0.038036071	-3.945700E+01
92	  0.038236473	-8.400000E-02	  0.038236473	-1.039010E+02	  0.038236473	3.920000E-01	  0.038236473	-3.913200E+01
93	  0.038436871	-9.100000E-02	  0.038436871	-1.044180E+02	  0.038436871	4.210000E-01	  0.038436871	-3.876900E+01
94	  0.038637273	-9.900000E-02	  0.038637273	-1.049030E+02	  0.038637273	4.540000E-01	  0.038637273	-3.843100E+01
95	  0.038837675	-1.070000E-01	  0.038837675	-1.054200E+02	  0.038837675	4.890000E-01	  0.038837675	-3.807300E+01
96	  0.039038073	-1.200000E-01	  0.039038073	-1.059770E+02	  0.039038073	5.430000E-01	  0.039038073	-3.769000E+01
97	  0.039238475	-1.240000E-01	  0.039238475	-1.065050E+02	  0.039238475	5.590000E-01	  0.039238475	-3.732900E+01
98	  0.039438877	-1.280000E-01	  0.039438877	-1.070840E+02	  0.039438877	5.700000E-01	  0.039438877	-3.693700E+01
99	  0.039639279	-1.240000E-01	  0.039639279	-1.076310E+02	  0.039639279	5.510000E-01	  0.039639279	-3.657000E+01
100	  0.039839678	-1.180000E-01	  0.039839678	-1.081570E+02	  0.039839678	5.210000E-01	  0.039839678	-3.621900E+01
101	  0.040040080	-1.100000E-01	  0.040040080	-1.086460E+02	  0.040040080	4.810000E-01	  0.040040080	-3.589500E+01
102	  0.040240481	-1.030000E-01	  0.040240481	-1.091520E+02	  0.040240481	4.500000E-01	  0.040240481	-3.556200E+01
103	  0.040440880	-9.900000E-02	  0.040440880	-1.096350E+02	  0.040440880	4.270000E-01	  0.040440880	-3.524600E+01
104	  0.040641282	-9.700000E-02	  0.040641282	-1.101060E+02	  0.040641282	4.160000E-01	  0.040641282	-3.493900E+01
105	  0.040841684	-9.700000E-02	  0.040841684	-1.105740E+02	  0.040841684	4.150000E-01	  0.040841684	-3.463600E+01
106	  0.041042086	-1.000000E-01	  0.041042086	-1.110410E+02	  0.041042086	4.250000E-01	  0.041042086	-3.433500E+01
107	  0.041242484	-1.060000E-01	  0.041242484	-1.115230E+02	  0.041242484	4.480000E-01	  0.041242484	-3.402600E+01
108	  0.041442886	-1.150000E-01	  0.041442886	-1.119830E+02	  0.041442886	4.830000E-01	  0.041442886	-3.373300E+01
109	  0.041643288	-1.290000E-01	  0.041643288	-1.125130E+02	  0.041643288	5.360000E-01	  0.041643288	-3.339700E+01
110	  0.041843686	-1.320000E-01	  0.041843686	-1.130490E+02	  0.041843686	5.470000E-01	  0.041843686	-3.306000E+01
111	  0.042044088	-1.330000E-01	  0.042044088	-1.136110E+02	  0.042044088	5.500000E-01	  0.042044088	-3.270900E+01
112	  0.042244490	-1.290000E-01	  0.042244490	-1.141500E+02	  0.042244490	5.300000E-01	  0.042244490	-3.237400E+01
113	  0.042444889	-1.200000E-01	  0.042444889	-1.146900E+02	  0.042444889	4.880000E-01	  0.042444889	-3.204100E+01
114	  0.042645290	-1.090000E-01	  0.042645290	-1.151600E+02	  0.042645290	4.410000E-01	  0.042645290	-3.175300E+01
115	  0.042845692	-1.020000E-01	  0.042845692	-1.155960E+02	  0.042845692	4.130000E-01	  0.042845692	-3.148700E+01
116	  0.043046094	-9.900000E-02	  0.043046094	-1.160530E+02	  0.043046094	3.980000E-01	  0.043046094	-3.120900E+01
117	  0.043246493	-1.000000E-01	  0.043246493	-1.164930E+02	  0.043246493	4.000000E-01	  0.043246493	-3.094300E+01
118	  0.043446895	-1.070000E-01	  0.043446895	-1.169400E+02	  0.043446895	4.260000E-01	  0.043446895	-3.067400E+01
119	  0.043647297	-1.110000E-01	  0.043647297	-1.174020E+02	  0.043647297	4.390000E-01	  0.043647297	-3.039700E+01
120	  0.043847695	-1.160000E-01	  0.043847695	-1.178720E+02	  0.043847695	4.560000E-01	  0.043847695	-3.011600E+01
121	  0.044048097	-1.240000E-01	  0.044048097	-1.183210E+02	  0.044048097	4.850000E-01	  0.044048097	-2.985000E+01
122	  0.044248499	-1.310000E-01	  0.044248499	-1.188100E+02	  0.044248499	5.110000E-01	  0.044248499	-2.956100E+01
123	  0.044448901	-1.390000E-01	  0.044448901	-1.193180E+02	  0.044448901	5.370000E-01	  0.044448901	-2.926200E+01
124	  0.044649299	-1.420000E-01	  0.044649299	-1.198270E+02	  0.044649299	5.470000E-01	  0.044649299	-2.896500E+01
125	  0.044849701	-1.430000E-01	  0.044849701	-1.203320E+02	  0.044849701	5.480000E-01	  0.044849701	-2.867200E+01
126	  0.045050103	-1.410000E-01	  0.045050103	-1.208280E+02	  0.045050103	5.380000E-01	  0.045050103	-2.838400E+01
127	  0.045250501	-1.390000E-01	  0.045250501	-1.213100E+02	  0.045250501	5.260000E-01	  0.045250501	-2.810700E+01
128	  0.045450903	-1.360000E-01	  0.045450903	-1.218040E+02	  0.045450903	5.150000E-01	  0.045450903	-2.782400E+01
129	  0.045651305	-1.370000E-01	  0.045651305	-1.222970E+02	  0.045651305	5.140000E-01	  0.045651305	-2.754300E+01
130	  0.045851704	-1.340000E-01	  0.045851704	-1.228060E+02	  0.045851704	5.020000E-01	  0.045851704	-2.725500E+01
131	  0.046052106	-1.340000E-01	  0.046052106	-1.232820E+02	  0.046052106	4.990000E-01	  0.046052106	-2.698600E+01
132	  0.046252504	-1.350000E-01	  0.046252504	-1.237630E+02	  0.046252504	5.010000E-01	  0.046252504	-2.671500E+01
133	  0.046452906	-1.360000E-01	  0.046452906	-1.242250E+02	  0.046452906	5.040000E-01	  0.046452906	-2.645700E+01
134	  0.046653304	-1.430000E-01	  0.046653304	-1.246660E+02	  0.046653304	5.250000E-01	  0.046653304	-2.621100E+01
135	  0.046853706	-1.530000E-01	  0.046853706	-1.251440E+02	  0.046853706	5.610000E-01	  0.046853706	-2.594500E+01
136	  0.047054108	-1.620000E-01	  0.047054108	-1.256710E+02	  0.047054108	5.890000E-01	  0.047054108	-2.565400E+01
137	  0.047254506	-1.650000E-01	  0.047254506	-1.262220E+02	  0.047254506	6.000000E-01	  0.047254506	-2.535100E+01
138	  0.047454908	-1.630000E-01	  0.047454908	-1.267590E+02	  0.047454908	5.870000E-01	  0.047454908	-2.505700E+01
139	  0.047655310	-1.530000E-01	  0.047655310	-1.272830E+02	  0.047655310	5.490000E-01	  0.047655310	-2.477200E+01
140	  0.047855709	-1.450000E-01	  0.047855709	-1.277710E+02	  0.047855709	5.190000E-01	  0.047855709	-2.450800E+01
141	  0.048056111	-1.400000E-01	  0.048056111	-1.282450E+02	  0.048056111	4.990000E-01	  0.048056111	-2.425100E+01
142	  0.048256513	-1.380000E-01	  0.048256513	-1.287120E+02	  0.048256513	4.880000E-01	  0.048256513	-2.400000E+01
143	  0.048456915	-1.370000E-01	  0.048456915	-1.291550E+02	  0.048456915	4.860000E-01	  0.048456915	-2.376300E+01
144	  0.048657313	-1.380000E-01	  0.048657313	-1.296020E+02	  0.048657313	4.860000E-01	  0.048657313	-2.352500E+01
145	  0.048857715	-1.380000E-01	  0.048857715	-1.300260E+02	  0.048857715	4.850000E-01	  0.048857715	-2.329900E+01
146	  0.049058117	-1.420000E-01	  0.049058117	-1.304750E+02	  0.049058117	4.990000E-01	  0.049058117	-2.306100E+01
147	  0.049258515	-1.500000E-01	  0.049258515	-1.309100E+02	  0.049258515	5.220000E-01	  0.049258515	-2.283100E+01
148	  0.049458917	-1.540000E-01	  0.049458917	-1.313700E+02	  0.049458917	5.360000E-01	  0.049458917	-2.258900E+01
149	  0.049659319	-1.590000E-01	  0.049659319	-1.318370E+02	  0.049659319	5.490000E-01	  0.049659319	-2.234400E+01
150	  0.049859721	-1.610000E-01	  0.049859721	-1.323110E+02	  0.049859721	5.560000E-01	  0.049859721	-2.209600E+01
151	  0.050060119	-1.610000E-01	  0.050060119	-1.327640E+02	  0.050060119	5.520000E-01	  0.050060119	-2.186000E+01
152	  0.050260521	-1.630000E-01	  0.050260521	-1.332220E+02	  0.050260521	5.580000E-01	  0.050260521	-2.162200E+01
153	  0.050460923	-1.650000E-01	  0.050460923	-1.336670E+02	  0.050460923	5.620000E-01	  0.050460923	-2.139200E+01
154	  0.050661322	-1.640000E-01	  0.050661322	-1.341250E+02	  0.050661322	5.580000E-01	  0.050661322	-2.115600E+01
155	  0.050861724	-1.660000E-01	  0.050861724	-1.346220E+02	  0.050861724	5.630000E-01	  0.050861724	-2.090100E+01
156	  0.051062126	-1.650000E-01	  0.051062126	-1.351070E+02	  0.051062126	5.560000E-01	  0.051062126	-2.065300E+01
157	  0.051262524	-1.640000E-01	  0.051262524	-1.355740E+02	  0.051262524	5.530000E-01	  0.051262524	-2.041500E+01
158	  0.051462926	-1.600000E-01	  0.051462926	-1.360230E+02	  0.051462926	5.380000E-01	  0.051462926	-2.018700E+01
159	  0.051663328	-1.640000E-01	  0.051663328	-1.364520E+02	  0.051663328	5.490000E-01	  0.051663328	-1.996900E+01
160	  0.051863730	-1.700000E-01	  0.051863730	-1.369020E+02	  0.051863730	5.670000E-01	  0.051863730	-1.974200E+01
161	  0.052064128	-1.770000E-01	  0.052064128	-1.373530E+02	  0.052064128	5.890000E-01	  0.052064128	-1.951500E+01
162	  0.052264530	-1.840000E-01	  0.052264530	-1.378280E+02	  0.052264530	6.110000E-01	  0.052264530	-1.927600E+01
163	  0.052464932	-1.900000E-01	  0.052464932	-1.383310E+02	  0.052464932	6.270000E-01	  0.052464932	-1.902400E+01
164	  0.052665330	-1.880000E-01	  0.052665330	-1.388610E+02	  0.052665330	6.180000E-01	  0.052665330	-1.876000E+01
165	  0.052865732	-1.850000E-01	  0.052865732	-1.393660E+02	  0.052865732	6.060000E-01	  0.052865732	-1.850900E+01
166	  0.053066134	-1.800000E-01	  0.053066134	-1.398440E+02	  0.053066134	5.880000E-01	  0.053066134	-1.827300E+01
167	  0.053266536	-1.770000E-01	  0.053266536	-1.403160E+02	  0.053266536	5.760000E-01	  0.053266536	-1.804000E+01
168	  0.053466935	-1.740000E-01	  0.053466935	-1.407930E+02	  0.053466935	5.660000E-01	  0.053466935	-1.780500E+01
169	  0.053667337	-1.730000E-01	  0.053667337	-1.412600E+02	  0.053667337	5.600000E-01	  0.053667337	-1.757500E+01
170	  0.053867739	-1.700000E-01	  0.053867739	-1.417040E+02	  0.053867739	5.500000E-01	  0.053867739	-1.735800E+01
171	  0.054068137	-1.710000E-01	  0.054068137	-1.421300E+02	  0.054068137	5.500000E-01	  0.054068137	-1.715000E+01
172	  0.054268539	-1.720000E-01	  0.054268539	-1.425770E+02	  0.054268539	5.530000E-01	  0.054268539	-1.693300E+01
173	  0.054468941	-1.790000E-01	  0.054468941	-1.430090E+02	  0.054468941	5.740000E-01	  0.054468941	-1.672300E+01
174	  0.054669339	-1.830000E-01	  0.054669339	-1.434720E+02	  0.054669339	5.860000E-01	  0.054669339	-1.649800E+01
175	  0.054869737	-1.850000E-01	  0.054869737	-1.439330E+02	  0.054869737	5.900000E-01	  0.054869737	-1.627600E+01
176	  0.055070139	-1.850000E-01	  0.055070139	-1.443870E+02	  0.055070139	5.870000E-01	  0.055070139	-1.605700E+01
177	  0.055270538	-1.830000E-01	  0.055270538	-1.448270E+02	  0.055270538	5.820000E-01	  0.055270538	-1.584500E+01
178	  0.055470940	-1.850000E-01	  0.055470940	-1.452650E+02	  0.055470940	5.860000E-01	  0.055470940	-1.563500E+01
179	  0.055671342	-1.880000E-01	  0.055671342	-1.457050E+02	  0.055671342	5.950000E-01	  0.055671342	-1.542500E+01
180	  0.055871744	-1.910000E-01	  0.055871744	-1.461590E+02	  0.055871744	6.000000E-01	  0.055871744	-1.520800E+01
181	  0.056072142	-1.930000E-01	  0.056072142	-1.466340E+02	  0.056072142	6.060000E-01	  0.056072142	-1.498200E+01
182	  0.056272544	-1.930000E-01	  0.056272544	-1.471020E+02	  0.056272544	6.060000E-01	  0.056272544	-1.476000E+01
183	  0.056472946	-1.900000E-01	  0.056472946	-1.475600E+02	  0.056472946	5.940000E-01	  0.056472946	-1.454200E+01
184	  0.056673344	-1.890000E-01	  0.056673344	-1.480080E+02	  0.056673344	5.890000E-01	  0.056673344	-1.433100E+01
185	  0.056873746	-1.920000E-01	  0.056873746	-1.484460E+02	  0.056873746	5.970000E-01	  0.056873746	-1.412400E+01
186	  0.057074148	-1.930000E-01	  0.057074148	-1.488780E+02	  0.057074148	6.000000E-01	  0.057074148	-1.392100E+01
187	  0.057274550	-1.960000E-01	  0.057274550	-1.493130E+02	  0.057274550	6.070000E-01	  0.057274550	-1.371700E+01
188	  0.057474948	-2.030000E-01	  0.057474948	-1.497560E+02	  0.057474948	6.270000E-01	  0.057474948	-1.350900E+01
189	  0.057675350	-2.070000E-01	  0.057675350	-1.502250E+02	  0.057675350	6.390000E-01	  0.057675350	-1.329000E+01
190	  0.057875752	-2.080000E-01	  0.057875752	-1.507060E+02	  0.057875752	6.410000E-01	  0.057875752	-1.306500E+01
191	  0.058076151	-2.090000E-01	  0.058076151	-1.511840E+02	  0.058076151	6.440000E-01	  0.058076151	-1.284300E+01
192	  0.058276553	-2.060000E-01	  0.058276553	-1.516550E+02	  0.058276553	6.310000E-01	  0.058276553	-1.262400E+01
193	  0.058476955	-2.040000E-01	  0.058476955	-1.521220E+02	  0.058476955	6.250000E-01	  0.058476955	-1.240700E+01
194	  0.058677353	-1.990000E-01	  0.058677353	-1.525850E+02	  0.058677353	6.090000E-01	  0.058677353	-1.219300E+01
195	  0.058877755	-1.990000E-01	  0.058877755	-1.530250E+02	  0.058877755	6.080000E-01	  0.058877755	-1.199000E+01
196	  0.059078157	-1.970000E-01	  0.059078157	-1.534590E+02	  0.059078157	6.010000E-01	  0.059078157	-1.179000E+01
197	  0.059278559	-1.990000E-01	  0.059278559	-1.538770E+02	  0.059278559	6.030000E-01	  0.059278559	-1.159800E+01
198	  0.059478957	-2.030000E-01	  0.059478957	-1.542990E+02	  0.059478957	6.160000E-01	  0.059478957	-1.140400E+01
199	  0.059679359	-2.040000E-01	  0.059679359	-1.547250E+02	  0.059679359	6.180000E-01	  0.059679359	-1.120800E+01
200	  0.059879761	-2.080000E-01	  0.059879761	-1.551630E+02	  0.059879761	6.280000E-01	  0.059879761	-1.100800E+01
201	  0.060080159	-2.080000E-01	  0.060080159	-1.555800E+02	  0.060080159	6.270000E-01	  0.060080159	-1.081700E+01
202	  0.060280561	-2.080000E-01	  0.060280561	-1.560070E+02	  0.060280561	6.270000E-01	  0.060280561	-1.062200E+01
203	  0.060480963	-2.070000E-01	  0.060480963	-1.564170E+02	  0.060480963	6.230000E-01	  0.060480963	-1.043500E+01
204	  0.060681365	-2.110000E-01	  0.060681365	-1.568400E+02	  0.060681365	6.330000E-01	  0.060681365	-1.024300E+01
205	  0.060881764	-2.120000E-01	  0.060881764	-1.572650E+02	  0.060881764	6.360000E-01	  0.060881764	-1.005000E+01
206	  0.061082166	-2.150000E-01	  0.061082166	-1.576860E+02	  0.061082166	6.450000E-01	  0.061082166	-9.859000E+00
207	  0.061282568	-2.170000E-01	  0.061282568	-1.581330E+02	  0.061282568	6.500000E-01	  0.061282568	-9.657000E+00
208	  0.061482966	-2.180000E-01	  0.061482966	-1.585820E+02	  0.061482966	6.520000E-01	  0.061482966	-9.454000E+00
209	  0.061683368	-2.170000E-01	  0.061683368	-1.590200E+02	  0.061683368	6.470000E-01	  0.061683368	-9.256000E+00
210	  0.061883770	-2.180000E-01	  0.061883770	-1.594520E+02	  0.061883770	6.500000E-01	  0.061883770	-9.061000E+00
211	  0.062084168	-2.210000E-01	  0.062084168	-1.598870E+02	  0.062084168	6.580000E-01	  0.062084168	-8.865000E+00
212	  0.062284570	-2.230000E-01	  0.062284570	-1.603270E+02	  0.062284570	6.630000E-01	  0.062284570	-8.667000E+00
213	  0.062484972	-2.240000E-01	  0.062484972	-1.607390E+02	  0.062484972	6.630000E-01	  0.062484972	-8.482000E+00
214	  0.062685370	-2.260000E-01	  0.062685370	-1.611700E+02	  0.062685370	6.680000E-01	  0.062685370	-8.289000E+00
215	  0.062885776	-2.290000E-01	  0.062885776	-1.616080E+02	  0.062885776	6.770000E-01	  0.062885776	-8.093000E+00
216	  0.063086174	-2.340000E-01	  0.063086174	-1.620720E+02	  0.063086174	6.910000E-01	  0.063086174	-7.885000E+00
217	  0.063286573	-2.360000E-01	  0.063286573	-1.625480E+02	  0.063286573	6.980000E-01	  0.063286573	-7.672000E+00
218	  0.063486971	-2.330000E-01	  0.063486971	-1.630020E+02	  0.063486971	6.860000E-01	  0.063486971	-7.469000E+00
219	  0.063687377	-2.320000E-01	  0.063687377	-1.634550E+02	  0.063687377	6.830000E-01	  0.063687377	-7.268000E+00
220	  0.063887775	-2.310000E-01	  0.063887775	-1.638940E+02	  0.063887775	6.800000E-01	  0.063887775	-7.072000E+00
221	  0.064088173	-2.260000E-01	  0.064088173	-1.643340E+02	  0.064088173	6.640000E-01	  0.064088173	-6.877000E+00
222	  0.064288579	-2.280000E-01	  0.064288579	-1.647610E+02	  0.064288579	6.700000E-01	  0.064288579	-6.687000E+00
223	  0.064488977	-2.290000E-01	  0.064488977	-1.651830E+02	  0.064488977	6.710000E-01	  0.064488977	-6.499000E+00
224	  0.064689375	-2.280000E-01	  0.064689375	-1.656250E+02	  0.064689375	6.680000E-01	  0.064689375	-6.304000E+00
225	  0.064889781	-2.300000E-01	  0.064889781	-1.660320E+02	  0.064889781	6.730000E-01	  0.064889781	-6.123000E+00
226	  0.065090179	-2.310000E-01	  0.065090179	-1.664660E+02	  0.065090179	6.740000E-01	  0.065090179	-5.931000E+00
227	  0.065290578	-2.310000E-01	  0.065290578	-1.669010E+02	  0.065290578	6.730000E-01	  0.065290578	-5.739000E+00
228	  0.065490983	-2.310000E-01	  0.065490983	-1.672800E+02	  0.065490983	6.750000E-01	  0.065490983	-5.571000E+00
229	  0.065691382	-2.320000E-01	  0.065691382	-1.676800E+02	  0.065691382	6.770000E-01	  0.065691382	-5.395000E+00
230	  0.065891780	-2.350000E-01	  0.065891780	-1.680850E+02	  0.065891780	6.840000E-01	  0.065891780	-5.216000E+00
231	  0.066092186	-2.350000E-01	  0.066092186	-1.685030E+02	  0.066092186	6.830000E-01	  0.066092186	-5.032000E+00
232	  0.066292584	-2.350000E-01	  0.066292584	-1.689230E+02	  0.066292584	6.820000E-01	  0.066292584	-4.847000E+00
233	  0.066492982	-2.380000E-01	  0.066492982	-1.693410E+02	  0.066492982	6.920000E-01	  0.066492982	-4.663000E+00
234	  0.066693388	-2.380000E-01	  0.066693388	-1.697710E+02	  0.066693388	6.910000E-01	  0.066693388	-4.474000E+00
235	  0.066893786	-2.410000E-01	  0.066893786	-1.702060E+02	  0.066893786	7.000000E-01	  0.066893786	-4.282000E+00
236	  0.067094192	-2.450000E-01	  0.067094192	-1.706270E+02	  0.067094192	7.110000E-01	  0.067094192	-4.097000E+00
237	  0.067294590	-2.450000E-01	  0.067294590	-1.710620E+02	  0.067294590	7.090000E-01	  0.067294590	-3.906000E+00
238	  0.067494988	-2.470000E-01	  0.067494988	-1.714740E+02	  0.067494988	7.160000E-01	  0.067494988	-3.725000E+00
239	  0.067695394	-2.480000E-01	  0.067695394	-1.718960E+02	  0.067695394	7.190000E-01	  0.067695394	-3.540000E+00
240	  0.067895792	-2.470000E-01	  0.067895792	-1.723020E+02	  0.067895792	7.160000E-01	  0.067895792	-3.362000E+00
241	  0.068096191	-2.520000E-01	  0.068096191	-1.727320E+02	  0.068096191	7.290000E-01	  0.068096191	-3.174000E+00
242	  0.068296596	-2.550000E-01	  0.068296596	-1.731720E+02	  0.068296596	7.380000E-01	  0.068296596	-2.981000E+00
243	  0.068496995	-2.560000E-01	  0.068496995	-1.736010E+02	  0.068496995	7.400000E-01	  0.068496995	-2.794000E+00
244	  0.068697393	-2.570000E-01	  0.068697393	-1.740510E+02	  0.068697393	7.430000E-01	  0.068697393	-2.597000E+00
245	  0.068897791	-2.530000E-01	  0.068897791	-1.744750E+02	  0.068897791	7.320000E-01	  0.068897791	-2.411000E+00
246	  0.069098189	-2.520000E-01	  0.069098189	-1.748980E+02	  0.069098189	7.290000E-01	  0.069098189	-2.226000E+00
247	  0.069298595	-2.520000E-01	  0.069298595	-1.753090E+02	  0.069298595	7.280000E-01	  0.069298595	-2.047000E+00
248	  0.069498993	-2.520000E-01	  0.069498993	-1.757270E+02	  0.069498993	7.260000E-01	  0.069498993	-1.864000E+00
249	  0.069699399	-2.570000E-01	  0.069699399	-1.761570E+02	  0.069699399	7.410000E-01	  0.069699399	-1.676000E+00
250	  0.069899797	-2.560000E-01	  0.069899797	-1.765840E+02	  0.069899797	7.370000E-01	  0.069899797	-1.490000E+00
251	  0.070100196	-2.560000E-01	  0.070100196	-1.769910E+02	  0.070100196	7.370000E-01	  0.070100196	-1.312000E+00
252	  0.070300601	-2.560000E-01	  0.070300601	-1.773960E+02	  0.070300601	7.380000E-01	  0.070300601	-1.136000E+00
253	  0.070501000	-2.570000E-01	  0.070501000	-1.777980E+02	  0.070501000	7.400000E-01	  0.070501000	-9.600000E-01
254	  0.070701398	-2.560000E-01	  0.070701398	-1.781800E+02	  0.070701398	7.390000E-01	  0.070701398	-7.930000E-01
255	  0.070901804	-2.560000E-01	  0.070901804	-1.785670E+02	  0.070901804	7.370000E-01	  0.070901804	-6.240000E-01
256	  0.071102202	-2.570000E-01	  0.071102202	-1.789730E+02	  0.071102202	7.420000E-01	  0.071102202	-4.470000E-01
257	  0.071302600	-2.570000E-01	  0.071302600	-1.793770E+02	  0.071302600	7.410000E-01	  0.071302600	-2.710000E-01
258	  0.071503006	-2.590000E-01	  0.071503006	-1.797650E+02	  0.071503006	7.460000E-01	  0.071503006	-1.020000E-01
259	  0.071703404	-2.600000E-01	  0.071703404	1.798300E+02	  0.071703404	7.490000E-01	  0.071703404	7.400000E-02
260	  0.071903802	-2.610000E-01	  0.071903802	1.794110E+02	  0.071903802	7.510000E-01	  0.071903802	2.560000E-01
261	  0.072104208	-2.650000E-01	  0.072104208	1.790120E+02	  0.072104208	7.620000E-01	  0.072104208	4.300000E-01
262	  0.072304606	-2.680000E-01	  0.072304606	1.785910E+02	  0.072304606	7.710000E-01	  0.072304606	6.140000E-01
263	  0.072505005	-2.680000E-01	  0.072505005	1.781860E+02	  0.072505005	7.740000E-01	  0.072505005	7.910000E-01
264	  0.072705410	-2.710000E-01	  0.072705410	1.777840E+02	  0.072705410	7.810000E-01	  0.072705410	9.660000E-01
265	  0.072905809	-2.720000E-01	  0.072905809	1.773800E+02	  0.072905809	7.830000E-01	  0.072905809	1.142000E+00
266	  0.073106214	-2.720000E-01	  0.073106214	1.769680E+02	  0.073106214	7.860000E-01	  0.073106214	1.322000E+00
267	  0.073306613	-2.760000E-01	  0.073306613	1.765350E+02	  0.073306613	7.950000E-01	  0.073306613	1.511000E+00
268	  0.073507011	-2.780000E-01	  0.073507011	1.761130E+02	  0.073507011	8.030000E-01	  0.073507011	1.695000E+00
269	  0.073707417	-2.790000E-01	  0.073707417	1.756850E+02	  0.073707417	8.050000E-01	  0.073707417	1.883000E+00
270	  0.073907815	-2.790000E-01	  0.073907815	1.752630E+02	  0.073907815	8.040000E-01	  0.073907815	2.067000E+00
271	  0.074108213	-2.760000E-01	  0.074108213	1.748500E+02	  0.074108213	7.960000E-01	  0.074108213	2.247000E+00
272	  0.074308619	-2.740000E-01	  0.074308619	1.744360E+02	  0.074308619	7.920000E-01	  0.074308619	2.428000E+00
273	  0.074509017	-2.740000E-01	  0.074509017	1.740340E+02	  0.074509017	7.930000E-01	  0.074509017	2.604000E+00
274	  0.074709415	-2.760000E-01	  0.074709415	1.736120E+02	  0.074709415	7.990000E-01	  0.074709415	2.789000E+00
275	  0.074909821	-2.800000E-01	  0.074909821	1.732080E+02	  0.074909821	8.110000E-01	  0.074909821	2.965000E+00
276	  0.075110219	-2.810000E-01	  0.075110219	1.727880E+02	  0.075110219	8.140000E-01	  0.075110219	3.149000E+00
277	  0.075310618	-2.820000E-01	  0.075310618	1.723720E+02	  0.075310618	8.160000E-01	  0.075310618	3.332000E+00
278	  0.075511023	-2.800000E-01	  0.075511023	1.719770E+02	  0.075511023	8.100000E-01	  0.075511023	3.505000E+00
279	  0.075711422	-2.830000E-01	  0.075711422	1.715820E+02	  0.075711422	8.210000E-01	  0.075711422	3.678000E+00
280	  0.075911827	-2.820000E-01	  0.075911827	1.712250E+02	  0.075911827	8.160000E-01	  0.075911827	3.834000E+00
281	  0.076112226	-2.810000E-01	  0.076112226	1.708400E+02	  0.076112226	8.150000E-01	  0.076112226	4.003000E+00
282	  0.076312624	-2.810000E-01	  0.076312624	1.704450E+02	  0.076312624	8.150000E-01	  0.076312624	4.177000E+00
283	  0.076513030	-2.820000E-01	  0.076513030	1.700580E+02	  0.076513030	8.180000E-01	  0.076513030	4.347000E+00
284	  0.076713428	-2.820000E-01	  0.076713428	1.696770E+02	  0.076713428	8.200000E-01	  0.076713428	4.514000E+00
285	  0.076913826	-2.820000E-01	  0.076913826	1.692790E+02	  0.076913826	8.200000E-01	  0.076913826	4.690000E+00
286	  0.077114232	-2.810000E-01	  0.077114232	1.689010E+02	  0.077114232	8.170000E-01	  0.077114232	4.856000E+00
287	  0.077314630	-2.860000E-01	  0.077314630	1.685070E+02	  0.077314630	8.330000E-01	  0.077314630	5.029000E+00
288	  0.077515028	-2.860000E-01	  0.077515028	1.681100E+02	  0.077515028	8.330000E-01	  0.077515028	5.205000E+00
289	  0.077715434	-2.870000E-01	  0.077715434	1.677270E+02	  0.077715434	8.350000E-01	  0.077715434	5.373000E+00
290	  0.077915832	-2.890000E-01	  0.077915832	1.673470E+02	  0.077915832	8.430000E-01	  0.077915832	5.541000E+00
291	  0.078116231	-2.890000E-01	  0.078116231	1.669760E+02	  0.078116231	8.450000E-01	  0.078116231	5.705000E+00
292	  0.078316636	-2.910000E-01	  0.078316636	1.665700E+02	  0.078316636	8.510000E-01	  0.078316636	5.884000E+00
293	  0.078517035	-2.950000E-01	  0.078517035	1.661720E+02	  0.078517035	8.610000E-01	  0.078517035	6.060000E+00
294	  0.078717433	-2.970000E-01	  0.078717433	1.657320E+02	  0.078717433	8.700000E-01	  0.078717433	6.255000E+00
295	  0.078917839	-2.980000E-01	  0.078917839	1.653260E+02	  0.078917839	8.720000E-01	  0.078917839	6.435000E+00
296	  0.079118237	-2.970000E-01	  0.079118237	1.649210E+02	  0.079118237	8.710000E-01	  0.079118237	6.615000E+00
297	  0.079318643	-2.960000E-01	  0.079318643	1.645280E+02	  0.079318643	8.690000E-01	  0.079318643	6.789000E+00
298	  0.079519041	-2.960000E-01	  0.079519041	1.641400E+02	  0.079519041	8.690000E-01	  0.079519041	6.962000E+00
299	  0.079719439	-2.960000E-01	  0.079719439	1.637320E+02	  0.079719439	8.710000E-01	  0.079719439	7.143000E+00
300	  0.079919845	-3.000000E-01	  0.079919845	1.633320E+02	  0.079919845	8.840000E-01	  0.079919845	7.321000E+00
301	  0.080120243	-3.020000E-01	  0.080120243	1.629160E+02	  0.080120243	8.910000E-01	  0.080120243	7.507000E+00
302	  0.080320641	-3.020000E-01	  0.080320641	1.625190E+02	  0.080320641	8.900000E-01	  0.080320641	7.684000E+00
303	  0.080521047	-3.030000E-01	  0.080521047	1.621260E+02	  0.080521047	8.950000E-01	  0.080521047	7.860000E+00
304	  0.080721445	-3.040000E-01	  0.080721445	1.617500E+02	  0.080721445	8.990000E-01	  0.080721445	8.028000E+00
305	  0.080921844	-3.030000E-01	  0.080921844	1.613580E+02	  0.080921844	8.980000E-01	  0.080921844	8.203000E+00
306	  0.081122249	-3.050000E-01	  0.081122249	1.609560E+02	  0.081122249	9.030000E-01	  0.081122249	8.383000E+00
307	  0.081322648	-3.030000E-01	  0.081322648	1.605910E+02	  0.081322648	8.990000E-01	  0.081322648	8.547000E+00
308	  0.081523046	-3.010000E-01	  0.081523046	1.602160E+02	  0.081523046	8.930000E-01	  0.081523046	8.716000E+00
309	  0.081723452	-3.020000E-01	  0.081723452	1.598230E+02	  0.081723452	8.960000E-01	  0.081723452	8.892000E+00
310	  0.081923850	-3.020000E-01	  0.081923850	1.594650E+02	  0.081923850	8.990000E-01	  0.081923850	9.054000E+00
311	  0.082124248	-3.030000E-01	  0.082124248	1.590690E+02	  0.082124248	9.030000E-01	  0.082124248	9.232000E+00
312	  0.082324654	-3.030000E-01	  0.082324654	1.586980E+02	  0.082324654	9.040000E-01	  0.082324654	9.400000E+00
313	  0.082525052	-3.020000E-01	  0.082525052	1.583210E+02	  0.082525052	9.030000E-01	  0.082525052	9.570000E+00
314	  0.082725458	-3.000000E-01	  0.082725458	1.579540E+02	  0.082725458	8.970000E-01	  0.082725458	9.736000E+00
315	  0.082925856	-3.020000E-01	  0.082925856	1.575980E+02	  0.082925856	9.030000E-01	  0.082925856	9.897000E+00
316	  0.083126254	-3.030000E-01	  0.083126254	1.572510E+02	  0.083126254	9.090000E-01	  0.083126254	1.005500E+01
317	  0.083326660	-3.080000E-01	  0.083326660	1.568850E+02	  0.083326660	9.250000E-01	  0.083326660	1.022100E+01
318	  0.083527058	-3.100000E-01	  0.083527058	1.565180E+02	  0.083527058	9.330000E-01	  0.083527058	1.038800E+01
319	  0.083727457	-3.140000E-01	  0.083727457	1.561230E+02	  0.083727457	9.450000E-01	  0.083727457	1.056700E+01
320	  0.083927862	-3.150000E-01	  0.083927862	1.557200E+02	  0.083927862	9.490000E-01	  0.083927862	1.075100E+01
321	  0.084128261	-3.170000E-01	  0.084128261	1.553000E+02	  0.084128261	9.580000E-01	  0.084128261	1.094300E+01
322	  0.084328659	-3.170000E-01	  0.084328659	1.549000E+02	  0.084328659	9.570000E-01	  0.084328659	1.112600E+01
323	  0.084529065	-3.170000E-01	  0.084529065	1.545190E+02	  0.084529065	9.600000E-01	  0.084529065	1.130000E+01
324	  0.084729463	-3.160000E-01	  0.084729463	1.541260E+02	  0.084729463	9.590000E-01	  0.084729463	1.148100E+01
325	  0.084929861	-3.180000E-01	  0.084929861	1.537530E+02	  0.084929861	9.670000E-01	  0.084929861	1.165200E+01
326	  0.085130267	-3.190000E-01	  0.085130267	1.533290E+02	  0.085130267	9.720000E-01	  0.085130267	1.184700E+01
327	  0.085330658	-3.220000E-01	  0.085330658	1.529400E+02	  0.085330658	9.800000E-01	  0.085330658	1.202700E+01
328	  0.085531056	-3.230000E-01	  0.085531056	1.525440E+02	  0.085531056	9.850000E-01	  0.085531056	1.221000E+01
329	  0.085731462	-3.250000E-01	  0.085731462	1.521700E+02	  0.085731462	9.920000E-01	  0.085731462	1.238300E+01
330	  0.085931860	-3.270000E-01	  0.085931860	1.517730E+02	  0.085931860	1.002000E+00	  0.085931860	1.256600E+01
331	  0.086132258	-3.280000E-01	  0.086132258	1.513930E+02	  0.086132258	1.006000E+00	  0.086132258	1.274300E+01
332	  0.086332664	-3.290000E-01	  0.086332664	1.510110E+02	  0.086332664	1.012000E+00	  0.086332664	1.292000E+01
333	  0.086533062	-3.280000E-01	  0.086533062	1.506330E+02	  0.086533062	1.009000E+00	  0.086533062	1.309600E+01
334	  0.086733460	-3.240000E-01	  0.086733460	1.502470E+02	  0.086733460	1.000000E+00	  0.086733460	1.327600E+01
335	  0.086933866	-3.220000E-01	  0.086933866	1.498590E+02	  0.086933866	9.940000E-01	  0.086933866	1.345800E+01
336	  0.087134264	-3.250000E-01	  0.087134264	1.495050E+02	  0.087134264	1.005000E+00	  0.087134264	1.362300E+01
337	  0.087334670	-3.210000E-01	  0.087334670	1.491360E+02	  0.087334670	9.960000E-01	  0.087334670	1.379700E+01
338	  0.087535068	-3.200000E-01	  0.087535068	1.487760E+02	  0.087535068	9.930000E-01	  0.087535068	1.396500E+01
339	  0.087735467	-3.170000E-01	  0.087735467	1.484090E+02	  0.087735467	9.860000E-01	  0.087735467	1.413900E+01
340	  0.087935872	-3.140000E-01	  0.087935872	1.480610E+02	  0.087935872	9.800000E-01	  0.087935872	1.430300E+01
341	  0.088136271	-3.140000E-01	  0.088136271	1.477330E+02	  0.088136271	9.810000E-01	  0.088136271	1.445700E+01
342	  0.088336669	-3.130000E-01	  0.088336669	1.473850E+02	  0.088336669	9.800000E-01	  0.088336669	1.462200E+01
343	  0.088537075	-3.150000E-01	  0.088537075	1.470670E+02	  0.088537075	9.880000E-01	  0.088537075	1.477300E+01
344	  0.088737473	-3.150000E-01	  0.088737473	1.467030E+02	  0.088737473	9.890000E-01	  0.088737473	1.494600E+01
345	  0.088937871	-3.220000E-01	  0.088937871	1.463610E+02	  0.088937871	1.012000E+00	  0.088937871	1.510800E+01
346	  0.089138277	-3.230000E-01	  0.089138277	1.459790E+02	  0.089138277	1.019000E+00	  0.089138277	1.529000E+01
347	  0.089338675	-3.230000E-01	  0.089338675	1.456060E+02	  0.089338675	1.019000E+00	  0.089338675	1.546800E+01
348	  0.089539073	-3.240000E-01	  0.089539073	1.452440E+02	  0.089539073	1.025000E+00	  0.089539073	1.564100E+01
349	  0.089739479	-3.240000E-01	  0.089739479	1.448820E+02	  0.089739479	1.027000E+00	  0.089739479	1.581500E+01
350	  0.089939877	-3.270000E-01	  0.089939877	1.445020E+02	  0.089939877	1.038000E+00	  0.089939877	1.599700E+01
351	  0.090140276	-3.280000E-01	  0.090140276	1.441260E+02	  0.090140276	1.045000E+00	  0.090140276	1.617800E+01
352	  0.090340681	-3.280000E-01	  0.090340681	1.437380E+02	  0.090340681	1.047000E+00	  0.090340681	1.636500E+01
353	  0.090541080	-3.290000E-01	  0.090541080	1.433590E+02	  0.090541080	1.053000E+00	  0.090541080	1.654800E+01
354	  0.090741485	-3.300000E-01	  0.090741485	1.429700E+02	  0.090741485	1.057000E+00	  0.090741485	1.673700E+01
355	  0.090941884	-3.330000E-01	  0.090941884	1.426140E+02	  0.090941884	1.070000E+00	  0.090941884	1.691000E+01
356	  0.091142282	-3.360000E-01	  0.091142282	1.422280E+02	  0.091142282	1.081000E+00	  0.091142282	1.709700E+01
357	  0.091342688	-3.400000E-01	  0.091342688	1.418650E+02	  0.091342688	1.097000E+00	  0.091342688	1.727400E+01
358	  0.091543086	-3.410000E-01	  0.091543086	1.414830E+02	  0.091543086	1.102000E+00	  0.091543086	1.746100E+01
359	  0.091743484	-3.410000E-01	  0.091743484	1.410990E+02	  0.091743484	1.106000E+00	  0.091743484	1.764900E+01
360	  0.091943890	-3.370000E-01	  0.091943890	1.407160E+02	  0.091943890	1.095000E+00	  0.091943890	1.783700E+01
361	  0.092144288	-3.380000E-01	  0.092144288	1.403300E+02	  0.092144288	1.102000E+00	  0.092144288	1.802700E+01
362	  0.092344686	-3.390000E-01	  0.092344686	1.399680E+02	  0.092344686	1.107000E+00	  0.092344686	1.820600E+01
363	  0.092545092	-3.370000E-01	  0.092545092	1.395940E+02	  0.092545092	1.102000E+00	  0.092545092	1.839100E+01
364	  0.092745490	-3.390000E-01	  0.092745490	1.392260E+02	  0.092745490	1.113000E+00	  0.092745490	1.857300E+01
365	  0.092945889	-3.370000E-01	  0.092945889	1.388520E+02	  0.092945889	1.107000E+00	  0.092945889	1.875900E+01
366	  0.093146294	-3.330000E-01	  0.093146294	1.385010E+02	  0.093146294	1.099000E+00	  0.093146294	1.893400E+01
367	  0.093346693	-3.310000E-01	  0.093346693	1.381590E+02	  0.093346693	1.093000E+00	  0.093346693	1.910500E+01
368	  0.093547091	-3.300000E-01	  0.093547091	1.378260E+02	  0.093547091	1.093000E+00	  0.093547091	1.927200E+01
369	  0.093747497	-3.320000E-01	  0.093747497	1.374790E+02	  0.093747497	1.102000E+00	  0.093747497	1.944600E+01
370	  0.093947895	-3.350000E-01	  0.093947895	1.371210E+02	  0.093947895	1.112000E+00	  0.093947895	1.962500E+01
371	  0.094148301	-3.360000E-01	  0.094148301	1.367630E+02	  0.094148301	1.119000E+00	  0.094148301	1.980600E+01
372	  0.094348699	-3.360000E-01	  0.094348699	1.363980E+02	  0.094348699	1.121000E+00	  0.094348699	1.999000E+01
373	  0.094549097	-3.380000E-01	  0.094549097	1.360370E+02	  0.094549097	1.132000E+00	  0.094549097	2.017300E+01
374	  0.094749503	-3.400000E-01	  0.094749503	1.356670E+02	  0.094749503	1.142000E+00	  0.094749503	2.036100E+01
375	  0.094949901	-3.400000E-01	  0.094949901	1.353190E+02	  0.094949901	1.145000E+00	  0.094949901	2.053800E+01
376	  0.095150299	-3.430000E-01	  0.095150299	1.349420E+02	  0.095150299	1.157000E+00	  0.095150299	2.073000E+01
377	  0.095350705	-3.450000E-01	  0.095350705	1.345810E+02	  0.095350705	1.169000E+00	  0.095350705	2.091500E+01
378	  0.095551103	-3.430000E-01	  0.095551103	1.342040E+02	  0.095551103	1.166000E+00	  0.095551103	2.110800E+01
379	  0.095751502	-3.430000E-01	  0.095751502	1.338300E+02	  0.095751502	1.166000E+00	  0.095751502	2.130100E+01
380	  0.095951907	-3.410000E-01	  0.095951907	1.334620E+02	  0.095951907	1.163000E+00	  0.095951907	2.149100E+01
381	  0.096152306	-3.410000E-01	  0.096152306	1.331160E+02	  0.096152306	1.168000E+00	  0.096152306	2.167000E+01
382	  0.096352704	-3.460000E-01	  0.096352704	1.327580E+02	  0.096352704	1.189000E+00	  0.096352704	2.185500E+01
383	  0.096553110	-3.490000E-01	  0.096553110	1.324260E+02	  0.096553110	1.202000E+00	  0.096553110	2.202800E+01
384	  0.096753508	-3.480000E-01	  0.096753508	1.320620E+02	  0.096753508	1.200000E+00	  0.096753508	2.221700E+01
385	  0.096953906	-3.470000E-01	  0.096953906	1.316820E+02	  0.096953906	1.202000E+00	  0.096953906	2.241600E+01
386	  0.097154312	-3.450000E-01	  0.097154312	1.313360E+02	  0.097154312	1.198000E+00	  0.097154312	2.259800E+01
387	  0.097354710	-3.470000E-01	  0.097354710	1.309850E+02	  0.097354710	1.207000E+00	  0.097354710	2.278200E+01
388	  0.097555116	-3.490000E-01	  0.097555116	1.306250E+02	  0.097555116	1.218000E+00	  0.097555116	2.297200E+01
389	  0.097755514	-3.480000E-01	  0.097755514	1.302900E+02	  0.097755514	1.219000E+00	  0.097755514	2.315000E+01
390	  0.097955912	-3.440000E-01	  0.097955912	1.299350E+02	  0.097955912	1.207000E+00	  0.097955912	2.333800E+01
391	  0.098156318	-3.430000E-01	  0.098156318	1.295860E+02	  0.098156318	1.205000E+00	  0.098156318	2.352400E+01
392	  0.098356716	-3.390000E-01	  0.098356716	1.292490E+02	  0.098356716	1.197000E+00	  0.098356716	2.370400E+01
393	  0.098557115	-3.410000E-01	  0.098557115	1.288960E+02	  0.098557115	1.205000E+00	  0.098557115	2.389200E+01
394	  0.098757520	-3.400000E-01	  0.098757520	1.285980E+02	  0.098757520	1.208000E+00	  0.098757520	2.405200E+01
395	  0.098957919	-3.400000E-01	  0.098957919	1.282690E+02	  0.098957919	1.210000E+00	  0.098957919	2.422900E+01
396	  0.099158317	-3.420000E-01	  0.099158317	1.279220E+02	  0.099158317	1.219000E+00	  0.099158317	2.441600E+01
397	  0.099358723	-3.440000E-01	  0.099358723	1.275780E+02	  0.099358723	1.231000E+00	  0.099358723	2.460200E+01
398	  0.099559121	-3.440000E-01	  0.099559121	1.272090E+02	  0.099559121	1.235000E+00	  0.099559121	2.480200E+01
399	  0.099759519	-3.450000E-01	  0.099759519	1.268850E+02	  0.099759519	1.240000E+00	  0.099759519	2.497900E+01
400	  0.099959925	-3.510000E-01	  0.099959925	1.265320E+02	  0.099959925	1.268000E+00	  0.099959925	2.517100E+01
401	  0.100160323	-3.520000E-01	  0.100160323	1.261450E+02	  0.100160323	1.277000E+00	  0.100160323	2.538300E+01
402	  0.100360721	-3.570000E-01	  0.100360721	1.257860E+02	  0.100360721	1.299000E+00	  0.100360721	2.557900E+01
403	  0.100561127	-3.560000E-01	  0.100561127	1.254290E+02	  0.100561127	1.300000E+00	  0.100561127	2.577700E+01
404	  0.100761525	-3.570000E-01	  0.100761525	1.250680E+02	  0.100761525	1.306000E+00	  0.100761525	2.597600E+01
405	  0.100961931	-3.540000E-01	  0.100961931	1.246720E+02	  0.100961931	1.298000E+00	  0.100961931	2.619600E+01
406	  0.101162329	-3.550000E-01	  0.101162329	1.243000E+02	  0.101162329	1.309000E+00	  0.101162329	2.640300E+01
407	  0.101362728	-3.540000E-01	  0.101362728	1.239410E+02	  0.101362728	1.310000E+00	  0.101362728	2.660300E+01
408	  0.101563133	-3.580000E-01	  0.101563133	1.235800E+02	  0.101563133	1.330000E+00	  0.101563133	2.680600E+01
409	  0.101763532	-3.620000E-01	  0.101763532	1.232030E+02	  0.101763532	1.347000E+00	  0.101763532	2.701700E+01
410	  0.101963930	-3.650000E-01	  0.101963930	1.228530E+02	  0.101963930	1.362000E+00	  0.101963930	2.721500E+01
411	  0.102164336	-3.620000E-01	  0.102164336	1.225040E+02	  0.102164336	1.355000E+00	  0.102164336	2.741200E+01
412	  0.102364734	-3.570000E-01	  0.102364734	1.221430E+02	  0.102364734	1.344000E+00	  0.102364734	2.761800E+01
413	  0.102565132	-3.610000E-01	  0.102565132	1.218150E+02	  0.102565132	1.360000E+00	  0.102565132	2.780500E+01
414	  0.102765530	-3.580000E-01	  0.102765530	1.214200E+02	  0.102765530	1.355000E+00	  0.102765530	2.803100E+01
415	  0.102965929	-3.590000E-01	  0.102965929	1.210950E+02	  0.102965929	1.365000E+00	  0.102965929	2.821700E+01
416	  0.103166327	-3.610000E-01	  0.103166327	1.207440E+02	  0.103166327	1.375000E+00	  0.103166327	2.841900E+01
417	  0.103366733	-3.540000E-01	  0.103366733	1.204210E+02	  0.103366733	1.353000E+00	  0.103366733	2.860600E+01
418	  0.103567131	-3.540000E-01	  0.103567131	1.200640E+02	  0.103567131	1.360000E+00	  0.103567131	2.881300E+01
419	  0.103767529	-3.530000E-01	  0.103767529	1.196990E+02	  0.103767529	1.360000E+00	  0.103767529	2.902600E+01
420	  0.103967935	-3.570000E-01	  0.103967935	1.194670E+02	  0.103967935	1.377000E+00	  0.103967935	2.916100E+01
421	  0.104168333	-3.580000E-01	  0.104168333	1.191290E+02	  0.104168333	1.388000E+00	  0.104168333	2.935900E+01
422	  0.104368731	-3.570000E-01	  0.104368731	1.187830E+02	  0.104368731	1.387000E+00	  0.104368731	2.956200E+01
423	  0.104569137	-3.550000E-01	  0.104569137	1.184860E+02	  0.104569137	1.386000E+00	  0.104569137	2.973700E+01
424	  0.104769535	-3.530000E-01	  0.104769535	1.181290E+02	  0.104769535	1.383000E+00	  0.104769535	2.994900E+01
425	  0.104969934	-3.580000E-01	  0.104969934	1.177780E+02	  0.104969934	1.405000E+00	  0.104969934	3.015700E+01
426	  0.105170339	-3.610000E-01	  0.105170339	1.174660E+02	  0.105170339	1.424000E+00	  0.105170339	3.034200E+01
427	  0.105370738	-3.630000E-01	  0.105370738	1.171170E+02	  0.105370738	1.435000E+00	  0.105370738	3.055100E+01
428	  0.105571143	-3.690000E-01	  0.105571143	1.167870E+02	  0.105571143	1.465000E+00	  0.105571143	3.074800E+01
429	  0.105771542	-3.680000E-01	  0.105771542	1.164580E+02	  0.105771542	1.466000E+00	  0.105771542	3.094600E+01
430	  0.105971940	-3.700000E-01	  0.105971940	1.160730E+02	  0.105971940	1.480000E+00	  0.105971940	3.117900E+01
431	  0.106172346	-3.660000E-01	  0.106172346	1.157130E+02	  0.106172346	1.470000E+00	  0.106172346	3.139700E+01
432	  0.106372744	-3.670000E-01	  0.106372744	1.153360E+02	  0.106372744	1.481000E+00	  0.106372744	3.162700E+01
433	  0.106573142	-3.650000E-01	  0.106573142	1.149730E+02	  0.106573142	1.478000E+00	  0.106573142	3.185000E+01
434	  0.106773548	-3.690000E-01	  0.106773548	1.146350E+02	  0.106773548	1.500000E+00	  0.106773548	3.205700E+01
435	  0.106973946	-3.690000E-01	  0.106973946	1.142400E+02	  0.106973946	1.505000E+00	  0.106973946	3.230000E+01
436	  0.107174344	-3.670000E-01	  0.107174344	1.139090E+02	  0.107174344	1.504000E+00	  0.107174344	3.250500E+01
437	  0.107374750	-3.700000E-01	  0.107374750	1.135600E+02	  0.107374750	1.522000E+00	  0.107374750	3.272200E+01
438	  0.107575148	-3.650000E-01	  0.107575148	1.132190E+02	  0.107575148	1.509000E+00	  0.107575148	3.293500E+01
439	  0.107775547	-3.660000E-01	  0.107775547	1.129040E+02	  0.107775547	1.517000E+00	  0.107775547	3.313300E+01
440	  0.107975952	-3.640000E-01	  0.107975952	1.125340E+02	  0.107975952	1.518000E+00	  0.107975952	3.336500E+01
441	  0.108176351	-3.590000E-01	  0.108176351	1.121850E+02	  0.108176351	1.503000E+00	  0.108176351	3.358600E+01
442	  0.108376749	-3.590000E-01	  0.108376749	1.118450E+02	  0.108376749	1.509000E+00	  0.108376749	3.380200E+01
443	  0.108577155	-3.620000E-01	  0.108577155	1.115550E+02	  0.108577155	1.523000E+00	  0.108577155	3.398600E+01
444	  0.108777553	-3.580000E-01	  0.108777553	1.112270E+02	  0.108777553	1.513000E+00	  0.108777553	3.419600E+01
445	  0.108977959	-3.580000E-01	  0.108977959	1.109060E+02	  0.108977959	1.518000E+00	  0.108977959	3.440200E+01
446	  0.109178357	-3.530000E-01	  0.109178357	1.106310E+02	  0.109178357	1.502000E+00	  0.109178357	3.458000E+01
447	  0.109378755	-3.570000E-01	  0.109378755	1.103180E+02	  0.109378755	1.527000E+00	  0.109378755	3.478100E+01
448	  0.109579161	-3.560000E-01	  0.109579161	1.099860E+02	  0.109579161	1.530000E+00	  0.109579161	3.499700E+01
449	  0.109779559	-3.570000E-01	  0.109779559	1.096790E+02	  0.109779559	1.537000E+00	  0.109779559	3.519700E+01
450	  0.109979957	-3.500000E-01	  0.109979957	1.094100E+02	  0.109979957	1.514000E+00	  0.109979957	3.537300E+01
451	  0.110180363	-3.560000E-01	  0.110180363	1.090910E+02	  0.110180363	1.545000E+00	  0.110180363	3.558200E+01
452	  0.110380761	-3.570000E-01	  0.110380761	1.088050E+02	  0.110380761	1.555000E+00	  0.110380761	3.577000E+01
453	  0.110581160	-3.580000E-01	  0.110581160	1.084630E+02	  0.110581160	1.566000E+00	  0.110581160	3.599500E+01
454	  0.110781565	-3.650000E-01	  0.110781565	1.081430E+02	  0.110781565	1.604000E+00	  0.110781565	3.620700E+01
455	  0.110981964	-3.680000E-01	  0.110981964	1.077780E+02	  0.110981964	1.624000E+00	  0.110981964	3.644900E+01
456	  0.111182362	-3.640000E-01	  0.111182362	1.074170E+02	  0.111182362	1.612000E+00	  0.111182362	3.669200E+01
457	  0.111382768	-3.640000E-01	  0.111382768	1.070840E+02	  0.111382768	1.622000E+00	  0.111382768	3.691500E+01
458	  0.111583166	-3.670000E-01	  0.111583166	1.067140E+02	  0.111583166	1.644000E+00	  0.111583166	3.716500E+01
459	  0.111783572	-3.700000E-01	  0.111783572	1.064170E+02	  0.111783572	1.662000E+00	  0.111783572	3.736600E+01
460	  0.111983970	-3.680000E-01	  0.111983970	1.060590E+02	  0.111983970	1.658000E+00	  0.111983970	3.761000E+01
461	  0.112184368	-3.710000E-01	  0.112184368	1.056770E+02	  0.112184368	1.683000E+00	  0.112184368	3.787100E+01
462	  0.112384774	-3.720000E-01	  0.112384774	1.053550E+02	  0.112384774	1.694000E+00	  0.112384774	3.809200E+01
463	  0.112585172	-3.700000E-01	  0.112585172	1.049570E+02	  0.112585172	1.693000E+00	  0.112585172	3.836800E+01
464	  0.112785570	-3.710000E-01	  0.112785570	1.046120E+02	  0.112785570	1.707000E+00	  0.112785570	3.860700E+01
465	  0.112985976	-3.720000E-01	  0.112985976	1.042560E+02	  0.112985976	1.717000E+00	  0.112985976	3.885500E+01
466	  0.113186374	-3.630000E-01	  0.113186374	1.039030E+02	  0.113186374	1.686000E+00	  0.113186374	3.910400E+01
467	  0.113386773	-3.680000E-01	  0.113386773	1.036120E+02	  0.113386773	1.716000E+00	  0.113386773	3.930800E+01
468	  0.113587178	-3.650000E-01	  0.113587178	1.032420E+02	  0.113587178	1.710000E+00	  0.113587178	3.957000E+01
469	  0.113787577	-3.600000E-01	  0.113787577	1.029420E+02	  0.113787577	1.694000E+00	  0.113787577	3.978500E+01
470	  0.113987975	-3.570000E-01	  0.113987975	1.025940E+02	  0.113987975	1.689000E+00	  0.113987975	4.003300E+01
471	  0.114188381	-3.510000E-01	  0.114188381	1.023450E+02	  0.114188381	1.667000E+00	  0.114188381	4.021200E+01
472	  0.114388779	-3.560000E-01	  0.114388779	1.019800E+02	  0.114388779	1.696000E+00	  0.114388779	4.047500E+01
473	  0.114589177	-3.590000E-01	  0.114589177	1.016990E+02	  0.114589177	1.721000E+00	  0.114589177	4.067800E+01
474	  0.114789583	-3.580000E-01	  0.114789583	1.013900E+02	  0.114789583	1.722000E+00	  0.114789583	4.090200E+01
475	  0.114989981	-3.530000E-01	  0.114989981	1.010680E+02	  0.114989981	1.707000E+00	  0.114989981	4.113700E+01
476	  0.115190387	-3.520000E-01	  0.115190387	1.007950E+02	  0.115190387	1.707000E+00	  0.115190387	4.133700E+01
477	  0.115390785	-3.500000E-01	  0.115390785	1.005210E+02	  0.115390785	1.707000E+00	  0.115390785	4.154000E+01
478	  0.115591183	-3.520000E-01	  0.115591183	1.002030E+02	  0.115591183	1.725000E+00	  0.115591183	4.177400E+01
479	  0.115791589	-3.590000E-01	  0.115791589	9.989400E+01	  0.115791589	1.765000E+00	  0.115791589	4.200200E+01
480	  0.115991987	-3.570000E-01	  0.115991987	9.958100E+01	  0.115991987	1.764000E+00	  0.115991987	4.223600E+01
481	  0.116192386	-3.580000E-01	  0.116192386	9.926500E+01	  0.116192386	1.774000E+00	  0.116192386	4.247300E+01
482	  0.116392791	-3.620000E-01	  0.116392791	9.895100E+01	  0.116392791	1.805000E+00	  0.116392791	4.270800E+01
483	  0.116593190	-3.600000E-01	  0.116593190	9.861000E+01	  0.116593190	1.803000E+00	  0.116593190	4.296600E+01
484	  0.116793588	-3.630000E-01	  0.116793588	9.829200E+01	  0.116793588	1.827000E+00	  0.116793588	4.320800E+01
485	  0.116993994	-3.640000E-01	  0.116993994	9.795100E+01	  0.116993994	1.841000E+00	  0.116993994	4.346800E+01
486	  0.117194392	-3.670000E-01	  0.117194392	9.761900E+01	  0.117194392	1.866000E+00	  0.117194392	4.372100E+01
487	  0.117394790	-3.690000E-01	  0.117394790	9.728100E+01	  0.117394790	1.885000E+00	  0.117394790	4.398200E+01
488	  0.117595196	-3.700000E-01	  0.117595196	9.695100E+01	  0.117595196	1.899000E+00	  0.117595196	4.423800E+01
489	  0.117795594	-3.680000E-01	  0.117795594	9.659800E+01	  0.117795594	1.904000E+00	  0.117795594	4.451300E+01
490	  0.117995992	-3.640000E-01	  0.117995992	9.622600E+01	  0.117995992	1.890000E+00	  0.117995992	4.480600E+01
491	  0.118196398	-3.660000E-01	  0.118196398	9.590300E+01	  0.118196398	1.910000E+00	  0.118196398	4.506000E+01
492	  0.118396796	-3.710000E-01	  0.118396796	9.558000E+01	  0.118396796	1.946000E+00	  0.118396796	4.531500E+01
493	  0.118597202	-3.660000E-01	  0.118597202	9.523200E+01	  0.118597202	1.934000E+00	  0.118597202	4.559200E+01
494	  0.118797600	-3.610000E-01	  0.118797600	9.492800E+01	  0.118797600	1.914000E+00	  0.118797600	4.583700E+01
495	  0.118997999	-3.660000E-01	  0.118997999	9.459900E+01	  0.118997999	1.952000E+00	  0.118997999	4.610000E+01
496	  0.119198404	-3.610000E-01	  0.119198404	9.426200E+01	  0.119198404	1.936000E+00	  0.119198404	4.637400E+01
497	  0.119398803	-3.620000E-01	  0.119398803	9.394200E+01	  0.119398803	1.949000E+00	  0.119398803	4.663400E+01
498	  0.119599201	-3.640000E-01	  0.119599201	9.362900E+01	  0.119599201	1.970000E+00	  0.119599201	4.688900E+01
499	  0.119799607	-3.600000E-01	  0.119799607	9.331300E+01	  0.119799607	1.962000E+00	  0.119799607	4.715000E+01
500	  0.120000005	-3.590000E-01	  0.120000005	9.300500E+01	  0.120000005	1.967000E+00	  0.120000005	4.740500E+01
