! Anritsu VNA Master:             	Model: MS2036C/10/77
! SN:             	1601066
! /card0/usr/18may27.balun/5a..47.txt
! Existing Calibration Information:
! TYPE:             	Current Settings	Active Cal Settings
! TIME:             	05/27/2018 04:50:14 PM	05/27/2018 04:42:15 PM
! INTERNAL TEMP:    	53.0 C	52.0 C
! # POINTS:         	500	500
! START FREQ:       	20.000 MHz	20.000 MHz
! STOP FREQ:        	120.000 MHz	120.000 MHz
! SOURCE POWER:     	High	High
! IFBW:             	50 Hz	50 Hz
! AVG FACTOR:       	  1 	  1 
! REF PLANE 1:      	0 mm	0 mm
! REF PLANE 2:      	0 mm	0 mm
! CAL TYPE:         	Full S11	Full S11
! CAL METHOD:       	SOLT	SOLT
! CAL LINE TYPE:    	Coax	Coax
! DUT PORT 1:       	K-Conn(M)	K-Conn(M)
! DUT PORT 2:       	K-Conn(M)	K-Conn(M)
! CAL STATUS:       	OK: Accuracy High	--
! PROP-V:       	0.700
! CABLE LOSS:       	0.000 dB/m
! REF IMPEDANCE:       	50.0
! Trace Specific Parameters:	TR1	TR2	TR3	TR4
! TRACE.#.Y (GRAPH TYPE)	LOG MAG	PHASE	REAL IMPEDANCE	IMAGINARY IMPEDANCE
! TRACE.#.X 	FREQ.GHZ	FREQ.GHZ	FREQ.GHZ	FREQ.GHZ
! S-PARAMETER	S11	S11	S11	S11
! SMOOTH/APERTURE %	0	0	0	0
! WINDOW	NSL	NSL	NSL	NSL
! GATING	OFF	OFF	OFF	OFF
! FGTD	OFF	OFF	OFF	OFF
Marker Information per Trace:	TR1	TR2	TR3	TR4
!MK1	--	--	--	"MK1 TR4:  70.100 200 MHz,Z:(0.723 ohm, -1.722 ohm)"
!MK2	--	--	--	--
!MK3	--	--	--	--
!MK4	--	--	--	--
!MK5	--	--	--	--
!MK6	--	--	--	--
!MK7	--	--	--	--
!MK8	--	--	--	--
PNT	TR1.FREQ.GHZ	TR1.LOG MAG.dB	TR2.FREQ.GHZ	TR2.PHASE.deg	TR3.FREQ.GHZ	TR3.REAL IMPEDANCE.ohm	TR4.FREQ.GHZ	TR4.IMAGINARY IMPEDANCE.ohm
1	  0.020000000	-2.000000E-02	  0.020000000	-5.568900E+01	  0.020000000	2.760000E-01	  0.020000000	-9.465300E+01
2	  0.020200402	-1.400000E-02	  0.020200402	-5.620900E+01	  0.020200402	1.840000E-01	  0.020200402	-9.362300E+01
3	  0.020400802	-1.100000E-02	  0.020400802	-5.672200E+01	  0.020400802	1.460000E-01	  0.020400802	-9.262300E+01
4	  0.020601204	-8.000000E-03	  0.020601204	-5.721300E+01	  0.020601204	1.060000E-01	  0.020601204	-9.168100E+01
5	  0.020801604	-7.000000E-03	  0.020801604	-5.774800E+01	  0.020801604	8.800000E-02	  0.020801604	-9.067200E+01
6	  0.021002004	-6.000000E-03	  0.021002004	-5.829000E+01	  0.021002004	8.200000E-02	  0.021002004	-8.966500E+01
7	  0.021202406	-8.000000E-03	  0.021202406	-5.881500E+01	  0.021202406	1.050000E-01	  0.021202406	-8.870800E+01
8	  0.021402806	-1.000000E-02	  0.021402806	-5.935100E+01	  0.021402806	1.220000E-01	  0.021402806	-8.774500E+01
9	  0.021603208	-1.100000E-02	  0.021603208	-5.989000E+01	  0.021603208	1.350000E-01	  0.021603208	-8.679300E+01
10	  0.021803608	-1.900000E-02	  0.021803608	-6.041500E+01	  0.021803608	2.160000E-01	  0.021803608	-8.588100E+01
11	  0.022004008	-1.700000E-02	  0.022004008	-6.093600E+01	  0.022004008	1.990000E-01	  0.022004008	-8.499100E+01
12	  0.022204408	-2.300000E-02	  0.022204408	-6.149900E+01	  0.022204408	2.530000E-01	  0.022204408	-8.404300E+01
13	  0.022404809	-2.500000E-02	  0.022404809	-6.209000E+01	  0.022404809	2.750000E-01	  0.022404809	-8.306500E+01
14	  0.022605211	-2.700000E-02	  0.022605211	-6.267700E+01	  0.022605211	2.870000E-01	  0.022605211	-8.210900E+01
15	  0.022805611	-2.700000E-02	  0.022805611	-6.325700E+01	  0.022805611	2.840000E-01	  0.022805611	-8.118200E+01
16	  0.023006011	-2.000000E-02	  0.023006011	-6.384000E+01	  0.023006011	2.150000E-01	  0.023006011	-8.026400E+01
17	  0.023206413	-1.200000E-02	  0.023206413	-6.441800E+01	  0.023206413	1.270000E-01	  0.023206413	-7.937000E+01
18	  0.023406813	-9.000000E-03	  0.023406813	-6.501300E+01	  0.023406813	9.200000E-02	  0.023406813	-7.846400E+01
19	  0.023607215	-5.000000E-03	  0.023607215	-6.558400E+01	  0.023607215	5.800000E-02	  0.023607215	-7.760800E+01
20	  0.023807615	-4.000000E-03	  0.023807615	-6.610500E+01	  0.023807615	4.700000E-02	  0.023807615	-7.683800E+01
21	  0.024008015	-1.100000E-02	  0.024008015	-6.662100E+01	  0.024008015	1.080000E-01	  0.024008015	-7.608500E+01
22	  0.024208417	-1.400000E-02	  0.024208417	-6.710100E+01	  0.024208417	1.390000E-01	  0.024208417	-7.539500E+01
23	  0.024408817	-2.100000E-02	  0.024408817	-6.760600E+01	  0.024408817	1.990000E-01	  0.024408817	-7.467900E+01
24	  0.024609219	-2.500000E-02	  0.024609219	-6.808900E+01	  0.024609219	2.340000E-01	  0.024609219	-7.400300E+01
25	  0.024809619	-2.900000E-02	  0.024809619	-6.861500E+01	  0.024809619	2.670000E-01	  0.024809619	-7.327400E+01
26	  0.025010020	-3.400000E-02	  0.025010020	-6.915000E+01	  0.025010020	3.050000E-01	  0.025010020	-7.254500E+01
27	  0.025210422	-3.300000E-02	  0.025210422	-6.969800E+01	  0.025210422	2.990000E-01	  0.025210422	-7.180700E+01
28	  0.025410822	-3.500000E-02	  0.025410822	-7.024900E+01	  0.025410822	3.050000E-01	  0.025410822	-7.107600E+01
29	  0.025611224	-3.300000E-02	  0.025611224	-7.081200E+01	  0.025611224	2.900000E-01	  0.025611224	-7.033900E+01
30	  0.025811624	-3.300000E-02	  0.025811624	-7.135100E+01	  0.025811624	2.830000E-01	  0.025811624	-6.964300E+01
31	  0.026012026	-3.200000E-02	  0.026012026	-7.189500E+01	  0.026012026	2.690000E-01	  0.026012026	-6.895000E+01
32	  0.026212426	-2.500000E-02	  0.026212426	-7.241800E+01	  0.026212426	2.090000E-01	  0.026212426	-6.829200E+01
33	  0.026412826	-2.400000E-02	  0.026412826	-7.295300E+01	  0.026412826	2.020000E-01	  0.026412826	-6.762800E+01
34	  0.026613226	-2.400000E-02	  0.026613226	-7.344900E+01	  0.026613226	2.000000E-01	  0.026613226	-6.701900E+01
35	  0.026813626	-2.500000E-02	  0.026813626	-7.394100E+01	  0.026813626	2.050000E-01	  0.026813626	-6.642200E+01
36	  0.027014028	-2.800000E-02	  0.027014028	-7.442200E+01	  0.027014028	2.270000E-01	  0.027014028	-6.584500E+01
37	  0.027214428	-3.600000E-02	  0.027214428	-7.489900E+01	  0.027214428	2.860000E-01	  0.027214428	-6.527800E+01
38	  0.027414829	-4.600000E-02	  0.027414829	-7.545900E+01	  0.027414829	3.590000E-01	  0.027414829	-6.462200E+01
39	  0.027615231	-5.500000E-02	  0.027615231	-7.603600E+01	  0.027615231	4.170000E-01	  0.027615231	-6.395300E+01
40	  0.027815631	-5.900000E-02	  0.027815631	-7.664700E+01	  0.027815631	4.430000E-01	  0.027815631	-6.325500E+01
41	  0.028016033	-5.600000E-02	  0.028016033	-7.728000E+01	  0.028016033	4.180000E-01	  0.028016033	-6.254100E+01
42	  0.028216433	-4.900000E-02	  0.028216433	-7.789300E+01	  0.028216433	3.580000E-01	  0.028216433	-6.186000E+01
43	  0.028416833	-4.100000E-02	  0.028416833	-7.852600E+01	  0.028416833	2.990000E-01	  0.028416833	-6.116600E+01
44	  0.028617235	-3.200000E-02	  0.028617235	-7.912900E+01	  0.028617235	2.330000E-01	  0.028617235	-6.051400E+01
45	  0.028817635	-2.300000E-02	  0.028817635	-7.968300E+01	  0.028817635	1.630000E-01	  0.028817635	-5.992200E+01
46	  0.029018037	-1.500000E-02	  0.029018037	-8.018900E+01	  0.029018037	1.090000E-01	  0.029018037	-5.938700E+01
47	  0.029218437	-8.000000E-03	  0.029218437	-8.064300E+01	  0.029218437	5.900000E-02	  0.029218437	-5.891300E+01
48	  0.029418837	0.000000E+00	  0.029418837	-8.107900E+01	  0.029418837	2.000000E-03	  0.029418837	-5.846000E+01
49	  0.029619239	-1.000000E-03	  0.029619239	-8.150600E+01	  0.029619239	7.000000E-03	  0.029619239	-5.802100E+01
50	  0.029819639	-3.000000E-03	  0.029819639	-8.193600E+01	  0.029819639	2.000000E-02	  0.029819639	-5.758200E+01
51	  0.030020041	-8.000000E-03	  0.030020041	-8.238800E+01	  0.030020041	5.300000E-02	  0.030020041	-5.712500E+01
52	  0.030220442	-1.800000E-02	  0.030220442	-8.288900E+01	  0.030220442	1.200000E-01	  0.030220442	-5.662400E+01
53	  0.030420844	-3.000000E-02	  0.030420844	-8.339400E+01	  0.030420844	1.950000E-01	  0.030420844	-5.612400E+01
54	  0.030621244	-3.900000E-02	  0.030621244	-8.392600E+01	  0.030621244	2.510000E-01	  0.030621244	-5.560200E+01
55	  0.030821644	-4.200000E-02	  0.030821644	-8.447700E+01	  0.030821644	2.700000E-01	  0.030821644	-5.506600E+01
56	  0.031022044	-4.400000E-02	  0.031022044	-8.501000E+01	  0.031022044	2.770000E-01	  0.031022044	-5.455400E+01
57	  0.031222444	-4.300000E-02	  0.031222444	-8.555300E+01	  0.031222444	2.710000E-01	  0.031222444	-5.403800E+01
58	  0.031422846	-4.500000E-02	  0.031422846	-8.609400E+01	  0.031422846	2.780000E-01	  0.031422846	-5.352900E+01
59	  0.031623244	-4.700000E-02	  0.031623244	-8.662600E+01	  0.031623244	2.910000E-01	  0.031623244	-5.303300E+01
60	  0.031823646	-4.300000E-02	  0.031823646	-8.711900E+01	  0.031823646	2.660000E-01	  0.031823646	-5.257800E+01
61	  0.032024048	-4.200000E-02	  0.032024048	-8.759100E+01	  0.032024048	2.560000E-01	  0.032024048	-5.214600E+01
62	  0.032224450	-4.400000E-02	  0.032224450	-8.806800E+01	  0.032224450	2.660000E-01	  0.032224450	-5.171400E+01
63	  0.032424849	-4.800000E-02	  0.032424849	-8.852200E+01	  0.032424849	2.860000E-01	  0.032424849	-5.130500E+01
64	  0.032625251	-5.900000E-02	  0.032625251	-8.901200E+01	  0.032625251	3.460000E-01	  0.032625251	-5.086800E+01
65	  0.032825653	-6.900000E-02	  0.032825653	-8.953800E+01	  0.032825653	4.010000E-01	  0.032825653	-5.040200E+01
66	  0.033026051	-7.700000E-02	  0.033026051	-9.007600E+01	  0.033026051	4.460000E-01	  0.033026051	-4.993100E+01
67	  0.033226453	-8.300000E-02	  0.033226453	-9.065900E+01	  0.033226453	4.730000E-01	  0.033226453	-4.942500E+01
68	  0.033426855	-8.600000E-02	  0.033426855	-9.126000E+01	  0.033426855	4.880000E-01	  0.033426855	-4.890900E+01
69	  0.033627257	-9.000000E-02	  0.033627257	-9.186100E+01	  0.033627257	5.020000E-01	  0.033627257	-4.839900E+01
70	  0.033827655	-9.000000E-02	  0.033827655	-9.249400E+01	  0.033827655	4.960000E-01	  0.033827655	-4.786600E+01
71	  0.034028057	-8.400000E-02	  0.034028057	-9.308600E+01	  0.034028057	4.630000E-01	  0.034028057	-4.737400E+01
72	  0.034228459	-7.500000E-02	  0.034228459	-9.365500E+01	  0.034228459	4.060000E-01	  0.034228459	-4.690600E+01
73	  0.034428857	-6.000000E-02	  0.034428857	-9.418400E+01	  0.034428857	3.260000E-01	  0.034428857	-4.647400E+01
74	  0.034629259	-5.300000E-02	  0.034629259	-9.469400E+01	  0.034629259	2.830000E-01	  0.034629259	-4.606100E+01
75	  0.034829661	-4.200000E-02	  0.034829661	-9.516300E+01	  0.034829661	2.220000E-01	  0.034829661	-4.568500E+01
76	  0.035030060	-3.600000E-02	  0.035030060	-9.562500E+01	  0.035030060	1.930000E-01	  0.035030060	-4.531600E+01
77	  0.035230462	-3.100000E-02	  0.035230462	-9.607100E+01	  0.035230462	1.610000E-01	  0.035230462	-4.496300E+01
78	  0.035430863	-3.100000E-02	  0.035430863	-9.651900E+01	  0.035430863	1.610000E-01	  0.035430863	-4.461000E+01
79	  0.035631265	-3.400000E-02	  0.035631265	-9.694000E+01	  0.035631265	1.760000E-01	  0.035631265	-4.428200E+01
80	  0.035831664	-4.600000E-02	  0.035831664	-9.740400E+01	  0.035831664	2.340000E-01	  0.035831664	-4.392100E+01
81	  0.036032066	-5.400000E-02	  0.036032066	-9.792700E+01	  0.036032066	2.750000E-01	  0.036032066	-4.351800E+01
82	  0.036232468	-6.200000E-02	  0.036232468	-9.846600E+01	  0.036232468	3.130000E-01	  0.036232468	-4.310700E+01
83	  0.036432866	-6.600000E-02	  0.036432866	-9.902000E+01	  0.036432866	3.320000E-01	  0.036432866	-4.268700E+01
84	  0.036633268	-7.100000E-02	  0.036633268	-9.957700E+01	  0.036633268	3.550000E-01	  0.036633268	-4.226900E+01
85	  0.036833670	-7.400000E-02	  0.036833670	-1.001230E+02	  0.036833670	3.660000E-01	  0.036833670	-4.186200E+01
86	  0.037034072	-7.100000E-02	  0.037034072	-1.006400E+02	  0.037034072	3.480000E-01	  0.037034072	-4.147900E+01
87	  0.037234470	-6.100000E-02	  0.037234470	-1.011490E+02	  0.037234470	2.970000E-01	  0.037234470	-4.110600E+01
88	  0.037434869	-5.400000E-02	  0.037434869	-1.016200E+02	  0.037434869	2.600000E-01	  0.037434869	-4.076300E+01
89	  0.037635271	-4.900000E-02	  0.037635271	-1.020450E+02	  0.037635271	2.370000E-01	  0.037635271	-4.045600E+01
90	  0.037835669	-5.400000E-02	  0.037835669	-1.024850E+02	  0.037835669	2.580000E-01	  0.037835669	-4.013900E+01
91	  0.038036071	-5.900000E-02	  0.038036071	-1.029420E+02	  0.038036071	2.800000E-01	  0.038036071	-3.981200E+01
92	  0.038236473	-6.800000E-02	  0.038236473	-1.034220E+02	  0.038236473	3.210000E-01	  0.038236473	-3.947000E+01
93	  0.038436871	-7.800000E-02	  0.038436871	-1.039160E+02	  0.038436871	3.630000E-01	  0.038436871	-3.912200E+01
94	  0.038637273	-8.600000E-02	  0.038637273	-1.044120E+02	  0.038637273	3.990000E-01	  0.038637273	-3.877300E+01
95	  0.038837675	-9.600000E-02	  0.038837675	-1.049240E+02	  0.038837675	4.400000E-01	  0.038837675	-3.841700E+01
96	  0.039038073	-1.060000E-01	  0.039038073	-1.054660E+02	  0.039038073	4.830000E-01	  0.039038073	-3.804100E+01
97	  0.039238475	-1.120000E-01	  0.039238475	-1.060290E+02	  0.039238475	5.060000E-01	  0.039238475	-3.765500E+01
98	  0.039438877	-1.150000E-01	  0.039438877	-1.065730E+02	  0.039438877	5.150000E-01	  0.039438877	-3.728400E+01
99	  0.039639279	-1.110000E-01	  0.039639279	-1.071050E+02	  0.039639279	4.940000E-01	  0.039639279	-3.692400E+01
100	  0.039839678	-1.050000E-01	  0.039839678	-1.076380E+02	  0.039839678	4.650000E-01	  0.039839678	-3.656600E+01
101	  0.040040080	-9.300000E-02	  0.040040080	-1.081240E+02	  0.040040080	4.080000E-01	  0.040040080	-3.624200E+01
102	  0.040240481	-8.800000E-02	  0.040240481	-1.086030E+02	  0.040240481	3.870000E-01	  0.040240481	-3.592500E+01
103	  0.040440880	-8.100000E-02	  0.040440880	-1.090780E+02	  0.040440880	3.530000E-01	  0.040440880	-3.561100E+01
104	  0.040641282	-7.500000E-02	  0.040641282	-1.095320E+02	  0.040641282	3.240000E-01	  0.040641282	-3.531400E+01
105	  0.040841684	-7.200000E-02	  0.040841684	-1.099870E+02	  0.040841684	3.100000E-01	  0.040841684	-3.501700E+01
106	  0.041042086	-7.600000E-02	  0.041042086	-1.104650E+02	  0.041042086	3.280000E-01	  0.041042086	-3.470700E+01
107	  0.041242484	-8.000000E-02	  0.041242484	-1.109310E+02	  0.041242484	3.390000E-01	  0.041242484	-3.440600E+01
108	  0.041442886	-8.900000E-02	  0.041442886	-1.114120E+02	  0.041442886	3.790000E-01	  0.041442886	-3.409800E+01
109	  0.041643288	-9.800000E-02	  0.041643288	-1.119570E+02	  0.041643288	4.100000E-01	  0.041643288	-3.375000E+01
110	  0.041843686	-1.040000E-01	  0.041843686	-1.125150E+02	  0.041843686	4.320000E-01	  0.041843686	-3.339700E+01
111	  0.042044088	-1.060000E-01	  0.042044088	-1.130850E+02	  0.042044088	4.390000E-01	  0.042044088	-3.303900E+01
112	  0.042244490	-1.000000E-01	  0.042244490	-1.136490E+02	  0.042244490	4.120000E-01	  0.042244490	-3.268600E+01
113	  0.042444889	-8.700000E-02	  0.042444889	-1.141960E+02	  0.042444889	3.580000E-01	  0.042444889	-3.234700E+01
114	  0.042645290	-7.600000E-02	  0.042645290	-1.147030E+02	  0.042645290	3.110000E-01	  0.042645290	-3.203400E+01
115	  0.042845692	-7.000000E-02	  0.042845692	-1.151690E+02	  0.042845692	2.830000E-01	  0.042845692	-3.174800E+01
116	  0.043046094	-6.700000E-02	  0.043046094	-1.156390E+02	  0.043046094	2.730000E-01	  0.043046094	-3.146200E+01
117	  0.043246493	-7.100000E-02	  0.043246493	-1.160940E+02	  0.043246493	2.850000E-01	  0.043246493	-3.118500E+01
118	  0.043446895	-7.500000E-02	  0.043446895	-1.165680E+02	  0.043446895	3.000000E-01	  0.043446895	-3.089900E+01
119	  0.043647297	-8.100000E-02	  0.043647297	-1.170010E+02	  0.043647297	3.200000E-01	  0.043647297	-3.063800E+01
120	  0.043847695	-8.700000E-02	  0.043847695	-1.174780E+02	  0.043847695	3.430000E-01	  0.043847695	-3.035200E+01
121	  0.044048097	-9.500000E-02	  0.044048097	-1.179210E+02	  0.044048097	3.730000E-01	  0.044048097	-3.008800E+01
122	  0.044248499	-1.040000E-01	  0.044248499	-1.183890E+02	  0.044248499	4.060000E-01	  0.044248499	-2.981000E+01
123	  0.044448901	-1.130000E-01	  0.044448901	-1.188510E+02	  0.044448901	4.410000E-01	  0.044448901	-2.953700E+01
124	  0.044649299	-1.200000E-01	  0.044649299	-1.193430E+02	  0.044649299	4.640000E-01	  0.044649299	-2.924800E+01
125	  0.044849701	-1.200000E-01	  0.044849701	-1.198100E+02	  0.044849701	4.620000E-01	  0.044849701	-2.897600E+01
126	  0.045050103	-1.190000E-01	  0.045050103	-1.202810E+02	  0.045050103	4.570000E-01	  0.045050103	-2.870100E+01
127	  0.045250501	-1.190000E-01	  0.045250501	-1.207280E+02	  0.045250501	4.530000E-01	  0.045250501	-2.844300E+01
128	  0.045450903	-1.200000E-01	  0.045450903	-1.211590E+02	  0.045450903	4.550000E-01	  0.045450903	-2.819400E+01
129	  0.045651305	-1.230000E-01	  0.045651305	-1.216290E+02	  0.045651305	4.650000E-01	  0.045651305	-2.792500E+01
130	  0.045851704	-1.190000E-01	  0.045851704	-1.220950E+02	  0.045851704	4.500000E-01	  0.045851704	-2.765900E+01
131	  0.046052106	-1.210000E-01	  0.046052106	-1.225400E+02	  0.046052106	4.530000E-01	  0.046052106	-2.740600E+01
132	  0.046252504	-1.200000E-01	  0.046252504	-1.229900E+02	  0.046252504	4.500000E-01	  0.046252504	-2.715100E+01
133	  0.046452906	-1.240000E-01	  0.046452906	-1.234310E+02	  0.046452906	4.600000E-01	  0.046452906	-2.690200E+01
134	  0.046653304	-1.300000E-01	  0.046653304	-1.238480E+02	  0.046653304	4.830000E-01	  0.046653304	-2.666800E+01
135	  0.046853706	-1.420000E-01	  0.046853706	-1.243530E+02	  0.046853706	5.230000E-01	  0.046853706	-2.638500E+01
136	  0.047054108	-1.490000E-01	  0.047054108	-1.248670E+02	  0.047054108	5.470000E-01	  0.047054108	-2.609900E+01
137	  0.047254506	-1.490000E-01	  0.047254506	-1.254450E+02	  0.047254506	5.460000E-01	  0.047254506	-2.577900E+01
138	  0.047454908	-1.450000E-01	  0.047454908	-1.260140E+02	  0.047454908	5.260000E-01	  0.047454908	-2.546600E+01
139	  0.047655310	-1.360000E-01	  0.047655310	-1.265680E+02	  0.047655310	4.920000E-01	  0.047655310	-2.516200E+01
140	  0.047855709	-1.260000E-01	  0.047855709	-1.271060E+02	  0.047855709	4.520000E-01	  0.047855709	-2.486900E+01
141	  0.048056111	-1.190000E-01	  0.048056111	-1.276290E+02	  0.048056111	4.280000E-01	  0.048056111	-2.458500E+01
142	  0.048256513	-1.140000E-01	  0.048256513	-1.281190E+02	  0.048256513	4.080000E-01	  0.048256513	-2.432100E+01
143	  0.048456915	-1.130000E-01	  0.048456915	-1.286230E+02	  0.048456915	4.000000E-01	  0.048456915	-2.404900E+01
144	  0.048657313	-1.120000E-01	  0.048657313	-1.291090E+02	  0.048657313	3.970000E-01	  0.048657313	-2.378800E+01
145	  0.048857715	-1.130000E-01	  0.048857715	-1.295860E+02	  0.048857715	3.990000E-01	  0.048857715	-2.353300E+01
146	  0.049058117	-1.140000E-01	  0.049058117	-1.300440E+02	  0.049058117	4.020000E-01	  0.049058117	-2.329000E+01
147	  0.049258515	-1.190000E-01	  0.049258515	-1.305100E+02	  0.049258515	4.170000E-01	  0.049258515	-2.304300E+01
148	  0.049458917	-1.240000E-01	  0.049458917	-1.309780E+02	  0.049458917	4.320000E-01	  0.049458917	-2.279600E+01
149	  0.049659319	-1.280000E-01	  0.049659319	-1.314510E+02	  0.049659319	4.450000E-01	  0.049659319	-2.254700E+01
150	  0.049859721	-1.300000E-01	  0.049859721	-1.319110E+02	  0.049859721	4.500000E-01	  0.049859721	-2.230600E+01
151	  0.050060119	-1.320000E-01	  0.050060119	-1.323620E+02	  0.050060119	4.550000E-01	  0.050060119	-2.207000E+01
152	  0.050260521	-1.340000E-01	  0.050260521	-1.327790E+02	  0.050260521	4.590000E-01	  0.050260521	-2.185300E+01
153	  0.050460923	-1.360000E-01	  0.050460923	-1.331930E+02	  0.050460923	4.660000E-01	  0.050460923	-2.163800E+01
154	  0.050661322	-1.400000E-01	  0.050661322	-1.336270E+02	  0.050661322	4.790000E-01	  0.050661322	-2.141400E+01
155	  0.050861724	-1.420000E-01	  0.050861724	-1.340650E+02	  0.050861724	4.850000E-01	  0.050861724	-2.118800E+01
156	  0.051062126	-1.420000E-01	  0.051062126	-1.344900E+02	  0.051062126	4.810000E-01	  0.051062126	-2.097000E+01
157	  0.051262524	-1.430000E-01	  0.051262524	-1.349230E+02	  0.051262524	4.840000E-01	  0.051262524	-2.074800E+01
158	  0.051462926	-1.430000E-01	  0.051462926	-1.353200E+02	  0.051462926	4.820000E-01	  0.051462926	-2.054500E+01
159	  0.051663328	-1.460000E-01	  0.051663328	-1.357090E+02	  0.051663328	4.920000E-01	  0.051663328	-2.034700E+01
160	  0.051863730	-1.550000E-01	  0.051863730	-1.361100E+02	  0.051863730	5.190000E-01	  0.051863730	-2.014300E+01
161	  0.052064128	-1.620000E-01	  0.052064128	-1.365310E+02	  0.052064128	5.420000E-01	  0.052064128	-1.992900E+01
162	  0.052264530	-1.730000E-01	  0.052264530	-1.370090E+02	  0.052264530	5.780000E-01	  0.052264530	-1.968800E+01
163	  0.052464932	-1.790000E-01	  0.052464932	-1.375160E+02	  0.052464932	5.950000E-01	  0.052464932	-1.943300E+01
164	  0.052665330	-1.790000E-01	  0.052665330	-1.380430E+02	  0.052665330	5.930000E-01	  0.052665330	-1.916800E+01
165	  0.052865732	-1.760000E-01	  0.052865732	-1.385480E+02	  0.052865732	5.790000E-01	  0.052865732	-1.891600E+01
166	  0.053066134	-1.700000E-01	  0.053066134	-1.390630E+02	  0.053066134	5.590000E-01	  0.053066134	-1.866000E+01
167	  0.053266536	-1.640000E-01	  0.053266536	-1.395720E+02	  0.053266536	5.370000E-01	  0.053266536	-1.840800E+01
168	  0.053466935	-1.630000E-01	  0.053466935	-1.400840E+02	  0.053466935	5.320000E-01	  0.053466935	-1.815400E+01
169	  0.053667337	-1.570000E-01	  0.053667337	-1.405790E+02	  0.053667337	5.110000E-01	  0.053667337	-1.791000E+01
170	  0.053867739	-1.560000E-01	  0.053867739	-1.410600E+02	  0.053867739	5.060000E-01	  0.053867739	-1.767400E+01
171	  0.054068137	-1.510000E-01	  0.054068137	-1.415350E+02	  0.054068137	4.890000E-01	  0.054068137	-1.744100E+01
172	  0.054268539	-1.530000E-01	  0.054268539	-1.420060E+02	  0.054268539	4.950000E-01	  0.054268539	-1.721100E+01
173	  0.054468941	-1.570000E-01	  0.054468941	-1.424850E+02	  0.054468941	5.050000E-01	  0.054468941	-1.697800E+01
174	  0.054669339	-1.570000E-01	  0.054669339	-1.429730E+02	  0.054669339	5.030000E-01	  0.054669339	-1.674000E+01
175	  0.054869737	-1.570000E-01	  0.054869737	-1.434450E+02	  0.054869737	5.030000E-01	  0.054869737	-1.651200E+01
176	  0.055070139	-1.550000E-01	  0.055070139	-1.439070E+02	  0.055070139	4.930000E-01	  0.055070139	-1.628900E+01
177	  0.055270538	-1.530000E-01	  0.055270538	-1.443440E+02	  0.055270538	4.880000E-01	  0.055270538	-1.607800E+01
178	  0.055470940	-1.530000E-01	  0.055470940	-1.447700E+02	  0.055470940	4.860000E-01	  0.055470940	-1.587300E+01
179	  0.055671342	-1.580000E-01	  0.055671342	-1.451790E+02	  0.055671342	4.990000E-01	  0.055671342	-1.567700E+01
180	  0.055871744	-1.580000E-01	  0.055871744	-1.456000E+02	  0.055871744	5.010000E-01	  0.055871744	-1.547500E+01
181	  0.056072142	-1.610000E-01	  0.056072142	-1.460270E+02	  0.056072142	5.080000E-01	  0.056072142	-1.527200E+01
182	  0.056272544	-1.620000E-01	  0.056272544	-1.464560E+02	  0.056272544	5.080000E-01	  0.056272544	-1.506700E+01
183	  0.056472946	-1.620000E-01	  0.056472946	-1.468700E+02	  0.056472946	5.090000E-01	  0.056472946	-1.487000E+01
184	  0.056673344	-1.640000E-01	  0.056673344	-1.472720E+02	  0.056673344	5.140000E-01	  0.056673344	-1.468000E+01
185	  0.056873746	-1.660000E-01	  0.056873746	-1.476610E+02	  0.056873746	5.200000E-01	  0.056873746	-1.449500E+01
186	  0.057074148	-1.720000E-01	  0.057074148	-1.480580E+02	  0.057074148	5.360000E-01	  0.057074148	-1.430800E+01
187	  0.057274550	-1.770000E-01	  0.057274550	-1.484620E+02	  0.057274550	5.520000E-01	  0.057274550	-1.411700E+01
188	  0.057474948	-1.870000E-01	  0.057474948	-1.488920E+02	  0.057474948	5.810000E-01	  0.057474948	-1.391400E+01
189	  0.057675350	-1.930000E-01	  0.057675350	-1.493440E+02	  0.057675350	5.980000E-01	  0.057675350	-1.370200E+01
190	  0.057875752	-1.990000E-01	  0.057875752	-1.498270E+02	  0.057875752	6.150000E-01	  0.057875752	-1.347600E+01
191	  0.058076151	-2.000000E-01	  0.058076151	-1.502960E+02	  0.058076151	6.160000E-01	  0.058076151	-1.325600E+01
192	  0.058276553	-2.020000E-01	  0.058276553	-1.508010E+02	  0.058276553	6.220000E-01	  0.058276553	-1.302100E+01
193	  0.058476955	-2.010000E-01	  0.058476955	-1.512930E+02	  0.058476955	6.160000E-01	  0.058476955	-1.279200E+01
194	  0.058677353	-1.990000E-01	  0.058677353	-1.517890E+02	  0.058677353	6.110000E-01	  0.058677353	-1.256200E+01
195	  0.058877755	-1.950000E-01	  0.058877755	-1.522790E+02	  0.058877755	5.980000E-01	  0.058877755	-1.233500E+01
196	  0.059078157	-1.950000E-01	  0.059078157	-1.527540E+02	  0.059078157	5.950000E-01	  0.059078157	-1.211500E+01
197	  0.059278559	-1.950000E-01	  0.059278559	-1.532370E+02	  0.059278559	5.950000E-01	  0.059278559	-1.189200E+01
198	  0.059478957	-1.990000E-01	  0.059478957	-1.537100E+02	  0.059478957	6.040000E-01	  0.059478957	-1.167400E+01
199	  0.059679359	-2.000000E-01	  0.059679359	-1.541910E+02	  0.059679359	6.050000E-01	  0.059679359	-1.145300E+01
200	  0.059879761	-1.990000E-01	  0.059879761	-1.546630E+02	  0.059879761	6.040000E-01	  0.059879761	-1.123700E+01
201	  0.060080159	-1.990000E-01	  0.060080159	-1.551250E+02	  0.060080159	6.000000E-01	  0.060080159	-1.102500E+01
202	  0.060280561	-1.940000E-01	  0.060280561	-1.556000E+02	  0.060280561	5.840000E-01	  0.060280561	-1.080800E+01
203	  0.060480963	-1.920000E-01	  0.060480963	-1.560250E+02	  0.060480963	5.790000E-01	  0.060480963	-1.061400E+01
204	  0.060681365	-1.940000E-01	  0.060681365	-1.564410E+02	  0.060681365	5.830000E-01	  0.060681365	-1.042500E+01
205	  0.060881764	-1.910000E-01	  0.060881764	-1.568640E+02	  0.060881764	5.750000E-01	  0.060881764	-1.023300E+01
206	  0.061082166	-1.940000E-01	  0.061082166	-1.572840E+02	  0.061082166	5.820000E-01	  0.061082166	-1.004100E+01
207	  0.061282568	-1.920000E-01	  0.061282568	-1.577080E+02	  0.061282568	5.760000E-01	  0.061282568	-9.849000E+00
208	  0.061482966	-1.920000E-01	  0.061482966	-1.581280E+02	  0.061482966	5.740000E-01	  0.061482966	-9.659000E+00
209	  0.061683368	-1.890000E-01	  0.061683368	-1.585280E+02	  0.061683368	5.650000E-01	  0.061683368	-9.478000E+00
210	  0.061883770	-1.920000E-01	  0.061883770	-1.589130E+02	  0.061883770	5.720000E-01	  0.061883770	-9.304000E+00
211	  0.062084168	-1.910000E-01	  0.062084168	-1.592930E+02	  0.062084168	5.700000E-01	  0.062084168	-9.133000E+00
212	  0.062284570	-1.940000E-01	  0.062284570	-1.596720E+02	  0.062284570	5.760000E-01	  0.062284570	-8.962000E+00
213	  0.062484972	-1.980000E-01	  0.062484972	-1.600390E+02	  0.062484972	5.890000E-01	  0.062484972	-8.797000E+00
214	  0.062685370	-2.000000E-01	  0.062685370	-1.604150E+02	  0.062685370	5.940000E-01	  0.062685370	-8.628000E+00
215	  0.062885776	-2.070000E-01	  0.062885776	-1.608140E+02	  0.062885776	6.140000E-01	  0.062885776	-8.449000E+00
216	  0.063086174	-2.110000E-01	  0.063086174	-1.612320E+02	  0.063086174	6.250000E-01	  0.063086174	-8.261000E+00
217	  0.063286573	-2.130000E-01	  0.063286573	-1.616620E+02	  0.063286573	6.290000E-01	  0.063286573	-8.068000E+00
218	  0.063486971	-2.180000E-01	  0.063486971	-1.620870E+02	  0.063486971	6.450000E-01	  0.063486971	-7.879000E+00
219	  0.063687377	-2.170000E-01	  0.063687377	-1.625460E+02	  0.063687377	6.410000E-01	  0.063687377	-7.673000E+00
220	  0.063887775	-2.180000E-01	  0.063887775	-1.629860E+02	  0.063887775	6.420000E-01	  0.063887775	-7.477000E+00
221	  0.064088173	-2.210000E-01	  0.064088173	-1.634120E+02	  0.064088173	6.510000E-01	  0.064088173	-7.287000E+00
222	  0.064288579	-2.200000E-01	  0.064288579	-1.638650E+02	  0.064288579	6.480000E-01	  0.064288579	-7.085000E+00
223	  0.064488977	-2.260000E-01	  0.064488977	-1.643220E+02	  0.064488977	6.630000E-01	  0.064488977	-6.882000E+00
224	  0.064689375	-2.300000E-01	  0.064689375	-1.647770E+02	  0.064689375	6.740000E-01	  0.064689375	-6.680000E+00
225	  0.064889781	-2.300000E-01	  0.064889781	-1.652390E+02	  0.064889781	6.730000E-01	  0.064889781	-6.475000E+00
226	  0.065090179	-2.320000E-01	  0.065090179	-1.657010E+02	  0.065090179	6.790000E-01	  0.065090179	-6.270000E+00
227	  0.065290578	-2.310000E-01	  0.065290578	-1.661610E+02	  0.065290578	6.760000E-01	  0.065290578	-6.066000E+00
228	  0.065490983	-2.320000E-01	  0.065490983	-1.666120E+02	  0.065490983	6.780000E-01	  0.065490983	-5.866000E+00
229	  0.065691382	-2.340000E-01	  0.065691382	-1.670500E+02	  0.065691382	6.820000E-01	  0.065691382	-5.673000E+00
230	  0.065891780	-2.350000E-01	  0.065891780	-1.675160E+02	  0.065891780	6.870000E-01	  0.065891780	-5.467000E+00
231	  0.066092186	-2.340000E-01	  0.066092186	-1.679560E+02	  0.066092186	6.830000E-01	  0.066092186	-5.273000E+00
232	  0.066292584	-2.350000E-01	  0.066292584	-1.683920E+02	  0.066292584	6.840000E-01	  0.066292584	-5.081000E+00
233	  0.066492982	-2.360000E-01	  0.066492982	-1.688170E+02	  0.066492982	6.880000E-01	  0.066492982	-4.893000E+00
234	  0.066693388	-2.350000E-01	  0.066693388	-1.692810E+02	  0.066693388	6.840000E-01	  0.066693388	-4.689000E+00
235	  0.066893786	-2.350000E-01	  0.066893786	-1.697090E+02	  0.066893786	6.820000E-01	  0.066893786	-4.501000E+00
236	  0.067094192	-2.400000E-01	  0.067094192	-1.701450E+02	  0.067094192	6.970000E-01	  0.067094192	-4.309000E+00
237	  0.067294590	-2.350000E-01	  0.067294590	-1.705530E+02	  0.067294590	6.820000E-01	  0.067294590	-4.130000E+00
238	  0.067494988	-2.370000E-01	  0.067494988	-1.709560E+02	  0.067494988	6.880000E-01	  0.067494988	-3.953000E+00
239	  0.067695394	-2.340000E-01	  0.067695394	-1.713450E+02	  0.067695394	6.780000E-01	  0.067695394	-3.782000E+00
240	  0.067895792	-2.330000E-01	  0.067895792	-1.717360E+02	  0.067895792	6.760000E-01	  0.067895792	-3.611000E+00
241	  0.068096191	-2.360000E-01	  0.068096191	-1.721130E+02	  0.068096191	6.830000E-01	  0.068096191	-3.446000E+00
242	  0.068296596	-2.400000E-01	  0.068296596	-1.724990E+02	  0.068296596	6.950000E-01	  0.068296596	-3.276000E+00
243	  0.068496995	-2.420000E-01	  0.068496995	-1.729080E+02	  0.068496995	7.000000E-01	  0.068496995	-3.097000E+00
244	  0.068697393	-2.400000E-01	  0.068697393	-1.733200E+02	  0.068697393	6.940000E-01	  0.068697393	-2.917000E+00
245	  0.068897791	-2.430000E-01	  0.068897791	-1.736930E+02	  0.068897791	7.010000E-01	  0.068897791	-2.753000E+00
246	  0.069098189	-2.380000E-01	  0.069098189	-1.740910E+02	  0.069098189	6.890000E-01	  0.069098189	-2.579000E+00
247	  0.069298595	-2.360000E-01	  0.069298595	-1.744620E+02	  0.069298595	6.820000E-01	  0.069298595	-2.417000E+00
248	  0.069498993	-2.420000E-01	  0.069498993	-1.748540E+02	  0.069498993	6.980000E-01	  0.069498993	-2.246000E+00
249	  0.069699399	-2.430000E-01	  0.069699399	-1.752710E+02	  0.069699399	7.030000E-01	  0.069699399	-2.064000E+00
250	  0.069899797	-2.470000E-01	  0.069899797	-1.756440E+02	  0.069899797	7.140000E-01	  0.069899797	-1.900000E+00
251	  0.070100196	-2.500000E-01	  0.070100196	-1.760540E+02	  0.070100196	7.220000E-01	  0.070100196	-1.721000E+00
252	  0.070300601	-2.490000E-01	  0.070300601	-1.764760E+02	  0.070300601	7.180000E-01	  0.070300601	-1.537000E+00
253	  0.070501000	-2.530000E-01	  0.070501000	-1.768770E+02	  0.070501000	7.300000E-01	  0.070501000	-1.362000E+00
254	  0.070701398	-2.570000E-01	  0.070701398	-1.772510E+02	  0.070701398	7.410000E-01	  0.070701398	-1.199000E+00
255	  0.070901804	-2.570000E-01	  0.070901804	-1.776680E+02	  0.070901804	7.420000E-01	  0.070901804	-1.017000E+00
256	  0.071102202	-2.600000E-01	  0.071102202	-1.780820E+02	  0.071102202	7.490000E-01	  0.071102202	-8.360000E-01
257	  0.071302600	-2.630000E-01	  0.071302600	-1.784980E+02	  0.071302600	7.590000E-01	  0.071302600	-6.550000E-01
258	  0.071503006	-2.640000E-01	  0.071503006	-1.789330E+02	  0.071503006	7.600000E-01	  0.071503006	-4.650000E-01
259	  0.071703404	-2.670000E-01	  0.071703404	-1.793470E+02	  0.071703404	7.700000E-01	  0.071703404	-2.840000E-01
260	  0.071903802	-2.680000E-01	  0.071903802	-1.797910E+02	  0.071903802	7.730000E-01	  0.071903802	-9.000000E-02
261	  0.072104208	-2.720000E-01	  0.072104208	1.797730E+02	  0.072104208	7.840000E-01	  0.072104208	9.800000E-02
262	  0.072304606	-2.770000E-01	  0.072304606	1.793430E+02	  0.072304606	7.980000E-01	  0.072304606	2.860000E-01
263	  0.072505005	-2.790000E-01	  0.072505005	1.789050E+02	  0.072505005	8.030000E-01	  0.072505005	4.770000E-01
264	  0.072705410	-2.790000E-01	  0.072705410	1.784800E+02	  0.072705410	8.030000E-01	  0.072705410	6.620000E-01
265	  0.072905809	-2.800000E-01	  0.072905809	1.780670E+02	  0.072905809	8.070000E-01	  0.072905809	8.430000E-01
266	  0.073106214	-2.790000E-01	  0.073106214	1.776470E+02	  0.073106214	8.030000E-01	  0.073106214	1.026000E+00
267	  0.073306613	-2.790000E-01	  0.073306613	1.772440E+02	  0.073306613	8.050000E-01	  0.073306613	1.202000E+00
268	  0.073507011	-2.820000E-01	  0.073507011	1.768040E+02	  0.073507011	8.130000E-01	  0.073507011	1.394000E+00
269	  0.073707417	-2.820000E-01	  0.073707417	1.763850E+02	  0.073707417	8.130000E-01	  0.073707417	1.577000E+00
270	  0.073907815	-2.800000E-01	  0.073907815	1.759950E+02	  0.073907815	8.070000E-01	  0.073907815	1.747000E+00
271	  0.074108213	-2.770000E-01	  0.074108213	1.755880E+02	  0.074108213	8.010000E-01	  0.074108213	1.925000E+00
272	  0.074308619	-2.750000E-01	  0.074308619	1.751970E+02	  0.074308619	7.940000E-01	  0.074308619	2.096000E+00
273	  0.074509017	-2.740000E-01	  0.074509017	1.748250E+02	  0.074509017	7.910000E-01	  0.074509017	2.258000E+00
274	  0.074709415	-2.750000E-01	  0.074709415	1.744280E+02	  0.074709415	7.940000E-01	  0.074709415	2.432000E+00
275	  0.074909821	-2.760000E-01	  0.074909821	1.740400E+02	  0.074909821	7.990000E-01	  0.074909821	2.601000E+00
276	  0.075110219	-2.770000E-01	  0.075110219	1.736610E+02	  0.075110219	8.010000E-01	  0.075110219	2.767000E+00
277	  0.075310618	-2.800000E-01	  0.075310618	1.732890E+02	  0.075310618	8.080000E-01	  0.075310618	2.930000E+00
278	  0.075511023	-2.790000E-01	  0.075511023	1.729270E+02	  0.075511023	8.060000E-01	  0.075511023	3.088000E+00
279	  0.075711422	-2.790000E-01	  0.075711422	1.725490E+02	  0.075711422	8.080000E-01	  0.075711422	3.254000E+00
280	  0.075911827	-2.800000E-01	  0.075911827	1.721950E+02	  0.075911827	8.100000E-01	  0.075911827	3.409000E+00
281	  0.076112226	-2.840000E-01	  0.076112226	1.718370E+02	  0.076112226	8.210000E-01	  0.076112226	3.566000E+00
282	  0.076312624	-2.840000E-01	  0.076312624	1.714540E+02	  0.076312624	8.240000E-01	  0.076312624	3.734000E+00
283	  0.076513030	-2.860000E-01	  0.076513030	1.710570E+02	  0.076513030	8.300000E-01	  0.076513030	3.908000E+00
284	  0.076713428	-2.870000E-01	  0.076713428	1.706750E+02	  0.076713428	8.310000E-01	  0.076713428	4.076000E+00
285	  0.076913826	-2.890000E-01	  0.076913826	1.702740E+02	  0.076913826	8.400000E-01	  0.076913826	4.252000E+00
286	  0.077114232	-2.940000E-01	  0.077114232	1.698740E+02	  0.077114232	8.540000E-01	  0.077114232	4.428000E+00
287	  0.077314630	-2.950000E-01	  0.077314630	1.694630E+02	  0.077314630	8.570000E-01	  0.077314630	4.609000E+00
288	  0.077515028	-2.990000E-01	  0.077515028	1.690500E+02	  0.077515028	8.710000E-01	  0.077515028	4.790000E+00
289	  0.077715434	-3.020000E-01	  0.077715434	1.686470E+02	  0.077715434	8.780000E-01	  0.077715434	4.968000E+00
290	  0.077915832	-3.050000E-01	  0.077915832	1.682240E+02	  0.077915832	8.870000E-01	  0.077915832	5.154000E+00
291	  0.078116231	-3.070000E-01	  0.078116231	1.678290E+02	  0.078116231	8.950000E-01	  0.078116231	5.328000E+00
292	  0.078316636	-3.090000E-01	  0.078316636	1.674140E+02	  0.078316636	9.000000E-01	  0.078316636	5.512000E+00
293	  0.078517035	-3.120000E-01	  0.078517035	1.669770E+02	  0.078517035	9.100000E-01	  0.078517035	5.705000E+00
294	  0.078717433	-3.130000E-01	  0.078717433	1.665330E+02	  0.078717433	9.140000E-01	  0.078717433	5.901000E+00
295	  0.078917839	-3.140000E-01	  0.078917839	1.660980E+02	  0.078917839	9.170000E-01	  0.078917839	6.093000E+00
296	  0.079118237	-3.140000E-01	  0.079118237	1.656860E+02	  0.079118237	9.170000E-01	  0.079118237	6.276000E+00
297	  0.079318643	-3.120000E-01	  0.079318643	1.652950E+02	  0.079318643	9.140000E-01	  0.079318643	6.449000E+00
298	  0.079519041	-3.090000E-01	  0.079519041	1.648840E+02	  0.079519041	9.060000E-01	  0.079519041	6.631000E+00
299	  0.079719439	-3.090000E-01	  0.079719439	1.644930E+02	  0.079719439	9.060000E-01	  0.079719439	6.805000E+00
300	  0.079919845	-3.110000E-01	  0.079919845	1.640790E+02	  0.079919845	9.130000E-01	  0.079919845	6.989000E+00
301	  0.080120243	-3.130000E-01	  0.080120243	1.637030E+02	  0.080120243	9.200000E-01	  0.080120243	7.156000E+00
302	  0.080320641	-3.120000E-01	  0.080320641	1.633090E+02	  0.080320641	9.190000E-01	  0.080320641	7.331000E+00
303	  0.080521047	-3.160000E-01	  0.080521047	1.629260E+02	  0.080521047	9.300000E-01	  0.080521047	7.503000E+00
304	  0.080721445	-3.140000E-01	  0.080721445	1.625660E+02	  0.080721445	9.260000E-01	  0.080721445	7.663000E+00
305	  0.080921844	-3.140000E-01	  0.080921844	1.621970E+02	  0.080921844	9.260000E-01	  0.080921844	7.828000E+00
306	  0.081122249	-3.160000E-01	  0.081122249	1.618410E+02	  0.081122249	9.330000E-01	  0.081122249	7.987000E+00
307	  0.081322648	-3.170000E-01	  0.081322648	1.614650E+02	  0.081322648	9.370000E-01	  0.081322648	8.155000E+00
308	  0.081523046	-3.160000E-01	  0.081523046	1.611110E+02	  0.081523046	9.350000E-01	  0.081523046	8.314000E+00
309	  0.081723452	-3.170000E-01	  0.081723452	1.607300E+02	  0.081723452	9.400000E-01	  0.081723452	8.485000E+00
310	  0.081923850	-3.180000E-01	  0.081923850	1.603680E+02	  0.081923850	9.420000E-01	  0.081923850	8.647000E+00
311	  0.082124248	-3.210000E-01	  0.082124248	1.599660E+02	  0.082124248	9.530000E-01	  0.082124248	8.828000E+00
312	  0.082324654	-3.220000E-01	  0.082324654	1.596050E+02	  0.082324654	9.570000E-01	  0.082324654	8.990000E+00
313	  0.082525052	-3.230000E-01	  0.082525052	1.592200E+02	  0.082525052	9.610000E-01	  0.082525052	9.164000E+00
314	  0.082725458	-3.230000E-01	  0.082725458	1.588520E+02	  0.082725458	9.640000E-01	  0.082725458	9.330000E+00
315	  0.082925856	-3.250000E-01	  0.082925856	1.584850E+02	  0.082925856	9.700000E-01	  0.082925856	9.495000E+00
316	  0.083126254	-3.280000E-01	  0.083126254	1.581220E+02	  0.083126254	9.810000E-01	  0.083126254	9.659000E+00
317	  0.083326660	-3.300000E-01	  0.083326660	1.577360E+02	  0.083326660	9.880000E-01	  0.083326660	9.834000E+00
318	  0.083527058	-3.340000E-01	  0.083527058	1.573680E+02	  0.083527058	1.002000E+00	  0.083527058	1.000100E+01
319	  0.083727457	-3.350000E-01	  0.083727457	1.569470E+02	  0.083727457	1.006000E+00	  0.083727457	1.019200E+01
320	  0.083927862	-3.400000E-01	  0.083927862	1.565450E+02	  0.083927862	1.022000E+00	  0.083927862	1.037500E+01
321	  0.084128261	-3.390000E-01	  0.084128261	1.561180E+02	  0.084128261	1.022000E+00	  0.084128261	1.056900E+01
322	  0.084328659	-3.390000E-01	  0.084328659	1.557450E+02	  0.084328659	1.020000E+00	  0.084328659	1.073900E+01
323	  0.084529065	-3.350000E-01	  0.084529065	1.553670E+02	  0.084529065	1.011000E+00	  0.084529065	1.091200E+01
324	  0.084729463	-3.350000E-01	  0.084729463	1.550000E+02	  0.084729463	1.013000E+00	  0.084729463	1.108000E+01
325	  0.084929861	-3.350000E-01	  0.084929861	1.546230E+02	  0.084929861	1.013000E+00	  0.084929861	1.125200E+01
326	  0.085130267	-3.360000E-01	  0.085130267	1.542440E+02	  0.085130267	1.019000E+00	  0.085130267	1.142600E+01
327	  0.085330658	-3.350000E-01	  0.085330658	1.538760E+02	  0.085330658	1.017000E+00	  0.085330658	1.159500E+01
328	  0.085531056	-3.360000E-01	  0.085531056	1.535090E+02	  0.085531056	1.021000E+00	  0.085531056	1.176400E+01
329	  0.085731462	-3.370000E-01	  0.085731462	1.531750E+02	  0.085731462	1.026000E+00	  0.085731462	1.191800E+01
330	  0.085931860	-3.390000E-01	  0.085931860	1.528180E+02	  0.085931860	1.033000E+00	  0.085931860	1.208200E+01
331	  0.086132258	-3.420000E-01	  0.086132258	1.524640E+02	  0.086132258	1.044000E+00	  0.086132258	1.224600E+01
332	  0.086332664	-3.450000E-01	  0.086332664	1.521210E+02	  0.086332664	1.054000E+00	  0.086332664	1.240500E+01
333	  0.086533062	-3.410000E-01	  0.086533062	1.517690E+02	  0.086533062	1.044000E+00	  0.086533062	1.256800E+01
334	  0.086733460	-3.410000E-01	  0.086733460	1.513920E+02	  0.086733460	1.047000E+00	  0.086733460	1.274200E+01
335	  0.086933866	-3.440000E-01	  0.086933866	1.510480E+02	  0.086933866	1.056000E+00	  0.086933866	1.290200E+01
336	  0.087134264	-3.460000E-01	  0.087134264	1.506640E+02	  0.087134264	1.065000E+00	  0.087134264	1.308100E+01
337	  0.087334670	-3.480000E-01	  0.087334670	1.503010E+02	  0.087334670	1.072000E+00	  0.087334670	1.325000E+01
338	  0.087535068	-3.500000E-01	  0.087535068	1.499260E+02	  0.087535068	1.081000E+00	  0.087535068	1.342500E+01
339	  0.087735467	-3.520000E-01	  0.087735467	1.495360E+02	  0.087735467	1.088000E+00	  0.087735467	1.360800E+01
340	  0.087935872	-3.510000E-01	  0.087935872	1.491650E+02	  0.087935872	1.087000E+00	  0.087935872	1.378200E+01
341	  0.088136271	-3.540000E-01	  0.088136271	1.487990E+02	  0.088136271	1.100000E+00	  0.088136271	1.395400E+01
342	  0.088336669	-3.530000E-01	  0.088336669	1.483990E+02	  0.088336669	1.097000E+00	  0.088336669	1.414200E+01
343	  0.088537075	-3.570000E-01	  0.088537075	1.480430E+02	  0.088537075	1.113000E+00	  0.088537075	1.431000E+01
344	  0.088737473	-3.610000E-01	  0.088737473	1.476460E+02	  0.088737473	1.127000E+00	  0.088737473	1.449700E+01
345	  0.088937871	-3.650000E-01	  0.088937871	1.472450E+02	  0.088937871	1.142000E+00	  0.088937871	1.468700E+01
346	  0.089138277	-3.670000E-01	  0.089138277	1.468250E+02	  0.089138277	1.152000E+00	  0.089138277	1.488600E+01
347	  0.089338675	-3.700000E-01	  0.089338675	1.463980E+02	  0.089338675	1.164000E+00	  0.089338675	1.508800E+01
348	  0.089539073	-3.660000E-01	  0.089539073	1.460180E+02	  0.089539073	1.152000E+00	  0.089539073	1.527000E+01
349	  0.089739479	-3.680000E-01	  0.089739479	1.456400E+02	  0.089739479	1.163000E+00	  0.089739479	1.545000E+01
350	  0.089939877	-3.640000E-01	  0.089939877	1.452570E+02	  0.089939877	1.152000E+00	  0.089939877	1.563300E+01
351	  0.090140276	-3.660000E-01	  0.090140276	1.448880E+02	  0.090140276	1.161000E+00	  0.090140276	1.581000E+01
352	  0.090340681	-3.610000E-01	  0.090340681	1.445030E+02	  0.090340681	1.147000E+00	  0.090340681	1.599500E+01
353	  0.090541080	-3.640000E-01	  0.090541080	1.441650E+02	  0.090541080	1.158000E+00	  0.090541080	1.615800E+01
354	  0.090741485	-3.610000E-01	  0.090741485	1.438060E+02	  0.090741485	1.150000E+00	  0.090741485	1.633100E+01
355	  0.090941884	-3.600000E-01	  0.090941884	1.434720E+02	  0.090941884	1.151000E+00	  0.090941884	1.649200E+01
356	  0.091142282	-3.620000E-01	  0.091142282	1.431620E+02	  0.091142282	1.159000E+00	  0.091142282	1.664300E+01
357	  0.091342688	-3.630000E-01	  0.091342688	1.428230E+02	  0.091342688	1.164000E+00	  0.091342688	1.680700E+01
358	  0.091543086	-3.660000E-01	  0.091543086	1.425010E+02	  0.091543086	1.175000E+00	  0.091543086	1.696300E+01
359	  0.091743484	-3.630000E-01	  0.091743484	1.421550E+02	  0.091743484	1.169000E+00	  0.091743484	1.713100E+01
360	  0.091943890	-3.630000E-01	  0.091943890	1.418280E+02	  0.091943890	1.169000E+00	  0.091943890	1.729100E+01
361	  0.092144288	-3.620000E-01	  0.092144288	1.414930E+02	  0.092144288	1.171000E+00	  0.092144288	1.745500E+01
362	  0.092344686	-3.660000E-01	  0.092344686	1.411550E+02	  0.092344686	1.184000E+00	  0.092344686	1.762000E+01
363	  0.092545092	-3.660000E-01	  0.092545092	1.408160E+02	  0.092545092	1.188000E+00	  0.092545092	1.778700E+01
364	  0.092745490	-3.680000E-01	  0.092745490	1.404730E+02	  0.092745490	1.198000E+00	  0.092745490	1.795500E+01
365	  0.092945889	-3.680000E-01	  0.092945889	1.401020E+02	  0.092945889	1.200000E+00	  0.092945889	1.813800E+01
366	  0.093146294	-3.700000E-01	  0.093146294	1.397570E+02	  0.093146294	1.208000E+00	  0.093146294	1.830800E+01
367	  0.093346693	-3.690000E-01	  0.093346693	1.393880E+02	  0.093346693	1.208000E+00	  0.093346693	1.849100E+01
368	  0.093547091	-3.750000E-01	  0.093547091	1.390440E+02	  0.093547091	1.231000E+00	  0.093547091	1.866200E+01
369	  0.093747497	-3.770000E-01	  0.093747497	1.386680E+02	  0.093747497	1.240000E+00	  0.093747497	1.884900E+01
370	  0.093947895	-3.770000E-01	  0.093947895	1.382890E+02	  0.093947895	1.243000E+00	  0.093947895	1.903800E+01
371	  0.094148301	-3.860000E-01	  0.094148301	1.378890E+02	  0.094148301	1.278000E+00	  0.094148301	1.923700E+01
372	  0.094348699	-3.810000E-01	  0.094348699	1.374950E+02	  0.094348699	1.264000E+00	  0.094348699	1.943500E+01
373	  0.094549097	-3.870000E-01	  0.094549097	1.371040E+02	  0.094549097	1.287000E+00	  0.094549097	1.963100E+01
374	  0.094749503	-3.880000E-01	  0.094749503	1.366860E+02	  0.094749503	1.295000E+00	  0.094749503	1.984200E+01
375	  0.094949901	-3.890000E-01	  0.094949901	1.363090E+02	  0.094949901	1.302000E+00	  0.094949901	2.003200E+01
376	  0.095150299	-3.880000E-01	  0.095150299	1.359320E+02	  0.095150299	1.300000E+00	  0.095150299	2.022300E+01
377	  0.095350705	-3.870000E-01	  0.095350705	1.355270E+02	  0.095350705	1.302000E+00	  0.095350705	2.042900E+01
378	  0.095551103	-3.860000E-01	  0.095551103	1.351580E+02	  0.095551103	1.299000E+00	  0.095551103	2.061800E+01
379	  0.095751502	-3.810000E-01	  0.095751502	1.347830E+02	  0.095751502	1.288000E+00	  0.095751502	2.080900E+01
380	  0.095951907	-3.800000E-01	  0.095951907	1.344400E+02	  0.095951907	1.287000E+00	  0.095951907	2.098500E+01
381	  0.096152306	-3.790000E-01	  0.096152306	1.341210E+02	  0.096152306	1.287000E+00	  0.096152306	2.114900E+01
382	  0.096352704	-3.800000E-01	  0.096352704	1.337960E+02	  0.096352704	1.294000E+00	  0.096352704	2.131600E+01
383	  0.096553110	-3.800000E-01	  0.096553110	1.334610E+02	  0.096553110	1.295000E+00	  0.096553110	2.148900E+01
384	  0.096753508	-3.800000E-01	  0.096753508	1.331610E+02	  0.096753508	1.298000E+00	  0.096753508	2.164400E+01
385	  0.096953906	-3.770000E-01	  0.096953906	1.328190E+02	  0.096953906	1.292000E+00	  0.096953906	2.182100E+01
386	  0.097154312	-3.770000E-01	  0.097154312	1.325030E+02	  0.097154312	1.295000E+00	  0.097154312	2.198600E+01
387	  0.097354710	-3.780000E-01	  0.097354710	1.321940E+02	  0.097354710	1.302000E+00	  0.097354710	2.214700E+01
388	  0.097555116	-3.790000E-01	  0.097555116	1.318810E+02	  0.097555116	1.310000E+00	  0.097555116	2.231000E+01
389	  0.097755514	-3.810000E-01	  0.097755514	1.315630E+02	  0.097755514	1.318000E+00	  0.097755514	2.247700E+01
390	  0.097955912	-3.820000E-01	  0.097955912	1.312250E+02	  0.097955912	1.326000E+00	  0.097955912	2.265400E+01
391	  0.098156318	-3.850000E-01	  0.098156318	1.308960E+02	  0.098156318	1.341000E+00	  0.098156318	2.282700E+01
392	  0.098356716	-3.830000E-01	  0.098356716	1.305610E+02	  0.098356716	1.338000E+00	  0.098356716	2.300400E+01
393	  0.098557115	-3.860000E-01	  0.098557115	1.302220E+02	  0.098557115	1.351000E+00	  0.098557115	2.318300E+01
394	  0.098757520	-3.900000E-01	  0.098757520	1.298890E+02	  0.098757520	1.367000E+00	  0.098757520	2.335900E+01
395	  0.098957919	-3.940000E-01	  0.098957919	1.295360E+02	  0.098957919	1.386000E+00	  0.098957919	2.354700E+01
396	  0.099158317	-3.970000E-01	  0.099158317	1.291740E+02	  0.099158317	1.402000E+00	  0.099158317	2.374000E+01
397	  0.099358723	-4.000000E-01	  0.099358723	1.287740E+02	  0.099358723	1.416000E+00	  0.099358723	2.395400E+01
398	  0.099559121	-4.020000E-01	  0.099559121	1.283970E+02	  0.099559121	1.427000E+00	  0.099559121	2.415600E+01
399	  0.099759519	-4.060000E-01	  0.099759519	1.280210E+02	  0.099759519	1.448000E+00	  0.099759519	2.435800E+01
400	  0.099959925	-4.110000E-01	  0.099959925	1.276460E+02	  0.099959925	1.468000E+00	  0.099959925	2.456000E+01
401	  0.100160323	-4.190000E-01	  0.100160323	1.272780E+02	  0.100160323	1.502000E+00	  0.100160323	2.475900E+01
402	  0.100360721	-4.170000E-01	  0.100360721	1.268810E+02	  0.100360721	1.502000E+00	  0.100360721	2.497500E+01
403	  0.100561127	-4.180000E-01	  0.100561127	1.265040E+02	  0.100561127	1.511000E+00	  0.100561127	2.518100E+01
404	  0.100761525	-4.120000E-01	  0.100761525	1.260920E+02	  0.100761525	1.495000E+00	  0.100761525	2.540700E+01
405	  0.100961931	-4.110000E-01	  0.100961931	1.257560E+02	  0.100961931	1.495000E+00	  0.100961931	2.559200E+01
406	  0.101162329	-4.100000E-01	  0.101162329	1.253890E+02	  0.101162329	1.495000E+00	  0.101162329	2.579400E+01
407	  0.101362728	-4.070000E-01	  0.101362728	1.250780E+02	  0.101362728	1.488000E+00	  0.101362728	2.596600E+01
408	  0.101563133	-4.020000E-01	  0.101563133	1.247690E+02	  0.101563133	1.475000E+00	  0.101563133	2.613800E+01
409	  0.101763532	-4.070000E-01	  0.101763532	1.244340E+02	  0.101763532	1.496000E+00	  0.101763532	2.632400E+01
410	  0.101963930	-4.040000E-01	  0.101963930	1.241320E+02	  0.101963930	1.489000E+00	  0.101963930	2.649200E+01
411	  0.102164336	-4.020000E-01	  0.102164336	1.238350E+02	  0.102164336	1.486000E+00	  0.102164336	2.665900E+01
412	  0.102364734	-4.000000E-01	  0.102364734	1.235220E+02	  0.102364734	1.485000E+00	  0.102364734	2.683400E+01
413	  0.102565132	-3.960000E-01	  0.102565132	1.232240E+02	  0.102565132	1.473000E+00	  0.102565132	2.700300E+01
414	  0.102765530	-3.890000E-01	  0.102765530	1.229350E+02	  0.102765530	1.451000E+00	  0.102765530	2.716600E+01
415	  0.102965929	-3.930000E-01	  0.102965929	1.226260E+02	  0.102965929	1.470000E+00	  0.102965929	2.734100E+01
416	  0.103166327	-3.860000E-01	  0.103166327	1.223370E+02	  0.103166327	1.447000E+00	  0.103166327	2.750500E+01
417	  0.103366733	-3.880000E-01	  0.103366733	1.220250E+02	  0.103366733	1.462000E+00	  0.103366733	2.768200E+01
418	  0.103567131	-3.870000E-01	  0.103567131	1.217180E+02	  0.103567131	1.462000E+00	  0.103567131	2.785800E+01
419	  0.103767529	-3.930000E-01	  0.103767529	1.213990E+02	  0.103767529	1.490000E+00	  0.103767529	2.803900E+01
420	  0.103967935	-3.920000E-01	  0.103967935	1.210840E+02	  0.103967935	1.489000E+00	  0.103967935	2.822100E+01
421	  0.104168333	-3.980000E-01	  0.104168333	1.207140E+02	  0.104168333	1.519000E+00	  0.104168333	2.843300E+01
422	  0.104368731	-4.000000E-01	  0.104368731	1.203970E+02	  0.104368731	1.528000E+00	  0.104368731	2.861600E+01
423	  0.104569137	-4.020000E-01	  0.104569137	1.200190E+02	  0.104569137	1.542000E+00	  0.104569137	2.883500E+01
424	  0.104769535	-4.020000E-01	  0.104769535	1.196730E+02	  0.104769535	1.550000E+00	  0.104769535	2.903600E+01
425	  0.104969934	-4.100000E-01	  0.104969934	1.193050E+02	  0.104969934	1.584000E+00	  0.104969934	2.925100E+01
426	  0.105170339	-4.140000E-01	  0.105170339	1.189260E+02	  0.105170339	1.607000E+00	  0.105170339	2.947300E+01
427	  0.105370738	-4.150000E-01	  0.105370738	1.185120E+02	  0.105370738	1.618000E+00	  0.105370738	2.971600E+01
428	  0.105571143	-4.220000E-01	  0.105571143	1.181500E+02	  0.105571143	1.650000E+00	  0.105571143	2.992900E+01
429	  0.105771542	-4.270000E-01	  0.105771542	1.177520E+02	  0.105771542	1.676000E+00	  0.105771542	3.016500E+01
430	  0.105971940	-4.240000E-01	  0.105971940	1.173570E+02	  0.105971940	1.673000E+00	  0.105971940	3.040000E+01
431	  0.106172346	-4.280000E-01	  0.106172346	1.169850E+02	  0.106172346	1.697000E+00	  0.106172346	3.062300E+01
432	  0.106372744	-4.200000E-01	  0.106372744	1.166140E+02	  0.106372744	1.669000E+00	  0.106372744	3.084600E+01
433	  0.106573142	-4.270000E-01	  0.106573142	1.162560E+02	  0.106573142	1.705000E+00	  0.106573142	3.106200E+01
434	  0.106773548	-4.230000E-01	  0.106773548	1.159330E+02	  0.106773548	1.693000E+00	  0.106773548	3.125700E+01
435	  0.106973946	-4.250000E-01	  0.106973946	1.156050E+02	  0.106973946	1.709000E+00	  0.106973946	3.145700E+01
436	  0.107174344	-4.310000E-01	  0.107174344	1.152630E+02	  0.107174344	1.740000E+00	  0.107174344	3.166400E+01
437	  0.107374750	-4.210000E-01	  0.107374750	1.149580E+02	  0.107374750	1.707000E+00	  0.107374750	3.185200E+01
438	  0.107575148	-4.120000E-01	  0.107575148	1.146930E+02	  0.107575148	1.672000E+00	  0.107575148	3.201600E+01
439	  0.107775547	-4.180000E-01	  0.107775547	1.143530E+02	  0.107775547	1.703000E+00	  0.107775547	3.222400E+01
440	  0.107975952	-4.110000E-01	  0.107975952	1.140950E+02	  0.107975952	1.680000E+00	  0.107975952	3.238500E+01
441	  0.108176351	-4.060000E-01	  0.108176351	1.137990E+02	  0.108176351	1.665000E+00	  0.108176351	3.256900E+01
442	  0.108376749	-4.090000E-01	  0.108376749	1.134970E+02	  0.108376749	1.686000E+00	  0.108376749	3.275600E+01
443	  0.108577155	-4.060000E-01	  0.108577155	1.131990E+02	  0.108577155	1.676000E+00	  0.108577155	3.294300E+01
444	  0.108777553	-4.060000E-01	  0.108777553	1.129170E+02	  0.108777553	1.683000E+00	  0.108777553	3.311900E+01
445	  0.108977959	-3.990000E-01	  0.108977959	1.126130E+02	  0.108977959	1.660000E+00	  0.108977959	3.331100E+01
446	  0.109178357	-3.990000E-01	  0.109178357	1.123650E+02	  0.109178357	1.666000E+00	  0.109178357	3.346800E+01
447	  0.109378755	-3.970000E-01	  0.109378755	1.120210E+02	  0.109378755	1.664000E+00	  0.109378755	3.368500E+01
448	  0.109579161	-3.990000E-01	  0.109579161	1.116850E+02	  0.109579161	1.679000E+00	  0.109579161	3.389900E+01
449	  0.109779559	-3.990000E-01	  0.109779559	1.113910E+02	  0.109779559	1.685000E+00	  0.109779559	3.408600E+01
450	  0.109979957	-4.030000E-01	  0.109979957	1.110410E+02	  0.109979957	1.706000E+00	  0.109979957	3.431000E+01
451	  0.110180363	-4.030000E-01	  0.110180363	1.107010E+02	  0.110180363	1.717000E+00	  0.110180363	3.452800E+01
452	  0.110380761	-4.080000E-01	  0.110380761	1.103790E+02	  0.110380761	1.741000E+00	  0.110380761	3.473500E+01
453	  0.110581160	-4.130000E-01	  0.110581160	1.100020E+02	  0.110581160	1.771000E+00	  0.110581160	3.497900E+01
454	  0.110781565	-4.180000E-01	  0.110781565	1.096250E+02	  0.110781565	1.800000E+00	  0.110781565	3.522400E+01
455	  0.110981964	-4.150000E-01	  0.110981964	1.092420E+02	  0.110981964	1.796000E+00	  0.110981964	3.547400E+01
456	  0.111182362	-4.180000E-01	  0.111182362	1.088730E+02	  0.111182362	1.820000E+00	  0.111182362	3.571600E+01
457	  0.111382768	-4.190000E-01	  0.111382768	1.085190E+02	  0.111382768	1.832000E+00	  0.111382768	3.595000E+01
458	  0.111583166	-4.240000E-01	  0.111583166	1.081680E+02	  0.111583166	1.863000E+00	  0.111583166	3.618200E+01
459	  0.111783572	-4.230000E-01	  0.111783572	1.078070E+02	  0.111783572	1.867000E+00	  0.111783572	3.642200E+01
460	  0.111983970	-4.300000E-01	  0.111983970	1.074650E+02	  0.111983970	1.905000E+00	  0.111983970	3.665000E+01
461	  0.112184368	-4.300000E-01	  0.112184368	1.070970E+02	  0.112184368	1.914000E+00	  0.112184368	3.689700E+01
462	  0.112384774	-4.370000E-01	  0.112384774	1.067870E+02	  0.112384774	1.955000E+00	  0.112384774	3.710500E+01
463	  0.112585172	-4.250000E-01	  0.112585172	1.064500E+02	  0.112585172	1.909000E+00	  0.112585172	3.733500E+01
464	  0.112785570	-4.270000E-01	  0.112785570	1.061590E+02	  0.112785570	1.923000E+00	  0.112785570	3.753300E+01
465	  0.112985976	-4.240000E-01	  0.112985976	1.058180E+02	  0.112985976	1.919000E+00	  0.112985976	3.776600E+01
466	  0.113186374	-4.280000E-01	  0.113186374	1.054860E+02	  0.113186374	1.947000E+00	  0.113186374	3.799300E+01
467	  0.113386773	-4.240000E-01	  0.113386773	1.052210E+02	  0.113386773	1.936000E+00	  0.113386773	3.817600E+01
468	  0.113587178	-4.280000E-01	  0.113587178	1.048510E+02	  0.113587178	1.963000E+00	  0.113587178	3.843200E+01
469	  0.113787577	-4.230000E-01	  0.113787577	1.045990E+02	  0.113787577	1.946000E+00	  0.113787577	3.860800E+01
470	  0.113987975	-4.270000E-01	  0.113987975	1.042960E+02	  0.113987975	1.973000E+00	  0.113987975	3.881800E+01
471	  0.114188381	-4.230000E-01	  0.114188381	1.040000E+02	  0.114188381	1.963000E+00	  0.114188381	3.902600E+01
472	  0.114388779	-4.250000E-01	  0.114388779	1.036740E+02	  0.114388779	1.979000E+00	  0.114388779	3.925500E+01
473	  0.114589177	-4.240000E-01	  0.114589177	1.033560E+02	  0.114589177	1.985000E+00	  0.114589177	3.948000E+01
474	  0.114789583	-4.260000E-01	  0.114789583	1.030590E+02	  0.114789583	2.002000E+00	  0.114789583	3.969000E+01
475	  0.114989981	-4.210000E-01	  0.114989981	1.027560E+02	  0.114989981	1.987000E+00	  0.114989981	3.990600E+01
476	  0.115190387	-4.200000E-01	  0.115190387	1.024120E+02	  0.115190387	1.993000E+00	  0.115190387	4.015200E+01
477	  0.115390785	-4.180000E-01	  0.115390785	1.021040E+02	  0.115390785	1.989000E+00	  0.115390785	4.037500E+01
478	  0.115591183	-4.220000E-01	  0.115591183	1.017890E+02	  0.115591183	2.017000E+00	  0.115591183	4.060100E+01
479	  0.115791589	-4.200000E-01	  0.115791589	1.014730E+02	  0.115791589	2.016000E+00	  0.115791589	4.083100E+01
480	  0.115991987	-4.200000E-01	  0.115991987	1.010900E+02	  0.115991987	2.029000E+00	  0.115991987	4.110900E+01
481	  0.116192386	-4.230000E-01	  0.116192386	1.007700E+02	  0.116192386	2.051000E+00	  0.116192386	4.134300E+01
482	  0.116392791	-4.230000E-01	  0.116392791	1.004560E+02	  0.116392791	2.060000E+00	  0.116392791	4.157500E+01
483	  0.116593190	-4.210000E-01	  0.116593190	1.001030E+02	  0.116593190	2.063000E+00	  0.116593190	4.183600E+01
484	  0.116793588	-4.250000E-01	  0.116793588	9.977400E+01	  0.116793588	2.093000E+00	  0.116793588	4.208000E+01
485	  0.116993994	-4.220000E-01	  0.116993994	9.946600E+01	  0.116993994	2.085000E+00	  0.116993994	4.231000E+01
486	  0.117194392	-4.240000E-01	  0.117194392	9.914900E+01	  0.117194392	2.107000E+00	  0.117194392	4.254700E+01
487	  0.117394790	-4.270000E-01	  0.117394790	9.879600E+01	  0.117394790	2.134000E+00	  0.117394790	4.281200E+01
488	  0.117595196	-4.260000E-01	  0.117595196	9.850400E+01	  0.117595196	2.139000E+00	  0.117595196	4.303400E+01
489	  0.117795594	-4.250000E-01	  0.117795594	9.817500E+01	  0.117795594	2.140000E+00	  0.117795594	4.328500E+01
490	  0.117995992	-4.240000E-01	  0.117995992	9.787700E+01	  0.117995992	2.147000E+00	  0.117995992	4.351200E+01
491	  0.118196398	-4.230000E-01	  0.118196398	9.755800E+01	  0.118196398	2.152000E+00	  0.118196398	4.375700E+01
492	  0.118396796	-4.270000E-01	  0.118396796	9.730500E+01	  0.118396796	2.180000E+00	  0.118396796	4.395200E+01
493	  0.118597202	-4.280000E-01	  0.118597202	9.697900E+01	  0.118597202	2.200000E+00	  0.118597202	4.420400E+01
494	  0.118797600	-4.230000E-01	  0.118797600	9.671200E+01	  0.118797600	2.180000E+00	  0.118797600	4.441200E+01
495	  0.118997999	-4.290000E-01	  0.118997999	9.638400E+01	  0.118997999	2.221000E+00	  0.118997999	4.466800E+01
496	  0.119198404	-4.280000E-01	  0.119198404	9.608600E+01	  0.119198404	2.230000E+00	  0.119198404	4.490200E+01
497	  0.119398803	-4.350000E-01	  0.119398803	9.578400E+01	  0.119398803	2.276000E+00	  0.119398803	4.513900E+01
498	  0.119599201	-4.340000E-01	  0.119599201	9.547800E+01	  0.119599201	2.279000E+00	  0.119599201	4.538200E+01
499	  0.119799607	-4.350000E-01	  0.119799607	9.518400E+01	  0.119799607	2.295000E+00	  0.119799607	4.561500E+01
500	  0.120000005	-4.360000E-01	  0.120000005	9.484000E+01	  0.120000005	2.315000E+00	  0.120000005	4.589100E+01
