! Anritsu VNA Master:             	Model: MS2036C/10/77
! SN:             	1601066
! /card0/usr/18may27.balun/5a.66.2.txt
! Existing Calibration Information:
! TYPE:             	Current Settings	Active Cal Settings
! TIME:             	05/27/2018 05:17:36 PM	05/27/2018 05:09:13 PM
! INTERNAL TEMP:    	53.3 C	53.3 C
! # POINTS:         	500	500
! START FREQ:       	20.000 MHz	20.000 MHz
! STOP FREQ:        	120.000 MHz	120.000 MHz
! SOURCE POWER:     	High	High
! IFBW:             	50 Hz	50 Hz
! AVG FACTOR:       	  1 	  1 
! REF PLANE 1:      	0 mm	0 mm
! REF PLANE 2:      	0 mm	0 mm
! CAL TYPE:         	Full S11	Full S11
! CAL METHOD:       	SOLT	SOLT
! CAL LINE TYPE:    	Coax	Coax
! DUT PORT 1:       	K-Conn(M)	K-Conn(M)
! DUT PORT 2:       	K-Conn(M)	K-Conn(M)
! CAL STATUS:       	OK: Accuracy High	--
! PROP-V:       	0.700
! CABLE LOSS:       	0.000 dB/m
! REF IMPEDANCE:       	50.0
! Trace Specific Parameters:	TR1	TR2	TR3	TR4
! TRACE.#.Y (GRAPH TYPE)	LOG MAG	PHASE	REAL IMPEDANCE	IMAGINARY IMPEDANCE
! TRACE.#.X 	FREQ.GHZ	FREQ.GHZ	FREQ.GHZ	FREQ.GHZ
! S-PARAMETER	S11	S11	S11	S11
! SMOOTH/APERTURE %	0	0	0	0
! WINDOW	NSL	NSL	NSL	NSL
! GATING	OFF	OFF	OFF	OFF
! FGTD	OFF	OFF	OFF	OFF
Marker Information per Trace:	TR1	TR2	TR3	TR4
!MK1	--	--	--	"MK1 TR4:  70.100 200 MHz,Z:(0.823 ohm, 7.156 ohm)"
!MK2	--	--	--	--
!MK3	--	--	--	--
!MK4	--	--	--	--
!MK5	--	--	--	--
!MK6	--	--	--	--
!MK7	--	--	--	--
!MK8	--	--	--	--
PNT	TR1.FREQ.GHZ	TR1.LOG MAG.dB	TR2.FREQ.GHZ	TR2.PHASE.deg	TR3.FREQ.GHZ	TR3.REAL IMPEDANCE.ohm	TR4.FREQ.GHZ	TR4.IMAGINARY IMPEDANCE.ohm
1	  0.020000000	-3.700000E-02	  0.020000000	-6.811600E+01	  0.020000000	3.430000E-01	  0.020000000	-7.396400E+01
2	  0.020200402	-3.500000E-02	  0.020200402	-6.876000E+01	  0.020200402	3.210000E-01	  0.020200402	-7.307600E+01
3	  0.020400802	-3.300000E-02	  0.020400802	-6.941300E+01	  0.020400802	2.960000E-01	  0.020400802	-7.218900E+01
4	  0.020601204	-3.200000E-02	  0.020601204	-7.005400E+01	  0.020601204	2.830000E-01	  0.020601204	-7.133400E+01
5	  0.020801604	-3.000000E-02	  0.020801604	-7.070600E+01	  0.020801604	2.640000E-01	  0.020801604	-7.047800E+01
6	  0.021002004	-3.100000E-02	  0.021002004	-7.137500E+01	  0.021002004	2.660000E-01	  0.021002004	-6.961300E+01
7	  0.021202406	-3.500000E-02	  0.021202406	-7.199900E+01	  0.021202406	2.910000E-01	  0.021202406	-6.881800E+01
8	  0.021402806	-3.600000E-02	  0.021402806	-7.263800E+01	  0.021402806	3.030000E-01	  0.021402806	-6.801700E+01
9	  0.021603208	-4.200000E-02	  0.021603208	-7.327400E+01	  0.021603208	3.450000E-01	  0.021603208	-6.723200E+01
10	  0.021803608	-4.700000E-02	  0.021803608	-7.389300E+01	  0.021803608	3.770000E-01	  0.021803608	-6.647800E+01
11	  0.022004008	-5.000000E-02	  0.022004008	-7.451500E+01	  0.022004008	3.980000E-01	  0.022004008	-6.573300E+01
12	  0.022204408	-5.300000E-02	  0.022204408	-7.515300E+01	  0.022204408	4.130000E-01	  0.022204408	-6.497800E+01
13	  0.022404809	-5.600000E-02	  0.022404809	-7.580600E+01	  0.022404809	4.300000E-01	  0.022404809	-6.421800E+01
14	  0.022605211	-5.700000E-02	  0.022605211	-7.644200E+01	  0.022605211	4.340000E-01	  0.022605211	-6.348800E+01
15	  0.022805611	-5.500000E-02	  0.022805611	-7.709600E+01	  0.022805611	4.090000E-01	  0.022805611	-6.274800E+01
16	  0.023006011	-4.600000E-02	  0.023006011	-7.773700E+01	  0.023006011	3.410000E-01	  0.023006011	-6.203300E+01
17	  0.023206413	-4.000000E-02	  0.023206413	-7.839400E+01	  0.023206413	2.910000E-01	  0.023206413	-6.131000E+01
18	  0.023406813	-3.400000E-02	  0.023406813	-7.902200E+01	  0.023406813	2.470000E-01	  0.023406813	-6.063000E+01
19	  0.023607215	-3.200000E-02	  0.023607215	-7.964500E+01	  0.023607215	2.250000E-01	  0.023607215	-5.996300E+01
20	  0.023807615	-3.400000E-02	  0.023807615	-8.023900E+01	  0.023807615	2.390000E-01	  0.023807615	-5.933500E+01
21	  0.024008015	-4.000000E-02	  0.024008015	-8.080900E+01	  0.024008015	2.780000E-01	  0.024008015	-5.873800E+01
22	  0.024208417	-4.600000E-02	  0.024208417	-8.139300E+01	  0.024208417	3.120000E-01	  0.024208417	-5.813600E+01
23	  0.024408817	-4.900000E-02	  0.024408817	-8.196900E+01	  0.024408817	3.310000E-01	  0.024408817	-5.754700E+01
24	  0.024609219	-5.400000E-02	  0.024609219	-8.255400E+01	  0.024609219	3.580000E-01	  0.024609219	-5.695800E+01
25	  0.024809619	-6.000000E-02	  0.024809619	-8.316900E+01	  0.024809619	3.920000E-01	  0.024809619	-5.634500E+01
26	  0.025010020	-6.300000E-02	  0.025010020	-8.381600E+01	  0.025010020	4.100000E-01	  0.025010020	-5.570800E+01
27	  0.025210422	-6.600000E-02	  0.025210422	-8.446300E+01	  0.025210422	4.240000E-01	  0.025210422	-5.507900E+01
28	  0.025410822	-6.600000E-02	  0.025410822	-8.514400E+01	  0.025410822	4.200000E-01	  0.025410822	-5.442500E+01
29	  0.025611224	-6.400000E-02	  0.025611224	-8.580300E+01	  0.025611224	4.020000E-01	  0.025611224	-5.380100E+01
30	  0.025811624	-6.400000E-02	  0.025811624	-8.644900E+01	  0.025811624	3.940000E-01	  0.025811624	-5.319600E+01
31	  0.026012026	-5.500000E-02	  0.026012026	-8.706900E+01	  0.026012026	3.340000E-01	  0.026012026	-5.262300E+01
32	  0.026212426	-5.400000E-02	  0.026212426	-8.766200E+01	  0.026212426	3.260000E-01	  0.026212426	-5.208100E+01
33	  0.026412826	-5.500000E-02	  0.026412826	-8.827200E+01	  0.026412826	3.310000E-01	  0.026412826	-5.152900E+01
34	  0.026613226	-5.900000E-02	  0.026613226	-8.884900E+01	  0.026613226	3.510000E-01	  0.026613226	-5.101300E+01
35	  0.026813626	-6.500000E-02	  0.026813626	-8.942200E+01	  0.026813626	3.830000E-01	  0.026813626	-5.050500E+01
36	  0.027014028	-7.500000E-02	  0.027014028	-8.997400E+01	  0.027014028	4.310000E-01	  0.027014028	-5.002000E+01
37	  0.027214428	-8.300000E-02	  0.027214428	-9.054600E+01	  0.027214428	4.760000E-01	  0.027214428	-4.952200E+01
38	  0.027414829	-9.400000E-02	  0.027414829	-9.115600E+01	  0.027414829	5.340000E-01	  0.027414829	-4.899800E+01
39	  0.027615231	-9.800000E-02	  0.027615231	-9.182400E+01	  0.027615231	5.510000E-01	  0.027615231	-4.842900E+01
40	  0.027815631	-1.010000E-01	  0.027815631	-9.249700E+01	  0.027815631	5.590000E-01	  0.027815631	-4.786300E+01
41	  0.028016033	-9.800000E-02	  0.028016033	-9.314900E+01	  0.028016033	5.350000E-01	  0.028016033	-4.732100E+01
42	  0.028216433	-8.800000E-02	  0.028216433	-9.383700E+01	  0.028216433	4.790000E-01	  0.028216433	-4.675600E+01
43	  0.028416833	-8.100000E-02	  0.028416833	-9.450600E+01	  0.028416833	4.340000E-01	  0.028416833	-4.621200E+01
44	  0.028617235	-7.200000E-02	  0.028617235	-9.511600E+01	  0.028617235	3.850000E-01	  0.028617235	-4.572100E+01
45	  0.028817635	-6.300000E-02	  0.028817635	-9.571200E+01	  0.028817635	3.340000E-01	  0.028817635	-4.524600E+01
46	  0.029018037	-5.500000E-02	  0.029018037	-9.624600E+01	  0.029018037	2.880000E-01	  0.029018037	-4.482500E+01
47	  0.029218437	-5.200000E-02	  0.029218437	-9.675100E+01	  0.029218437	2.670000E-01	  0.029218437	-4.442800E+01
48	  0.029418837	-4.600000E-02	  0.029418837	-9.727400E+01	  0.029418837	2.370000E-01	  0.029418837	-4.402200E+01
49	  0.029619239	-4.400000E-02	  0.029619239	-9.777200E+01	  0.029619239	2.250000E-01	  0.029619239	-4.363800E+01
50	  0.029819639	-4.800000E-02	  0.029819639	-9.828400E+01	  0.029819639	2.450000E-01	  0.029819639	-4.324600E+01
51	  0.030020041	-5.500000E-02	  0.030020041	-9.882300E+01	  0.030020041	2.760000E-01	  0.030020041	-4.283600E+01
52	  0.030220442	-6.300000E-02	  0.030220442	-9.938500E+01	  0.030220442	3.120000E-01	  0.030220442	-4.241200E+01
53	  0.030420844	-7.600000E-02	  0.030420844	-9.999600E+01	  0.030420844	3.720000E-01	  0.030420844	-4.195600E+01
54	  0.030621244	-8.400000E-02	  0.030621244	-1.006410E+02	  0.030621244	4.110000E-01	  0.030621244	-4.147800E+01
55	  0.030821644	-8.600000E-02	  0.030821644	-1.012790E+02	  0.030821644	4.150000E-01	  0.030821644	-4.101000E+01
56	  0.031022044	-8.400000E-02	  0.031022044	-1.019240E+02	  0.031022044	4.040000E-01	  0.031022044	-4.054200E+01
57	  0.031222444	-7.800000E-02	  0.031222444	-1.025380E+02	  0.031222444	3.730000E-01	  0.031222444	-4.010000E+01
58	  0.031422846	-7.500000E-02	  0.031422846	-1.031330E+02	  0.031422846	3.530000E-01	  0.031422846	-3.967500E+01
59	  0.031623244	-7.700000E-02	  0.031623244	-1.037080E+02	  0.031623244	3.590000E-01	  0.031623244	-3.926800E+01
60	  0.031823646	-7.400000E-02	  0.031823646	-1.042580E+02	  0.031823646	3.430000E-01	  0.031823646	-3.888100E+01
61	  0.032024048	-7.600000E-02	  0.032024048	-1.047750E+02	  0.032024048	3.500000E-01	  0.032024048	-3.852000E+01
62	  0.032224450	-8.500000E-02	  0.032224450	-1.052850E+02	  0.032224450	3.880000E-01	  0.032224450	-3.816700E+01
63	  0.032424849	-9.500000E-02	  0.032424849	-1.058240E+02	  0.032424849	4.300000E-01	  0.032424849	-3.779600E+01
64	  0.032625251	-1.060000E-01	  0.032625251	-1.063910E+02	  0.032625251	4.780000E-01	  0.032625251	-3.740800E+01
65	  0.032825653	-1.160000E-01	  0.032825653	-1.069910E+02	  0.032825653	5.170000E-01	  0.032825653	-3.700100E+01
66	  0.033026051	-1.220000E-01	  0.033026051	-1.076170E+02	  0.033026051	5.410000E-01	  0.033026051	-3.657900E+01
67	  0.033226453	-1.260000E-01	  0.033226453	-1.082190E+02	  0.033226453	5.550000E-01	  0.033226453	-3.617800E+01
68	  0.033426855	-1.260000E-01	  0.033426855	-1.088580E+02	  0.033426855	5.490000E-01	  0.033426855	-3.575400E+01
69	  0.033627257	-1.300000E-01	  0.033627257	-1.095010E+02	  0.033627257	5.650000E-01	  0.033627257	-3.533200E+01
70	  0.033827655	-1.310000E-01	  0.033827655	-1.101350E+02	  0.033827655	5.630000E-01	  0.033827655	-3.491900E+01
71	  0.034028057	-1.280000E-01	  0.034028057	-1.107560E+02	  0.034028057	5.460000E-01	  0.034028057	-3.451700E+01
72	  0.034228459	-1.200000E-01	  0.034228459	-1.113620E+02	  0.034228459	5.070000E-01	  0.034228459	-3.412800E+01
73	  0.034428857	-1.110000E-01	  0.034428857	-1.119450E+02	  0.034428857	4.690000E-01	  0.034428857	-3.375800E+01
74	  0.034629259	-1.030000E-01	  0.034629259	-1.124660E+02	  0.034629259	4.290000E-01	  0.034629259	-3.342800E+01
75	  0.034829661	-9.600000E-02	  0.034829661	-1.129860E+02	  0.034829661	3.980000E-01	  0.034829661	-3.310000E+01
76	  0.035030060	-9.000000E-02	  0.035030060	-1.135020E+02	  0.035030060	3.740000E-01	  0.035030060	-3.277800E+01
77	  0.035230462	-8.700000E-02	  0.035230462	-1.139890E+02	  0.035230462	3.570000E-01	  0.035230462	-3.247500E+01
78	  0.035430863	-8.900000E-02	  0.035430863	-1.144960E+02	  0.035430863	3.650000E-01	  0.035430863	-3.216100E+01
79	  0.035631265	-9.600000E-02	  0.035631265	-1.150140E+02	  0.035631265	3.910000E-01	  0.035631265	-3.184300E+01
80	  0.035831664	-1.040000E-01	  0.035831664	-1.155470E+02	  0.035831664	4.210000E-01	  0.035831664	-3.151700E+01
81	  0.036032066	-1.130000E-01	  0.036032066	-1.161260E+02	  0.036032066	4.520000E-01	  0.036032066	-3.116400E+01
82	  0.036232468	-1.210000E-01	  0.036232468	-1.167370E+02	  0.036232468	4.810000E-01	  0.036232468	-3.079500E+01
83	  0.036432866	-1.260000E-01	  0.036432866	-1.173370E+02	  0.036432866	4.970000E-01	  0.036432866	-3.043500E+01
84	  0.036633268	-1.280000E-01	  0.036633268	-1.179620E+02	  0.036633268	5.030000E-01	  0.036633268	-3.006300E+01
85	  0.036833670	-1.240000E-01	  0.036833670	-1.185640E+02	  0.036833670	4.860000E-01	  0.036833670	-2.970600E+01
86	  0.037034072	-1.130000E-01	  0.037034072	-1.191110E+02	  0.037034072	4.400000E-01	  0.037034072	-2.938400E+01
87	  0.037234470	-1.020000E-01	  0.037234470	-1.196180E+02	  0.037234470	3.950000E-01	  0.037234470	-2.908800E+01
88	  0.037434869	-9.800000E-02	  0.037434869	-1.200890E+02	  0.037434869	3.780000E-01	  0.037434869	-2.881400E+01
89	  0.037635271	-9.600000E-02	  0.037635271	-1.205430E+02	  0.037635271	3.690000E-01	  0.037635271	-2.855000E+01
90	  0.037835669	-1.040000E-01	  0.037835669	-1.210440E+02	  0.037835669	3.950000E-01	  0.037835669	-2.826100E+01
91	  0.038036071	-1.120000E-01	  0.038036071	-1.215740E+02	  0.038036071	4.260000E-01	  0.038036071	-2.795600E+01
92	  0.038236473	-1.220000E-01	  0.038236473	-1.221030E+02	  0.038236473	4.590000E-01	  0.038236473	-2.765400E+01
93	  0.038436871	-1.250000E-01	  0.038436871	-1.226630E+02	  0.038436871	4.700000E-01	  0.038436871	-2.733600E+01
94	  0.038637273	-1.310000E-01	  0.038637273	-1.231920E+02	  0.038637273	4.890000E-01	  0.038637273	-2.703600E+01
95	  0.038837675	-1.390000E-01	  0.038837675	-1.237530E+02	  0.038837675	5.170000E-01	  0.038837675	-2.672100E+01
96	  0.039038073	-1.480000E-01	  0.039038073	-1.243330E+02	  0.039038073	5.450000E-01	  0.039038073	-2.639600E+01
97	  0.039238475	-1.510000E-01	  0.039238475	-1.249110E+02	  0.039238475	5.540000E-01	  0.039238475	-2.607500E+01
98	  0.039438877	-1.520000E-01	  0.039438877	-1.254980E+02	  0.039438877	5.540000E-01	  0.039438877	-2.575000E+01
99	  0.039639279	-1.490000E-01	  0.039639279	-1.260610E+02	  0.039639279	5.400000E-01	  0.039639279	-2.544000E+01
100	  0.039839678	-1.430000E-01	  0.039839678	-1.265980E+02	  0.039839678	5.160000E-01	  0.039839678	-2.514600E+01
101	  0.040040080	-1.380000E-01	  0.040040080	-1.271010E+02	  0.040040080	4.960000E-01	  0.040040080	-2.487100E+01
102	  0.040240481	-1.360000E-01	  0.040240481	-1.276370E+02	  0.040240481	4.870000E-01	  0.040240481	-2.458000E+01
103	  0.040440880	-1.320000E-01	  0.040440880	-1.281670E+02	  0.040440880	4.720000E-01	  0.040440880	-2.429400E+01
104	  0.040641282	-1.320000E-01	  0.040641282	-1.286840E+02	  0.040641282	4.680000E-01	  0.040641282	-2.401600E+01
105	  0.040841684	-1.330000E-01	  0.040841684	-1.291910E+02	  0.040841684	4.700000E-01	  0.040841684	-2.374400E+01
106	  0.041042086	-1.360000E-01	  0.041042086	-1.297020E+02	  0.041042086	4.770000E-01	  0.041042086	-2.347100E+01
107	  0.041242484	-1.430000E-01	  0.041242484	-1.302040E+02	  0.041242484	5.010000E-01	  0.041242484	-2.320400E+01
108	  0.041442886	-1.530000E-01	  0.041442886	-1.307140E+02	  0.041442886	5.330000E-01	  0.041442886	-2.293400E+01
109	  0.041643288	-1.660000E-01	  0.041643288	-1.312920E+02	  0.041643288	5.760000E-01	  0.041643288	-2.262900E+01
110	  0.041843686	-1.680000E-01	  0.041843686	-1.318860E+02	  0.041843686	5.820000E-01	  0.041843686	-2.231800E+01
111	  0.042044088	-1.640000E-01	  0.042044088	-1.324800E+02	  0.042044088	5.660000E-01	  0.042044088	-2.200800E+01
112	  0.042244490	-1.540000E-01	  0.042244490	-1.330360E+02	  0.042244490	5.280000E-01	  0.042244490	-2.171900E+01
113	  0.042444889	-1.440000E-01	  0.042444889	-1.335610E+02	  0.042444889	4.920000E-01	  0.042444889	-2.144800E+01
114	  0.042645290	-1.380000E-01	  0.042645290	-1.340210E+02	  0.042645290	4.710000E-01	  0.042645290	-2.121000E+01
115	  0.042845692	-1.360000E-01	  0.042845692	-1.344840E+02	  0.042845692	4.610000E-01	  0.042845692	-2.097300E+01
116	  0.043046094	-1.360000E-01	  0.043046094	-1.349700E+02	  0.043046094	4.580000E-01	  0.043046094	-2.072400E+01
117	  0.043246493	-1.400000E-01	  0.043246493	-1.354610E+02	  0.043246493	4.700000E-01	  0.043246493	-2.047300E+01
118	  0.043446895	-1.460000E-01	  0.043446895	-1.359500E+02	  0.043446895	4.900000E-01	  0.043446895	-2.022400E+01
119	  0.043647297	-1.500000E-01	  0.043647297	-1.364330E+02	  0.043647297	5.010000E-01	  0.043647297	-1.997900E+01
120	  0.043847695	-1.540000E-01	  0.043847695	-1.369340E+02	  0.043847695	5.130000E-01	  0.043847695	-1.972600E+01
121	  0.044048097	-1.600000E-01	  0.044048097	-1.374230E+02	  0.044048097	5.320000E-01	  0.044048097	-1.948000E+01
122	  0.044248499	-1.660000E-01	  0.044248499	-1.379380E+02	  0.044248499	5.490000E-01	  0.044248499	-1.922100E+01
123	  0.044448901	-1.710000E-01	  0.044448901	-1.384710E+02	  0.044448901	5.640000E-01	  0.044448901	-1.895500E+01
124	  0.044649299	-1.700000E-01	  0.044649299	-1.390010E+02	  0.044649299	5.590000E-01	  0.044649299	-1.869100E+01
125	  0.044849701	-1.700000E-01	  0.044849701	-1.394990E+02	  0.044849701	5.580000E-01	  0.044849701	-1.844400E+01
126	  0.045050103	-1.710000E-01	  0.045050103	-1.400030E+02	  0.045050103	5.590000E-01	  0.045050103	-1.819400E+01
127	  0.045250501	-1.710000E-01	  0.045250501	-1.404900E+02	  0.045250501	5.570000E-01	  0.045250501	-1.795400E+01
128	  0.045450903	-1.720000E-01	  0.045450903	-1.410190E+02	  0.045450903	5.580000E-01	  0.045450903	-1.769400E+01
129	  0.045651305	-1.720000E-01	  0.045651305	-1.415440E+02	  0.045651305	5.560000E-01	  0.045651305	-1.743600E+01
130	  0.045851704	-1.720000E-01	  0.045851704	-1.420700E+02	  0.045851704	5.530000E-01	  0.045851704	-1.718000E+01
131	  0.046052106	-1.690000E-01	  0.046052106	-1.425820E+02	  0.046052106	5.420000E-01	  0.046052106	-1.693000E+01
132	  0.046252504	-1.700000E-01	  0.046252504	-1.430750E+02	  0.046252504	5.430000E-01	  0.046252504	-1.669100E+01
133	  0.046452906	-1.740000E-01	  0.046452906	-1.435560E+02	  0.046452906	5.570000E-01	  0.046452906	-1.645800E+01
134	  0.046653304	-1.830000E-01	  0.046653304	-1.440380E+02	  0.046653304	5.820000E-01	  0.046653304	-1.622500E+01
135	  0.046853706	-1.910000E-01	  0.046853706	-1.445590E+02	  0.046853706	6.080000E-01	  0.046853706	-1.597400E+01
136	  0.047054108	-1.960000E-01	  0.047054108	-1.451150E+02	  0.047054108	6.220000E-01	  0.047054108	-1.570700E+01
137	  0.047254506	-1.950000E-01	  0.047254506	-1.456880E+02	  0.047254506	6.170000E-01	  0.047254506	-1.543200E+01
138	  0.047454908	-1.880000E-01	  0.047454908	-1.462240E+02	  0.047454908	5.930000E-01	  0.047454908	-1.517700E+01
139	  0.047655310	-1.810000E-01	  0.047655310	-1.467300E+02	  0.047655310	5.680000E-01	  0.047655310	-1.493600E+01
140	  0.047855709	-1.770000E-01	  0.047855709	-1.472050E+02	  0.047855709	5.530000E-01	  0.047855709	-1.471100E+01
141	  0.048056111	-1.750000E-01	  0.048056111	-1.476860E+02	  0.048056111	5.470000E-01	  0.048056111	-1.448300E+01
142	  0.048256513	-1.750000E-01	  0.048256513	-1.481720E+02	  0.048256513	5.460000E-01	  0.048256513	-1.425400E+01
143	  0.048456915	-1.750000E-01	  0.048456915	-1.486410E+02	  0.048456915	5.430000E-01	  0.048456915	-1.403300E+01
144	  0.048657313	-1.750000E-01	  0.048657313	-1.491010E+02	  0.048657313	5.430000E-01	  0.048657313	-1.381600E+01
145	  0.048857715	-1.770000E-01	  0.048857715	-1.495470E+02	  0.048857715	5.470000E-01	  0.048857715	-1.360700E+01
146	  0.049058117	-1.820000E-01	  0.049058117	-1.500020E+02	  0.049058117	5.640000E-01	  0.049058117	-1.339400E+01
147	  0.049258515	-1.870000E-01	  0.049258515	-1.504740E+02	  0.049258515	5.770000E-01	  0.049258515	-1.317400E+01
148	  0.049458917	-1.900000E-01	  0.049458917	-1.509480E+02	  0.049458917	5.840000E-01	  0.049458917	-1.295300E+01
149	  0.049659319	-1.920000E-01	  0.049659319	-1.514260E+02	  0.049659319	5.880000E-01	  0.049659319	-1.273100E+01
150	  0.049859721	-1.910000E-01	  0.049859721	-1.518960E+02	  0.049859721	5.840000E-01	  0.049859721	-1.251200E+01
151	  0.050060119	-1.910000E-01	  0.050060119	-1.523440E+02	  0.050060119	5.850000E-01	  0.050060119	-1.230500E+01
152	  0.050260521	-1.960000E-01	  0.050260521	-1.527900E+02	  0.050260521	5.970000E-01	  0.050260521	-1.209800E+01
153	  0.050460923	-1.970000E-01	  0.050460923	-1.532470E+02	  0.050460923	6.000000E-01	  0.050460923	-1.188800E+01
154	  0.050661322	-1.980000E-01	  0.050661322	-1.537220E+02	  0.050661322	6.010000E-01	  0.050661322	-1.166900E+01
155	  0.050861724	-1.990000E-01	  0.050861724	-1.542320E+02	  0.050861724	6.030000E-01	  0.050861724	-1.143400E+01
156	  0.051062126	-1.990000E-01	  0.051062126	-1.547190E+02	  0.051062126	6.010000E-01	  0.051062126	-1.121100E+01
157	  0.051262524	-1.970000E-01	  0.051262524	-1.551900E+02	  0.051262524	5.960000E-01	  0.051262524	-1.099600E+01
158	  0.051462926	-1.980000E-01	  0.051462926	-1.556550E+02	  0.051462926	5.970000E-01	  0.051462926	-1.078300E+01
159	  0.051663328	-2.030000E-01	  0.051663328	-1.561150E+02	  0.051663328	6.120000E-01	  0.051663328	-1.057300E+01
160	  0.051863730	-2.070000E-01	  0.051863730	-1.565810E+02	  0.051863730	6.240000E-01	  0.051863730	-1.036100E+01
161	  0.052064128	-2.130000E-01	  0.052064128	-1.570650E+02	  0.052064128	6.390000E-01	  0.052064128	-1.014100E+01
162	  0.052264530	-2.180000E-01	  0.052264530	-1.575630E+02	  0.052264530	6.540000E-01	  0.052264530	-9.915000E+00
163	  0.052464932	-2.190000E-01	  0.052464932	-1.580690E+02	  0.052464932	6.550000E-01	  0.052464932	-9.685000E+00
164	  0.052665330	-2.180000E-01	  0.052665330	-1.585900E+02	  0.052665330	6.500000E-01	  0.052665330	-9.450000E+00
165	  0.052865732	-2.140000E-01	  0.052865732	-1.590850E+02	  0.052865732	6.380000E-01	  0.052865732	-9.226000E+00
166	  0.053066134	-2.090000E-01	  0.053066134	-1.595530E+02	  0.053066134	6.210000E-01	  0.053066134	-9.015000E+00
167	  0.053266536	-2.090000E-01	  0.053266536	-1.600360E+02	  0.053266536	6.220000E-01	  0.053266536	-8.798000E+00
168	  0.053466935	-2.080000E-01	  0.053466935	-1.605100E+02	  0.053466935	6.180000E-01	  0.053466935	-8.585000E+00
169	  0.053667337	-2.060000E-01	  0.053667337	-1.609870E+02	  0.053667337	6.120000E-01	  0.053667337	-8.371000E+00
170	  0.053867739	-2.060000E-01	  0.053867739	-1.614350E+02	  0.053867739	6.090000E-01	  0.053867739	-8.170000E+00
171	  0.054068137	-2.080000E-01	  0.054068137	-1.618720E+02	  0.054068137	6.150000E-01	  0.054068137	-7.974000E+00
172	  0.054268539	-2.100000E-01	  0.054268539	-1.623320E+02	  0.054268539	6.210000E-01	  0.054268539	-7.769000E+00
173	  0.054468941	-2.150000E-01	  0.054468941	-1.627860E+02	  0.054468941	6.330000E-01	  0.054468941	-7.566000E+00
174	  0.054669339	-2.150000E-01	  0.054669339	-1.632490E+02	  0.054669339	6.350000E-01	  0.054669339	-7.360000E+00
175	  0.054869737	-2.160000E-01	  0.054869737	-1.637110E+02	  0.054869737	6.370000E-01	  0.054869737	-7.154000E+00
176	  0.055070139	-2.150000E-01	  0.055070139	-1.641440E+02	  0.055070139	6.310000E-01	  0.055070139	-6.961000E+00
177	  0.055270538	-2.160000E-01	  0.055270538	-1.645820E+02	  0.055270538	6.340000E-01	  0.055270538	-6.766000E+00
178	  0.055470940	-2.180000E-01	  0.055470940	-1.650260E+02	  0.055470940	6.380000E-01	  0.055470940	-6.569000E+00
179	  0.055671342	-2.210000E-01	  0.055671342	-1.654620E+02	  0.055671342	6.470000E-01	  0.055671342	-6.376000E+00
180	  0.055871744	-2.220000E-01	  0.055871744	-1.659250E+02	  0.055871744	6.490000E-01	  0.055871744	-6.171000E+00
181	  0.056072142	-2.240000E-01	  0.056072142	-1.663920E+02	  0.056072142	6.540000E-01	  0.056072142	-5.964000E+00
182	  0.056272544	-2.250000E-01	  0.056272544	-1.668500E+02	  0.056272544	6.570000E-01	  0.056272544	-5.762000E+00
183	  0.056472946	-2.230000E-01	  0.056472946	-1.673140E+02	  0.056472946	6.500000E-01	  0.056472946	-5.557000E+00
184	  0.056673344	-2.230000E-01	  0.056673344	-1.677640E+02	  0.056673344	6.500000E-01	  0.056673344	-5.358000E+00
185	  0.056873746	-2.280000E-01	  0.056873746	-1.682210E+02	  0.056873746	6.630000E-01	  0.056873746	-5.156000E+00
186	  0.057074148	-2.280000E-01	  0.057074148	-1.686710E+02	  0.057074148	6.630000E-01	  0.057074148	-4.958000E+00
187	  0.057274550	-2.310000E-01	  0.057274550	-1.691220E+02	  0.057274550	6.720000E-01	  0.057274550	-4.759000E+00
188	  0.057474948	-2.330000E-01	  0.057474948	-1.695680E+02	  0.057474948	6.760000E-01	  0.057474948	-4.563000E+00
189	  0.057675350	-2.350000E-01	  0.057675350	-1.700430E+02	  0.057675350	6.830000E-01	  0.057675350	-4.354000E+00
190	  0.057875752	-2.370000E-01	  0.057875752	-1.705160E+02	  0.057875752	6.870000E-01	  0.057875752	-4.146000E+00
191	  0.058076151	-2.370000E-01	  0.058076151	-1.709680E+02	  0.058076151	6.860000E-01	  0.058076151	-3.948000E+00
192	  0.058276553	-2.340000E-01	  0.058276553	-1.714260E+02	  0.058276553	6.790000E-01	  0.058276553	-3.747000E+00
193	  0.058476955	-2.310000E-01	  0.058476955	-1.718780E+02	  0.058476955	6.690000E-01	  0.058476955	-3.548000E+00
194	  0.058677353	-2.300000E-01	  0.058677353	-1.723460E+02	  0.058677353	6.660000E-01	  0.058677353	-3.343000E+00
195	  0.058877755	-2.300000E-01	  0.058877755	-1.727740E+02	  0.058877755	6.660000E-01	  0.058877755	-3.156000E+00
196	  0.059078157	-2.300000E-01	  0.059078157	-1.732050E+02	  0.059078157	6.660000E-01	  0.059078157	-2.967000E+00
197	  0.059278559	-2.330000E-01	  0.059278559	-1.736260E+02	  0.059278559	6.740000E-01	  0.059278559	-2.783000E+00
198	  0.059478957	-2.360000E-01	  0.059478957	-1.740540E+02	  0.059478957	6.820000E-01	  0.059478957	-2.596000E+00
199	  0.059679359	-2.340000E-01	  0.059679359	-1.744850E+02	  0.059679359	6.760000E-01	  0.059679359	-2.407000E+00
200	  0.059879761	-2.370000E-01	  0.059879761	-1.749060E+02	  0.059879761	6.850000E-01	  0.059879761	-2.223000E+00
201	  0.060080159	-2.360000E-01	  0.060080159	-1.753180E+02	  0.060080159	6.800000E-01	  0.060080159	-2.043000E+00
202	  0.060280561	-2.350000E-01	  0.060280561	-1.757300E+02	  0.060280561	6.790000E-01	  0.060280561	-1.863000E+00
203	  0.060480963	-2.360000E-01	  0.060480963	-1.761400E+02	  0.060480963	6.820000E-01	  0.060480963	-1.684000E+00
204	  0.060681365	-2.390000E-01	  0.060681365	-1.765640E+02	  0.060681365	6.900000E-01	  0.060681365	-1.499000E+00
205	  0.060881764	-2.420000E-01	  0.060881764	-1.769680E+02	  0.060881764	6.970000E-01	  0.060881764	-1.322000E+00
206	  0.061082166	-2.440000E-01	  0.061082166	-1.773980E+02	  0.061082166	7.020000E-01	  0.061082166	-1.135000E+00
207	  0.061282568	-2.430000E-01	  0.061282568	-1.778250E+02	  0.061282568	7.000000E-01	  0.061282568	-9.480000E-01
208	  0.061482966	-2.460000E-01	  0.061482966	-1.782670E+02	  0.061482966	7.100000E-01	  0.061482966	-7.550000E-01
209	  0.061683368	-2.470000E-01	  0.061683368	-1.786940E+02	  0.061683368	7.110000E-01	  0.061683368	-5.690000E-01
210	  0.061883770	-2.480000E-01	  0.061883770	-1.791310E+02	  0.061883770	7.150000E-01	  0.061883770	-3.780000E-01
211	  0.062084168	-2.520000E-01	  0.062084168	-1.795760E+02	  0.062084168	7.250000E-01	  0.062084168	-1.840000E-01
212	  0.062284570	-2.540000E-01	  0.062284570	1.799780E+02	  0.062284570	7.310000E-01	  0.062284570	9.000000E-03
213	  0.062484972	-2.550000E-01	  0.062484972	1.795660E+02	  0.062484972	7.340000E-01	  0.062484972	1.890000E-01
214	  0.062685370	-2.570000E-01	  0.062685370	1.791250E+02	  0.062685370	7.410000E-01	  0.062685370	3.810000E-01
215	  0.062885776	-2.570000E-01	  0.062885776	1.786840E+02	  0.062885776	7.420000E-01	  0.062885776	5.730000E-01
216	  0.063086174	-2.600000E-01	  0.063086174	1.782290E+02	  0.063086174	7.480000E-01	  0.063086174	7.720000E-01
217	  0.063286573	-2.590000E-01	  0.063286573	1.777790E+02	  0.063286573	7.460000E-01	  0.063286573	9.680000E-01
218	  0.063486971	-2.560000E-01	  0.063486971	1.773400E+02	  0.063486971	7.390000E-01	  0.063486971	1.160000E+00
219	  0.063687377	-2.540000E-01	  0.063687377	1.769150E+02	  0.063687377	7.330000E-01	  0.063687377	1.345000E+00
220	  0.063887775	-2.560000E-01	  0.063887775	1.764900E+02	  0.063887775	7.400000E-01	  0.063887775	1.531000E+00
221	  0.064088173	-2.550000E-01	  0.064088173	1.760640E+02	  0.064088173	7.350000E-01	  0.064088173	1.717000E+00
222	  0.064288579	-2.570000E-01	  0.064288579	1.756440E+02	  0.064288579	7.430000E-01	  0.064288579	1.900000E+00
223	  0.064488977	-2.590000E-01	  0.064488977	1.752060E+02	  0.064488977	7.470000E-01	  0.064488977	2.092000E+00
224	  0.064689375	-2.580000E-01	  0.064689375	1.747840E+02	  0.064689375	7.440000E-01	  0.064689375	2.276000E+00
225	  0.064889781	-2.570000E-01	  0.064889781	1.743710E+02	  0.064889781	7.420000E-01	  0.064889781	2.457000E+00
226	  0.065090179	-2.590000E-01	  0.065090179	1.739560E+02	  0.065090179	7.470000E-01	  0.065090179	2.638000E+00
227	  0.065290578	-2.590000E-01	  0.065290578	1.735590E+02	  0.065290578	7.480000E-01	  0.065290578	2.812000E+00
228	  0.065490983	-2.590000E-01	  0.065490983	1.731770E+02	  0.065490983	7.490000E-01	  0.065490983	2.979000E+00
229	  0.065691382	-2.610000E-01	  0.065691382	1.727850E+02	  0.065691382	7.550000E-01	  0.065691382	3.151000E+00
230	  0.065891780	-2.620000E-01	  0.065891780	1.723730E+02	  0.065891780	7.590000E-01	  0.065891780	3.331000E+00
231	  0.066092186	-2.600000E-01	  0.066092186	1.719900E+02	  0.066092186	7.530000E-01	  0.066092186	3.499000E+00
232	  0.066292584	-2.610000E-01	  0.066292584	1.715730E+02	  0.066292584	7.570000E-01	  0.066292584	3.682000E+00
233	  0.066492982	-2.610000E-01	  0.066492982	1.711710E+02	  0.066492982	7.580000E-01	  0.066492982	3.858000E+00
234	  0.066693388	-2.630000E-01	  0.066693388	1.707620E+02	  0.066693388	7.640000E-01	  0.066693388	4.038000E+00
235	  0.066893786	-2.670000E-01	  0.066893786	1.703300E+02	  0.066893786	7.740000E-01	  0.066893786	4.228000E+00
236	  0.067094192	-2.670000E-01	  0.067094192	1.699150E+02	  0.067094192	7.770000E-01	  0.067094192	4.410000E+00
237	  0.067294590	-2.710000E-01	  0.067294590	1.694850E+02	  0.067294590	7.870000E-01	  0.067294590	4.599000E+00
238	  0.067494988	-2.730000E-01	  0.067494988	1.690750E+02	  0.067494988	7.940000E-01	  0.067494988	4.779000E+00
239	  0.067695394	-2.740000E-01	  0.067695394	1.686590E+02	  0.067695394	7.980000E-01	  0.067695394	4.963000E+00
240	  0.067895792	-2.740000E-01	  0.067895792	1.682370E+02	  0.067895792	7.990000E-01	  0.067895792	5.149000E+00
241	  0.068096191	-2.760000E-01	  0.068096191	1.678240E+02	  0.068096191	8.030000E-01	  0.068096191	5.331000E+00
242	  0.068296596	-2.800000E-01	  0.068296596	1.673790E+02	  0.068296596	8.170000E-01	  0.068296596	5.527000E+00
243	  0.068496995	-2.740000E-01	  0.068496995	1.669710E+02	  0.068496995	8.010000E-01	  0.068496995	5.707000E+00
244	  0.068697393	-2.750000E-01	  0.068697393	1.665440E+02	  0.068697393	8.030000E-01	  0.068697393	5.896000E+00
245	  0.068897791	-2.730000E-01	  0.068897791	1.661540E+02	  0.068897791	7.990000E-01	  0.068897791	6.069000E+00
246	  0.069098189	-2.740000E-01	  0.069098189	1.657560E+02	  0.069098189	8.020000E-01	  0.069098189	6.245000E+00
247	  0.069298595	-2.750000E-01	  0.069298595	1.653630E+02	  0.069298595	8.040000E-01	  0.069298595	6.419000E+00
248	  0.069498993	-2.790000E-01	  0.069498993	1.649360E+02	  0.069498993	8.180000E-01	  0.069498993	6.609000E+00
249	  0.069699399	-2.820000E-01	  0.069699399	1.645190E+02	  0.069699399	8.280000E-01	  0.069699399	6.794000E+00
250	  0.069899797	-2.790000E-01	  0.069899797	1.641050E+02	  0.069899797	8.210000E-01	  0.069899797	6.978000E+00
251	  0.070100196	-2.800000E-01	  0.070100196	1.637060E+02	  0.070100196	8.230000E-01	  0.070100196	7.155000E+00
252	  0.070300601	-2.810000E-01	  0.070300601	1.633200E+02	  0.070300601	8.270000E-01	  0.070300601	7.327000E+00
253	  0.070501000	-2.800000E-01	  0.070501000	1.629290E+02	  0.070501000	8.240000E-01	  0.070501000	7.502000E+00
254	  0.070701398	-2.810000E-01	  0.070701398	1.625730E+02	  0.070701398	8.270000E-01	  0.070701398	7.660000E+00
255	  0.070901804	-2.820000E-01	  0.070901804	1.621950E+02	  0.070901804	8.320000E-01	  0.070901804	7.829000E+00
256	  0.071102202	-2.820000E-01	  0.071102202	1.617950E+02	  0.071102202	8.350000E-01	  0.071102202	8.008000E+00
257	  0.071302600	-2.810000E-01	  0.071302600	1.614130E+02	  0.071302600	8.320000E-01	  0.071302600	8.179000E+00
258	  0.071503006	-2.800000E-01	  0.071503006	1.610230E+02	  0.071503006	8.300000E-01	  0.071503006	8.354000E+00
259	  0.071703404	-2.820000E-01	  0.071703404	1.606450E+02	  0.071703404	8.370000E-01	  0.071703404	8.524000E+00
260	  0.071903802	-2.820000E-01	  0.071903802	1.602430E+02	  0.071903802	8.380000E-01	  0.071903802	8.704000E+00
261	  0.072104208	-2.830000E-01	  0.072104208	1.598480E+02	  0.072104208	8.430000E-01	  0.072104208	8.881000E+00
262	  0.072304606	-2.870000E-01	  0.072304606	1.594590E+02	  0.072304606	8.530000E-01	  0.072304606	9.056000E+00
263	  0.072505005	-2.860000E-01	  0.072505005	1.590490E+02	  0.072505005	8.530000E-01	  0.072505005	9.241000E+00
264	  0.072705410	-2.910000E-01	  0.072705410	1.586690E+02	  0.072705410	8.680000E-01	  0.072705410	9.413000E+00
265	  0.072905809	-2.940000E-01	  0.072905809	1.582530E+02	  0.072905809	8.790000E-01	  0.072905809	9.601000E+00
266	  0.073106214	-2.950000E-01	  0.073106214	1.578500E+02	  0.073106214	8.820000E-01	  0.073106214	9.783000E+00
267	  0.073306613	-2.980000E-01	  0.073306613	1.574320E+02	  0.073306613	8.920000E-01	  0.073306613	9.973000E+00
268	  0.073507011	-2.970000E-01	  0.073507011	1.570070E+02	  0.073507011	8.920000E-01	  0.073507011	1.016600E+01
269	  0.073707417	-2.950000E-01	  0.073707417	1.565960E+02	  0.073707417	8.850000E-01	  0.073707417	1.035200E+01
270	  0.073907815	-2.960000E-01	  0.073907815	1.562000E+02	  0.073907815	8.900000E-01	  0.073907815	1.053300E+01
271	  0.074108213	-2.900000E-01	  0.074108213	1.558030E+02	  0.074108213	8.750000E-01	  0.074108213	1.071400E+01
272	  0.074308619	-2.920000E-01	  0.074308619	1.554180E+02	  0.074308619	8.810000E-01	  0.074308619	1.089000E+01
273	  0.074509017	-2.940000E-01	  0.074509017	1.550310E+02	  0.074509017	8.870000E-01	  0.074509017	1.106600E+01
274	  0.074709415	-2.960000E-01	  0.074709415	1.546140E+02	  0.074709415	8.960000E-01	  0.074709415	1.125700E+01
275	  0.074909821	-2.960000E-01	  0.074909821	1.542160E+02	  0.074909821	8.980000E-01	  0.074909821	1.144000E+01
276	  0.075110219	-2.980000E-01	  0.075110219	1.538260E+02	  0.075110219	9.060000E-01	  0.075110219	1.161900E+01
277	  0.075310618	-2.990000E-01	  0.075310618	1.534310E+02	  0.075310618	9.100000E-01	  0.075310618	1.180100E+01
278	  0.075511023	-3.010000E-01	  0.075511023	1.530540E+02	  0.075511023	9.170000E-01	  0.075511023	1.197400E+01
279	  0.075711422	-3.000000E-01	  0.075711422	1.526800E+02	  0.075711422	9.170000E-01	  0.075711422	1.214700E+01
280	  0.075911827	-3.030000E-01	  0.075911827	1.523320E+02	  0.075911827	9.250000E-01	  0.075911827	1.230800E+01
281	  0.076112226	-3.010000E-01	  0.076112226	1.519510E+02	  0.076112226	9.230000E-01	  0.076112226	1.248400E+01
282	  0.076312624	-2.980000E-01	  0.076312624	1.515810E+02	  0.076312624	9.150000E-01	  0.076312624	1.265600E+01
283	  0.076513030	-2.990000E-01	  0.076513030	1.512110E+02	  0.076513030	9.170000E-01	  0.076513030	1.282800E+01
284	  0.076713428	-2.980000E-01	  0.076713428	1.508560E+02	  0.076713428	9.180000E-01	  0.076713428	1.299300E+01
285	  0.076913826	-2.980000E-01	  0.076913826	1.504710E+02	  0.076913826	9.180000E-01	  0.076913826	1.317200E+01
286	  0.077114232	-2.950000E-01	  0.077114232	1.501150E+02	  0.077114232	9.100000E-01	  0.077114232	1.333900E+01
287	  0.077314630	-2.970000E-01	  0.077314630	1.497390E+02	  0.077314630	9.170000E-01	  0.077314630	1.351500E+01
288	  0.077515028	-2.970000E-01	  0.077515028	1.493550E+02	  0.077515028	9.190000E-01	  0.077515028	1.369500E+01
289	  0.077715434	-2.970000E-01	  0.077715434	1.490020E+02	  0.077715434	9.210000E-01	  0.077715434	1.386000E+01
290	  0.077915832	-3.010000E-01	  0.077915832	1.486580E+02	  0.077915832	9.340000E-01	  0.077915832	1.402200E+01
291	  0.078116231	-3.050000E-01	  0.078116231	1.482880E+02	  0.078116231	9.490000E-01	  0.078116231	1.419600E+01
292	  0.078316636	-3.060000E-01	  0.078316636	1.478920E+02	  0.078316636	9.560000E-01	  0.078316636	1.438200E+01
293	  0.078517035	-3.110000E-01	  0.078517035	1.474810E+02	  0.078517035	9.730000E-01	  0.078517035	1.457700E+01
294	  0.078717433	-3.110000E-01	  0.078717433	1.470670E+02	  0.078717433	9.750000E-01	  0.078717433	1.477300E+01
295	  0.078917839	-3.090000E-01	  0.078917839	1.466580E+02	  0.078917839	9.690000E-01	  0.078917839	1.496700E+01
296	  0.079118237	-3.070000E-01	  0.079118237	1.462990E+02	  0.079118237	9.640000E-01	  0.079118237	1.513800E+01
297	  0.079318643	-3.040000E-01	  0.079318643	1.459100E+02	  0.079318643	9.580000E-01	  0.079318643	1.532400E+01
298	  0.079519041	-3.070000E-01	  0.079519041	1.455560E+02	  0.079519041	9.690000E-01	  0.079519041	1.549300E+01
299	  0.079719439	-3.090000E-01	  0.079719439	1.451560E+02	  0.079719439	9.760000E-01	  0.079719439	1.568400E+01
300	  0.079919845	-3.110000E-01	  0.079919845	1.447800E+02	  0.079919845	9.880000E-01	  0.079919845	1.586400E+01
301	  0.080120243	-3.160000E-01	  0.080120243	1.443680E+02	  0.080120243	1.003000E+00	  0.080120243	1.606200E+01
302	  0.080320641	-3.150000E-01	  0.080320641	1.439960E+02	  0.080320641	1.002000E+00	  0.080320641	1.624100E+01
303	  0.080521047	-3.150000E-01	  0.080521047	1.436280E+02	  0.080521047	1.006000E+00	  0.080521047	1.641900E+01
304	  0.080721445	-3.190000E-01	  0.080721445	1.432690E+02	  0.080721445	1.020000E+00	  0.080721445	1.659200E+01
305	  0.080921844	-3.200000E-01	  0.080921844	1.428840E+02	  0.080921844	1.025000E+00	  0.080921844	1.677900E+01
306	  0.081122249	-3.200000E-01	  0.081122249	1.424950E+02	  0.081122249	1.030000E+00	  0.081122249	1.696800E+01
307	  0.081322648	-3.150000E-01	  0.081322648	1.421530E+02	  0.081322648	1.014000E+00	  0.081322648	1.713500E+01
308	  0.081523046	-3.110000E-01	  0.081523046	1.417980E+02	  0.081523046	1.002000E+00	  0.081523046	1.730800E+01
309	  0.081723452	-3.120000E-01	  0.081723452	1.414260E+02	  0.081723452	1.010000E+00	  0.081723452	1.749000E+01
310	  0.081923850	-3.140000E-01	  0.081923850	1.410820E+02	  0.081923850	1.017000E+00	  0.081923850	1.765900E+01
311	  0.082124248	-3.130000E-01	  0.082124248	1.407110E+02	  0.082124248	1.017000E+00	  0.082124248	1.784100E+01
312	  0.082324654	-3.110000E-01	  0.082324654	1.403510E+02	  0.082324654	1.012000E+00	  0.082324654	1.801800E+01
313	  0.082525052	-3.080000E-01	  0.082525052	1.400020E+02	  0.082525052	1.006000E+00	  0.082525052	1.819000E+01
314	  0.082725458	-3.060000E-01	  0.082725458	1.396790E+02	  0.082725458	1.000000E+00	  0.082725458	1.835000E+01
315	  0.082925856	-3.080000E-01	  0.082925856	1.393330E+02	  0.082925856	1.011000E+00	  0.082925856	1.852100E+01
316	  0.083126254	-3.090000E-01	  0.083126254	1.390110E+02	  0.083126254	1.015000E+00	  0.083126254	1.868100E+01
317	  0.083326660	-3.170000E-01	  0.083326660	1.386600E+02	  0.083326660	1.043000E+00	  0.083326660	1.885600E+01
318	  0.083527058	-3.180000E-01	  0.083527058	1.382980E+02	  0.083527058	1.048000E+00	  0.083527058	1.903600E+01
319	  0.083727457	-3.230000E-01	  0.083727457	1.378910E+02	  0.083727457	1.070000E+00	  0.083727457	1.923900E+01
320	  0.083927862	-3.240000E-01	  0.083927862	1.375120E+02	  0.083927862	1.076000E+00	  0.083927862	1.942900E+01
321	  0.084128261	-3.220000E-01	  0.084128261	1.371010E+02	  0.084128261	1.071000E+00	  0.084128261	1.963600E+01
322	  0.084328659	-3.220000E-01	  0.084328659	1.367280E+02	  0.084328659	1.075000E+00	  0.084328659	1.982400E+01
323	  0.084529065	-3.230000E-01	  0.084529065	1.363760E+02	  0.084529065	1.079000E+00	  0.084529065	2.000200E+01
324	  0.084729463	-3.210000E-01	  0.084729463	1.360030E+02	  0.084729463	1.076000E+00	  0.084729463	2.019100E+01
325	  0.084929861	-3.250000E-01	  0.084929861	1.356260E+02	  0.084929861	1.091000E+00	  0.084929861	2.038200E+01
326	  0.085130267	-3.250000E-01	  0.085130267	1.352420E+02	  0.085130267	1.096000E+00	  0.085130267	2.057800E+01
327	  0.085330658	-3.280000E-01	  0.085330658	1.348600E+02	  0.085330658	1.109000E+00	  0.085330658	2.077300E+01
328	  0.085531056	-3.300000E-01	  0.085531056	1.344970E+02	  0.085531056	1.117000E+00	  0.085531056	2.095900E+01
329	  0.085731462	-3.310000E-01	  0.085731462	1.341440E+02	  0.085731462	1.125000E+00	  0.085731462	2.114000E+01
330	  0.085931860	-3.350000E-01	  0.085931860	1.337710E+02	  0.085931860	1.141000E+00	  0.085931860	2.133200E+01
331	  0.086132258	-3.350000E-01	  0.086132258	1.333920E+02	  0.086132258	1.145000E+00	  0.086132258	2.152700E+01
332	  0.086332664	-3.370000E-01	  0.086332664	1.330410E+02	  0.086332664	1.155000E+00	  0.086332664	2.170900E+01
333	  0.086533062	-3.330000E-01	  0.086533062	1.326850E+02	  0.086533062	1.143000E+00	  0.086533062	2.189400E+01
334	  0.086733460	-3.300000E-01	  0.086733460	1.323250E+02	  0.086733460	1.138000E+00	  0.086733460	2.208100E+01
335	  0.086933866	-3.270000E-01	  0.086933866	1.319600E+02	  0.086933866	1.129000E+00	  0.086933866	2.227200E+01
336	  0.087134264	-3.270000E-01	  0.087134264	1.316290E+02	  0.087134264	1.133000E+00	  0.087134264	2.244500E+01
337	  0.087334670	-3.270000E-01	  0.087334670	1.312780E+02	  0.087334670	1.136000E+00	  0.087334670	2.262900E+01
338	  0.087535068	-3.230000E-01	  0.087535068	1.309350E+02	  0.087535068	1.123000E+00	  0.087535068	2.281000E+01
339	  0.087735467	-3.180000E-01	  0.087735467	1.306040E+02	  0.087735467	1.108000E+00	  0.087735467	2.298500E+01
340	  0.087935872	-3.130000E-01	  0.087935872	1.302740E+02	  0.087935872	1.096000E+00	  0.087935872	2.316000E+01
341	  0.088136271	-3.130000E-01	  0.088136271	1.299700E+02	  0.088136271	1.100000E+00	  0.088136271	2.332100E+01
342	  0.088336669	-3.140000E-01	  0.088336669	1.296480E+02	  0.088336669	1.104000E+00	  0.088336669	2.349200E+01
343	  0.088537075	-3.200000E-01	  0.088537075	1.293380E+02	  0.088537075	1.128000E+00	  0.088537075	2.365800E+01
344	  0.088737473	-3.180000E-01	  0.088737473	1.289990E+02	  0.088737473	1.124000E+00	  0.088737473	2.383900E+01
345	  0.088937871	-3.230000E-01	  0.088937871	1.286600E+02	  0.088937871	1.145000E+00	  0.088937871	2.402000E+01
346	  0.089138277	-3.250000E-01	  0.089138277	1.282860E+02	  0.089138277	1.156000E+00	  0.089138277	2.422100E+01
347	  0.089338675	-3.230000E-01	  0.089338675	1.279410E+02	  0.089338675	1.151000E+00	  0.089338675	2.440700E+01
348	  0.089539073	-3.230000E-01	  0.089539073	1.275910E+02	  0.089539073	1.158000E+00	  0.089539073	2.459700E+01
349	  0.089739479	-3.240000E-01	  0.089739479	1.272320E+02	  0.089739479	1.164000E+00	  0.089739479	2.479100E+01
350	  0.089939877	-3.280000E-01	  0.089939877	1.268650E+02	  0.089939877	1.182000E+00	  0.089939877	2.499100E+01
351	  0.090140276	-3.270000E-01	  0.090140276	1.265130E+02	  0.090140276	1.181000E+00	  0.090140276	2.518300E+01
352	  0.090340681	-3.250000E-01	  0.090340681	1.261450E+02	  0.090340681	1.179000E+00	  0.090340681	2.538500E+01
353	  0.090541080	-3.270000E-01	  0.090541080	1.257820E+02	  0.090541080	1.190000E+00	  0.090541080	2.558400E+01
354	  0.090741485	-3.280000E-01	  0.090741485	1.254280E+02	  0.090741485	1.195000E+00	  0.090741485	2.577900E+01
355	  0.090941884	-3.320000E-01	  0.090941884	1.250910E+02	  0.090941884	1.216000E+00	  0.090941884	2.596500E+01
356	  0.091142282	-3.340000E-01	  0.091142282	1.247230E+02	  0.091142282	1.227000E+00	  0.091142282	2.616900E+01
357	  0.091342688	-3.380000E-01	  0.091342688	1.243680E+02	  0.091342688	1.246000E+00	  0.091342688	2.636600E+01
358	  0.091543086	-3.410000E-01	  0.091543086	1.240000E+02	  0.091543086	1.261000E+00	  0.091543086	2.657200E+01
359	  0.091743484	-3.390000E-01	  0.091743484	1.236340E+02	  0.091743484	1.258000E+00	  0.091743484	2.677700E+01
360	  0.091943890	-3.370000E-01	  0.091943890	1.232790E+02	  0.091943890	1.254000E+00	  0.091943890	2.697700E+01
361	  0.092144288	-3.370000E-01	  0.092144288	1.229170E+02	  0.092144288	1.258000E+00	  0.092144288	2.718000E+01
362	  0.092344686	-3.360000E-01	  0.092344686	1.225670E+02	  0.092344686	1.259000E+00	  0.092344686	2.737900E+01
363	  0.092545092	-3.340000E-01	  0.092545092	1.222100E+02	  0.092545092	1.257000E+00	  0.092545092	2.758100E+01
364	  0.092745490	-3.350000E-01	  0.092745490	1.218790E+02	  0.092745490	1.264000E+00	  0.092745490	2.777000E+01
365	  0.092945889	-3.320000E-01	  0.092945889	1.215170E+02	  0.092945889	1.255000E+00	  0.092945889	2.797700E+01
366	  0.093146294	-3.270000E-01	  0.093146294	1.212150E+02	  0.093146294	1.241000E+00	  0.093146294	2.815100E+01
367	  0.093346693	-3.250000E-01	  0.093346693	1.208850E+02	  0.093346693	1.238000E+00	  0.093346693	2.834100E+01
368	  0.093547091	-3.270000E-01	  0.093547091	1.205840E+02	  0.093547091	1.249000E+00	  0.093547091	2.851500E+01
369	  0.093747497	-3.290000E-01	  0.093747497	1.202450E+02	  0.093747497	1.261000E+00	  0.093747497	2.871100E+01
370	  0.093947895	-3.320000E-01	  0.093947895	1.199060E+02	  0.093947895	1.276000E+00	  0.093947895	2.890800E+01
371	  0.094148301	-3.320000E-01	  0.094148301	1.195520E+02	  0.094148301	1.279000E+00	  0.094148301	2.911400E+01
372	  0.094348699	-3.300000E-01	  0.094348699	1.192070E+02	  0.094348699	1.280000E+00	  0.094348699	2.931600E+01
373	  0.094549097	-3.340000E-01	  0.094549097	1.188720E+02	  0.094549097	1.297000E+00	  0.094549097	2.951200E+01
374	  0.094749503	-3.360000E-01	  0.094749503	1.185260E+02	  0.094749503	1.311000E+00	  0.094749503	2.971600E+01
375	  0.094949901	-3.370000E-01	  0.094949901	1.181800E+02	  0.094949901	1.317000E+00	  0.094949901	2.992000E+01
376	  0.095150299	-3.380000E-01	  0.095150299	1.178140E+02	  0.095150299	1.329000E+00	  0.095150299	3.013700E+01
377	  0.095350705	-3.380000E-01	  0.095350705	1.174650E+02	  0.095350705	1.331000E+00	  0.095350705	3.034500E+01
378	  0.095551103	-3.360000E-01	  0.095551103	1.171110E+02	  0.095551103	1.330000E+00	  0.095551103	3.055700E+01
379	  0.095751502	-3.340000E-01	  0.095751502	1.167740E+02	  0.095751502	1.325000E+00	  0.095751502	3.076000E+01
380	  0.095951907	-3.330000E-01	  0.095951907	1.164280E+02	  0.095951907	1.328000E+00	  0.095951907	3.096800E+01
381	  0.096152306	-3.340000E-01	  0.096152306	1.161070E+02	  0.096152306	1.337000E+00	  0.096152306	3.116200E+01
382	  0.096352704	-3.390000E-01	  0.096352704	1.157610E+02	  0.096352704	1.363000E+00	  0.096352704	3.137100E+01
383	  0.096553110	-3.410000E-01	  0.096553110	1.154590E+02	  0.096553110	1.375000E+00	  0.096553110	3.155500E+01
384	  0.096753508	-3.410000E-01	  0.096753508	1.151150E+02	  0.096753508	1.379000E+00	  0.096753508	3.176500E+01
385	  0.096953906	-3.400000E-01	  0.096953906	1.147570E+02	  0.096953906	1.382000E+00	  0.096953906	3.198500E+01
386	  0.097154312	-3.390000E-01	  0.097154312	1.144290E+02	  0.097154312	1.383000E+00	  0.097154312	3.218700E+01
387	  0.097354710	-3.400000E-01	  0.097354710	1.141060E+02	  0.097354710	1.390000E+00	  0.097354710	3.238600E+01
388	  0.097555116	-3.410000E-01	  0.097555116	1.137580E+02	  0.097555116	1.401000E+00	  0.097555116	3.260200E+01
389	  0.097755514	-3.400000E-01	  0.097755514	1.134380E+02	  0.097755514	1.403000E+00	  0.097755514	3.280100E+01
390	  0.097955912	-3.340000E-01	  0.097955912	1.131120E+02	  0.097955912	1.381000E+00	  0.097955912	3.300600E+01
391	  0.098156318	-3.330000E-01	  0.098156318	1.127970E+02	  0.098156318	1.384000E+00	  0.098156318	3.320300E+01
392	  0.098356716	-3.290000E-01	  0.098356716	1.124750E+02	  0.098356716	1.371000E+00	  0.098356716	3.340600E+01
393	  0.098557115	-3.310000E-01	  0.098557115	1.121650E+02	  0.098557115	1.385000E+00	  0.098557115	3.360200E+01
394	  0.098757520	-3.340000E-01	  0.098757520	1.118540E+02	  0.098757520	1.401000E+00	  0.098757520	3.379900E+01
395	  0.098957919	-3.330000E-01	  0.098957919	1.115420E+02	  0.098957919	1.402000E+00	  0.098957919	3.399800E+01
396	  0.099158317	-3.350000E-01	  0.099158317	1.112090E+02	  0.099158317	1.416000E+00	  0.099158317	3.421000E+01
397	  0.099358723	-3.360000E-01	  0.099358723	1.108800E+02	  0.099358723	1.429000E+00	  0.099358723	3.442100E+01
398	  0.099559121	-3.360000E-01	  0.099559121	1.105300E+02	  0.099559121	1.432000E+00	  0.099559121	3.464700E+01
399	  0.099759519	-3.370000E-01	  0.099759519	1.102080E+02	  0.099759519	1.443000E+00	  0.099759519	3.485500E+01
400	  0.099959925	-3.440000E-01	  0.099959925	1.098600E+02	  0.099959925	1.479000E+00	  0.099959925	3.508000E+01
401	  0.100160323	-3.430000E-01	  0.100160323	1.094780E+02	  0.100160323	1.480000E+00	  0.100160323	3.532900E+01
402	  0.100360721	-3.490000E-01	  0.100360721	1.091310E+02	  0.100360721	1.515000E+00	  0.100360721	3.555600E+01
403	  0.100561127	-3.450000E-01	  0.100561127	1.087850E+02	  0.100561127	1.502000E+00	  0.100561127	3.578400E+01
404	  0.100761525	-3.460000E-01	  0.100761525	1.084690E+02	  0.100761525	1.516000E+00	  0.100761525	3.599300E+01
405	  0.100961931	-3.430000E-01	  0.100961931	1.080720E+02	  0.100961931	1.506000E+00	  0.100961931	3.625700E+01
406	  0.101162329	-3.460000E-01	  0.101162329	1.077350E+02	  0.101162329	1.528000E+00	  0.101162329	3.648100E+01
407	  0.101362728	-3.420000E-01	  0.101362728	1.073710E+02	  0.101362728	1.519000E+00	  0.101362728	3.672500E+01
408	  0.101563133	-3.440000E-01	  0.101563133	1.070450E+02	  0.101563133	1.531000E+00	  0.101563133	3.694400E+01
409	  0.101763532	-3.500000E-01	  0.101763532	1.066880E+02	  0.101763532	1.569000E+00	  0.101763532	3.718500E+01
410	  0.101963930	-3.500000E-01	  0.101963930	1.063740E+02	  0.101963930	1.575000E+00	  0.101963930	3.739800E+01
411	  0.102164336	-3.480000E-01	  0.102164336	1.060440E+02	  0.102164336	1.569000E+00	  0.102164336	3.762300E+01
412	  0.102364734	-3.420000E-01	  0.102364734	1.057060E+02	  0.102364734	1.551000E+00	  0.102364734	3.785500E+01
413	  0.102565132	-3.440000E-01	  0.102565132	1.053890E+02	  0.102565132	1.567000E+00	  0.102565132	3.807300E+01
414	  0.102765530	-3.450000E-01	  0.102765530	1.050340E+02	  0.102765530	1.579000E+00	  0.102765530	3.831800E+01
415	  0.102965929	-3.450000E-01	  0.102965929	1.047640E+02	  0.102965929	1.586000E+00	  0.102965929	3.850500E+01
416	  0.103166327	-3.470000E-01	  0.103166327	1.044300E+02	  0.103166327	1.599000E+00	  0.103166327	3.873700E+01
417	  0.103366733	-3.380000E-01	  0.103366733	1.041200E+02	  0.103366733	1.568000E+00	  0.103366733	3.895500E+01
418	  0.103567131	-3.360000E-01	  0.103567131	1.037870E+02	  0.103567131	1.562000E+00	  0.103567131	3.919000E+01
419	  0.103767529	-3.380000E-01	  0.103767529	1.034540E+02	  0.103767529	1.581000E+00	  0.103767529	3.942400E+01
420	  0.103967935	-3.420000E-01	  0.103967935	1.032460E+02	  0.103967935	1.602000E+00	  0.103967935	3.957100E+01
421	  0.104168333	-3.410000E-01	  0.104168333	1.029270E+02	  0.104168333	1.604000E+00	  0.104168333	3.979800E+01
422	  0.104368731	-3.440000E-01	  0.104368731	1.025960E+02	  0.104368731	1.628000E+00	  0.104368731	4.003300E+01
423	  0.104569137	-3.390000E-01	  0.104569137	1.023300E+02	  0.104569137	1.610000E+00	  0.104569137	4.022500E+01
424	  0.104769535	-3.400000E-01	  0.104769535	1.020020E+02	  0.104769535	1.623000E+00	  0.104769535	4.046100E+01
425	  0.104969934	-3.440000E-01	  0.104969934	1.016760E+02	  0.104969934	1.647000E+00	  0.104969934	4.069700E+01
426	  0.105170339	-3.490000E-01	  0.105170339	1.013540E+02	  0.105170339	1.679000E+00	  0.105170339	4.093000E+01
427	  0.105370738	-3.500000E-01	  0.105370738	1.009950E+02	  0.105370738	1.691000E+00	  0.105370738	4.119100E+01
428	  0.105571143	-3.570000E-01	  0.105571143	1.007180E+02	  0.105571143	1.732000E+00	  0.105571143	4.139400E+01
429	  0.105771542	-3.530000E-01	  0.105771542	1.003830E+02	  0.105771542	1.722000E+00	  0.105771542	4.164100E+01
430	  0.105971940	-3.550000E-01	  0.105971940	1.000210E+02	  0.105971940	1.741000E+00	  0.105971940	4.190800E+01
431	  0.106172346	-3.510000E-01	  0.106172346	9.966700E+01	  0.106172346	1.731000E+00	  0.106172346	4.217300E+01
432	  0.106372744	-3.490000E-01	  0.106372744	9.931500E+01	  0.106372744	1.733000E+00	  0.106372744	4.243600E+01
433	  0.106573142	-3.480000E-01	  0.106573142	9.896700E+01	  0.106573142	1.736000E+00	  0.106573142	4.269800E+01
434	  0.106773548	-3.520000E-01	  0.106773548	9.863600E+01	  0.106773548	1.763000E+00	  0.106773548	4.294800E+01
435	  0.106973946	-3.520000E-01	  0.106973946	9.828100E+01	  0.106973946	1.774000E+00	  0.106973946	4.321700E+01
436	  0.107174344	-3.470000E-01	  0.107174344	9.797000E+01	  0.107174344	1.757000E+00	  0.107174344	4.345600E+01
437	  0.107374750	-3.510000E-01	  0.107374750	9.764000E+01	  0.107374750	1.782000E+00	  0.107374750	4.370900E+01
438	  0.107575148	-3.460000E-01	  0.107575148	9.732900E+01	  0.107575148	1.766000E+00	  0.107575148	4.394900E+01
439	  0.107775547	-3.470000E-01	  0.107775547	9.704900E+01	  0.107775547	1.781000E+00	  0.107775547	4.416500E+01
440	  0.107975952	-3.470000E-01	  0.107975952	9.670500E+01	  0.107975952	1.791000E+00	  0.107975952	4.443400E+01
441	  0.108176351	-3.410000E-01	  0.108176351	9.637900E+01	  0.108176351	1.768000E+00	  0.108176351	4.469000E+01
442	  0.108376749	-3.400000E-01	  0.108376749	9.607200E+01	  0.108376749	1.770000E+00	  0.108376749	4.493100E+01
443	  0.108577155	-3.400000E-01	  0.108577155	9.581600E+01	  0.108577155	1.777000E+00	  0.108577155	4.513400E+01
444	  0.108777553	-3.400000E-01	  0.108777553	9.548000E+01	  0.108777553	1.790000E+00	  0.108777553	4.540000E+01
445	  0.108977959	-3.390000E-01	  0.108977959	9.520900E+01	  0.108977959	1.791000E+00	  0.108977959	4.561600E+01
446	  0.109178357	-3.320000E-01	  0.109178357	9.495400E+01	  0.109178357	1.758000E+00	  0.109178357	4.582100E+01
447	  0.109378755	-3.370000E-01	  0.109378755	9.465000E+01	  0.109378755	1.797000E+00	  0.109378755	4.606600E+01
448	  0.109579161	-3.360000E-01	  0.109579161	9.436200E+01	  0.109579161	1.800000E+00	  0.109579161	4.629800E+01
449	  0.109779559	-3.360000E-01	  0.109779559	9.405800E+01	  0.109779559	1.807000E+00	  0.109779559	4.654500E+01
450	  0.109979957	-3.310000E-01	  0.109979957	9.381600E+01	  0.109979957	1.789000E+00	  0.109979957	4.674300E+01
451	  0.110180363	-3.400000E-01	  0.110180363	9.352000E+01	  0.110180363	1.845000E+00	  0.110180363	4.698400E+01
452	  0.110380761	-3.390000E-01	  0.110380761	9.322700E+01	  0.110380761	1.850000E+00	  0.110380761	4.722500E+01
453	  0.110581160	-3.430000E-01	  0.110581160	9.290300E+01	  0.110581160	1.879000E+00	  0.110581160	4.749200E+01
454	  0.110781565	-3.480000E-01	  0.110781565	9.258600E+01	  0.110781565	1.916000E+00	  0.110781565	4.775500E+01
455	  0.110981964	-3.500000E-01	  0.110981964	9.225300E+01	  0.110981964	1.940000E+00	  0.110981964	4.803300E+01
456	  0.111182362	-3.470000E-01	  0.111182362	9.190600E+01	  0.111182362	1.935000E+00	  0.111182362	4.832600E+01
457	  0.111382768	-3.460000E-01	  0.111382768	9.159200E+01	  0.111382768	1.938000E+00	  0.111382768	4.859100E+01
458	  0.111583166	-3.500000E-01	  0.111583166	9.123100E+01	  0.111583166	1.972000E+00	  0.111583166	4.889700E+01
459	  0.111783572	-3.510000E-01	  0.111783572	9.092900E+01	  0.111783572	1.987000E+00	  0.111783572	4.915600E+01
460	  0.111983970	-3.490000E-01	  0.111983970	9.057600E+01	  0.111983970	1.991000E+00	  0.111983970	4.945900E+01
461	  0.112184368	-3.500000E-01	  0.112184368	9.021700E+01	  0.112184368	2.007000E+00	  0.112184368	4.977000E+01
462	  0.112384774	-3.530000E-01	  0.112384774	8.991000E+01	  0.112384774	2.036000E+00	  0.112384774	5.003600E+01
463	  0.112585172	-3.480000E-01	  0.112585172	8.953900E+01	  0.112585172	2.021000E+00	  0.112585172	5.036200E+01
464	  0.112785570	-3.490000E-01	  0.112785570	8.921400E+01	  0.112785570	2.038000E+00	  0.112785570	5.064800E+01
465	  0.112985976	-3.500000E-01	  0.112985976	8.888600E+01	  0.112985976	2.055000E+00	  0.112985976	5.093800E+01
466	  0.113186374	-3.410000E-01	  0.113186374	8.855200E+01	  0.113186374	2.016000E+00	  0.113186374	5.123800E+01
467	  0.113386773	-3.400000E-01	  0.113386773	8.828200E+01	  0.113386773	2.021000E+00	  0.113386773	5.148000E+01
468	  0.113587178	-3.410000E-01	  0.113587178	8.795400E+01	  0.113587178	2.038000E+00	  0.113587178	5.177500E+01
469	  0.113787577	-3.350000E-01	  0.113787577	8.767100E+01	  0.113787577	2.013000E+00	  0.113787577	5.203400E+01
470	  0.113987975	-3.340000E-01	  0.113987975	8.734200E+01	  0.113987975	2.019000E+00	  0.113987975	5.233400E+01
471	  0.114188381	-3.290000E-01	  0.114188381	8.711800E+01	  0.114188381	1.994000E+00	  0.114188381	5.254000E+01
472	  0.114388779	-3.340000E-01	  0.114388779	8.677500E+01	  0.114388779	2.036000E+00	  0.114388779	5.285400E+01
473	  0.114589177	-3.330000E-01	  0.114589177	8.650000E+01	  0.114589177	2.043000E+00	  0.114589177	5.310900E+01
474	  0.114789583	-3.350000E-01	  0.114789583	8.623700E+01	  0.114789583	2.065000E+00	  0.114789583	5.335300E+01
475	  0.114989981	-3.310000E-01	  0.114989981	8.593600E+01	  0.114989981	2.055000E+00	  0.114989981	5.363600E+01
476	  0.115190387	-3.280000E-01	  0.115190387	8.569100E+01	  0.115190387	2.043000E+00	  0.115190387	5.386700E+01
477	  0.115390785	-3.290000E-01	  0.115390785	8.541600E+01	  0.115390785	2.062000E+00	  0.115390785	5.412600E+01
478	  0.115591183	-3.320000E-01	  0.115591183	8.511000E+01	  0.115591183	2.089000E+00	  0.115591183	5.441600E+01
479	  0.115791589	-3.340000E-01	  0.115791589	8.481800E+01	  0.115791589	2.114000E+00	  0.115791589	5.469400E+01
480	  0.115991987	-3.340000E-01	  0.115991987	8.452300E+01	  0.115991987	2.130000E+00	  0.115991987	5.497700E+01
481	  0.116192386	-3.350000E-01	  0.116192386	8.424000E+01	  0.116192386	2.143000E+00	  0.116192386	5.525100E+01
482	  0.116392791	-3.420000E-01	  0.116392791	8.392000E+01	  0.116392791	2.204000E+00	  0.116392791	5.555900E+01
483	  0.116593190	-3.410000E-01	  0.116593190	8.360600E+01	  0.116593190	2.210000E+00	  0.116593190	5.586700E+01
484	  0.116793588	-3.400000E-01	  0.116793588	8.327800E+01	  0.116793588	2.216000E+00	  0.116793588	5.618900E+01
485	  0.116993994	-3.420000E-01	  0.116993994	8.296500E+01	  0.116993994	2.246000E+00	  0.116993994	5.649800E+01
486	  0.117194392	-3.440000E-01	  0.117194392	8.264900E+01	  0.117194392	2.273000E+00	  0.117194392	5.681300E+01
487	  0.117394790	-3.480000E-01	  0.117394790	8.233700E+01	  0.117394790	2.311000E+00	  0.117394790	5.712400E+01
488	  0.117595196	-3.460000E-01	  0.117595196	8.198900E+01	  0.117595196	2.312000E+00	  0.117595196	5.747500E+01
489	  0.117795594	-3.430000E-01	  0.117795594	8.167800E+01	  0.117795594	2.312000E+00	  0.117795594	5.779200E+01
490	  0.117995992	-3.410000E-01	  0.117995992	8.132700E+01	  0.117995992	2.315000E+00	  0.117995992	5.815100E+01
491	  0.118196398	-3.410000E-01	  0.118196398	8.101600E+01	  0.118196398	2.325000E+00	  0.118196398	5.847100E+01
492	  0.118396796	-3.440000E-01	  0.118396796	8.070100E+01	  0.118396796	2.366000E+00	  0.118396796	5.879700E+01
493	  0.118597202	-3.430000E-01	  0.118597202	8.039600E+01	  0.118597202	2.370000E+00	  0.118597202	5.911500E+01
494	  0.118797600	-3.360000E-01	  0.118797600	8.008200E+01	  0.118797600	2.337000E+00	  0.118797600	5.944700E+01
495	  0.118997999	-3.390000E-01	  0.118997999	7.978100E+01	  0.118997999	2.370000E+00	  0.118997999	5.976300E+01
496	  0.119198404	-3.370000E-01	  0.119198404	7.947100E+01	  0.119198404	2.373000E+00	  0.119198404	6.009300E+01
497	  0.119398803	-3.340000E-01	  0.119398803	7.915300E+01	  0.119398803	2.370000E+00	  0.119398803	6.043400E+01
498	  0.119599201	-3.380000E-01	  0.119599201	7.886400E+01	  0.119599201	2.409000E+00	  0.119599201	6.074400E+01
499	  0.119799607	-3.320000E-01	  0.119799607	7.859900E+01	  0.119799607	2.387000E+00	  0.119799607	6.103200E+01
500	  0.120000005	-3.340000E-01	  0.120000005	7.829900E+01	  0.120000005	2.416000E+00	  0.120000005	6.135800E+01
