! Anritsu VNA Master:             	Model: MS2036C/10/77
! SN:             	1601066
! /card0/usr/18may27.balun/5a..66.txt
! Existing Calibration Information:
! TYPE:             	Current Settings	Active Cal Settings
! TIME:             	05/27/2018 04:51:53 PM	05/27/2018 04:42:15 PM
! INTERNAL TEMP:    	53.0 C	52.0 C
! # POINTS:         	500	500
! START FREQ:       	20.000 MHz	20.000 MHz
! STOP FREQ:        	120.000 MHz	120.000 MHz
! SOURCE POWER:     	High	High
! IFBW:             	50 Hz	50 Hz
! AVG FACTOR:       	  1 	  1 
! REF PLANE 1:      	0 mm	0 mm
! REF PLANE 2:      	0 mm	0 mm
! CAL TYPE:         	Full S11	Full S11
! CAL METHOD:       	SOLT	SOLT
! CAL LINE TYPE:    	Coax	Coax
! DUT PORT 1:       	K-Conn(M)	K-Conn(M)
! DUT PORT 2:       	K-Conn(M)	K-Conn(M)
! CAL STATUS:       	OK: Accuracy High	--
! PROP-V:       	0.700
! CABLE LOSS:       	0.000 dB/m
! REF IMPEDANCE:       	50.0
! Trace Specific Parameters:	TR1	TR2	TR3	TR4
! TRACE.#.Y (GRAPH TYPE)	LOG MAG	PHASE	REAL IMPEDANCE	IMAGINARY IMPEDANCE
! TRACE.#.X 	FREQ.GHZ	FREQ.GHZ	FREQ.GHZ	FREQ.GHZ
! S-PARAMETER	S11	S11	S11	S11
! SMOOTH/APERTURE %	0	0	0	0
! WINDOW	NSL	NSL	NSL	NSL
! GATING	OFF	OFF	OFF	OFF
! FGTD	OFF	OFF	OFF	OFF
Marker Information per Trace:	TR1	TR2	TR3	TR4
!MK1	--	--	--	"MK1 TR4:  70.100 200 MHz,Z:(0.830 ohm, 6.678 ohm)"
!MK2	--	--	--	--
!MK3	--	--	--	--
!MK4	--	--	--	--
!MK5	--	--	--	--
!MK6	--	--	--	--
!MK7	--	--	--	--
!MK8	--	--	--	--
PNT	TR1.FREQ.GHZ	TR1.LOG MAG.dB	TR2.FREQ.GHZ	TR2.PHASE.deg	TR3.FREQ.GHZ	TR3.REAL IMPEDANCE.ohm	TR4.FREQ.GHZ	TR4.IMAGINARY IMPEDANCE.ohm
1	  0.020000000	-3.000000E-02	  0.020000000	-6.778500E+01	  0.020000000	2.860000E-01	  0.020000000	-7.442800E+01
2	  0.020200402	-2.500000E-02	  0.020200402	-6.839100E+01	  0.020200402	2.360000E-01	  0.020200402	-7.358300E+01
3	  0.020400802	-2.200000E-02	  0.020400802	-6.901400E+01	  0.020400802	2.050000E-01	  0.020400802	-7.272900E+01
4	  0.020601204	-1.800000E-02	  0.020601204	-6.960600E+01	  0.020601204	1.670000E-01	  0.020601204	-7.193100E+01
5	  0.020801604	-1.700000E-02	  0.020801604	-7.024400E+01	  0.020801604	1.490000E-01	  0.020801604	-7.108300E+01
6	  0.021002004	-1.700000E-02	  0.021002004	-7.088000E+01	  0.021002004	1.530000E-01	  0.021002004	-7.025200E+01
7	  0.021202406	-1.900000E-02	  0.021202406	-7.149700E+01	  0.021202406	1.640000E-01	  0.021202406	-6.945700E+01
8	  0.021402806	-2.300000E-02	  0.021402806	-7.213300E+01	  0.021402806	1.920000E-01	  0.021402806	-6.865000E+01
9	  0.021603208	-2.500000E-02	  0.021603208	-7.277500E+01	  0.021603208	2.100000E-01	  0.021603208	-6.784700E+01
10	  0.021803608	-3.100000E-02	  0.021803608	-7.340800E+01	  0.021803608	2.540000E-01	  0.021803608	-6.706800E+01
11	  0.022004008	-3.200000E-02	  0.022004008	-7.402000E+01	  0.022004008	2.570000E-01	  0.022004008	-6.632700E+01
12	  0.022204408	-3.800000E-02	  0.022204408	-7.469000E+01	  0.022204408	3.010000E-01	  0.022204408	-6.552600E+01
13	  0.022404809	-3.800000E-02	  0.022404809	-7.535500E+01	  0.022404809	2.920000E-01	  0.022404809	-6.474300E+01
14	  0.022605211	-3.800000E-02	  0.022605211	-7.605500E+01	  0.022605211	2.940000E-01	  0.022605211	-6.393200E+01
15	  0.022805611	-3.600000E-02	  0.022805611	-7.672000E+01	  0.022805611	2.740000E-01	  0.022805611	-6.317400E+01
16	  0.023006011	-2.900000E-02	  0.023006011	-7.737900E+01	  0.023006011	2.180000E-01	  0.023006011	-6.243200E+01
17	  0.023206413	-2.100000E-02	  0.023206413	-7.804200E+01	  0.023206413	1.580000E-01	  0.023206413	-6.169700E+01
18	  0.023406813	-1.900000E-02	  0.023406813	-7.871600E+01	  0.023406813	1.400000E-01	  0.023406813	-6.096100E+01
19	  0.023607215	-1.600000E-02	  0.023607215	-7.935000E+01	  0.023607215	1.150000E-01	  0.023607215	-6.027800E+01
20	  0.023807615	-1.600000E-02	  0.023807615	-7.994500E+01	  0.023807615	1.170000E-01	  0.023807615	-5.964400E+01
21	  0.024008015	-2.500000E-02	  0.024008015	-8.053600E+01	  0.024008015	1.770000E-01	  0.024008015	-5.902300E+01
22	  0.024208417	-3.000000E-02	  0.024208417	-8.109700E+01	  0.024208417	2.040000E-01	  0.024208417	-5.844100E+01
23	  0.024408817	-3.600000E-02	  0.024408817	-8.167600E+01	  0.024408817	2.430000E-01	  0.024408817	-5.784600E+01
24	  0.024609219	-4.100000E-02	  0.024609219	-8.225100E+01	  0.024609219	2.790000E-01	  0.024609219	-5.726300E+01
25	  0.024809619	-4.400000E-02	  0.024809619	-8.285800E+01	  0.024809619	2.950000E-01	  0.024809619	-5.665500E+01
26	  0.025010020	-5.100000E-02	  0.025010020	-8.347600E+01	  0.025010020	3.320000E-01	  0.025010020	-5.604200E+01
27	  0.025210422	-5.200000E-02	  0.025210422	-8.410600E+01	  0.025210422	3.350000E-01	  0.025210422	-5.542600E+01
28	  0.025410822	-5.300000E-02	  0.025410822	-8.474800E+01	  0.025410822	3.350000E-01	  0.025410822	-5.480500E+01
29	  0.025611224	-5.100000E-02	  0.025611224	-8.540000E+01	  0.025611224	3.230000E-01	  0.025611224	-5.418200E+01
30	  0.025811624	-4.800000E-02	  0.025811624	-8.601800E+01	  0.025811624	2.970000E-01	  0.025811624	-5.360000E+01
31	  0.026012026	-4.400000E-02	  0.026012026	-8.662300E+01	  0.026012026	2.720000E-01	  0.026012026	-5.303600E+01
32	  0.026212426	-3.800000E-02	  0.026212426	-8.720700E+01	  0.026212426	2.350000E-01	  0.026212426	-5.249700E+01
33	  0.026412826	-4.100000E-02	  0.026412826	-8.780500E+01	  0.026412826	2.490000E-01	  0.026412826	-5.195100E+01
34	  0.026613226	-4.500000E-02	  0.026613226	-8.839000E+01	  0.026613226	2.680000E-01	  0.026613226	-5.142300E+01
35	  0.026813626	-4.900000E-02	  0.026813626	-8.897100E+01	  0.026813626	2.870000E-01	  0.026813626	-5.090400E+01
36	  0.027014028	-5.400000E-02	  0.027014028	-8.953000E+01	  0.027014028	3.140000E-01	  0.027014028	-5.041000E+01
37	  0.027214428	-6.300000E-02	  0.027214428	-9.010900E+01	  0.027214428	3.650000E-01	  0.027214428	-4.990300E+01
38	  0.027414829	-7.400000E-02	  0.027414829	-9.075400E+01	  0.027414829	4.200000E-01	  0.027414829	-4.934400E+01
39	  0.027615231	-7.900000E-02	  0.027615231	-9.142400E+01	  0.027615231	4.430000E-01	  0.027615231	-4.877000E+01
40	  0.027815631	-8.000000E-02	  0.027815631	-9.211400E+01	  0.027815631	4.440000E-01	  0.027815631	-4.818500E+01
41	  0.028016033	-7.500000E-02	  0.028016033	-9.281500E+01	  0.028016033	4.130000E-01	  0.028016033	-4.759900E+01
42	  0.028216433	-6.500000E-02	  0.028216433	-9.350300E+01	  0.028216433	3.540000E-01	  0.028216433	-4.703100E+01
43	  0.028416833	-5.500000E-02	  0.028416833	-9.418800E+01	  0.028416833	2.980000E-01	  0.028416833	-4.647100E+01
44	  0.028617235	-4.800000E-02	  0.028617235	-9.483600E+01	  0.028617235	2.550000E-01	  0.028617235	-4.594700E+01
45	  0.028817635	-3.900000E-02	  0.028817635	-9.542200E+01	  0.028817635	2.060000E-01	  0.028817635	-4.547700E+01
46	  0.029018037	-3.200000E-02	  0.029018037	-9.598100E+01	  0.029018037	1.660000E-01	  0.029018037	-4.503400E+01
47	  0.029218437	-2.700000E-02	  0.029218437	-9.649200E+01	  0.029218437	1.440000E-01	  0.029218437	-4.463200E+01
48	  0.029418837	-2.100000E-02	  0.029418837	-9.699700E+01	  0.029418837	1.090000E-01	  0.029418837	-4.423700E+01
49	  0.029619239	-2.200000E-02	  0.029619239	-9.748700E+01	  0.029619239	1.130000E-01	  0.029619239	-4.385800E+01
50	  0.029819639	-2.500000E-02	  0.029819639	-9.799000E+01	  0.029819639	1.280000E-01	  0.029819639	-4.347100E+01
51	  0.030020041	-3.200000E-02	  0.030020041	-9.849700E+01	  0.030020041	1.620000E-01	  0.030020041	-4.308400E+01
52	  0.030220442	-4.300000E-02	  0.030220442	-9.905700E+01	  0.030220442	2.150000E-01	  0.030220442	-4.265900E+01
53	  0.030420844	-5.600000E-02	  0.030420844	-9.963500E+01	  0.030420844	2.790000E-01	  0.030420844	-4.222500E+01
54	  0.030621244	-6.500000E-02	  0.030621244	-1.002440E+02	  0.030621244	3.210000E-01	  0.030621244	-4.177200E+01
55	  0.030821644	-6.700000E-02	  0.030821644	-1.008790E+02	  0.030821644	3.260000E-01	  0.030821644	-4.130400E+01
56	  0.031022044	-6.500000E-02	  0.031022044	-1.014780E+02	  0.031022044	3.160000E-01	  0.031022044	-4.086600E+01
57	  0.031222444	-6.300000E-02	  0.031222444	-1.020870E+02	  0.031222444	3.010000E-01	  0.031222444	-4.042400E+01
58	  0.031422846	-6.300000E-02	  0.031422846	-1.026620E+02	  0.031422846	2.990000E-01	  0.031422846	-4.001100E+01
59	  0.031623244	-6.400000E-02	  0.031623244	-1.032280E+02	  0.031623244	3.010000E-01	  0.031623244	-3.960800E+01
60	  0.031823646	-6.200000E-02	  0.031823646	-1.037600E+02	  0.031823646	2.920000E-01	  0.031823646	-3.923100E+01
61	  0.032024048	-6.600000E-02	  0.032024048	-1.042630E+02	  0.032024048	3.070000E-01	  0.032024048	-3.887800E+01
62	  0.032224450	-7.200000E-02	  0.032224450	-1.047950E+02	  0.032224450	3.340000E-01	  0.032224450	-3.850700E+01
63	  0.032424849	-8.200000E-02	  0.032424849	-1.053300E+02	  0.032424849	3.760000E-01	  0.032424849	-3.813600E+01
64	  0.032625251	-9.400000E-02	  0.032625251	-1.059020E+02	  0.032625251	4.270000E-01	  0.032625251	-3.774200E+01
65	  0.032825653	-1.050000E-01	  0.032825653	-1.065210E+02	  0.032825653	4.700000E-01	  0.032825653	-3.732000E+01
66	  0.033026051	-1.100000E-01	  0.033026051	-1.071380E+02	  0.033026051	4.910000E-01	  0.033026051	-3.690200E+01
67	  0.033226453	-1.120000E-01	  0.033226453	-1.077990E+02	  0.033226453	4.930000E-01	  0.033226453	-3.645800E+01
68	  0.033426855	-1.120000E-01	  0.033426855	-1.084380E+02	  0.033426855	4.930000E-01	  0.033426855	-3.603300E+01
69	  0.033627257	-1.140000E-01	  0.033627257	-1.090920E+02	  0.033627257	4.940000E-01	  0.033627257	-3.560100E+01
70	  0.033827655	-1.110000E-01	  0.033827655	-1.097690E+02	  0.033827655	4.800000E-01	  0.033827655	-3.515800E+01
71	  0.034028057	-1.070000E-01	  0.034028057	-1.103950E+02	  0.034028057	4.590000E-01	  0.034028057	-3.475100E+01
72	  0.034228459	-1.000000E-01	  0.034228459	-1.110080E+02	  0.034228459	4.250000E-01	  0.034228459	-3.435600E+01
73	  0.034428857	-8.700000E-02	  0.034428857	-1.115920E+02	  0.034428857	3.660000E-01	  0.034428857	-3.398300E+01
74	  0.034629259	-7.900000E-02	  0.034629259	-1.121340E+02	  0.034629259	3.330000E-01	  0.034629259	-3.363900E+01
75	  0.034829661	-7.000000E-02	  0.034829661	-1.126450E+02	  0.034829661	2.920000E-01	  0.034829661	-3.331600E+01
76	  0.035030060	-6.600000E-02	  0.035030060	-1.131530E+02	  0.035030060	2.730000E-01	  0.035030060	-3.299700E+01
77	  0.035230462	-6.100000E-02	  0.035230462	-1.136440E+02	  0.035230462	2.530000E-01	  0.035230462	-3.269000E+01
78	  0.035430863	-6.400000E-02	  0.035430863	-1.141470E+02	  0.035430863	2.610000E-01	  0.035430863	-3.237800E+01
79	  0.035631265	-6.700000E-02	  0.035631265	-1.146510E+02	  0.035631265	2.750000E-01	  0.035631265	-3.206700E+01
80	  0.035831664	-7.900000E-02	  0.035831664	-1.151640E+02	  0.035831664	3.190000E-01	  0.035831664	-3.175100E+01
81	  0.036032066	-8.600000E-02	  0.036032066	-1.157310E+02	  0.036032066	3.490000E-01	  0.036032066	-3.140500E+01
82	  0.036232468	-9.500000E-02	  0.036232468	-1.163240E+02	  0.036232468	3.820000E-01	  0.036232468	-3.104500E+01
83	  0.036432866	-1.010000E-01	  0.036432866	-1.169320E+02	  0.036432866	4.010000E-01	  0.036432866	-3.067800E+01
84	  0.036633268	-1.020000E-01	  0.036633268	-1.175350E+02	  0.036633268	4.050000E-01	  0.036633268	-3.031800E+01
85	  0.036833670	-1.020000E-01	  0.036833670	-1.181280E+02	  0.036833670	3.990000E-01	  0.036833670	-2.996500E+01
86	  0.037034072	-9.200000E-02	  0.037034072	-1.186550E+02	  0.037034072	3.590000E-01	  0.037034072	-2.965300E+01
87	  0.037234470	-8.300000E-02	  0.037234470	-1.191570E+02	  0.037234470	3.220000E-01	  0.037234470	-2.935800E+01
88	  0.037434869	-8.000000E-02	  0.037434869	-1.196010E+02	  0.037434869	3.110000E-01	  0.037434869	-2.909800E+01
89	  0.037635271	-8.100000E-02	  0.037635271	-1.200640E+02	  0.037635271	3.140000E-01	  0.037635271	-2.882900E+01
90	  0.037835669	-9.100000E-02	  0.037835669	-1.205460E+02	  0.037835669	3.500000E-01	  0.037835669	-2.854900E+01
91	  0.038036071	-9.900000E-02	  0.038036071	-1.210720E+02	  0.038036071	3.760000E-01	  0.038036071	-2.824500E+01
92	  0.038236473	-1.080000E-01	  0.038236473	-1.216090E+02	  0.038236473	4.090000E-01	  0.038236473	-2.793700E+01
93	  0.038436871	-1.140000E-01	  0.038436871	-1.221440E+02	  0.038436871	4.300000E-01	  0.038436871	-2.763100E+01
94	  0.038637273	-1.220000E-01	  0.038637273	-1.226850E+02	  0.038637273	4.580000E-01	  0.038637273	-2.732400E+01
95	  0.038837675	-1.300000E-01	  0.038837675	-1.232370E+02	  0.038837675	4.850000E-01	  0.038837675	-2.701100E+01
96	  0.039038073	-1.370000E-01	  0.039038073	-1.238170E+02	  0.039038073	5.100000E-01	  0.039038073	-2.668500E+01
97	  0.039238475	-1.420000E-01	  0.039238475	-1.244180E+02	  0.039238475	5.240000E-01	  0.039238475	-2.634900E+01
98	  0.039438877	-1.430000E-01	  0.039438877	-1.249780E+02	  0.039438877	5.250000E-01	  0.039438877	-2.603800E+01
99	  0.039639279	-1.400000E-01	  0.039639279	-1.255430E+02	  0.039639279	5.090000E-01	  0.039639279	-2.572500E+01
100	  0.039839678	-1.350000E-01	  0.039839678	-1.260830E+02	  0.039839678	4.910000E-01	  0.039839678	-2.542800E+01
101	  0.040040080	-1.250000E-01	  0.040040080	-1.266050E+02	  0.040040080	4.530000E-01	  0.040040080	-2.514200E+01
102	  0.040240481	-1.240000E-01	  0.040240481	-1.271190E+02	  0.040240481	4.480000E-01	  0.040240481	-2.486200E+01
103	  0.040440880	-1.210000E-01	  0.040440880	-1.276550E+02	  0.040440880	4.340000E-01	  0.040440880	-2.457100E+01
104	  0.040641282	-1.160000E-01	  0.040641282	-1.281760E+02	  0.040641282	4.120000E-01	  0.040641282	-2.429000E+01
105	  0.040841684	-1.140000E-01	  0.040841684	-1.286950E+02	  0.040841684	4.060000E-01	  0.040841684	-2.401100E+01
106	  0.041042086	-1.200000E-01	  0.041042086	-1.292100E+02	  0.041042086	4.230000E-01	  0.041042086	-2.373400E+01
107	  0.041242484	-1.240000E-01	  0.041242484	-1.297170E+02	  0.041242484	4.360000E-01	  0.041242484	-2.346400E+01
108	  0.041442886	-1.360000E-01	  0.041442886	-1.302470E+02	  0.041442886	4.760000E-01	  0.041442886	-2.318200E+01
109	  0.041643288	-1.430000E-01	  0.041643288	-1.308450E+02	  0.041643288	4.980000E-01	  0.041643288	-2.286500E+01
110	  0.041843686	-1.440000E-01	  0.041843686	-1.314560E+02	  0.041843686	5.010000E-01	  0.041843686	-2.254400E+01
111	  0.042044088	-1.420000E-01	  0.042044088	-1.320690E+02	  0.042044088	4.920000E-01	  0.042044088	-2.222300E+01
112	  0.042244490	-1.310000E-01	  0.042244490	-1.326420E+02	  0.042244490	4.510000E-01	  0.042244490	-2.192500E+01
113	  0.042444889	-1.160000E-01	  0.042444889	-1.331670E+02	  0.042444889	3.990000E-01	  0.042444889	-2.165200E+01
114	  0.042645290	-1.080000E-01	  0.042645290	-1.336660E+02	  0.042645290	3.700000E-01	  0.042645290	-2.139400E+01
115	  0.042845692	-1.070000E-01	  0.042845692	-1.341270E+02	  0.042845692	3.640000E-01	  0.042845692	-2.115700E+01
116	  0.043046094	-1.080000E-01	  0.043046094	-1.346170E+02	  0.043046094	3.650000E-01	  0.043046094	-2.090500E+01
117	  0.043246493	-1.120000E-01	  0.043246493	-1.351070E+02	  0.043246493	3.800000E-01	  0.043246493	-2.065400E+01
118	  0.043446895	-1.150000E-01	  0.043446895	-1.356010E+02	  0.043446895	3.890000E-01	  0.043446895	-2.040200E+01
119	  0.043647297	-1.200000E-01	  0.043647297	-1.360460E+02	  0.043647297	4.020000E-01	  0.043647297	-2.017600E+01
120	  0.043847695	-1.250000E-01	  0.043847695	-1.365360E+02	  0.043847695	4.180000E-01	  0.043847695	-1.992800E+01
121	  0.044048097	-1.340000E-01	  0.044048097	-1.369940E+02	  0.044048097	4.450000E-01	  0.044048097	-1.969700E+01
122	  0.044248499	-1.390000E-01	  0.044248499	-1.374890E+02	  0.044248499	4.630000E-01	  0.044248499	-1.944700E+01
123	  0.044448901	-1.460000E-01	  0.044448901	-1.379690E+02	  0.044448901	4.840000E-01	  0.044448901	-1.920600E+01
124	  0.044649299	-1.500000E-01	  0.044649299	-1.384610E+02	  0.044649299	4.960000E-01	  0.044649299	-1.896100E+01
125	  0.044849701	-1.510000E-01	  0.044849701	-1.389180E+02	  0.044849701	4.970000E-01	  0.044849701	-1.873300E+01
126	  0.045050103	-1.530000E-01	  0.045050103	-1.393920E+02	  0.045050103	5.010000E-01	  0.045050103	-1.849700E+01
127	  0.045250501	-1.550000E-01	  0.045250501	-1.398500E+02	  0.045250501	5.080000E-01	  0.045250501	-1.827000E+01
128	  0.045450903	-1.590000E-01	  0.045450903	-1.403210E+02	  0.045450903	5.180000E-01	  0.045450903	-1.803800E+01
129	  0.045651305	-1.640000E-01	  0.045651305	-1.408290E+02	  0.045651305	5.340000E-01	  0.045651305	-1.778700E+01
130	  0.045851704	-1.630000E-01	  0.045851704	-1.413350E+02	  0.045851704	5.280000E-01	  0.045851704	-1.753900E+01
131	  0.046052106	-1.640000E-01	  0.046052106	-1.418120E+02	  0.046052106	5.280000E-01	  0.046052106	-1.730600E+01
132	  0.046252504	-1.650000E-01	  0.046252504	-1.422990E+02	  0.046252504	5.310000E-01	  0.046252504	-1.706800E+01
133	  0.046452906	-1.710000E-01	  0.046452906	-1.427800E+02	  0.046452906	5.490000E-01	  0.046452906	-1.683400E+01
134	  0.046653304	-1.800000E-01	  0.046653304	-1.432570E+02	  0.046653304	5.760000E-01	  0.046653304	-1.660200E+01
135	  0.046853706	-1.890000E-01	  0.046853706	-1.438230E+02	  0.046853706	6.030000E-01	  0.046853706	-1.632900E+01
136	  0.047054108	-1.940000E-01	  0.047054108	-1.443850E+02	  0.047054108	6.160000E-01	  0.047054108	-1.605700E+01
137	  0.047254506	-1.920000E-01	  0.047254506	-1.449880E+02	  0.047254506	6.090000E-01	  0.047254506	-1.576800E+01
138	  0.047454908	-1.830000E-01	  0.047454908	-1.455740E+02	  0.047454908	5.790000E-01	  0.047454908	-1.548700E+01
139	  0.047655310	-1.740000E-01	  0.047655310	-1.461200E+02	  0.047655310	5.480000E-01	  0.047655310	-1.522700E+01
140	  0.047855709	-1.690000E-01	  0.047855709	-1.466500E+02	  0.047855709	5.310000E-01	  0.047855709	-1.497500E+01
141	  0.048056111	-1.630000E-01	  0.048056111	-1.471840E+02	  0.048056111	5.120000E-01	  0.048056111	-1.472100E+01
142	  0.048256513	-1.630000E-01	  0.048256513	-1.476990E+02	  0.048256513	5.080000E-01	  0.048256513	-1.447700E+01
143	  0.048456915	-1.590000E-01	  0.048456915	-1.482250E+02	  0.048456915	4.950000E-01	  0.048456915	-1.422900E+01
144	  0.048657313	-1.570000E-01	  0.048657313	-1.487120E+02	  0.048657313	4.880000E-01	  0.048657313	-1.400000E+01
145	  0.048857715	-1.580000E-01	  0.048857715	-1.491980E+02	  0.048857715	4.890000E-01	  0.048857715	-1.377100E+01
146	  0.049058117	-1.590000E-01	  0.049058117	-1.496520E+02	  0.049058117	4.930000E-01	  0.049058117	-1.355800E+01
147	  0.049258515	-1.620000E-01	  0.049258515	-1.501290E+02	  0.049258515	5.010000E-01	  0.049258515	-1.333500E+01
148	  0.049458917	-1.640000E-01	  0.049458917	-1.506040E+02	  0.049458917	5.060000E-01	  0.049458917	-1.311300E+01
149	  0.049659319	-1.640000E-01	  0.049659319	-1.510710E+02	  0.049659319	5.040000E-01	  0.049659319	-1.289600E+01
150	  0.049859721	-1.640000E-01	  0.049859721	-1.515060E+02	  0.049859721	5.030000E-01	  0.049859721	-1.269400E+01
151	  0.050060119	-1.650000E-01	  0.050060119	-1.519360E+02	  0.050060119	5.060000E-01	  0.050060119	-1.249400E+01
152	  0.050260521	-1.700000E-01	  0.050260521	-1.523320E+02	  0.050260521	5.190000E-01	  0.050260521	-1.231100E+01
153	  0.050460923	-1.720000E-01	  0.050460923	-1.527470E+02	  0.050460923	5.270000E-01	  0.050460923	-1.211900E+01
154	  0.050661322	-1.760000E-01	  0.050661322	-1.531750E+02	  0.050661322	5.360000E-01	  0.050661322	-1.192100E+01
155	  0.050861724	-1.780000E-01	  0.050861724	-1.536160E+02	  0.050861724	5.430000E-01	  0.050861724	-1.171800E+01
156	  0.051062126	-1.790000E-01	  0.051062126	-1.540450E+02	  0.051062126	5.420000E-01	  0.051062126	-1.152100E+01
157	  0.051262524	-1.800000E-01	  0.051262524	-1.544760E+02	  0.051262524	5.470000E-01	  0.051262524	-1.132300E+01
158	  0.051462926	-1.840000E-01	  0.051462926	-1.548910E+02	  0.051462926	5.580000E-01	  0.051462926	-1.113300E+01
159	  0.051663328	-1.910000E-01	  0.051663328	-1.553070E+02	  0.051663328	5.770000E-01	  0.051663328	-1.094200E+01
160	  0.051863730	-2.010000E-01	  0.051863730	-1.557460E+02	  0.051863730	6.080000E-01	  0.051863730	-1.074100E+01
161	  0.052064128	-2.060000E-01	  0.052064128	-1.562040E+02	  0.052064128	6.220000E-01	  0.052064128	-1.053200E+01
162	  0.052264530	-2.160000E-01	  0.052264530	-1.567050E+02	  0.052264530	6.480000E-01	  0.052264530	-1.030400E+01
163	  0.052464932	-2.180000E-01	  0.052464932	-1.572270E+02	  0.052464932	6.520000E-01	  0.052464932	-1.006700E+01
164	  0.052665330	-2.190000E-01	  0.052665330	-1.577620E+02	  0.052665330	6.540000E-01	  0.052665330	-9.825000E+00
165	  0.052865732	-2.150000E-01	  0.052865732	-1.582720E+02	  0.052865732	6.420000E-01	  0.052865732	-9.594000E+00
166	  0.053066134	-2.130000E-01	  0.053066134	-1.587970E+02	  0.053066134	6.360000E-01	  0.053066134	-9.357000E+00
167	  0.053266536	-2.090000E-01	  0.053266536	-1.593100E+02	  0.053266536	6.240000E-01	  0.053266536	-9.125000E+00
168	  0.053466935	-2.100000E-01	  0.053466935	-1.598330E+02	  0.053466935	6.240000E-01	  0.053466935	-8.890000E+00
169	  0.053667337	-2.050000E-01	  0.053667337	-1.603530E+02	  0.053667337	6.100000E-01	  0.053667337	-8.656000E+00
170	  0.053867739	-2.030000E-01	  0.053867739	-1.608430E+02	  0.053867739	6.010000E-01	  0.053867739	-8.436000E+00
171	  0.054068137	-2.030000E-01	  0.054068137	-1.613370E+02	  0.054068137	6.000000E-01	  0.054068137	-8.214000E+00
172	  0.054268539	-2.040000E-01	  0.054268539	-1.618320E+02	  0.054268539	6.040000E-01	  0.054268539	-7.993000E+00
173	  0.054468941	-2.040000E-01	  0.054468941	-1.623280E+02	  0.054468941	6.020000E-01	  0.054468941	-7.771000E+00
174	  0.054669339	-2.020000E-01	  0.054669339	-1.628210E+02	  0.054669339	5.970000E-01	  0.054669339	-7.551000E+00
175	  0.054869737	-2.010000E-01	  0.054869737	-1.632950E+02	  0.054869737	5.910000E-01	  0.054869737	-7.339000E+00
176	  0.055070139	-1.970000E-01	  0.055070139	-1.637370E+02	  0.055070139	5.790000E-01	  0.055070139	-7.143000E+00
177	  0.055270538	-1.950000E-01	  0.055270538	-1.641660E+02	  0.055270538	5.730000E-01	  0.055270538	-6.952000E+00
178	  0.055470940	-1.950000E-01	  0.055470940	-1.645920E+02	  0.055470940	5.740000E-01	  0.055470940	-6.762000E+00
179	  0.055671342	-1.970000E-01	  0.055671342	-1.649930E+02	  0.055671342	5.780000E-01	  0.055671342	-6.584000E+00
180	  0.055871744	-1.980000E-01	  0.055871744	-1.654200E+02	  0.055871744	5.790000E-01	  0.055871744	-6.395000E+00
181	  0.056072142	-1.990000E-01	  0.056072142	-1.658360E+02	  0.056072142	5.840000E-01	  0.056072142	-6.210000E+00
182	  0.056272544	-1.990000E-01	  0.056272544	-1.662530E+02	  0.056272544	5.810000E-01	  0.056272544	-6.026000E+00
183	  0.056472946	-2.000000E-01	  0.056472946	-1.666610E+02	  0.056472946	5.840000E-01	  0.056472946	-5.845000E+00
184	  0.056673344	-2.030000E-01	  0.056673344	-1.670560E+02	  0.056673344	5.930000E-01	  0.056673344	-5.670000E+00
185	  0.056873746	-2.070000E-01	  0.056873746	-1.674600E+02	  0.056873746	6.030000E-01	  0.056873746	-5.492000E+00
186	  0.057074148	-2.110000E-01	  0.057074148	-1.678640E+02	  0.057074148	6.160000E-01	  0.057074148	-5.314000E+00
187	  0.057274550	-2.170000E-01	  0.057274550	-1.682840E+02	  0.057274550	6.320000E-01	  0.057274550	-5.128000E+00
188	  0.057474948	-2.240000E-01	  0.057474948	-1.687080E+02	  0.057474948	6.510000E-01	  0.057474948	-4.942000E+00
189	  0.057675350	-2.290000E-01	  0.057675350	-1.691560E+02	  0.057675350	6.660000E-01	  0.057675350	-4.744000E+00
190	  0.057875752	-2.330000E-01	  0.057875752	-1.696140E+02	  0.057875752	6.780000E-01	  0.057875752	-4.543000E+00
191	  0.058076151	-2.350000E-01	  0.058076151	-1.700890E+02	  0.058076151	6.840000E-01	  0.058076151	-4.334000E+00
192	  0.058276553	-2.380000E-01	  0.058276553	-1.705650E+02	  0.058276553	6.890000E-01	  0.058276553	-4.125000E+00
193	  0.058476955	-2.380000E-01	  0.058476955	-1.710420E+02	  0.058476955	6.910000E-01	  0.058476955	-3.915000E+00
194	  0.058677353	-2.390000E-01	  0.058677353	-1.715340E+02	  0.058677353	6.930000E-01	  0.058677353	-3.699000E+00
195	  0.058877755	-2.370000E-01	  0.058877755	-1.720180E+02	  0.058877755	6.860000E-01	  0.058877755	-3.487000E+00
196	  0.059078157	-2.420000E-01	  0.059078157	-1.724990E+02	  0.059078157	7.000000E-01	  0.059078157	-3.276000E+00
197	  0.059278559	-2.440000E-01	  0.059278559	-1.729830E+02	  0.059278559	7.070000E-01	  0.059278559	-3.064000E+00
198	  0.059478957	-2.450000E-01	  0.059478957	-1.734640E+02	  0.059478957	7.090000E-01	  0.059478957	-2.854000E+00
199	  0.059679359	-2.450000E-01	  0.059679359	-1.739490E+02	  0.059679359	7.090000E-01	  0.059679359	-2.641000E+00
200	  0.059879761	-2.440000E-01	  0.059879761	-1.744310E+02	  0.059879761	7.040000E-01	  0.059879761	-2.431000E+00
201	  0.060080159	-2.430000E-01	  0.060080159	-1.748830E+02	  0.060080159	7.020000E-01	  0.060080159	-2.233000E+00
202	  0.060280561	-2.410000E-01	  0.060280561	-1.753440E+02	  0.060280561	6.950000E-01	  0.060280561	-2.032000E+00
203	  0.060480963	-2.390000E-01	  0.060480963	-1.757620E+02	  0.060480963	6.890000E-01	  0.060480963	-1.849000E+00
204	  0.060681365	-2.390000E-01	  0.060681365	-1.761920E+02	  0.060681365	6.900000E-01	  0.060681365	-1.661000E+00
205	  0.060881764	-2.360000E-01	  0.060881764	-1.766130E+02	  0.060881764	6.810000E-01	  0.060881764	-1.477000E+00
206	  0.061082166	-2.360000E-01	  0.061082166	-1.770200E+02	  0.061082166	6.790000E-01	  0.061082166	-1.299000E+00
207	  0.061282568	-2.340000E-01	  0.061282568	-1.774260E+02	  0.061282568	6.750000E-01	  0.061282568	-1.123000E+00
208	  0.061482966	-2.340000E-01	  0.061482966	-1.778370E+02	  0.061482966	6.740000E-01	  0.061482966	-9.430000E-01
209	  0.061683368	-2.320000E-01	  0.061683368	-1.782250E+02	  0.061683368	6.680000E-01	  0.061683368	-7.740000E-01
210	  0.061883770	-2.320000E-01	  0.061883770	-1.786010E+02	  0.061883770	6.690000E-01	  0.061883770	-6.100000E-01
211	  0.062084168	-2.310000E-01	  0.062084168	-1.789920E+02	  0.062084168	6.670000E-01	  0.062084168	-4.390000E-01
212	  0.062284570	-2.320000E-01	  0.062284570	-1.793780E+02	  0.062284570	6.670000E-01	  0.062284570	-2.710000E-01
213	  0.062484972	-2.370000E-01	  0.062484972	-1.797300E+02	  0.062484972	6.830000E-01	  0.062484972	-1.170000E-01
214	  0.062685370	-2.370000E-01	  0.062685370	1.798820E+02	  0.062685370	6.830000E-01	  0.062685370	5.100000E-02
215	  0.062885776	-2.440000E-01	  0.062885776	1.795050E+02	  0.062885776	7.030000E-01	  0.062885776	2.150000E-01
216	  0.063086174	-2.450000E-01	  0.063086174	1.790950E+02	  0.063086174	7.050000E-01	  0.063086174	3.940000E-01
217	  0.063286573	-2.470000E-01	  0.063286573	1.786860E+02	  0.063286573	7.110000E-01	  0.063286573	5.720000E-01
218	  0.063486971	-2.510000E-01	  0.063486971	1.782730E+02	  0.063486971	7.230000E-01	  0.063486971	7.530000E-01
219	  0.063687377	-2.500000E-01	  0.063687377	1.778560E+02	  0.063687377	7.220000E-01	  0.063687377	9.350000E-01
220	  0.063887775	-2.540000E-01	  0.063887775	1.774420E+02	  0.063887775	7.320000E-01	  0.063887775	1.115000E+00
221	  0.064088173	-2.580000E-01	  0.064088173	1.770210E+02	  0.064088173	7.440000E-01	  0.064088173	1.299000E+00
222	  0.064288579	-2.630000E-01	  0.064288579	1.765620E+02	  0.064288579	7.570000E-01	  0.064288579	1.499000E+00
223	  0.064488977	-2.670000E-01	  0.064488977	1.761030E+02	  0.064488977	7.700000E-01	  0.064488977	1.700000E+00
224	  0.064689375	-2.700000E-01	  0.064689375	1.756410E+02	  0.064689375	7.780000E-01	  0.064689375	1.902000E+00
225	  0.064889781	-2.720000E-01	  0.064889781	1.751900E+02	  0.064889781	7.850000E-01	  0.064889781	2.099000E+00
226	  0.065090179	-2.760000E-01	  0.065090179	1.747250E+02	  0.065090179	7.980000E-01	  0.065090179	2.302000E+00
227	  0.065290578	-2.780000E-01	  0.065290578	1.742680E+02	  0.065290578	8.040000E-01	  0.065290578	2.502000E+00
228	  0.065490983	-2.800000E-01	  0.065490983	1.738260E+02	  0.065490983	8.090000E-01	  0.065490983	2.695000E+00
229	  0.065691382	-2.810000E-01	  0.065691382	1.733770E+02	  0.065691382	8.120000E-01	  0.065691382	2.892000E+00
230	  0.065891780	-2.830000E-01	  0.065891780	1.729100E+02	  0.065891780	8.190000E-01	  0.065891780	3.096000E+00
231	  0.066092186	-2.800000E-01	  0.066092186	1.724830E+02	  0.066092186	8.090000E-01	  0.066092186	3.283000E+00
232	  0.066292584	-2.800000E-01	  0.066292584	1.720360E+02	  0.066292584	8.110000E-01	  0.066292584	3.479000E+00
233	  0.066492982	-2.820000E-01	  0.066492982	1.716150E+02	  0.066492982	8.180000E-01	  0.066492982	3.663000E+00
234	  0.066693388	-2.790000E-01	  0.066693388	1.711760E+02	  0.066693388	8.080000E-01	  0.066693388	3.856000E+00
235	  0.066893786	-2.760000E-01	  0.066893786	1.707570E+02	  0.066893786	8.020000E-01	  0.066893786	4.040000E+00
236	  0.067094192	-2.790000E-01	  0.067094192	1.703350E+02	  0.067094192	8.110000E-01	  0.067094192	4.225000E+00
237	  0.067294590	-2.760000E-01	  0.067294590	1.699490E+02	  0.067294590	8.010000E-01	  0.067294590	4.395000E+00
238	  0.067494988	-2.770000E-01	  0.067494988	1.695610E+02	  0.067494988	8.030000E-01	  0.067494988	4.566000E+00
239	  0.067695394	-2.740000E-01	  0.067695394	1.691970E+02	  0.067695394	7.960000E-01	  0.067695394	4.726000E+00
240	  0.067895792	-2.700000E-01	  0.067895792	1.688120E+02	  0.067895792	7.860000E-01	  0.067895792	4.895000E+00
241	  0.068096191	-2.720000E-01	  0.068096191	1.684490E+02	  0.068096191	7.920000E-01	  0.068096191	5.055000E+00
242	  0.068296596	-2.730000E-01	  0.068296596	1.680950E+02	  0.068296596	7.950000E-01	  0.068296596	5.211000E+00
243	  0.068496995	-2.680000E-01	  0.068496995	1.677130E+02	  0.068496995	7.820000E-01	  0.068496995	5.380000E+00
244	  0.068697393	-2.650000E-01	  0.068697393	1.673640E+02	  0.068697393	7.740000E-01	  0.068697393	5.534000E+00
245	  0.068897791	-2.700000E-01	  0.068897791	1.670320E+02	  0.068897791	7.880000E-01	  0.068897791	5.680000E+00
246	  0.069098189	-2.650000E-01	  0.069098189	1.666670E+02	  0.069098189	7.750000E-01	  0.069098189	5.842000E+00
247	  0.069298595	-2.670000E-01	  0.069298595	1.663300E+02	  0.069298595	7.790000E-01	  0.069298595	5.991000E+00
248	  0.069498993	-2.740000E-01	  0.069498993	1.659500E+02	  0.069498993	8.010000E-01	  0.069498993	6.159000E+00
249	  0.069699399	-2.770000E-01	  0.069699399	1.655410E+02	  0.069699399	8.120000E-01	  0.069699399	6.340000E+00
250	  0.069899797	-2.810000E-01	  0.069899797	1.651720E+02	  0.069899797	8.220000E-01	  0.069899797	6.504000E+00
251	  0.070100196	-2.830000E-01	  0.070100196	1.647820E+02	  0.070100196	8.290000E-01	  0.070100196	6.677000E+00
252	  0.070300601	-2.860000E-01	  0.070300601	1.643600E+02	  0.070300601	8.380000E-01	  0.070300601	6.864000E+00
253	  0.070501000	-2.900000E-01	  0.070501000	1.639760E+02	  0.070501000	8.520000E-01	  0.070501000	7.035000E+00
254	  0.070701398	-2.950000E-01	  0.070701398	1.635930E+02	  0.070701398	8.680000E-01	  0.070701398	7.206000E+00
255	  0.070901804	-2.980000E-01	  0.070901804	1.631520E+02	  0.070901804	8.760000E-01	  0.070901804	7.402000E+00
256	  0.071102202	-3.010000E-01	  0.071102202	1.627290E+02	  0.071102202	8.880000E-01	  0.071102202	7.590000E+00
257	  0.071302600	-3.010000E-01	  0.071302600	1.623070E+02	  0.071302600	8.890000E-01	  0.071302600	7.779000E+00
258	  0.071503006	-3.040000E-01	  0.071503006	1.618820E+02	  0.071503006	8.970000E-01	  0.071503006	7.969000E+00
259	  0.071703404	-3.060000E-01	  0.071703404	1.614410E+02	  0.071703404	9.060000E-01	  0.071703404	8.166000E+00
260	  0.071903802	-3.090000E-01	  0.071903802	1.609970E+02	  0.071903802	9.140000E-01	  0.071903802	8.365000E+00
261	  0.072104208	-3.100000E-01	  0.072104208	1.605800E+02	  0.072104208	9.180000E-01	  0.072104208	8.552000E+00
262	  0.072304606	-3.130000E-01	  0.072304606	1.601560E+02	  0.072304606	9.290000E-01	  0.072304606	8.742000E+00
263	  0.072505005	-3.150000E-01	  0.072505005	1.597340E+02	  0.072505005	9.360000E-01	  0.072505005	8.932000E+00
264	  0.072705410	-3.150000E-01	  0.072705410	1.593190E+02	  0.072705410	9.380000E-01	  0.072705410	9.119000E+00
265	  0.072905809	-3.160000E-01	  0.072905809	1.589010E+02	  0.072905809	9.420000E-01	  0.072905809	9.308000E+00
266	  0.073106214	-3.150000E-01	  0.073106214	1.585080E+02	  0.073106214	9.410000E-01	  0.073106214	9.485000E+00
267	  0.073306613	-3.130000E-01	  0.073306613	1.580910E+02	  0.073306613	9.350000E-01	  0.073306613	9.674000E+00
268	  0.073507011	-3.140000E-01	  0.073507011	1.576720E+02	  0.073507011	9.380000E-01	  0.073507011	9.864000E+00
269	  0.073707417	-3.080000E-01	  0.073707417	1.573080E+02	  0.073707417	9.220000E-01	  0.073707417	1.002900E+01
270	  0.073907815	-3.070000E-01	  0.073907815	1.569650E+02	  0.073907815	9.200000E-01	  0.073907815	1.018500E+01
271	  0.074108213	-3.000000E-01	  0.074108213	1.565790E+02	  0.074108213	9.010000E-01	  0.074108213	1.036000E+01
272	  0.074308619	-2.980000E-01	  0.074308619	1.562450E+02	  0.074308619	8.970000E-01	  0.074308619	1.051200E+01
273	  0.074509017	-3.020000E-01	  0.074509017	1.559080E+02	  0.074509017	9.090000E-01	  0.074509017	1.066600E+01
274	  0.074709415	-3.030000E-01	  0.074709415	1.555480E+02	  0.074709415	9.150000E-01	  0.074709415	1.083000E+01
275	  0.074909821	-3.040000E-01	  0.074909821	1.551900E+02	  0.074909821	9.190000E-01	  0.074909821	1.099400E+01
276	  0.075110219	-3.030000E-01	  0.075110219	1.548200E+02	  0.075110219	9.160000E-01	  0.075110219	1.116300E+01
277	  0.075310618	-3.060000E-01	  0.075310618	1.544770E+02	  0.075310618	9.280000E-01	  0.075310618	1.132000E+01
278	  0.075511023	-3.080000E-01	  0.075511023	1.541220E+02	  0.075511023	9.340000E-01	  0.075511023	1.148300E+01
279	  0.075711422	-3.100000E-01	  0.075711422	1.537680E+02	  0.075711422	9.430000E-01	  0.075711422	1.164600E+01
280	  0.075911827	-3.130000E-01	  0.075911827	1.534130E+02	  0.075911827	9.510000E-01	  0.075911827	1.180900E+01
281	  0.076112226	-3.130000E-01	  0.076112226	1.530570E+02	  0.076112226	9.550000E-01	  0.076112226	1.197300E+01
282	  0.076312624	-3.140000E-01	  0.076312624	1.526600E+02	  0.076312624	9.570000E-01	  0.076312624	1.215600E+01
283	  0.076513030	-3.160000E-01	  0.076513030	1.522690E+02	  0.076513030	9.660000E-01	  0.076513030	1.233700E+01
284	  0.076713428	-3.180000E-01	  0.076713428	1.518760E+02	  0.076713428	9.730000E-01	  0.076713428	1.251900E+01
285	  0.076913826	-3.230000E-01	  0.076913826	1.514950E+02	  0.076913826	9.910000E-01	  0.076913826	1.269500E+01
286	  0.077114232	-3.220000E-01	  0.077114232	1.510970E+02	  0.077114232	9.900000E-01	  0.077114232	1.288000E+01
287	  0.077314630	-3.240000E-01	  0.077314630	1.506890E+02	  0.077314630	9.980000E-01	  0.077314630	1.307000E+01
288	  0.077515028	-3.260000E-01	  0.077515028	1.502860E+02	  0.077515028	1.004000E+00	  0.077515028	1.325800E+01
289	  0.077715434	-3.280000E-01	  0.077715434	1.499180E+02	  0.077715434	1.013000E+00	  0.077715434	1.343000E+01
290	  0.077915832	-3.320000E-01	  0.077915832	1.495200E+02	  0.077915832	1.026000E+00	  0.077915832	1.361600E+01
291	  0.078116231	-3.320000E-01	  0.078116231	1.491250E+02	  0.078116231	1.029000E+00	  0.078116231	1.380100E+01
292	  0.078316636	-3.380000E-01	  0.078316636	1.487200E+02	  0.078316636	1.050000E+00	  0.078316636	1.399200E+01
293	  0.078517035	-3.390000E-01	  0.078517035	1.482960E+02	  0.078517035	1.055000E+00	  0.078517035	1.419100E+01
294	  0.078717433	-3.380000E-01	  0.078717433	1.478890E+02	  0.078717433	1.054000E+00	  0.078717433	1.438300E+01
295	  0.078917839	-3.360000E-01	  0.078917839	1.474760E+02	  0.078917839	1.051000E+00	  0.078917839	1.457800E+01
296	  0.079118237	-3.340000E-01	  0.079118237	1.471130E+02	  0.079118237	1.045000E+00	  0.079118237	1.475100E+01
297	  0.079318643	-3.330000E-01	  0.079318643	1.467600E+02	  0.079318643	1.045000E+00	  0.079318643	1.491800E+01
298	  0.079519041	-3.310000E-01	  0.079519041	1.463960E+02	  0.079519041	1.039000E+00	  0.079519041	1.509100E+01
299	  0.079719439	-3.320000E-01	  0.079719439	1.460280E+02	  0.079719439	1.046000E+00	  0.079719439	1.526600E+01
300	  0.079919845	-3.330000E-01	  0.079919845	1.456480E+02	  0.079919845	1.052000E+00	  0.079919845	1.544800E+01
301	  0.080120243	-3.360000E-01	  0.080120243	1.452940E+02	  0.080120243	1.064000E+00	  0.080120243	1.561700E+01
302	  0.080320641	-3.380000E-01	  0.080320641	1.449290E+02	  0.080320641	1.072000E+00	  0.080320641	1.579200E+01
303	  0.080521047	-3.400000E-01	  0.080521047	1.445740E+02	  0.080521047	1.079000E+00	  0.080521047	1.596200E+01
304	  0.080721445	-3.410000E-01	  0.080721445	1.442260E+02	  0.080721445	1.083000E+00	  0.080721445	1.613000E+01
305	  0.080921844	-3.430000E-01	  0.080921844	1.438720E+02	  0.080921844	1.092000E+00	  0.080921844	1.630000E+01
306	  0.081122249	-3.440000E-01	  0.081122249	1.435070E+02	  0.081122249	1.099000E+00	  0.081122249	1.647600E+01
307	  0.081322648	-3.440000E-01	  0.081322648	1.431340E+02	  0.081322648	1.102000E+00	  0.081322648	1.665700E+01
308	  0.081523046	-3.410000E-01	  0.081523046	1.427780E+02	  0.081523046	1.095000E+00	  0.081523046	1.683000E+01
309	  0.081723452	-3.440000E-01	  0.081723452	1.424160E+02	  0.081723452	1.106000E+00	  0.081723452	1.700500E+01
310	  0.081923850	-3.440000E-01	  0.081923850	1.420560E+02	  0.081923850	1.109000E+00	  0.081923850	1.718100E+01
311	  0.082124248	-3.460000E-01	  0.082124248	1.416560E+02	  0.082124248	1.119000E+00	  0.082124248	1.737600E+01
312	  0.082324654	-3.440000E-01	  0.082324654	1.412950E+02	  0.082324654	1.114000E+00	  0.082324654	1.755300E+01
313	  0.082525052	-3.440000E-01	  0.082525052	1.409350E+02	  0.082525052	1.114000E+00	  0.082525052	1.772900E+01
314	  0.082725458	-3.420000E-01	  0.082725458	1.405860E+02	  0.082725458	1.110000E+00	  0.082725458	1.790100E+01
315	  0.082925856	-3.420000E-01	  0.082925856	1.402520E+02	  0.082925856	1.114000E+00	  0.082925856	1.806500E+01
316	  0.083126254	-3.470000E-01	  0.083126254	1.398810E+02	  0.083126254	1.134000E+00	  0.083126254	1.824800E+01
317	  0.083326660	-3.500000E-01	  0.083326660	1.395380E+02	  0.083326660	1.146000E+00	  0.083326660	1.841800E+01
318	  0.083527058	-3.520000E-01	  0.083527058	1.391760E+02	  0.083527058	1.154000E+00	  0.083527058	1.859800E+01
319	  0.083727457	-3.540000E-01	  0.083727457	1.387710E+02	  0.083727457	1.165000E+00	  0.083727457	1.879900E+01
320	  0.083927862	-3.550000E-01	  0.083927862	1.383980E+02	  0.083927862	1.170000E+00	  0.083927862	1.898400E+01
321	  0.084128261	-3.540000E-01	  0.084128261	1.380320E+02	  0.084128261	1.169000E+00	  0.084128261	1.916700E+01
322	  0.084328659	-3.510000E-01	  0.084328659	1.376910E+02	  0.084328659	1.162000E+00	  0.084328659	1.933800E+01
323	  0.084529065	-3.500000E-01	  0.084529065	1.373570E+02	  0.084529065	1.160000E+00	  0.084529065	1.950600E+01
324	  0.084729463	-3.480000E-01	  0.084729463	1.370150E+02	  0.084729463	1.157000E+00	  0.084729463	1.967800E+01
325	  0.084929861	-3.490000E-01	  0.084929861	1.366790E+02	  0.084929861	1.165000E+00	  0.084929861	1.984700E+01
326	  0.085130267	-3.530000E-01	  0.085130267	1.363390E+02	  0.085130267	1.179000E+00	  0.085130267	2.001900E+01
327	  0.085330658	-3.510000E-01	  0.085330658	1.360050E+02	  0.085330658	1.176000E+00	  0.085330658	2.018800E+01
328	  0.085531056	-3.520000E-01	  0.085531056	1.356610E+02	  0.085531056	1.184000E+00	  0.085531056	2.036300E+01
329	  0.085731462	-3.600000E-01	  0.085731462	1.353310E+02	  0.085731462	1.211000E+00	  0.085731462	2.053100E+01
330	  0.085931860	-3.630000E-01	  0.085931860	1.349920E+02	  0.085931860	1.224000E+00	  0.085931860	2.070300E+01
331	  0.086132258	-3.660000E-01	  0.086132258	1.346490E+02	  0.086132258	1.239000E+00	  0.086132258	2.087900E+01
332	  0.086332664	-3.690000E-01	  0.086332664	1.343020E+02	  0.086332664	1.250000E+00	  0.086332664	2.105700E+01
333	  0.086533062	-3.650000E-01	  0.086533062	1.339470E+02	  0.086533062	1.241000E+00	  0.086533062	2.123900E+01
334	  0.086733460	-3.640000E-01	  0.086733460	1.335730E+02	  0.086733460	1.243000E+00	  0.086733460	2.143200E+01
335	  0.086933866	-3.670000E-01	  0.086933866	1.332200E+02	  0.086933866	1.254000E+00	  0.086933866	2.161400E+01
336	  0.087134264	-3.670000E-01	  0.087134264	1.328560E+02	  0.087134264	1.257000E+00	  0.087134264	2.180300E+01
337	  0.087334670	-3.680000E-01	  0.087334670	1.324740E+02	  0.087334670	1.266000E+00	  0.087334670	2.200200E+01
338	  0.087535068	-3.680000E-01	  0.087535068	1.320980E+02	  0.087535068	1.269000E+00	  0.087535068	2.219800E+01
339	  0.087735467	-3.650000E-01	  0.087735467	1.317190E+02	  0.087735467	1.264000E+00	  0.087735467	2.239600E+01
340	  0.087935872	-3.620000E-01	  0.087935872	1.313710E+02	  0.087935872	1.255000E+00	  0.087935872	2.257800E+01
341	  0.088136271	-3.640000E-01	  0.088136271	1.310190E+02	  0.088136271	1.267000E+00	  0.088136271	2.276300E+01
342	  0.088336669	-3.600000E-01	  0.088336669	1.306620E+02	  0.088336669	1.257000E+00	  0.088336669	2.295200E+01
343	  0.088537075	-3.650000E-01	  0.088537075	1.303150E+02	  0.088537075	1.277000E+00	  0.088537075	2.313500E+01
344	  0.088737473	-3.660000E-01	  0.088737473	1.299500E+02	  0.088737473	1.283000E+00	  0.088737473	2.332900E+01
345	  0.088937871	-3.690000E-01	  0.088937871	1.295770E+02	  0.088937871	1.300000E+00	  0.088937871	2.352700E+01
346	  0.089138277	-3.700000E-01	  0.089138277	1.292000E+02	  0.089138277	1.306000E+00	  0.089138277	2.372800E+01
347	  0.089338675	-3.710000E-01	  0.089338675	1.288330E+02	  0.089338675	1.313000E+00	  0.089338675	2.392400E+01
348	  0.089539073	-3.660000E-01	  0.089539073	1.284910E+02	  0.089539073	1.300000E+00	  0.089539073	2.410800E+01
349	  0.089739479	-3.690000E-01	  0.089739479	1.281680E+02	  0.089739479	1.315000E+00	  0.089739479	2.428200E+01
350	  0.089939877	-3.670000E-01	  0.089939877	1.278270E+02	  0.089939877	1.310000E+00	  0.089939877	2.446600E+01
351	  0.090140276	-3.700000E-01	  0.090140276	1.274930E+02	  0.090140276	1.324000E+00	  0.090140276	2.464600E+01
352	  0.090340681	-3.650000E-01	  0.090340681	1.271640E+02	  0.090340681	1.312000E+00	  0.090340681	2.482500E+01
353	  0.090541080	-3.690000E-01	  0.090541080	1.268690E+02	  0.090541080	1.329000E+00	  0.090541080	2.498600E+01
354	  0.090741485	-3.690000E-01	  0.090741485	1.265530E+02	  0.090741485	1.331000E+00	  0.090741485	2.515800E+01
355	  0.090941884	-3.710000E-01	  0.090941884	1.262370E+02	  0.090941884	1.343000E+00	  0.090941884	2.533100E+01
356	  0.091142282	-3.780000E-01	  0.091142282	1.259310E+02	  0.091142282	1.371000E+00	  0.091142282	2.549800E+01
357	  0.091342688	-3.810000E-01	  0.091342688	1.256130E+02	  0.091342688	1.387000E+00	  0.091342688	2.567300E+01
358	  0.091543086	-3.850000E-01	  0.091543086	1.252830E+02	  0.091543086	1.406000E+00	  0.091543086	2.585400E+01
359	  0.091743484	-3.810000E-01	  0.091743484	1.249320E+02	  0.091743484	1.397000E+00	  0.091743484	2.604900E+01
360	  0.091943890	-3.840000E-01	  0.091943890	1.246050E+02	  0.091943890	1.409000E+00	  0.091943890	2.623100E+01
361	  0.092144288	-3.850000E-01	  0.092144288	1.242490E+02	  0.092144288	1.420000E+00	  0.092144288	2.642900E+01
362	  0.092344686	-3.870000E-01	  0.092344686	1.238840E+02	  0.092344686	1.430000E+00	  0.092344686	2.663300E+01
363	  0.092545092	-3.870000E-01	  0.092545092	1.235310E+02	  0.092545092	1.435000E+00	  0.092545092	2.683100E+01
364	  0.092745490	-3.880000E-01	  0.092745490	1.231760E+02	  0.092745490	1.443000E+00	  0.092745490	2.703000E+01
365	  0.092945889	-3.840000E-01	  0.092945889	1.227960E+02	  0.092945889	1.435000E+00	  0.092945889	2.724500E+01
366	  0.093146294	-3.810000E-01	  0.093146294	1.224660E+02	  0.093146294	1.430000E+00	  0.093146294	2.743200E+01
367	  0.093346693	-3.800000E-01	  0.093346693	1.220870E+02	  0.093346693	1.430000E+00	  0.093346693	2.764800E+01
368	  0.093547091	-3.830000E-01	  0.093547091	1.217490E+02	  0.093547091	1.445000E+00	  0.093547091	2.784000E+01
369	  0.093747497	-3.840000E-01	  0.093747497	1.213920E+02	  0.093747497	1.455000E+00	  0.093747497	2.804500E+01
370	  0.093947895	-3.780000E-01	  0.093947895	1.210180E+02	  0.093947895	1.437000E+00	  0.093947895	2.826000E+01
371	  0.094148301	-3.870000E-01	  0.094148301	1.206470E+02	  0.094148301	1.476000E+00	  0.094148301	2.847300E+01
372	  0.094348699	-3.790000E-01	  0.094348699	1.202970E+02	  0.094348699	1.451000E+00	  0.094348699	2.867600E+01
373	  0.094549097	-3.820000E-01	  0.094549097	1.199440E+02	  0.094549097	1.469000E+00	  0.094549097	2.888100E+01
374	  0.094749503	-3.800000E-01	  0.094749503	1.195860E+02	  0.094749503	1.467000E+00	  0.094749503	2.908900E+01
375	  0.094949901	-3.810000E-01	  0.094949901	1.192500E+02	  0.094949901	1.472000E+00	  0.094949901	2.928600E+01
376	  0.095150299	-3.780000E-01	  0.095150299	1.189220E+02	  0.095150299	1.469000E+00	  0.095150299	2.947900E+01
377	  0.095350705	-3.750000E-01	  0.095350705	1.185640E+02	  0.095350705	1.461000E+00	  0.095350705	2.968900E+01
378	  0.095551103	-3.740000E-01	  0.095551103	1.182710E+02	  0.095551103	1.461000E+00	  0.095551103	2.986300E+01
379	  0.095751502	-3.700000E-01	  0.095751502	1.179540E+02	  0.095751502	1.452000E+00	  0.095751502	3.005100E+01
380	  0.095951907	-3.700000E-01	  0.095951907	1.176600E+02	  0.095951907	1.454000E+00	  0.095951907	3.022600E+01
381	  0.096152306	-3.730000E-01	  0.096152306	1.173810E+02	  0.096152306	1.471000E+00	  0.096152306	3.039200E+01
382	  0.096352704	-3.770000E-01	  0.096352704	1.170820E+02	  0.096352704	1.493000E+00	  0.096352704	3.057000E+01
383	  0.096553110	-3.780000E-01	  0.096553110	1.167830E+02	  0.096553110	1.502000E+00	  0.096553110	3.074900E+01
384	  0.096753508	-3.770000E-01	  0.096753508	1.164930E+02	  0.096753508	1.504000E+00	  0.096753508	3.092400E+01
385	  0.096953906	-3.790000E-01	  0.096953906	1.161840E+02	  0.096953906	1.514000E+00	  0.096953906	3.111000E+01
386	  0.097154312	-3.820000E-01	  0.097154312	1.158750E+02	  0.097154312	1.531000E+00	  0.097154312	3.129800E+01
387	  0.097354710	-3.850000E-01	  0.097354710	1.155600E+02	  0.097354710	1.548000E+00	  0.097354710	3.148900E+01
388	  0.097555116	-3.870000E-01	  0.097555116	1.152370E+02	  0.097555116	1.562000E+00	  0.097555116	3.168600E+01
389	  0.097755514	-3.880000E-01	  0.097755514	1.149070E+02	  0.097755514	1.572000E+00	  0.097755514	3.188800E+01
390	  0.097955912	-3.900000E-01	  0.097955912	1.145650E+02	  0.097955912	1.585000E+00	  0.097955912	3.209700E+01
391	  0.098156318	-3.910000E-01	  0.098156318	1.142330E+02	  0.098156318	1.598000E+00	  0.098156318	3.230200E+01
392	  0.098356716	-3.900000E-01	  0.098356716	1.138890E+02	  0.098356716	1.597000E+00	  0.098356716	3.251500E+01
393	  0.098557115	-3.930000E-01	  0.098557115	1.135550E+02	  0.098557115	1.617000E+00	  0.098557115	3.272300E+01
394	  0.098757520	-3.950000E-01	  0.098757520	1.132070E+02	  0.098757520	1.631000E+00	  0.098757520	3.293900E+01
395	  0.098957919	-3.990000E-01	  0.098957919	1.128500E+02	  0.098957919	1.653000E+00	  0.098957919	3.316200E+01
396	  0.099158317	-3.980000E-01	  0.099158317	1.125020E+02	  0.099158317	1.656000E+00	  0.099158317	3.338100E+01
397	  0.099358723	-4.000000E-01	  0.099358723	1.121200E+02	  0.099358723	1.674000E+00	  0.099358723	3.362200E+01
398	  0.099559121	-3.990000E-01	  0.099559121	1.117790E+02	  0.099559121	1.677000E+00	  0.099559121	3.383900E+01
399	  0.099759519	-4.030000E-01	  0.099759519	1.114300E+02	  0.099759519	1.700000E+00	  0.099759519	3.406100E+01
400	  0.099959925	-4.040000E-01	  0.099959925	1.110900E+02	  0.099959925	1.712000E+00	  0.099959925	3.427800E+01
401	  0.100160323	-4.140000E-01	  0.100160323	1.107350E+02	  0.100160323	1.760000E+00	  0.100160323	3.450500E+01
402	  0.100360721	-4.070000E-01	  0.100360721	1.103830E+02	  0.100360721	1.739000E+00	  0.100360721	3.473300E+01
403	  0.100561127	-4.090000E-01	  0.100561127	1.100370E+02	  0.100561127	1.756000E+00	  0.100561127	3.495600E+01
404	  0.100761525	-4.020000E-01	  0.100761525	1.097160E+02	  0.100761525	1.731000E+00	  0.100761525	3.516600E+01
405	  0.100961931	-4.000000E-01	  0.100961931	1.094060E+02	  0.100961931	1.729000E+00	  0.100961931	3.536900E+01
406	  0.101162329	-4.020000E-01	  0.101162329	1.091070E+02	  0.101162329	1.746000E+00	  0.101162329	3.556500E+01
407	  0.101362728	-3.960000E-01	  0.101362728	1.088020E+02	  0.101362728	1.724000E+00	  0.101362728	3.576600E+01
408	  0.101563133	-3.920000E-01	  0.101563133	1.085270E+02	  0.101563133	1.712000E+00	  0.101563133	3.594800E+01
409	  0.101763532	-3.990000E-01	  0.101763532	1.082350E+02	  0.101763532	1.749000E+00	  0.101763532	3.614100E+01
410	  0.101963930	-3.950000E-01	  0.101963930	1.079610E+02	  0.101963930	1.737000E+00	  0.101963930	3.632400E+01
411	  0.102164336	-3.990000E-01	  0.102164336	1.076570E+02	  0.102164336	1.763000E+00	  0.102164336	3.652600E+01
412	  0.102364734	-3.930000E-01	  0.102364734	1.073820E+02	  0.102364734	1.744000E+00	  0.102364734	3.671100E+01
413	  0.102565132	-3.960000E-01	  0.102565132	1.070970E+02	  0.102565132	1.763000E+00	  0.102565132	3.690200E+01
414	  0.102765530	-3.880000E-01	  0.102765530	1.067930E+02	  0.102765530	1.733000E+00	  0.102765530	3.710900E+01
415	  0.102965929	-3.930000E-01	  0.102965929	1.064640E+02	  0.102965929	1.764000E+00	  0.102965929	3.733100E+01
416	  0.103166327	-3.830000E-01	  0.103166327	1.061840E+02	  0.103166327	1.724000E+00	  0.103166327	3.752300E+01
417	  0.103366733	-3.880000E-01	  0.103366733	1.058440E+02	  0.103366733	1.755000E+00	  0.103366733	3.775400E+01
418	  0.103567131	-3.820000E-01	  0.103567131	1.055360E+02	  0.103567131	1.737000E+00	  0.103567131	3.796600E+01
419	  0.103767529	-3.900000E-01	  0.103767529	1.052200E+02	  0.103767529	1.780000E+00	  0.103767529	3.818300E+01
420	  0.103967935	-3.860000E-01	  0.103967935	1.049110E+02	  0.103967935	1.770000E+00	  0.103967935	3.839700E+01
421	  0.104168333	-3.930000E-01	  0.104168333	1.045510E+02	  0.104168333	1.811000E+00	  0.104168333	3.864600E+01
422	  0.104368731	-3.930000E-01	  0.104368731	1.042380E+02	  0.104368731	1.818000E+00	  0.104368731	3.886400E+01
423	  0.104569137	-3.890000E-01	  0.104569137	1.038870E+02	  0.104569137	1.806000E+00	  0.104569137	3.911100E+01
424	  0.104769535	-3.890000E-01	  0.104769535	1.035430E+02	  0.104769535	1.814000E+00	  0.104769535	3.935300E+01
425	  0.104969934	-3.940000E-01	  0.104969934	1.032240E+02	  0.104969934	1.847000E+00	  0.104969934	3.957900E+01
426	  0.105170339	-3.990000E-01	  0.105170339	1.028630E+02	  0.105170339	1.881000E+00	  0.105170339	3.983400E+01
427	  0.105370738	-3.950000E-01	  0.105370738	1.024860E+02	  0.105370738	1.871000E+00	  0.105370738	4.010400E+01
428	  0.105571143	-4.030000E-01	  0.105571143	1.021560E+02	  0.105571143	1.919000E+00	  0.105571143	4.034000E+01
429	  0.105771542	-4.050000E-01	  0.105771542	1.018080E+02	  0.105771542	1.938000E+00	  0.105771542	4.059000E+01
430	  0.105971940	-4.030000E-01	  0.105971940	1.014860E+02	  0.105971940	1.934000E+00	  0.105971940	4.082500E+01
431	  0.106172346	-4.100000E-01	  0.106172346	1.011240E+02	  0.106172346	1.981000E+00	  0.106172346	4.108600E+01
432	  0.106372744	-4.020000E-01	  0.106372744	1.008300E+02	  0.106372744	1.947000E+00	  0.106372744	4.130400E+01
433	  0.106573142	-4.120000E-01	  0.106573142	1.004930E+02	  0.106573142	2.008000E+00	  0.106573142	4.154900E+01
434	  0.106773548	-4.070000E-01	  0.106773548	1.001910E+02	  0.106773548	1.992000E+00	  0.106773548	4.177300E+01
435	  0.106973946	-4.140000E-01	  0.106973946	9.990900E+01	  0.106973946	2.034000E+00	  0.106973946	4.198100E+01
436	  0.107174344	-4.200000E-01	  0.107174344	9.960900E+01	  0.107174344	2.072000E+00	  0.107174344	4.220300E+01
437	  0.107374750	-4.110000E-01	  0.107374750	9.931200E+01	  0.107374750	2.036000E+00	  0.107374750	4.242800E+01
438	  0.107575148	-4.040000E-01	  0.107575148	9.907200E+01	  0.107575148	2.010000E+00	  0.107575148	4.260900E+01
439	  0.107775547	-4.080000E-01	  0.107775547	9.875300E+01	  0.107775547	2.038000E+00	  0.107775547	4.284900E+01
440	  0.107975952	-4.030000E-01	  0.107975952	9.849600E+01	  0.107975952	2.022000E+00	  0.107975952	4.304400E+01
441	  0.108176351	-4.000000E-01	  0.108176351	9.819900E+01	  0.108176351	2.017000E+00	  0.108176351	4.327100E+01
442	  0.108376749	-4.030000E-01	  0.108376749	9.790900E+01	  0.108376749	2.040000E+00	  0.108376749	4.349200E+01
443	  0.108577155	-3.980000E-01	  0.108577155	9.759600E+01	  0.108577155	2.023000E+00	  0.108577155	4.373300E+01
444	  0.108777553	-3.980000E-01	  0.108777553	9.730800E+01	  0.108777553	2.032000E+00	  0.108777553	4.395500E+01
445	  0.108977959	-3.900000E-01	  0.108977959	9.700300E+01	  0.108977959	2.003000E+00	  0.108977959	4.419300E+01
446	  0.109178357	-3.900000E-01	  0.109178357	9.676000E+01	  0.109178357	2.010000E+00	  0.109178357	4.438200E+01
447	  0.109378755	-3.800000E-01	  0.109378755	9.641400E+01	  0.109378755	1.970000E+00	  0.109378755	4.465500E+01
448	  0.109579161	-3.820000E-01	  0.109579161	9.610200E+01	  0.109579161	1.989000E+00	  0.109579161	4.489900E+01
449	  0.109779559	-3.840000E-01	  0.109779559	9.580600E+01	  0.109779559	2.006000E+00	  0.109779559	4.513300E+01
450	  0.109979957	-3.840000E-01	  0.109979957	9.549300E+01	  0.109979957	2.017000E+00	  0.109979957	4.538100E+01
451	  0.110180363	-3.800000E-01	  0.110180363	9.515700E+01	  0.110180363	2.010000E+00	  0.110180363	4.565000E+01
452	  0.110380761	-3.820000E-01	  0.110380761	9.483300E+01	  0.110380761	2.031000E+00	  0.110380761	4.590900E+01
453	  0.110581160	-3.870000E-01	  0.110581160	9.447700E+01	  0.110581160	2.069000E+00	  0.110581160	4.619400E+01
454	  0.110781565	-3.880000E-01	  0.110781565	9.415800E+01	  0.110781565	2.081000E+00	  0.110781565	4.645300E+01
455	  0.110981964	-3.840000E-01	  0.110981964	9.381800E+01	  0.110981964	2.076000E+00	  0.110981964	4.673000E+01
456	  0.111182362	-3.900000E-01	  0.111182362	9.348100E+01	  0.111182362	2.118000E+00	  0.111182362	4.700500E+01
457	  0.111382768	-3.900000E-01	  0.111382768	9.318200E+01	  0.111382768	2.128000E+00	  0.111382768	4.725100E+01
458	  0.111583166	-3.950000E-01	  0.111583166	9.287000E+01	  0.111583166	2.164000E+00	  0.111583166	4.750800E+01
459	  0.111783572	-3.950000E-01	  0.111783572	9.252500E+01	  0.111783572	2.181000E+00	  0.111783572	4.779500E+01
460	  0.111983970	-4.040000E-01	  0.111983970	9.221600E+01	  0.111983970	2.239000E+00	  0.111983970	4.805200E+01
461	  0.112184368	-4.050000E-01	  0.112184368	9.188500E+01	  0.112184368	2.256000E+00	  0.112184368	4.833000E+01
462	  0.112384774	-4.150000E-01	  0.112384774	9.160300E+01	  0.112384774	2.324000E+00	  0.112384774	4.856600E+01
463	  0.112585172	-4.040000E-01	  0.112585172	9.128400E+01	  0.112585172	2.277000E+00	  0.112585172	4.883900E+01
464	  0.112785570	-4.100000E-01	  0.112785570	9.103500E+01	  0.112785570	2.317000E+00	  0.112785570	4.905000E+01
465	  0.112985976	-4.090000E-01	  0.112985976	9.068800E+01	  0.112985976	2.328000E+00	  0.112985976	4.934800E+01
466	  0.113186374	-4.170000E-01	  0.113186374	9.036200E+01	  0.113186374	2.387000E+00	  0.113186374	4.962700E+01
467	  0.113386773	-4.140000E-01	  0.113386773	9.010700E+01	  0.113386773	2.378000E+00	  0.113386773	4.984900E+01
468	  0.113587178	-4.170000E-01	  0.113587178	8.976600E+01	  0.113587178	2.410000E+00	  0.113587178	5.014500E+01
469	  0.113787577	-4.140000E-01	  0.113787577	8.948600E+01	  0.113787577	2.403000E+00	  0.113787577	5.039200E+01
470	  0.113987975	-4.160000E-01	  0.113987975	8.920300E+01	  0.113987975	2.429000E+00	  0.113987975	5.064100E+01
471	  0.114188381	-4.120000E-01	  0.114188381	8.891200E+01	  0.114188381	2.420000E+00	  0.114188381	5.089900E+01
472	  0.114388779	-4.120000E-01	  0.114388779	8.859000E+01	  0.114388779	2.432000E+00	  0.114388779	5.118600E+01
473	  0.114589177	-4.090000E-01	  0.114589177	8.825800E+01	  0.114589177	2.427000E+00	  0.114589177	5.148400E+01
474	  0.114789583	-4.100000E-01	  0.114789583	8.798700E+01	  0.114789583	2.445000E+00	  0.114789583	5.172800E+01
475	  0.114989981	-4.020000E-01	  0.114989981	8.767000E+01	  0.114989981	2.414000E+00	  0.114989981	5.201600E+01
476	  0.115190387	-3.990000E-01	  0.115190387	8.735700E+01	  0.115190387	2.407000E+00	  0.115190387	5.230300E+01
477	  0.115390785	-3.950000E-01	  0.115390785	8.706200E+01	  0.115390785	2.396000E+00	  0.115390785	5.257300E+01
478	  0.115591183	-4.000000E-01	  0.115591183	8.674500E+01	  0.115591183	2.443000E+00	  0.115591183	5.286400E+01
479	  0.115791589	-3.910000E-01	  0.115791589	8.645600E+01	  0.115791589	2.398000E+00	  0.115791589	5.313400E+01
480	  0.115991987	-3.920000E-01	  0.115991987	8.610400E+01	  0.115991987	2.425000E+00	  0.115991987	5.346100E+01
481	  0.116192386	-3.880000E-01	  0.116192386	8.582800E+01	  0.116192386	2.410000E+00	  0.116192386	5.372200E+01
482	  0.116392791	-3.940000E-01	  0.116392791	8.552500E+01	  0.116392791	2.458000E+00	  0.116392791	5.400400E+01
483	  0.116593190	-3.850000E-01	  0.116593190	8.523100E+01	  0.116593190	2.419000E+00	  0.116593190	5.428600E+01
484	  0.116793588	-3.890000E-01	  0.116793588	8.491600E+01	  0.116793588	2.459000E+00	  0.116793588	5.458500E+01
485	  0.116993994	-3.890000E-01	  0.116993994	8.464200E+01	  0.116993994	2.471000E+00	  0.116993994	5.484700E+01
486	  0.117194392	-3.910000E-01	  0.117194392	8.435300E+01	  0.117194392	2.495000E+00	  0.117194392	5.512500E+01
487	  0.117394790	-3.950000E-01	  0.117394790	8.404200E+01	  0.117394790	2.538000E+00	  0.117394790	5.542500E+01
488	  0.117595196	-3.930000E-01	  0.117595196	8.377200E+01	  0.117595196	2.540000E+00	  0.117595196	5.568800E+01
489	  0.117795594	-3.890000E-01	  0.117795594	8.348800E+01	  0.117795594	2.526000E+00	  0.117795594	5.596700E+01
490	  0.117995992	-3.940000E-01	  0.117995992	8.319700E+01	  0.117995992	2.574000E+00	  0.117995992	5.625300E+01
491	  0.118196398	-3.940000E-01	  0.118196398	8.289400E+01	  0.118196398	2.592000E+00	  0.118196398	5.655200E+01
492	  0.118396796	-3.980000E-01	  0.118396796	8.264400E+01	  0.118396796	2.628000E+00	  0.118396796	5.680000E+01
493	  0.118597202	-4.010000E-01	  0.118597202	8.237000E+01	  0.118597202	2.664000E+00	  0.118597202	5.707400E+01
494	  0.118797600	-4.010000E-01	  0.118797600	8.208900E+01	  0.118797600	2.677000E+00	  0.118797600	5.735700E+01
495	  0.118997999	-4.050000E-01	  0.118997999	8.178200E+01	  0.118997999	2.718000E+00	  0.118997999	5.766500E+01
496	  0.119198404	-4.100000E-01	  0.119198404	8.147700E+01	  0.119198404	2.768000E+00	  0.119198404	5.797400E+01
497	  0.119398803	-4.140000E-01	  0.119398803	8.119900E+01	  0.119398803	2.812000E+00	  0.119398803	5.825800E+01
498	  0.119599201	-4.130000E-01	  0.119599201	8.090100E+01	  0.119599201	2.824000E+00	  0.119599201	5.856600E+01
499	  0.119799607	-4.130000E-01	  0.119799607	8.061800E+01	  0.119799607	2.841000E+00	  0.119799607	5.885800E+01
500	  0.120000005	-4.120000E-01	  0.120000005	8.027600E+01	  0.120000005	2.853000E+00	  0.120000005	5.921600E+01
