! Anritsu VNA Master:             	Model: MS2036C/10/77
! SN:             	1601066
! /card0/usr/18may27.balun/5a..m.txt
! Existing Calibration Information:
! TYPE:             	Current Settings	Active Cal Settings
! TIME:             	05/27/2018 04:45:32 PM	05/27/2018 04:42:15 PM
! INTERNAL TEMP:    	52.3 C	52.0 C
! # POINTS:         	500	500
! START FREQ:       	20.000 MHz	20.000 MHz
! STOP FREQ:        	120.000 MHz	120.000 MHz
! SOURCE POWER:     	High	High
! IFBW:             	50 Hz	50 Hz
! AVG FACTOR:       	  1 	  1 
! REF PLANE 1:      	0 mm	0 mm
! REF PLANE 2:      	0 mm	0 mm
! CAL TYPE:         	Full S11	Full S11
! CAL METHOD:       	SOLT	SOLT
! CAL LINE TYPE:    	Coax	Coax
! DUT PORT 1:       	K-Conn(M)	K-Conn(M)
! DUT PORT 2:       	K-Conn(M)	K-Conn(M)
! CAL STATUS:       	OK: Accuracy High	--
! PROP-V:       	0.700
! CABLE LOSS:       	0.000 dB/m
! REF IMPEDANCE:       	50.0
! Trace Specific Parameters:	TR1	TR2	TR3	TR4
! TRACE.#.Y (GRAPH TYPE)	LOG MAG	PHASE	REAL IMPEDANCE	IMAGINARY IMPEDANCE
! TRACE.#.X 	FREQ.GHZ	FREQ.GHZ	FREQ.GHZ	FREQ.GHZ
! S-PARAMETER	S11	S11	S11	S11
! SMOOTH/APERTURE %	0	0	0	0
! WINDOW	NSL	NSL	NSL	NSL
! GATING	OFF	OFF	OFF	OFF
! FGTD	OFF	OFF	OFF	OFF
Marker Information per Trace:	TR1	TR2	TR3	TR4
!MK1	--	--	--	"MK1 TR4:  70.100 200 MHz,Z:(16.460 ohm, 0.004 ohm)"
!MK2	--	--	--	--
!MK3	--	--	--	--
!MK4	--	--	--	--
!MK5	--	--	--	--
!MK6	--	--	--	--
!MK7	--	--	--	--
!MK8	--	--	--	--
PNT	TR1.FREQ.GHZ	TR1.LOG MAG.dB	TR2.FREQ.GHZ	TR2.PHASE.deg	TR3.FREQ.GHZ	TR3.REAL IMPEDANCE.ohm	TR4.FREQ.GHZ	TR4.IMAGINARY IMPEDANCE.ohm
1	  0.020000000	-6.830000E-01	  0.020000000	-1.261880E+02	  0.020000000	2.472000E+00	  0.020000000	-2.532300E+01
2	  0.020200402	-6.810000E-01	  0.020200402	-1.276450E+02	  0.020200402	2.434000E+00	  0.020200402	-2.453100E+01
3	  0.020400802	-6.790000E-01	  0.020400802	-1.290910E+02	  0.020400802	2.397000E+00	  0.020400802	-2.375500E+01
4	  0.020601204	-6.790000E-01	  0.020601204	-1.305180E+02	  0.020601204	2.368000E+00	  0.020601204	-2.299800E+01
5	  0.020801604	-6.830000E-01	  0.020801604	-1.319960E+02	  0.020801604	2.355000E+00	  0.020801604	-2.222200E+01
6	  0.021002004	-6.910000E-01	  0.021002004	-1.334950E+02	  0.021002004	2.356000E+00	  0.021002004	-2.144300E+01
7	  0.021202406	-6.970000E-01	  0.021202406	-1.350100E+02	  0.021202406	2.348000E+00	  0.021202406	-2.066600E+01
8	  0.021402806	-7.040000E-01	  0.021402806	-1.365190E+02	  0.021402806	2.348000E+00	  0.021402806	-1.989900E+01
9	  0.021603208	-7.070000E-01	  0.021603208	-1.380410E+02	  0.021603208	2.335000E+00	  0.021603208	-1.913600E+01
10	  0.021803608	-7.150000E-01	  0.021803608	-1.395640E+02	  0.021803608	2.338000E+00	  0.021803608	-1.837800E+01
11	  0.022004008	-7.170000E-01	  0.022004008	-1.410910E+02	  0.022004008	2.321000E+00	  0.022004008	-1.762600E+01
12	  0.022204408	-7.240000E-01	  0.022204408	-1.426620E+02	  0.022204408	2.322000E+00	  0.022204408	-1.686000E+01
13	  0.022404809	-7.240000E-01	  0.022404809	-1.442220E+02	  0.022404809	2.301000E+00	  0.022404809	-1.610700E+01
14	  0.022605211	-7.270000E-01	  0.022605211	-1.457840E+02	  0.022605211	2.290000E+00	  0.022605211	-1.535900E+01
15	  0.022805611	-7.280000E-01	  0.022805611	-1.473100E+02	  0.022805611	2.274000E+00	  0.022805611	-1.463500E+01
16	  0.023006011	-7.310000E-01	  0.023006011	-1.488330E+02	  0.023006011	2.267000E+00	  0.023006011	-1.391800E+01
17	  0.023206413	-7.370000E-01	  0.023206413	-1.503860E+02	  0.023206413	2.269000E+00	  0.023206413	-1.319100E+01
18	  0.023406813	-7.480000E-01	  0.023406813	-1.519460E+02	  0.023406813	2.286000E+00	  0.023406813	-1.246600E+01
19	  0.023607215	-7.550000E-01	  0.023607215	-1.535230E+02	  0.023607215	2.292000E+00	  0.023607215	-1.173900E+01
20	  0.023807615	-7.620000E-01	  0.023807615	-1.550750E+02	  0.023807615	2.301000E+00	  0.023807615	-1.102700E+01
21	  0.024008015	-7.730000E-01	  0.024008015	-1.566540E+02	  0.024008015	2.319000E+00	  0.024008015	-1.030800E+01
22	  0.024208417	-7.820000E-01	  0.024208417	-1.582260E+02	  0.024208417	2.333000E+00	  0.024208417	-9.596000E+00
23	  0.024408817	-7.950000E-01	  0.024408817	-1.598290E+02	  0.024408817	2.359000E+00	  0.024408817	-8.873000E+00
24	  0.024609219	-8.080000E-01	  0.024609219	-1.614470E+02	  0.024609219	2.388000E+00	  0.024609219	-8.148000E+00
25	  0.024809619	-8.160000E-01	  0.024809619	-1.630950E+02	  0.024809619	2.401000E+00	  0.024809619	-7.412000E+00
26	  0.025010020	-8.240000E-01	  0.025010020	-1.647370E+02	  0.025010020	2.413000E+00	  0.025010020	-6.683000E+00
27	  0.025210422	-8.340000E-01	  0.025210422	-1.663810E+02	  0.025210422	2.435000E+00	  0.025210422	-5.956000E+00
28	  0.025410822	-8.450000E-01	  0.025410822	-1.680410E+02	  0.025410822	2.458000E+00	  0.025410822	-5.224000E+00
29	  0.025611224	-8.550000E-01	  0.025611224	-1.697130E+02	  0.025611224	2.481000E+00	  0.025611224	-4.489000E+00
30	  0.025811624	-8.680000E-01	  0.025811624	-1.714030E+02	  0.025811624	2.511000E+00	  0.025811624	-3.748000E+00
31	  0.026012026	-8.790000E-01	  0.026012026	-1.731010E+02	  0.026012026	2.537000E+00	  0.026012026	-3.006000E+00
32	  0.026212426	-8.950000E-01	  0.026212426	-1.748160E+02	  0.026212426	2.581000E+00	  0.026212426	-2.257000E+00
33	  0.026412826	-9.120000E-01	  0.026412826	-1.765360E+02	  0.026412826	2.626000E+00	  0.026412826	-1.507000E+00
34	  0.026613226	-9.310000E-01	  0.026613226	-1.782670E+02	  0.026613226	2.680000E+00	  0.026613226	-7.530000E-01
35	  0.026813626	-9.490000E-01	  0.026813626	1.799930E+02	  0.026813626	2.729000E+00	  0.026813626	2.000000E-03
36	  0.027014028	-9.650000E-01	  0.027014028	1.782580E+02	  0.027014028	2.777000E+00	  0.027014028	7.570000E-01
37	  0.027214428	-9.800000E-01	  0.027214428	1.765350E+02	  0.027214428	2.822000E+00	  0.027214428	1.507000E+00
38	  0.027414829	-9.980000E-01	  0.027414829	1.748030E+02	  0.027414829	2.876000E+00	  0.027414829	2.261000E+00
39	  0.027615231	-1.015000E+00	  0.027615231	1.730650E+02	  0.027615231	2.928000E+00	  0.027615231	3.018000E+00
40	  0.027815631	-1.037000E+00	  0.027815631	1.713040E+02	  0.027815631	3.000000E+00	  0.027815631	3.787000E+00
41	  0.028016033	-1.058000E+00	  0.028016033	1.695340E+02	  0.028016033	3.069000E+00	  0.028016033	4.562000E+00
42	  0.028216433	-1.080000E+00	  0.028216433	1.677460E+02	  0.028216433	3.142000E+00	  0.028216433	5.345000E+00
43	  0.028416833	-1.104000E+00	  0.028416833	1.659690E+02	  0.028416833	3.222000E+00	  0.028416833	6.127000E+00
44	  0.028617235	-1.128000E+00	  0.028617235	1.641900E+02	  0.028617235	3.305000E+00	  0.028617235	6.912000E+00
45	  0.028817635	-1.156000E+00	  0.028817635	1.623920E+02	  0.028817635	3.403000E+00	  0.028817635	7.708000E+00
46	  0.029018037	-1.184000E+00	  0.029018037	1.605680E+02	  0.029018037	3.501000E+00	  0.029018037	8.519000E+00
47	  0.029218437	-1.210000E+00	  0.029218437	1.587210E+02	  0.029218437	3.601000E+00	  0.029218437	9.345000E+00
48	  0.029418837	-1.236000E+00	  0.029418837	1.568790E+02	  0.029418837	3.701000E+00	  0.029418837	1.017300E+01
49	  0.029619239	-1.260000E+00	  0.029619239	1.550620E+02	  0.029619239	3.798000E+00	  0.029619239	1.099500E+01
50	  0.029819639	-1.286000E+00	  0.029819639	1.532350E+02	  0.029819639	3.904000E+00	  0.029819639	1.182600E+01
51	  0.030020041	-1.314000E+00	  0.030020041	1.514100E+02	  0.030020041	4.020000E+00	  0.030020041	1.266200E+01
52	  0.030220442	-1.345000E+00	  0.030220442	1.495720E+02	  0.030220442	4.149000E+00	  0.030220442	1.351000E+01
53	  0.030420844	-1.382000E+00	  0.030420844	1.477050E+02	  0.030420844	4.300000E+00	  0.030420844	1.437700E+01
54	  0.030621244	-1.425000E+00	  0.030621244	1.458010E+02	  0.030621244	4.477000E+00	  0.030621244	1.526800E+01
55	  0.030821644	-1.463000E+00	  0.030821644	1.438600E+02	  0.030821644	4.644000E+00	  0.030821644	1.618500E+01
56	  0.031022044	-1.497000E+00	  0.031022044	1.418870E+02	  0.031022044	4.809000E+00	  0.031022044	1.712800E+01
57	  0.031222444	-1.527000E+00	  0.031222444	1.398990E+02	  0.031222444	4.964000E+00	  0.031222444	1.808900E+01
58	  0.031422846	-1.557000E+00	  0.031422846	1.379150E+02	  0.031422846	5.126000E+00	  0.031422846	1.905900E+01
59	  0.031623244	-1.589000E+00	  0.031623244	1.359590E+02	  0.031623244	5.302000E+00	  0.031623244	2.002600E+01
60	  0.031823646	-1.614000E+00	  0.031823646	1.339860E+02	  0.031823646	5.461000E+00	  0.031823646	2.101500E+01
61	  0.032024048	-1.639000E+00	  0.032024048	1.320510E+02	  0.032024048	5.626000E+00	  0.032024048	2.199900E+01
62	  0.032224450	-1.670000E+00	  0.032224450	1.301320E+02	  0.032224450	5.816000E+00	  0.032224450	2.298500E+01
63	  0.032424849	-1.703000E+00	  0.032424849	1.282020E+02	  0.032424849	6.025000E+00	  0.032424849	2.399100E+01
64	  0.032625251	-1.741000E+00	  0.032625251	1.262760E+02	  0.032625251	6.261000E+00	  0.032625251	2.500700E+01
65	  0.032825653	-1.782000E+00	  0.032825653	1.243640E+02	  0.032825653	6.516000E+00	  0.032825653	2.603000E+01
66	  0.033026051	-1.830000E+00	  0.033026051	1.223940E+02	  0.033026051	6.811000E+00	  0.033026051	2.709700E+01
67	  0.033226453	-1.878000E+00	  0.033226453	1.204340E+02	  0.033226453	7.122000E+00	  0.033226453	2.817600E+01
68	  0.033426855	-1.929000E+00	  0.033426855	1.184530E+02	  0.033426855	7.457000E+00	  0.033426855	2.928300E+01
69	  0.033627257	-1.977000E+00	  0.033627257	1.164190E+02	  0.033627257	7.804000E+00	  0.033627257	3.044100E+01
70	  0.033827655	-2.026000E+00	  0.033827655	1.143870E+02	  0.033827655	8.171000E+00	  0.033827655	3.161800E+01
71	  0.034028057	-2.078000E+00	  0.034028057	1.123230E+02	  0.034028057	8.574000E+00	  0.034028057	3.283500E+01
72	  0.034228459	-2.128000E+00	  0.034228459	1.102460E+02	  0.034228459	8.993000E+00	  0.034228459	3.408600E+01
73	  0.034428857	-2.180000E+00	  0.034428857	1.081620E+02	  0.034428857	9.442000E+00	  0.034428857	3.536400E+01
74	  0.034629259	-2.222000E+00	  0.034629259	1.060740E+02	  0.034629259	9.873000E+00	  0.034629259	3.668100E+01
75	  0.034829661	-2.266000E+00	  0.034829661	1.040370E+02	  0.034829661	1.033300E+01	  0.034829661	3.799100E+01
76	  0.035030060	-2.304000E+00	  0.035030060	1.019840E+02	  0.035030060	1.079900E+01	  0.035030060	3.934600E+01
77	  0.035230462	-2.356000E+00	  0.035230462	9.999500E+01	  0.035230462	1.134200E+01	  0.035230462	4.067500E+01
78	  0.035430863	-2.413000E+00	  0.035430863	9.797400E+01	  0.035430863	1.194900E+01	  0.035430863	4.204900E+01
79	  0.035631265	-2.476000E+00	  0.035631265	9.595900E+01	  0.035631265	1.262000E+01	  0.035631265	4.344200E+01
80	  0.035831664	-2.539000E+00	  0.035831664	9.387300E+01	  0.035831664	1.335300E+01	  0.035831664	4.491700E+01
81	  0.036032066	-2.607000E+00	  0.036032066	9.174900E+01	  0.036032066	1.415900E+01	  0.036032066	4.645000E+01
82	  0.036232468	-2.670000E+00	  0.036232468	8.959300E+01	  0.036232468	1.500500E+01	  0.036232468	4.805100E+01
83	  0.036432866	-2.732000E+00	  0.036432866	8.741100E+01	  0.036432866	1.591600E+01	  0.036432866	4.971300E+01
84	  0.036633268	-2.788000E+00	  0.036633268	8.521500E+01	  0.036633268	1.685800E+01	  0.036633268	5.144200E+01
85	  0.036833670	-2.841000E+00	  0.036833670	8.305000E+01	  0.036833670	1.784600E+01	  0.036833670	5.319600E+01
86	  0.037034072	-2.893000E+00	  0.037034072	8.085000E+01	  0.037034072	1.891500E+01	  0.037034072	5.503200E+01
87	  0.037234470	-2.944000E+00	  0.037234470	7.871900E+01	  0.037234470	2.003000E+01	  0.037234470	5.685800E+01
88	  0.037434869	-2.993000E+00	  0.037434869	7.661600E+01	  0.037434869	2.121400E+01	  0.037434869	5.871000E+01
89	  0.037635271	-3.047000E+00	  0.037635271	7.452000E+01	  0.037635271	2.251200E+01	  0.037635271	6.059000E+01
90	  0.037835669	-3.101000E+00	  0.037835669	7.243000E+01	  0.037835669	2.391000E+01	  0.037835669	6.251100E+01
91	  0.038036071	-3.161000E+00	  0.038036071	7.032700E+01	  0.038036071	2.547100E+01	  0.038036071	6.446600E+01
92	  0.038236473	-3.223000E+00	  0.038236473	6.823600E+01	  0.038236473	2.716500E+01	  0.038236473	6.644200E+01
93	  0.038436871	-3.293000E+00	  0.038436871	6.611900E+01	  0.038436871	2.906800E+01	  0.038436871	6.845100E+01
94	  0.038637273	-3.361000E+00	  0.038637273	6.396600E+01	  0.038637273	3.114500E+01	  0.038637273	7.053700E+01
95	  0.038837675	-3.435000E+00	  0.038837675	6.178600E+01	  0.038837675	3.346300E+01	  0.038837675	7.264800E+01
96	  0.039038073	-3.505000E+00	  0.039038073	5.956500E+01	  0.039038073	3.599300E+01	  0.039038073	7.484200E+01
97	  0.039238475	-3.568000E+00	  0.039238475	5.733300E+01	  0.039238475	3.870400E+01	  0.039238475	7.710900E+01
98	  0.039438877	-3.628000E+00	  0.039438877	5.510000E+01	  0.039438877	4.163300E+01	  0.039438877	7.941400E+01
99	  0.039639279	-3.682000E+00	  0.039639279	5.291900E+01	  0.039639279	4.472500E+01	  0.039639279	8.169200E+01
100	  0.039839678	-3.732000E+00	  0.039839678	5.077900E+01	  0.039839678	4.800400E+01	  0.039839678	8.394700E+01
101	  0.040040080	-3.785000E+00	  0.040040080	4.868000E+01	  0.040040080	5.155200E+01	  0.040040080	8.608200E+01
102	  0.040240481	-3.842000E+00	  0.040240481	4.662100E+01	  0.040240481	5.536700E+01	  0.040240481	8.807100E+01
103	  0.040440880	-3.906000E+00	  0.040440880	4.453100E+01	  0.040440880	5.962300E+01	  0.040440880	8.991600E+01
104	  0.040641282	-3.972000E+00	  0.040641282	4.243700E+01	  0.040641282	6.426200E+01	  0.040641282	9.157500E+01
105	  0.040841684	-4.040000E+00	  0.040841684	4.033100E+01	  0.040841684	6.930200E+01	  0.040841684	9.303100E+01
106	  0.041042086	-4.106000E+00	  0.041042086	3.824100E+01	  0.041042086	7.468100E+01	  0.041042086	9.422800E+01
107	  0.041242484	-4.170000E+00	  0.041242484	3.611800E+01	  0.041242484	8.053200E+01	  0.041242484	9.515600E+01
108	  0.041442886	-4.235000E+00	  0.041442886	3.401700E+01	  0.041442886	8.672600E+01	  0.041442886	9.566800E+01
109	  0.041643288	-4.300000E+00	  0.041643288	3.190700E+01	  0.041643288	9.334000E+01	  0.041643288	9.567700E+01
110	  0.041843686	-4.359000E+00	  0.041843686	2.978500E+01	  0.041843686	1.003420E+02	  0.041843686	9.525500E+01
111	  0.042044088	-4.419000E+00	  0.042044088	2.768000E+01	  0.042044088	1.076260E+02	  0.042044088	9.415300E+01
112	  0.042244490	-4.478000E+00	  0.042244490	2.557600E+01	  0.042244490	1.151740E+02	  0.042244490	9.229900E+01
113	  0.042444889	-4.538000E+00	  0.042444889	2.350100E+01	  0.042444889	1.227870E+02	  0.042444889	8.958500E+01
114	  0.042645290	-4.597000E+00	  0.042645290	2.140300E+01	  0.042645290	1.305320E+02	  0.042645290	8.592200E+01
115	  0.042845692	-4.658000E+00	  0.042845692	1.930900E+01	  0.042845692	1.381460E+02	  0.042845692	8.123100E+01
116	  0.043046094	-4.715000E+00	  0.043046094	1.720600E+01	  0.043046094	1.455560E+02	  0.043046094	7.553900E+01
117	  0.043246493	-4.774000E+00	  0.043246493	1.509700E+01	  0.043246493	1.525080E+02	  0.043246493	6.875600E+01
118	  0.043446895	-4.834000E+00	  0.043446895	1.295400E+01	  0.043446895	1.588520E+02	  0.043446895	6.079500E+01
119	  0.043647297	-4.894000E+00	  0.043647297	1.082900E+01	  0.043647297	1.641970E+02	  0.043647297	5.195800E+01
120	  0.043847695	-4.954000E+00	  0.043847695	8.702000E+00	  0.043847695	1.684410E+02	  0.043847695	4.234600E+01
121	  0.044048097	-5.008000E+00	  0.044048097	6.571000E+00	  0.044048097	1.716080E+02	  0.044048097	3.224500E+01
122	  0.044248499	-5.061000E+00	  0.044248499	4.433000E+00	  0.044248499	1.734600E+02	  0.044248499	2.175700E+01
123	  0.044448901	-5.106000E+00	  0.044448901	2.290000E+00	  0.044448901	1.741820E+02	  0.044448901	1.118400E+01
124	  0.044649299	-5.156000E+00	  0.044649299	1.720000E-01	  0.044649299	1.733700E+02	  0.044649299	8.280000E-01
125	  0.044849701	-5.198000E+00	  0.044849701	-1.898000E+00	  0.044849701	1.715420E+02	  0.044849701	-8.952000E+00
126	  0.045050103	-5.244000E+00	  0.045050103	-3.962000E+00	  0.045050103	1.684760E+02	  0.045050103	-1.815700E+01
127	  0.045250501	-5.285000E+00	  0.045250501	-6.021000E+00	  0.045250501	1.646290E+02	  0.045250501	-2.670400E+01
128	  0.045450903	-5.327000E+00	  0.045450903	-8.045000E+00	  0.045450903	1.600130E+02	  0.045450903	-3.432200E+01
129	  0.045651305	-5.368000E+00	  0.045651305	-1.006100E+01	  0.045651305	1.548250E+02	  0.045651305	-4.109100E+01
130	  0.045851704	-5.408000E+00	  0.045851704	-1.205500E+01	  0.045851704	1.493100E+02	  0.045851704	-4.698800E+01
131	  0.046052106	-5.444000E+00	  0.046052106	-1.401300E+01	  0.046052106	1.436540E+02	  0.046052106	-5.201700E+01
132	  0.046252504	-5.481000E+00	  0.046252504	-1.595300E+01	  0.046252504	1.378850E+02	  0.046252504	-5.624600E+01
133	  0.046452906	-5.519000E+00	  0.046452906	-1.785000E+01	  0.046452906	1.321540E+02	  0.046452906	-5.965200E+01
134	  0.046653304	-5.555000E+00	  0.046653304	-1.970200E+01	  0.046653304	1.266070E+02	  0.046653304	-6.238700E+01
135	  0.046853706	-5.597000E+00	  0.046853706	-2.156300E+01	  0.046853706	1.210770E+02	  0.046853706	-6.449000E+01
136	  0.047054108	-5.636000E+00	  0.047054108	-2.341700E+01	  0.047054108	1.157440E+02	  0.047054108	-6.614000E+01
137	  0.047254506	-5.677000E+00	  0.047254506	-2.527200E+01	  0.047254506	1.105800E+02	  0.047254506	-6.733100E+01
138	  0.047454908	-5.715000E+00	  0.047454908	-2.712800E+01	  0.047454908	1.056340E+02	  0.047454908	-6.817800E+01
139	  0.047655310	-5.757000E+00	  0.047655310	-2.897100E+01	  0.047655310	1.009200E+02	  0.047655310	-6.861600E+01
140	  0.047855709	-5.798000E+00	  0.047855709	-3.081100E+01	  0.047855709	9.644600E+01	  0.047855709	-6.877600E+01
141	  0.048056111	-5.844000E+00	  0.048056111	-3.266300E+01	  0.048056111	9.216900E+01	  0.048056111	-6.863400E+01
142	  0.048256513	-5.884000E+00	  0.048256513	-3.453600E+01	  0.048256513	8.808900E+01	  0.048256513	-6.836700E+01
143	  0.048456915	-5.923000E+00	  0.048456915	-3.641100E+01	  0.048456915	8.423400E+01	  0.048456915	-6.793300E+01
144	  0.048657313	-5.955000E+00	  0.048657313	-3.827600E+01	  0.048657313	8.061300E+01	  0.048657313	-6.741700E+01
145	  0.048857715	-5.988000E+00	  0.048857715	-4.014200E+01	  0.048857715	7.719500E+01	  0.048857715	-6.676300E+01
146	  0.049058117	-6.020000E+00	  0.049058117	-4.197400E+01	  0.049058117	7.402800E+01	  0.049058117	-6.601800E+01
147	  0.049258515	-6.043000E+00	  0.049258515	-4.378400E+01	  0.049258515	7.106000E+01	  0.049258515	-6.527500E+01
148	  0.049458917	-6.075000E+00	  0.049458917	-4.556300E+01	  0.049458917	6.832300E+01	  0.049458917	-6.437200E+01
149	  0.049659319	-6.101000E+00	  0.049659319	-4.734800E+01	  0.049659319	6.571800E+01	  0.049659319	-6.345600E+01
150	  0.049859721	-6.130000E+00	  0.049859721	-4.913800E+01	  0.049859721	6.325700E+01	  0.049859721	-6.246900E+01
151	  0.050060119	-6.157000E+00	  0.050060119	-5.092400E+01	  0.050060119	6.093600E+01	  0.050060119	-6.145500E+01
152	  0.050260521	-6.182000E+00	  0.050260521	-5.270200E+01	  0.050260521	5.874900E+01	  0.050260521	-6.042500E+01
153	  0.050460923	-6.199000E+00	  0.050460923	-5.443900E+01	  0.050460923	5.670600E+01	  0.050460923	-5.944900E+01
154	  0.050661322	-6.216000E+00	  0.050661322	-5.618400E+01	  0.050661322	5.476000E+01	  0.050661322	-5.844900E+01
155	  0.050861724	-6.225000E+00	  0.050861724	-5.791000E+01	  0.050861724	5.291100E+01	  0.050861724	-5.749300E+01
156	  0.051062126	-6.230000E+00	  0.051062126	-5.958600E+01	  0.051062126	5.119200E+01	  0.051062126	-5.656800E+01
157	  0.051262524	-6.236000E+00	  0.051262524	-6.120500E+01	  0.051262524	4.961300E+01	  0.051262524	-5.565400E+01
158	  0.051462926	-6.238000E+00	  0.051462926	-6.279900E+01	  0.051462926	4.812200E+01	  0.051462926	-5.475900E+01
159	  0.051663328	-6.246000E+00	  0.051663328	-6.435200E+01	  0.051663328	4.675500E+01	  0.051663328	-5.384300E+01
160	  0.051863730	-6.254000E+00	  0.051863730	-6.586800E+01	  0.051863730	4.548100E+01	  0.051863730	-5.294700E+01
161	  0.052064128	-6.260000E+00	  0.052064128	-6.738800E+01	  0.052064128	4.425200E+01	  0.052064128	-5.205500E+01
162	  0.052264530	-6.271000E+00	  0.052264530	-6.890300E+01	  0.052264530	4.310200E+01	  0.052264530	-5.113600E+01
163	  0.052464932	-6.282000E+00	  0.052464932	-7.042300E+01	  0.052464932	4.200000E+01	  0.052464932	-5.021800E+01
164	  0.052665330	-6.288000E+00	  0.052665330	-7.197500E+01	  0.052665330	4.090500E+01	  0.052665330	-4.930700E+01
165	  0.052865732	-6.298000E+00	  0.052865732	-7.347200E+01	  0.052865732	3.991300E+01	  0.052865732	-4.840800E+01
166	  0.053066134	-6.309000E+00	  0.053066134	-7.500500E+01	  0.053066134	3.894000E+01	  0.053066134	-4.749400E+01
167	  0.053266536	-6.312000E+00	  0.053266536	-7.656000E+01	  0.053266536	3.797000E+01	  0.053266536	-4.660400E+01
168	  0.053466935	-6.318000E+00	  0.053466935	-7.812300E+01	  0.053466935	3.704600E+01	  0.053466935	-4.570200E+01
169	  0.053667337	-6.313000E+00	  0.053667337	-7.969100E+01	  0.053667337	3.612100E+01	  0.053667337	-4.484200E+01
170	  0.053867739	-6.312000E+00	  0.053867739	-8.123300E+01	  0.053867739	3.526700E+01	  0.053867739	-4.398200E+01
171	  0.054068137	-6.305000E+00	  0.054068137	-8.277500E+01	  0.054068137	3.442200E+01	  0.054068137	-4.315200E+01
172	  0.054268539	-6.305000E+00	  0.054268539	-8.426600E+01	  0.054268539	3.366600E+01	  0.054268539	-4.232700E+01
173	  0.054468941	-6.301000E+00	  0.054468941	-8.577800E+01	  0.054468941	3.291400E+01	  0.054468941	-4.150900E+01
174	  0.054669339	-6.294000E+00	  0.054669339	-8.727200E+01	  0.054669339	3.219100E+01	  0.054669339	-4.071400E+01
175	  0.054869737	-6.294000E+00	  0.054869737	-8.877300E+01	  0.054869737	3.152000E+01	  0.054869737	-3.989800E+01
176	  0.055070139	-6.289000E+00	  0.055070139	-9.027100E+01	  0.055070139	3.085700E+01	  0.055070139	-3.910500E+01
177	  0.055270538	-6.285000E+00	  0.055270538	-9.178100E+01	  0.055270538	3.022000E+01	  0.055270538	-3.830800E+01
178	  0.055470940	-6.284000E+00	  0.055470940	-9.328000E+01	  0.055470940	2.962200E+01	  0.055470940	-3.751600E+01
179	  0.055671342	-6.279000E+00	  0.055671342	-9.476800E+01	  0.055671342	2.903900E+01	  0.055671342	-3.674400E+01
180	  0.055871744	-6.268000E+00	  0.055871744	-9.624700E+01	  0.055871744	2.846300E+01	  0.055871744	-3.599600E+01
181	  0.056072142	-6.260000E+00	  0.056072142	-9.772100E+01	  0.056072142	2.791700E+01	  0.056072142	-3.525000E+01
182	  0.056272544	-6.247000E+00	  0.056272544	-9.916600E+01	  0.056272544	2.738600E+01	  0.056272544	-3.453500E+01
183	  0.056472946	-6.234000E+00	  0.056472946	-1.005560E+02	  0.056472946	2.689200E+01	  0.056472946	-3.385100E+01
184	  0.056673344	-6.230000E+00	  0.056673344	-1.019380E+02	  0.056673344	2.644800E+01	  0.056673344	-3.315700E+01
185	  0.056873746	-6.220000E+00	  0.056873746	-1.032950E+02	  0.056873746	2.600800E+01	  0.056873746	-3.249200E+01
186	  0.057074148	-6.213000E+00	  0.057074148	-1.046030E+02	  0.057074148	2.560400E+01	  0.057074148	-3.185100E+01
187	  0.057274550	-6.208000E+00	  0.057274550	-1.059150E+02	  0.057274550	2.522200E+01	  0.057274550	-3.120700E+01
188	  0.057474948	-6.210000E+00	  0.057474948	-1.072450E+02	  0.057474948	2.486800E+01	  0.057474948	-3.054800E+01
189	  0.057675350	-6.209000E+00	  0.057675350	-1.085780E+02	  0.057675350	2.452000E+01	  0.057675350	-2.989700E+01
190	  0.057875752	-6.210000E+00	  0.057875752	-1.099240E+02	  0.057875752	2.418500E+01	  0.057875752	-2.924100E+01
191	  0.058076151	-6.212000E+00	  0.058076151	-1.112540E+02	  0.058076151	2.386700E+01	  0.058076151	-2.859900E+01
192	  0.058276553	-6.215000E+00	  0.058276553	-1.126150E+02	  0.058276553	2.355800E+01	  0.058276553	-2.794400E+01
193	  0.058476955	-6.211000E+00	  0.058476955	-1.139720E+02	  0.058476955	2.323900E+01	  0.058476955	-2.730700E+01
194	  0.058677353	-6.206000E+00	  0.058677353	-1.153260E+02	  0.058677353	2.293000E+01	  0.058677353	-2.667700E+01
195	  0.058877755	-6.199000E+00	  0.058877755	-1.166870E+02	  0.058877755	2.262300E+01	  0.058877755	-2.605000E+01
196	  0.059078157	-6.193000E+00	  0.059078157	-1.180180E+02	  0.059078157	2.233500E+01	  0.059078157	-2.544100E+01
197	  0.059278559	-6.186000E+00	  0.059278559	-1.193700E+02	  0.059278559	2.205000E+01	  0.059278559	-2.482800E+01
198	  0.059478957	-6.180000E+00	  0.059478957	-1.206620E+02	  0.059478957	2.178900E+01	  0.059478957	-2.424400E+01
199	  0.059679359	-6.172000E+00	  0.059679359	-1.219630E+02	  0.059679359	2.153100E+01	  0.059679359	-2.366200E+01
200	  0.059879761	-6.165000E+00	  0.059879761	-1.232610E+02	  0.059879761	2.128300E+01	  0.059879761	-2.308400E+01
201	  0.060080159	-6.157000E+00	  0.060080159	-1.245230E+02	  0.060080159	2.104800E+01	  0.060080159	-2.252500E+01
202	  0.060280561	-6.149000E+00	  0.060280561	-1.258400E+02	  0.060280561	2.081100E+01	  0.060280561	-2.194700E+01
203	  0.060480963	-6.139000E+00	  0.060480963	-1.271270E+02	  0.060480963	2.058000E+01	  0.060480963	-2.138600E+01
204	  0.060681365	-6.135000E+00	  0.060681365	-1.283990E+02	  0.060681365	2.037600E+01	  0.060681365	-2.082900E+01
205	  0.060881764	-6.120000E+00	  0.060881764	-1.296490E+02	  0.060881764	2.015100E+01	  0.060881764	-2.029600E+01
206	  0.061082166	-6.108000E+00	  0.061082166	-1.309080E+02	  0.061082166	1.994000E+01	  0.061082166	-1.975800E+01
207	  0.061282568	-6.100000E+00	  0.061282568	-1.321310E+02	  0.061282568	1.975000E+01	  0.061282568	-1.923400E+01
208	  0.061482966	-6.085000E+00	  0.061482966	-1.333700E+02	  0.061482966	1.954700E+01	  0.061482966	-1.871200E+01
209	  0.061683368	-6.075000E+00	  0.061683368	-1.345810E+02	  0.061683368	1.936600E+01	  0.061683368	-1.820000E+01
210	  0.061883770	-6.065000E+00	  0.061883770	-1.357450E+02	  0.061883770	1.919900E+01	  0.061883770	-1.771000E+01
211	  0.062084168	-6.055000E+00	  0.062084168	-1.369040E+02	  0.062084168	1.903400E+01	  0.062084168	-1.722400E+01
212	  0.062284570	-6.046000E+00	  0.062284570	-1.380440E+02	  0.062284570	1.888300E+01	  0.062284570	-1.674700E+01
213	  0.062484972	-6.039000E+00	  0.062484972	-1.391360E+02	  0.062484972	1.874300E+01	  0.062484972	-1.629100E+01
214	  0.062685370	-6.032000E+00	  0.062685370	-1.402760E+02	  0.062685370	1.860500E+01	  0.062685370	-1.581700E+01
215	  0.062885776	-6.033000E+00	  0.062885776	-1.413950E+02	  0.062885776	1.849500E+01	  0.062885776	-1.534800E+01
216	  0.063086174	-6.031000E+00	  0.063086174	-1.425590E+02	  0.063086174	1.837500E+01	  0.063086174	-1.486400E+01
217	  0.063286573	-6.028000E+00	  0.063286573	-1.437060E+02	  0.063286573	1.826100E+01	  0.063286573	-1.439000E+01
218	  0.063486971	-6.032000E+00	  0.063486971	-1.448430E+02	  0.063486971	1.816900E+01	  0.063486971	-1.391700E+01
219	  0.063687377	-6.027000E+00	  0.063687377	-1.460120E+02	  0.063687377	1.805500E+01	  0.063687377	-1.343900E+01
220	  0.063887775	-6.023000E+00	  0.063887775	-1.471610E+02	  0.063887775	1.794900E+01	  0.063887775	-1.296900E+01
221	  0.064088173	-6.020000E+00	  0.064088173	-1.483170E+02	  0.064088173	1.784700E+01	  0.064088173	-1.249900E+01
222	  0.064288579	-6.017000E+00	  0.064288579	-1.494480E+02	  0.064288579	1.775300E+01	  0.064288579	-1.204000E+01
223	  0.064488977	-6.013000E+00	  0.064488977	-1.505930E+02	  0.064488977	1.766000E+01	  0.064488977	-1.157700E+01
224	  0.064689375	-6.011000E+00	  0.064689375	-1.517300E+02	  0.064689375	1.757400E+01	  0.064689375	-1.111800E+01
225	  0.064889781	-6.010000E+00	  0.064889781	-1.528610E+02	  0.064889781	1.749600E+01	  0.064889781	-1.066200E+01
226	  0.065090179	-6.006000E+00	  0.065090179	-1.539820E+02	  0.065090179	1.741500E+01	  0.065090179	-1.021300E+01
227	  0.065290578	-6.004000E+00	  0.065290578	-1.550950E+02	  0.065290578	1.734300E+01	  0.065290578	-9.767000E+00
228	  0.065490983	-6.001000E+00	  0.065490983	-1.562370E+02	  0.065490983	1.726800E+01	  0.065490983	-9.311000E+00
229	  0.065691382	-5.997000E+00	  0.065691382	-1.573640E+02	  0.065691382	1.719700E+01	  0.065691382	-8.863000E+00
230	  0.065891780	-5.992000E+00	  0.065891780	-1.584890E+02	  0.065891780	1.712400E+01	  0.065891780	-8.417000E+00
231	  0.066092186	-5.983000E+00	  0.066092186	-1.595810E+02	  0.066092186	1.704700E+01	  0.066092186	-7.987000E+00
232	  0.066292584	-5.982000E+00	  0.066292584	-1.606690E+02	  0.066292584	1.699500E+01	  0.066292584	-7.556000E+00
233	  0.066492982	-5.976000E+00	  0.066492982	-1.617360E+02	  0.066492982	1.693400E+01	  0.066492982	-7.136000E+00
234	  0.066693388	-5.968000E+00	  0.066693388	-1.628600E+02	  0.066693388	1.686600E+01	  0.066693388	-6.694000E+00
235	  0.066893786	-5.966000E+00	  0.066893786	-1.639290E+02	  0.066893786	1.681900E+01	  0.066893786	-6.273000E+00
236	  0.067094192	-5.958000E+00	  0.067094192	-1.649930E+02	  0.067094192	1.676100E+01	  0.067094192	-5.856000E+00
237	  0.067294590	-5.955000E+00	  0.067294590	-1.660140E+02	  0.067294590	1.672100E+01	  0.067294590	-5.456000E+00
238	  0.067494988	-5.950000E+00	  0.067494988	-1.670540E+02	  0.067494988	1.667600E+01	  0.067494988	-5.048000E+00
239	  0.067695394	-5.944000E+00	  0.067695394	-1.680730E+02	  0.067695394	1.663100E+01	  0.067695394	-4.650000E+00
240	  0.067895792	-5.939000E+00	  0.067895792	-1.690530E+02	  0.067895792	1.659400E+01	  0.067895792	-4.267000E+00
241	  0.068096191	-5.940000E+00	  0.068096191	-1.700940E+02	  0.068096191	1.657100E+01	  0.068096191	-3.860000E+00
242	  0.068296596	-5.942000E+00	  0.068296596	-1.711150E+02	  0.068296596	1.655400E+01	  0.068296596	-3.460000E+00
243	  0.068496995	-5.939000E+00	  0.068496995	-1.721110E+02	  0.068496995	1.652900E+01	  0.068496995	-3.072000E+00
244	  0.068697393	-5.935000E+00	  0.068697393	-1.731310E+02	  0.068697393	1.650000E+01	  0.068697393	-2.674000E+00
245	  0.068897791	-5.938000E+00	  0.068897791	-1.740920E+02	  0.068897791	1.649400E+01	  0.068897791	-2.299000E+00
246	  0.069098189	-5.931000E+00	  0.069098189	-1.750800E+02	  0.069098189	1.646500E+01	  0.069098189	-1.915000E+00
247	  0.069298595	-5.933000E+00	  0.069298595	-1.760810E+02	  0.069298595	1.646000E+01	  0.069298595	-1.525000E+00
248	  0.069498993	-5.936000E+00	  0.069498993	-1.770870E+02	  0.069498993	1.646100E+01	  0.069498993	-1.133000E+00
249	  0.069699399	-5.938000E+00	  0.069699399	-1.780460E+02	  0.069699399	1.646100E+01	  0.069699399	-7.600000E-01
250	  0.069899797	-5.944000E+00	  0.069899797	-1.790120E+02	  0.069899797	1.647100E+01	  0.069899797	-3.840000E-01
251	  0.070100196	-5.939000E+00	  0.070100196	1.799900E+02	  0.070100196	1.645900E+01	  0.070100196	3.000000E-03
252	  0.070300601	-5.945000E+00	  0.070300601	1.790230E+02	  0.070300601	1.647500E+01	  0.070300601	3.790000E-01
253	  0.070501000	-5.948000E+00	  0.070501000	1.780380E+02	  0.070501000	1.648500E+01	  0.070501000	7.620000E-01
254	  0.070701398	-5.951000E+00	  0.070701398	1.770570E+02	  0.070701398	1.650000E+01	  0.070701398	1.144000E+00
255	  0.070901804	-5.953000E+00	  0.070901804	1.761010E+02	  0.070901804	1.651100E+01	  0.070901804	1.516000E+00
256	  0.071102202	-5.963000E+00	  0.071102202	1.751310E+02	  0.071102202	1.654700E+01	  0.071102202	1.893000E+00
257	  0.071302600	-5.962000E+00	  0.071302600	1.741620E+02	  0.071302600	1.655500E+01	  0.071302600	2.270000E+00
258	  0.071503006	-5.962000E+00	  0.071503006	1.731970E+02	  0.071503006	1.657000E+01	  0.071503006	2.646000E+00
259	  0.071703404	-5.968000E+00	  0.071703404	1.722150E+02	  0.071703404	1.660100E+01	  0.071703404	3.028000E+00
260	  0.071903802	-5.971000E+00	  0.071903802	1.712630E+02	  0.071903802	1.662700E+01	  0.071903802	3.399000E+00
261	  0.072104208	-5.973000E+00	  0.072104208	1.702830E+02	  0.072104208	1.665100E+01	  0.072104208	3.781000E+00
262	  0.072304606	-5.979000E+00	  0.072304606	1.693520E+02	  0.072304606	1.668800E+01	  0.072304606	4.144000E+00
263	  0.072505005	-5.984000E+00	  0.072505005	1.684280E+02	  0.072505005	1.672500E+01	  0.072505005	4.504000E+00
264	  0.072705410	-5.982000E+00	  0.072705410	1.674780E+02	  0.072705410	1.674500E+01	  0.072705410	4.876000E+00
265	  0.072905809	-5.987000E+00	  0.072905809	1.665600E+02	  0.072905809	1.678500E+01	  0.072905809	5.235000E+00
266	  0.073106214	-5.988000E+00	  0.073106214	1.656260E+02	  0.073106214	1.681900E+01	  0.073106214	5.601000E+00
267	  0.073306613	-5.989000E+00	  0.073306613	1.647030E+02	  0.073306613	1.685300E+01	  0.073306613	5.963000E+00
268	  0.073507011	-5.999000E+00	  0.073507011	1.637630E+02	  0.073507011	1.691100E+01	  0.073507011	6.330000E+00
269	  0.073707417	-5.997000E+00	  0.073707417	1.628830E+02	  0.073707417	1.694100E+01	  0.073707417	6.677000E+00
270	  0.073907815	-5.996000E+00	  0.073907815	1.620150E+02	  0.073907815	1.697300E+01	  0.073907815	7.020000E+00
271	  0.074108213	-5.997000E+00	  0.074108213	1.611080E+02	  0.074108213	1.701600E+01	  0.074108213	7.378000E+00
272	  0.074308619	-6.004000E+00	  0.074308619	1.601880E+02	  0.074308619	1.707400E+01	  0.074308619	7.740000E+00
273	  0.074509017	-6.006000E+00	  0.074509017	1.593690E+02	  0.074509017	1.711900E+01	  0.074509017	8.063000E+00
274	  0.074709415	-6.016000E+00	  0.074709415	1.585000E+02	  0.074709415	1.718600E+01	  0.074709415	8.405000E+00
275	  0.074909821	-6.020000E+00	  0.074909821	1.576290E+02	  0.074909821	1.724200E+01	  0.074909821	8.750000E+00
276	  0.075110219	-6.025000E+00	  0.075110219	1.567490E+02	  0.075110219	1.730400E+01	  0.075110219	9.098000E+00
277	  0.075310618	-6.035000E+00	  0.075310618	1.559400E+02	  0.075310618	1.737500E+01	  0.075310618	9.418000E+00
278	  0.075511023	-6.041000E+00	  0.075511023	1.550550E+02	  0.075511023	1.744200E+01	  0.075511023	9.769000E+00
279	  0.075711422	-6.051000E+00	  0.075711422	1.541740E+02	  0.075711422	1.752300E+01	  0.075711422	1.011700E+01
280	  0.075911827	-6.063000E+00	  0.075911827	1.533380E+02	  0.075911827	1.760500E+01	  0.075911827	1.044800E+01
281	  0.076112226	-6.065000E+00	  0.076112226	1.524570E+02	  0.076112226	1.767000E+01	  0.076112226	1.080100E+01
282	  0.076312624	-6.078000E+00	  0.076312624	1.515670E+02	  0.076312624	1.776300E+01	  0.076312624	1.115300E+01
283	  0.076513030	-6.087000E+00	  0.076513030	1.507300E+02	  0.076513030	1.784800E+01	  0.076513030	1.148600E+01
284	  0.076713428	-6.098000E+00	  0.076713428	1.498480E+02	  0.076713428	1.794200E+01	  0.076713428	1.183800E+01
285	  0.076913826	-6.110000E+00	  0.076913826	1.489890E+02	  0.076913826	1.803800E+01	  0.076913826	1.217900E+01
286	  0.077114232	-6.119000E+00	  0.077114232	1.481100E+02	  0.077114232	1.813000E+01	  0.077114232	1.253200E+01
287	  0.077314630	-6.127000E+00	  0.077314630	1.472640E+02	  0.077314630	1.821900E+01	  0.077314630	1.287200E+01
288	  0.077515028	-6.141000E+00	  0.077515028	1.464020E+02	  0.077515028	1.833000E+01	  0.077515028	1.321500E+01
289	  0.077715434	-6.148000E+00	  0.077715434	1.455450E+02	  0.077715434	1.842100E+01	  0.077715434	1.356200E+01
290	  0.077915832	-6.160000E+00	  0.077915832	1.446840E+02	  0.077915832	1.853000E+01	  0.077915832	1.390800E+01
291	  0.078116231	-6.169000E+00	  0.078116231	1.438160E+02	  0.078116231	1.863500E+01	  0.078116231	1.425800E+01
292	  0.078316636	-6.182000E+00	  0.078316636	1.429390E+02	  0.078316636	1.875100E+01	  0.078316636	1.461200E+01
293	  0.078517035	-6.186000E+00	  0.078517035	1.420590E+02	  0.078517035	1.885000E+01	  0.078517035	1.497200E+01
294	  0.078717433	-6.193000E+00	  0.078717433	1.412170E+02	  0.078717433	1.895200E+01	  0.078717433	1.531600E+01
295	  0.078917839	-6.199000E+00	  0.078917839	1.403690E+02	  0.078917839	1.905500E+01	  0.078917839	1.566400E+01
296	  0.079118237	-6.200000E+00	  0.079118237	1.395350E+02	  0.079118237	1.914700E+01	  0.079118237	1.601000E+01
297	  0.079318643	-6.208000E+00	  0.079318643	1.387440E+02	  0.079318643	1.925300E+01	  0.079318643	1.633600E+01
298	  0.079519041	-6.215000E+00	  0.079519041	1.379270E+02	  0.079519041	1.936400E+01	  0.079519041	1.667200E+01
299	  0.079719439	-6.225000E+00	  0.079719439	1.371210E+02	  0.079719439	1.948300E+01	  0.079719439	1.700300E+01
300	  0.079919845	-6.232000E+00	  0.079919845	1.363130E+02	  0.079919845	1.959900E+01	  0.079919845	1.733800E+01
301	  0.080120243	-6.241000E+00	  0.080120243	1.355610E+02	  0.080120243	1.971400E+01	  0.080120243	1.764800E+01
302	  0.080320641	-6.252000E+00	  0.080320641	1.347640E+02	  0.080320641	1.984300E+01	  0.080320641	1.797700E+01
303	  0.080521047	-6.267000E+00	  0.080521047	1.340240E+02	  0.080521047	1.997800E+01	  0.080521047	1.827900E+01
304	  0.080721445	-6.279000E+00	  0.080721445	1.332380E+02	  0.080721445	2.011300E+01	  0.080721445	1.860300E+01
305	  0.080921844	-6.291000E+00	  0.080921844	1.324500E+02	  0.080921844	2.025100E+01	  0.080921844	1.892900E+01
306	  0.081122249	-6.309000E+00	  0.081122249	1.316770E+02	  0.081122249	2.040700E+01	  0.081122249	1.924300E+01
307	  0.081322648	-6.324000E+00	  0.081322648	1.309050E+02	  0.081322648	2.055500E+01	  0.081322648	1.956100E+01
308	  0.081523046	-6.338000E+00	  0.081523046	1.301080E+02	  0.081523046	2.070900E+01	  0.081523046	1.989000E+01
309	  0.081723452	-6.353000E+00	  0.081723452	1.293430E+02	  0.081723452	2.086200E+01	  0.081723452	2.020600E+01
310	  0.081923850	-6.368000E+00	  0.081923850	1.285930E+02	  0.081923850	2.101700E+01	  0.081923850	2.051500E+01
311	  0.082124248	-6.386000E+00	  0.082124248	1.277910E+02	  0.082124248	2.119100E+01	  0.082124248	2.084400E+01
312	  0.082324654	-6.400000E+00	  0.082324654	1.270570E+02	  0.082324654	2.134400E+01	  0.082324654	2.114900E+01
313	  0.082525052	-6.418000E+00	  0.082525052	1.263070E+02	  0.082525052	2.151700E+01	  0.082525052	2.145700E+01
314	  0.082725458	-6.435000E+00	  0.082725458	1.255400E+02	  0.082725458	2.168900E+01	  0.082725458	2.177400E+01
315	  0.082925856	-6.454000E+00	  0.082925856	1.248120E+02	  0.082925856	2.186500E+01	  0.082925856	2.207100E+01
316	  0.083126254	-6.476000E+00	  0.083126254	1.240850E+02	  0.083126254	2.205200E+01	  0.083126254	2.236500E+01
317	  0.083326660	-6.497000E+00	  0.083326660	1.233010E+02	  0.083326660	2.225000E+01	  0.083326660	2.268500E+01
318	  0.083527058	-6.515000E+00	  0.083527058	1.225500E+02	  0.083527058	2.243600E+01	  0.083527058	2.299500E+01
319	  0.083727457	-6.530000E+00	  0.083727457	1.217400E+02	  0.083727457	2.262800E+01	  0.083727457	2.333400E+01
320	  0.083927862	-6.548000E+00	  0.083927862	1.209910E+02	  0.083927862	2.282000E+01	  0.083927862	2.364300E+01
321	  0.084128261	-6.564000E+00	  0.084128261	1.202660E+02	  0.084128261	2.300600E+01	  0.084128261	2.394400E+01
322	  0.084328659	-6.578000E+00	  0.084328659	1.195350E+02	  0.084328659	2.318800E+01	  0.084328659	2.425200E+01
323	  0.084529065	-6.594000E+00	  0.084529065	1.188390E+02	  0.084529065	2.337200E+01	  0.084529065	2.454200E+01
324	  0.084729463	-6.608000E+00	  0.084729463	1.180840E+02	  0.084729463	2.356800E+01	  0.084729463	2.485900E+01
325	  0.084929861	-6.622000E+00	  0.084929861	1.173890E+02	  0.084929861	2.375300E+01	  0.084929861	2.515100E+01
326	  0.085130267	-6.642000E+00	  0.085130267	1.167200E+02	  0.085130267	2.395300E+01	  0.085130267	2.542300E+01
327	  0.085330658	-6.659000E+00	  0.085330658	1.160350E+02	  0.085330658	2.414900E+01	  0.085330658	2.570800E+01
328	  0.085531056	-6.683000E+00	  0.085531056	1.153200E+02	  0.085531056	2.437800E+01	  0.085531056	2.599400E+01
329	  0.085731462	-6.708000E+00	  0.085731462	1.146600E+02	  0.085731462	2.459900E+01	  0.085731462	2.625600E+01
330	  0.085931860	-6.732000E+00	  0.085931860	1.139850E+02	  0.085931860	2.482500E+01	  0.085931860	2.652400E+01
331	  0.086132258	-6.752000E+00	  0.086132258	1.132970E+02	  0.086132258	2.504300E+01	  0.086132258	2.680500E+01
332	  0.086332664	-6.775000E+00	  0.086332664	1.125910E+02	  0.086332664	2.527900E+01	  0.086332664	2.708900E+01
333	  0.086533062	-6.790000E+00	  0.086533062	1.119090E+02	  0.086533062	2.549000E+01	  0.086533062	2.737300E+01
334	  0.086733460	-6.813000E+00	  0.086733460	1.111330E+02	  0.086733460	2.574900E+01	  0.086733460	2.768800E+01
335	  0.086933866	-6.838000E+00	  0.086933866	1.104780E+02	  0.086933866	2.598700E+01	  0.086933866	2.794500E+01
336	  0.087134264	-6.858000E+00	  0.087134264	1.097780E+02	  0.087134264	2.622600E+01	  0.087134264	2.823000E+01
337	  0.087334670	-6.881000E+00	  0.087334670	1.091000E+02	  0.087334670	2.647200E+01	  0.087334670	2.850000E+01
338	  0.087535068	-6.897000E+00	  0.087535068	1.083930E+02	  0.087535068	2.670900E+01	  0.087535068	2.879400E+01
339	  0.087735467	-6.917000E+00	  0.087735467	1.077280E+02	  0.087735467	2.695000E+01	  0.087735467	2.906100E+01
340	  0.087935872	-6.933000E+00	  0.087935872	1.070480E+02	  0.087935872	2.718600E+01	  0.087935872	2.934300E+01
341	  0.088136271	-6.958000E+00	  0.088136271	1.063700E+02	  0.088136271	2.745100E+01	  0.088136271	2.960800E+01
342	  0.088336669	-6.974000E+00	  0.088336669	1.056860E+02	  0.088336669	2.769600E+01	  0.088336669	2.989000E+01
343	  0.088537075	-6.999000E+00	  0.088537075	1.049790E+02	  0.088537075	2.797900E+01	  0.088537075	3.016600E+01
344	  0.088737473	-7.019000E+00	  0.088737473	1.043080E+02	  0.088737473	2.823900E+01	  0.088737473	3.043500E+01
345	  0.088937871	-7.035000E+00	  0.088937871	1.036180E+02	  0.088937871	2.849500E+01	  0.088937871	3.072000E+01
346	  0.089138277	-7.051000E+00	  0.089138277	1.029490E+02	  0.089138277	2.875100E+01	  0.089138277	3.099400E+01
347	  0.089338675	-7.071000E+00	  0.089338675	1.022740E+02	  0.089338675	2.902200E+01	  0.089338675	3.126400E+01
348	  0.089539073	-7.083000E+00	  0.089539073	1.016480E+02	  0.089539073	2.926100E+01	  0.089539073	3.152600E+01
349	  0.089739479	-7.103000E+00	  0.089739479	1.009970E+02	  0.089739479	2.953000E+01	  0.089739479	3.178400E+01
350	  0.089939877	-7.119000E+00	  0.089939877	1.003810E+02	  0.089939877	2.978400E+01	  0.089939877	3.203100E+01
351	  0.090140276	-7.137000E+00	  0.090140276	9.976900E+01	  0.090140276	3.004500E+01	  0.090140276	3.227400E+01
352	  0.090340681	-7.153000E+00	  0.090340681	9.915100E+01	  0.090340681	3.030200E+01	  0.090340681	3.252300E+01
353	  0.090541080	-7.179000E+00	  0.090541080	9.859200E+01	  0.090541080	3.057600E+01	  0.090541080	3.272000E+01
354	  0.090741485	-7.204000E+00	  0.090741485	9.800800E+01	  0.090741485	3.085600E+01	  0.090741485	3.293200E+01
355	  0.090941884	-7.233000E+00	  0.090941884	9.738800E+01	  0.090941884	3.116700E+01	  0.090941884	3.314700E+01
356	  0.091142282	-7.262000E+00	  0.091142282	9.685200E+01	  0.091142282	3.144800E+01	  0.091142282	3.332400E+01
357	  0.091342688	-7.295000E+00	  0.091342688	9.622700E+01	  0.091342688	3.177800E+01	  0.091342688	3.352900E+01
358	  0.091543086	-7.327000E+00	  0.091543086	9.557900E+01	  0.091543086	3.211800E+01	  0.091543086	3.374400E+01
359	  0.091743484	-7.357000E+00	  0.091743484	9.495700E+01	  0.091743484	3.244600E+01	  0.091743484	3.395100E+01
360	  0.091943890	-7.389000E+00	  0.091943890	9.433100E+01	  0.091943890	3.278500E+01	  0.091943890	3.415300E+01
361	  0.092144288	-7.424000E+00	  0.092144288	9.371700E+01	  0.092144288	3.313100E+01	  0.092144288	3.433900E+01
362	  0.092344686	-7.458000E+00	  0.092344686	9.307900E+01	  0.092344686	3.348600E+01	  0.092344686	3.453700E+01
363	  0.092545092	-7.485000E+00	  0.092545092	9.247800E+01	  0.092545092	3.381100E+01	  0.092545092	3.473300E+01
364	  0.092745490	-7.521000E+00	  0.092745490	9.185900E+01	  0.092745490	3.417200E+01	  0.092745490	3.491200E+01
365	  0.092945889	-7.547000E+00	  0.092945889	9.121100E+01	  0.092945889	3.452000E+01	  0.092945889	3.512900E+01
366	  0.093146294	-7.582000E+00	  0.093146294	9.064300E+01	  0.093146294	3.486500E+01	  0.093146294	3.528000E+01
367	  0.093346693	-7.612000E+00	  0.093346693	9.000900E+01	  0.093346693	3.522700E+01	  0.093346693	3.547400E+01
368	  0.093547091	-7.655000E+00	  0.093547091	8.941500E+01	  0.093547091	3.561200E+01	  0.093547091	3.561000E+01
369	  0.093747497	-7.681000E+00	  0.093747497	8.882000E+01	  0.093747497	3.595000E+01	  0.093747497	3.579400E+01
370	  0.093947895	-7.704000E+00	  0.093947895	8.819600E+01	  0.093947895	3.629900E+01	  0.093947895	3.599500E+01
371	  0.094148301	-7.742000E+00	  0.094148301	8.761800E+01	  0.094148301	3.667300E+01	  0.094148301	3.612900E+01
372	  0.094348699	-7.764000E+00	  0.094348699	8.704000E+01	  0.094348699	3.700400E+01	  0.094348699	3.630900E+01
373	  0.094549097	-7.796000E+00	  0.094549097	8.647200E+01	  0.094549097	3.736400E+01	  0.094549097	3.645000E+01
374	  0.094749503	-7.823000E+00	  0.094749503	8.591400E+01	  0.094749503	3.770400E+01	  0.094749503	3.660300E+01
375	  0.094949901	-7.845000E+00	  0.094949901	8.542200E+01	  0.094949901	3.800400E+01	  0.094949901	3.673900E+01
376	  0.095150299	-7.869000E+00	  0.095150299	8.493700E+01	  0.095150299	3.831000E+01	  0.095150299	3.686200E+01
377	  0.095350705	-7.890000E+00	  0.095350705	8.442100E+01	  0.095350705	3.862300E+01	  0.095350705	3.700900E+01
378	  0.095551103	-7.917000E+00	  0.095551103	8.397900E+01	  0.095551103	3.891800E+01	  0.095551103	3.710200E+01
379	  0.095751502	-7.943000E+00	  0.095751502	8.352300E+01	  0.095751502	3.921800E+01	  0.095751502	3.720500E+01
380	  0.095951907	-7.977000E+00	  0.095951907	8.312300E+01	  0.095951907	3.951500E+01	  0.095951907	3.725300E+01
381	  0.096152306	-8.008000E+00	  0.096152306	8.272800E+01	  0.096152306	3.980100E+01	  0.096152306	3.730800E+01
382	  0.096352704	-8.044000E+00	  0.096352704	8.231000E+01	  0.096352704	4.011500E+01	  0.096352704	3.734900E+01
383	  0.096553110	-8.075000E+00	  0.096553110	8.187400E+01	  0.096553110	4.042400E+01	  0.096553110	3.741700E+01
384	  0.096753508	-8.108000E+00	  0.096753508	8.147200E+01	  0.096753508	4.072500E+01	  0.096753508	3.745800E+01
385	  0.096953906	-8.143000E+00	  0.096953906	8.104100E+01	  0.096953906	4.104600E+01	  0.096953906	3.750200E+01
386	  0.097154312	-8.181000E+00	  0.097154312	8.064100E+01	  0.097154312	4.135800E+01	  0.097154312	3.752100E+01
387	  0.097354710	-8.218000E+00	  0.097354710	8.023500E+01	  0.097354710	4.167000E+01	  0.097354710	3.754600E+01
388	  0.097555116	-8.249000E+00	  0.097555116	7.978600E+01	  0.097555116	4.199500E+01	  0.097555116	3.760100E+01
389	  0.097755514	-8.280000E+00	  0.097755514	7.935900E+01	  0.097755514	4.230700E+01	  0.097755514	3.764800E+01
390	  0.097955912	-8.310000E+00	  0.097955912	7.891200E+01	  0.097955912	4.263100E+01	  0.097955912	3.770100E+01
391	  0.098156318	-8.341000E+00	  0.098156318	7.847200E+01	  0.098156318	4.295300E+01	  0.098156318	3.774600E+01
392	  0.098356716	-8.369000E+00	  0.098356716	7.809100E+01	  0.098356716	4.323500E+01	  0.098356716	3.778100E+01
393	  0.098557115	-8.396000E+00	  0.098557115	7.766900E+01	  0.098557115	4.354100E+01	  0.098557115	3.782900E+01
394	  0.098757520	-8.422000E+00	  0.098757520	7.723300E+01	  0.098757520	4.385400E+01	  0.098757520	3.788300E+01
395	  0.098957919	-8.445000E+00	  0.098957919	7.682400E+01	  0.098957919	4.414500E+01	  0.098957919	3.793800E+01
396	  0.099158317	-8.464000E+00	  0.099158317	7.641000E+01	  0.099158317	4.443200E+01	  0.099158317	3.800700E+01
397	  0.099358723	-8.482000E+00	  0.099358723	7.595800E+01	  0.099358723	4.474000E+01	  0.099358723	3.809100E+01
398	  0.099559121	-8.495000E+00	  0.099559121	7.560700E+01	  0.099559121	4.497700E+01	  0.099559121	3.816000E+01
399	  0.099759519	-8.511000E+00	  0.099759519	7.521600E+01	  0.099759519	4.524900E+01	  0.099759519	3.822600E+01
400	  0.099959925	-8.521000E+00	  0.099959925	7.492400E+01	  0.099959925	4.544700E+01	  0.099959925	3.828500E+01
401	  0.100160323	-8.526000E+00	  0.100160323	7.452000E+01	  0.100160323	4.570500E+01	  0.100160323	3.839700E+01
402	  0.100360721	-8.532000E+00	  0.100360721	7.421700E+01	  0.100360721	4.590300E+01	  0.100360721	3.847400E+01
403	  0.100561127	-8.527000E+00	  0.100561127	7.386000E+01	  0.100561127	4.611400E+01	  0.100561127	3.861000E+01
404	  0.100761525	-8.527000E+00	  0.100761525	7.356100E+01	  0.100761525	4.630100E+01	  0.100761525	3.870600E+01
405	  0.100961931	-8.540000E+00	  0.100961931	7.332200E+01	  0.100961931	4.647800E+01	  0.100961931	3.872900E+01
406	  0.101162329	-8.535000E+00	  0.101162329	7.301000E+01	  0.101162329	4.666500E+01	  0.101162329	3.885000E+01
407	  0.101362728	-8.542000E+00	  0.101362728	7.279600E+01	  0.101362728	4.681400E+01	  0.101362728	3.889100E+01
408	  0.101563133	-8.538000E+00	  0.101563133	7.249400E+01	  0.101563133	4.699800E+01	  0.101563133	3.900500E+01
409	  0.101763532	-8.546000E+00	  0.101763532	7.217600E+01	  0.101763532	4.722000E+01	  0.101763532	3.906900E+01
410	  0.101963930	-8.554000E+00	  0.101963930	7.184100E+01	  0.101963930	4.745200E+01	  0.101963930	3.914200E+01
411	  0.102164336	-8.558000E+00	  0.102164336	7.157600E+01	  0.102164336	4.763300E+01	  0.102164336	3.920500E+01
412	  0.102364734	-8.560000E+00	  0.102364734	7.125500E+01	  0.102364734	4.784600E+01	  0.102364734	3.929600E+01
413	  0.102565132	-8.569000E+00	  0.102565132	7.090800E+01	  0.102565132	4.809300E+01	  0.102565132	3.936100E+01
414	  0.102765530	-8.569000E+00	  0.102765530	7.052800E+01	  0.102765530	4.834500E+01	  0.102765530	3.947800E+01
415	  0.102965929	-8.572000E+00	  0.102965929	7.011400E+01	  0.102965929	4.862800E+01	  0.102965929	3.958800E+01
416	  0.103166327	-8.568000E+00	  0.103166327	6.970100E+01	  0.103166327	4.890000E+01	  0.103166327	3.972600E+01
417	  0.103366733	-8.568000E+00	  0.103366733	6.924700E+01	  0.103366733	4.920900E+01	  0.103366733	3.986000E+01
418	  0.103567131	-8.566000E+00	  0.103567131	6.884000E+01	  0.103567131	4.948400E+01	  0.103567131	3.998800E+01
419	  0.103767529	-8.568000E+00	  0.103767529	6.837400E+01	  0.103767529	4.981200E+01	  0.103767529	4.011100E+01
420	  0.103967935	-8.560000E+00	  0.103967935	6.790700E+01	  0.103967935	5.012400E+01	  0.103967935	4.027900E+01
421	  0.104168333	-8.571000E+00	  0.104168333	6.738600E+01	  0.104168333	5.051400E+01	  0.104168333	4.037400E+01
422	  0.104368731	-8.546000E+00	  0.104368731	6.686300E+01	  0.104368731	5.084300E+01	  0.104368731	4.063600E+01
423	  0.104569137	-8.530000E+00	  0.104569137	6.639500E+01	  0.104569137	5.115400E+01	  0.104569137	4.083700E+01
424	  0.104769535	-8.522000E+00	  0.104769535	6.590200E+01	  0.104769535	5.150100E+01	  0.104769535	4.100900E+01
425	  0.104969934	-8.514000E+00	  0.104969934	6.542900E+01	  0.104969934	5.183800E+01	  0.104969934	4.117400E+01
426	  0.105170339	-8.491000E+00	  0.105170339	6.492900E+01	  0.105170339	5.217200E+01	  0.105170339	4.142100E+01
427	  0.105370738	-8.469000E+00	  0.105370738	6.444500E+01	  0.105370738	5.250300E+01	  0.105370738	4.165300E+01
428	  0.105571143	-8.450000E+00	  0.105571143	6.392700E+01	  0.105571143	5.286900E+01	  0.105571143	4.188200E+01
429	  0.105771542	-8.434000E+00	  0.105771542	6.344800E+01	  0.105771542	5.321400E+01	  0.105771542	4.208600E+01
430	  0.105971940	-8.415000E+00	  0.105971940	6.306500E+01	  0.105971940	5.348400E+01	  0.105971940	4.228000E+01
431	  0.106172346	-8.405000E+00	  0.106172346	6.258000E+01	  0.106172346	5.385200E+01	  0.106172346	4.245400E+01
432	  0.106372744	-8.380000E+00	  0.106372744	6.214200E+01	  0.106372744	5.416400E+01	  0.106372744	4.269100E+01
433	  0.106573142	-8.368000E+00	  0.106573142	6.168100E+01	  0.106573142	5.451900E+01	  0.106573142	4.286700E+01
434	  0.106773548	-8.354000E+00	  0.106773548	6.126000E+01	  0.106773548	5.484200E+01	  0.106773548	4.304100E+01
435	  0.106973946	-8.340000E+00	  0.106973946	6.077700E+01	  0.106973946	5.522100E+01	  0.106973946	4.322900E+01
436	  0.107174344	-8.332000E+00	  0.107174344	6.030100E+01	  0.107174344	5.560800E+01	  0.107174344	4.338200E+01
437	  0.107374750	-8.321000E+00	  0.107374750	5.986400E+01	  0.107374750	5.596100E+01	  0.107374750	4.354500E+01
438	  0.107575148	-8.313000E+00	  0.107575148	5.944800E+01	  0.107575148	5.630500E+01	  0.107575148	4.367600E+01
439	  0.107775547	-8.310000E+00	  0.107775547	5.893000E+01	  0.107775547	5.674700E+01	  0.107775547	4.380700E+01
440	  0.107975952	-8.300000E+00	  0.107975952	5.844500E+01	  0.107975952	5.715700E+01	  0.107975952	4.396300E+01
441	  0.108176351	-8.292000E+00	  0.108176351	5.787300E+01	  0.108176351	5.765200E+01	  0.108176351	4.412300E+01
442	  0.108376749	-8.294000E+00	  0.108376749	5.733300E+01	  0.108376749	5.813600E+01	  0.108376749	4.421600E+01
443	  0.108577155	-8.288000E+00	  0.108577155	5.674000E+01	  0.108577155	5.866400E+01	  0.108577155	4.436400E+01
444	  0.108777553	-8.285000E+00	  0.108777553	5.609500E+01	  0.108777553	5.925200E+01	  0.108777553	4.448800E+01
445	  0.108977959	-8.271000E+00	  0.108977959	5.552400E+01	  0.108977959	5.976400E+01	  0.108977959	4.467300E+01
446	  0.109178357	-8.274000E+00	  0.109178357	5.492600E+01	  0.109178357	6.032700E+01	  0.109178357	4.474700E+01
447	  0.109378755	-8.262000E+00	  0.109378755	5.421900E+01	  0.109378755	6.098800E+01	  0.109378755	4.492300E+01
448	  0.109579161	-8.253000E+00	  0.109579161	5.356100E+01	  0.109579161	6.161300E+01	  0.109579161	4.506900E+01
449	  0.109779559	-8.244000E+00	  0.109779559	5.291300E+01	  0.109779559	6.223800E+01	  0.109779559	4.520500E+01
450	  0.109979957	-8.236000E+00	  0.109979957	5.225900E+01	  0.109979957	6.287900E+01	  0.109979957	4.533100E+01
451	  0.110180363	-8.222000E+00	  0.110180363	5.155300E+01	  0.110180363	6.357700E+01	  0.110180363	4.549500E+01
452	  0.110380761	-8.209000E+00	  0.110380761	5.086400E+01	  0.110380761	6.427000E+01	  0.110380761	4.564300E+01
453	  0.110581160	-8.194000E+00	  0.110581160	5.015600E+01	  0.110581160	6.499400E+01	  0.110581160	4.579000E+01
454	  0.110781565	-8.177000E+00	  0.110781565	4.951800E+01	  0.110781565	6.565400E+01	  0.110781565	4.594400E+01
455	  0.110981964	-8.156000E+00	  0.110981964	4.885700E+01	  0.110981964	6.634900E+01	  0.110981964	4.612300E+01
456	  0.111182362	-8.150000E+00	  0.111182362	4.821500E+01	  0.111182362	6.703800E+01	  0.111182362	4.618500E+01
457	  0.111382768	-8.149000E+00	  0.111382768	4.762100E+01	  0.111382768	6.768300E+01	  0.111382768	4.620700E+01
458	  0.111583166	-8.133000E+00	  0.111583166	4.699600E+01	  0.111583166	6.836900E+01	  0.111583166	4.632400E+01
459	  0.111783572	-8.121000E+00	  0.111783572	4.628800E+01	  0.111783572	6.915900E+01	  0.111783572	4.640300E+01
460	  0.111983970	-8.115000E+00	  0.111983970	4.568400E+01	  0.111983970	6.983900E+01	  0.111983970	4.642600E+01
461	  0.112184368	-8.111000E+00	  0.112184368	4.501400E+01	  0.112184368	7.060300E+01	  0.112184368	4.642100E+01
462	  0.112384774	-8.106000E+00	  0.112384774	4.441400E+01	  0.112384774	7.129500E+01	  0.112384774	4.642300E+01
463	  0.112585172	-8.097000E+00	  0.112585172	4.377300E+01	  0.112585172	7.204500E+01	  0.112585172	4.644000E+01
464	  0.112785570	-8.111000E+00	  0.112785570	4.313400E+01	  0.112785570	7.278400E+01	  0.112785570	4.626200E+01
465	  0.112985976	-8.111000E+00	  0.112985976	4.244400E+01	  0.112985976	7.359900E+01	  0.112985976	4.617700E+01
466	  0.113186374	-8.117000E+00	  0.113186374	4.169100E+01	  0.113186374	7.449000E+01	  0.113186374	4.601800E+01
467	  0.113386773	-8.121000E+00	  0.113386773	4.100500E+01	  0.113386773	7.530900E+01	  0.113386773	4.586100E+01
468	  0.113587178	-8.128000E+00	  0.113587178	4.025200E+01	  0.113587178	7.621100E+01	  0.113587178	4.565800E+01
469	  0.113787577	-8.140000E+00	  0.113787577	3.953400E+01	  0.113787577	7.706800E+01	  0.113787577	4.539800E+01
470	  0.113987975	-8.150000E+00	  0.113987975	3.871400E+01	  0.113987975	7.805600E+01	  0.113987975	4.510800E+01
471	  0.114188381	-8.158000E+00	  0.114188381	3.794300E+01	  0.114188381	7.899100E+01	  0.114188381	4.482300E+01
472	  0.114388779	-8.170000E+00	  0.114388779	3.710800E+01	  0.114388779	8.000100E+01	  0.114388779	4.446100E+01
473	  0.114589177	-8.168000E+00	  0.114589177	3.626100E+01	  0.114589177	8.105900E+01	  0.114589177	4.417300E+01
474	  0.114789583	-8.188000E+00	  0.114789583	3.541700E+01	  0.114789583	8.206400E+01	  0.114789583	4.368400E+01
475	  0.114989981	-8.201000E+00	  0.114989981	3.456700E+01	  0.114989981	8.309200E+01	  0.114989981	4.321200E+01
476	  0.115190387	-8.209000E+00	  0.115190387	3.370500E+01	  0.115190387	8.415100E+01	  0.115190387	4.275500E+01
477	  0.115390785	-8.217000E+00	  0.115390785	3.283900E+01	  0.115390785	8.521200E+01	  0.115390785	4.225400E+01
478	  0.115591183	-8.220000E+00	  0.115591183	3.192500E+01	  0.115591183	8.635100E+01	  0.115591183	4.173500E+01
479	  0.115791589	-8.241000E+00	  0.115791589	3.104200E+01	  0.115791589	8.737800E+01	  0.115791589	4.104700E+01
480	  0.115991987	-8.246000E+00	  0.115991987	3.014400E+01	  0.115991987	8.848100E+01	  0.115991987	4.044500E+01
481	  0.116192386	-8.264000E+00	  0.116192386	2.931200E+01	  0.116192386	8.943700E+01	  0.116192386	3.974400E+01
482	  0.116392791	-8.291000E+00	  0.116392791	2.841600E+01	  0.116392791	9.041800E+01	  0.116392791	3.889300E+01
483	  0.116593190	-8.305000E+00	  0.116593190	2.749600E+01	  0.116593190	9.147100E+01	  0.116593190	3.808700E+01
484	  0.116793588	-8.326000E+00	  0.116793588	2.660200E+01	  0.116793588	9.244600E+01	  0.116793588	3.721900E+01
485	  0.116993994	-8.353000E+00	  0.116993994	2.572200E+01	  0.116993994	9.334200E+01	  0.116993994	3.626500E+01
486	  0.117194392	-8.384000E+00	  0.117194392	2.481100E+01	  0.117194392	9.422900E+01	  0.117194392	3.522800E+01
487	  0.117394790	-8.408000E+00	  0.117394790	2.386600E+01	  0.117394790	9.516900E+01	  0.117394790	3.418100E+01
488	  0.117595196	-8.451000E+00	  0.117595196	2.295500E+01	  0.117595196	9.591600E+01	  0.117595196	3.298700E+01
489	  0.117795594	-8.484000E+00	  0.117795594	2.203100E+01	  0.117795594	9.670500E+01	  0.117795594	3.182700E+01
490	  0.117995992	-8.529000E+00	  0.117995992	2.103800E+01	  0.117995992	9.745000E+01	  0.117995992	3.048500E+01
491	  0.118196398	-8.575000E+00	  0.118196398	2.001700E+01	  0.118196398	9.815500E+01	  0.118196398	2.907100E+01
492	  0.118396796	-8.630000E+00	  0.118396796	1.901200E+01	  0.118396796	9.873200E+01	  0.118396796	2.759900E+01
493	  0.118597202	-8.682000E+00	  0.118597202	1.795300E+01	  0.118597202	9.932400E+01	  0.118597202	2.606700E+01
494	  0.118797600	-8.741000E+00	  0.118797600	1.689400E+01	  0.118797600	9.979000E+01	  0.118797600	2.447000E+01
495	  0.118997999	-8.801000E+00	  0.118997999	1.577300E+01	  0.118997999	1.002360E+02	  0.118997999	2.278500E+01
496	  0.119198404	-8.856000E+00	  0.119198404	1.459300E+01	  0.119198404	1.006910E+02	  0.119198404	2.104000E+01
497	  0.119398803	-8.925000E+00	  0.119398803	1.344200E+01	  0.119398803	1.009310E+02	  0.119398803	1.926000E+01
498	  0.119599201	-8.988000E+00	  0.119599201	1.229600E+01	  0.119599201	1.011440E+02	  0.119599201	1.751800E+01
499	  0.119799607	-9.060000E+00	  0.119799607	1.111700E+01	  0.119799607	1.012090E+02	  0.119799607	1.570100E+01
500	  0.120000005	-9.136000E+00	  0.120000005	9.866000E+00	  0.120000005	1.012100E+02	  0.120000005	1.379800E+01
