! Anritsu VNA Master:             	Model: MS2036C/10/77
! SN:             	1601066
! /card0/usr/18may27.balun/5a..m3.txt
! Existing Calibration Information:
! TYPE:             	Current Settings	Active Cal Settings
! TIME:             	05/27/2018 05:13:07 PM	05/27/2018 05:09:13 PM
! INTERNAL TEMP:    	53.3 C	53.3 C
! # POINTS:         	500	500
! START FREQ:       	20.000 MHz	20.000 MHz
! STOP FREQ:        	120.000 MHz	120.000 MHz
! SOURCE POWER:     	High	High
! IFBW:             	50 Hz	50 Hz
! AVG FACTOR:       	  1 	  1 
! REF PLANE 1:      	0 mm	0 mm
! REF PLANE 2:      	0 mm	0 mm
! CAL TYPE:         	Full S11	Full S11
! CAL METHOD:       	SOLT	SOLT
! CAL LINE TYPE:    	Coax	Coax
! DUT PORT 1:       	K-Conn(M)	K-Conn(M)
! DUT PORT 2:       	K-Conn(M)	K-Conn(M)
! CAL STATUS:       	OK: Accuracy High	--
! PROP-V:       	0.700
! CABLE LOSS:       	0.000 dB/m
! REF IMPEDANCE:       	50.0
! Trace Specific Parameters:	TR1	TR2	TR3	TR4
! TRACE.#.Y (GRAPH TYPE)	LOG MAG	PHASE	REAL IMPEDANCE	IMAGINARY IMPEDANCE
! TRACE.#.X 	FREQ.GHZ	FREQ.GHZ	FREQ.GHZ	FREQ.GHZ
! S-PARAMETER	S11	S11	S11	S11
! SMOOTH/APERTURE %	0	0	0	0
! WINDOW	NSL	NSL	NSL	NSL
! GATING	OFF	OFF	OFF	OFF
! FGTD	OFF	OFF	OFF	OFF
Marker Information per Trace:	TR1	TR2	TR3	TR4
!MK1	--	--	--	"MK1 TR4:  70.100 200 MHz,Z:(16.436 ohm, 0.302 ohm)"
!MK2	--	--	--	--
!MK3	--	--	--	--
!MK4	--	--	--	--
!MK5	--	--	--	--
!MK6	--	--	--	--
!MK7	--	--	--	--
!MK8	--	--	--	--
PNT	TR1.FREQ.GHZ	TR1.LOG MAG.dB	TR2.FREQ.GHZ	TR2.PHASE.deg	TR3.FREQ.GHZ	TR3.REAL IMPEDANCE.ohm	TR4.FREQ.GHZ	TR4.IMAGINARY IMPEDANCE.ohm
1	  0.020000000	-6.900000E-01	  0.020000000	-1.263720E+02	  0.020000000	2.491000E+00	  0.020000000	-2.522100E+01
2	  0.020200402	-6.900000E-01	  0.020200402	-1.278320E+02	  0.020200402	2.461000E+00	  0.020200402	-2.442900E+01
3	  0.020400802	-6.880000E-01	  0.020400802	-1.292830E+02	  0.020400802	2.423000E+00	  0.020400802	-2.365100E+01
4	  0.020601204	-6.880000E-01	  0.020601204	-1.307100E+02	  0.020601204	2.398000E+00	  0.020601204	-2.289500E+01
5	  0.020801604	-6.930000E-01	  0.020801604	-1.321590E+02	  0.020801604	2.387000E+00	  0.020801604	-2.213500E+01
6	  0.021002004	-7.000000E-01	  0.021002004	-1.336530E+02	  0.021002004	2.383000E+00	  0.021002004	-2.136100E+01
7	  0.021202406	-7.080000E-01	  0.021202406	-1.351520E+02	  0.021202406	2.384000E+00	  0.021202406	-2.059200E+01
8	  0.021402806	-7.120000E-01	  0.021402806	-1.366350E+02	  0.021402806	2.372000E+00	  0.021402806	-1.984000E+01
9	  0.021603208	-7.180000E-01	  0.021603208	-1.381300E+02	  0.021603208	2.370000E+00	  0.021603208	-1.909000E+01
10	  0.021803608	-7.250000E-01	  0.021803608	-1.396390E+02	  0.021803608	2.367000E+00	  0.021803608	-1.834000E+01
11	  0.022004008	-7.310000E-01	  0.022004008	-1.411540E+02	  0.022004008	2.364000E+00	  0.022004008	-1.759400E+01
12	  0.022204408	-7.350000E-01	  0.022204408	-1.426880E+02	  0.022204408	2.357000E+00	  0.022204408	-1.684700E+01
13	  0.022404809	-7.370000E-01	  0.022404809	-1.442380E+02	  0.022404809	2.340000E+00	  0.022404809	-1.609900E+01
14	  0.022605211	-7.390000E-01	  0.022605211	-1.457760E+02	  0.022605211	2.328000E+00	  0.022605211	-1.536200E+01
15	  0.022805611	-7.410000E-01	  0.022805611	-1.473040E+02	  0.022805611	2.315000E+00	  0.022805611	-1.463700E+01
16	  0.023006011	-7.440000E-01	  0.023006011	-1.488310E+02	  0.023006011	2.306000E+00	  0.023006011	-1.391800E+01
17	  0.023206413	-7.500000E-01	  0.023206413	-1.503880E+02	  0.023206413	2.310000E+00	  0.023206413	-1.318900E+01
18	  0.023406813	-7.600000E-01	  0.023406813	-1.519580E+02	  0.023406813	2.323000E+00	  0.023406813	-1.246000E+01
19	  0.023607215	-7.670000E-01	  0.023607215	-1.535320E+02	  0.023607215	2.329000E+00	  0.023607215	-1.173400E+01
20	  0.023807615	-7.750000E-01	  0.023807615	-1.551330E+02	  0.023807615	2.337000E+00	  0.023807615	-1.100000E+01
21	  0.024008015	-7.850000E-01	  0.024008015	-1.567030E+02	  0.024008015	2.355000E+00	  0.024008015	-1.028500E+01
22	  0.024208417	-7.940000E-01	  0.024208417	-1.583020E+02	  0.024208417	2.368000E+00	  0.024208417	-9.561000E+00
23	  0.024408817	-8.050000E-01	  0.024408817	-1.599130E+02	  0.024408817	2.389000E+00	  0.024408817	-8.835000E+00
24	  0.024609219	-8.170000E-01	  0.024609219	-1.615530E+02	  0.024609219	2.414000E+00	  0.024609219	-8.100000E+00
25	  0.024809619	-8.250000E-01	  0.024809619	-1.632060E+02	  0.024809619	2.426000E+00	  0.024809619	-7.363000E+00
26	  0.025010020	-8.330000E-01	  0.025010020	-1.648600E+02	  0.025010020	2.437000E+00	  0.025010020	-6.629000E+00
27	  0.025210422	-8.410000E-01	  0.025210422	-1.665060E+02	  0.025210422	2.454000E+00	  0.025210422	-5.900000E+00
28	  0.025410822	-8.510000E-01	  0.025410822	-1.681760E+02	  0.025410822	2.474000E+00	  0.025410822	-5.164000E+00
29	  0.025611224	-8.590000E-01	  0.025611224	-1.698370E+02	  0.025611224	2.492000E+00	  0.025611224	-4.434000E+00
30	  0.025811624	-8.730000E-01	  0.025811624	-1.715080E+02	  0.025811624	2.525000E+00	  0.025811624	-3.702000E+00
31	  0.026012026	-8.830000E-01	  0.026012026	-1.732130E+02	  0.026012026	2.549000E+00	  0.026012026	-2.957000E+00
32	  0.026212426	-8.980000E-01	  0.026212426	-1.749010E+02	  0.026212426	2.590000E+00	  0.026212426	-2.220000E+00
33	  0.026412826	-9.160000E-01	  0.026412826	-1.766050E+02	  0.026412826	2.638000E+00	  0.026412826	-1.477000E+00
34	  0.026613226	-9.340000E-01	  0.026613226	-1.783190E+02	  0.026613226	2.687000E+00	  0.026613226	-7.310000E-01
35	  0.026813626	-9.520000E-01	  0.026813626	1.799560E+02	  0.026813626	2.737000E+00	  0.026813626	1.900000E-02
36	  0.027014028	-9.690000E-01	  0.027014028	1.782370E+02	  0.027014028	2.787000E+00	  0.027014028	7.660000E-01
37	  0.027214428	-9.850000E-01	  0.027214428	1.765200E+02	  0.027214428	2.835000E+00	  0.027214428	1.513000E+00
38	  0.027414829	-1.000000E+00	  0.027414829	1.747820E+02	  0.027414829	2.883000E+00	  0.027414829	2.270000E+00
39	  0.027615231	-1.020000E+00	  0.027615231	1.730560E+02	  0.027615231	2.944000E+00	  0.027615231	3.023000E+00
40	  0.027815631	-1.042000E+00	  0.027815631	1.712980E+02	  0.027815631	3.015000E+00	  0.027815631	3.790000E+00
41	  0.028016033	-1.064000E+00	  0.028016033	1.695170E+02	  0.028016033	3.086000E+00	  0.028016033	4.569000E+00
42	  0.028216433	-1.085000E+00	  0.028216433	1.677250E+02	  0.028216433	3.155000E+00	  0.028216433	5.355000E+00
43	  0.028416833	-1.110000E+00	  0.028416833	1.659230E+02	  0.028416833	3.240000E+00	  0.028416833	6.147000E+00
44	  0.028617235	-1.135000E+00	  0.028617235	1.641410E+02	  0.028617235	3.325000E+00	  0.028617235	6.934000E+00
45	  0.028817635	-1.161000E+00	  0.028817635	1.623130E+02	  0.028817635	3.417000E+00	  0.028817635	7.743000E+00
46	  0.029018037	-1.190000E+00	  0.029018037	1.604760E+02	  0.029018037	3.520000E+00	  0.029018037	8.560000E+00
47	  0.029218437	-1.216000E+00	  0.029218437	1.585920E+02	  0.029218437	3.621000E+00	  0.029218437	9.403000E+00
48	  0.029418837	-1.242000E+00	  0.029418837	1.567360E+02	  0.029418837	3.719000E+00	  0.029418837	1.023700E+01
49	  0.029619239	-1.266000E+00	  0.029619239	1.548930E+02	  0.029619239	3.818000E+00	  0.029619239	1.107100E+01
50	  0.029819639	-1.292000E+00	  0.029819639	1.530410E+02	  0.029819639	3.925000E+00	  0.029819639	1.191500E+01
51	  0.030020041	-1.318000E+00	  0.030020041	1.511970E+02	  0.030020041	4.035000E+00	  0.030020041	1.276000E+01
52	  0.030220442	-1.351000E+00	  0.030220442	1.493460E+02	  0.030220442	4.172000E+00	  0.030220442	1.361400E+01
53	  0.030420844	-1.387000E+00	  0.030420844	1.474810E+02	  0.030420844	4.321000E+00	  0.030420844	1.448200E+01
54	  0.030621244	-1.430000E+00	  0.030621244	1.455740E+02	  0.030621244	4.499000E+00	  0.030621244	1.537500E+01
55	  0.030821644	-1.465000E+00	  0.030821644	1.436270E+02	  0.030821644	4.660000E+00	  0.030821644	1.629600E+01
56	  0.031022044	-1.503000E+00	  0.031022044	1.416450E+02	  0.031022044	4.834000E+00	  0.031022044	1.724400E+01
57	  0.031222444	-1.530000E+00	  0.031222444	1.396640E+02	  0.031222444	4.982000E+00	  0.031222444	1.820300E+01
58	  0.031422846	-1.562000E+00	  0.031422846	1.376890E+02	  0.031422846	5.150000E+00	  0.031422846	1.917000E+01
59	  0.031623244	-1.592000E+00	  0.031623244	1.357090E+02	  0.031623244	5.319000E+00	  0.031623244	2.015100E+01
60	  0.031823646	-1.619000E+00	  0.031823646	1.337600E+02	  0.031823646	5.485000E+00	  0.031823646	2.112900E+01
61	  0.032024048	-1.642000E+00	  0.032024048	1.318240E+02	  0.032024048	5.646000E+00	  0.032024048	2.211500E+01
62	  0.032224450	-1.671000E+00	  0.032224450	1.298930E+02	  0.032224450	5.830000E+00	  0.032224450	2.311000E+01
63	  0.032424849	-1.703000E+00	  0.032424849	1.279730E+02	  0.032424849	6.036000E+00	  0.032424849	2.411200E+01
64	  0.032625251	-1.741000E+00	  0.032625251	1.260500E+02	  0.032625251	6.273000E+00	  0.032625251	2.512900E+01
65	  0.032825653	-1.783000E+00	  0.032825653	1.241110E+02	  0.032825653	6.535000E+00	  0.032825653	2.616800E+01
66	  0.033026051	-1.829000E+00	  0.033026051	1.221800E+02	  0.033026051	6.824000E+00	  0.033026051	2.721700E+01
67	  0.033226453	-1.880000E+00	  0.033226453	1.202000E+02	  0.033226453	7.147000E+00	  0.033226453	2.830700E+01
68	  0.033426855	-1.928000E+00	  0.033426855	1.182160E+02	  0.033426855	7.475000E+00	  0.033426855	2.942000E+01
69	  0.033627257	-1.975000E+00	  0.033627257	1.161680E+02	  0.033627257	7.820000E+00	  0.033627257	3.058900E+01
70	  0.033827655	-2.026000E+00	  0.033827655	1.141110E+02	  0.033827655	8.197000E+00	  0.033827655	3.178400E+01
71	  0.034028057	-2.075000E+00	  0.034028057	1.120420E+02	  0.034028057	8.591000E+00	  0.034028057	3.301000E+01
72	  0.034228459	-2.128000E+00	  0.034228459	1.099550E+02	  0.034228459	9.024000E+00	  0.034228459	3.426800E+01
73	  0.034428857	-2.177000E+00	  0.034428857	1.078570E+02	  0.034428857	9.466000E+00	  0.034428857	3.556200E+01
74	  0.034629259	-2.223000E+00	  0.034629259	1.057720E+02	  0.034629259	9.915000E+00	  0.034629259	3.687800E+01
75	  0.034829661	-2.263000E+00	  0.034829661	1.037050E+02	  0.034829661	1.036800E+01	  0.034829661	3.821600E+01
76	  0.035030060	-2.305000E+00	  0.035030060	1.016560E+02	  0.035030060	1.085200E+01	  0.035030060	3.957100E+01
77	  0.035230462	-2.355000E+00	  0.035230462	9.963500E+01	  0.035230462	1.139500E+01	  0.035230462	4.093000E+01
78	  0.035430863	-2.411000E+00	  0.035430863	9.761800E+01	  0.035430863	1.200500E+01	  0.035430863	4.230800E+01
79	  0.035631265	-2.475000E+00	  0.035631265	9.559400E+01	  0.035631265	1.268700E+01	  0.035631265	4.371300E+01
80	  0.035831664	-2.541000E+00	  0.035831664	9.350800E+01	  0.035831664	1.343600E+01	  0.035831664	4.519200E+01
81	  0.036032066	-2.606000E+00	  0.036032066	9.135700E+01	  0.036032066	1.424400E+01	  0.036032066	4.675700E+01
82	  0.036232468	-2.670000E+00	  0.036232468	8.920500E+01	  0.036232468	1.510500E+01	  0.036232468	4.836100E+01
83	  0.036432866	-2.735000E+00	  0.036432866	8.698500E+01	  0.036432866	1.604900E+01	  0.036432866	5.006000E+01
84	  0.036633268	-2.790000E+00	  0.036633268	8.479000E+01	  0.036633268	1.700100E+01	  0.036633268	5.179900E+01
85	  0.036833670	-2.846000E+00	  0.036833670	8.259600E+01	  0.036833670	1.802400E+01	  0.036833670	5.358500E+01
86	  0.037034072	-2.899000E+00	  0.037034072	8.041700E+01	  0.037034072	1.910900E+01	  0.037034072	5.541000E+01
87	  0.037234470	-2.951000E+00	  0.037234470	7.825400E+01	  0.037234470	2.026100E+01	  0.037234470	5.727400E+01
88	  0.037434869	-3.000000E+00	  0.037434869	7.611900E+01	  0.037434869	2.147700E+01	  0.037434869	5.916700E+01
89	  0.037635271	-3.056000E+00	  0.037635271	7.402200E+01	  0.037635271	2.281000E+01	  0.037635271	6.105600E+01
90	  0.037835669	-3.110000E+00	  0.037835669	7.191500E+01	  0.037835669	2.424700E+01	  0.037835669	6.300300E+01
91	  0.038036071	-3.171000E+00	  0.038036071	6.983000E+01	  0.038036071	2.583000E+01	  0.038036071	6.495000E+01
92	  0.038236473	-3.234000E+00	  0.038236473	6.770700E+01	  0.038236473	2.757700E+01	  0.038236473	6.697000E+01
93	  0.038436871	-3.300000E+00	  0.038436871	6.562100E+01	  0.038436871	2.946800E+01	  0.038436871	6.897200E+01
94	  0.038637273	-3.373000E+00	  0.038637273	6.346800E+01	  0.038637273	3.162300E+01	  0.038637273	7.104100E+01
95	  0.038837675	-3.444000E+00	  0.038837675	6.130000E+01	  0.038837675	3.394900E+01	  0.038837675	7.316400E+01
96	  0.039038073	-3.516000E+00	  0.039038073	5.909500E+01	  0.039038073	3.652200E+01	  0.039038073	7.533800E+01
97	  0.039238475	-3.582000E+00	  0.039238475	5.685000E+01	  0.039238475	3.932000E+01	  0.039238475	7.760300E+01
98	  0.039438877	-3.640000E+00	  0.039438877	5.464500E+01	  0.039438877	4.226700E+01	  0.039438877	7.987800E+01
99	  0.039639279	-3.696000E+00	  0.039639279	5.247800E+01	  0.039639279	4.540700E+01	  0.039639279	8.212700E+01
100	  0.039839678	-3.748000E+00	  0.039839678	5.031900E+01	  0.039839678	4.879500E+01	  0.039839678	8.437500E+01
101	  0.040040080	-3.803000E+00	  0.040040080	4.821700E+01	  0.040040080	5.242700E+01	  0.040040080	8.647800E+01
102	  0.040240481	-3.862000E+00	  0.040240481	4.612800E+01	  0.040240481	5.638100E+01	  0.040240481	8.846000E+01
103	  0.040440880	-3.926000E+00	  0.040440880	4.403800E+01	  0.040440880	6.071800E+01	  0.040440880	9.026800E+01
104	  0.040641282	-3.993000E+00	  0.040641282	4.192200E+01	  0.040641282	6.548800E+01	  0.040641282	9.189900E+01
105	  0.040841684	-4.062000E+00	  0.040841684	3.977500E+01	  0.040841684	7.072800E+01	  0.040841684	9.330700E+01
106	  0.041042086	-4.130000E+00	  0.041042086	3.764700E+01	  0.041042086	7.631500E+01	  0.041042086	9.443000E+01
107	  0.041242484	-4.200000E+00	  0.041242484	3.548500E+01	  0.041242484	8.241200E+01	  0.041242484	9.518200E+01
108	  0.041442886	-4.263000E+00	  0.041442886	3.332600E+01	  0.041442886	8.888100E+01	  0.041442886	9.559100E+01
109	  0.041643288	-4.323000E+00	  0.041643288	3.117300E+01	  0.041643288	9.572800E+01	  0.041643288	9.555300E+01
110	  0.041843686	-4.386000E+00	  0.041843686	2.899100E+01	  0.041843686	1.030600E+02	  0.041843686	9.481500E+01
111	  0.042044088	-4.446000E+00	  0.042044088	2.684400E+01	  0.042044088	1.105920E+02	  0.042044088	9.342200E+01
112	  0.042244490	-4.503000E+00	  0.042244490	2.470200E+01	  0.042244490	1.183680E+02	  0.042244490	9.126500E+01
113	  0.042444889	-4.560000E+00	  0.042444889	2.258900E+01	  0.042444889	1.261750E+02	  0.042444889	8.820200E+01
114	  0.042645290	-4.617000E+00	  0.042645290	2.047600E+01	  0.042645290	1.339890E+02	  0.042645290	8.414700E+01
115	  0.042845692	-4.671000E+00	  0.042845692	1.838600E+01	  0.042845692	1.416000E+02	  0.042845692	7.917000E+01
116	  0.043046094	-4.729000E+00	  0.043046094	1.625400E+01	  0.043046094	1.489700E+02	  0.043046094	7.291300E+01
117	  0.043246493	-4.783000E+00	  0.043246493	1.414300E+01	  0.043246493	1.557740E+02	  0.043246493	6.573800E+01
118	  0.043446895	-4.839000E+00	  0.043446895	1.204500E+01	  0.043446895	1.617310E+02	  0.043446895	5.754500E+01
119	  0.043647297	-4.896000E+00	  0.043647297	9.953000E+00	  0.043647297	1.666750E+02	  0.043647297	4.848900E+01
120	  0.043847695	-4.954000E+00	  0.043847695	7.875000E+00	  0.043847695	1.704290E+02	  0.043847695	3.880500E+01
121	  0.044048097	-5.009000E+00	  0.044048097	5.784000E+00	  0.044048097	1.730150E+02	  0.044048097	2.862400E+01
122	  0.044248499	-5.059000E+00	  0.044248499	3.703000E+00	  0.044248499	1.743990E+02	  0.044248499	1.828400E+01
123	  0.044448901	-5.109000E+00	  0.044448901	1.628000E+00	  0.044448901	1.744830E+02	  0.044448901	7.962000E+00
124	  0.044649299	-5.158000E+00	  0.044649299	-4.390000E-01	  0.044649299	1.732680E+02	  0.044649299	-2.113000E+00
125	  0.044849701	-5.204000E+00	  0.044849701	-2.445000E+00	  0.044849701	1.710120E+02	  0.044849701	-1.147800E+01
126	  0.045050103	-5.254000E+00	  0.045050103	-4.472000E+00	  0.045050103	1.676020E+02	  0.045050103	-2.034000E+01
127	  0.045250501	-5.305000E+00	  0.045250501	-6.489000E+00	  0.045250501	1.633370E+02	  0.045250501	-2.842400E+01
128	  0.045450903	-5.351000E+00	  0.045450903	-8.507000E+00	  0.045450903	1.585090E+02	  0.045450903	-3.575400E+01
129	  0.045651305	-5.396000E+00	  0.045651305	-1.052500E+01	  0.045651305	1.531680E+02	  0.045651305	-4.226400E+01
130	  0.045851704	-5.441000E+00	  0.045851704	-1.252800E+01	  0.045851704	1.474860E+02	  0.045851704	-4.787600E+01
131	  0.046052106	-5.487000E+00	  0.046052106	-1.450900E+01	  0.046052106	1.416280E+02	  0.046052106	-5.259900E+01
132	  0.046252504	-5.531000E+00	  0.046252504	-1.648300E+01	  0.046252504	1.357010E+02	  0.046252504	-5.655600E+01
133	  0.046452906	-5.571000E+00	  0.046452906	-1.845400E+01	  0.046452906	1.298390E+02	  0.046452906	-5.988100E+01
134	  0.046653304	-5.610000E+00	  0.046653304	-2.035600E+01	  0.046653304	1.242310E+02	  0.046653304	-6.246300E+01
135	  0.046853706	-5.653000E+00	  0.046853706	-2.230800E+01	  0.046853706	1.185750E+02	  0.046853706	-6.450400E+01
136	  0.047054108	-5.697000E+00	  0.047054108	-2.423700E+01	  0.047054108	1.131490E+02	  0.047054108	-6.598300E+01
137	  0.047254506	-5.735000E+00	  0.047254506	-2.615500E+01	  0.047254506	1.079850E+02	  0.047254506	-6.710300E+01
138	  0.047454908	-5.775000E+00	  0.047454908	-2.808200E+01	  0.047454908	1.030090E+02	  0.047454908	-6.781700E+01
139	  0.047655310	-5.814000E+00	  0.047655310	-2.999400E+01	  0.047655310	9.830600E+01	  0.047655310	-6.820400E+01
140	  0.047855709	-5.852000E+00	  0.047855709	-3.189200E+01	  0.047855709	9.386900E+01	  0.047855709	-6.831100E+01
141	  0.048056111	-5.892000E+00	  0.048056111	-3.379500E+01	  0.048056111	8.965300E+01	  0.048056111	-6.816000E+01
142	  0.048256513	-5.925000E+00	  0.048256513	-3.566500E+01	  0.048256513	8.573600E+01	  0.048256513	-6.789200E+01
143	  0.048456915	-5.957000E+00	  0.048456915	-3.755400E+01	  0.048456915	8.199500E+01	  0.048456915	-6.745600E+01
144	  0.048657313	-5.987000E+00	  0.048657313	-3.943700E+01	  0.048657313	7.847300E+01	  0.048657313	-6.689100E+01
145	  0.048857715	-6.012000E+00	  0.048857715	-4.125400E+01	  0.048857715	7.525600E+01	  0.048857715	-6.627400E+01
146	  0.049058117	-6.035000E+00	  0.049058117	-4.308100E+01	  0.049058117	7.219500E+01	  0.049058117	-6.556200E+01
147	  0.049258515	-6.061000E+00	  0.049258515	-4.482200E+01	  0.049258515	6.944400E+01	  0.049258515	-6.475500E+01
148	  0.049458917	-6.088000E+00	  0.049458917	-4.654400E+01	  0.049458917	6.687100E+01	  0.049458917	-6.388300E+01
149	  0.049659319	-6.113000E+00	  0.049659319	-4.826900E+01	  0.049659319	6.442500E+01	  0.049659319	-6.298400E+01
150	  0.049859721	-6.139000E+00	  0.049859721	-4.999900E+01	  0.049859721	6.211100E+01	  0.049859721	-6.201500E+01
151	  0.050060119	-6.167000E+00	  0.050060119	-5.172200E+01	  0.050060119	5.993700E+01	  0.050060119	-6.100400E+01
152	  0.050260521	-6.198000E+00	  0.050260521	-5.343400E+01	  0.050260521	5.790300E+01	  0.050260521	-5.994900E+01
153	  0.050460923	-6.215000E+00	  0.050460923	-5.512900E+01	  0.050460923	5.595400E+01	  0.050460923	-5.899000E+01
154	  0.050661322	-6.234000E+00	  0.050661322	-5.682000E+01	  0.050661322	5.411800E+01	  0.050661322	-5.799300E+01
155	  0.050861724	-6.249000E+00	  0.050861724	-5.853300E+01	  0.050861724	5.234000E+01	  0.050861724	-5.699700E+01
156	  0.051062126	-6.260000E+00	  0.051062126	-6.020600E+01	  0.051062126	5.067800E+01	  0.051062126	-5.603700E+01
157	  0.051262524	-6.271000E+00	  0.051262524	-6.183200E+01	  0.051262524	4.914300E+01	  0.051262524	-5.508700E+01
158	  0.051462926	-6.276000E+00	  0.051462926	-6.345300E+01	  0.051462926	4.766400E+01	  0.051462926	-5.417000E+01
159	  0.051663328	-6.289000E+00	  0.051663328	-6.501500E+01	  0.051663328	4.633700E+01	  0.051663328	-5.322600E+01
160	  0.051863730	-6.300000E+00	  0.051863730	-6.658800E+01	  0.051863730	4.505200E+01	  0.051863730	-5.229000E+01
161	  0.052064128	-6.309000E+00	  0.052064128	-6.812800E+01	  0.052064128	4.384700E+01	  0.052064128	-5.138000E+01
162	  0.052264530	-6.321000E+00	  0.052264530	-6.967600E+01	  0.052264530	4.270000E+01	  0.052264530	-5.044900E+01
163	  0.052464932	-6.330000E+00	  0.052464932	-7.125400E+01	  0.052464932	4.157500E+01	  0.052464932	-4.951600E+01
164	  0.052665330	-6.334000E+00	  0.052665330	-7.282400E+01	  0.052665330	4.048700E+01	  0.052665330	-4.861400E+01
165	  0.052865732	-6.340000E+00	  0.052865732	-7.439000E+01	  0.052865732	3.945700E+01	  0.052865732	-4.770700E+01
166	  0.053066134	-6.350000E+00	  0.053066134	-7.594800E+01	  0.053066134	3.849000E+01	  0.053066134	-4.679200E+01
167	  0.053266536	-6.352000E+00	  0.053266536	-7.751800E+01	  0.053266536	3.753300E+01	  0.053266536	-4.590700E+01
168	  0.053466935	-6.350000E+00	  0.053466935	-7.906600E+01	  0.053466935	3.661400E+01	  0.053466935	-4.505100E+01
169	  0.053667337	-6.344000E+00	  0.053667337	-8.066800E+01	  0.053667337	3.569300E+01	  0.053667337	-4.418100E+01
170	  0.053867739	-6.339000E+00	  0.053867739	-8.218500E+01	  0.053867739	3.485500E+01	  0.053867739	-4.336100E+01
171	  0.054068137	-6.326000E+00	  0.054068137	-8.367900E+01	  0.054068137	3.403800E+01	  0.054068137	-4.257900E+01
172	  0.054268539	-6.323000E+00	  0.054268539	-8.517000E+01	  0.054268539	3.328700E+01	  0.054268539	-4.177000E+01
173	  0.054468941	-6.319000E+00	  0.054468941	-8.661600E+01	  0.054468941	3.258500E+01	  0.054468941	-4.099400E+01
174	  0.054669339	-6.316000E+00	  0.054669339	-8.808900E+01	  0.054669339	3.190100E+01	  0.054669339	-4.020400E+01
175	  0.054869737	-6.313000E+00	  0.054869737	-8.954800E+01	  0.054869737	3.125000E+01	  0.054869737	-3.942600E+01
176	  0.055070139	-6.312000E+00	  0.055070139	-9.101800E+01	  0.055070139	3.062700E+01	  0.055070139	-3.864300E+01
177	  0.055270538	-6.310000E+00	  0.055270538	-9.249800E+01	  0.055270538	3.001900E+01	  0.055270538	-3.786300E+01
178	  0.055470940	-6.308000E+00	  0.055470940	-9.396900E+01	  0.055470940	2.944100E+01	  0.055470940	-3.709200E+01
179	  0.055671342	-6.305000E+00	  0.055671342	-9.545400E+01	  0.055671342	2.887700E+01	  0.055671342	-3.632100E+01
180	  0.055871744	-6.299000E+00	  0.055871744	-9.691800E+01	  0.055871744	2.833000E+01	  0.055871744	-3.557600E+01
181	  0.056072142	-6.294000E+00	  0.056072142	-9.838800E+01	  0.056072142	2.780700E+01	  0.056072142	-3.482900E+01
182	  0.056272544	-6.286000E+00	  0.056272544	-9.985200E+01	  0.056272544	2.729500E+01	  0.056272544	-3.409900E+01
183	  0.056472946	-6.273000E+00	  0.056472946	-1.012440E+02	  0.056472946	2.680700E+01	  0.056472946	-3.342000E+01
184	  0.056673344	-6.267000E+00	  0.056673344	-1.026780E+02	  0.056673344	2.634600E+01	  0.056673344	-3.271000E+01
185	  0.056873746	-6.259000E+00	  0.056873746	-1.040630E+02	  0.056873746	2.591100E+01	  0.056873746	-3.203300E+01
186	  0.057074148	-6.251000E+00	  0.057074148	-1.054060E+02	  0.057074148	2.550400E+01	  0.057074148	-3.138000E+01
187	  0.057274550	-6.245000E+00	  0.057274550	-1.067730E+02	  0.057274550	2.510800E+01	  0.057274550	-3.071800E+01
188	  0.057474948	-6.243000E+00	  0.057474948	-1.081140E+02	  0.057474948	2.474900E+01	  0.057474948	-3.006500E+01
189	  0.057675350	-6.240000E+00	  0.057675350	-1.095060E+02	  0.057675350	2.438200E+01	  0.057675350	-2.939600E+01
190	  0.057875752	-6.239000E+00	  0.057875752	-1.108540E+02	  0.057875752	2.405000E+01	  0.057875752	-2.874700E+01
191	  0.058076151	-6.234000E+00	  0.058076151	-1.122420E+02	  0.058076151	2.370400E+01	  0.058076151	-2.809300E+01
192	  0.058276553	-6.229000E+00	  0.058276553	-1.135630E+02	  0.058276553	2.338700E+01	  0.058276553	-2.747300E+01
193	  0.058476955	-6.219000E+00	  0.058476955	-1.149540E+02	  0.058476955	2.305000E+01	  0.058476955	-2.683300E+01
194	  0.058677353	-6.208000E+00	  0.058677353	-1.162990E+02	  0.058677353	2.273200E+01	  0.058677353	-2.621900E+01
195	  0.058877755	-6.201000E+00	  0.058877755	-1.176140E+02	  0.058877755	2.244000E+01	  0.058877755	-2.561800E+01
196	  0.059078157	-6.189000E+00	  0.059078157	-1.189390E+02	  0.059078157	2.214300E+01	  0.059078157	-2.502200E+01
197	  0.059278559	-6.177000E+00	  0.059278559	-1.202220E+02	  0.059278559	2.186400E+01	  0.059278559	-2.444800E+01
198	  0.059478957	-6.169000E+00	  0.059478957	-1.214590E+02	  0.059478957	2.161100E+01	  0.059478957	-2.389400E+01
199	  0.059679359	-6.161000E+00	  0.059679359	-1.227250E+02	  0.059679359	2.136200E+01	  0.059679359	-2.333000E+01
200	  0.059879761	-6.154000E+00	  0.059879761	-1.239710E+02	  0.059879761	2.113100E+01	  0.059879761	-2.277600E+01
201	  0.060080159	-6.146000E+00	  0.060080159	-1.251700E+02	  0.060080159	2.090700E+01	  0.060080159	-2.224900E+01
202	  0.060280561	-6.144000E+00	  0.060280561	-1.264370E+02	  0.060280561	2.070000E+01	  0.060280561	-2.168700E+01
203	  0.060480963	-6.136000E+00	  0.060480963	-1.276980E+02	  0.060480963	2.048300E+01	  0.060480963	-2.113700E+01
204	  0.060681365	-6.132000E+00	  0.060681365	-1.289430E+02	  0.060681365	2.028800E+01	  0.060681365	-2.059300E+01
205	  0.060881764	-6.124000E+00	  0.060881764	-1.301890E+02	  0.060881764	2.008400E+01	  0.060881764	-2.005700E+01
206	  0.061082166	-6.119000E+00	  0.061082166	-1.314100E+02	  0.061082166	1.990200E+01	  0.061082166	-1.953000E+01
207	  0.061282568	-6.113000E+00	  0.061282568	-1.326440E+02	  0.061282568	1.972000E+01	  0.061282568	-1.900100E+01
208	  0.061482966	-6.104000E+00	  0.061482966	-1.338650E+02	  0.061482966	1.953800E+01	  0.061482966	-1.848300E+01
209	  0.061683368	-6.094000E+00	  0.061683368	-1.350710E+02	  0.061683368	1.935900E+01	  0.061683368	-1.797500E+01
210	  0.061883770	-6.088000E+00	  0.061883770	-1.362740E+02	  0.061883770	1.920100E+01	  0.061883770	-1.746700E+01
211	  0.062084168	-6.083000E+00	  0.062084168	-1.374780E+02	  0.062084168	1.904800E+01	  0.062084168	-1.696000E+01
212	  0.062284570	-6.077000E+00	  0.062284570	-1.386570E+02	  0.062284570	1.890100E+01	  0.062284570	-1.646600E+01
213	  0.062484972	-6.063000E+00	  0.062484972	-1.397800E+02	  0.062484972	1.874200E+01	  0.062484972	-1.600400E+01
214	  0.062685370	-6.057000E+00	  0.062685370	-1.409690E+02	  0.062685370	1.860300E+01	  0.062685370	-1.551000E+01
215	  0.062885776	-6.054000E+00	  0.062885776	-1.421170E+02	  0.062885776	1.848000E+01	  0.062885776	-1.503300E+01
216	  0.063086174	-6.049000E+00	  0.063086174	-1.433190E+02	  0.063086174	1.835500E+01	  0.063086174	-1.453700E+01
217	  0.063286573	-6.049000E+00	  0.063286573	-1.444870E+02	  0.063286573	1.824800E+01	  0.063286573	-1.405400E+01
218	  0.063486971	-6.041000E+00	  0.063486971	-1.456860E+02	  0.063486971	1.812100E+01	  0.063486971	-1.356500E+01
219	  0.063687377	-6.036000E+00	  0.063687377	-1.468370E+02	  0.063687377	1.800900E+01	  0.063687377	-1.309500E+01
220	  0.063887775	-6.029000E+00	  0.063887775	-1.480110E+02	  0.063887775	1.789500E+01	  0.063887775	-1.261900E+01
221	  0.064088173	-6.016000E+00	  0.064088173	-1.491610E+02	  0.064088173	1.777200E+01	  0.064088173	-1.215700E+01
222	  0.064288579	-6.012000E+00	  0.064288579	-1.503140E+02	  0.064288579	1.767600E+01	  0.064288579	-1.169100E+01
223	  0.064488977	-6.004000E+00	  0.064488977	-1.514300E+02	  0.064488977	1.757600E+01	  0.064488977	-1.124200E+01
224	  0.064689375	-5.995000E+00	  0.064689375	-1.525360E+02	  0.064689375	1.747900E+01	  0.064689375	-1.079900E+01
225	  0.064889781	-5.994000E+00	  0.064889781	-1.536200E+02	  0.064889781	1.740600E+01	  0.064889781	-1.036300E+01
226	  0.065090179	-5.985000E+00	  0.065090179	-1.547460E+02	  0.065090179	1.731300E+01	  0.065090179	-9.914000E+00
227	  0.065290578	-5.979000E+00	  0.065290578	-1.558600E+02	  0.065290578	1.723100E+01	  0.065290578	-9.471000E+00
228	  0.065490983	-5.976000E+00	  0.065490983	-1.569050E+02	  0.065490983	1.716500E+01	  0.065490983	-9.054000E+00
229	  0.065691382	-5.976000E+00	  0.065691382	-1.579820E+02	  0.065691382	1.710800E+01	  0.065691382	-8.625000E+00
230	  0.065891780	-5.972000E+00	  0.065891780	-1.590800E+02	  0.065891780	1.704400E+01	  0.065891780	-8.189000E+00
231	  0.066092186	-5.967000E+00	  0.066092186	-1.601520E+02	  0.066092186	1.697900E+01	  0.066092186	-7.765000E+00
232	  0.066292584	-5.960000E+00	  0.066292584	-1.612260E+02	  0.066292584	1.691400E+01	  0.066292584	-7.342000E+00
233	  0.066492982	-5.958000E+00	  0.066492982	-1.622950E+02	  0.066492982	1.686300E+01	  0.066492982	-6.919000E+00
234	  0.066693388	-5.954000E+00	  0.066693388	-1.633550E+02	  0.066693388	1.681000E+01	  0.066693388	-6.502000E+00
235	  0.066893786	-5.953000E+00	  0.066893786	-1.644590E+02	  0.066893786	1.676800E+01	  0.066893786	-6.068000E+00
236	  0.067094192	-5.950000E+00	  0.067094192	-1.654950E+02	  0.067094192	1.672400E+01	  0.067094192	-5.661000E+00
237	  0.067294590	-5.948000E+00	  0.067294590	-1.665280E+02	  0.067294590	1.668700E+01	  0.067294590	-5.255000E+00
238	  0.067494988	-5.947000E+00	  0.067494988	-1.675550E+02	  0.067494988	1.665400E+01	  0.067494988	-4.852000E+00
239	  0.067695394	-5.944000E+00	  0.067695394	-1.686290E+02	  0.067695394	1.661600E+01	  0.067695394	-4.432000E+00
240	  0.067895792	-5.941000E+00	  0.067895792	-1.696380E+02	  0.067895792	1.658500E+01	  0.067895792	-4.038000E+00
241	  0.068096191	-5.942000E+00	  0.068096191	-1.706780E+02	  0.068096191	1.656300E+01	  0.068096191	-3.631000E+00
242	  0.068296596	-5.943000E+00	  0.068296596	-1.717340E+02	  0.068296596	1.654600E+01	  0.068296596	-3.218000E+00
243	  0.068496995	-5.940000E+00	  0.068496995	-1.727290E+02	  0.068496995	1.652000E+01	  0.068496995	-2.831000E+00
244	  0.068697393	-5.938000E+00	  0.068697393	-1.737730E+02	  0.068697393	1.649900E+01	  0.068697393	-2.424000E+00
245	  0.068897791	-5.933000E+00	  0.068897791	-1.748060E+02	  0.068897791	1.647200E+01	  0.068897791	-2.021000E+00
246	  0.069098189	-5.930000E+00	  0.069098189	-1.758100E+02	  0.069098189	1.645500E+01	  0.069098189	-1.630000E+00
247	  0.069298595	-5.928000E+00	  0.069298595	-1.768100E+02	  0.069298595	1.644200E+01	  0.069298595	-1.241000E+00
248	  0.069498993	-5.933000E+00	  0.069498993	-1.778020E+02	  0.069498993	1.644700E+01	  0.069498993	-8.550000E-01
249	  0.069699399	-5.930000E+00	  0.069699399	-1.788080E+02	  0.069699399	1.643600E+01	  0.069699399	-4.630000E-01
250	  0.069899797	-5.926000E+00	  0.069899797	-1.798020E+02	  0.069899797	1.642600E+01	  0.069899797	-7.600000E-02
251	  0.070100196	-5.930000E+00	  0.070100196	1.792230E+02	  0.070100196	1.643600E+01	  0.070100196	3.020000E-01
252	  0.070300601	-5.925000E+00	  0.070300601	1.782760E+02	  0.070300601	1.642500E+01	  0.070300601	6.700000E-01
253	  0.070501000	-5.927000E+00	  0.070501000	1.772700E+02	  0.070501000	1.643700E+01	  0.070501000	1.062000E+00
254	  0.070701398	-5.927000E+00	  0.070701398	1.763080E+02	  0.070701398	1.644300E+01	  0.070701398	1.437000E+00
255	  0.070901804	-5.927000E+00	  0.070901804	1.753810E+02	  0.070901804	1.645000E+01	  0.070901804	1.798000E+00
256	  0.071102202	-5.934000E+00	  0.071102202	1.744160E+02	  0.071102202	1.648000E+01	  0.071102202	2.173000E+00
257	  0.071302600	-5.933000E+00	  0.071302600	1.734550E+02	  0.071302600	1.649100E+01	  0.071302600	2.548000E+00
258	  0.071503006	-5.934000E+00	  0.071503006	1.724970E+02	  0.071503006	1.650800E+01	  0.071503006	2.922000E+00
259	  0.071703404	-5.935000E+00	  0.071703404	1.715710E+02	  0.071703404	1.652700E+01	  0.071703404	3.283000E+00
260	  0.071903802	-5.938000E+00	  0.071903802	1.706070E+02	  0.071903802	1.655600E+01	  0.071903802	3.659000E+00
261	  0.072104208	-5.944000E+00	  0.072104208	1.696720E+02	  0.072104208	1.659100E+01	  0.072104208	4.024000E+00
262	  0.072304606	-5.951000E+00	  0.072304606	1.687600E+02	  0.072304606	1.663100E+01	  0.072304606	4.380000E+00
263	  0.072505005	-5.957000E+00	  0.072505005	1.678250E+02	  0.072505005	1.667100E+01	  0.072505005	4.745000E+00
264	  0.072705410	-5.958000E+00	  0.072705410	1.668960E+02	  0.072705410	1.670100E+01	  0.072705410	5.109000E+00
265	  0.072905809	-5.965000E+00	  0.072905809	1.659430E+02	  0.072905809	1.674900E+01	  0.072905809	5.481000E+00
266	  0.073106214	-5.968000E+00	  0.073106214	1.650010E+02	  0.073106214	1.678800E+01	  0.073106214	5.851000E+00
267	  0.073306613	-5.972000E+00	  0.073306613	1.640760E+02	  0.073306613	1.683100E+01	  0.073306613	6.214000E+00
268	  0.073507011	-5.980000E+00	  0.073507011	1.631390E+02	  0.073507011	1.688700E+01	  0.073507011	6.581000E+00
269	  0.073707417	-5.980000E+00	  0.073707417	1.622460E+02	  0.073707417	1.692100E+01	  0.073707417	6.933000E+00
270	  0.073907815	-5.983000E+00	  0.073907815	1.613220E+02	  0.073907815	1.696800E+01	  0.073907815	7.297000E+00
271	  0.074108213	-5.984000E+00	  0.074108213	1.604150E+02	  0.074108213	1.701300E+01	  0.074108213	7.656000E+00
272	  0.074308619	-5.992000E+00	  0.074308619	1.594970E+02	  0.074308619	1.707700E+01	  0.074308619	8.017000E+00
273	  0.074509017	-5.991000E+00	  0.074509017	1.586120E+02	  0.074509017	1.711500E+01	  0.074509017	8.369000E+00
274	  0.074709415	-6.000000E+00	  0.074709415	1.577250E+02	  0.074709415	1.718500E+01	  0.074709415	8.719000E+00
275	  0.074909821	-6.002000E+00	  0.074909821	1.568330E+02	  0.074909821	1.723900E+01	  0.074909821	9.073000E+00
276	  0.075110219	-6.004000E+00	  0.075110219	1.559280E+02	  0.075110219	1.729300E+01	  0.075110219	9.434000E+00
277	  0.075310618	-6.011000E+00	  0.075310618	1.550630E+02	  0.075310618	1.736300E+01	  0.075310618	9.777000E+00
278	  0.075511023	-6.016000E+00	  0.075511023	1.541720E+02	  0.075511023	1.742900E+01	  0.075511023	1.013200E+01
279	  0.075711422	-6.022000E+00	  0.075711422	1.533110E+02	  0.075711422	1.750000E+01	  0.075711422	1.047600E+01
280	  0.075911827	-6.027000E+00	  0.075911827	1.524730E+02	  0.075911827	1.756800E+01	  0.075911827	1.081100E+01
281	  0.076112226	-6.035000E+00	  0.076112226	1.515830E+02	  0.076112226	1.765000E+01	  0.076112226	1.116600E+01
282	  0.076312624	-6.039000E+00	  0.076312624	1.507300E+02	  0.076312624	1.771800E+01	  0.076312624	1.150900E+01
283	  0.076513030	-6.045000E+00	  0.076513030	1.498850E+02	  0.076513030	1.779700E+01	  0.076513030	1.184800E+01
284	  0.076713428	-6.048000E+00	  0.076713428	1.490380E+02	  0.076713428	1.786900E+01	  0.076713428	1.219100E+01
285	  0.076913826	-6.059000E+00	  0.076913826	1.481970E+02	  0.076913826	1.796200E+01	  0.076913826	1.252800E+01
286	  0.077114232	-6.063000E+00	  0.077114232	1.473530E+02	  0.077114232	1.804100E+01	  0.077114232	1.286900E+01
287	  0.077314630	-6.075000E+00	  0.077314630	1.465020E+02	  0.077314630	1.814200E+01	  0.077314630	1.321100E+01
288	  0.077515028	-6.082000E+00	  0.077515028	1.456610E+02	  0.077515028	1.823500E+01	  0.077515028	1.355200E+01
289	  0.077715434	-6.091000E+00	  0.077715434	1.448390E+02	  0.077715434	1.832900E+01	  0.077715434	1.388500E+01
290	  0.077915832	-6.100000E+00	  0.077915832	1.440170E+02	  0.077915832	1.842900E+01	  0.077915832	1.421700E+01
291	  0.078116231	-6.110000E+00	  0.078116231	1.431970E+02	  0.078116231	1.853000E+01	  0.078116231	1.455000E+01
292	  0.078316636	-6.123000E+00	  0.078316636	1.423370E+02	  0.078316636	1.865000E+01	  0.078316636	1.489800E+01
293	  0.078517035	-6.135000E+00	  0.078517035	1.414800E+02	  0.078517035	1.876800E+01	  0.078517035	1.524600E+01
294	  0.078717433	-6.144000E+00	  0.078717433	1.406170E+02	  0.078717433	1.888000E+01	  0.078717433	1.559800E+01
295	  0.078917839	-6.149000E+00	  0.078917839	1.397910E+02	  0.078917839	1.897700E+01	  0.078917839	1.594000E+01
296	  0.079118237	-6.156000E+00	  0.079118237	1.389660E+02	  0.079118237	1.908700E+01	  0.079118237	1.628000E+01
297	  0.079318643	-6.166000E+00	  0.079318643	1.381390E+02	  0.079318643	1.920400E+01	  0.079318643	1.662000E+01
298	  0.079519041	-6.178000E+00	  0.079519041	1.373430E+02	  0.079519041	1.932700E+01	  0.079519041	1.694600E+01
299	  0.079719439	-6.189000E+00	  0.079719439	1.365140E+02	  0.079719439	1.945400E+01	  0.079719439	1.728700E+01
300	  0.079919845	-6.198000E+00	  0.079919845	1.357150E+02	  0.079919845	1.957400E+01	  0.079919845	1.761800E+01
301	  0.080120243	-6.215000E+00	  0.080120243	1.349220E+02	  0.080120243	1.971800E+01	  0.080120243	1.794100E+01
302	  0.080320641	-6.225000E+00	  0.080320641	1.340960E+02	  0.080320641	1.985100E+01	  0.080320641	1.828300E+01
303	  0.080521047	-6.236000E+00	  0.080521047	1.333140E+02	  0.080521047	1.998200E+01	  0.080521047	1.860800E+01
304	  0.080721445	-6.254000E+00	  0.080721445	1.325070E+02	  0.080721445	2.013900E+01	  0.080721445	1.893700E+01
305	  0.080921844	-6.267000E+00	  0.080921844	1.316940E+02	  0.080921844	2.028400E+01	  0.080921844	1.927500E+01
306	  0.081122249	-6.282000E+00	  0.081122249	1.308690E+02	  0.081122249	2.044200E+01	  0.081122249	1.961500E+01
307	  0.081322648	-6.292000E+00	  0.081322648	1.300780E+02	  0.081322648	2.058100E+01	  0.081322648	1.994700E+01
308	  0.081523046	-6.301000E+00	  0.081523046	1.293020E+02	  0.081523046	2.072000E+01	  0.081523046	2.027400E+01
309	  0.081723452	-6.314000E+00	  0.081723452	1.284990E+02	  0.081723452	2.087600E+01	  0.081723452	2.061000E+01
310	  0.081923850	-6.333000E+00	  0.081923850	1.277560E+02	  0.081923850	2.104200E+01	  0.081923850	2.091400E+01
311	  0.082124248	-6.346000E+00	  0.082124248	1.269830E+02	  0.082124248	2.120100E+01	  0.082124248	2.123800E+01
312	  0.082324654	-6.357000E+00	  0.082324654	1.262090E+02	  0.082324654	2.135700E+01	  0.082324654	2.156400E+01
313	  0.082525052	-6.372000E+00	  0.082525052	1.254120E+02	  0.082525052	2.152900E+01	  0.082525052	2.189800E+01
314	  0.082725458	-6.387000E+00	  0.082725458	1.246910E+02	  0.082725458	2.169300E+01	  0.082725458	2.219800E+01
315	  0.082925856	-6.407000E+00	  0.082925856	1.239590E+02	  0.082925856	2.187600E+01	  0.082925856	2.249800E+01
316	  0.083126254	-6.427000E+00	  0.083126254	1.232330E+02	  0.083126254	2.205800E+01	  0.083126254	2.279700E+01
317	  0.083326660	-6.445000E+00	  0.083326660	1.224640E+02	  0.083326660	2.224900E+01	  0.083326660	2.311500E+01
318	  0.083527058	-6.461000E+00	  0.083527058	1.216910E+02	  0.083527058	2.243500E+01	  0.083527058	2.344000E+01
319	  0.083727457	-6.480000E+00	  0.083727457	1.209190E+02	  0.083727457	2.263300E+01	  0.083727457	2.376000E+01
320	  0.083927862	-6.496000E+00	  0.083927862	1.201590E+02	  0.083927862	2.282700E+01	  0.083927862	2.407800E+01
321	  0.084128261	-6.514000E+00	  0.084128261	1.193750E+02	  0.084128261	2.303100E+01	  0.084128261	2.440600E+01
322	  0.084328659	-6.532000E+00	  0.084328659	1.186410E+02	  0.084328659	2.323100E+01	  0.084328659	2.471100E+01
323	  0.084529065	-6.550000E+00	  0.084529065	1.179190E+02	  0.084529065	2.342900E+01	  0.084529065	2.501200E+01
324	  0.084729463	-6.562000E+00	  0.084729463	1.172100E+02	  0.084729463	2.361200E+01	  0.084729463	2.531400E+01
325	  0.084929861	-6.582000E+00	  0.084929861	1.164830E+02	  0.084929861	2.382400E+01	  0.084929861	2.561500E+01
326	  0.085130267	-6.596000E+00	  0.085130267	1.157570E+02	  0.085130267	2.402300E+01	  0.085130267	2.592300E+01
327	  0.085330658	-6.617000E+00	  0.085330658	1.150400E+02	  0.085330658	2.424300E+01	  0.085330658	2.621800E+01
328	  0.085531056	-6.636000E+00	  0.085531056	1.143440E+02	  0.085531056	2.445600E+01	  0.085531056	2.650600E+01
329	  0.085731462	-6.659000E+00	  0.085731462	1.136770E+02	  0.085731462	2.467700E+01	  0.085731462	2.677500E+01
330	  0.085931860	-6.680000E+00	  0.085931860	1.129840E+02	  0.085931860	2.490300E+01	  0.085931860	2.705800E+01
331	  0.086132258	-6.698000E+00	  0.086132258	1.122410E+02	  0.086132258	2.513300E+01	  0.086132258	2.736900E+01
332	  0.086332664	-6.721000E+00	  0.086332664	1.115500E+02	  0.086332664	2.537000E+01	  0.086332664	2.764800E+01
333	  0.086533062	-6.737000E+00	  0.086533062	1.108220E+02	  0.086533062	2.559800E+01	  0.086533062	2.795500E+01
334	  0.086733460	-6.756000E+00	  0.086733460	1.101240E+02	  0.086733460	2.583000E+01	  0.086733460	2.824500E+01
335	  0.086933866	-6.773000E+00	  0.086933866	1.094500E+02	  0.086933866	2.605400E+01	  0.086933866	2.852600E+01
336	  0.087134264	-6.794000E+00	  0.087134264	1.087810E+02	  0.087134264	2.629600E+01	  0.087134264	2.879600E+01
337	  0.087334670	-6.812000E+00	  0.087334670	1.081300E+02	  0.087334670	2.652400E+01	  0.087334670	2.906400E+01
338	  0.087535068	-6.827000E+00	  0.087535068	1.074340E+02	  0.087535068	2.675900E+01	  0.087535068	2.935900E+01
339	  0.087735467	-6.843000E+00	  0.087735467	1.067920E+02	  0.087735467	2.698400E+01	  0.087735467	2.962700E+01
340	  0.087935872	-6.864000E+00	  0.087935872	1.061370E+02	  0.087935872	2.723200E+01	  0.087935872	2.989100E+01
341	  0.088136271	-6.886000E+00	  0.088136271	1.055010E+02	  0.088136271	2.748200E+01	  0.088136271	3.014400E+01
342	  0.088336669	-6.912000E+00	  0.088336669	1.048350E+02	  0.088336669	2.775700E+01	  0.088336669	3.040100E+01
343	  0.088537075	-6.939000E+00	  0.088537075	1.041980E+02	  0.088537075	2.802800E+01	  0.088537075	3.064300E+01
344	  0.088737473	-6.954000E+00	  0.088737473	1.034910E+02	  0.088737473	2.828700E+01	  0.088737473	3.094200E+01
345	  0.088937871	-6.981000E+00	  0.088937871	1.028260E+02	  0.088937871	2.857500E+01	  0.088937871	3.119500E+01
346	  0.089138277	-7.003000E+00	  0.089138277	1.021160E+02	  0.089138277	2.886600E+01	  0.089138277	3.147900E+01
347	  0.089338675	-7.019000E+00	  0.089338675	1.014650E+02	  0.089338675	2.912300E+01	  0.089338675	3.174700E+01
348	  0.089539073	-7.048000E+00	  0.089539073	1.007690E+02	  0.089539073	2.943700E+01	  0.089539073	3.200900E+01
349	  0.089739479	-7.067000E+00	  0.089739479	1.001110E+02	  0.089739479	2.971600E+01	  0.089739479	3.227000E+01
350	  0.089939877	-7.088000E+00	  0.089939877	9.943400E+01	  0.089939877	3.000700E+01	  0.089939877	3.254000E+01
351	  0.090140276	-7.103000E+00	  0.090140276	9.878400E+01	  0.090140276	3.027800E+01	  0.090140276	3.280600E+01
352	  0.090340681	-7.127000E+00	  0.090340681	9.810100E+01	  0.090340681	3.058900E+01	  0.090340681	3.306800E+01
353	  0.090541080	-7.153000E+00	  0.090541080	9.745600E+01	  0.090541080	3.089800E+01	  0.090541080	3.330700E+01
354	  0.090741485	-7.177000E+00	  0.090741485	9.681800E+01	  0.090741485	3.120400E+01	  0.090741485	3.354400E+01
355	  0.090941884	-7.208000E+00	  0.090941884	9.618300E+01	  0.090941884	3.153300E+01	  0.090941884	3.376100E+01
356	  0.091142282	-7.233000E+00	  0.091142282	9.552300E+01	  0.091142282	3.185400E+01	  0.091142282	3.400600E+01
357	  0.091342688	-7.261000E+00	  0.091342688	9.487500E+01	  0.091342688	3.218700E+01	  0.091342688	3.423400E+01
358	  0.091543086	-7.288000E+00	  0.091543086	9.421700E+01	  0.091543086	3.252500E+01	  0.091543086	3.446600E+01
359	  0.091743484	-7.313000E+00	  0.091743484	9.355100E+01	  0.091743484	3.286300E+01	  0.091743484	3.470700E+01
360	  0.091943890	-7.342000E+00	  0.091943890	9.291400E+01	  0.091943890	3.320600E+01	  0.091943890	3.492100E+01
361	  0.092144288	-7.368000E+00	  0.092144288	9.228800E+01	  0.092144288	3.353900E+01	  0.092144288	3.513700E+01
362	  0.092344686	-7.398000E+00	  0.092344686	9.168200E+01	  0.092344686	3.388100E+01	  0.092344686	3.533100E+01
363	  0.092545092	-7.418000E+00	  0.092545092	9.108100E+01	  0.092545092	3.419500E+01	  0.092545092	3.554700E+01
364	  0.092745490	-7.453000E+00	  0.092745490	9.048500E+01	  0.092745490	3.455300E+01	  0.092745490	3.571700E+01
365	  0.092945889	-7.476000E+00	  0.092945889	8.987900E+01	  0.092945889	3.488500E+01	  0.092945889	3.592300E+01
366	  0.093146294	-7.511000E+00	  0.093146294	8.931100E+01	  0.093146294	3.524000E+01	  0.093146294	3.607600E+01
367	  0.093346693	-7.540000E+00	  0.093346693	8.877800E+01	  0.093346693	3.556100E+01	  0.093346693	3.623000E+01
368	  0.093547091	-7.573000E+00	  0.093547091	8.821400E+01	  0.093547091	3.591500E+01	  0.093547091	3.637900E+01
369	  0.093747497	-7.611000E+00	  0.093747497	8.762700E+01	  0.093747497	3.629400E+01	  0.093747497	3.652400E+01
370	  0.093947895	-7.647000E+00	  0.093947895	8.705100E+01	  0.093947895	3.666500E+01	  0.093947895	3.666700E+01
371	  0.094148301	-7.675000E+00	  0.094148301	8.646900E+01	  0.094148301	3.702300E+01	  0.094148301	3.683000E+01
372	  0.094348699	-7.708000E+00	  0.094348699	8.591700E+01	  0.094348699	3.738100E+01	  0.094348699	3.696500E+01
373	  0.094549097	-7.740000E+00	  0.094549097	8.537200E+01	  0.094549097	3.773700E+01	  0.094549097	3.709600E+01
374	  0.094749503	-7.776000E+00	  0.094749503	8.479600E+01	  0.094749503	3.812100E+01	  0.094749503	3.722500E+01
375	  0.094949901	-7.807000E+00	  0.094949901	8.428700E+01	  0.094949901	3.846000E+01	  0.094949901	3.734000E+01
376	  0.095150299	-7.834000E+00	  0.095150299	8.377000E+01	  0.095150299	3.879500E+01	  0.095150299	3.746800E+01
377	  0.095350705	-7.861000E+00	  0.095350705	8.324300E+01	  0.095350705	3.914000E+01	  0.095350705	3.759500E+01
378	  0.095551103	-7.897000E+00	  0.095551103	8.275000E+01	  0.095551103	3.949200E+01	  0.095551103	3.767800E+01
379	  0.095751502	-7.927000E+00	  0.095751502	8.226000E+01	  0.095751502	3.982900E+01	  0.095751502	3.777600E+01
380	  0.095951907	-7.953000E+00	  0.095951907	8.176300E+01	  0.095951907	4.016100E+01	  0.095951907	3.788600E+01
381	  0.096152306	-7.983000E+00	  0.096152306	8.132500E+01	  0.096152306	4.047600E+01	  0.096152306	3.795800E+01
382	  0.096352704	-8.019000E+00	  0.096352704	8.083300E+01	  0.096352704	4.083600E+01	  0.096352704	3.802500E+01
383	  0.096553110	-8.051000E+00	  0.096553110	8.041800E+01	  0.096553110	4.114500E+01	  0.096553110	3.807600E+01
384	  0.096753508	-8.081000E+00	  0.096753508	7.991500E+01	  0.096753508	4.150000E+01	  0.096753508	3.816300E+01
385	  0.096953906	-8.113000E+00	  0.096953906	7.944800E+01	  0.096953906	4.184100E+01	  0.096953906	3.822700E+01
386	  0.097154312	-8.139000E+00	  0.097154312	7.901900E+01	  0.097154312	4.214700E+01	  0.097154312	3.829600E+01
387	  0.097354710	-8.173000E+00	  0.097354710	7.861000E+01	  0.097354710	4.246400E+01	  0.097354710	3.832400E+01
388	  0.097555116	-8.196000E+00	  0.097555116	7.817400E+01	  0.097555116	4.277000E+01	  0.097555116	3.840200E+01
389	  0.097755514	-8.230000E+00	  0.097755514	7.772900E+01	  0.097755514	4.310900E+01	  0.097755514	3.843900E+01
390	  0.097955912	-8.248000E+00	  0.097955912	7.734800E+01	  0.097955912	4.337300E+01	  0.097955912	3.851200E+01
391	  0.098156318	-8.278000E+00	  0.098156318	7.693500E+01	  0.098156318	4.368900E+01	  0.098156318	3.854400E+01
392	  0.098356716	-8.304000E+00	  0.098356716	7.655200E+01	  0.098356716	4.397600E+01	  0.098356716	3.858200E+01
393	  0.098557115	-8.333000E+00	  0.098557115	7.616700E+01	  0.098557115	4.427200E+01	  0.098557115	3.860700E+01
394	  0.098757520	-8.362000E+00	  0.098757520	7.580700E+01	  0.098757520	4.455700E+01	  0.098757520	3.861700E+01
395	  0.098957919	-8.386000E+00	  0.098957919	7.544500E+01	  0.098957919	4.482900E+01	  0.098957919	3.864800E+01
396	  0.099158317	-8.408000E+00	  0.099158317	7.504000E+01	  0.099158317	4.512500E+01	  0.099158317	3.870100E+01
397	  0.099358723	-8.433000E+00	  0.099358723	7.466900E+01	  0.099358723	4.540800E+01	  0.099358723	3.872400E+01
398	  0.099559121	-8.456000E+00	  0.099559121	7.428100E+01	  0.099559121	4.569900E+01	  0.099559121	3.876100E+01
399	  0.099759519	-8.475000E+00	  0.099759519	7.391400E+01	  0.099759519	4.596700E+01	  0.099759519	3.880700E+01
400	  0.099959925	-8.490000E+00	  0.099959925	7.352700E+01	  0.099959925	4.624200E+01	  0.099959925	3.887100E+01
401	  0.100160323	-8.502000E+00	  0.100160323	7.310300E+01	  0.100160323	4.653500E+01	  0.100160323	3.896000E+01
402	  0.100360721	-8.521000E+00	  0.100360721	7.274700E+01	  0.100360721	4.680100E+01	  0.100360721	3.899500E+01
403	  0.100561127	-8.528000E+00	  0.100561127	7.241600E+01	  0.100561127	4.702800E+01	  0.100561127	3.906900E+01
404	  0.100761525	-8.529000E+00	  0.100761525	7.207000E+01	  0.100761525	4.725300E+01	  0.100761525	3.917500E+01
405	  0.100961931	-8.537000E+00	  0.100961931	7.167000E+01	  0.100961931	4.752900E+01	  0.100961931	3.926600E+01
406	  0.101162329	-8.545000E+00	  0.101162329	7.131800E+01	  0.101162329	4.777400E+01	  0.101162329	3.934200E+01
407	  0.101362728	-8.542000E+00	  0.101362728	7.102800E+01	  0.101362728	4.796000E+01	  0.101362728	3.944100E+01
408	  0.101563133	-8.550000E+00	  0.101563133	7.071200E+01	  0.101563133	4.818500E+01	  0.101563133	3.950300E+01
409	  0.101763532	-8.558000E+00	  0.101763532	7.027500E+01	  0.101763532	4.849200E+01	  0.101763532	3.960000E+01
410	  0.101963930	-8.551000E+00	  0.101963930	6.992700E+01	  0.101963930	4.871200E+01	  0.101963930	3.973700E+01
411	  0.102164336	-8.550000E+00	  0.102164336	6.958100E+01	  0.102164336	4.894600E+01	  0.102164336	3.984200E+01
412	  0.102364734	-8.543000E+00	  0.102364734	6.926100E+01	  0.102364734	4.915000E+01	  0.102364734	3.996900E+01
413	  0.102565132	-8.540000E+00	  0.102565132	6.888900E+01	  0.102565132	4.940100E+01	  0.102565132	4.009200E+01
414	  0.102765530	-8.528000E+00	  0.102765530	6.849500E+01	  0.102765530	4.965200E+01	  0.102765530	4.026100E+01
415	  0.102965929	-8.535000E+00	  0.102965929	6.811100E+01	  0.102965929	4.993300E+01	  0.102965929	4.034000E+01
416	  0.103166327	-8.521000E+00	  0.103166327	6.775300E+01	  0.103166327	5.016100E+01	  0.103166327	4.050400E+01
417	  0.103366733	-8.509000E+00	  0.103366733	6.738800E+01	  0.103366733	5.039800E+01	  0.103366733	4.066400E+01
418	  0.103567131	-8.494000E+00	  0.103567131	6.696700E+01	  0.103567131	5.067300E+01	  0.103567131	4.085400E+01
419	  0.103767529	-8.488000E+00	  0.103767529	6.652600E+01	  0.103767529	5.098300E+01	  0.103767529	4.100400E+01
420	  0.103967935	-8.491000E+00	  0.103967935	6.621600E+01	  0.103967935	5.121400E+01	  0.103967935	4.107700E+01
421	  0.104168333	-8.488000E+00	  0.104168333	6.574800E+01	  0.104168333	5.155500E+01	  0.104168333	4.121600E+01
422	  0.104368731	-8.480000E+00	  0.104368731	6.535600E+01	  0.104368731	5.183400E+01	  0.104368731	4.135900E+01
423	  0.104569137	-8.470000E+00	  0.104569137	6.494900E+01	  0.104569137	5.212200E+01	  0.104569137	4.151700E+01
424	  0.104769535	-8.461000E+00	  0.104769535	6.449600E+01	  0.104769535	5.244900E+01	  0.104769535	4.168300E+01
425	  0.104969934	-8.449000E+00	  0.104969934	6.400700E+01	  0.104969934	5.280500E+01	  0.104969934	4.186700E+01
426	  0.105170339	-8.448000E+00	  0.105170339	6.354600E+01	  0.105170339	5.316100E+01	  0.105170339	4.199100E+01
427	  0.105370738	-8.435000E+00	  0.105370738	6.298300E+01	  0.105370738	5.358100E+01	  0.105370738	4.219600E+01
428	  0.105571143	-8.431000E+00	  0.105571143	6.259400E+01	  0.105571143	5.388200E+01	  0.105571143	4.231300E+01
429	  0.105771542	-8.418000E+00	  0.105771542	6.214500E+01	  0.105771542	5.422100E+01	  0.105771542	4.249100E+01
430	  0.105971940	-8.408000E+00	  0.105971940	6.162500E+01	  0.105971940	5.462700E+01	  0.105971940	4.266500E+01
431	  0.106172346	-8.390000E+00	  0.106172346	6.110800E+01	  0.106172346	5.502300E+01	  0.106172346	4.288000E+01
432	  0.106372744	-8.381000E+00	  0.106372744	6.060500E+01	  0.106372744	5.542500E+01	  0.106372744	4.304700E+01
433	  0.106573142	-8.366000E+00	  0.106573142	6.013600E+01	  0.106573142	5.579600E+01	  0.106573142	4.323100E+01
434	  0.106773548	-8.357000E+00	  0.106773548	5.957600E+01	  0.106773548	5.625800E+01	  0.106773548	4.340500E+01
435	  0.106973946	-8.334000E+00	  0.106973946	5.906000E+01	  0.106973946	5.666800E+01	  0.106973946	4.364300E+01
436	  0.107174344	-8.322000E+00	  0.107174344	5.856800E+01	  0.107174344	5.708000E+01	  0.107174344	4.381000E+01
437	  0.107374750	-8.309000E+00	  0.107374750	5.803600E+01	  0.107374750	5.752800E+01	  0.107374750	4.399600E+01
438	  0.107575148	-8.294000E+00	  0.107575148	5.755700E+01	  0.107575148	5.793500E+01	  0.107575148	4.417600E+01
439	  0.107775547	-8.288000E+00	  0.107775547	5.705700E+01	  0.107775547	5.837800E+01	  0.107775547	4.430100E+01
440	  0.107975952	-8.278000E+00	  0.107975952	5.648900E+01	  0.107975952	5.888200E+01	  0.107975952	4.446300E+01
441	  0.108176351	-8.250000E+00	  0.108176351	5.594700E+01	  0.108176351	5.934800E+01	  0.108176351	4.473100E+01
442	  0.108376749	-8.240000E+00	  0.108376749	5.538700E+01	  0.108376749	5.985800E+01	  0.108376749	4.488700E+01
443	  0.108577155	-8.234000E+00	  0.108577155	5.486800E+01	  0.108577155	6.034300E+01	  0.108577155	4.500100E+01
444	  0.108777553	-8.218000E+00	  0.108777553	5.428600E+01	  0.108777553	6.088300E+01	  0.108777553	4.518900E+01
445	  0.108977959	-8.211000E+00	  0.108977959	5.373500E+01	  0.108977959	6.140700E+01	  0.108977959	4.531400E+01
446	  0.109178357	-8.195000E+00	  0.109178357	5.324800E+01	  0.109178357	6.186900E+01	  0.109178357	4.548600E+01
447	  0.109378755	-8.193000E+00	  0.109378755	5.261100E+01	  0.109378755	6.249700E+01	  0.109378755	4.557500E+01
448	  0.109579161	-8.182000E+00	  0.109579161	5.200800E+01	  0.109579161	6.309200E+01	  0.109579161	4.571700E+01
449	  0.109779559	-8.174000E+00	  0.109779559	5.139700E+01	  0.109779559	6.370600E+01	  0.109779559	4.582600E+01
450	  0.109979957	-8.163000E+00	  0.109979957	5.084800E+01	  0.109979957	6.426200E+01	  0.109979957	4.595400E+01
451	  0.110180363	-8.162000E+00	  0.110180363	5.021300E+01	  0.110180363	6.492000E+01	  0.110180363	4.600900E+01
452	  0.110380761	-8.158000E+00	  0.110380761	4.957500E+01	  0.110380761	6.558700E+01	  0.110380761	4.607700E+01
453	  0.110581160	-8.151000E+00	  0.110581160	4.888800E+01	  0.110581160	6.631500E+01	  0.110581160	4.616000E+01
454	  0.110781565	-8.144000E+00	  0.110781565	4.823300E+01	  0.110781565	6.701700E+01	  0.110781565	4.623200E+01
455	  0.110981964	-8.140000E+00	  0.110981964	4.753200E+01	  0.110981964	6.777900E+01	  0.110981964	4.626700E+01
456	  0.111182362	-8.130000E+00	  0.111182362	4.687300E+01	  0.111182362	6.850500E+01	  0.111182362	4.634100E+01
457	  0.111382768	-8.121000E+00	  0.111382768	4.620000E+01	  0.111382768	6.925700E+01	  0.111382768	4.639500E+01
458	  0.111583166	-8.121000E+00	  0.111583166	4.549900E+01	  0.111583166	7.004700E+01	  0.111583166	4.637100E+01
459	  0.111783572	-8.117000E+00	  0.111783572	4.485000E+01	  0.111783572	7.078900E+01	  0.111783572	4.636900E+01
460	  0.111983970	-8.112000E+00	  0.111983970	4.413300E+01	  0.111983970	7.161700E+01	  0.111983970	4.635600E+01
461	  0.112184368	-8.099000E+00	  0.112184368	4.339200E+01	  0.112184368	7.248900E+01	  0.112184368	4.638200E+01
462	  0.112384774	-8.101000E+00	  0.112384774	4.270300E+01	  0.112384774	7.330000E+01	  0.112384774	4.628600E+01
463	  0.112585172	-8.095000E+00	  0.112585172	4.196000E+01	  0.112585172	7.419100E+01	  0.112585172	4.623400E+01
464	  0.112785570	-8.094000E+00	  0.112785570	4.119700E+01	  0.112785570	7.510900E+01	  0.112785570	4.611300E+01
465	  0.112985976	-8.091000E+00	  0.112985976	4.051100E+01	  0.112985976	7.594700E+01	  0.112985976	4.600600E+01
466	  0.113186374	-8.082000E+00	  0.113186374	3.974300E+01	  0.113186374	7.690100E+01	  0.113186374	4.591400E+01
467	  0.113386773	-8.093000E+00	  0.113386773	3.906500E+01	  0.113386773	7.772100E+01	  0.113386773	4.566600E+01
468	  0.113587178	-8.091000E+00	  0.113587178	3.828800E+01	  0.113587178	7.869100E+01	  0.113587178	4.547400E+01
469	  0.113787577	-8.093000E+00	  0.113787577	3.757000E+01	  0.113787577	7.958600E+01	  0.113787577	4.523900E+01
470	  0.113987975	-8.095000E+00	  0.113987975	3.671700E+01	  0.113987975	8.065800E+01	  0.113987975	4.494200E+01
471	  0.114188381	-8.098000E+00	  0.114188381	3.605000E+01	  0.114188381	8.149800E+01	  0.114188381	4.468200E+01
472	  0.114388779	-8.103000E+00	  0.114388779	3.519500E+01	  0.114388779	8.257500E+01	  0.114388779	4.430100E+01
473	  0.114589177	-8.117000E+00	  0.114589177	3.437600E+01	  0.114589177	8.358000E+01	  0.114589177	4.382700E+01
474	  0.114789583	-8.130000E+00	  0.114789583	3.356700E+01	  0.114789583	8.457700E+01	  0.114789583	4.334600E+01
475	  0.114989981	-8.142000E+00	  0.114989981	3.276000E+01	  0.114989981	8.557000E+01	  0.114989981	4.283900E+01
476	  0.115190387	-8.158000E+00	  0.115190387	3.193400E+01	  0.115190387	8.656800E+01	  0.115190387	4.225600E+01
477	  0.115390785	-8.174000E+00	  0.115390785	3.107800E+01	  0.115390785	8.760000E+01	  0.115390785	4.162900E+01
478	  0.115591183	-8.184000E+00	  0.115591183	3.018900E+01	  0.115591183	8.868700E+01	  0.115591183	4.098900E+01
479	  0.115791589	-8.198000E+00	  0.115791589	2.930900E+01	  0.115791589	8.974200E+01	  0.115791589	4.029000E+01
480	  0.115991987	-8.219000E+00	  0.115991987	2.841900E+01	  0.115991987	9.076200E+01	  0.115991987	3.948600E+01
481	  0.116192386	-8.238000E+00	  0.116192386	2.750500E+01	  0.116192386	9.180400E+01	  0.116192386	3.864100E+01
482	  0.116392791	-8.259000E+00	  0.116392791	2.658700E+01	  0.116392791	9.282000E+01	  0.116392791	3.773500E+01
483	  0.116593190	-8.281000E+00	  0.116593190	2.565400E+01	  0.116593190	9.383200E+01	  0.116593190	3.677500E+01
484	  0.116793588	-8.309000E+00	  0.116793588	2.469200E+01	  0.116793588	9.481900E+01	  0.116793588	3.570500E+01
485	  0.116993994	-8.334000E+00	  0.116993994	2.370800E+01	  0.116993994	9.581300E+01	  0.116993994	3.459100E+01
486	  0.117194392	-8.358000E+00	  0.117194392	2.278600E+01	  0.117194392	9.671600E+01	  0.117194392	3.351000E+01
487	  0.117394790	-8.386000E+00	  0.117394790	2.180500E+01	  0.117394790	9.761900E+01	  0.117394790	3.229800E+01
488	  0.117595196	-8.420000E+00	  0.117595196	2.083300E+01	  0.117595196	9.843200E+01	  0.117595196	3.101600E+01
489	  0.117795594	-8.455000E+00	  0.117795594	1.981800E+01	  0.117795594	9.924400E+01	  0.117795594	2.965600E+01
490	  0.117995992	-8.488000E+00	  0.117995992	1.881100E+01	  0.117995992	1.000060E+02	  0.117995992	2.827600E+01
491	  0.118196398	-8.528000E+00	  0.118196398	1.778700E+01	  0.118196398	1.006770E+02	  0.118196398	2.680300E+01
492	  0.118396796	-8.574000E+00	  0.118396796	1.675900E+01	  0.118396796	1.012530E+02	  0.118396796	2.526700E+01
493	  0.118597202	-8.625000E+00	  0.118597202	1.574500E+01	  0.118597202	1.017040E+02	  0.118597202	2.369900E+01
494	  0.118797600	-8.668000E+00	  0.118797600	1.470600E+01	  0.118797600	1.021940E+02	  0.118797600	2.213600E+01
495	  0.118997999	-8.724000E+00	  0.118997999	1.363800E+01	  0.118997999	1.025160E+02	  0.118997999	2.044700E+01
496	  0.119198404	-8.781000E+00	  0.119198404	1.249900E+01	  0.119198404	1.028100E+02	  0.119198404	1.866100E+01
497	  0.119398803	-8.836000E+00	  0.119398803	1.141200E+01	  0.119398803	1.030120E+02	  0.119398803	1.695500E+01
498	  0.119599201	-8.903000E+00	  0.119599201	1.029200E+01	  0.119599201	1.030600E+02	  0.119599201	1.516600E+01
499	  0.119799607	-8.973000E+00	  0.119799607	9.184000E+00	  0.119799607	1.029860E+02	  0.119799607	1.339700E+01
500	  0.120000005	-9.039000E+00	  0.120000005	8.012000E+00	  0.120000005	1.029120E+02	  0.120000005	1.157700E+01
