! Anritsu VNA Master:             	Model: MS2036C/10/77
! SN:             	1601066
! /card0/usr/18may27.balun/5a..r50.txt
! Existing Calibration Information:
! TYPE:             	Current Settings	Active Cal Settings
! TIME:             	05/27/2018 04:57:18 PM	05/27/2018 04:42:15 PM
! INTERNAL TEMP:    	53.3 C	52.0 C
! # POINTS:         	500	500
! START FREQ:       	20.000 MHz	20.000 MHz
! STOP FREQ:        	120.000 MHz	120.000 MHz
! SOURCE POWER:     	High	High
! IFBW:             	50 Hz	50 Hz
! AVG FACTOR:       	  1 	  1 
! REF PLANE 1:      	0 mm	0 mm
! REF PLANE 2:      	0 mm	0 mm
! CAL TYPE:         	Full S11	Full S11
! CAL METHOD:       	SOLT	SOLT
! CAL LINE TYPE:    	Coax	Coax
! DUT PORT 1:       	K-Conn(M)	K-Conn(M)
! DUT PORT 2:       	K-Conn(M)	K-Conn(M)
! CAL STATUS:       	OK: Accuracy High	--
! PROP-V:       	0.700
! CABLE LOSS:       	0.000 dB/m
! REF IMPEDANCE:       	50.0
! Trace Specific Parameters:	TR1	TR2	TR3	TR4
! TRACE.#.Y (GRAPH TYPE)	LOG MAG	PHASE	REAL IMPEDANCE	IMAGINARY IMPEDANCE
! TRACE.#.X 	FREQ.GHZ	FREQ.GHZ	FREQ.GHZ	FREQ.GHZ
! S-PARAMETER	S11	S11	S11	S11
! SMOOTH/APERTURE %	0	0	0	0
! WINDOW	NSL	NSL	NSL	NSL
! GATING	OFF	OFF	OFF	OFF
! FGTD	OFF	OFF	OFF	OFF
Marker Information per Trace:	TR1	TR2	TR3	TR4
!MK1	--	--	--	"MK1 TR4:  70.100 200 MHz,Z:(52.341 ohm, 0.887 ohm)"
!MK2	--	--	--	--
!MK3	--	--	--	--
!MK4	--	--	--	--
!MK5	--	--	--	--
!MK6	--	--	--	--
!MK7	--	--	--	--
!MK8	--	--	--	--
PNT	TR1.FREQ.GHZ	TR1.LOG MAG.dB	TR2.FREQ.GHZ	TR2.PHASE.deg	TR3.FREQ.GHZ	TR3.REAL IMPEDANCE.ohm	TR4.FREQ.GHZ	TR4.IMAGINARY IMPEDANCE.ohm
1	  0.020000000	-3.955700E+01	  0.020000000	4.891000E+01	  0.020000000	5.068900E+01	  0.020000000	8.040000E-01
2	  0.020200402	-3.928600E+01	  0.020200402	4.810800E+01	  0.020200402	5.072300E+01	  0.020200402	8.190000E-01
3	  0.020400802	-3.903800E+01	  0.020400802	4.790000E+01	  0.020400802	5.074700E+01	  0.020400802	8.410000E-01
4	  0.020601204	-3.884100E+01	  0.020601204	4.742000E+01	  0.020601204	5.077100E+01	  0.020601204	8.540000E-01
5	  0.020801604	-3.865300E+01	  0.020801604	4.843300E+01	  0.020801604	5.077300E+01	  0.020801604	8.870000E-01
6	  0.021002004	-3.840200E+01	  0.021002004	4.888900E+01	  0.021002004	5.078800E+01	  0.021002004	9.190000E-01
7	  0.021202406	-3.821300E+01	  0.021202406	4.880200E+01	  0.021202406	5.080600E+01	  0.021202406	9.390000E-01
8	  0.021402806	-3.795200E+01	  0.021402806	4.888500E+01	  0.021402806	5.083000E+01	  0.021402806	9.690000E-01
9	  0.021603208	-3.790700E+01	  0.021603208	4.980700E+01	  0.021603208	5.081800E+01	  0.021603208	9.870000E-01
10	  0.021803608	-3.771300E+01	  0.021803608	5.094000E+01	  0.021803608	5.081600E+01	  0.021803608	1.026000E+00
11	  0.022004008	-3.773500E+01	  0.022004008	5.131700E+01	  0.022004008	5.080700E+01	  0.022004008	1.029000E+00
12	  0.022204408	-3.768600E+01	  0.022204408	5.264500E+01	  0.022204408	5.078700E+01	  0.022204408	1.054000E+00
13	  0.022404809	-3.771500E+01	  0.022404809	5.300200E+01	  0.022404809	5.077700E+01	  0.022404809	1.055000E+00
14	  0.022605211	-3.765500E+01	  0.022605211	5.451800E+01	  0.022605211	5.075400E+01	  0.022605211	1.082000E+00
15	  0.022805611	-3.759900E+01	  0.022805611	5.492900E+01	  0.022805611	5.075100E+01	  0.022805611	1.095000E+00
16	  0.023006011	-3.765100E+01	  0.023006011	5.568600E+01	  0.023006011	5.073200E+01	  0.023006011	1.098000E+00
17	  0.023206413	-3.763000E+01	  0.023206413	5.516000E+01	  0.023206413	5.074400E+01	  0.023206413	1.094000E+00
18	  0.023406813	-3.779200E+01	  0.023406813	5.645600E+01	  0.023406813	5.070500E+01	  0.023406813	1.089000E+00
19	  0.023607215	-3.782700E+01	  0.023607215	5.649700E+01	  0.023607215	5.070200E+01	  0.023607215	1.086000E+00
20	  0.023807615	-3.791900E+01	  0.023807615	5.605100E+01	  0.023807615	5.070300E+01	  0.023807615	1.069000E+00
21	  0.024008015	-3.791200E+01	  0.024008015	5.582900E+01	  0.024008015	5.070800E+01	  0.024008015	1.067000E+00
22	  0.024208417	-3.806100E+01	  0.024208417	5.557700E+01	  0.024208417	5.070000E+01	  0.024208417	1.045000E+00
23	  0.024408817	-3.823400E+01	  0.024408817	5.512500E+01	  0.024408817	5.069500E+01	  0.024408817	1.019000E+00
24	  0.024609219	-3.816200E+01	  0.024609219	5.396600E+01	  0.024609219	5.072100E+01	  0.024609219	1.013000E+00
25	  0.024809619	-3.819500E+01	  0.024809619	5.343200E+01	  0.024809619	5.072800E+01	  0.024809619	1.003000E+00
26	  0.025010020	-3.811500E+01	  0.025010020	5.273300E+01	  0.025010020	5.074700E+01	  0.025010020	1.003000E+00
27	  0.025210422	-3.808600E+01	  0.025210422	5.148900E+01	  0.025210422	5.077200E+01	  0.025210422	9.900000E-01
28	  0.025410822	-3.797600E+01	  0.025410822	5.057800E+01	  0.025410822	5.079800E+01	  0.025410822	9.900000E-01
29	  0.025611224	-3.788600E+01	  0.025611224	5.065800E+01	  0.025611224	5.080500E+01	  0.025611224	1.002000E+00
30	  0.025811624	-3.775900E+01	  0.025811624	4.958100E+01	  0.025811624	5.083600E+01	  0.025811624	1.001000E+00
31	  0.026012026	-3.762100E+01	  0.026012026	4.955800E+01	  0.026012026	5.085000E+01	  0.026012026	1.017000E+00
32	  0.026212426	-3.752600E+01	  0.026212426	4.894700E+01	  0.026212426	5.087000E+01	  0.026212426	1.020000E+00
33	  0.026412826	-3.736700E+01	  0.026412826	4.905900E+01	  0.026412826	5.088400E+01	  0.026412826	1.041000E+00
34	  0.026613226	-3.717400E+01	  0.026613226	4.863800E+01	  0.026613226	5.091200E+01	  0.026613226	1.058000E+00
35	  0.026813626	-3.714300E+01	  0.026813626	4.918600E+01	  0.026813626	5.090500E+01	  0.026813626	1.070000E+00
36	  0.027014028	-3.699700E+01	  0.027014028	4.925400E+01	  0.027014028	5.091900E+01	  0.027014028	1.090000E+00
37	  0.027214428	-3.691700E+01	  0.027214428	4.920600E+01	  0.027214428	5.092800E+01	  0.027214428	1.099000E+00
38	  0.027414829	-3.692500E+01	  0.027414829	4.985500E+01	  0.027414829	5.091400E+01	  0.027414829	1.109000E+00
39	  0.027615231	-3.679100E+01	  0.027615231	4.982100E+01	  0.027615231	5.092900E+01	  0.027615231	1.126000E+00
40	  0.027815631	-3.674000E+01	  0.027815631	5.031700E+01	  0.027815631	5.092500E+01	  0.027815631	1.141000E+00
41	  0.028016033	-3.669100E+01	  0.028016033	5.102000E+01	  0.028016033	5.091500E+01	  0.028016033	1.158000E+00
42	  0.028216433	-3.666000E+01	  0.028216433	5.123700E+01	  0.028216433	5.091400E+01	  0.028216433	1.166000E+00
43	  0.028416833	-3.664500E+01	  0.028416833	5.212900E+01	  0.028416833	5.089700E+01	  0.028416833	1.182000E+00
44	  0.028617235	-3.664000E+01	  0.028617235	5.213100E+01	  0.028617235	5.089800E+01	  0.028617235	1.183000E+00
45	  0.028817635	-3.666500E+01	  0.028817635	5.211200E+01	  0.028817635	5.089500E+01	  0.028817635	1.179000E+00
46	  0.029018037	-3.671300E+01	  0.029018037	5.216200E+01	  0.029018037	5.088900E+01	  0.029018037	1.173000E+00
47	  0.029218437	-3.680500E+01	  0.029218437	5.211500E+01	  0.029218437	5.088100E+01	  0.029218437	1.160000E+00
48	  0.029418837	-3.686500E+01	  0.029418837	5.194300E+01	  0.029418837	5.087900E+01	  0.029418837	1.149000E+00
49	  0.029619239	-3.689800E+01	  0.029619239	5.185400E+01	  0.029619239	5.087700E+01	  0.029619239	1.143000E+00
50	  0.029819639	-3.696900E+01	  0.029819639	5.131300E+01	  0.029819639	5.088100E+01	  0.029819639	1.126000E+00
51	  0.030020041	-3.695600E+01	  0.030020041	5.066200E+01	  0.030020041	5.089500E+01	  0.030020041	1.117000E+00
52	  0.030220442	-3.697100E+01	  0.030220442	5.024100E+01	  0.030220442	5.090200E+01	  0.030220442	1.109000E+00
53	  0.030420844	-3.691400E+01	  0.030420844	4.914800E+01	  0.030420844	5.092900E+01	  0.030420844	1.099000E+00
54	  0.030621244	-3.688500E+01	  0.030621244	4.777900E+01	  0.030621244	5.095900E+01	  0.030621244	1.080000E+00
55	  0.030821644	-3.684000E+01	  0.030821644	4.738500E+01	  0.030821644	5.097200E+01	  0.030821644	1.079000E+00
56	  0.031022044	-3.672200E+01	  0.031022044	4.698700E+01	  0.031022044	5.099300E+01	  0.031022044	1.087000E+00
57	  0.031222444	-3.668500E+01	  0.031222444	4.659800E+01	  0.031222444	5.100400E+01	  0.031222444	1.085000E+00
58	  0.031422846	-3.654200E+01	  0.031422846	4.611900E+01	  0.031422846	5.103000E+01	  0.031422846	1.095000E+00
59	  0.031623244	-3.642800E+01	  0.031623244	4.566800E+01	  0.031623244	5.105300E+01	  0.031623244	1.102000E+00
60	  0.031823646	-3.625700E+01	  0.031823646	4.501700E+01	  0.031823646	5.108700E+01	  0.031823646	1.112000E+00
61	  0.032024048	-3.606900E+01	  0.032024048	4.546000E+01	  0.032024048	5.110200E+01	  0.032024048	1.145000E+00
62	  0.032224450	-3.596600E+01	  0.032224450	4.527600E+01	  0.032224450	5.111900E+01	  0.032224450	1.155000E+00
63	  0.032424849	-3.588300E+01	  0.032424849	4.548300E+01	  0.032424849	5.112500E+01	  0.032424849	1.171000E+00
64	  0.032625251	-3.570600E+01	  0.032625251	4.560600E+01	  0.032625251	5.114600E+01	  0.032625251	1.198000E+00
65	  0.032825653	-3.560800E+01	  0.032825653	4.612200E+01	  0.032825653	5.114700E+01	  0.032825653	1.222000E+00
66	  0.033026051	-3.549000E+01	  0.033026051	4.690200E+01	  0.033026051	5.114500E+01	  0.033026051	1.255000E+00
67	  0.033226453	-3.541100E+01	  0.033226453	4.740300E+01	  0.033226453	5.114500E+01	  0.033226453	1.277000E+00
68	  0.033426855	-3.537800E+01	  0.033426855	4.803100E+01	  0.033426855	5.113500E+01	  0.033426855	1.294000E+00
69	  0.033627257	-3.536400E+01	  0.033627257	4.802800E+01	  0.033627257	5.113600E+01	  0.033627257	1.296000E+00
70	  0.033827655	-3.533800E+01	  0.033827655	4.907700E+01	  0.033827655	5.111500E+01	  0.033827655	1.321000E+00
71	  0.034028057	-3.539600E+01	  0.034028057	4.921900E+01	  0.034028057	5.110500E+01	  0.034028057	1.315000E+00
72	  0.034228459	-3.540700E+01	  0.034228459	5.011100E+01	  0.034228459	5.108200E+01	  0.034228459	1.330000E+00
73	  0.034428857	-3.552400E+01	  0.034428857	4.985800E+01	  0.034428857	5.107400E+01	  0.034428857	1.307000E+00
74	  0.034629259	-3.548200E+01	  0.034629259	5.055600E+01	  0.034629259	5.106200E+01	  0.034629259	1.327000E+00
75	  0.034829661	-3.560600E+01	  0.034829661	5.078200E+01	  0.034829661	5.104200E+01	  0.034829661	1.311000E+00
76	  0.035030060	-3.563000E+01	  0.035030060	5.089000E+01	  0.035030060	5.103700E+01	  0.035030060	1.310000E+00
77	  0.035230462	-3.567900E+01	  0.035230462	5.085900E+01	  0.035230462	5.103200E+01	  0.035230462	1.302000E+00
78	  0.035430863	-3.580200E+01	  0.035430863	5.082900E+01	  0.035430863	5.101800E+01	  0.035430863	1.282000E+00
79	  0.035631265	-3.590200E+01	  0.035631265	4.987300E+01	  0.035631265	5.102800E+01	  0.035631265	1.251000E+00
80	  0.035831664	-3.590600E+01	  0.035831664	4.961500E+01	  0.035831664	5.103300E+01	  0.035831664	1.245000E+00
81	  0.036032066	-3.598400E+01	  0.036032066	4.860200E+01	  0.036032066	5.104600E+01	  0.036032066	1.216000E+00
82	  0.036232468	-3.607900E+01	  0.036232468	4.787100E+01	  0.036232468	5.105000E+01	  0.036232468	1.189000E+00
83	  0.036432866	-3.610800E+01	  0.036432866	4.682800E+01	  0.036432866	5.106900E+01	  0.036432866	1.166000E+00
84	  0.036633268	-3.606000E+01	  0.036633268	4.608300E+01	  0.036633268	5.109000E+01	  0.036633268	1.158000E+00
85	  0.036833670	-3.608300E+01	  0.036833670	4.494700E+01	  0.036833670	5.111000E+01	  0.036833670	1.133000E+00
86	  0.037034072	-3.594900E+01	  0.037034072	4.434300E+01	  0.037034072	5.114000E+01	  0.037034072	1.139000E+00
87	  0.037234470	-3.586600E+01	  0.037234470	4.328100E+01	  0.037234470	5.117200E+01	  0.037234470	1.129000E+00
88	  0.037434869	-3.572100E+01	  0.037434869	4.253700E+01	  0.037434869	5.120700E+01	  0.037434869	1.133000E+00
89	  0.037635271	-3.564400E+01	  0.037635271	4.195200E+01	  0.037635271	5.123000E+01	  0.037635271	1.131000E+00
90	  0.037835669	-3.552700E+01	  0.037835669	4.192600E+01	  0.037835669	5.124700E+01	  0.037835669	1.146000E+00
91	  0.038036071	-3.543100E+01	  0.038036071	4.074000E+01	  0.038036071	5.128600E+01	  0.038036071	1.133000E+00
92	  0.038236473	-3.528600E+01	  0.038236473	4.100400E+01	  0.038236473	5.130200E+01	  0.038236473	1.158000E+00
93	  0.038436871	-3.517600E+01	  0.038436871	4.081000E+01	  0.038436871	5.132200E+01	  0.038436871	1.169000E+00
94	  0.038637273	-3.498400E+01	  0.038637273	4.076300E+01	  0.038637273	5.135300E+01	  0.038637273	1.195000E+00
95	  0.038837675	-3.491900E+01	  0.038837675	4.062200E+01	  0.038837675	5.136600E+01	  0.038837675	1.200000E+00
96	  0.039038073	-3.470900E+01	  0.039038073	4.087000E+01	  0.039038073	5.139400E+01	  0.039038073	1.237000E+00
97	  0.039238475	-3.470400E+01	  0.039238475	4.148400E+01	  0.039238475	5.138200E+01	  0.039238475	1.252000E+00
98	  0.039438877	-3.449800E+01	  0.039438877	4.138700E+01	  0.039438877	5.141700E+01	  0.039438877	1.281000E+00
99	  0.039639279	-3.445300E+01	  0.039639279	4.169800E+01	  0.039639279	5.141700E+01	  0.039639279	1.295000E+00
100	  0.039839678	-3.434300E+01	  0.039839678	4.215000E+01	  0.039839678	5.142500E+01	  0.039839678	1.324000E+00
101	  0.040040080	-3.436800E+01	  0.040040080	4.238600E+01	  0.040040080	5.141500E+01	  0.040040080	1.326000E+00
102	  0.040240481	-3.421000E+01	  0.040240481	4.351800E+01	  0.040240481	5.141300E+01	  0.040240481	1.379000E+00
103	  0.040440880	-3.419100E+01	  0.040440880	4.405800E+01	  0.040440880	5.140300E+01	  0.040440880	1.395000E+00
104	  0.040641282	-3.415400E+01	  0.040641282	4.413100E+01	  0.040641282	5.140700E+01	  0.040641282	1.403000E+00
105	  0.040841684	-3.419800E+01	  0.040841684	4.463000E+01	  0.040841684	5.138700E+01	  0.040841684	1.408000E+00
106	  0.041042086	-3.419200E+01	  0.041042086	4.536500E+01	  0.041042086	5.137000E+01	  0.041042086	1.427000E+00
107	  0.041242484	-3.418500E+01	  0.041242484	4.553200E+01	  0.041242484	5.136600E+01	  0.041242484	1.432000E+00
108	  0.041442886	-3.419300E+01	  0.041442886	4.587200E+01	  0.041442886	5.135600E+01	  0.041442886	1.439000E+00
109	  0.041643288	-3.432800E+01	  0.041643288	4.613900E+01	  0.041643288	5.132900E+01	  0.041643288	1.422000E+00
110	  0.041843686	-3.433200E+01	  0.041843686	4.640500E+01	  0.041843686	5.132100E+01	  0.041843686	1.428000E+00
111	  0.042044088	-3.436800E+01	  0.042044088	4.679900E+01	  0.042044088	5.130600E+01	  0.042044088	1.431000E+00
112	  0.042244490	-3.439100E+01	  0.042244490	4.667600E+01	  0.042244490	5.130500E+01	  0.042244490	1.424000E+00
113	  0.042444889	-3.449100E+01	  0.042444889	4.665700E+01	  0.042444889	5.129100E+01	  0.042444889	1.407000E+00
114	  0.042645290	-3.453400E+01	  0.042645290	4.687700E+01	  0.042645290	5.127900E+01	  0.042645290	1.404000E+00
115	  0.042845692	-3.463700E+01	  0.042845692	4.666000E+01	  0.042845692	5.126900E+01	  0.042845692	1.383000E+00
116	  0.043046094	-3.469100E+01	  0.043046094	4.630100E+01	  0.043046094	5.127000E+01	  0.043046094	1.366000E+00
117	  0.043246493	-3.479100E+01	  0.043246493	4.627700E+01	  0.043246493	5.125600E+01	  0.043246493	1.349000E+00
118	  0.043446895	-3.489700E+01	  0.043446895	4.559300E+01	  0.043446895	5.125800E+01	  0.043446895	1.318000E+00
119	  0.043647297	-3.482100E+01	  0.043647297	4.427800E+01	  0.043647297	5.129900E+01	  0.043647297	1.300000E+00
120	  0.043847695	-3.493200E+01	  0.043847695	4.424600E+01	  0.043847695	5.128400E+01	  0.043847695	1.283000E+00
121	  0.044048097	-3.496900E+01	  0.044048097	4.304500E+01	  0.044048097	5.130500E+01	  0.044048097	1.250000E+00
122	  0.044248499	-3.500000E+01	  0.044248499	4.171300E+01	  0.044248499	5.133000E+01	  0.044248499	1.215000E+00
123	  0.044448901	-3.493700E+01	  0.044448901	4.074900E+01	  0.044448901	5.136100E+01	  0.044448901	1.201000E+00
124	  0.044649299	-3.488400E+01	  0.044649299	4.014100E+01	  0.044649299	5.138200E+01	  0.044649299	1.194000E+00
125	  0.044849701	-3.482700E+01	  0.044849701	3.856000E+01	  0.044849701	5.142500E+01	  0.044849701	1.163000E+00
126	  0.045050103	-3.480700E+01	  0.045050103	3.783200E+01	  0.045050103	5.144300E+01	  0.045050103	1.147000E+00
127	  0.045250501	-3.467100E+01	  0.045250501	3.726600E+01	  0.045250501	5.147800E+01	  0.045250501	1.151000E+00
128	  0.045450903	-3.454200E+01	  0.045450903	3.628700E+01	  0.045450903	5.152100E+01	  0.045450903	1.143000E+00
129	  0.045651305	-3.439000E+01	  0.045651305	3.626800E+01	  0.045651305	5.154800E+01	  0.045651305	1.163000E+00
130	  0.045851704	-3.429700E+01	  0.045851704	3.580600E+01	  0.045851704	5.157500E+01	  0.045851704	1.163000E+00
131	  0.046052106	-3.408100E+01	  0.046052106	3.511100E+01	  0.046052106	5.162900E+01	  0.046052106	1.174000E+00
132	  0.046252504	-3.392500E+01	  0.046252504	3.495000E+01	  0.046252504	5.166300E+01	  0.046252504	1.191000E+00
133	  0.046452906	-3.383800E+01	  0.046452906	3.512500E+01	  0.046452906	5.167600E+01	  0.046452906	1.209000E+00
134	  0.046653304	-3.360600E+01	  0.046653304	3.530200E+01	  0.046653304	5.171800E+01	  0.046653304	1.248000E+00
135	  0.046853706	-3.345800E+01	  0.046853706	3.605900E+01	  0.046853706	5.173000E+01	  0.046853706	1.293000E+00
136	  0.047054108	-3.325000E+01	  0.047054108	3.595200E+01	  0.047054108	5.177500E+01	  0.047054108	1.323000E+00
137	  0.047254506	-3.317900E+01	  0.047254506	3.674700E+01	  0.047254506	5.177000E+01	  0.047254506	1.359000E+00
138	  0.047454908	-3.306800E+01	  0.047454908	3.740100E+01	  0.047454908	5.177600E+01	  0.047454908	1.397000E+00
139	  0.047655310	-3.302300E+01	  0.047655310	3.823600E+01	  0.047655310	5.176400E+01	  0.047655310	1.431000E+00
140	  0.047855709	-3.296800E+01	  0.047855709	3.902400E+01	  0.047855709	5.175500E+01	  0.047855709	1.465000E+00
141	  0.048056111	-3.303600E+01	  0.048056111	4.022800E+01	  0.048056111	5.170900E+01	  0.048056111	1.489000E+00
142	  0.048256513	-3.292600E+01	  0.048256513	4.118500E+01	  0.048256513	5.170500E+01	  0.048256513	1.538000E+00
143	  0.048456915	-3.303700E+01	  0.048456915	4.195000E+01	  0.048456915	5.166200E+01	  0.048456915	1.540000E+00
144	  0.048657313	-3.304900E+01	  0.048657313	4.251000E+01	  0.048657313	5.164400E+01	  0.048657313	1.554000E+00
145	  0.048857715	-3.313600E+01	  0.048857715	4.318300E+01	  0.048857715	5.160900E+01	  0.048857715	1.557000E+00
146	  0.049058117	-3.330100E+01	  0.049058117	4.379500E+01	  0.049058117	5.156200E+01	  0.049058117	1.544000E+00
147	  0.049258515	-3.341300E+01	  0.049258515	4.418400E+01	  0.049258515	5.153100E+01	  0.049258515	1.534000E+00
148	  0.049458917	-3.357400E+01	  0.049458917	4.425400E+01	  0.049458917	5.150100E+01	  0.049458917	1.506000E+00
149	  0.049659319	-3.370300E+01	  0.049659319	4.406200E+01	  0.049659319	5.148400E+01	  0.049659319	1.479000E+00
150	  0.049859721	-3.384200E+01	  0.049859721	4.368200E+01	  0.049859721	5.147000E+01	  0.049859721	1.445000E+00
151	  0.050060119	-3.401900E+01	  0.050060119	4.363600E+01	  0.050060119	5.144200E+01	  0.050060119	1.413000E+00
152	  0.050260521	-3.419800E+01	  0.050260521	4.258500E+01	  0.050260521	5.143800E+01	  0.050260521	1.358000E+00
153	  0.050460923	-3.426700E+01	  0.050460923	4.135300E+01	  0.050460923	5.145600E+01	  0.050460923	1.315000E+00
154	  0.050661322	-3.438500E+01	  0.050661322	4.058300E+01	  0.050661322	5.145400E+01	  0.050661322	1.278000E+00
155	  0.050861724	-3.449300E+01	  0.050861724	3.904400E+01	  0.050861724	5.147100E+01	  0.050861724	1.222000E+00
156	  0.051062126	-3.452200E+01	  0.051062126	3.703900E+01	  0.051062126	5.150900E+01	  0.051062126	1.166000E+00
157	  0.051262524	-3.454200E+01	  0.051262524	3.599100E+01	  0.051262524	5.152700E+01	  0.051262524	1.135000E+00
158	  0.051462926	-3.441500E+01	  0.051462926	3.363700E+01	  0.051462926	5.159700E+01	  0.051462926	1.087000E+00
159	  0.051663328	-3.427000E+01	  0.051663328	3.265500E+01	  0.051663328	5.164300E+01	  0.051663328	1.078000E+00
160	  0.051863730	-3.408700E+01	  0.051863730	3.129600E+01	  0.051863730	5.170500E+01	  0.051863730	1.061000E+00
161	  0.052064128	-3.389600E+01	  0.052064128	2.976100E+01	  0.052064128	5.177300E+01	  0.052064128	1.038000E+00
162	  0.052264530	-3.373100E+01	  0.052264530	2.935100E+01	  0.052264530	5.181500E+01	  0.052264530	1.045000E+00
163	  0.052464932	-3.350000E+01	  0.052464932	2.899700E+01	  0.052464932	5.187200E+01	  0.052464932	1.063000E+00
164	  0.052665330	-3.324300E+01	  0.052665330	2.911500E+01	  0.052665330	5.192600E+01	  0.052665330	1.100000E+00
165	  0.052865732	-3.297200E+01	  0.052865732	2.885700E+01	  0.052865732	5.199400E+01	  0.052865732	1.127000E+00
166	  0.053066134	-3.272500E+01	  0.053066134	2.922300E+01	  0.053066134	5.204400E+01	  0.053066134	1.174000E+00
167	  0.053266536	-3.259800E+01	  0.053266536	2.983100E+01	  0.053266536	5.206100E+01	  0.053266536	1.215000E+00
168	  0.053466935	-3.244300E+01	  0.053466935	3.060300E+01	  0.053466935	5.208100E+01	  0.053466935	1.266000E+00
169	  0.053667337	-3.226900E+01	  0.053667337	3.118000E+01	  0.053667337	5.211000E+01	  0.053667337	1.314000E+00
170	  0.053867739	-3.218100E+01	  0.053867739	3.260300E+01	  0.053867739	5.209700E+01	  0.053867739	1.381000E+00
171	  0.054068137	-3.214600E+01	  0.054068137	3.289600E+01	  0.054068137	5.209800E+01	  0.054068137	1.398000E+00
172	  0.054268539	-3.209700E+01	  0.054268539	3.450900E+01	  0.054268539	5.206800E+01	  0.054268539	1.466000E+00
173	  0.054468941	-3.206700E+01	  0.054468941	3.562400E+01	  0.054468941	5.204500E+01	  0.054468941	1.512000E+00
174	  0.054669339	-3.215600E+01	  0.054669339	3.675900E+01	  0.054669339	5.199300E+01	  0.054669339	1.536000E+00
175	  0.054869737	-3.220000E+01	  0.054869737	3.760100E+01	  0.054869737	5.195900E+01	  0.054869737	1.557000E+00
176	  0.055070139	-3.226800E+01	  0.055070139	3.781300E+01	  0.055070139	5.193800E+01	  0.055070139	1.551000E+00
177	  0.055270538	-3.238900E+01	  0.055270538	3.855800E+01	  0.055270538	5.189000E+01	  0.055270538	1.554000E+00
178	  0.055470940	-3.248700E+01	  0.055470940	3.882300E+01	  0.055470940	5.186100E+01	  0.055470940	1.545000E+00
179	  0.055671342	-3.263900E+01	  0.055671342	3.946900E+01	  0.055671342	5.181100E+01	  0.055671342	1.537000E+00
180	  0.055871744	-3.283300E+01	  0.055871744	3.925200E+01	  0.055871744	5.177600E+01	  0.055871744	1.496000E+00
181	  0.056072142	-3.295100E+01	  0.056072142	3.891100E+01	  0.056072142	5.176100E+01	  0.056072142	1.464000E+00
182	  0.056272544	-3.313400E+01	  0.056272544	3.802200E+01	  0.056272544	5.174700E+01	  0.056272544	1.406000E+00
183	  0.056472946	-3.328900E+01	  0.056472946	3.708900E+01	  0.056472946	5.173900E+01	  0.056472946	1.351000E+00
184	  0.056673344	-3.337600E+01	  0.056673344	3.629500E+01	  0.056673344	5.174100E+01	  0.056673344	1.313000E+00
185	  0.056873746	-3.341200E+01	  0.056873746	3.518600E+01	  0.056873746	5.175900E+01	  0.056873746	1.274000E+00
186	  0.057074148	-3.345200E+01	  0.057074148	3.290800E+01	  0.057074148	5.180200E+01	  0.057074148	1.196000E+00
187	  0.057274550	-3.336200E+01	  0.057274550	3.127600E+01	  0.057274550	5.185600E+01	  0.057274550	1.156000E+00
188	  0.057474948	-3.333500E+01	  0.057474948	3.047500E+01	  0.057474948	5.187800E+01	  0.057474948	1.133000E+00
189	  0.057675350	-3.319400E+01	  0.057675350	2.886700E+01	  0.057675350	5.194200E+01	  0.057675350	1.098000E+00
190	  0.057875752	-3.306100E+01	  0.057875752	2.769400E+01	  0.057875752	5.199600E+01	  0.057875752	1.074000E+00
191	  0.058076151	-3.285200E+01	  0.058076151	2.711100E+01	  0.058076151	5.205700E+01	  0.058076151	1.080000E+00
192	  0.058276553	-3.262000E+01	  0.058276553	2.681200E+01	  0.058276553	5.211900E+01	  0.058276553	1.100000E+00
193	  0.058476955	-3.237600E+01	  0.058476955	2.659100E+01	  0.058476955	5.218500E+01	  0.058476955	1.124000E+00
194	  0.058677353	-3.215200E+01	  0.058677353	2.669000E+01	  0.058677353	5.224100E+01	  0.058677353	1.159000E+00
195	  0.058877755	-3.198100E+01	  0.058877755	2.698500E+01	  0.058877755	5.228000E+01	  0.058877755	1.195000E+00
196	  0.059078157	-3.182100E+01	  0.059078157	2.740900E+01	  0.059078157	5.231400E+01	  0.059078157	1.235000E+00
197	  0.059278559	-3.164300E+01	  0.059278559	2.849800E+01	  0.059278559	5.233700E+01	  0.059278559	1.307000E+00
198	  0.059478957	-3.146500E+01	  0.059478957	2.942700E+01	  0.059478957	5.236300E+01	  0.059478957	1.375000E+00
199	  0.059679359	-3.144400E+01	  0.059679359	3.056400E+01	  0.059679359	5.234000E+01	  0.059679359	1.426000E+00
200	  0.059879761	-3.137800E+01	  0.059879761	3.155800E+01	  0.059879761	5.233100E+01	  0.059879761	1.479000E+00
201	  0.060080159	-3.132300E+01	  0.060080159	3.288400E+01	  0.060080159	5.231000E+01	  0.060080159	1.543000E+00
202	  0.060280561	-3.135100E+01	  0.060280561	3.380000E+01	  0.060280561	5.227600E+01	  0.060280561	1.575000E+00
203	  0.060480963	-3.141300E+01	  0.060480963	3.497800E+01	  0.060480963	5.222600E+01	  0.060480963	1.610000E+00
204	  0.060681365	-3.141700E+01	  0.060681365	3.642900E+01	  0.060681365	5.218100E+01	  0.060681365	1.665000E+00
205	  0.060881764	-3.153200E+01	  0.060881764	3.669000E+01	  0.060881764	5.214500E+01	  0.060881764	1.652000E+00
206	  0.061082166	-3.173600E+01	  0.061082166	3.765300E+01	  0.061082166	5.206600E+01	  0.061082166	1.648000E+00
207	  0.061282568	-3.189900E+01	  0.061282568	3.818800E+01	  0.061282568	5.201100E+01	  0.061282568	1.635000E+00
208	  0.061482966	-3.213300E+01	  0.061482966	3.850500E+01	  0.061482966	5.194800E+01	  0.061482966	1.601000E+00
209	  0.061683368	-3.236600E+01	  0.061683368	3.832500E+01	  0.061683368	5.190100E+01	  0.061683368	1.550000E+00
210	  0.061883770	-3.253300E+01	  0.061883770	3.800700E+01	  0.061883770	5.187400E+01	  0.061883770	1.509000E+00
211	  0.062084168	-3.276900E+01	  0.062084168	3.705900E+01	  0.062084168	5.184800E+01	  0.062084168	1.437000E+00
212	  0.062284570	-3.294900E+01	  0.062284570	3.623600E+01	  0.062284570	5.183100E+01	  0.062284570	1.380000E+00
213	  0.062484972	-3.309400E+01	  0.062484972	3.482200E+01	  0.062484972	5.183400E+01	  0.062484972	1.311000E+00
214	  0.062685370	-3.315400E+01	  0.062685370	3.336200E+01	  0.062685370	5.185500E+01	  0.062685370	1.254000E+00
215	  0.062885776	-3.323600E+01	  0.062885776	3.061200E+01	  0.062885776	5.189700E+01	  0.062885776	1.152000E+00
216	  0.063086174	-3.319600E+01	  0.063086174	2.980100E+01	  0.063086174	5.192300E+01	  0.063086174	1.130000E+00
217	  0.063286573	-3.312100E+01	  0.063286573	2.752600E+01	  0.063286573	5.198500E+01	  0.063286573	1.061000E+00
218	  0.063486971	-3.299100E+01	  0.063486971	2.562700E+01	  0.063486971	5.205200E+01	  0.063486971	1.009000E+00
219	  0.063687377	-3.276900E+01	  0.063687377	2.441100E+01	  0.063687377	5.212800E+01	  0.063687377	9.910000E-01
220	  0.063887775	-3.256200E+01	  0.063887775	2.292800E+01	  0.063887775	5.220700E+01	  0.063887775	9.580000E-01
221	  0.064088173	-3.235300E+01	  0.064088173	2.270000E+01	  0.064088173	5.226600E+01	  0.064088173	9.730000E-01
222	  0.064288579	-3.207800E+01	  0.064288579	2.198600E+01	  0.064288579	5.235300E+01	  0.064288579	9.760000E-01
223	  0.064488977	-3.186400E+01	  0.064488977	2.136700E+01	  0.064488977	5.242400E+01	  0.064488977	9.750000E-01
224	  0.064689375	-3.157800E+01	  0.064689375	2.200100E+01	  0.064689375	5.249500E+01	  0.064689375	1.037000E+00
225	  0.064889781	-3.137800E+01	  0.064889781	2.292100E+01	  0.064889781	5.253600E+01	  0.064889781	1.104000E+00
226	  0.065090179	-3.108800E+01	  0.065090179	2.330100E+01	  0.065090179	5.261600E+01	  0.065090179	1.162000E+00
227	  0.065290578	-3.091000E+01	  0.065290578	2.397900E+01	  0.065290578	5.265600E+01	  0.065290578	1.219000E+00
228	  0.065490983	-3.076400E+01	  0.065490983	2.586700E+01	  0.065490983	5.265800E+01	  0.065490983	1.331000E+00
229	  0.065691382	-3.067700E+01	  0.065691382	2.694000E+01	  0.065691382	5.265800E+01	  0.065691382	1.396000E+00
230	  0.065891780	-3.067400E+01	  0.065891780	2.831000E+01	  0.065891780	5.262300E+01	  0.065891780	1.461000E+00
231	  0.066092186	-3.061700E+01	  0.066092186	2.952900E+01	  0.066092186	5.260700E+01	  0.066092186	1.528000E+00
232	  0.066292584	-3.072400E+01	  0.066292584	3.083300E+01	  0.066292584	5.253700E+01	  0.066292584	1.568000E+00
233	  0.066492982	-3.067000E+01	  0.066492982	3.178600E+01	  0.066492982	5.252600E+01	  0.066492982	1.621000E+00
234	  0.066693388	-3.078300E+01	  0.066693388	3.309000E+01	  0.066693388	5.245400E+01	  0.066693388	1.656000E+00
235	  0.066893786	-3.091800E+01	  0.066893786	3.456600E+01	  0.066893786	5.237000E+01	  0.066893786	1.691000E+00
236	  0.067094192	-3.113500E+01	  0.067094192	3.521300E+01	  0.067094192	5.229200E+01	  0.067094192	1.674000E+00
237	  0.067294590	-3.126100E+01	  0.067294590	3.549800E+01	  0.067294590	5.225000E+01	  0.067294590	1.660000E+00
238	  0.067494988	-3.145900E+01	  0.067494988	3.578700E+01	  0.067494988	5.219000E+01	  0.067494988	1.632000E+00
239	  0.067695394	-3.164000E+01	  0.067695394	3.641800E+01	  0.067695394	5.212600E+01	  0.067695394	1.621000E+00
240	  0.067895792	-3.190800E+01	  0.067895792	3.592100E+01	  0.067895792	5.207500E+01	  0.067895792	1.552000E+00
241	  0.068096191	-3.219000E+01	  0.068096191	3.496600E+01	  0.068096191	5.203400E+01	  0.068096191	1.466000E+00
242	  0.068296596	-3.239800E+01	  0.068296596	3.408600E+01	  0.068296596	5.200800E+01	  0.068296596	1.399000E+00
243	  0.068496995	-3.252500E+01	  0.068496995	3.254200E+01	  0.068496995	5.201600E+01	  0.068496995	1.323000E+00
244	  0.068697393	-3.271600E+01	  0.068697393	3.157200E+01	  0.068697393	5.199400E+01	  0.068697393	1.259000E+00
245	  0.068897791	-3.278800E+01	  0.068897791	2.960000E+01	  0.068897791	5.202100E+01	  0.068897791	1.179000E+00
246	  0.069098189	-3.284100E+01	  0.069098189	2.736500E+01	  0.069098189	5.205400E+01	  0.069098189	1.091000E+00
247	  0.069298595	-3.289800E+01	  0.069298595	2.584500E+01	  0.069298595	5.207000E+01	  0.069298595	1.028000E+00
248	  0.069498993	-3.274900E+01	  0.069498993	2.400500E+01	  0.069498993	5.214000E+01	  0.069498993	9.780000E-01
249	  0.069699399	-3.254700E+01	  0.069699399	2.266800E+01	  0.069699399	5.221500E+01	  0.069699399	9.490000E-01
250	  0.069899797	-3.236800E+01	  0.069899797	2.109200E+01	  0.069899797	5.228900E+01	  0.069899797	9.060000E-01
251	  0.070100196	-3.222900E+01	  0.070100196	2.024400E+01	  0.070100196	5.234100E+01	  0.070100196	8.860000E-01
252	  0.070300601	-3.193100E+01	  0.070300601	1.942100E+01	  0.070300601	5.243800E+01	  0.070300601	8.830000E-01
253	  0.070501000	-3.174500E+01	  0.070501000	1.881200E+01	  0.070501000	5.250200E+01	  0.070501000	8.760000E-01
254	  0.070701398	-3.148400E+01	  0.070701398	1.897400E+01	  0.070701398	5.257700E+01	  0.070701398	9.110000E-01
255	  0.070901804	-3.127700E+01	  0.070901804	1.901200E+01	  0.070901804	5.264000E+01	  0.070901804	9.360000E-01
256	  0.071102202	-3.106100E+01	  0.071102202	1.964800E+01	  0.071102202	5.269700E+01	  0.071102202	9.920000E-01
257	  0.071302600	-3.095500E+01	  0.071302600	2.045700E+01	  0.071302600	5.271500E+01	  0.071302600	1.044000E+00
258	  0.071503006	-3.085100E+01	  0.071503006	2.086100E+01	  0.071503006	5.274100E+01	  0.071503006	1.077000E+00
259	  0.071703404	-3.066000E+01	  0.071703404	2.185800E+01	  0.071703404	5.278300E+01	  0.071703404	1.152000E+00
260	  0.071903802	-3.063400E+01	  0.071903802	2.241300E+01	  0.071903802	5.277900E+01	  0.071903802	1.184000E+00
261	  0.072104208	-3.059300E+01	  0.072104208	2.401300E+01	  0.072104208	5.275600E+01	  0.072104208	1.269000E+00
262	  0.072304606	-3.061300E+01	  0.072304606	2.410700E+01	  0.072304606	5.274800E+01	  0.072304606	1.270000E+00
263	  0.072505005	-3.063900E+01	  0.072505005	2.494100E+01	  0.072505005	5.271900E+01	  0.072505005	1.307000E+00
264	  0.072705410	-3.057600E+01	  0.072705410	2.569900E+01	  0.072705410	5.272100E+01	  0.072705410	1.354000E+00
265	  0.072905809	-3.062700E+01	  0.072905809	2.631300E+01	  0.072905809	5.268900E+01	  0.072905809	1.375000E+00
266	  0.073106214	-3.076400E+01	  0.073106214	2.719600E+01	  0.073106214	5.262400E+01	  0.073106214	1.394000E+00
267	  0.073306613	-3.090000E+01	  0.073306613	2.815200E+01	  0.073306613	5.255800E+01	  0.073306613	1.415000E+00
268	  0.073507011	-3.090600E+01	  0.073507011	2.797600E+01	  0.073507011	5.256100E+01	  0.073507011	1.405000E+00
269	  0.073707417	-3.115000E+01	  0.073707417	2.761800E+01	  0.073707417	5.249800E+01	  0.073707417	1.349000E+00
270	  0.073907815	-3.123000E+01	  0.073907815	2.774100E+01	  0.073907815	5.247100E+01	  0.073907815	1.341000E+00
271	  0.074108213	-3.133300E+01	  0.074108213	2.798400E+01	  0.074108213	5.243600E+01	  0.074108213	1.335000E+00
272	  0.074308619	-3.136700E+01	  0.074308619	2.718800E+01	  0.074308619	5.244500E+01	  0.074308619	1.295000E+00
273	  0.074509017	-3.156000E+01	  0.074509017	2.681100E+01	  0.074509017	5.240000E+01	  0.074509017	1.249000E+00
274	  0.074709415	-3.169000E+01	  0.074709415	2.518700E+01	  0.074709415	5.239900E+01	  0.074709415	1.161000E+00
275	  0.074909821	-3.163400E+01	  0.074909821	2.486800E+01	  0.074909821	5.242100E+01	  0.074909821	1.155000E+00
276	  0.075110219	-3.165000E+01	  0.075110219	2.444000E+01	  0.075110219	5.242600E+01	  0.075110219	1.135000E+00
277	  0.075310618	-3.172800E+01	  0.075310618	2.295000E+01	  0.075310618	5.243300E+01	  0.075310618	1.060000E+00
278	  0.075511023	-3.169600E+01	  0.075511023	2.184200E+01	  0.075511023	5.246400E+01	  0.075511023	1.016000E+00
279	  0.075711422	-3.154600E+01	  0.075711422	2.209500E+01	  0.075711422	5.250300E+01	  0.075711422	1.046000E+00
280	  0.075911827	-3.147000E+01	  0.075911827	2.047500E+01	  0.075911827	5.255500E+01	  0.075911827	9.820000E-01
281	  0.076112226	-3.141300E+01	  0.076112226	2.064500E+01	  0.076112226	5.256900E+01	  0.076112226	9.960000E-01
282	  0.076312624	-3.122900E+01	  0.076312624	1.957600E+01	  0.076312624	5.264500E+01	  0.076312624	9.690000E-01
283	  0.076513030	-3.124900E+01	  0.076513030	1.971900E+01	  0.076513030	5.263600E+01	  0.076513030	9.730000E-01
284	  0.076713428	-3.115300E+01	  0.076713428	1.917700E+01	  0.076713428	5.267600E+01	  0.076713428	9.590000E-01
285	  0.076913826	-3.109200E+01	  0.076913826	1.900500E+01	  0.076913826	5.269800E+01	  0.076913826	9.570000E-01
286	  0.077114232	-3.100400E+01	  0.077114232	1.915400E+01	  0.077114232	5.272400E+01	  0.077114232	9.750000E-01
287	  0.077314630	-3.094400E+01	  0.077314630	1.904500E+01	  0.077314630	5.274500E+01	  0.077314630	9.770000E-01
288	  0.077515028	-3.085700E+01	  0.077515028	1.952200E+01	  0.077515028	5.276500E+01	  0.077515028	1.011000E+00
289	  0.077715434	-3.084900E+01	  0.077715434	1.944100E+01	  0.077715434	5.276900E+01	  0.077715434	1.008000E+00
290	  0.077915832	-3.071800E+01	  0.077915832	1.939900E+01	  0.077915832	5.281300E+01	  0.077915832	1.022000E+00
291	  0.078116231	-3.075800E+01	  0.078116231	1.967300E+01	  0.078116231	5.279400E+01	  0.078116231	1.030000E+00
292	  0.078316636	-3.074200E+01	  0.078316636	1.997400E+01	  0.078316636	5.279400E+01	  0.078316636	1.048000E+00
293	  0.078517035	-3.072000E+01	  0.078517035	2.052900E+01	  0.078517035	5.279000E+01	  0.078517035	1.078000E+00
294	  0.078717433	-3.071000E+01	  0.078717433	2.037000E+01	  0.078717433	5.279700E+01	  0.078717433	1.071000E+00
295	  0.078917839	-3.069100E+01	  0.078917839	1.989500E+01	  0.078917839	5.281200E+01	  0.078917839	1.050000E+00
296	  0.079118237	-3.068700E+01	  0.079118237	1.986600E+01	  0.079118237	5.281400E+01	  0.079118237	1.049000E+00
297	  0.079318643	-3.072000E+01	  0.079318643	2.037900E+01	  0.079318643	5.279300E+01	  0.079318643	1.071000E+00
298	  0.079519041	-3.073100E+01	  0.079519041	1.991100E+01	  0.079519041	5.279900E+01	  0.079519041	1.046000E+00
299	  0.079719439	-3.067400E+01	  0.079719439	1.966400E+01	  0.079719439	5.282300E+01	  0.079719439	1.041000E+00
300	  0.079919845	-3.068600E+01	  0.079919845	1.964400E+01	  0.079919845	5.281900E+01	  0.079919845	1.038000E+00
301	  0.080120243	-3.065900E+01	  0.080120243	1.977200E+01	  0.080120243	5.282500E+01	  0.080120243	1.048000E+00
302	  0.080320641	-3.066400E+01	  0.080320641	1.932300E+01	  0.080320641	5.283200E+01	  0.080320641	1.025000E+00
303	  0.080521047	-3.054700E+01	  0.080521047	1.899300E+01	  0.080521047	5.287800E+01	  0.080521047	1.022000E+00
304	  0.080721445	-3.054600E+01	  0.080721445	1.945100E+01	  0.080721445	5.287000E+01	  0.080721445	1.046000E+00
305	  0.080921844	-3.050200E+01	  0.080921844	1.953400E+01	  0.080921844	5.288300E+01	  0.080921844	1.056000E+00
306	  0.081122249	-3.046500E+01	  0.081122249	1.935500E+01	  0.081122249	5.289900E+01	  0.081122249	1.051000E+00
307	  0.081322648	-3.042500E+01	  0.081322648	1.942300E+01	  0.081322648	5.291100E+01	  0.081322648	1.060000E+00
308	  0.081523046	-3.038500E+01	  0.081523046	1.969500E+01	  0.081523046	5.292000E+01	  0.081523046	1.079000E+00
309	  0.081723452	-3.037200E+01	  0.081723452	1.991300E+01	  0.081723452	5.292000E+01	  0.081723452	1.093000E+00
310	  0.081923850	-3.038300E+01	  0.081923850	2.046200E+01	  0.081923850	5.290500E+01	  0.081923850	1.120000E+00
311	  0.082124248	-3.039600E+01	  0.082124248	2.030700E+01	  0.082124248	5.290400E+01	  0.082124248	1.110000E+00
312	  0.082324654	-3.041600E+01	  0.082324654	2.089100E+01	  0.082324654	5.288500E+01	  0.082324654	1.137000E+00
313	  0.082525052	-3.048600E+01	  0.082525052	2.099300E+01	  0.082525052	5.285900E+01	  0.082525052	1.133000E+00
314	  0.082725458	-3.053600E+01	  0.082725458	2.119700E+01	  0.082725458	5.283800E+01	  0.082725458	1.136000E+00
315	  0.082925856	-3.057700E+01	  0.082925856	2.145500E+01	  0.082925856	5.281900E+01	  0.082925856	1.144000E+00
316	  0.083126254	-3.068700E+01	  0.083126254	2.109400E+01	  0.083126254	5.279000E+01	  0.083126254	1.111000E+00
317	  0.083326660	-3.071900E+01	  0.083326660	2.161000E+01	  0.083326660	5.276900E+01	  0.083326660	1.132000E+00
318	  0.083527058	-3.087700E+01	  0.083527058	2.143500E+01	  0.083527058	5.272100E+01	  0.083527058	1.102000E+00
319	  0.083727457	-3.088500E+01	  0.083727457	2.106100E+01	  0.083727457	5.272600E+01	  0.083727457	1.083000E+00
320	  0.083927862	-3.100100E+01	  0.083927862	2.058700E+01	  0.083927862	5.269800E+01	  0.083927862	1.045000E+00
321	  0.084128261	-3.105000E+01	  0.084128261	2.009100E+01	  0.084128261	5.269200E+01	  0.084128261	1.015000E+00
322	  0.084328659	-3.107800E+01	  0.084328659	1.919200E+01	  0.084328659	5.270000E+01	  0.084328659	9.680000E-01
323	  0.084529065	-3.117800E+01	  0.084529065	1.870900E+01	  0.084529065	5.267600E+01	  0.084529065	9.330000E-01
324	  0.084729463	-3.112600E+01	  0.084729463	1.774100E+01	  0.084729463	5.270900E+01	  0.084729463	8.920000E-01
325	  0.084929861	-3.115000E+01	  0.084929861	1.702100E+01	  0.084929861	5.271300E+01	  0.084929861	8.550000E-01
326	  0.085130267	-3.119400E+01	  0.085130267	1.615000E+01	  0.085130267	5.271200E+01	  0.085130267	8.080000E-01
327	  0.085330658	-3.111400E+01	  0.085330658	1.558300E+01	  0.085330658	5.274600E+01	  0.085330658	7.880000E-01
328	  0.085531056	-3.103200E+01	  0.085531056	1.419200E+01	  0.085531056	5.279300E+01	  0.085531056	7.270000E-01
329	  0.085731462	-3.096400E+01	  0.085731462	1.358400E+01	  0.085731462	5.282300E+01	  0.085731462	7.020000E-01
330	  0.085931860	-3.079200E+01	  0.085931860	1.309600E+01	  0.085931860	5.288700E+01	  0.085931860	6.920000E-01
331	  0.086132258	-3.077900E+01	  0.086132258	1.287600E+01	  0.086132258	5.289500E+01	  0.086132258	6.820000E-01
332	  0.086332664	-3.060600E+01	  0.086332664	1.214100E+01	  0.086332664	5.296400E+01	  0.086332664	6.570000E-01
333	  0.086533062	-3.052100E+01	  0.086533062	1.219700E+01	  0.086533062	5.299300E+01	  0.086533062	6.670000E-01
334	  0.086733460	-3.033800E+01	  0.086733460	1.244100E+01	  0.086733460	5.305600E+01	  0.086733460	6.950000E-01
335	  0.086933866	-3.024500E+01	  0.086933866	1.223900E+01	  0.086933866	5.309200E+01	  0.086933866	6.920000E-01
336	  0.087134264	-3.011700E+01	  0.087134264	1.270100E+01	  0.087134264	5.313300E+01	  0.087134264	7.290000E-01
337	  0.087334670	-3.006900E+01	  0.087334670	1.283100E+01	  0.087334670	5.314900E+01	  0.087334670	7.410000E-01
338	  0.087535068	-2.998300E+01	  0.087535068	1.332700E+01	  0.087535068	5.317500E+01	  0.087535068	7.770000E-01
339	  0.087735467	-2.995800E+01	  0.087735467	1.388700E+01	  0.087735467	5.317600E+01	  0.087735467	8.110000E-01
340	  0.087935872	-2.994700E+01	  0.087935872	1.460000E+01	  0.087935872	5.316900E+01	  0.087935872	8.530000E-01
341	  0.088136271	-2.991600E+01	  0.088136271	1.487700E+01	  0.088136271	5.317600E+01	  0.088136271	8.720000E-01
342	  0.088336669	-2.992600E+01	  0.088336669	1.560800E+01	  0.088336669	5.316000E+01	  0.088336669	9.130000E-01
343	  0.088537075	-2.997600E+01	  0.088537075	1.667300E+01	  0.088537075	5.312300E+01	  0.088537075	9.670000E-01
344	  0.088737473	-3.007400E+01	  0.088737473	1.679600E+01	  0.088737473	5.308500E+01	  0.088737473	9.620000E-01
345	  0.088937871	-3.013900E+01	  0.088937871	1.722100E+01	  0.088937871	5.305400E+01	  0.088937871	9.780000E-01
346	  0.089138277	-3.024800E+01	  0.089138277	1.743800E+01	  0.089138277	5.301100E+01	  0.089138277	9.770000E-01
347	  0.089338675	-3.032800E+01	  0.089338675	1.733100E+01	  0.089338675	5.298400E+01	  0.089338675	9.620000E-01
348	  0.089539073	-3.043300E+01	  0.089539073	1.770100E+01	  0.089539073	5.294100E+01	  0.089539073	9.690000E-01
349	  0.089739479	-3.053700E+01	  0.089739479	1.739400E+01	  0.089739479	5.291000E+01	  0.089739479	9.410000E-01
350	  0.089939877	-3.068500E+01	  0.089939877	1.674800E+01	  0.089939877	5.287100E+01	  0.089939877	8.910000E-01
351	  0.090140276	-3.078100E+01	  0.090140276	1.670500E+01	  0.090140276	5.283900E+01	  0.090140276	8.780000E-01
352	  0.090340681	-3.083700E+01	  0.090340681	1.552700E+01	  0.090340681	5.283900E+01	  0.090340681	8.130000E-01
353	  0.090541080	-3.095600E+01	  0.090541080	1.493700E+01	  0.090541080	5.280800E+01	  0.090541080	7.710000E-01
354	  0.090741485	-3.096800E+01	  0.090741485	1.405000E+01	  0.090741485	5.281600E+01	  0.090741485	7.250000E-01
355	  0.090941884	-3.092200E+01	  0.090941884	1.277100E+01	  0.090941884	5.284800E+01	  0.090941884	6.650000E-01
356	  0.091142282	-3.098500E+01	  0.091142282	1.201800E+01	  0.091142282	5.283500E+01	  0.091142282	6.210000E-01
357	  0.091342688	-3.091700E+01	  0.091342688	1.043800E+01	  0.091342688	5.287600E+01	  0.091342688	5.450000E-01
358	  0.091543086	-3.091000E+01	  0.091543086	9.538000E+00	  0.091543086	5.288600E+01	  0.091543086	4.990000E-01
359	  0.091743484	-3.074900E+01	  0.091743484	8.812000E+00	  0.091743484	5.294900E+01	  0.091743484	4.710000E-01
360	  0.091943890	-3.061300E+01	  0.091943890	8.060000E+00	  0.091943890	5.300300E+01	  0.091943890	4.380000E-01
361	  0.092144288	-3.050800E+01	  0.092144288	7.548000E+00	  0.092144288	5.304400E+01	  0.092144288	4.150000E-01
362	  0.092344686	-3.036500E+01	  0.092344686	7.066000E+00	  0.092344686	5.310000E+01	  0.092344686	3.960000E-01
363	  0.092545092	-3.028800E+01	  0.092545092	7.059000E+00	  0.092545092	5.312900E+01	  0.092545092	3.990000E-01
364	  0.092745490	-3.006100E+01	  0.092745490	6.340000E+00	  0.092745490	5.322000E+01	  0.092745490	3.690000E-01
365	  0.092945889	-2.998700E+01	  0.092945889	6.973000E+00	  0.092945889	5.324300E+01	  0.092945889	4.090000E-01
366	  0.093146294	-2.985200E+01	  0.093146294	7.089000E+00	  0.093146294	5.329500E+01	  0.093146294	4.230000E-01
367	  0.093346693	-2.969700E+01	  0.093346693	7.762000E+00	  0.093346693	5.335000E+01	  0.093346693	4.720000E-01
368	  0.093547091	-2.966000E+01	  0.093547091	7.697000E+00	  0.093547091	5.336600E+01	  0.093547091	4.700000E-01
369	  0.093747497	-2.960800E+01	  0.093747497	8.643000E+00	  0.093747497	5.337800E+01	  0.093747497	5.310000E-01
370	  0.093947895	-2.948700E+01	  0.093947895	9.497000E+00	  0.093947895	5.341800E+01	  0.093947895	5.920000E-01
371	  0.094148301	-2.950300E+01	  0.094148301	9.559000E+00	  0.094148301	5.341100E+01	  0.094148301	5.940000E-01
372	  0.094348699	-2.942900E+01	  0.094348699	1.064200E+01	  0.094348699	5.342800E+01	  0.094348699	6.670000E-01
373	  0.094549097	-2.947300E+01	  0.094549097	1.096500E+01	  0.094549097	5.340600E+01	  0.094549097	6.830000E-01
374	  0.094749503	-2.945000E+01	  0.094749503	1.173200E+01	  0.094749503	5.340500E+01	  0.094749503	7.320000E-01
375	  0.094949901	-2.951000E+01	  0.094949901	1.239500E+01	  0.094949901	5.337200E+01	  0.094949901	7.670000E-01
376	  0.095150299	-2.961800E+01	  0.095150299	1.288800E+01	  0.095150299	5.332200E+01	  0.095150299	7.860000E-01
377	  0.095350705	-2.964800E+01	  0.095350705	1.332800E+01	  0.095350705	5.330300E+01	  0.095350705	8.100000E-01
378	  0.095551103	-2.974500E+01	  0.095551103	1.351200E+01	  0.095551103	5.326300E+01	  0.095551103	8.110000E-01
379	  0.095751502	-2.985600E+01	  0.095751502	1.381200E+01	  0.095751502	5.321600E+01	  0.095751502	8.170000E-01
380	  0.095951907	-2.990300E+01	  0.095951907	1.406600E+01	  0.095951907	5.319400E+01	  0.095951907	8.270000E-01
381	  0.096152306	-3.007500E+01	  0.096152306	1.371500E+01	  0.096152306	5.313500E+01	  0.096152306	7.900000E-01
382	  0.096352704	-3.017600E+01	  0.096352704	1.331100E+01	  0.096352704	5.310300E+01	  0.096352704	7.580000E-01
383	  0.096553110	-3.024600E+01	  0.096553110	1.280100E+01	  0.096553110	5.308400E+01	  0.096553110	7.230000E-01
384	  0.096753508	-3.033900E+01	  0.096753508	1.280200E+01	  0.096753508	5.305100E+01	  0.096753508	7.150000E-01
385	  0.096953906	-3.035800E+01	  0.096953906	1.211800E+01	  0.096953906	5.305200E+01	  0.096953906	6.760000E-01
386	  0.097154312	-3.048700E+01	  0.097154312	1.080900E+01	  0.097154312	5.302200E+01	  0.097154312	5.950000E-01
387	  0.097354710	-3.054100E+01	  0.097354710	1.024700E+01	  0.097354710	5.300800E+01	  0.097354710	5.600000E-01
388	  0.097555116	-3.051200E+01	  0.097555116	9.781000E+00	  0.097555116	5.302400E+01	  0.097555116	5.370000E-01
389	  0.097755514	-3.055800E+01	  0.097755514	8.707000E+00	  0.097755514	5.301700E+01	  0.097755514	4.760000E-01
390	  0.097955912	-3.051700E+01	  0.097955912	8.026000E+00	  0.097955912	5.303700E+01	  0.097955912	4.410000E-01
391	  0.098156318	-3.045300E+01	  0.098156318	7.237000E+00	  0.098156318	5.306700E+01	  0.098156318	4.010000E-01
392	  0.098356716	-3.043000E+01	  0.098356716	6.327000E+00	  0.098356716	5.308200E+01	  0.098356716	3.520000E-01
393	  0.098557115	-3.030000E+01	  0.098557115	5.558000E+00	  0.098557115	5.313400E+01	  0.098557115	3.140000E-01
394	  0.098757520	-3.018300E+01	  0.098757520	5.162000E+00	  0.098757520	5.318000E+01	  0.098757520	2.960000E-01
395	  0.098957919	-3.008500E+01	  0.098957919	4.594000E+00	  0.098957919	5.322000E+01	  0.098957919	2.670000E-01
396	  0.099158317	-2.999700E+01	  0.099158317	4.848000E+00	  0.099158317	5.325300E+01	  0.099158317	2.850000E-01
397	  0.099358723	-2.984600E+01	  0.099358723	4.825000E+00	  0.099358723	5.331200E+01	  0.099358723	2.880000E-01
398	  0.099559121	-2.978600E+01	  0.099559121	4.860000E+00	  0.099559121	5.333600E+01	  0.099559121	2.930000E-01
399	  0.099759519	-2.969300E+01	  0.099759519	4.850000E+00	  0.099759519	5.337300E+01	  0.099759519	2.960000E-01
400	  0.099959925	-2.965400E+01	  0.099959925	5.569000E+00	  0.099959925	5.338400E+01	  0.099959925	3.410000E-01
401	  0.100160323	-2.959300E+01	  0.100160323	5.723000E+00	  0.100160323	5.340800E+01	  0.100160323	3.530000E-01
402	  0.100360721	-2.947200E+01	  0.100360721	6.100000E+00	  0.100360721	5.345500E+01	  0.100360721	3.820000E-01
403	  0.100561127	-2.945400E+01	  0.100561127	6.455000E+00	  0.100561127	5.346000E+01	  0.100561127	4.050000E-01
404	  0.100761525	-2.939600E+01	  0.100761525	7.041000E+00	  0.100761525	5.347900E+01	  0.100761525	4.440000E-01
405	  0.100961931	-2.954700E+01	  0.100961931	7.443000E+00	  0.100961931	5.341300E+01	  0.100961931	4.610000E-01
406	  0.101162329	-2.949400E+01	  0.101162329	7.844000E+00	  0.101162329	5.343200E+01	  0.101162329	4.890000E-01
407	  0.101362728	-2.951400E+01	  0.101362728	9.181000E+00	  0.101362728	5.341000E+01	  0.101362728	5.700000E-01
408	  0.101563133	-2.960700E+01	  0.101563133	9.382000E+00	  0.101563133	5.337100E+01	  0.101563133	5.760000E-01
409	  0.101763532	-2.965800E+01	  0.101763532	9.761000E+00	  0.101763532	5.334600E+01	  0.101763532	5.950000E-01
410	  0.101963930	-2.979900E+01	  0.101963930	9.402000E+00	  0.101963930	5.329400E+01	  0.101963930	5.640000E-01
411	  0.102164336	-2.988300E+01	  0.102164336	1.023100E+01	  0.102164336	5.325300E+01	  0.102164336	6.060000E-01
412	  0.102364734	-3.003800E+01	  0.102364734	9.055000E+00	  0.102364734	5.320600E+01	  0.102364734	5.270000E-01
413	  0.102565132	-3.015200E+01	  0.102565132	9.305000E+00	  0.102565132	5.316000E+01	  0.102565132	5.340000E-01
414	  0.102765530	-3.026800E+01	  0.102765530	9.289000E+00	  0.102765530	5.311700E+01	  0.102765530	5.260000E-01
415	  0.102965929	-3.029700E+01	  0.102965929	8.777000E+00	  0.102965929	5.311100E+01	  0.102965929	4.950000E-01
416	  0.103166327	-3.042300E+01	  0.103166327	8.511000E+00	  0.103166327	5.306700E+01	  0.103166327	4.730000E-01
417	  0.103366733	-3.041100E+01	  0.103366733	7.581000E+00	  0.103366733	5.307900E+01	  0.103366733	4.220000E-01
418	  0.103567131	-3.053500E+01	  0.103567131	6.778000E+00	  0.103567131	5.304000E+01	  0.103567131	3.720000E-01
419	  0.103767529	-3.052100E+01	  0.103767529	5.610000E+00	  0.103767529	5.305300E+01	  0.103767529	3.090000E-01
420	  0.103967935	-3.057600E+01	  0.103967935	4.244000E+00	  0.103967935	5.304000E+01	  0.103967935	2.320000E-01
421	  0.104168333	-3.054800E+01	  0.104168333	3.261000E+00	  0.104168333	5.305400E+01	  0.104168333	1.790000E-01
422	  0.104368731	-3.051500E+01	  0.104368731	2.117000E+00	  0.104368731	5.306900E+01	  0.104368731	1.160000E-01
423	  0.104569137	-3.042700E+01	  0.104569137	1.662000E+00	  0.104569137	5.310200E+01	  0.104569137	9.200000E-02
424	  0.104769535	-3.036600E+01	  0.104769535	1.221000E+00	  0.104769535	5.312500E+01	  0.104769535	6.800000E-02
425	  0.104969934	-3.017500E+01	  0.104969934	-3.200000E-02	  0.104969934	5.319800E+01	  0.104969934	-1.000000E-03
426	  0.105170339	-3.012700E+01	  0.105170339	-1.820000E-01	  0.105170339	5.321600E+01	  0.105170339	-1.000000E-02
427	  0.105370738	-3.001700E+01	  0.105370738	3.180000E-01	  0.105370738	5.325800E+01	  0.105370738	1.800000E-02
428	  0.105571143	-2.979700E+01	  0.105571143	-1.990000E-01	  0.105571143	5.334400E+01	  0.105571143	-1.200000E-02
429	  0.105771542	-2.965300E+01	  0.105771542	3.890000E-01	  0.105771542	5.340200E+01	  0.105771542	2.300000E-02
430	  0.105971940	-2.962500E+01	  0.105971940	3.140000E-01	  0.105971940	5.341400E+01	  0.105971940	1.900000E-02
431	  0.106172346	-2.958200E+01	  0.106172346	6.120000E-01	  0.106172346	5.343100E+01	  0.106172346	3.700000E-02
432	  0.106372744	-2.943900E+01	  0.106372744	1.816000E+00	  0.106372744	5.348800E+01	  0.106372744	1.140000E-01
433	  0.106573142	-2.938400E+01	  0.106573142	1.969000E+00	  0.106573142	5.351100E+01	  0.106573142	1.240000E-01
434	  0.106773548	-2.927400E+01	  0.106773548	2.532000E+00	  0.106773548	5.355600E+01	  0.106773548	1.620000E-01
435	  0.106973946	-2.929200E+01	  0.106973946	2.935000E+00	  0.106973946	5.354700E+01	  0.106973946	1.880000E-01
436	  0.107174344	-2.929600E+01	  0.107174344	2.985000E+00	  0.107174344	5.354500E+01	  0.107174344	1.910000E-01
437	  0.107374750	-2.940500E+01	  0.107374750	4.229000E+00	  0.107374750	5.349400E+01	  0.107374750	2.670000E-01
438	  0.107575148	-2.951700E+01	  0.107575148	5.163000E+00	  0.107575148	5.344300E+01	  0.107575148	3.210000E-01
439	  0.107775547	-2.950700E+01	  0.107775547	5.030000E+00	  0.107775547	5.344800E+01	  0.107775547	3.140000E-01
440	  0.107975952	-2.966900E+01	  0.107975952	5.624000E+00	  0.107975952	5.337800E+01	  0.107975952	3.440000E-01
441	  0.108176351	-2.979400E+01	  0.108176351	6.070000E+00	  0.108176351	5.332500E+01	  0.108176351	3.650000E-01
442	  0.108376749	-3.000600E+01	  0.108376749	5.790000E+00	  0.108376749	5.324400E+01	  0.108376749	3.390000E-01
443	  0.108577155	-3.002000E+01	  0.108577155	5.541000E+00	  0.108577155	5.324000E+01	  0.108577155	3.240000E-01
444	  0.108777553	-3.012500E+01	  0.108777553	4.977000E+00	  0.108777553	5.320300E+01	  0.108777553	2.880000E-01
445	  0.108977959	-3.029600E+01	  0.108977959	5.289000E+00	  0.108977959	5.313700E+01	  0.108977959	2.990000E-01
446	  0.109178357	-3.046200E+01	  0.109178357	4.284000E+00	  0.109178357	5.308100E+01	  0.109178357	2.370000E-01
447	  0.109378755	-3.052200E+01	  0.109378755	3.469000E+00	  0.109378755	5.306200E+01	  0.109378755	1.910000E-01
448	  0.109579161	-3.066900E+01	  0.109579161	2.297000E+00	  0.109579161	5.301300E+01	  0.109579161	1.240000E-01
449	  0.109779559	-3.073100E+01	  0.109779559	8.580000E-01	  0.109779559	5.299300E+01	  0.109779559	4.600000E-02
450	  0.109979957	-3.069800E+01	  0.109979957	-2.800000E-01	  0.109979957	5.300500E+01	  0.109979957	-1.500000E-02
451	  0.110180363	-3.065200E+01	  0.110180363	-1.777000E+00	  0.110180363	5.302000E+01	  0.110180363	-9.600000E-02
452	  0.110380761	-3.069400E+01	  0.110380761	-2.731000E+00	  0.110380761	5.300300E+01	  0.110380761	-1.470000E-01
453	  0.110581160	-3.055900E+01	  0.110581160	-4.395000E+00	  0.110581160	5.304500E+01	  0.110581160	-2.410000E-01
454	  0.110781565	-3.047400E+01	  0.110781565	-4.891000E+00	  0.110781565	5.307400E+01	  0.110781565	-2.710000E-01
455	  0.110981964	-3.031300E+01	  0.110981964	-5.502000E+00	  0.110981964	5.313000E+01	  0.110981964	-3.110000E-01
456	  0.111182362	-3.010100E+01	  0.111182362	-6.084000E+00	  0.111182362	5.320600E+01	  0.111182362	-3.520000E-01
457	  0.111382768	-3.001200E+01	  0.111382768	-6.916000E+00	  0.111382768	5.323400E+01	  0.111382768	-4.050000E-01
458	  0.111583166	-2.991300E+01	  0.111583166	-6.929000E+00	  0.111583166	5.327200E+01	  0.111583166	-4.100000E-01
459	  0.111783572	-2.973100E+01	  0.111783572	-7.019000E+00	  0.111783572	5.334300E+01	  0.111783572	-4.250000E-01
460	  0.111983970	-2.962200E+01	  0.111983970	-6.946000E+00	  0.111983970	5.338700E+01	  0.111983970	-4.260000E-01
461	  0.112184368	-2.943500E+01	  0.112184368	-6.597000E+00	  0.112184368	5.346600E+01	  0.112184368	-4.150000E-01
462	  0.112384774	-2.933100E+01	  0.112384774	-6.696000E+00	  0.112384774	5.350900E+01	  0.112384774	-4.260000E-01
463	  0.112585172	-2.930200E+01	  0.112585172	-5.073000E+00	  0.112585172	5.353200E+01	  0.112585172	-3.240000E-01
464	  0.112785570	-2.929500E+01	  0.112785570	-4.821000E+00	  0.112785570	5.353700E+01	  0.112785570	-3.080000E-01
465	  0.112985976	-2.921400E+01	  0.112985976	-4.042000E+00	  0.112985976	5.357500E+01	  0.112985976	-2.610000E-01
466	  0.113186374	-2.918600E+01	  0.113186374	-4.084000E+00	  0.113186374	5.358700E+01	  0.113186374	-2.650000E-01
467	  0.113386773	-2.922600E+01	  0.113386773	-3.231000E+00	  0.113386773	5.357400E+01	  0.113386773	-2.090000E-01
468	  0.113587178	-2.917500E+01	  0.113587178	-3.091000E+00	  0.113587178	5.359600E+01	  0.113587178	-2.010000E-01
469	  0.113787577	-2.929800E+01	  0.113787577	-2.273000E+00	  0.113787577	5.354600E+01	  0.113787577	-1.450000E-01
470	  0.113987975	-2.934300E+01	  0.113987975	-2.742000E+00	  0.113987975	5.352600E+01	  0.113987975	-1.740000E-01
471	  0.114188381	-2.938800E+01	  0.114188381	-2.136000E+00	  0.114188381	5.350900E+01	  0.114188381	-1.350000E-01
472	  0.114388779	-2.950400E+01	  0.114388779	-1.741000E+00	  0.114388779	5.346100E+01	  0.114388779	-1.080000E-01
473	  0.114589177	-2.948600E+01	  0.114589177	-2.475000E+00	  0.114589177	5.346700E+01	  0.114589177	-1.550000E-01
474	  0.114789583	-2.958600E+01	  0.114789583	-2.895000E+00	  0.114789583	5.342500E+01	  0.114789583	-1.790000E-01
475	  0.114989981	-2.971200E+01	  0.114989981	-2.396000E+00	  0.114989981	5.337500E+01	  0.114989981	-1.460000E-01
476	  0.115190387	-2.972300E+01	  0.115190387	-3.107000E+00	  0.115190387	5.336900E+01	  0.115190387	-1.890000E-01
477	  0.115390785	-2.973800E+01	  0.115390785	-3.741000E+00	  0.115390785	5.336000E+01	  0.115390785	-2.270000E-01
478	  0.115591183	-2.971500E+01	  0.115591183	-4.278000E+00	  0.115591183	5.336700E+01	  0.115591183	-2.600000E-01
479	  0.115791589	-2.985700E+01	  0.115791589	-4.566000E+00	  0.115791589	5.330900E+01	  0.115791589	-2.730000E-01
480	  0.115991987	-2.969800E+01	  0.115991987	-5.190000E+00	  0.115991987	5.336900E+01	  0.115991987	-3.160000E-01
481	  0.116192386	-2.965400E+01	  0.116192386	-6.041000E+00	  0.116192386	5.338100E+01	  0.116192386	-3.700000E-01
482	  0.116392791	-2.973000E+01	  0.116392791	-6.260000E+00	  0.116392791	5.334900E+01	  0.116392791	-3.790000E-01
483	  0.116593190	-2.964300E+01	  0.116593190	-6.169000E+00	  0.116593190	5.338500E+01	  0.116593190	-3.780000E-01
484	  0.116793588	-2.955500E+01	  0.116793588	-6.905000E+00	  0.116793588	5.341500E+01	  0.116793588	-4.270000E-01
485	  0.116993994	-2.952100E+01	  0.116993994	-6.376000E+00	  0.116993994	5.343300E+01	  0.116993994	-3.970000E-01
486	  0.117194392	-2.955100E+01	  0.117194392	-6.674000E+00	  0.117194392	5.341800E+01	  0.117194392	-4.130000E-01
487	  0.117394790	-2.939500E+01	  0.117394790	-6.626000E+00	  0.117394790	5.348300E+01	  0.117394790	-4.180000E-01
488	  0.117595196	-2.938900E+01	  0.117595196	-6.450000E+00	  0.117595196	5.348700E+01	  0.117595196	-4.080000E-01
489	  0.117795594	-2.937400E+01	  0.117795594	-5.764000E+00	  0.117795594	5.349800E+01	  0.117795594	-3.650000E-01
490	  0.117995992	-2.939500E+01	  0.117995992	-5.772000E+00	  0.117995992	5.348900E+01	  0.117995992	-3.650000E-01
491	  0.118196398	-2.936800E+01	  0.118196398	-5.674000E+00	  0.118196398	5.350100E+01	  0.118196398	-3.600000E-01
492	  0.118396796	-2.949100E+01	  0.118396796	-5.389000E+00	  0.118396796	5.345200E+01	  0.118396796	-3.370000E-01
493	  0.118597202	-2.948100E+01	  0.118597202	-5.659000E+00	  0.118597202	5.345400E+01	  0.118597202	-3.540000E-01
494	  0.118797600	-2.956200E+01	  0.118797600	-5.330000E+00	  0.118797600	5.342300E+01	  0.118797600	-3.300000E-01
495	  0.118997999	-2.957500E+01	  0.118997999	-5.730000E+00	  0.118997999	5.341500E+01	  0.118997999	-3.540000E-01
496	  0.119198404	-2.965000E+01	  0.119198404	-6.142000E+00	  0.119198404	5.338200E+01	  0.119198404	-3.760000E-01
497	  0.119398803	-2.969200E+01	  0.119398803	-6.623000E+00	  0.119398803	5.336200E+01	  0.119398803	-4.030000E-01
498	  0.119599201	-2.979900E+01	  0.119599201	-6.626000E+00	  0.119599201	5.331900E+01	  0.119599201	-3.980000E-01
499	  0.119799607	-2.990500E+01	  0.119799607	-8.058000E+00	  0.119799607	5.326600E+01	  0.119799607	-4.770000E-01
500	  0.120000005	-2.989200E+01	  0.120000005	-8.470000E+00	  0.120000005	5.326700E+01	  0.120000005	-5.020000E-01
