! Anritsu VNA Master:             	Model: MS2036C/10/77
! SN:             	1601066
! /bd0/18may08.cable.cal/bot.50.2.txt
! Existing Calibration Information:
! TYPE:             	Current Settings	Active Cal Settings
! TIME:             	05/08/2018 06:09:21 PM	05/08/2018 05:57:55 PM
! INTERNAL TEMP:    	49.3 C	49.3 C
! # POINTS:         	500	500
! START FREQ:       	20.000 MHz	20.000 MHz
! STOP FREQ:        	120.000 MHz	120.000 MHz
! SOURCE POWER:     	High	High
! IFBW:             	50 Hz	50 Hz
! AVG FACTOR:       	  1 	  1 
! REF PLANE 1:      	0 mm	0 mm
! REF PLANE 2:      	0 mm	0 mm
! CAL TYPE:         	Full S11	Full S11
! CAL METHOD:       	SOLT	SOLT
! CAL LINE TYPE:    	Coax	Coax
! DUT PORT 1:       	K-Conn(F)	K-Conn(F)
! DUT PORT 2:       	K-Conn(F)	K-Conn(F)
! CAL STATUS:       	OK: Accuracy High	--
! PROP-V:       	0.700
! CABLE LOSS:       	0.000 dB/m
! REF IMPEDANCE:       	50.0
! Trace Specific Parameters:	TR1	TR2	TR3	TR4
! TRACE.#.Y (GRAPH TYPE)	LOG MAG	PHASE	REAL IMPEDANCE	IMAGINARY IMPEDANCE
! TRACE.#.X 	FREQ.GHZ	FREQ.GHZ	FREQ.GHZ	FREQ.GHZ
! S-PARAMETER	S11	S11	S11	S11
! SMOOTH/APERTURE %	0	0	0	0
! WINDOW	NSL	NSL	NSL	NSL
! GATING	OFF	OFF	OFF	OFF
! FGTD	OFF	OFF	OFF	OFF
Marker Information per Trace:	TR1	TR2	TR3	TR4
!MK1	--	"MK1 TR2:  20.000 MHz,PH:57.63°"	--	--
!MK2	--	--	"MK2 TR3:  70.100 200 MHz,Z:(52.249 ohm, 1.613 ohm)"	--
!MK3	--	--	--	--
!MK4	--	--	--	--
!MK5	--	--	--	--
!MK6	--	--	--	--
!MK7	--	--	--	--
!MK8	--	--	--	--
PNT	TR1.FREQ.GHZ	TR1.LOG MAG.dB	TR2.FREQ.GHZ	TR2.PHASE.deg	TR3.FREQ.GHZ	TR3.REAL IMPEDANCE.ohm	TR4.FREQ.GHZ	TR4.IMAGINARY IMPEDANCE.ohm
1	  0.020000000	-3.883200E+01	  0.020000000	5.763100E+01	  0.020000000	5.060600E+01	  0.020000000	9.770000E-01
2	  0.020200402	-3.879100E+01	  0.020200402	5.718600E+01	  0.020200402	5.061700E+01	  0.020200402	9.770000E-01
3	  0.020400802	-3.865300E+01	  0.020400802	5.714700E+01	  0.020400802	5.062700E+01	  0.020400802	9.930000E-01
4	  0.020601204	-3.862000E+01	  0.020601204	5.733000E+01	  0.020601204	5.062600E+01	  0.020601204	9.990000E-01
5	  0.020801604	-3.853300E+01	  0.020801604	5.721300E+01	  0.020801604	5.063500E+01	  0.020801604	1.008000E+00
6	  0.021002004	-3.851100E+01	  0.021002004	5.654500E+01	  0.021002004	5.064800E+01	  0.021002004	1.003000E+00
7	  0.021202406	-3.847500E+01	  0.021202406	5.668500E+01	  0.021202406	5.064800E+01	  0.021202406	1.009000E+00
8	  0.021402806	-3.840000E+01	  0.021402806	5.681300E+01	  0.021402806	5.065200E+01	  0.021402806	1.019000E+00
9	  0.021603208	-3.836900E+01	  0.021603208	5.669800E+01	  0.021603208	5.065600E+01	  0.021603208	1.021000E+00
10	  0.021803608	-3.828000E+01	  0.021803608	5.703200E+01	  0.021803608	5.065700E+01	  0.021803608	1.036000E+00
11	  0.022004008	-3.823400E+01	  0.022004008	5.606300E+01	  0.022004008	5.067800E+01	  0.022004008	1.030000E+00
12	  0.022204408	-3.815200E+01	  0.022204408	5.643800E+01	  0.022204408	5.067700E+01	  0.022204408	1.044000E+00
13	  0.022404809	-3.807000E+01	  0.022404809	5.649800E+01	  0.022404809	5.068200E+01	  0.022404809	1.055000E+00
14	  0.022605211	-3.807000E+01	  0.022605211	5.635700E+01	  0.022605211	5.068500E+01	  0.022605211	1.054000E+00
15	  0.022805611	-3.796300E+01	  0.022805611	5.590100E+01	  0.022805611	5.070200E+01	  0.022805611	1.061000E+00
16	  0.023006011	-3.784700E+01	  0.023006011	5.584800E+01	  0.023006011	5.071200E+01	  0.023006011	1.075000E+00
17	  0.023206413	-3.791000E+01	  0.023206413	5.598900E+01	  0.023206413	5.070500E+01	  0.023206413	1.069000E+00
18	  0.023406813	-3.782000E+01	  0.023406813	5.578600E+01	  0.023406813	5.071600E+01	  0.023406813	1.078000E+00
19	  0.023607215	-3.774700E+01	  0.023607215	5.608200E+01	  0.023607215	5.071600E+01	  0.023607215	1.091000E+00
20	  0.023807615	-3.764100E+01	  0.023807615	5.571600E+01	  0.023807615	5.073200E+01	  0.023807615	1.100000E+00
21	  0.024008015	-3.758100E+01	  0.024008015	5.562700E+01	  0.024008015	5.073900E+01	  0.024008015	1.106000E+00
22	  0.024208417	-3.762300E+01	  0.024208417	5.530800E+01	  0.024208417	5.074100E+01	  0.024208417	1.097000E+00
23	  0.024408817	-3.751400E+01	  0.024408817	5.588600E+01	  0.024408817	5.073900E+01	  0.024408817	1.118000E+00
24	  0.024609219	-3.751000E+01	  0.024609219	5.548000E+01	  0.024609219	5.074800E+01	  0.024609219	1.114000E+00
25	  0.024809619	-3.748000E+01	  0.024809619	5.533500E+01	  0.024809619	5.075300E+01	  0.024809619	1.115000E+00
26	  0.025010020	-3.737200E+01	  0.025010020	5.551100E+01	  0.025010020	5.075900E+01	  0.025010020	1.132000E+00
27	  0.025210422	-3.738600E+01	  0.025210422	5.538300E+01	  0.025210422	5.076000E+01	  0.025210422	1.129000E+00
28	  0.025410822	-3.731900E+01	  0.025410822	5.518900E+01	  0.025410822	5.077000E+01	  0.025410822	1.135000E+00
29	  0.025611224	-3.722500E+01	  0.025611224	5.535800E+01	  0.025611224	5.077500E+01	  0.025611224	1.150000E+00
30	  0.025811624	-3.723400E+01	  0.025811624	5.494100E+01	  0.025811624	5.078300E+01	  0.025811624	1.143000E+00
31	  0.026012026	-3.719500E+01	  0.026012026	5.501600E+01	  0.026012026	5.078500E+01	  0.026012026	1.149000E+00
32	  0.026212426	-3.707500E+01	  0.026212426	5.492800E+01	  0.026212426	5.079700E+01	  0.026212426	1.164000E+00
33	  0.026412826	-3.700700E+01	  0.026412826	5.521400E+01	  0.026412826	5.079700E+01	  0.026412826	1.177000E+00
34	  0.026613226	-3.702400E+01	  0.026613226	5.536100E+01	  0.026613226	5.079300E+01	  0.026613226	1.177000E+00
35	  0.026813626	-3.700800E+01	  0.026813626	5.501200E+01	  0.026813626	5.080200E+01	  0.026813626	1.174000E+00
36	  0.027014028	-3.695500E+01	  0.027014028	5.476400E+01	  0.027014028	5.081200E+01	  0.027014028	1.178000E+00
37	  0.027214428	-3.690700E+01	  0.027214428	5.423500E+01	  0.027214428	5.082700E+01	  0.027214428	1.177000E+00
38	  0.027414829	-3.678700E+01	  0.027414829	5.475800E+01	  0.027414829	5.082700E+01	  0.027414829	1.202000E+00
39	  0.027615231	-3.676500E+01	  0.027615231	5.472500E+01	  0.027615231	5.083000E+01	  0.027615231	1.204000E+00
40	  0.027815631	-3.676300E+01	  0.027815631	5.437200E+01	  0.027815631	5.083800E+01	  0.027815631	1.199000E+00
41	  0.028016033	-3.670300E+01	  0.028016033	5.455900E+01	  0.028016033	5.084000E+01	  0.028016033	1.210000E+00
42	  0.028216433	-3.665000E+01	  0.028216433	5.456400E+01	  0.028216433	5.084500E+01	  0.028216433	1.218000E+00
43	  0.028416833	-3.655000E+01	  0.028416833	5.430300E+01	  0.028416833	5.086000E+01	  0.028416833	1.229000E+00
44	  0.028617235	-3.656200E+01	  0.028617235	5.424300E+01	  0.028617235	5.086000E+01	  0.028617235	1.226000E+00
45	  0.028817635	-3.644800E+01	  0.028817635	5.384300E+01	  0.028817635	5.088000E+01	  0.028817635	1.236000E+00
46	  0.029018037	-3.649700E+01	  0.029018037	5.399700E+01	  0.029018037	5.087200E+01	  0.029018037	1.232000E+00
47	  0.029218437	-3.642600E+01	  0.029218437	5.413900E+01	  0.029218437	5.087600E+01	  0.029218437	1.244000E+00
48	  0.029418837	-3.638600E+01	  0.029418837	5.405300E+01	  0.029418837	5.088200E+01	  0.029418837	1.249000E+00
49	  0.029619239	-3.631400E+01	  0.029619239	5.373400E+01	  0.029619239	5.089600E+01	  0.029619239	1.254000E+00
50	  0.029819639	-3.626500E+01	  0.029819639	5.391800E+01	  0.029819639	5.089700E+01	  0.029819639	1.264000E+00
51	  0.030020041	-3.622800E+01	  0.030020041	5.363700E+01	  0.030020041	5.090700E+01	  0.030020041	1.266000E+00
52	  0.030220442	-3.619300E+01	  0.030220442	5.351800E+01	  0.030220442	5.091400E+01	  0.030220442	1.269000E+00
53	  0.030420844	-3.618100E+01	  0.030420844	5.379400E+01	  0.030420844	5.090900E+01	  0.030420844	1.275000E+00
54	  0.030621244	-3.610700E+01	  0.030621244	5.351800E+01	  0.030621244	5.092300E+01	  0.030621244	1.282000E+00
55	  0.030821644	-3.608700E+01	  0.030821644	5.347300E+01	  0.030821644	5.092600E+01	  0.030821644	1.284000E+00
56	  0.031022044	-3.604700E+01	  0.031022044	5.328800E+01	  0.031022044	5.093400E+01	  0.031022044	1.287000E+00
57	  0.031222444	-3.596100E+01	  0.031222444	5.346800E+01	  0.031222444	5.093900E+01	  0.031222444	1.303000E+00
58	  0.031422846	-3.595000E+01	  0.031422846	5.326800E+01	  0.031422846	5.094500E+01	  0.031422846	1.302000E+00
59	  0.031623244	-3.595500E+01	  0.031623244	5.309400E+01	  0.031623244	5.094900E+01	  0.031623244	1.298000E+00
60	  0.031823646	-3.588400E+01	  0.031823646	5.294600E+01	  0.031823646	5.096000E+01	  0.031823646	1.306000E+00
61	  0.032024048	-3.586700E+01	  0.032024048	5.291700E+01	  0.032024048	5.096200E+01	  0.032024048	1.308000E+00
62	  0.032224450	-3.581900E+01	  0.032224450	5.252900E+01	  0.032224450	5.097700E+01	  0.032224450	1.309000E+00
63	  0.032424849	-3.576500E+01	  0.032424849	5.273100E+01	  0.032424849	5.097800E+01	  0.032424849	1.321000E+00
64	  0.032625251	-3.573100E+01	  0.032625251	5.256800E+01	  0.032625251	5.098600E+01	  0.032625251	1.323000E+00
65	  0.032825653	-3.572700E+01	  0.032825653	5.294500E+01	  0.032825653	5.097700E+01	  0.032825653	1.330000E+00
66	  0.033026051	-3.566800E+01	  0.033026051	5.244000E+01	  0.033026051	5.099600E+01	  0.033026051	1.331000E+00
67	  0.033226453	-3.563700E+01	  0.033226453	5.231400E+01	  0.033226453	5.100200E+01	  0.033226453	1.334000E+00
68	  0.033426855	-3.562600E+01	  0.033426855	5.267600E+01	  0.033426855	5.099500E+01	  0.033426855	1.342000E+00
69	  0.033627257	-3.556300E+01	  0.033627257	5.205700E+01	  0.033627257	5.101700E+01	  0.033627257	1.341000E+00
70	  0.033827655	-3.544600E+01	  0.033827655	5.219000E+01	  0.033827655	5.102700E+01	  0.033827655	1.362000E+00
71	  0.034028057	-3.550800E+01	  0.034028057	5.215500E+01	  0.034028057	5.102100E+01	  0.034028057	1.351000E+00
72	  0.034228459	-3.544200E+01	  0.034228459	5.200000E+01	  0.034228459	5.103300E+01	  0.034228459	1.359000E+00
73	  0.034428857	-3.541600E+01	  0.034428857	5.200400E+01	  0.034428857	5.103600E+01	  0.034428857	1.363000E+00
74	  0.034629259	-3.541800E+01	  0.034629259	5.187000E+01	  0.034629259	5.103900E+01	  0.034629259	1.361000E+00
75	  0.034829661	-3.531800E+01	  0.034829661	5.191900E+01	  0.034829661	5.104900E+01	  0.034829661	1.378000E+00
76	  0.035030060	-3.529300E+01	  0.035030060	5.188700E+01	  0.035030060	5.105300E+01	  0.035030060	1.381000E+00
77	  0.035230462	-3.526600E+01	  0.035230462	5.204800E+01	  0.035230462	5.105200E+01	  0.035230462	1.388000E+00
78	  0.035430863	-3.523300E+01	  0.035430863	5.142400E+01	  0.035430863	5.107200E+01	  0.035430863	1.382000E+00
79	  0.035631265	-3.522000E+01	  0.035631265	5.163300E+01	  0.035631265	5.106800E+01	  0.035631265	1.388000E+00
80	  0.035831664	-3.515900E+01	  0.035831664	5.124300E+01	  0.035831664	5.108500E+01	  0.035831664	1.391000E+00
81	  0.036032066	-3.516000E+01	  0.036032066	5.142100E+01	  0.036032066	5.108100E+01	  0.036032066	1.394000E+00
82	  0.036232468	-3.508900E+01	  0.036232468	5.099300E+01	  0.036232468	5.110000E+01	  0.036232468	1.398000E+00
83	  0.036432866	-3.510100E+01	  0.036432866	5.101900E+01	  0.036432866	5.109800E+01	  0.036432866	1.396000E+00
84	  0.036633268	-3.506500E+01	  0.036633268	5.146600E+01	  0.036633268	5.109200E+01	  0.036633268	1.411000E+00
85	  0.036833670	-3.504900E+01	  0.036833670	5.096100E+01	  0.036833670	5.110600E+01	  0.036833670	1.404000E+00
86	  0.037034072	-3.496600E+01	  0.037034072	5.070400E+01	  0.037034072	5.112300E+01	  0.037034072	1.412000E+00
87	  0.037234470	-3.496800E+01	  0.037234470	5.075000E+01	  0.037234470	5.112200E+01	  0.037234470	1.413000E+00
88	  0.037434869	-3.492900E+01	  0.037434869	5.063500E+01	  0.037434869	5.113000E+01	  0.037434869	1.417000E+00
89	  0.037635271	-3.489000E+01	  0.037635271	5.065900E+01	  0.037635271	5.113400E+01	  0.037635271	1.424000E+00
90	  0.037835669	-3.484200E+01	  0.037835669	5.048800E+01	  0.037835669	5.114500E+01	  0.037835669	1.429000E+00
91	  0.038036071	-3.474300E+01	  0.038036071	5.041500E+01	  0.038036071	5.116000E+01	  0.038036071	1.444000E+00
92	  0.038236473	-3.475300E+01	  0.038236473	5.043700E+01	  0.038236473	5.115800E+01	  0.038236473	1.443000E+00
93	  0.038436871	-3.476900E+01	  0.038436871	5.058000E+01	  0.038436871	5.115200E+01	  0.038436871	1.443000E+00
94	  0.038637273	-3.468000E+01	  0.038637273	5.017500E+01	  0.038637273	5.117400E+01	  0.038637273	1.450000E+00
95	  0.038837675	-3.469000E+01	  0.038837675	4.982300E+01	  0.038837675	5.118200E+01	  0.038837675	1.441000E+00
96	  0.039038073	-3.465400E+01	  0.039038073	5.005900E+01	  0.039038073	5.118100E+01	  0.039038073	1.452000E+00
97	  0.039238475	-3.460400E+01	  0.039238475	4.971000E+01	  0.039238475	5.119700E+01	  0.039238475	1.454000E+00
98	  0.039438877	-3.458900E+01	  0.039438877	5.005800E+01	  0.039438877	5.119000E+01	  0.039438877	1.463000E+00
99	  0.039639279	-3.453300E+01	  0.039639279	4.958000E+01	  0.039639279	5.121000E+01	  0.039639279	1.463000E+00
100	  0.039839678	-3.450000E+01	  0.039839678	4.963400E+01	  0.039839678	5.121300E+01	  0.039839678	1.470000E+00
101	  0.040040080	-3.448300E+01	  0.040040080	4.968900E+01	  0.040040080	5.121400E+01	  0.040040080	1.474000E+00
102	  0.040240481	-3.448500E+01	  0.040240481	4.943800E+01	  0.040240481	5.122000E+01	  0.040240481	1.468000E+00
103	  0.040440880	-3.443200E+01	  0.040440880	4.957800E+01	  0.040440880	5.122400E+01	  0.040440880	1.481000E+00
104	  0.040641282	-3.438500E+01	  0.040641282	4.927000E+01	  0.040641282	5.123900E+01	  0.040641282	1.482000E+00
105	  0.040841684	-3.441800E+01	  0.040841684	4.922100E+01	  0.040841684	5.123600E+01	  0.040841684	1.475000E+00
106	  0.041042086	-3.431500E+01	  0.041042086	4.907200E+01	  0.041042086	5.125400E+01	  0.041042086	1.490000E+00
107	  0.041242484	-3.429200E+01	  0.041242484	4.875300E+01	  0.041242484	5.126600E+01	  0.041242484	1.487000E+00
108	  0.041442886	-3.427900E+01	  0.041442886	4.890800E+01	  0.041442886	5.126400E+01	  0.041442886	1.493000E+00
109	  0.041643288	-3.419200E+01	  0.041643288	4.894200E+01	  0.041643288	5.127500E+01	  0.041643288	1.509000E+00
110	  0.041843686	-3.423600E+01	  0.041843686	4.845100E+01	  0.041843686	5.128200E+01	  0.041843686	1.491000E+00
111	  0.042044088	-3.423300E+01	  0.042044088	4.849500E+01	  0.042044088	5.128100E+01	  0.042044088	1.492000E+00
112	  0.042244490	-3.412000E+01	  0.042244490	4.874400E+01	  0.042244490	5.129100E+01	  0.042244490	1.518000E+00
113	  0.042444889	-3.414300E+01	  0.042444889	4.873800E+01	  0.042444889	5.128800E+01	  0.042444889	1.513000E+00
114	  0.042645290	-3.412000E+01	  0.042645290	4.837800E+01	  0.042645290	5.130100E+01	  0.042645290	1.509000E+00
115	  0.042845692	-3.406700E+01	  0.042845692	4.828200E+01	  0.042845692	5.131200E+01	  0.042845692	1.517000E+00
116	  0.043046094	-3.404900E+01	  0.043046094	4.834900E+01	  0.043046094	5.131300E+01	  0.043046094	1.521000E+00
117	  0.043246493	-3.403000E+01	  0.043246493	4.810200E+01	  0.043246493	5.132200E+01	  0.043246493	1.519000E+00
118	  0.043446895	-3.400300E+01	  0.043446895	4.825000E+01	  0.043446895	5.132200E+01	  0.043446895	1.527000E+00
119	  0.043647297	-3.396000E+01	  0.043647297	4.801100E+01	  0.043647297	5.133500E+01	  0.043647297	1.530000E+00
120	  0.043847695	-3.398000E+01	  0.043847695	4.801400E+01	  0.043847695	5.133200E+01	  0.043847695	1.526000E+00
121	  0.044048097	-3.392200E+01	  0.044048097	4.795900E+01	  0.044048097	5.134300E+01	  0.044048097	1.535000E+00
122	  0.044248499	-3.388600E+01	  0.044248499	4.794800E+01	  0.044248499	5.134900E+01	  0.044248499	1.542000E+00
123	  0.044448901	-3.386600E+01	  0.044448901	4.775900E+01	  0.044448901	5.135700E+01	  0.044448901	1.541000E+00
124	  0.044649299	-3.381600E+01	  0.044649299	4.760400E+01	  0.044649299	5.136900E+01	  0.044649299	1.546000E+00
125	  0.044849701	-3.379800E+01	  0.044849701	4.715100E+01	  0.044849701	5.138400E+01	  0.044849701	1.539000E+00
126	  0.045050103	-3.374800E+01	  0.045050103	4.735300E+01	  0.045050103	5.138700E+01	  0.045050103	1.553000E+00
127	  0.045250501	-3.374000E+01	  0.045250501	4.742900E+01	  0.045250501	5.138600E+01	  0.045250501	1.556000E+00
128	  0.045450903	-3.372000E+01	  0.045450903	4.727400E+01	  0.045450903	5.139300E+01	  0.045450903	1.556000E+00
129	  0.045651305	-3.371100E+01	  0.045651305	4.730300E+01	  0.045651305	5.139400E+01	  0.045651305	1.558000E+00
130	  0.045851704	-3.368300E+01	  0.045851704	4.738900E+01	  0.045851704	5.139600E+01	  0.045851704	1.566000E+00
131	  0.046052106	-3.364300E+01	  0.046052106	4.690400E+01	  0.046052106	5.141600E+01	  0.046052106	1.561000E+00
132	  0.046252504	-3.364300E+01	  0.046252504	4.697800E+01	  0.046252504	5.141400E+01	  0.046252504	1.563000E+00
133	  0.046452906	-3.358800E+01	  0.046452906	4.671200E+01	  0.046452906	5.143100E+01	  0.046452906	1.567000E+00
134	  0.046653304	-3.353800E+01	  0.046653304	4.671600E+01	  0.046653304	5.143900E+01	  0.046653304	1.576000E+00
135	  0.046853706	-3.354600E+01	  0.046853706	4.653500E+01	  0.046853706	5.144300E+01	  0.046853706	1.570000E+00
136	  0.047054108	-3.348200E+01	  0.047054108	4.673800E+01	  0.047054108	5.144700E+01	  0.047054108	1.587000E+00
137	  0.047254506	-3.346000E+01	  0.047254506	4.627300E+01	  0.047254506	5.146400E+01	  0.047254506	1.579000E+00
138	  0.047454908	-3.347200E+01	  0.047454908	4.637500E+01	  0.047454908	5.145900E+01	  0.047454908	1.580000E+00
139	  0.047655310	-3.343200E+01	  0.047655310	4.620300E+01	  0.047655310	5.147100E+01	  0.047655310	1.583000E+00
140	  0.047855709	-3.341000E+01	  0.047855709	4.622500E+01	  0.047855709	5.147400E+01	  0.047855709	1.588000E+00
141	  0.048056111	-3.340500E+01	  0.048056111	4.615700E+01	  0.048056111	5.147700E+01	  0.048056111	1.587000E+00
142	  0.048256513	-3.335700E+01	  0.048256513	4.586600E+01	  0.048256513	5.149300E+01	  0.048256513	1.588000E+00
143	  0.048456915	-3.336300E+01	  0.048456915	4.558200E+01	  0.048456915	5.150100E+01	  0.048456915	1.580000E+00
144	  0.048657313	-3.337200E+01	  0.048657313	4.569400E+01	  0.048657313	5.149600E+01	  0.048657313	1.581000E+00
145	  0.048857715	-3.329700E+01	  0.048857715	4.553100E+01	  0.048857715	5.151300E+01	  0.048857715	1.591000E+00
146	  0.049058117	-3.326600E+01	  0.049058117	4.560100E+01	  0.049058117	5.151700E+01	  0.049058117	1.598000E+00
147	  0.049258515	-3.324500E+01	  0.049258515	4.523100E+01	  0.049258515	5.153100E+01	  0.049258515	1.593000E+00
148	  0.049458917	-3.323600E+01	  0.049458917	4.539200E+01	  0.049458917	5.152800E+01	  0.049458917	1.599000E+00
149	  0.049659319	-3.320400E+01	  0.049659319	4.531100E+01	  0.049659319	5.153600E+01	  0.049659319	1.603000E+00
150	  0.049859721	-3.319300E+01	  0.049859721	4.488900E+01	  0.049859721	5.155000E+01	  0.049859721	1.593000E+00
151	  0.050060119	-3.316800E+01	  0.050060119	4.487900E+01	  0.050060119	5.155500E+01	  0.050060119	1.598000E+00
152	  0.050260521	-3.315300E+01	  0.050260521	4.451700E+01	  0.050260521	5.156800E+01	  0.050260521	1.591000E+00
153	  0.050460923	-3.311900E+01	  0.050460923	4.475000E+01	  0.050460923	5.156700E+01	  0.050460923	1.604000E+00
154	  0.050661322	-3.311500E+01	  0.050661322	4.467400E+01	  0.050661322	5.157000E+01	  0.050661322	1.602000E+00
155	  0.050861724	-3.309100E+01	  0.050861724	4.452700E+01	  0.050861724	5.157900E+01	  0.050861724	1.603000E+00
156	  0.051062126	-3.309900E+01	  0.051062126	4.456000E+01	  0.051062126	5.157600E+01	  0.051062126	1.602000E+00
157	  0.051262524	-3.300400E+01	  0.051262524	4.441600E+01	  0.051262524	5.159800E+01	  0.051262524	1.616000E+00
158	  0.051462926	-3.299600E+01	  0.051462926	4.390700E+01	  0.051462926	5.161400E+01	  0.051462926	1.604000E+00
159	  0.051663328	-3.300400E+01	  0.051663328	4.440600E+01	  0.051663328	5.159800E+01	  0.051663328	1.616000E+00
160	  0.051863730	-3.297800E+01	  0.051863730	4.386200E+01	  0.051863730	5.161900E+01	  0.051863730	1.606000E+00
161	  0.052064128	-3.298000E+01	  0.052064128	4.364800E+01	  0.052064128	5.162500E+01	  0.052064128	1.599000E+00
162	  0.052264530	-3.294100E+01	  0.052264530	4.381300E+01	  0.052264530	5.162700E+01	  0.052264530	1.611000E+00
163	  0.052464932	-3.289300E+01	  0.052464932	4.353100E+01	  0.052464932	5.164400E+01	  0.052464932	1.613000E+00
164	  0.052665330	-3.293200E+01	  0.052665330	4.350500E+01	  0.052665330	5.163800E+01	  0.052665330	1.604000E+00
165	  0.052865732	-3.287900E+01	  0.052865732	4.358700E+01	  0.052865732	5.164600E+01	  0.052865732	1.617000E+00
166	  0.053066134	-3.286000E+01	  0.053066134	4.328000E+01	  0.053066134	5.165800E+01	  0.053066134	1.612000E+00
167	  0.053266536	-3.281900E+01	  0.053266536	4.311300E+01	  0.053266536	5.167100E+01	  0.053266536	1.615000E+00
168	  0.053466935	-3.280200E+01	  0.053466935	4.308700E+01	  0.053466935	5.167500E+01	  0.053466935	1.617000E+00
169	  0.053667337	-3.277600E+01	  0.053667337	4.310800E+01	  0.053667337	5.167900E+01	  0.053667337	1.623000E+00
170	  0.053867739	-3.277200E+01	  0.053867739	4.315100E+01	  0.053867739	5.167900E+01	  0.053867739	1.625000E+00
171	  0.054068137	-3.273500E+01	  0.054068137	4.302900E+01	  0.054068137	5.168900E+01	  0.054068137	1.628000E+00
172	  0.054268539	-3.270700E+01	  0.054268539	4.315300E+01	  0.054268539	5.169100E+01	  0.054268539	1.638000E+00
173	  0.054468941	-3.270800E+01	  0.054468941	4.281800E+01	  0.054468941	5.170100E+01	  0.054468941	1.627000E+00
174	  0.054669339	-3.268300E+01	  0.054669339	4.259000E+01	  0.054669339	5.171300E+01	  0.054669339	1.625000E+00
175	  0.054869737	-3.265800E+01	  0.054869737	4.242400E+01	  0.054869737	5.172200E+01	  0.054869737	1.625000E+00
176	  0.055070139	-3.261800E+01	  0.055070139	4.244500E+01	  0.055070139	5.173000E+01	  0.055070139	1.634000E+00
177	  0.055270538	-3.263200E+01	  0.055270538	4.220500E+01	  0.055270538	5.173400E+01	  0.055270538	1.624000E+00
178	  0.055470940	-3.263800E+01	  0.055470940	4.228300E+01	  0.055470940	5.173100E+01	  0.055470940	1.625000E+00
179	  0.055671342	-3.260200E+01	  0.055671342	4.217600E+01	  0.055671342	5.174100E+01	  0.055671342	1.629000E+00
180	  0.055871744	-3.251600E+01	  0.055871744	4.176000E+01	  0.055871744	5.177000E+01	  0.055871744	1.633000E+00
181	  0.056072142	-3.253000E+01	  0.056072142	4.182400E+01	  0.056072142	5.176600E+01	  0.056072142	1.632000E+00
182	  0.056272544	-3.248900E+01	  0.056272544	4.193600E+01	  0.056272544	5.177100E+01	  0.056272544	1.643000E+00
183	  0.056472946	-3.250000E+01	  0.056472946	4.152400E+01	  0.056472946	5.178100E+01	  0.056472946	1.628000E+00
184	  0.056673344	-3.245100E+01	  0.056673344	4.145700E+01	  0.056673344	5.179300E+01	  0.056673344	1.636000E+00
185	  0.056873746	-3.242900E+01	  0.056873746	4.142400E+01	  0.056873746	5.179800E+01	  0.056873746	1.639000E+00
186	  0.057074148	-3.245600E+01	  0.057074148	4.122900E+01	  0.057074148	5.179900E+01	  0.057074148	1.628000E+00
187	  0.057274550	-3.242600E+01	  0.057274550	4.126500E+01	  0.057274550	5.180400E+01	  0.057274550	1.635000E+00
188	  0.057474948	-3.243000E+01	  0.057474948	4.071100E+01	  0.057474948	5.181900E+01	  0.057474948	1.616000E+00
189	  0.057675350	-3.238800E+01	  0.057675350	4.085900E+01	  0.057675350	5.182400E+01	  0.057675350	1.629000E+00
190	  0.057875752	-3.236100E+01	  0.057875752	4.078000E+01	  0.057875752	5.183200E+01	  0.057875752	1.632000E+00
191	  0.058076151	-3.236400E+01	  0.058076151	4.062700E+01	  0.058076151	5.183600E+01	  0.058076151	1.626000E+00
192	  0.058276553	-3.232400E+01	  0.058276553	4.060000E+01	  0.058276553	5.184500E+01	  0.058276553	1.633000E+00
193	  0.058476955	-3.227200E+01	  0.058476955	4.048100E+01	  0.058476955	5.186000E+01	  0.058476955	1.640000E+00
194	  0.058677353	-3.228100E+01	  0.058677353	4.036200E+01	  0.058677353	5.186100E+01	  0.058677353	1.634000E+00
195	  0.058877755	-3.230100E+01	  0.058877755	4.022000E+01	  0.058877755	5.186100E+01	  0.058877755	1.626000E+00
196	  0.059078157	-3.228600E+01	  0.059078157	4.013100E+01	  0.059078157	5.186700E+01	  0.059078157	1.626000E+00
197	  0.059278559	-3.222300E+01	  0.059278559	4.004600E+01	  0.059278559	5.188300E+01	  0.059278559	1.635000E+00
198	  0.059478957	-3.219900E+01	  0.059478957	3.990100E+01	  0.059478957	5.189300E+01	  0.059478957	1.635000E+00
199	  0.059679359	-3.222700E+01	  0.059679359	4.005800E+01	  0.059679359	5.188200E+01	  0.059679359	1.635000E+00
200	  0.059879761	-3.218000E+01	  0.059879761	3.990400E+01	  0.059879761	5.189700E+01	  0.059879761	1.639000E+00
201	  0.060080159	-3.215900E+01	  0.060080159	3.961600E+01	  0.060080159	5.191000E+01	  0.060080159	1.633000E+00
202	  0.060280561	-3.216000E+01	  0.060280561	3.956900E+01	  0.060280561	5.191100E+01	  0.060280561	1.631000E+00
203	  0.060480963	-3.212200E+01	  0.060480963	3.976300E+01	  0.060480963	5.191400E+01	  0.060480963	1.645000E+00
204	  0.060681365	-3.208800E+01	  0.060681365	3.960000E+01	  0.060681365	5.192600E+01	  0.060681365	1.647000E+00
205	  0.060881764	-3.206900E+01	  0.060881764	3.937800E+01	  0.060881764	5.193700E+01	  0.060881764	1.643000E+00
206	  0.061082166	-3.207400E+01	  0.061082166	3.908700E+01	  0.061082166	5.194400E+01	  0.061082166	1.632000E+00
207	  0.061282568	-3.204000E+01	  0.061282568	3.926900E+01	  0.061282568	5.194700E+01	  0.061282568	1.645000E+00
208	  0.061482966	-3.201700E+01	  0.061482966	3.893600E+01	  0.061482966	5.196200E+01	  0.061482966	1.638000E+00
209	  0.061683368	-3.204600E+01	  0.061683368	3.894600E+01	  0.061683368	5.195500E+01	  0.061683368	1.632000E+00
210	  0.061883770	-3.200500E+01	  0.061883770	3.868000E+01	  0.061883770	5.197200E+01	  0.061883770	1.631000E+00
211	  0.062084168	-3.197000E+01	  0.062084168	3.868300E+01	  0.062084168	5.198000E+01	  0.062084168	1.638000E+00
212	  0.062284570	-3.199100E+01	  0.062284570	3.879300E+01	  0.062284570	5.197200E+01	  0.062284570	1.638000E+00
213	  0.062484972	-3.196300E+01	  0.062484972	3.856700E+01	  0.062484972	5.198500E+01	  0.062484972	1.636000E+00
214	  0.062685370	-3.191900E+01	  0.062685370	3.840300E+01	  0.062685370	5.200000E+01	  0.062685370	1.639000E+00
215	  0.062885776	-3.189300E+01	  0.062885776	3.871000E+01	  0.062885776	5.199700E+01	  0.062885776	1.654000E+00
216	  0.063086174	-3.192300E+01	  0.063086174	3.860700E+01	  0.063086174	5.199300E+01	  0.063086174	1.645000E+00
217	  0.063286573	-3.188300E+01	  0.063286573	3.818100E+01	  0.063286573	5.201500E+01	  0.063286573	1.638000E+00
218	  0.063486971	-3.189200E+01	  0.063486971	3.832100E+01	  0.063486971	5.200900E+01	  0.063486971	1.641000E+00
219	  0.063687377	-3.185900E+01	  0.063687377	3.832900E+01	  0.063687377	5.201600E+01	  0.063687377	1.648000E+00
220	  0.063887775	-3.182500E+01	  0.063887775	3.804700E+01	  0.063887775	5.203300E+01	  0.063887775	1.644000E+00
221	  0.064088173	-3.181700E+01	  0.064088173	3.764000E+01	  0.064088173	5.204700E+01	  0.064088173	1.631000E+00
222	  0.064288579	-3.181800E+01	  0.064288579	3.769100E+01	  0.064288579	5.204500E+01	  0.064288579	1.633000E+00
223	  0.064488977	-3.179000E+01	  0.064488977	3.774200E+01	  0.064488977	5.205000E+01	  0.064488977	1.640000E+00
224	  0.064689375	-3.173300E+01	  0.064689375	3.734600E+01	  0.064689375	5.207600E+01	  0.064689375	1.637000E+00
225	  0.064889781	-3.177800E+01	  0.064889781	3.741400E+01	  0.064889781	5.206300E+01	  0.064889781	1.631000E+00
226	  0.065090179	-3.169900E+01	  0.065090179	3.740300E+01	  0.065090179	5.208200E+01	  0.065090179	1.646000E+00
227	  0.065290578	-3.169900E+01	  0.065290578	3.730700E+01	  0.065290578	5.208500E+01	  0.065290578	1.642000E+00
228	  0.065490983	-3.171500E+01	  0.065490983	3.733000E+01	  0.065490983	5.208000E+01	  0.065490983	1.640000E+00
229	  0.065691382	-3.174300E+01	  0.065691382	3.713400E+01	  0.065691382	5.208000E+01	  0.065691382	1.627000E+00
230	  0.065891780	-3.169900E+01	  0.065891780	3.682300E+01	  0.065891780	5.210000E+01	  0.065891780	1.625000E+00
231	  0.066092186	-3.170900E+01	  0.066092186	3.663300E+01	  0.066092186	5.210200E+01	  0.066092186	1.616000E+00
232	  0.066292584	-3.159400E+01	  0.066292584	3.702400E+01	  0.066292584	5.211900E+01	  0.066292584	1.653000E+00
233	  0.066492982	-3.158900E+01	  0.066492982	3.651200E+01	  0.066492982	5.213600E+01	  0.066492982	1.635000E+00
234	  0.066693388	-3.162700E+01	  0.066693388	3.627600E+01	  0.066693388	5.213300E+01	  0.066693388	1.618000E+00
235	  0.066893786	-3.158500E+01	  0.066893786	3.628900E+01	  0.066893786	5.214300E+01	  0.066893786	1.627000E+00
236	  0.067094192	-3.158200E+01	  0.067094192	3.613000E+01	  0.067094192	5.214900E+01	  0.067094192	1.621000E+00
237	  0.067294590	-3.152200E+01	  0.067294590	3.624000E+01	  0.067294590	5.216000E+01	  0.067294590	1.637000E+00
238	  0.067494988	-3.154800E+01	  0.067494988	3.605900E+01	  0.067494988	5.215900E+01	  0.067494988	1.625000E+00
239	  0.067695394	-3.152600E+01	  0.067695394	3.601200E+01	  0.067695394	5.216600E+01	  0.067695394	1.628000E+00
240	  0.067895792	-3.153100E+01	  0.067895792	3.616600E+01	  0.067895792	5.216100E+01	  0.067895792	1.633000E+00
241	  0.068096191	-3.148100E+01	  0.068096191	3.599300E+01	  0.068096191	5.217800E+01	  0.068096191	1.636000E+00
242	  0.068296596	-3.153400E+01	  0.068296596	3.570400E+01	  0.068296596	5.217300E+01	  0.068296596	1.615000E+00
243	  0.068496995	-3.144000E+01	  0.068496995	3.569600E+01	  0.068496995	5.219700E+01	  0.068496995	1.633000E+00
244	  0.068697393	-3.147700E+01	  0.068697393	3.526900E+01	  0.068697393	5.220100E+01	  0.068697393	1.609000E+00
245	  0.068897791	-3.146400E+01	  0.068897791	3.537300E+01	  0.068897791	5.220100E+01	  0.068897791	1.615000E+00
246	  0.069098189	-3.140400E+01	  0.069098189	3.520700E+01	  0.069098189	5.222100E+01	  0.069098189	1.621000E+00
247	  0.069298595	-3.139600E+01	  0.069298595	3.505400E+01	  0.069298595	5.222800E+01	  0.069298595	1.616000E+00
248	  0.069498993	-3.142000E+01	  0.069498993	3.498300E+01	  0.069498993	5.222400E+01	  0.069498993	1.609000E+00
249	  0.069699399	-3.140200E+01	  0.069699399	3.495800E+01	  0.069699399	5.222900E+01	  0.069699399	1.611000E+00
250	  0.069899797	-3.140200E+01	  0.069899797	3.450200E+01	  0.069899797	5.224200E+01	  0.069899797	1.593000E+00
251	  0.070100196	-3.135100E+01	  0.070100196	3.475100E+01	  0.070100196	5.224900E+01	  0.070100196	1.613000E+00
252	  0.070300601	-3.130100E+01	  0.070300601	3.452400E+01	  0.070300601	5.226800E+01	  0.070300601	1.614000E+00
253	  0.070501000	-3.135300E+01	  0.070501000	3.455200E+01	  0.070501000	5.225400E+01	  0.070501000	1.604000E+00
254	  0.070701398	-3.133300E+01	  0.070701398	3.433300E+01	  0.070701398	5.226500E+01	  0.070701398	1.600000E+00
255	  0.070901804	-3.130800E+01	  0.070901804	3.438800E+01	  0.070901804	5.227100E+01	  0.070901804	1.607000E+00
256	  0.071102202	-3.128600E+01	  0.071102202	3.439400E+01	  0.071102202	5.227600E+01	  0.071102202	1.611000E+00
257	  0.071302600	-3.128400E+01	  0.071302600	3.393000E+01	  0.071302600	5.229000E+01	  0.071302600	1.593000E+00
258	  0.071503006	-3.129700E+01	  0.071503006	3.389100E+01	  0.071503006	5.228800E+01	  0.071503006	1.589000E+00
259	  0.071703404	-3.125200E+01	  0.071703404	3.367800E+01	  0.071703404	5.230600E+01	  0.071703404	1.589000E+00
260	  0.071903802	-3.123200E+01	  0.071903802	3.351600E+01	  0.071903802	5.231600E+01	  0.071903802	1.586000E+00
261	  0.072104208	-3.123600E+01	  0.072104208	3.372000E+01	  0.072104208	5.230900E+01	  0.072104208	1.594000E+00
262	  0.072304606	-3.119200E+01	  0.072304606	3.357000E+01	  0.072304606	5.232500E+01	  0.072304606	1.596000E+00
263	  0.072505005	-3.120900E+01	  0.072505005	3.352800E+01	  0.072505005	5.232200E+01	  0.072505005	1.591000E+00
264	  0.072705410	-3.120800E+01	  0.072705410	3.333500E+01	  0.072705410	5.232800E+01	  0.072705410	1.583000E+00
265	  0.072905809	-3.116000E+01	  0.072905809	3.321600E+01	  0.072905809	5.234400E+01	  0.072905809	1.588000E+00
266	  0.073106214	-3.113400E+01	  0.073106214	3.316800E+01	  0.073106214	5.235300E+01	  0.073106214	1.590000E+00
267	  0.073306613	-3.113400E+01	  0.073306613	3.282200E+01	  0.073306613	5.236300E+01	  0.073306613	1.576000E+00
268	  0.073507011	-3.116300E+01	  0.073507011	3.302500E+01	  0.073507011	5.234900E+01	  0.073507011	1.579000E+00
269	  0.073707417	-3.110900E+01	  0.073707417	3.304400E+01	  0.073707417	5.236300E+01	  0.073707417	1.590000E+00
270	  0.073907815	-3.109800E+01	  0.073907815	3.266600E+01	  0.073907815	5.237700E+01	  0.073907815	1.576000E+00
271	  0.074108213	-3.110400E+01	  0.074108213	3.251400E+01	  0.074108213	5.238000E+01	  0.074108213	1.569000E+00
272	  0.074308619	-3.108700E+01	  0.074308619	3.246700E+01	  0.074308619	5.238600E+01	  0.074308619	1.570000E+00
273	  0.074509017	-3.104900E+01	  0.074509017	3.227800E+01	  0.074509017	5.240200E+01	  0.074509017	1.569000E+00
274	  0.074709415	-3.103800E+01	  0.074709415	3.275400E+01	  0.074709415	5.239200E+01	  0.074709415	1.592000E+00
275	  0.074909821	-3.103700E+01	  0.074909821	3.232100E+01	  0.074909821	5.240400E+01	  0.074909821	1.573000E+00
276	  0.075110219	-3.104500E+01	  0.075110219	3.216900E+01	  0.075110219	5.240600E+01	  0.075110219	1.565000E+00
277	  0.075310618	-3.103300E+01	  0.075310618	3.220400E+01	  0.075310618	5.240900E+01	  0.075310618	1.569000E+00
278	  0.075511023	-3.098800E+01	  0.075511023	3.199400E+01	  0.075511023	5.242700E+01	  0.075511023	1.569000E+00
279	  0.075711422	-3.097700E+01	  0.075711422	3.172900E+01	  0.075711422	5.243800E+01	  0.075711422	1.559000E+00
280	  0.075911827	-3.100100E+01	  0.075911827	3.153400E+01	  0.075911827	5.243700E+01	  0.075911827	1.546000E+00
281	  0.076112226	-3.097500E+01	  0.076112226	3.167700E+01	  0.076112226	5.244000E+01	  0.076112226	1.557000E+00
282	  0.076312624	-3.098400E+01	  0.076312624	3.152200E+01	  0.076312624	5.244200E+01	  0.076312624	1.549000E+00
283	  0.076513030	-3.097300E+01	  0.076513030	3.142400E+01	  0.076513030	5.244800E+01	  0.076513030	1.547000E+00
284	  0.076713428	-3.091200E+01	  0.076713428	3.104300E+01	  0.076713428	5.247700E+01	  0.076713428	1.542000E+00
285	  0.076913826	-3.092000E+01	  0.076913826	3.097600E+01	  0.076913826	5.247600E+01	  0.076913826	1.537000E+00
286	  0.077114232	-3.090900E+01	  0.077114232	3.113600E+01	  0.077114232	5.247500E+01	  0.077114232	1.546000E+00
287	  0.077314630	-3.090000E+01	  0.077314630	3.096200E+01	  0.077314630	5.248200E+01	  0.077314630	1.540000E+00
288	  0.077515028	-3.090100E+01	  0.077515028	3.102700E+01	  0.077515028	5.248000E+01	  0.077515028	1.543000E+00
289	  0.077715434	-3.089100E+01	  0.077715434	3.078600E+01	  0.077715434	5.249000E+01	  0.077715434	1.534000E+00
290	  0.077915832	-3.083100E+01	  0.077915832	3.040500E+01	  0.077915832	5.251800E+01	  0.077915832	1.528000E+00
291	  0.078116231	-3.084700E+01	  0.078116231	3.041900E+01	  0.078116231	5.251300E+01	  0.078116231	1.526000E+00
292	  0.078316636	-3.083800E+01	  0.078316636	3.011000E+01	  0.078316636	5.252400E+01	  0.078316636	1.514000E+00
293	  0.078517035	-3.087000E+01	  0.078517035	3.005200E+01	  0.078517035	5.251600E+01	  0.078517035	1.505000E+00
294	  0.078717433	-3.082900E+01	  0.078717433	3.009200E+01	  0.078717433	5.252700E+01	  0.078717433	1.515000E+00
295	  0.078917839	-3.077700E+01	  0.078917839	2.975500E+01	  0.078917839	5.255200E+01	  0.078917839	1.509000E+00
296	  0.079118237	-3.079700E+01	  0.079118237	2.989100E+01	  0.079118237	5.254200E+01	  0.079118237	1.512000E+00
297	  0.079318643	-3.077400E+01	  0.079318643	2.995200E+01	  0.079318643	5.254800E+01	  0.079318643	1.519000E+00
298	  0.079519041	-3.077700E+01	  0.079519041	2.983900E+01	  0.079519041	5.255000E+01	  0.079519041	1.513000E+00
299	  0.079719439	-3.074800E+01	  0.079719439	2.953600E+01	  0.079719439	5.256700E+01	  0.079719439	1.504000E+00
300	  0.079919845	-3.075100E+01	  0.079919845	2.933300E+01	  0.079919845	5.257200E+01	  0.079919845	1.495000E+00
301	  0.080120243	-3.074200E+01	  0.080120243	2.912100E+01	  0.080120243	5.258000E+01	  0.080120243	1.487000E+00
302	  0.080320641	-3.072900E+01	  0.080320641	2.921400E+01	  0.080320641	5.258200E+01	  0.080320641	1.493000E+00
303	  0.080521047	-3.071400E+01	  0.080521047	2.944700E+01	  0.080521047	5.258000E+01	  0.080521047	1.507000E+00
304	  0.080721445	-3.071600E+01	  0.080721445	2.891600E+01	  0.080721445	5.259400E+01	  0.080721445	1.482000E+00
305	  0.080921844	-3.068800E+01	  0.080921844	2.894400E+01	  0.080921844	5.260100E+01	  0.080921844	1.488000E+00
306	  0.081122249	-3.070300E+01	  0.081122249	2.886000E+01	  0.081122249	5.259900E+01	  0.081122249	1.482000E+00
307	  0.081322648	-3.066500E+01	  0.081322648	2.884300E+01	  0.081322648	5.261100E+01	  0.081322648	1.488000E+00
308	  0.081523046	-3.068800E+01	  0.081523046	2.876600E+01	  0.081523046	5.260600E+01	  0.081523046	1.480000E+00
309	  0.081723452	-3.063900E+01	  0.081723452	2.824900E+01	  0.081723452	5.263500E+01	  0.081723452	1.465000E+00
310	  0.081923850	-3.063600E+01	  0.081923850	2.860800E+01	  0.081923850	5.262600E+01	  0.081923850	1.482000E+00
311	  0.082124248	-3.064200E+01	  0.082124248	2.840500E+01	  0.082124248	5.263000E+01	  0.082124248	1.471000E+00
312	  0.082324654	-3.059800E+01	  0.082324654	2.831000E+01	  0.082324654	5.264600E+01	  0.082324654	1.475000E+00
313	  0.082525052	-3.062900E+01	  0.082525052	2.820600E+01	  0.082525052	5.263900E+01	  0.082525052	1.464000E+00
314	  0.082725458	-3.060500E+01	  0.082725458	2.803800E+01	  0.082725458	5.265200E+01	  0.082725458	1.461000E+00
315	  0.082925856	-3.061400E+01	  0.082925856	2.791500E+01	  0.082925856	5.265200E+01	  0.082925856	1.453000E+00
316	  0.083126254	-3.059400E+01	  0.083126254	2.790000E+01	  0.083126254	5.265900E+01	  0.083126254	1.456000E+00
317	  0.083326660	-3.055200E+01	  0.083326660	2.765900E+01	  0.083326660	5.267800E+01	  0.083326660	1.452000E+00
318	  0.083527058	-3.059900E+01	  0.083527058	2.752700E+01	  0.083527058	5.266700E+01	  0.083527058	1.438000E+00
319	  0.083727457	-3.055500E+01	  0.083727457	2.730900E+01	  0.083727457	5.268700E+01	  0.083727457	1.435000E+00
320	  0.083927862	-3.054300E+01	  0.083927862	2.711100E+01	  0.083927862	5.269500E+01	  0.083927862	1.427000E+00
321	  0.084128261	-3.057300E+01	  0.084128261	2.713200E+01	  0.084128261	5.268600E+01	  0.084128261	1.423000E+00
322	  0.084328659	-3.053300E+01	  0.084328659	2.704400E+01	  0.084328659	5.270000E+01	  0.084328659	1.426000E+00
323	  0.084529065	-3.054600E+01	  0.084529065	2.696000E+01	  0.084529065	5.269900E+01	  0.084529065	1.420000E+00
324	  0.084729463	-3.053700E+01	  0.084729463	2.689800E+01	  0.084729463	5.270300E+01	  0.084729463	1.418000E+00
325	  0.084929861	-3.048400E+01	  0.084929861	2.665800E+01	  0.084929861	5.272600E+01	  0.084929861	1.416000E+00
326	  0.085130267	-3.047700E+01	  0.085130267	2.661200E+01	  0.085130267	5.272900E+01	  0.085130267	1.415000E+00
327	  0.085330658	-3.051000E+01	  0.085330658	2.656800E+01	  0.085330658	5.272000E+01	  0.085330658	1.407000E+00
328	  0.085531056	-3.048200E+01	  0.085531056	2.658700E+01	  0.085531056	5.272900E+01	  0.085531056	1.413000E+00
329	  0.085731462	-3.048100E+01	  0.085731462	2.641700E+01	  0.085731462	5.273300E+01	  0.085731462	1.405000E+00
330	  0.085931860	-3.043600E+01	  0.085931860	2.645600E+01	  0.085931860	5.274700E+01	  0.085931860	1.414000E+00
331	  0.086132258	-3.045600E+01	  0.086132258	2.604800E+01	  0.086132258	5.275100E+01	  0.086132258	1.391000E+00
332	  0.086332664	-3.044100E+01	  0.086332664	2.616900E+01	  0.086332664	5.275300E+01	  0.086332664	1.399000E+00
333	  0.086533062	-3.041900E+01	  0.086533062	2.602500E+01	  0.086533062	5.276400E+01	  0.086533062	1.396000E+00
334	  0.086733460	-3.044100E+01	  0.086733460	2.590100E+01	  0.086733460	5.276000E+01	  0.086733460	1.386000E+00
335	  0.086933866	-3.042100E+01	  0.086933866	2.569100E+01	  0.086933866	5.277100E+01	  0.086933866	1.379000E+00
336	  0.087134264	-3.046300E+01	  0.087134264	2.555300E+01	  0.087134264	5.276100E+01	  0.087134264	1.365000E+00
337	  0.087334670	-3.040900E+01	  0.087334670	2.547700E+01	  0.087334670	5.278100E+01	  0.087334670	1.371000E+00
338	  0.087535068	-3.041500E+01	  0.087535068	2.536400E+01	  0.087535068	5.278100E+01	  0.087535068	1.364000E+00
339	  0.087735467	-3.037600E+01	  0.087735467	2.548300E+01	  0.087735467	5.279100E+01	  0.087735467	1.376000E+00
340	  0.087935872	-3.038700E+01	  0.087935872	2.514200E+01	  0.087935872	5.279600E+01	  0.087935872	1.358000E+00
341	  0.088136271	-3.040600E+01	  0.088136271	2.504000E+01	  0.088136271	5.279300E+01	  0.088136271	1.349000E+00
342	  0.088336669	-3.037600E+01	  0.088336669	2.522000E+01	  0.088336669	5.279800E+01	  0.088336669	1.363000E+00
343	  0.088537075	-3.034000E+01	  0.088537075	2.484700E+01	  0.088537075	5.281900E+01	  0.088537075	1.351000E+00
344	  0.088737473	-3.038300E+01	  0.088737473	2.484000E+01	  0.088737473	5.280500E+01	  0.088737473	1.343000E+00
345	  0.088937871	-3.035400E+01	  0.088937871	2.467400E+01	  0.088937871	5.281900E+01	  0.088937871	1.340000E+00
346	  0.089138277	-3.032700E+01	  0.089138277	2.445800E+01	  0.089138277	5.283300E+01	  0.089138277	1.333000E+00
347	  0.089338675	-3.033000E+01	  0.089338675	2.463400E+01	  0.089338675	5.282800E+01	  0.089338675	1.341000E+00
348	  0.089539073	-3.035600E+01	  0.089539073	2.419600E+01	  0.089539073	5.283000E+01	  0.089539073	1.315000E+00
349	  0.089739479	-3.032000E+01	  0.089739479	2.417100E+01	  0.089739479	5.284200E+01	  0.089739479	1.320000E+00
350	  0.089939877	-3.032900E+01	  0.089939877	2.420700E+01	  0.089939877	5.283900E+01	  0.089939877	1.320000E+00
351	  0.090140276	-3.033700E+01	  0.090140276	2.392500E+01	  0.090140276	5.284300E+01	  0.090140276	1.304000E+00
352	  0.090340681	-3.032300E+01	  0.090340681	2.356800E+01	  0.090340681	5.285600E+01	  0.090340681	1.288000E+00
353	  0.090541080	-3.028400E+01	  0.090541080	2.371400E+01	  0.090541080	5.286600E+01	  0.090541080	1.302000E+00
354	  0.090741485	-3.031800E+01	  0.090741485	2.352000E+01	  0.090741485	5.285900E+01	  0.090741485	1.287000E+00
355	  0.090941884	-3.028800E+01	  0.090941884	2.343400E+01	  0.090941884	5.287100E+01	  0.090941884	1.287000E+00
356	  0.091142282	-3.023500E+01	  0.091142282	2.332600E+01	  0.091142282	5.289200E+01	  0.091142282	1.290000E+00
357	  0.091342688	-3.028700E+01	  0.091342688	2.327800E+01	  0.091342688	5.287500E+01	  0.091342688	1.279000E+00
358	  0.091543086	-3.026000E+01	  0.091543086	2.310500E+01	  0.091543086	5.288800E+01	  0.091543086	1.275000E+00
359	  0.091743484	-3.026000E+01	  0.091743484	2.299900E+01	  0.091743484	5.289100E+01	  0.091743484	1.269000E+00
360	  0.091943890	-3.024100E+01	  0.091943890	2.307700E+01	  0.091943890	5.289600E+01	  0.091943890	1.276000E+00
361	  0.092144288	-3.026700E+01	  0.092144288	2.302200E+01	  0.092144288	5.288800E+01	  0.092144288	1.269000E+00
362	  0.092344686	-3.024600E+01	  0.092344686	2.252800E+01	  0.092344686	5.290700E+01	  0.092344686	1.247000E+00
363	  0.092545092	-3.027600E+01	  0.092545092	2.263900E+01	  0.092545092	5.289400E+01	  0.092545092	1.248000E+00
364	  0.092745490	-3.023100E+01	  0.092745490	2.243200E+01	  0.092745490	5.291400E+01	  0.092745490	1.244000E+00
365	  0.092945889	-3.020500E+01	  0.092945889	2.223700E+01	  0.092945889	5.292700E+01	  0.092945889	1.238000E+00
366	  0.093146294	-3.021900E+01	  0.093146294	2.239100E+01	  0.093146294	5.291900E+01	  0.093146294	1.244000E+00
367	  0.093346693	-3.022100E+01	  0.093346693	2.217700E+01	  0.093346693	5.292300E+01	  0.093346693	1.232000E+00
368	  0.093547091	-3.018800E+01	  0.093547091	2.204300E+01	  0.093547091	5.293800E+01	  0.093547091	1.230000E+00
369	  0.093747497	-3.017900E+01	  0.093747497	2.179200E+01	  0.093747497	5.294600E+01	  0.093747497	1.218000E+00
370	  0.093947895	-3.017700E+01	  0.093947895	2.187600E+01	  0.093947895	5.294500E+01	  0.093947895	1.223000E+00
371	  0.094148301	-3.020500E+01	  0.094148301	2.166200E+01	  0.094148301	5.294000E+01	  0.094148301	1.208000E+00
372	  0.094348699	-3.016900E+01	  0.094348699	2.184700E+01	  0.094348699	5.294900E+01	  0.094348699	1.223000E+00
373	  0.094549097	-3.015000E+01	  0.094549097	2.141600E+01	  0.094549097	5.296500E+01	  0.094549097	1.203000E+00
374	  0.094749503	-3.015500E+01	  0.094749503	2.136500E+01	  0.094749503	5.296400E+01	  0.094749503	1.199000E+00
375	  0.094949901	-3.018900E+01	  0.094949901	2.130200E+01	  0.094949901	5.295400E+01	  0.094949901	1.191000E+00
376	  0.095150299	-3.013100E+01	  0.095150299	2.128000E+01	  0.095150299	5.297500E+01	  0.095150299	1.198000E+00
377	  0.095350705	-3.016700E+01	  0.095350705	2.088800E+01	  0.095350705	5.297100E+01	  0.095350705	1.172000E+00
378	  0.095551103	-3.014800E+01	  0.095551103	2.092100E+01	  0.095551103	5.297700E+01	  0.095551103	1.177000E+00
379	  0.095751502	-3.012700E+01	  0.095751502	2.088900E+01	  0.095751502	5.298500E+01	  0.095751502	1.178000E+00
380	  0.095951907	-3.012700E+01	  0.095951907	2.086500E+01	  0.095951907	5.298500E+01	  0.095951907	1.177000E+00
381	  0.096152306	-3.013000E+01	  0.096152306	2.061200E+01	  0.096152306	5.299000E+01	  0.096152306	1.163000E+00
382	  0.096352704	-3.016200E+01	  0.096352704	2.050900E+01	  0.096352704	5.298100E+01	  0.096352704	1.153000E+00
383	  0.096553110	-3.011100E+01	  0.096553110	2.049000E+01	  0.096553110	5.299900E+01	  0.096553110	1.159000E+00
384	  0.096753508	-3.011200E+01	  0.096753508	2.043900E+01	  0.096753508	5.300000E+01	  0.096753508	1.156000E+00
385	  0.096953906	-3.007400E+01	  0.096953906	2.033600E+01	  0.096953906	5.301500E+01	  0.096953906	1.156000E+00
386	  0.097154312	-3.010500E+01	  0.097154312	1.989300E+01	  0.097154312	5.301400E+01	  0.097154312	1.128000E+00
387	  0.097354710	-3.011000E+01	  0.097354710	1.996000E+01	  0.097354710	5.301100E+01	  0.097354710	1.131000E+00
388	  0.097555116	-3.007100E+01	  0.097555116	1.987500E+01	  0.097555116	5.302600E+01	  0.097555116	1.131000E+00
389	  0.097755514	-3.009200E+01	  0.097755514	1.989000E+01	  0.097755514	5.301800E+01	  0.097755514	1.129000E+00
390	  0.097955912	-3.007500E+01	  0.097955912	1.972300E+01	  0.097955912	5.302800E+01	  0.097955912	1.123000E+00
391	  0.098156318	-3.005600E+01	  0.098156318	1.949900E+01	  0.098156318	5.303900E+01	  0.098156318	1.113000E+00
392	  0.098356716	-3.005500E+01	  0.098356716	1.928300E+01	  0.098356716	5.304400E+01	  0.098356716	1.101000E+00
393	  0.098557115	-3.006700E+01	  0.098557115	1.937900E+01	  0.098557115	5.303800E+01	  0.098557115	1.105000E+00
394	  0.098757520	-3.003500E+01	  0.098757520	1.907300E+01	  0.098757520	5.305600E+01	  0.098757520	1.093000E+00
395	  0.098957919	-3.004300E+01	  0.098957919	1.899300E+01	  0.098957919	5.305400E+01	  0.098957919	1.087000E+00
396	  0.099158317	-3.004200E+01	  0.099158317	1.914300E+01	  0.099158317	5.305200E+01	  0.099158317	1.096000E+00
397	  0.099358723	-3.003900E+01	  0.099358723	1.876400E+01	  0.099358723	5.306000E+01	  0.099358723	1.075000E+00
398	  0.099559121	-3.004200E+01	  0.099559121	1.874900E+01	  0.099559121	5.306000E+01	  0.099559121	1.074000E+00
399	  0.099759519	-3.002600E+01	  0.099759519	1.857000E+01	  0.099759519	5.306900E+01	  0.099759519	1.066000E+00
400	  0.099959925	-3.005400E+01	  0.099959925	1.821300E+01	  0.099959925	5.306600E+01	  0.099959925	1.043000E+00
401	  0.100160323	-3.006200E+01	  0.100160323	1.835500E+01	  0.100160323	5.306000E+01	  0.100160323	1.050000E+00
402	  0.100360721	-2.997800E+01	  0.100360721	1.826600E+01	  0.100360721	5.309200E+01	  0.100360721	1.056000E+00
403	  0.100561127	-2.999900E+01	  0.100561127	1.838600E+01	  0.100561127	5.308300E+01	  0.100561127	1.060000E+00
404	  0.100761525	-3.001400E+01	  0.100761525	1.828000E+01	  0.100761525	5.307900E+01	  0.100761525	1.052000E+00
405	  0.100961931	-3.000100E+01	  0.100961931	1.807000E+01	  0.100961931	5.308800E+01	  0.100961931	1.042000E+00
406	  0.101162329	-2.997800E+01	  0.101162329	1.790200E+01	  0.101162329	5.309900E+01	  0.101162329	1.035000E+00
407	  0.101362728	-2.998500E+01	  0.101362728	1.809400E+01	  0.101362728	5.309300E+01	  0.101362728	1.045000E+00
408	  0.101563133	-2.999500E+01	  0.101563133	1.764400E+01	  0.101563133	5.309800E+01	  0.101563133	1.019000E+00
409	  0.101763532	-2.999500E+01	  0.101763532	1.766400E+01	  0.101763532	5.309800E+01	  0.101763532	1.020000E+00
410	  0.101963930	-2.999200E+01	  0.101963930	1.717200E+01	  0.101963930	5.310800E+01	  0.101963930	9.930000E-01
411	  0.102164336	-2.999500E+01	  0.102164336	1.725900E+01	  0.102164336	5.310500E+01	  0.102164336	9.980000E-01
412	  0.102364734	-2.998200E+01	  0.102364734	1.722700E+01	  0.102364734	5.311100E+01	  0.102364734	9.970000E-01
413	  0.102565132	-2.997100E+01	  0.102565132	1.700500E+01	  0.102565132	5.311900E+01	  0.102565132	9.860000E-01
414	  0.102765530	-2.996400E+01	  0.102765530	1.702600E+01	  0.102765530	5.312100E+01	  0.102765530	9.880000E-01
415	  0.102965929	-3.000100E+01	  0.102965929	1.698500E+01	  0.102965929	5.310800E+01	  0.102965929	9.820000E-01
416	  0.103166327	-2.996400E+01	  0.103166327	1.697100E+01	  0.103166327	5.312200E+01	  0.103166327	9.850000E-01
417	  0.103366733	-2.991900E+01	  0.103366733	1.670800E+01	  0.103366733	5.314400E+01	  0.103366733	9.760000E-01
418	  0.103567131	-2.993200E+01	  0.103567131	1.654900E+01	  0.103567131	5.314200E+01	  0.103567131	9.650000E-01
419	  0.103767529	-2.995100E+01	  0.103767529	1.651200E+01	  0.103767529	5.313500E+01	  0.103767529	9.610000E-01
420	  0.103967935	-2.991100E+01	  0.103967935	1.654100E+01	  0.103967935	5.315000E+01	  0.103967935	9.670000E-01
421	  0.104168333	-2.994000E+01	  0.104168333	1.634200E+01	  0.104168333	5.314200E+01	  0.104168333	9.530000E-01
422	  0.104368731	-2.996900E+01	  0.104368731	1.609200E+01	  0.104368731	5.313600E+01	  0.104368731	9.350000E-01
423	  0.104569137	-2.999200E+01	  0.104569137	1.612900E+01	  0.104569137	5.312700E+01	  0.104569137	9.350000E-01
424	  0.104769535	-2.993300E+01	  0.104769535	1.587600E+01	  0.104769535	5.315300E+01	  0.104769535	9.270000E-01
425	  0.104969934	-2.994800E+01	  0.104969934	1.597400E+01	  0.104969934	5.314600E+01	  0.104969934	9.310000E-01
426	  0.105170339	-2.991600E+01	  0.105170339	1.560300E+01	  0.105170339	5.316400E+01	  0.105170339	9.140000E-01
427	  0.105370738	-2.993400E+01	  0.105370738	1.576900E+01	  0.105370738	5.315500E+01	  0.105370738	9.210000E-01
428	  0.105571143	-2.995600E+01	  0.105571143	1.529600E+01	  0.105571143	5.315400E+01	  0.105571143	8.920000E-01
429	  0.105771542	-2.992500E+01	  0.105771542	1.541300E+01	  0.105771542	5.316400E+01	  0.105771542	9.020000E-01
430	  0.105971940	-2.991100E+01	  0.105971940	1.536400E+01	  0.105971940	5.317000E+01	  0.105971940	9.010000E-01
431	  0.106172346	-2.990200E+01	  0.106172346	1.492300E+01	  0.106172346	5.318100E+01	  0.106172346	8.760000E-01
432	  0.106372744	-2.989400E+01	  0.106372744	1.533800E+01	  0.106372744	5.317700E+01	  0.106372744	9.010000E-01
433	  0.106573142	-2.995200E+01	  0.106573142	1.481600E+01	  0.106573142	5.316400E+01	  0.106573142	8.650000E-01
434	  0.106773548	-2.993200E+01	  0.106773548	1.479900E+01	  0.106773548	5.317100E+01	  0.106773548	8.660000E-01
435	  0.106973946	-2.994600E+01	  0.106973946	1.486200E+01	  0.106973946	5.316500E+01	  0.106973946	8.680000E-01
436	  0.107174344	-2.989100E+01	  0.107174344	1.466700E+01	  0.107174344	5.318900E+01	  0.107174344	8.630000E-01
437	  0.107374750	-2.990800E+01	  0.107374750	1.482600E+01	  0.107374750	5.318000E+01	  0.107374750	8.700000E-01
438	  0.107575148	-2.989700E+01	  0.107575148	1.457800E+01	  0.107575148	5.318800E+01	  0.107575148	8.570000E-01
439	  0.107775547	-2.994400E+01	  0.107775547	1.432600E+01	  0.107775547	5.317400E+01	  0.107775547	8.380000E-01
440	  0.107975952	-2.994000E+01	  0.107975952	1.434900E+01	  0.107975952	5.317500E+01	  0.107975952	8.400000E-01
441	  0.108176351	-2.993200E+01	  0.108176351	1.434100E+01	  0.108176351	5.317900E+01	  0.108176351	8.400000E-01
442	  0.108376749	-2.987000E+01	  0.108376749	1.392300E+01	  0.108376749	5.320800E+01	  0.108376749	8.220000E-01
443	  0.108577155	-2.990200E+01	  0.108577155	1.391300E+01	  0.108577155	5.319700E+01	  0.108577155	8.190000E-01
444	  0.108777553	-2.988100E+01	  0.108777553	1.378000E+01	  0.108777553	5.320700E+01	  0.108777553	8.130000E-01
445	  0.108977959	-2.988000E+01	  0.108977959	1.383600E+01	  0.108977959	5.320600E+01	  0.108977959	8.160000E-01
446	  0.109178357	-2.988100E+01	  0.109178357	1.351100E+01	  0.109178357	5.321100E+01	  0.109178357	7.970000E-01
447	  0.109378755	-2.991600E+01	  0.109378755	1.332400E+01	  0.109378755	5.320000E+01	  0.109378755	7.830000E-01
448	  0.109579161	-2.989500E+01	  0.109579161	1.328700E+01	  0.109579161	5.320900E+01	  0.109579161	7.830000E-01
449	  0.109779559	-2.989300E+01	  0.109779559	1.348300E+01	  0.109779559	5.320700E+01	  0.109779559	7.950000E-01
450	  0.109979957	-2.986700E+01	  0.109979957	1.302900E+01	  0.109979957	5.322300E+01	  0.109979957	7.710000E-01
451	  0.110180363	-2.984400E+01	  0.110180363	1.280200E+01	  0.110180363	5.323500E+01	  0.110180363	7.600000E-01
452	  0.110380761	-2.988400E+01	  0.110380761	1.280900E+01	  0.110380761	5.322000E+01	  0.110380761	7.570000E-01
453	  0.110581160	-2.985900E+01	  0.110581160	1.269100E+01	  0.110581160	5.323100E+01	  0.110581160	7.520000E-01
454	  0.110781565	-2.988200E+01	  0.110781565	1.262100E+01	  0.110781565	5.322300E+01	  0.110781565	7.460000E-01
455	  0.110981964	-2.986400E+01	  0.110981964	1.231000E+01	  0.110981964	5.323400E+01	  0.110981964	7.290000E-01
456	  0.111182362	-2.985200E+01	  0.111182362	1.234100E+01	  0.111182362	5.323800E+01	  0.111182362	7.320000E-01
457	  0.111382768	-2.990900E+01	  0.111382768	1.243500E+01	  0.111382768	5.321500E+01	  0.111382768	7.330000E-01
458	  0.111583166	-2.986900E+01	  0.111583166	1.233900E+01	  0.111583166	5.323200E+01	  0.111583166	7.310000E-01
459	  0.111783572	-2.988500E+01	  0.111783572	1.219200E+01	  0.111783572	5.322800E+01	  0.111783572	7.210000E-01
460	  0.111983970	-2.988200E+01	  0.111983970	1.215400E+01	  0.111983970	5.322900E+01	  0.111983970	7.190000E-01
461	  0.112184368	-2.986000E+01	  0.112184368	1.198300E+01	  0.112184368	5.324000E+01	  0.112184368	7.110000E-01
462	  0.112384774	-2.987100E+01	  0.112384774	1.182800E+01	  0.112384774	5.323800E+01	  0.112384774	7.010000E-01
463	  0.112585172	-2.987000E+01	  0.112585172	1.158600E+01	  0.112585172	5.324200E+01	  0.112585172	6.870000E-01
464	  0.112785570	-2.987200E+01	  0.112785570	1.155700E+01	  0.112785570	5.324100E+01	  0.112785570	6.850000E-01
465	  0.112985976	-2.984200E+01	  0.112985976	1.126900E+01	  0.112985976	5.325600E+01	  0.112985976	6.700000E-01
466	  0.113186374	-2.984600E+01	  0.113186374	1.142500E+01	  0.113186374	5.325300E+01	  0.113186374	6.790000E-01
467	  0.113386773	-2.991000E+01	  0.113386773	1.104400E+01	  0.113386773	5.323300E+01	  0.113386773	6.520000E-01
468	  0.113587178	-2.986300E+01	  0.113587178	1.120400E+01	  0.113587178	5.324900E+01	  0.113587178	6.650000E-01
469	  0.113787577	-2.986400E+01	  0.113787577	1.120400E+01	  0.113787577	5.324800E+01	  0.113787577	6.650000E-01
470	  0.113987975	-2.986200E+01	  0.113987975	1.090600E+01	  0.113987975	5.325300E+01	  0.113987975	6.480000E-01
471	  0.114188381	-2.985200E+01	  0.114188381	1.052000E+01	  0.114188381	5.326100E+01	  0.114188381	6.260000E-01
472	  0.114388779	-2.986000E+01	  0.114388779	1.058000E+01	  0.114388779	5.325700E+01	  0.114388779	6.290000E-01
473	  0.114589177	-2.987500E+01	  0.114589177	1.045800E+01	  0.114589177	5.325300E+01	  0.114589177	6.200000E-01
474	  0.114789583	-2.985800E+01	  0.114789583	1.038400E+01	  0.114789583	5.326000E+01	  0.114789583	6.170000E-01
475	  0.114989981	-2.984500E+01	  0.114989981	1.045100E+01	  0.114989981	5.326500E+01	  0.114989981	6.220000E-01
476	  0.115190387	-2.985000E+01	  0.115190387	1.038300E+01	  0.115190387	5.326400E+01	  0.115190387	6.180000E-01
477	  0.115390785	-2.985200E+01	  0.115390785	1.001900E+01	  0.115390785	5.326700E+01	  0.115390785	5.960000E-01
478	  0.115591183	-2.982000E+01	  0.115591183	9.936000E+00	  0.115591183	5.328000E+01	  0.115591183	5.940000E-01
479	  0.115791589	-2.985500E+01	  0.115791589	9.750000E+00	  0.115791589	5.326900E+01	  0.115791589	5.800000E-01
480	  0.115991987	-2.982600E+01	  0.115991987	9.596000E+00	  0.115991987	5.328200E+01	  0.115991987	5.730000E-01
481	  0.116192386	-2.984100E+01	  0.116192386	9.628000E+00	  0.116192386	5.327600E+01	  0.116192386	5.740000E-01
482	  0.116392791	-2.984200E+01	  0.116392791	9.626000E+00	  0.116392791	5.327500E+01	  0.116392791	5.740000E-01
483	  0.116593190	-2.985400E+01	  0.116593190	9.467000E+00	  0.116593190	5.327200E+01	  0.116593190	5.640000E-01
484	  0.116793588	-2.987100E+01	  0.116793588	9.414000E+00	  0.116793588	5.326600E+01	  0.116793588	5.590000E-01
485	  0.116993994	-2.985800E+01	  0.116993994	9.102000E+00	  0.116993994	5.327500E+01	  0.116993994	5.420000E-01
486	  0.117194392	-2.986000E+01	  0.117194392	9.319000E+00	  0.117194392	5.327100E+01	  0.117194392	5.550000E-01
487	  0.117394790	-2.989800E+01	  0.117394790	9.131000E+00	  0.117394790	5.325900E+01	  0.117394790	5.410000E-01
488	  0.117595196	-2.986500E+01	  0.117595196	9.101000E+00	  0.117595196	5.327200E+01	  0.117595196	5.410000E-01
489	  0.117795594	-2.992300E+01	  0.117795594	8.889000E+00	  0.117795594	5.325100E+01	  0.117795594	5.250000E-01
490	  0.117995992	-2.987500E+01	  0.117995992	8.746000E+00	  0.117995992	5.327100E+01	  0.117995992	5.200000E-01
491	  0.118196398	-2.985000E+01	  0.118196398	8.564000E+00	  0.118196398	5.328300E+01	  0.118196398	5.110000E-01
492	  0.118396796	-2.986900E+01	  0.118396796	8.635000E+00	  0.118396796	5.327500E+01	  0.118396796	5.140000E-01
493	  0.118597202	-2.987200E+01	  0.118597202	8.424000E+00	  0.118597202	5.327600E+01	  0.118597202	5.010000E-01
494	  0.118797600	-2.988600E+01	  0.118797600	8.540000E+00	  0.118797600	5.326900E+01	  0.118797600	5.070000E-01
495	  0.118997999	-2.989700E+01	  0.118997999	8.122000E+00	  0.118997999	5.326800E+01	  0.118997999	4.820000E-01
496	  0.119198404	-2.986400E+01	  0.119198404	8.299000E+00	  0.119198404	5.328000E+01	  0.119198404	4.940000E-01
497	  0.119398803	-2.986000E+01	  0.119398803	8.073000E+00	  0.119398803	5.328300E+01	  0.119398803	4.810000E-01
498	  0.119599201	-2.988000E+01	  0.119599201	7.843000E+00	  0.119599201	5.327800E+01	  0.119599201	4.660000E-01
499	  0.119799607	-2.987000E+01	  0.119799607	7.835000E+00	  0.119799607	5.328200E+01	  0.119799607	4.660000E-01
500	  0.120000005	-2.990000E+01	  0.120000005	7.874000E+00	  0.120000005	5.327000E+01	  0.120000005	4.670000E-01
