! Anritsu VNA Master:             	Model: MS2036C/10/77
! SN:             	1601066
! /bd0/18may08.cable.cal/bot.19p46.1.txt
! Existing Calibration Information:
! TYPE:             	Current Settings	Active Cal Settings
! TIME:             	05/08/2018 03:30:11 PM	05/08/2018 03:25:16 PM
! INTERNAL TEMP:    	52.8 C	53.3 C
! # POINTS:         	500	500
! START FREQ:       	20.000 MHz	20.000 MHz
! STOP FREQ:        	120.000 MHz	120.000 MHz
! SOURCE POWER:     	High	High
! IFBW:             	50 Hz	50 Hz
! AVG FACTOR:       	  1 	  1 
! REF PLANE 1:      	0 mm	0 mm
! REF PLANE 2:      	0 mm	0 mm
! CAL TYPE:         	Full S11	Full S11
! CAL METHOD:       	SOLT	SOLT
! CAL LINE TYPE:    	Coax	Coax
! DUT PORT 1:       	K-Conn(F)	K-Conn(F)
! DUT PORT 2:       	K-Conn(F)	K-Conn(F)
! CAL STATUS:       	OK: Accuracy High	--
! PROP-V:       	0.700
! CABLE LOSS:       	0.000 dB/m
! REF IMPEDANCE:       	50.0
! Trace Specific Parameters:	TR1	TR2	TR3	TR4
! TRACE.#.Y (GRAPH TYPE)	LOG MAG	PHASE	REAL IMPEDANCE	IMAGINARY IMPEDANCE
! TRACE.#.X 	FREQ.GHZ	FREQ.GHZ	FREQ.GHZ	FREQ.GHZ
! S-PARAMETER	S11	S11	S11	S11
! SMOOTH/APERTURE %	0	0	0	0
! WINDOW	NSL	NSL	NSL	NSL
! GATING	OFF	OFF	OFF	OFF
! FGTD	OFF	OFF	OFF	OFF
Marker Information per Trace:	TR1	TR2	TR3	TR4
!MK1	--	"MK1 TR2:  20.000 MHz,PH:155.94°"	--	--
!MK2	--	--	"MK2 TR3:  70.100 200 MHz,Z:(30.555 ohm, 33.172 ohm)"	--
!MK3	--	--	--	--
!MK4	--	--	--	--
!MK5	--	--	--	--
!MK6	--	--	--	--
!MK7	--	--	--	--
!MK8	--	--	--	--
PNT	TR1.FREQ.GHZ	TR1.LOG MAG.dB	TR2.FREQ.GHZ	TR2.PHASE.deg	TR3.FREQ.GHZ	TR3.REAL IMPEDANCE.ohm	TR4.FREQ.GHZ	TR4.IMAGINARY IMPEDANCE.ohm
1	  0.020000000	-7.237000E+00	  0.020000000	1.559430E+02	  0.020000000	2.045400E+01	  0.020000000	8.935000E+00
2	  0.020200402	-7.237000E+00	  0.020200402	1.557340E+02	  0.020200402	2.046700E+01	  0.020200402	9.015000E+00
3	  0.020400802	-7.235000E+00	  0.020400802	1.554870E+02	  0.020400802	2.047700E+01	  0.020400802	9.109000E+00
4	  0.020601204	-7.236000E+00	  0.020601204	1.552490E+02	  0.020601204	2.049600E+01	  0.020601204	9.198000E+00
5	  0.020801604	-7.237000E+00	  0.020801604	1.550240E+02	  0.020801604	2.051500E+01	  0.020801604	9.282000E+00
6	  0.021002004	-7.237000E+00	  0.021002004	1.547830E+02	  0.021002004	2.052900E+01	  0.021002004	9.374000E+00
7	  0.021202406	-7.239000E+00	  0.021202406	1.545430E+02	  0.021202406	2.055100E+01	  0.021202406	9.464000E+00
8	  0.021402806	-7.236000E+00	  0.021402806	1.543160E+02	  0.021402806	2.056000E+01	  0.021402806	9.551000E+00
9	  0.021603208	-7.238000E+00	  0.021603208	1.540780E+02	  0.021603208	2.058000E+01	  0.021603208	9.640000E+00
10	  0.021803608	-7.239000E+00	  0.021803608	1.538310E+02	  0.021803608	2.060100E+01	  0.021803608	9.733000E+00
11	  0.022004008	-7.239000E+00	  0.022004008	1.536160E+02	  0.022004008	2.061500E+01	  0.022004008	9.815000E+00
12	  0.022204408	-7.240000E+00	  0.022204408	1.533670E+02	  0.022204408	2.063600E+01	  0.022204408	9.908000E+00
13	  0.022404809	-7.243000E+00	  0.022404809	1.531410E+02	  0.022404809	2.065800E+01	  0.022404809	9.993000E+00
14	  0.022605211	-7.239000E+00	  0.022605211	1.528890E+02	  0.022605211	2.066700E+01	  0.022605211	1.009000E+01
15	  0.022805611	-7.239000E+00	  0.022805611	1.526500E+02	  0.022805611	2.068500E+01	  0.022805611	1.018100E+01
16	  0.023006011	-7.240000E+00	  0.023006011	1.524190E+02	  0.023006011	2.070500E+01	  0.023006011	1.026800E+01
17	  0.023206413	-7.242000E+00	  0.023206413	1.521790E+02	  0.023206413	2.072800E+01	  0.023206413	1.035800E+01
18	  0.023406813	-7.243000E+00	  0.023406813	1.519440E+02	  0.023406813	2.074700E+01	  0.023406813	1.044700E+01
19	  0.023607215	-7.244000E+00	  0.023607215	1.517090E+02	  0.023607215	2.076900E+01	  0.023607215	1.053600E+01
20	  0.023807615	-7.243000E+00	  0.023807615	1.514800E+02	  0.023807615	2.078400E+01	  0.023807615	1.062400E+01
21	  0.024008015	-7.244000E+00	  0.024008015	1.512320E+02	  0.024008015	2.080400E+01	  0.024008015	1.071800E+01
22	  0.024208417	-7.245000E+00	  0.024208417	1.510030E+02	  0.024208417	2.082600E+01	  0.024208417	1.080400E+01
23	  0.024408817	-7.244000E+00	  0.024408817	1.507770E+02	  0.024408817	2.084000E+01	  0.024408817	1.089100E+01
24	  0.024609219	-7.244000E+00	  0.024609219	1.505370E+02	  0.024609219	2.085900E+01	  0.024609219	1.098300E+01
25	  0.024809619	-7.246000E+00	  0.024809619	1.502850E+02	  0.024809619	2.088500E+01	  0.024809619	1.107800E+01
26	  0.025010020	-7.246000E+00	  0.025010020	1.500550E+02	  0.025010020	2.090300E+01	  0.025010020	1.116600E+01
27	  0.025210422	-7.246000E+00	  0.025210422	1.498180E+02	  0.025210422	2.092300E+01	  0.025210422	1.125600E+01
28	  0.025410822	-7.245000E+00	  0.025410822	1.495690E+02	  0.025410822	2.094000E+01	  0.025410822	1.135200E+01
29	  0.025611224	-7.248000E+00	  0.025611224	1.493510E+02	  0.025611224	2.096700E+01	  0.025611224	1.143300E+01
30	  0.025811624	-7.246000E+00	  0.025811624	1.491220E+02	  0.025811624	2.098100E+01	  0.025811624	1.152200E+01
31	  0.026012026	-7.248000E+00	  0.026012026	1.488800E+02	  0.026012026	2.100600E+01	  0.026012026	1.161400E+01
32	  0.026212426	-7.248000E+00	  0.026212426	1.486420E+02	  0.026212426	2.102700E+01	  0.026212426	1.170500E+01
33	  0.026412826	-7.248000E+00	  0.026412826	1.484040E+02	  0.026412826	2.104600E+01	  0.026412826	1.179600E+01
34	  0.026613226	-7.247000E+00	  0.026613226	1.481630E+02	  0.026613226	2.106500E+01	  0.026613226	1.188900E+01
35	  0.026813626	-7.246000E+00	  0.026813626	1.479290E+02	  0.026813626	2.108300E+01	  0.026813626	1.197900E+01
36	  0.027014028	-7.246000E+00	  0.027014028	1.477010E+02	  0.027014028	2.110400E+01	  0.027014028	1.206700E+01
37	  0.027214428	-7.247000E+00	  0.027214428	1.474680E+02	  0.027214428	2.112800E+01	  0.027214428	1.215600E+01
38	  0.027414829	-7.247000E+00	  0.027414829	1.472240E+02	  0.027414829	2.115100E+01	  0.027414829	1.224900E+01
39	  0.027615231	-7.246000E+00	  0.027615231	1.469940E+02	  0.027615231	2.116700E+01	  0.027615231	1.233900E+01
40	  0.027815631	-7.247000E+00	  0.027815631	1.467640E+02	  0.027815631	2.119100E+01	  0.027815631	1.242700E+01
41	  0.028016033	-7.247000E+00	  0.028016033	1.465270E+02	  0.028016033	2.121300E+01	  0.028016033	1.251800E+01
42	  0.028216433	-7.246000E+00	  0.028216433	1.462930E+02	  0.028216433	2.123300E+01	  0.028216433	1.260800E+01
43	  0.028416833	-7.248000E+00	  0.028416833	1.460550E+02	  0.028416833	2.126000E+01	  0.028416833	1.269900E+01
44	  0.028617235	-7.245000E+00	  0.028617235	1.458250E+02	  0.028617235	2.127300E+01	  0.028617235	1.279000E+01
45	  0.028817635	-7.246000E+00	  0.028817635	1.455900E+02	  0.028817635	2.129800E+01	  0.028817635	1.288000E+01
46	  0.029018037	-7.245000E+00	  0.029018037	1.453560E+02	  0.029018037	2.132000E+01	  0.029018037	1.297000E+01
47	  0.029218437	-7.245000E+00	  0.029218437	1.451210E+02	  0.029218437	2.134100E+01	  0.029218437	1.306200E+01
48	  0.029418837	-7.244000E+00	  0.029418837	1.448960E+02	  0.029418837	2.136100E+01	  0.029418837	1.314900E+01
49	  0.029619239	-7.242000E+00	  0.029619239	1.446610E+02	  0.029619239	2.137800E+01	  0.029619239	1.324200E+01
50	  0.029819639	-7.242000E+00	  0.029819639	1.444330E+02	  0.029819639	2.140200E+01	  0.029819639	1.333000E+01
51	  0.030020041	-7.243000E+00	  0.030020041	1.441920E+02	  0.030020041	2.142800E+01	  0.030020041	1.342200E+01
52	  0.030220442	-7.243000E+00	  0.030220442	1.439450E+02	  0.030220442	2.145200E+01	  0.030220442	1.351900E+01
53	  0.030420844	-7.244000E+00	  0.030420844	1.436980E+02	  0.030420844	2.148000E+01	  0.030420844	1.361400E+01
54	  0.030621244	-7.241000E+00	  0.030621244	1.434640E+02	  0.030621244	2.149800E+01	  0.030621244	1.370600E+01
55	  0.030821644	-7.241000E+00	  0.030821644	1.432220E+02	  0.030821644	2.152300E+01	  0.030821644	1.380000E+01
56	  0.031022044	-7.240000E+00	  0.031022044	1.429820E+02	  0.031022044	2.154500E+01	  0.031022044	1.389400E+01
57	  0.031222444	-7.219000E+00	  0.031222444	1.428520E+02	  0.031222444	2.150500E+01	  0.031222444	1.395900E+01
58	  0.031422846	-7.216000E+00	  0.031422846	1.426190E+02	  0.031422846	2.152200E+01	  0.031422846	1.405200E+01
59	  0.031623244	-7.220000E+00	  0.031623244	1.423640E+02	  0.031623244	2.155900E+01	  0.031623244	1.414900E+01
60	  0.031823646	-7.224000E+00	  0.031823646	1.421270E+02	  0.031823646	2.159300E+01	  0.031823646	1.423900E+01
61	  0.032024048	-7.223000E+00	  0.032024048	1.418930E+02	  0.032024048	2.161600E+01	  0.032024048	1.433100E+01
62	  0.032224450	-7.221000E+00	  0.032224450	1.416470E+02	  0.032224450	2.163900E+01	  0.032224450	1.442800E+01
63	  0.032424849	-7.220000E+00	  0.032424849	1.414250E+02	  0.032424849	2.166000E+01	  0.032424849	1.451600E+01
64	  0.032625251	-7.221000E+00	  0.032625251	1.411660E+02	  0.032625251	2.169000E+01	  0.032625251	1.461700E+01
65	  0.032825653	-7.223000E+00	  0.032825653	1.409440E+02	  0.032825653	2.172000E+01	  0.032825653	1.470200E+01
66	  0.033026051	-7.224000E+00	  0.033026051	1.406980E+02	  0.033026051	2.175200E+01	  0.033026051	1.479700E+01
67	  0.033226453	-7.223000E+00	  0.033226453	1.404540E+02	  0.033226453	2.177600E+01	  0.033226453	1.489400E+01
68	  0.033426855	-7.224000E+00	  0.033426855	1.402040E+02	  0.033426855	2.180800E+01	  0.033426855	1.499100E+01
69	  0.033627257	-7.223000E+00	  0.033627257	1.399600E+02	  0.033627257	2.183300E+01	  0.033627257	1.508800E+01
70	  0.033827655	-7.225000E+00	  0.033827655	1.397260E+02	  0.033827655	2.186500E+01	  0.033827655	1.517800E+01
71	  0.034028057	-7.225000E+00	  0.034028057	1.394870E+02	  0.034028057	2.189300E+01	  0.034028057	1.527200E+01
72	  0.034228459	-7.225000E+00	  0.034228459	1.392430E+02	  0.034228459	2.192100E+01	  0.034228459	1.536900E+01
73	  0.034428857	-7.227000E+00	  0.034428857	1.390100E+02	  0.034428857	2.195300E+01	  0.034428857	1.545900E+01
74	  0.034629259	-7.226000E+00	  0.034629259	1.387600E+02	  0.034629259	2.198000E+01	  0.034629259	1.555800E+01
75	  0.034829661	-7.226000E+00	  0.034829661	1.385300E+02	  0.034829661	2.200800E+01	  0.034829661	1.564900E+01
76	  0.035030060	-7.227000E+00	  0.035030060	1.382990E+02	  0.035030060	2.203800E+01	  0.035030060	1.573900E+01
77	  0.035230462	-7.226000E+00	  0.035230462	1.380500E+02	  0.035230462	2.206700E+01	  0.035230462	1.583800E+01
78	  0.035430863	-7.226000E+00	  0.035430863	1.378170E+02	  0.035430863	2.209600E+01	  0.035430863	1.593000E+01
79	  0.035631265	-7.228000E+00	  0.035631265	1.375640E+02	  0.035631265	2.213200E+01	  0.035631265	1.602900E+01
80	  0.035831664	-7.228000E+00	  0.035831664	1.373520E+02	  0.035831664	2.215800E+01	  0.035831664	1.611300E+01
81	  0.036032066	-7.227000E+00	  0.036032066	1.371110E+02	  0.036032066	2.218500E+01	  0.036032066	1.620900E+01
82	  0.036232468	-7.230000E+00	  0.036232468	1.368720E+02	  0.036232468	2.222200E+01	  0.036232468	1.630100E+01
83	  0.036432866	-7.227000E+00	  0.036432866	1.366420E+02	  0.036432866	2.224500E+01	  0.036432866	1.639500E+01
84	  0.036633268	-7.228000E+00	  0.036633268	1.364080E+02	  0.036633268	2.227800E+01	  0.036633268	1.648700E+01
85	  0.036833670	-7.228000E+00	  0.036833670	1.361760E+02	  0.036833670	2.230700E+01	  0.036833670	1.657900E+01
86	  0.037034072	-7.227000E+00	  0.037034072	1.359390E+02	  0.037034072	2.233500E+01	  0.037034072	1.667400E+01
87	  0.037234470	-7.229000E+00	  0.037234470	1.357050E+02	  0.037234470	2.237200E+01	  0.037234470	1.676500E+01
88	  0.037434869	-7.229000E+00	  0.037434869	1.354700E+02	  0.037434869	2.240200E+01	  0.037434869	1.685900E+01
89	  0.037635271	-7.227000E+00	  0.037635271	1.352240E+02	  0.037635271	2.242800E+01	  0.037635271	1.695900E+01
90	  0.037835669	-7.228000E+00	  0.037835669	1.349890E+02	  0.037835669	2.246200E+01	  0.037835669	1.705200E+01
91	  0.038036071	-7.229000E+00	  0.038036071	1.347490E+02	  0.038036071	2.249900E+01	  0.038036071	1.714600E+01
92	  0.038236473	-7.227000E+00	  0.038236473	1.345150E+02	  0.038236473	2.252400E+01	  0.038236473	1.724200E+01
93	  0.038436871	-7.227000E+00	  0.038436871	1.342940E+02	  0.038436871	2.255400E+01	  0.038436871	1.733000E+01
94	  0.038637273	-7.227000E+00	  0.038637273	1.340740E+02	  0.038637273	2.258400E+01	  0.038637273	1.741800E+01
95	  0.038837675	-7.226000E+00	  0.038837675	1.338360E+02	  0.038837675	2.261500E+01	  0.038837675	1.751400E+01
96	  0.039038073	-7.225000E+00	  0.039038073	1.335980E+02	  0.039038073	2.264500E+01	  0.039038073	1.761100E+01
97	  0.039238475	-7.226000E+00	  0.039238475	1.333700E+02	  0.039238475	2.267900E+01	  0.039238475	1.770100E+01
98	  0.039438877	-7.226000E+00	  0.039438877	1.331260E+02	  0.039438877	2.271500E+01	  0.039438877	1.779900E+01
99	  0.039639279	-7.227000E+00	  0.039639279	1.328850E+02	  0.039639279	2.275000E+01	  0.039639279	1.789500E+01
100	  0.039839678	-7.227000E+00	  0.039839678	1.326660E+02	  0.039839678	2.278100E+01	  0.039839678	1.798400E+01
101	  0.040040080	-7.226000E+00	  0.040040080	1.324530E+02	  0.040040080	2.280800E+01	  0.040040080	1.807000E+01
102	  0.040240481	-7.224000E+00	  0.040240481	1.322010E+02	  0.040240481	2.284200E+01	  0.040240481	1.817300E+01
103	  0.040440880	-7.225000E+00	  0.040440880	1.319640E+02	  0.040440880	2.287700E+01	  0.040440880	1.826800E+01
104	  0.040641282	-7.226000E+00	  0.040641282	1.317350E+02	  0.040641282	2.291300E+01	  0.040641282	1.836000E+01
105	  0.040841684	-7.225000E+00	  0.040841684	1.314980E+02	  0.040841684	2.294700E+01	  0.040841684	1.845600E+01
106	  0.041042086	-7.224000E+00	  0.041042086	1.312740E+02	  0.041042086	2.297600E+01	  0.041042086	1.854800E+01
107	  0.041242484	-7.224000E+00	  0.041242484	1.310300E+02	  0.041242484	2.301300E+01	  0.041242484	1.864600E+01
108	  0.041442886	-7.224000E+00	  0.041442886	1.308030E+02	  0.041442886	2.304800E+01	  0.041442886	1.873800E+01
109	  0.041643288	-7.222000E+00	  0.041643288	1.305610E+02	  0.041643288	2.307900E+01	  0.041643288	1.883800E+01
110	  0.041843686	-7.222000E+00	  0.041843686	1.303440E+02	  0.041843686	2.311200E+01	  0.041843686	1.892600E+01
111	  0.042044088	-7.222000E+00	  0.042044088	1.300970E+02	  0.042044088	2.314900E+01	  0.042044088	1.902700E+01
112	  0.042244490	-7.222000E+00	  0.042244490	1.298700E+02	  0.042244490	2.318500E+01	  0.042244490	1.911900E+01
113	  0.042444889	-7.223000E+00	  0.042444889	1.296510E+02	  0.042444889	2.322100E+01	  0.042444889	1.920600E+01
114	  0.042645290	-7.221000E+00	  0.042645290	1.294010E+02	  0.042645290	2.325600E+01	  0.042645290	1.931000E+01
115	  0.042845692	-7.221000E+00	  0.042845692	1.291850E+02	  0.042845692	2.329000E+01	  0.042845692	1.939800E+01
116	  0.043046094	-7.222000E+00	  0.043046094	1.289390E+02	  0.043046094	2.332900E+01	  0.043046094	1.949800E+01
117	  0.043246493	-7.220000E+00	  0.043246493	1.287230E+02	  0.043246493	2.335900E+01	  0.043246493	1.958800E+01
118	  0.043446895	-7.221000E+00	  0.043446895	1.284700E+02	  0.043446895	2.340100E+01	  0.043446895	1.969000E+01
119	  0.043647297	-7.219000E+00	  0.043647297	1.282500E+02	  0.043647297	2.343400E+01	  0.043647297	1.978200E+01
120	  0.043847695	-7.219000E+00	  0.043847695	1.280110E+02	  0.043847695	2.347100E+01	  0.043847695	1.988000E+01
121	  0.044048097	-7.218000E+00	  0.044048097	1.277780E+02	  0.044048097	2.350600E+01	  0.044048097	1.997600E+01
122	  0.044248499	-7.219000E+00	  0.044248499	1.275380E+02	  0.044248499	2.354900E+01	  0.044248499	2.007300E+01
123	  0.044448901	-7.216000E+00	  0.044448901	1.273030E+02	  0.044448901	2.358100E+01	  0.044448901	2.017300E+01
124	  0.044649299	-7.217000E+00	  0.044649299	1.270740E+02	  0.044649299	2.362000E+01	  0.044649299	2.026600E+01
125	  0.044849701	-7.219000E+00	  0.044849701	1.268200E+02	  0.044849701	2.366800E+01	  0.044849701	2.036800E+01
126	  0.045050103	-7.216000E+00	  0.045050103	1.266020E+02	  0.045050103	2.369700E+01	  0.045050103	2.046100E+01
127	  0.045250501	-7.217000E+00	  0.045250501	1.263680E+02	  0.045250501	2.373900E+01	  0.045250501	2.055600E+01
128	  0.045450903	-7.216000E+00	  0.045450903	1.261320E+02	  0.045450903	2.377800E+01	  0.045450903	2.065400E+01
129	  0.045651305	-7.216000E+00	  0.045651305	1.258820E+02	  0.045651305	2.382000E+01	  0.045651305	2.075700E+01
130	  0.045851704	-7.215000E+00	  0.045851704	1.256570E+02	  0.045851704	2.385700E+01	  0.045851704	2.085100E+01
131	  0.046052106	-7.215000E+00	  0.046052106	1.254150E+02	  0.046052106	2.389800E+01	  0.046052106	2.095200E+01
132	  0.046252504	-7.216000E+00	  0.046252504	1.251960E+02	  0.046252504	2.394000E+01	  0.046252504	2.104100E+01
133	  0.046452906	-7.214000E+00	  0.046452906	1.249610E+02	  0.046452906	2.397700E+01	  0.046452906	2.114000E+01
134	  0.046653304	-7.214000E+00	  0.046653304	1.247250E+02	  0.046653304	2.401700E+01	  0.046653304	2.123800E+01
135	  0.046853706	-7.214000E+00	  0.046853706	1.244920E+02	  0.046853706	2.405900E+01	  0.046853706	2.133500E+01
136	  0.047054108	-7.210000E+00	  0.047054108	1.242510E+02	  0.047054108	2.409200E+01	  0.047054108	2.143900E+01
137	  0.047254506	-7.211000E+00	  0.047254506	1.240080E+02	  0.047254506	2.413700E+01	  0.047254506	2.154000E+01
138	  0.047454908	-7.209000E+00	  0.047454908	1.237690E+02	  0.047454908	2.417700E+01	  0.047454908	2.164100E+01
139	  0.047655310	-7.211000E+00	  0.047655310	1.235370E+02	  0.047655310	2.422300E+01	  0.047655310	2.173600E+01
140	  0.047855709	-7.209000E+00	  0.047855709	1.232940E+02	  0.047855709	2.426300E+01	  0.047855709	2.183900E+01
141	  0.048056111	-7.207000E+00	  0.048056111	1.230690E+02	  0.048056111	2.429900E+01	  0.048056111	2.193600E+01
142	  0.048256513	-7.207000E+00	  0.048256513	1.228260E+02	  0.048256513	2.434500E+01	  0.048256513	2.203700E+01
143	  0.048456915	-7.205000E+00	  0.048456915	1.226060E+02	  0.048456915	2.438300E+01	  0.048456915	2.213100E+01
144	  0.048657313	-7.204000E+00	  0.048657313	1.223580E+02	  0.048657313	2.442600E+01	  0.048657313	2.223600E+01
145	  0.048857715	-7.205000E+00	  0.048857715	1.221280E+02	  0.048857715	2.447300E+01	  0.048857715	2.233100E+01
146	  0.049058117	-7.205000E+00	  0.049058117	1.218990E+02	  0.049058117	2.451400E+01	  0.049058117	2.242800E+01
147	  0.049258515	-7.202000E+00	  0.049258515	1.216540E+02	  0.049258515	2.455400E+01	  0.049258515	2.253400E+01
148	  0.049458917	-7.203000E+00	  0.049458917	1.214310E+02	  0.049458917	2.460000E+01	  0.049458917	2.262700E+01
149	  0.049659319	-7.201000E+00	  0.049659319	1.212100E+02	  0.049659319	2.463900E+01	  0.049659319	2.272100E+01
150	  0.049859721	-7.202000E+00	  0.049859721	1.209650E+02	  0.049859721	2.468800E+01	  0.049859721	2.282300E+01
151	  0.050060119	-7.200000E+00	  0.050060119	1.207360E+02	  0.050060119	2.472800E+01	  0.050060119	2.292300E+01
152	  0.050260521	-7.197000E+00	  0.050260521	1.205010E+02	  0.050260521	2.476800E+01	  0.050260521	2.302500E+01
153	  0.050460923	-7.196000E+00	  0.050460923	1.202780E+02	  0.050460923	2.480900E+01	  0.050460923	2.312000E+01
154	  0.050661322	-7.196000E+00	  0.050661322	1.200360E+02	  0.050661322	2.485700E+01	  0.050661322	2.322300E+01
155	  0.050861724	-7.199000E+00	  0.050861724	1.197960E+02	  0.050861724	2.491300E+01	  0.050861724	2.332100E+01
156	  0.051062126	-7.200000E+00	  0.051062126	1.195800E+02	  0.051062126	2.496100E+01	  0.051062126	2.341000E+01
157	  0.051262524	-7.197000E+00	  0.051262524	1.193210E+02	  0.051262524	2.500500E+01	  0.051262524	2.352400E+01
158	  0.051462926	-7.196000E+00	  0.051462926	1.191040E+02	  0.051462926	2.504800E+01	  0.051462926	2.361700E+01
159	  0.051663328	-7.198000E+00	  0.051663328	1.188800E+02	  0.051663328	2.509800E+01	  0.051663328	2.371000E+01
160	  0.051863730	-7.194000E+00	  0.051863730	1.186420E+02	  0.051863730	2.513900E+01	  0.051863730	2.381600E+01
161	  0.052064128	-7.194000E+00	  0.052064128	1.184010E+02	  0.052064128	2.518900E+01	  0.052064128	2.391900E+01
162	  0.052264530	-7.194000E+00	  0.052264530	1.181760E+02	  0.052264530	2.523600E+01	  0.052264530	2.401400E+01
163	  0.052464932	-7.191000E+00	  0.052464932	1.179360E+02	  0.052464932	2.527700E+01	  0.052464932	2.412200E+01
164	  0.052665330	-7.190000E+00	  0.052665330	1.176950E+02	  0.052665330	2.532800E+01	  0.052665330	2.422500E+01
165	  0.052865732	-7.189000E+00	  0.052865732	1.174650E+02	  0.052865732	2.537500E+01	  0.052865732	2.432400E+01
166	  0.053066134	-7.190000E+00	  0.053066134	1.172430E+02	  0.053066134	2.542400E+01	  0.053066134	2.441800E+01
167	  0.053266536	-7.190000E+00	  0.053266536	1.170050E+02	  0.053266536	2.547600E+01	  0.053266536	2.452000E+01
168	  0.053466935	-7.188000E+00	  0.053466935	1.167990E+02	  0.053466935	2.551600E+01	  0.053466935	2.461100E+01
169	  0.053667337	-7.189000E+00	  0.053667337	1.165670E+02	  0.053667337	2.557100E+01	  0.053667337	2.470900E+01
170	  0.053867739	-7.186000E+00	  0.053867739	1.163360E+02	  0.053867739	2.561100E+01	  0.053867739	2.481300E+01
171	  0.054068137	-7.187000E+00	  0.054068137	1.161190E+02	  0.054068137	2.566300E+01	  0.054068137	2.490400E+01
172	  0.054268539	-7.186000E+00	  0.054268539	1.158880E+02	  0.054268539	2.571300E+01	  0.054268539	2.500500E+01
173	  0.054468941	-7.186000E+00	  0.054468941	1.156460E+02	  0.054468941	2.576600E+01	  0.054468941	2.511000E+01
174	  0.054669339	-7.185000E+00	  0.054669339	1.154320E+02	  0.054669339	2.581100E+01	  0.054669339	2.520300E+01
175	  0.054869737	-7.182000E+00	  0.054869737	1.152050E+02	  0.054869737	2.585400E+01	  0.054869737	2.530600E+01
176	  0.055070139	-7.182000E+00	  0.055070139	1.149690E+02	  0.055070139	2.591000E+01	  0.055070139	2.540700E+01
177	  0.055270538	-7.181000E+00	  0.055270538	1.147360E+02	  0.055270538	2.595800E+01	  0.055270538	2.551000E+01
178	  0.055470940	-7.181000E+00	  0.055470940	1.145130E+02	  0.055470940	2.601100E+01	  0.055470940	2.560600E+01
179	  0.055671342	-7.180000E+00	  0.055671342	1.142860E+02	  0.055671342	2.606300E+01	  0.055671342	2.570500E+01
180	  0.055871744	-7.180000E+00	  0.055871744	1.140530E+02	  0.055871744	2.611600E+01	  0.055871744	2.580700E+01
181	  0.056072142	-7.178000E+00	  0.056072142	1.138170E+02	  0.056072142	2.616700E+01	  0.056072142	2.591200E+01
182	  0.056272544	-7.179000E+00	  0.056272544	1.136000E+02	  0.056272544	2.622000E+01	  0.056272544	2.600500E+01
183	  0.056472946	-7.177000E+00	  0.056472946	1.133480E+02	  0.056472946	2.627500E+01	  0.056472946	2.611800E+01
184	  0.056673344	-7.175000E+00	  0.056673344	1.131370E+02	  0.056673344	2.631900E+01	  0.056673344	2.621300E+01
185	  0.056873746	-7.175000E+00	  0.056873746	1.129120E+02	  0.056873746	2.637500E+01	  0.056873746	2.631100E+01
186	  0.057074148	-7.175000E+00	  0.057074148	1.126710E+02	  0.057074148	2.643300E+01	  0.057074148	2.641500E+01
187	  0.057274550	-7.171000E+00	  0.057274550	1.124390E+02	  0.057274550	2.647800E+01	  0.057274550	2.652400E+01
188	  0.057474948	-7.174000E+00	  0.057474948	1.122170E+02	  0.057474948	2.654000E+01	  0.057474948	2.661600E+01
189	  0.057675350	-7.175000E+00	  0.057675350	1.119690E+02	  0.057675350	2.660500E+01	  0.057675350	2.672300E+01
190	  0.057875752	-7.171000E+00	  0.057875752	1.117610E+02	  0.057875752	2.664600E+01	  0.057875752	2.682000E+01
191	  0.058076151	-7.171000E+00	  0.058076151	1.115300E+02	  0.058076151	2.670300E+01	  0.058076151	2.692100E+01
192	  0.058276553	-7.173000E+00	  0.058276553	1.112910E+02	  0.058276553	2.677000E+01	  0.058276553	2.702300E+01
193	  0.058476955	-7.169000E+00	  0.058476955	1.110760E+02	  0.058476955	2.681200E+01	  0.058476955	2.712400E+01
194	  0.058677353	-7.172000E+00	  0.058677353	1.108490E+02	  0.058677353	2.687800E+01	  0.058677353	2.721900E+01
195	  0.058877755	-7.170000E+00	  0.058877755	1.106240E+02	  0.058877755	2.693100E+01	  0.058877755	2.732100E+01
196	  0.059078157	-7.170000E+00	  0.059078157	1.103990E+02	  0.059078157	2.698800E+01	  0.059078157	2.742000E+01
197	  0.059278559	-7.169000E+00	  0.059278559	1.101740E+02	  0.059278559	2.704500E+01	  0.059278559	2.752000E+01
198	  0.059478957	-7.171000E+00	  0.059478957	1.099480E+02	  0.059478957	2.711000E+01	  0.059478957	2.761600E+01
199	  0.059679359	-7.171000E+00	  0.059679359	1.097150E+02	  0.059679359	2.717000E+01	  0.059679359	2.771900E+01
200	  0.059879761	-7.168000E+00	  0.059879761	1.094990E+02	  0.059879761	2.721800E+01	  0.059879761	2.782000E+01
201	  0.060080159	-7.167000E+00	  0.060080159	1.092440E+02	  0.060080159	2.728200E+01	  0.060080159	2.793500E+01
202	  0.060280561	-7.169000E+00	  0.060280561	1.090150E+02	  0.060280561	2.735100E+01	  0.060280561	2.803200E+01
203	  0.060480963	-7.165000E+00	  0.060480963	1.088010E+02	  0.060480963	2.739600E+01	  0.060480963	2.813500E+01
204	  0.060681365	-7.165000E+00	  0.060681365	1.085510E+02	  0.060681365	2.746200E+01	  0.060681365	2.824600E+01
205	  0.060881764	-7.166000E+00	  0.060881764	1.083350E+02	  0.060881764	2.752500E+01	  0.060881764	2.833900E+01
206	  0.061082166	-7.166000E+00	  0.061082166	1.080870E+02	  0.061082166	2.759300E+01	  0.061082166	2.845000E+01
207	  0.061282568	-7.162000E+00	  0.061282568	1.078750E+02	  0.061282568	2.763800E+01	  0.061282568	2.855200E+01
208	  0.061482966	-7.159000E+00	  0.061482966	1.076430E+02	  0.061482966	2.769400E+01	  0.061482966	2.866100E+01
209	  0.061683368	-7.156000E+00	  0.061683368	1.073940E+02	  0.061683368	2.775500E+01	  0.061683368	2.877700E+01
210	  0.061883770	-7.156000E+00	  0.061883770	1.071740E+02	  0.061883770	2.781700E+01	  0.061883770	2.887500E+01
211	  0.062084168	-7.157000E+00	  0.062084168	1.069460E+02	  0.062084168	2.788200E+01	  0.062084168	2.897600E+01
212	  0.062284570	-7.153000E+00	  0.062284570	1.067110E+02	  0.062284570	2.793900E+01	  0.062284570	2.908700E+01
213	  0.062484972	-7.137000E+00	  0.062484972	1.066190E+02	  0.062484972	2.791600E+01	  0.062484972	2.915900E+01
214	  0.062685370	-7.135000E+00	  0.062685370	1.064000E+02	  0.062685370	2.797200E+01	  0.062685370	2.926200E+01
215	  0.062885776	-7.131000E+00	  0.062885776	1.061630E+02	  0.062885776	2.802900E+01	  0.062885776	2.937500E+01
216	  0.063086174	-7.138000E+00	  0.063086174	1.059260E+02	  0.063086174	2.811700E+01	  0.063086174	2.946900E+01
217	  0.063286573	-7.132000E+00	  0.063286573	1.057310E+02	  0.063286573	2.815700E+01	  0.063286573	2.956800E+01
218	  0.063486971	-7.132000E+00	  0.063486971	1.054820E+02	  0.063486971	2.823000E+01	  0.063486971	2.968000E+01
219	  0.063687377	-7.133000E+00	  0.063687377	1.052590E+02	  0.063687377	2.829600E+01	  0.063687377	2.978000E+01
220	  0.063887775	-7.133000E+00	  0.063887775	1.050510E+02	  0.063887775	2.836000E+01	  0.063887775	2.987200E+01
221	  0.064088173	-7.131000E+00	  0.064088173	1.047980E+02	  0.064088173	2.842900E+01	  0.064088173	2.999000E+01
222	  0.064288579	-7.132000E+00	  0.064288579	1.045800E+02	  0.064288579	2.849600E+01	  0.064288579	3.008800E+01
223	  0.064488977	-7.132000E+00	  0.064488977	1.043740E+02	  0.064488977	2.855800E+01	  0.064488977	3.018100E+01
224	  0.064689375	-7.129000E+00	  0.064689375	1.041200E+02	  0.064689375	2.862500E+01	  0.064689375	3.030200E+01
225	  0.064889781	-7.130000E+00	  0.064889781	1.038920E+02	  0.064889781	2.869900E+01	  0.064889781	3.040300E+01
226	  0.065090179	-7.129000E+00	  0.065090179	1.036750E+02	  0.065090179	2.876200E+01	  0.065090179	3.050300E+01
227	  0.065290578	-7.125000E+00	  0.065290578	1.034360E+02	  0.065290578	2.882300E+01	  0.065290578	3.062100E+01
228	  0.065490983	-7.122000E+00	  0.065490983	1.032180E+02	  0.065490983	2.888200E+01	  0.065490983	3.072500E+01
229	  0.065691382	-7.127000E+00	  0.065691382	1.029750E+02	  0.065691382	2.897000E+01	  0.065691382	3.082800E+01
230	  0.065891780	-7.125000E+00	  0.065891780	1.027530E+02	  0.065891780	2.903300E+01	  0.065891780	3.093300E+01
231	  0.066092186	-7.121000E+00	  0.066092186	1.025270E+02	  0.066092186	2.909400E+01	  0.066092186	3.104300E+01
232	  0.066292584	-7.125000E+00	  0.066292584	1.023070E+02	  0.066292584	2.917600E+01	  0.066292584	3.113500E+01
233	  0.066492982	-7.121000E+00	  0.066492982	1.020770E+02	  0.066492982	2.923800E+01	  0.066492982	3.124900E+01
234	  0.066693388	-7.116000E+00	  0.066693388	1.018430E+02	  0.066693388	2.929700E+01	  0.066693388	3.136700E+01
235	  0.066893786	-7.118000E+00	  0.066893786	1.016320E+02	  0.066893786	2.937000E+01	  0.066893786	3.146000E+01
236	  0.067094192	-7.115000E+00	  0.067094192	1.013770E+02	  0.067094192	2.944300E+01	  0.067094192	3.158300E+01
237	  0.067294590	-7.116000E+00	  0.067294590	1.011470E+02	  0.067294590	2.952100E+01	  0.067294590	3.168700E+01
238	  0.067494988	-7.116000E+00	  0.067494988	1.009430E+02	  0.067494988	2.958900E+01	  0.067494988	3.178000E+01
239	  0.067695394	-7.116000E+00	  0.067695394	1.006980E+02	  0.067695394	2.967000E+01	  0.067695394	3.189300E+01
240	  0.067895792	-7.113000E+00	  0.067895792	1.004810E+02	  0.067895792	2.973200E+01	  0.067895792	3.200000E+01
241	  0.068096191	-7.111000E+00	  0.068096191	1.002250E+02	  0.068096191	2.981100E+01	  0.068096191	3.212100E+01
242	  0.068296596	-7.111000E+00	  0.068296596	1.000090E+02	  0.068296596	2.988300E+01	  0.068296596	3.222200E+01
243	  0.068496995	-7.109000E+00	  0.068496995	9.979500E+01	  0.068496995	2.994900E+01	  0.068496995	3.232500E+01
244	  0.068697393	-7.107000E+00	  0.068697393	9.953900E+01	  0.068697393	3.003100E+01	  0.068697393	3.244700E+01
245	  0.068897791	-7.109000E+00	  0.068897791	9.934300E+01	  0.068897791	3.010400E+01	  0.068897791	3.253300E+01
246	  0.069098189	-7.105000E+00	  0.069098189	9.911300E+01	  0.069098189	3.017000E+01	  0.069098189	3.264900E+01
247	  0.069298595	-7.106000E+00	  0.069298595	9.888500E+01	  0.069298595	3.025200E+01	  0.069298595	3.275200E+01
248	  0.069498993	-7.106000E+00	  0.069498993	9.866100E+01	  0.069498993	3.032800E+01	  0.069498993	3.285700E+01
249	  0.069699399	-7.102000E+00	  0.069699399	9.843400E+01	  0.069699399	3.039700E+01	  0.069699399	3.297100E+01
250	  0.069899797	-7.105000E+00	  0.069899797	9.819700E+01	  0.069899797	3.048800E+01	  0.069899797	3.307500E+01
251	  0.070100196	-7.104000E+00	  0.070100196	9.799600E+01	  0.070100196	3.055500E+01	  0.070100196	3.317100E+01
252	  0.070300601	-7.103000E+00	  0.070300601	9.776800E+01	  0.070300601	3.063400E+01	  0.070300601	3.327900E+01
253	  0.070501000	-7.099000E+00	  0.070501000	9.753500E+01	  0.070501000	3.070400E+01	  0.070501000	3.339800E+01
254	  0.070701398	-7.102000E+00	  0.070701398	9.729300E+01	  0.070701398	3.080000E+01	  0.070701398	3.350400E+01
255	  0.070901804	-7.101000E+00	  0.070901804	9.706700E+01	  0.070901804	3.088000E+01	  0.070901804	3.361100E+01
256	  0.071102202	-7.098000E+00	  0.071102202	9.687700E+01	  0.071102202	3.094000E+01	  0.071102202	3.370600E+01
257	  0.071302600	-7.097000E+00	  0.071302600	9.662500E+01	  0.071302600	3.102700E+01	  0.071302600	3.382800E+01
258	  0.071503006	-7.094000E+00	  0.071503006	9.639600E+01	  0.071503006	3.110300E+01	  0.071503006	3.394100E+01
259	  0.071703404	-7.096000E+00	  0.071703404	9.618100E+01	  0.071703404	3.119000E+01	  0.071703404	3.403700E+01
260	  0.071903802	-7.096000E+00	  0.071903802	9.597000E+01	  0.071903802	3.126600E+01	  0.071903802	3.413700E+01
261	  0.072104208	-7.096000E+00	  0.072104208	9.573300E+01	  0.072104208	3.135500E+01	  0.072104208	3.424800E+01
262	  0.072304606	-7.097000E+00	  0.072304606	9.550500E+01	  0.072304606	3.144400E+01	  0.072304606	3.435200E+01
263	  0.072505005	-7.095000E+00	  0.072505005	9.528800E+01	  0.072505005	3.152200E+01	  0.072505005	3.445800E+01
264	  0.072705410	-7.093000E+00	  0.072705410	9.506100E+01	  0.072705410	3.160000E+01	  0.072705410	3.457200E+01
265	  0.072905809	-7.090000E+00	  0.072905809	9.482200E+01	  0.072905809	3.168200E+01	  0.072905809	3.469100E+01
266	  0.073106214	-7.090000E+00	  0.073106214	9.462000E+01	  0.073106214	3.176100E+01	  0.073106214	3.478600E+01
267	  0.073306613	-7.094000E+00	  0.073306613	9.438600E+01	  0.073306613	3.186300E+01	  0.073306613	3.488600E+01
268	  0.073507011	-7.089000E+00	  0.073507011	9.414600E+01	  0.073507011	3.194000E+01	  0.073507011	3.501300E+01
269	  0.073707417	-7.086000E+00	  0.073707417	9.390700E+01	  0.073707417	3.202700E+01	  0.073707417	3.513200E+01
270	  0.073907815	-7.088000E+00	  0.073907815	9.368500E+01	  0.073907815	3.211900E+01	  0.073907815	3.523300E+01
271	  0.074108213	-7.087000E+00	  0.074108213	9.346600E+01	  0.074108213	3.220200E+01	  0.074108213	3.534000E+01
272	  0.074308619	-7.086000E+00	  0.074308619	9.323200E+01	  0.074308619	3.229300E+01	  0.074308619	3.545200E+01
273	  0.074509017	-7.086000E+00	  0.074509017	9.300400E+01	  0.074509017	3.238600E+01	  0.074509017	3.555900E+01
274	  0.074709415	-7.086000E+00	  0.074709415	9.278300E+01	  0.074709415	3.247400E+01	  0.074709415	3.566400E+01
275	  0.074909821	-7.083000E+00	  0.074909821	9.257100E+01	  0.074909821	3.254900E+01	  0.074909821	3.577500E+01
276	  0.075110219	-7.082000E+00	  0.075110219	9.233800E+01	  0.075110219	3.264200E+01	  0.075110219	3.588700E+01
277	  0.075310618	-7.081000E+00	  0.075310618	9.210200E+01	  0.075310618	3.273500E+01	  0.075310618	3.600200E+01
278	  0.075511023	-7.080000E+00	  0.075511023	9.187500E+01	  0.075511023	3.282500E+01	  0.075511023	3.611400E+01
279	  0.075711422	-7.079000E+00	  0.075711422	9.166800E+01	  0.075711422	3.290700E+01	  0.075711422	3.621500E+01
280	  0.075911827	-7.079000E+00	  0.075911827	9.144100E+01	  0.075911827	3.300300E+01	  0.075911827	3.632300E+01
281	  0.076112226	-7.075000E+00	  0.076112226	9.119500E+01	  0.076112226	3.309500E+01	  0.076112226	3.645000E+01
282	  0.076312624	-7.073000E+00	  0.076312624	9.098700E+01	  0.076312624	3.317500E+01	  0.076312624	3.655600E+01
283	  0.076513030	-7.072000E+00	  0.076513030	9.075600E+01	  0.076513030	3.327000E+01	  0.076513030	3.666900E+01
284	  0.076713428	-7.070000E+00	  0.076713428	9.053000E+01	  0.076713428	3.336200E+01	  0.076713428	3.678100E+01
285	  0.076913826	-7.074000E+00	  0.076913826	9.030000E+01	  0.076913826	3.347100E+01	  0.076913826	3.688200E+01
286	  0.077114232	-7.073000E+00	  0.077114232	9.006000E+01	  0.077114232	3.357300E+01	  0.077114232	3.699800E+01
287	  0.077314630	-7.070000E+00	  0.077314630	8.984500E+01	  0.077314630	3.365800E+01	  0.077314630	3.710900E+01
288	  0.077515028	-7.071000E+00	  0.077515028	8.962200E+01	  0.077515028	3.375600E+01	  0.077515028	3.721500E+01
289	  0.077715434	-7.067000E+00	  0.077715434	8.941300E+01	  0.077715434	3.383800E+01	  0.077715434	3.732400E+01
290	  0.077915832	-7.069000E+00	  0.077915832	8.917500E+01	  0.077915832	3.394700E+01	  0.077915832	3.743500E+01
291	  0.078116231	-7.068000E+00	  0.078116231	8.895200E+01	  0.078116231	3.404400E+01	  0.078116231	3.754500E+01
292	  0.078316636	-7.066000E+00	  0.078316636	8.871900E+01	  0.078316636	3.414200E+01	  0.078316636	3.766200E+01
293	  0.078517035	-7.067000E+00	  0.078517035	8.850200E+01	  0.078517035	3.424400E+01	  0.078517035	3.776200E+01
294	  0.078717433	-7.067000E+00	  0.078717433	8.828400E+01	  0.078717433	3.434100E+01	  0.078717433	3.786900E+01
295	  0.078917839	-7.064000E+00	  0.078917839	8.803600E+01	  0.078917839	3.444500E+01	  0.078917839	3.799700E+01
296	  0.079118237	-7.065000E+00	  0.079118237	8.781900E+01	  0.079118237	3.454800E+01	  0.079118237	3.809800E+01
297	  0.079318643	-7.064000E+00	  0.079318643	8.761300E+01	  0.079318643	3.463900E+01	  0.079318643	3.820000E+01
298	  0.079519041	-7.061000E+00	  0.079519041	8.735700E+01	  0.079519041	3.474800E+01	  0.079519041	3.833300E+01
299	  0.079719439	-7.061000E+00	  0.079719439	8.715900E+01	  0.079719439	3.484200E+01	  0.079719439	3.842700E+01
300	  0.079919845	-7.059000E+00	  0.079919845	8.691100E+01	  0.079919845	3.495200E+01	  0.079919845	3.855200E+01
301	  0.080120243	-7.062000E+00	  0.080120243	8.670600E+01	  0.080120243	3.505700E+01	  0.080120243	3.864400E+01
302	  0.080320641	-7.059000E+00	  0.080320641	8.647400E+01	  0.080320641	3.515800E+01	  0.080320641	3.876400E+01
303	  0.080521047	-7.059000E+00	  0.080521047	8.623000E+01	  0.080521047	3.527300E+01	  0.080521047	3.888400E+01
304	  0.080721445	-7.058000E+00	  0.080721445	8.601900E+01	  0.080721445	3.537200E+01	  0.080721445	3.898800E+01
305	  0.080921844	-7.055000E+00	  0.080921844	8.579800E+01	  0.080921844	3.546900E+01	  0.080921844	3.910500E+01
306	  0.081122249	-7.057000E+00	  0.081122249	8.557300E+01	  0.081122249	3.558500E+01	  0.081122249	3.920600E+01
307	  0.081322648	-7.054000E+00	  0.081322648	8.534000E+01	  0.081322648	3.569100E+01	  0.081322648	3.932700E+01
308	  0.081523046	-7.052000E+00	  0.081523046	8.512100E+01	  0.081523046	3.579000E+01	  0.081523046	3.944100E+01
309	  0.081723452	-7.054000E+00	  0.081723452	8.490800E+01	  0.081723452	3.590300E+01	  0.081723452	3.953700E+01
310	  0.081923850	-7.053000E+00	  0.081923850	8.467700E+01	  0.081923850	3.601400E+01	  0.081923850	3.965300E+01
311	  0.082124248	-7.051000E+00	  0.082124248	8.445300E+01	  0.082124248	3.612000E+01	  0.082124248	3.976700E+01
312	  0.082324654	-7.050000E+00	  0.082324654	8.422200E+01	  0.082324654	3.623300E+01	  0.082324654	3.988300E+01
313	  0.082525052	-7.051000E+00	  0.082525052	8.401200E+01	  0.082525052	3.634100E+01	  0.082525052	3.998300E+01
314	  0.082725458	-7.049000E+00	  0.082725458	8.376700E+01	  0.082725458	3.646000E+01	  0.082725458	4.010700E+01
315	  0.082925856	-7.049000E+00	  0.082925856	8.355800E+01	  0.082925856	3.656500E+01	  0.082925856	4.021000E+01
316	  0.083126254	-7.046000E+00	  0.083126254	8.333000E+01	  0.083126254	3.667400E+01	  0.083126254	4.033000E+01
317	  0.083326660	-7.046000E+00	  0.083326660	8.310500E+01	  0.083326660	3.679300E+01	  0.083326660	4.043700E+01
318	  0.083527058	-7.046000E+00	  0.083527058	8.288900E+01	  0.083527058	3.690300E+01	  0.083527058	4.054500E+01
319	  0.083727457	-7.047000E+00	  0.083727457	8.264600E+01	  0.083727457	3.703300E+01	  0.083727457	4.066000E+01
320	  0.083927862	-7.041000E+00	  0.083927862	8.243300E+01	  0.083927862	3.712800E+01	  0.083927862	4.078200E+01
321	  0.084128261	-7.042000E+00	  0.084128261	8.220900E+01	  0.084128261	3.725000E+01	  0.084128261	4.088700E+01
322	  0.084328659	-7.037000E+00	  0.084328659	8.199800E+01	  0.084328659	3.734600E+01	  0.084328659	4.100800E+01
323	  0.084529065	-7.039000E+00	  0.084529065	8.176900E+01	  0.084529065	3.747600E+01	  0.084529065	4.111200E+01
324	  0.084729463	-7.037000E+00	  0.084729463	8.152600E+01	  0.084729463	3.760000E+01	  0.084729463	4.123800E+01
325	  0.084929861	-7.039000E+00	  0.084929861	8.130900E+01	  0.084929861	3.772500E+01	  0.084929861	4.133500E+01
326	  0.085130267	-7.034000E+00	  0.085130267	8.108000E+01	  0.085130267	3.783300E+01	  0.085130267	4.146600E+01
327	  0.085330658	-7.037000E+00	  0.085330658	8.086000E+01	  0.085330658	3.796300E+01	  0.085330658	4.156200E+01
328	  0.085531056	-7.038000E+00	  0.085531056	8.064600E+01	  0.085531056	3.808500E+01	  0.085531056	4.166200E+01
329	  0.085731462	-7.035000E+00	  0.085731462	8.043500E+01	  0.085731462	3.819100E+01	  0.085731462	4.177700E+01
330	  0.085931860	-7.037000E+00	  0.085931860	8.018300E+01	  0.085931860	3.833800E+01	  0.085931860	4.189200E+01
331	  0.086132258	-7.035000E+00	  0.086132258	7.998900E+01	  0.086132258	3.844200E+01	  0.086132258	4.199300E+01
332	  0.086332664	-7.033000E+00	  0.086332664	7.974200E+01	  0.086332664	3.857600E+01	  0.086332664	4.212000E+01
333	  0.086533062	-7.034000E+00	  0.086533062	7.954500E+01	  0.086533062	3.868900E+01	  0.086533062	4.221400E+01
334	  0.086733460	-7.035000E+00	  0.086733460	7.929700E+01	  0.086733460	3.883600E+01	  0.086733460	4.232800E+01
335	  0.086933866	-7.033000E+00	  0.086933866	7.908200E+01	  0.086933866	3.895400E+01	  0.086933866	4.244000E+01
336	  0.087134264	-7.033000E+00	  0.087134264	7.885800E+01	  0.087134264	3.908100E+01	  0.087134264	4.255100E+01
337	  0.087334670	-7.032000E+00	  0.087334670	7.862500E+01	  0.087334670	3.921700E+01	  0.087334670	4.266500E+01
338	  0.087535068	-7.032000E+00	  0.087535068	7.842300E+01	  0.087535068	3.933300E+01	  0.087535068	4.276500E+01
339	  0.087735467	-7.033000E+00	  0.087735467	7.818100E+01	  0.087735467	3.947800E+01	  0.087735467	4.288000E+01
340	  0.087935872	-7.032000E+00	  0.087935872	7.797500E+01	  0.087935872	3.959700E+01	  0.087935872	4.298400E+01
341	  0.088136271	-7.031000E+00	  0.088136271	7.773900E+01	  0.088136271	3.973400E+01	  0.088136271	4.310200E+01
342	  0.088336669	-7.031000E+00	  0.088336669	7.752100E+01	  0.088336669	3.986800E+01	  0.088336669	4.320400E+01
343	  0.088537075	-7.029000E+00	  0.088537075	7.729200E+01	  0.088537075	3.999900E+01	  0.088537075	4.332400E+01
344	  0.088737473	-7.029000E+00	  0.088737473	7.706500E+01	  0.088737473	4.013600E+01	  0.088737473	4.343500E+01
345	  0.088937871	-7.027000E+00	  0.088937871	7.684400E+01	  0.088937871	4.026500E+01	  0.088937871	4.354900E+01
346	  0.089138277	-7.028000E+00	  0.089138277	7.663000E+01	  0.089138277	4.040000E+01	  0.089138277	4.364800E+01
347	  0.089338675	-7.029000E+00	  0.089338675	7.640500E+01	  0.089338675	4.054000E+01	  0.089338675	4.375600E+01
348	  0.089539073	-7.028000E+00	  0.089539073	7.619200E+01	  0.089539073	4.067100E+01	  0.089539073	4.386100E+01
349	  0.089739479	-7.026000E+00	  0.089739479	7.598600E+01	  0.089739479	4.079200E+01	  0.089739479	4.397000E+01
350	  0.089939877	-7.029000E+00	  0.089939877	7.574600E+01	  0.089939877	4.095200E+01	  0.089939877	4.407300E+01
351	  0.090140276	-7.024000E+00	  0.090140276	7.553500E+01	  0.090140276	4.106900E+01	  0.090140276	4.419700E+01
352	  0.090340681	-7.026000E+00	  0.090340681	7.530800E+01	  0.090340681	4.122200E+01	  0.090340681	4.429500E+01
353	  0.090541080	-7.024000E+00	  0.090541080	7.507500E+01	  0.090541080	4.136300E+01	  0.090541080	4.441800E+01
354	  0.090741485	-7.023000E+00	  0.090741485	7.485800E+01	  0.090741485	4.150100E+01	  0.090741485	4.452500E+01
355	  0.090941884	-7.026000E+00	  0.090941884	7.462300E+01	  0.090941884	4.166000E+01	  0.090941884	4.462800E+01
356	  0.091142282	-7.023000E+00	  0.091142282	7.439900E+01	  0.091142282	4.179800E+01	  0.091142282	4.474700E+01
357	  0.091342688	-7.025000E+00	  0.091342688	7.417500E+01	  0.091342688	4.195100E+01	  0.091342688	4.484500E+01
358	  0.091543086	-7.024000E+00	  0.091543086	7.395900E+01	  0.091543086	4.208800E+01	  0.091543086	4.495600E+01
359	  0.091743484	-7.022000E+00	  0.091743484	7.373200E+01	  0.091743484	4.223200E+01	  0.091743484	4.507300E+01
360	  0.091943890	-7.021000E+00	  0.091943890	7.351200E+01	  0.091943890	4.237700E+01	  0.091943890	4.518100E+01
361	  0.092144288	-7.026000E+00	  0.092144288	7.329000E+01	  0.092144288	4.254000E+01	  0.092144288	4.526800E+01
362	  0.092344686	-7.021000E+00	  0.092344686	7.307700E+01	  0.092344686	4.266900E+01	  0.092344686	4.539000E+01
363	  0.092545092	-7.024000E+00	  0.092545092	7.281900E+01	  0.092545092	4.285200E+01	  0.092545092	4.550200E+01
364	  0.092745490	-7.019000E+00	  0.092745490	7.262200E+01	  0.092745490	4.297400E+01	  0.092745490	4.561400E+01
365	  0.092945889	-7.023000E+00	  0.092945889	7.239400E+01	  0.092945889	4.314200E+01	  0.092945889	4.570600E+01
366	  0.093146294	-7.018000E+00	  0.093146294	7.216700E+01	  0.093146294	4.328400E+01	  0.093146294	4.583600E+01
367	  0.093346693	-7.020000E+00	  0.093346693	7.194500E+01	  0.093346693	4.344100E+01	  0.093346693	4.593700E+01
368	  0.093547091	-7.019000E+00	  0.093547091	7.170900E+01	  0.093547091	4.360500E+01	  0.093547091	4.605100E+01
369	  0.093747497	-7.020000E+00	  0.093747497	7.150500E+01	  0.093747497	4.375200E+01	  0.093747497	4.614300E+01
370	  0.093947895	-7.016000E+00	  0.093947895	7.128600E+01	  0.093947895	4.389300E+01	  0.093947895	4.626600E+01
371	  0.094148301	-7.016000E+00	  0.094148301	7.105100E+01	  0.094148301	4.406100E+01	  0.094148301	4.637500E+01
372	  0.094348699	-7.015000E+00	  0.094348699	7.083600E+01	  0.094348699	4.421100E+01	  0.094348699	4.648400E+01
373	  0.094549097	-7.013000E+00	  0.094549097	7.060200E+01	  0.094549097	4.437500E+01	  0.094549097	4.660100E+01
374	  0.094749503	-7.014000E+00	  0.094749503	7.038200E+01	  0.094749503	4.453600E+01	  0.094749503	4.670200E+01
375	  0.094949901	-7.011000E+00	  0.094949901	7.017000E+01	  0.094949901	4.468200E+01	  0.094949901	4.681400E+01
376	  0.095150299	-7.010000E+00	  0.095150299	6.992000E+01	  0.095150299	4.486200E+01	  0.095150299	4.693600E+01
377	  0.095350705	-7.010000E+00	  0.095350705	6.970500E+01	  0.095350705	4.502000E+01	  0.095350705	4.703800E+01
378	  0.095551103	-7.011000E+00	  0.095551103	6.947700E+01	  0.095551103	4.519200E+01	  0.095551103	4.714000E+01
379	  0.095751502	-7.009000E+00	  0.095751502	6.927900E+01	  0.095751502	4.533500E+01	  0.095751502	4.724200E+01
380	  0.095951907	-7.008000E+00	  0.095951907	6.903900E+01	  0.095951907	4.551100E+01	  0.095951907	4.735900E+01
381	  0.096152306	-7.007000E+00	  0.096152306	6.881200E+01	  0.096152306	4.567700E+01	  0.096152306	4.747300E+01
382	  0.096352704	-7.006000E+00	  0.096352704	6.858000E+01	  0.096352704	4.585100E+01	  0.096352704	4.758500E+01
383	  0.096553110	-7.005000E+00	  0.096553110	6.837000E+01	  0.096553110	4.601000E+01	  0.096553110	4.768500E+01
384	  0.096753508	-7.005000E+00	  0.096753508	6.816000E+01	  0.096753508	4.617000E+01	  0.096753508	4.778400E+01
385	  0.096953906	-7.005000E+00	  0.096953906	6.791300E+01	  0.096953906	4.636100E+01	  0.096953906	4.789800E+01
386	  0.097154312	-7.005000E+00	  0.097154312	6.772400E+01	  0.097154312	4.650800E+01	  0.097154312	4.798500E+01
387	  0.097354710	-7.002000E+00	  0.097354710	6.749000E+01	  0.097354710	4.668100E+01	  0.097354710	4.810900E+01
388	  0.097555116	-7.004000E+00	  0.097555116	6.725100E+01	  0.097555116	4.687400E+01	  0.097555116	4.821000E+01
389	  0.097755514	-7.002000E+00	  0.097755514	6.702900E+01	  0.097755514	4.704500E+01	  0.097755514	4.832000E+01
390	  0.097955912	-7.002000E+00	  0.097955912	6.681700E+01	  0.097955912	4.721200E+01	  0.097955912	4.841900E+01
391	  0.098156318	-6.999000E+00	  0.098156318	6.659000E+01	  0.098156318	4.738500E+01	  0.098156318	4.853800E+01
392	  0.098356716	-6.997000E+00	  0.098356716	6.637200E+01	  0.098356716	4.755600E+01	  0.098356716	4.864700E+01
393	  0.098557115	-6.997000E+00	  0.098557115	6.615000E+01	  0.098557115	4.773500E+01	  0.098557115	4.874900E+01
394	  0.098757520	-6.996000E+00	  0.098757520	6.591800E+01	  0.098757520	4.792100E+01	  0.098757520	4.885900E+01
395	  0.098957919	-6.999000E+00	  0.098957919	6.570200E+01	  0.098957919	4.810900E+01	  0.098957919	4.893700E+01
396	  0.099158317	-6.993000E+00	  0.099158317	6.548200E+01	  0.099158317	4.827200E+01	  0.099158317	4.906800E+01
397	  0.099358723	-6.994000E+00	  0.099358723	6.526900E+01	  0.099358723	4.845000E+01	  0.099358723	4.916300E+01
398	  0.099559121	-6.995000E+00	  0.099559121	6.502900E+01	  0.099559121	4.865400E+01	  0.099559121	4.926300E+01
399	  0.099759519	-6.995000E+00	  0.099759519	6.480900E+01	  0.099759519	4.883700E+01	  0.099759519	4.936300E+01
400	  0.099959925	-6.987000E+00	  0.099959925	6.461900E+01	  0.099959925	4.897600E+01	  0.099959925	4.948800E+01
401	  0.100160323	-6.991000E+00	  0.100160323	6.438900E+01	  0.100160323	4.918200E+01	  0.100160323	4.956900E+01
402	  0.100360721	-6.984000E+00	  0.100360721	6.419200E+01	  0.100360721	4.933000E+01	  0.100360721	4.969600E+01
403	  0.100561127	-6.981000E+00	  0.100561127	6.397800E+01	  0.100561127	4.950400E+01	  0.100561127	4.981000E+01
404	  0.100761525	-6.984000E+00	  0.100761525	6.371900E+01	  0.100761525	4.973500E+01	  0.100761525	4.990700E+01
405	  0.100961931	-6.983000E+00	  0.100961931	6.352900E+01	  0.100961931	4.990000E+01	  0.100961931	4.999200E+01
406	  0.101162329	-6.982000E+00	  0.101162329	6.330300E+01	  0.101162329	5.009400E+01	  0.101162329	5.009800E+01
407	  0.101362728	-6.978000E+00	  0.101362728	6.305700E+01	  0.101362728	5.029700E+01	  0.101362728	5.023000E+01
408	  0.101563133	-6.975000E+00	  0.101563133	6.284100E+01	  0.101563133	5.048100E+01	  0.101563133	5.033900E+01
409	  0.101763532	-6.976000E+00	  0.101763532	6.265500E+01	  0.101763532	5.065000E+01	  0.101763532	5.041300E+01
410	  0.101963930	-6.973000E+00	  0.101963930	6.246100E+01	  0.101963930	5.081400E+01	  0.101963930	5.051700E+01
411	  0.102164336	-6.973000E+00	  0.102164336	6.221300E+01	  0.102164336	5.103700E+01	  0.102164336	5.062100E+01
412	  0.102364734	-6.976000E+00	  0.102364734	6.200000E+01	  0.102364734	5.123700E+01	  0.102364734	5.069700E+01
413	  0.102565132	-6.975000E+00	  0.102565132	6.178200E+01	  0.102565132	5.143200E+01	  0.102565132	5.079700E+01
414	  0.102765530	-6.974000E+00	  0.102765530	6.154000E+01	  0.102765530	5.165100E+01	  0.102765530	5.090500E+01
415	  0.102965929	-6.970000E+00	  0.102965929	6.132200E+01	  0.102965929	5.184000E+01	  0.102965929	5.102300E+01
416	  0.103166327	-6.974000E+00	  0.103166327	6.111700E+01	  0.103166327	5.204300E+01	  0.103166327	5.108200E+01
417	  0.103366733	-6.969000E+00	  0.103366733	6.088700E+01	  0.103366733	5.224300E+01	  0.103366733	5.120900E+01
418	  0.103567131	-6.968000E+00	  0.103567131	6.065000E+01	  0.103567131	5.246300E+01	  0.103567131	5.131100E+01
419	  0.103767529	-6.971000E+00	  0.103767529	6.043800E+01	  0.103767529	5.266900E+01	  0.103767529	5.138300E+01
420	  0.103967935	-6.972000E+00	  0.103967935	6.020700E+01	  0.103967935	5.289100E+01	  0.103967935	5.147300E+01
421	  0.104168333	-6.969000E+00	  0.104168333	6.001200E+01	  0.104168333	5.307000E+01	  0.104168333	5.157000E+01
422	  0.104368731	-6.968000E+00	  0.104368731	5.979000E+01	  0.104368731	5.327800E+01	  0.104368731	5.167000E+01
423	  0.104569137	-6.966000E+00	  0.104569137	5.956100E+01	  0.104569137	5.349500E+01	  0.104569137	5.177200E+01
424	  0.104769535	-6.965000E+00	  0.104769535	5.932100E+01	  0.104769535	5.372500E+01	  0.104769535	5.187500E+01
425	  0.104969934	-6.962000E+00	  0.104969934	5.914600E+01	  0.104969934	5.388700E+01	  0.104969934	5.196800E+01
426	  0.105170339	-6.966000E+00	  0.105170339	5.890400E+01	  0.105170339	5.413500E+01	  0.105170339	5.203700E+01
427	  0.105370738	-6.960000E+00	  0.105370738	5.864100E+01	  0.105370738	5.438000E+01	  0.105370738	5.217700E+01
428	  0.105571143	-6.966000E+00	  0.105571143	5.844100E+01	  0.105571143	5.459400E+01	  0.105571143	5.221800E+01
429	  0.105771542	-6.960000E+00	  0.105771542	5.824700E+01	  0.105771542	5.477300E+01	  0.105771542	5.233200E+01
430	  0.105971940	-6.962000E+00	  0.105971940	5.803200E+01	  0.105971940	5.499300E+01	  0.105971940	5.240200E+01
431	  0.106172346	-6.960000E+00	  0.106172346	5.780300E+01	  0.106172346	5.521700E+01	  0.106172346	5.251000E+01
432	  0.106372744	-6.960000E+00	  0.106372744	5.758800E+01	  0.106372744	5.543600E+01	  0.106372744	5.259100E+01
433	  0.106573142	-6.960000E+00	  0.106573142	5.738100E+01	  0.106573142	5.564600E+01	  0.106573142	5.267100E+01
434	  0.106773548	-6.957000E+00	  0.106773548	5.715200E+01	  0.106773548	5.587400E+01	  0.106773548	5.277800E+01
435	  0.106973946	-6.958000E+00	  0.106973946	5.691700E+01	  0.106973946	5.612100E+01	  0.106973946	5.285500E+01
436	  0.107174344	-6.956000E+00	  0.107174344	5.670400E+01	  0.107174344	5.633700E+01	  0.107174344	5.294900E+01
437	  0.107374750	-6.958000E+00	  0.107374750	5.651100E+01	  0.107374750	5.654200E+01	  0.107374750	5.300900E+01
438	  0.107575148	-6.957000E+00	  0.107575148	5.624100E+01	  0.107575148	5.682400E+01	  0.107575148	5.311300E+01
439	  0.107775547	-6.952000E+00	  0.107775547	5.604300E+01	  0.107775547	5.702000E+01	  0.107775547	5.322300E+01
440	  0.107975952	-6.952000E+00	  0.107975952	5.581300E+01	  0.107975952	5.726500E+01	  0.107975952	5.330300E+01
441	  0.108176351	-6.952000E+00	  0.108176351	5.564300E+01	  0.108176351	5.744500E+01	  0.108176351	5.336800E+01
442	  0.108376749	-6.949000E+00	  0.108376749	5.538500E+01	  0.108376749	5.771800E+01	  0.108376749	5.347700E+01
443	  0.108577155	-6.953000E+00	  0.108577155	5.517200E+01	  0.108577155	5.795600E+01	  0.108577155	5.352500E+01
444	  0.108777553	-6.949000E+00	  0.108777553	5.495800E+01	  0.108777553	5.818000E+01	  0.108777553	5.362700E+01
445	  0.108977959	-6.946000E+00	  0.108977959	5.473500E+01	  0.108977959	5.841700E+01	  0.108977959	5.372300E+01
446	  0.109178357	-6.951000E+00	  0.109178357	5.450900E+01	  0.109178357	5.867700E+01	  0.109178357	5.376400E+01
447	  0.109378755	-6.948000E+00	  0.109378755	5.428700E+01	  0.109378755	5.891300E+01	  0.109378755	5.386700E+01
448	  0.109579161	-6.949000E+00	  0.109579161	5.408000E+01	  0.109579161	5.914600E+01	  0.109579161	5.392800E+01
449	  0.109779559	-6.944000E+00	  0.109779559	5.384700E+01	  0.109779559	5.939500E+01	  0.109779559	5.404000E+01
450	  0.109979957	-6.943000E+00	  0.109979957	5.362300E+01	  0.109979957	5.964500E+01	  0.109979957	5.412000E+01
451	  0.110180363	-6.943000E+00	  0.110180363	5.340700E+01	  0.110180363	5.988800E+01	  0.110180363	5.419300E+01
452	  0.110380761	-6.946000E+00	  0.110380761	5.318900E+01	  0.110380761	6.014400E+01	  0.110380761	5.423700E+01
453	  0.110581160	-6.942000E+00	  0.110581160	5.297200E+01	  0.110581160	6.038300E+01	  0.110581160	5.433400E+01
454	  0.110781565	-6.943000E+00	  0.110781565	5.274700E+01	  0.110781565	6.064300E+01	  0.110781565	5.440100E+01
455	  0.110981964	-6.939000E+00	  0.110981964	5.254000E+01	  0.110981964	6.087500E+01	  0.110981964	5.449400E+01
456	  0.111182362	-6.939000E+00	  0.111182362	5.231600E+01	  0.111182362	6.113400E+01	  0.111182362	5.456300E+01
457	  0.111382768	-6.940000E+00	  0.111382768	5.211800E+01	  0.111382768	6.136700E+01	  0.111382768	5.461700E+01
458	  0.111583166	-6.935000E+00	  0.111583166	5.187000E+01	  0.111583166	6.164800E+01	  0.111583166	5.472800E+01
459	  0.111783572	-6.939000E+00	  0.111783572	5.166900E+01	  0.111783572	6.189300E+01	  0.111783572	5.475500E+01
460	  0.111983970	-6.939000E+00	  0.111983970	5.143700E+01	  0.111983970	6.216900E+01	  0.111983970	5.482400E+01
461	  0.112184368	-6.938000E+00	  0.112184368	5.122900E+01	  0.112184368	6.241500E+01	  0.112184368	5.488900E+01
462	  0.112384774	-6.938000E+00	  0.112384774	5.099200E+01	  0.112384774	6.269900E+01	  0.112384774	5.495400E+01
463	  0.112585172	-6.934000E+00	  0.112585172	5.077800E+01	  0.112585172	6.295000E+01	  0.112585172	5.504900E+01
464	  0.112785570	-6.937000E+00	  0.112785570	5.055000E+01	  0.112785570	6.323100E+01	  0.112785570	5.508800E+01
465	  0.112985976	-6.932000E+00	  0.112985976	5.034100E+01	  0.112985976	6.347800E+01	  0.112985976	5.518000E+01
466	  0.113186374	-6.930000E+00	  0.113186374	5.010400E+01	  0.113186374	6.376500E+01	  0.113186374	5.525900E+01
467	  0.113386773	-6.933000E+00	  0.113386773	4.992500E+01	  0.113386773	6.399000E+01	  0.113386773	5.528500E+01
468	  0.113587178	-6.931000E+00	  0.113587178	4.970100E+01	  0.113587178	6.426500E+01	  0.113587178	5.535200E+01
469	  0.113787577	-6.929000E+00	  0.113787577	4.946700E+01	  0.113787577	6.455200E+01	  0.113787577	5.543000E+01
470	  0.113987975	-6.934000E+00	  0.113987975	4.926000E+01	  0.113987975	6.482000E+01	  0.113987975	5.543600E+01
471	  0.114188381	-6.929000E+00	  0.114188381	4.902200E+01	  0.114188381	6.511200E+01	  0.114188381	5.553700E+01
472	  0.114388779	-6.927000E+00	  0.114388779	4.881800E+01	  0.114388779	6.536700E+01	  0.114388779	5.560000E+01
473	  0.114589177	-6.929000E+00	  0.114589177	4.862800E+01	  0.114589177	6.561100E+01	  0.114589177	5.562900E+01
474	  0.114789583	-6.926000E+00	  0.114789583	4.840100E+01	  0.114789583	6.589700E+01	  0.114789583	5.569800E+01
475	  0.114989981	-6.929000E+00	  0.114989981	4.817700E+01	  0.114989981	6.619000E+01	  0.114989981	5.572100E+01
476	  0.115190387	-6.927000E+00	  0.115190387	4.796700E+01	  0.115190387	6.645700E+01	  0.115190387	5.578900E+01
477	  0.115390785	-6.925000E+00	  0.115390785	4.773100E+01	  0.115390785	6.676000E+01	  0.115390785	5.585200E+01
478	  0.115591183	-6.924000E+00	  0.115591183	4.750900E+01	  0.115591183	6.704900E+01	  0.115591183	5.590700E+01
479	  0.115791589	-6.925000E+00	  0.115791589	4.733400E+01	  0.115791589	6.728000E+01	  0.115791589	5.593300E+01
480	  0.115991987	-6.923000E+00	  0.115991987	4.708600E+01	  0.115991987	6.760400E+01	  0.115991987	5.599800E+01
481	  0.116192386	-6.922000E+00	  0.116192386	4.688100E+01	  0.116192386	6.787400E+01	  0.116192386	5.604500E+01
482	  0.116392791	-6.920000E+00	  0.116392791	4.664400E+01	  0.116392791	6.818700E+01	  0.116392791	5.610200E+01
483	  0.116593190	-6.919000E+00	  0.116593190	4.644700E+01	  0.116593190	6.845000E+01	  0.116593190	5.614500E+01
484	  0.116793588	-6.922000E+00	  0.116793588	4.623600E+01	  0.116793588	6.873800E+01	  0.116793588	5.615100E+01
485	  0.116993994	-6.920000E+00	  0.116993994	4.599400E+01	  0.116993994	6.906200E+01	  0.116993994	5.621000E+01
486	  0.117194392	-6.919000E+00	  0.117194392	4.579900E+01	  0.117194392	6.932600E+01	  0.117194392	5.624900E+01
487	  0.117394790	-6.918000E+00	  0.117394790	4.554800E+01	  0.117394790	6.966800E+01	  0.117394790	5.628900E+01
488	  0.117595196	-6.918000E+00	  0.117595196	4.536000E+01	  0.117595196	6.992600E+01	  0.117595196	5.631800E+01
489	  0.117795594	-6.918000E+00	  0.117795594	4.514200E+01	  0.117795594	7.022500E+01	  0.117795594	5.634800E+01
490	  0.117995992	-6.915000E+00	  0.117995992	4.491300E+01	  0.117995992	7.054000E+01	  0.117995992	5.640100E+01
491	  0.118196398	-6.915000E+00	  0.118196398	4.470100E+01	  0.118196398	7.083500E+01	  0.118196398	5.642600E+01
492	  0.118396796	-6.917000E+00	  0.118396796	4.447200E+01	  0.118396796	7.115800E+01	  0.118396796	5.643600E+01
493	  0.118597202	-6.914000E+00	  0.118597202	4.426200E+01	  0.118597202	7.145100E+01	  0.118597202	5.648200E+01
494	  0.118797600	-6.914000E+00	  0.118797600	4.405400E+01	  0.118797600	7.174400E+01	  0.118797600	5.650500E+01
495	  0.118997999	-6.912000E+00	  0.118997999	4.382900E+01	  0.118997999	7.206300E+01	  0.118997999	5.655000E+01
496	  0.119198404	-6.914000E+00	  0.119198404	4.360300E+01	  0.119198404	7.238500E+01	  0.119198404	5.654400E+01
497	  0.119398803	-6.910000E+00	  0.119398803	4.339500E+01	  0.119398803	7.268100E+01	  0.119398803	5.660300E+01
498	  0.119599201	-6.913000E+00	  0.119599201	4.316400E+01	  0.119599201	7.301600E+01	  0.119599201	5.659000E+01
499	  0.119799607	-6.912000E+00	  0.119799607	4.294900E+01	  0.119799607	7.332500E+01	  0.119799607	5.660900E+01
500	  0.120000005	-6.911000E+00	  0.120000005	4.275000E+01	  0.120000005	7.361500E+01	  0.120000005	5.663200E+01
