! Anritsu VNA Master:             	Model: MS2036C/10/77
! SN:             	1601066
! /bd0/18may08.cable.cal/bot.20.2.txt
! Existing Calibration Information:
! TYPE:             	Current Settings	Active Cal Settings
! TIME:             	05/08/2018 06:06:57 PM	05/08/2018 05:57:55 PM
! INTERNAL TEMP:    	49.3 C	49.3 C
! # POINTS:         	500	500
! START FREQ:       	20.000 MHz	20.000 MHz
! STOP FREQ:        	120.000 MHz	120.000 MHz
! SOURCE POWER:     	High	High
! IFBW:             	50 Hz	50 Hz
! AVG FACTOR:       	  1 	  1 
! REF PLANE 1:      	0 mm	0 mm
! REF PLANE 2:      	0 mm	0 mm
! CAL TYPE:         	Full S11	Full S11
! CAL METHOD:       	SOLT	SOLT
! CAL LINE TYPE:    	Coax	Coax
! DUT PORT 1:       	K-Conn(F)	K-Conn(F)
! DUT PORT 2:       	K-Conn(F)	K-Conn(F)
! CAL STATUS:       	OK: Accuracy High	--
! PROP-V:       	0.700
! CABLE LOSS:       	0.000 dB/m
! REF IMPEDANCE:       	50.0
! Trace Specific Parameters:	TR1	TR2	TR3	TR4
! TRACE.#.Y (GRAPH TYPE)	LOG MAG	PHASE	REAL IMPEDANCE	IMAGINARY IMPEDANCE
! TRACE.#.X 	FREQ.GHZ	FREQ.GHZ	FREQ.GHZ	FREQ.GHZ
! S-PARAMETER	S11	S11	S11	S11
! SMOOTH/APERTURE %	0	0	0	0
! WINDOW	NSL	NSL	NSL	NSL
! GATING	OFF	OFF	OFF	OFF
! FGTD	OFF	OFF	OFF	OFF
Marker Information per Trace:	TR1	TR2	TR3	TR4
!MK1	--	"MK1 TR2:  20.000 MHz,PH:155.73°"	--	--
!MK2	--	--	"MK2 TR3:  70.100 200 MHz,Z:(30.591 ohm, 33.357 ohm)"	--
!MK3	--	--	--	--
!MK4	--	--	--	--
!MK5	--	--	--	--
!MK6	--	--	--	--
!MK7	--	--	--	--
!MK8	--	--	--	--
PNT	TR1.FREQ.GHZ	TR1.LOG MAG.dB	TR2.FREQ.GHZ	TR2.PHASE.deg	TR3.FREQ.GHZ	TR3.REAL IMPEDANCE.ohm	TR4.FREQ.GHZ	TR4.IMAGINARY IMPEDANCE.ohm
1	  0.020000000	-7.245000E+00	  0.020000000	1.557260E+02	  0.020000000	2.048900E+01	  0.020000000	9.014000E+00
2	  0.020200402	-7.247000E+00	  0.020200402	1.554870E+02	  0.020200402	2.050800E+01	  0.020200402	9.103000E+00
3	  0.020400802	-7.247000E+00	  0.020400802	1.552520E+02	  0.020400802	2.052400E+01	  0.020400802	9.192000E+00
4	  0.020601204	-7.247000E+00	  0.020601204	1.550170E+02	  0.020601204	2.053800E+01	  0.020601204	9.281000E+00
5	  0.020801604	-7.248000E+00	  0.020801604	1.547720E+02	  0.020801604	2.055900E+01	  0.020801604	9.373000E+00
6	  0.021002004	-7.249000E+00	  0.021002004	1.545450E+02	  0.021002004	2.057600E+01	  0.021002004	9.458000E+00
7	  0.021202406	-7.247000E+00	  0.021202406	1.543040E+02	  0.021202406	2.058700E+01	  0.021202406	9.550000E+00
8	  0.021402806	-7.250000E+00	  0.021402806	1.540730E+02	  0.021402806	2.061100E+01	  0.021402806	9.636000E+00
9	  0.021603208	-7.249000E+00	  0.021603208	1.538390E+02	  0.021603208	2.062500E+01	  0.021603208	9.725000E+00
10	  0.021803608	-7.249000E+00	  0.021803608	1.535950E+02	  0.021803608	2.064100E+01	  0.021803608	9.818000E+00
11	  0.022004008	-7.250000E+00	  0.022004008	1.533570E+02	  0.022004008	2.066200E+01	  0.022004008	9.907000E+00
12	  0.022204408	-7.248000E+00	  0.022204408	1.531140E+02	  0.022204408	2.067400E+01	  0.022204408	1.000100E+01
13	  0.022404809	-7.249000E+00	  0.022404809	1.528730E+02	  0.022404809	2.069300E+01	  0.022404809	1.009200E+01
14	  0.022605211	-7.251000E+00	  0.022605211	1.526340E+02	  0.022605211	2.071500E+01	  0.022605211	1.018200E+01
15	  0.022805611	-7.253000E+00	  0.022805611	1.523900E+02	  0.022805611	2.074000E+01	  0.022805611	1.027300E+01
16	  0.023006011	-7.252000E+00	  0.023006011	1.521550E+02	  0.023006011	2.075500E+01	  0.023006011	1.036300E+01
17	  0.023206413	-7.251000E+00	  0.023206413	1.519350E+02	  0.023206413	2.076800E+01	  0.023206413	1.044700E+01
18	  0.023406813	-7.252000E+00	  0.023406813	1.516900E+02	  0.023406813	2.078900E+01	  0.023406813	1.054000E+01
19	  0.023607215	-7.252000E+00	  0.023607215	1.514620E+02	  0.023607215	2.080700E+01	  0.023607215	1.062600E+01
20	  0.023807615	-7.253000E+00	  0.023807615	1.512060E+02	  0.023807615	2.082900E+01	  0.023807615	1.072300E+01
21	  0.024008015	-7.254000E+00	  0.024008015	1.509680E+02	  0.024008015	2.085000E+01	  0.024008015	1.081300E+01
22	  0.024208417	-7.255000E+00	  0.024208417	1.507410E+02	  0.024208417	2.087000E+01	  0.024208417	1.089900E+01
23	  0.024408817	-7.254000E+00	  0.024408817	1.504990E+02	  0.024408817	2.088700E+01	  0.024408817	1.099200E+01
24	  0.024609219	-7.254000E+00	  0.024609219	1.502750E+02	  0.024609219	2.090700E+01	  0.024609219	1.107700E+01
25	  0.024809619	-7.255000E+00	  0.024809619	1.500240E+02	  0.024809619	2.092800E+01	  0.024809619	1.117300E+01
26	  0.025010020	-7.254000E+00	  0.025010020	1.497880E+02	  0.025010020	2.094600E+01	  0.025010020	1.126300E+01
27	  0.025210422	-7.256000E+00	  0.025210422	1.495560E+02	  0.025210422	2.097000E+01	  0.025210422	1.135100E+01
28	  0.025410822	-7.257000E+00	  0.025410822	1.493150E+02	  0.025410822	2.099200E+01	  0.025410822	1.144200E+01
29	  0.025611224	-7.256000E+00	  0.025611224	1.490750E+02	  0.025611224	2.101100E+01	  0.025611224	1.153400E+01
30	  0.025811624	-7.258000E+00	  0.025811624	1.488480E+02	  0.025811624	2.103400E+01	  0.025811624	1.162000E+01
31	  0.026012026	-7.257000E+00	  0.026012026	1.486090E+02	  0.026012026	2.105300E+01	  0.026012026	1.171200E+01
32	  0.026212426	-7.256000E+00	  0.026212426	1.483580E+02	  0.026212426	2.107200E+01	  0.026212426	1.180900E+01
33	  0.026412826	-7.257000E+00	  0.026412826	1.481280E+02	  0.026412826	2.109400E+01	  0.026412826	1.189700E+01
34	  0.026613226	-7.256000E+00	  0.026613226	1.478960E+02	  0.026613226	2.111300E+01	  0.026613226	1.198600E+01
35	  0.026813626	-7.256000E+00	  0.026813626	1.476530E+02	  0.026813626	2.113300E+01	  0.026813626	1.207900E+01
36	  0.027014028	-7.256000E+00	  0.027014028	1.474130E+02	  0.027014028	2.115600E+01	  0.027014028	1.217100E+01
37	  0.027214428	-7.258000E+00	  0.027214428	1.471750E+02	  0.027214428	2.118300E+01	  0.027214428	1.226200E+01
38	  0.027414829	-7.256000E+00	  0.027414829	1.469250E+02	  0.027414829	2.119900E+01	  0.027414829	1.235900E+01
39	  0.027615231	-7.256000E+00	  0.027615231	1.467120E+02	  0.027615231	2.121900E+01	  0.027615231	1.244100E+01
40	  0.027815631	-7.256000E+00	  0.027815631	1.464740E+02	  0.027815631	2.124200E+01	  0.027815631	1.253200E+01
41	  0.028016033	-7.256000E+00	  0.028016033	1.462250E+02	  0.028016033	2.126400E+01	  0.028016033	1.262900E+01
42	  0.028216433	-7.256000E+00	  0.028216433	1.460040E+02	  0.028216433	2.128500E+01	  0.028216433	1.271400E+01
43	  0.028416833	-7.256000E+00	  0.028416833	1.457540E+02	  0.028416833	2.131000E+01	  0.028416833	1.281000E+01
44	  0.028617235	-7.256000E+00	  0.028617235	1.455320E+02	  0.028617235	2.133100E+01	  0.028617235	1.289500E+01
45	  0.028817635	-7.257000E+00	  0.028817635	1.452860E+02	  0.028817635	2.135700E+01	  0.028817635	1.299000E+01
46	  0.029018037	-7.255000E+00	  0.029018037	1.450670E+02	  0.029018037	2.137300E+01	  0.029018037	1.307600E+01
47	  0.029218437	-7.254000E+00	  0.029218437	1.448290E+02	  0.029218437	2.139200E+01	  0.029218437	1.316900E+01
48	  0.029418837	-7.255000E+00	  0.029418837	1.446120E+02	  0.029418837	2.141700E+01	  0.029418837	1.325200E+01
49	  0.029619239	-7.252000E+00	  0.029619239	1.443590E+02	  0.029619239	2.143400E+01	  0.029619239	1.335200E+01
50	  0.029819639	-7.253000E+00	  0.029819639	1.441210E+02	  0.029819639	2.146000E+01	  0.029819639	1.344400E+01
51	  0.030020041	-7.251000E+00	  0.030020041	1.438890E+02	  0.030020041	2.148000E+01	  0.030020041	1.353400E+01
52	  0.030220442	-7.251000E+00	  0.030220442	1.436600E+02	  0.030220442	2.150400E+01	  0.030220442	1.362300E+01
53	  0.030420844	-7.250000E+00	  0.030420844	1.434250E+02	  0.030420844	2.152500E+01	  0.030420844	1.371500E+01
54	  0.030621244	-7.248000E+00	  0.030621244	1.431740E+02	  0.030621244	2.154500E+01	  0.030621244	1.381400E+01
55	  0.030821644	-7.247000E+00	  0.030821644	1.429500E+02	  0.030821644	2.156700E+01	  0.030821644	1.390200E+01
56	  0.031022044	-7.247000E+00	  0.031022044	1.427080E+02	  0.031022044	2.159300E+01	  0.031022044	1.399600E+01
57	  0.031222444	-7.230000E+00	  0.031222444	1.425430E+02	  0.031222444	2.156500E+01	  0.031222444	1.407200E+01
58	  0.031422846	-7.230000E+00	  0.031422846	1.423140E+02	  0.031422846	2.158900E+01	  0.031422846	1.416200E+01
59	  0.031623244	-7.231000E+00	  0.031623244	1.420820E+02	  0.031623244	2.161600E+01	  0.031623244	1.425100E+01
60	  0.031823646	-7.231000E+00	  0.031823646	1.418360E+02	  0.031823646	2.164400E+01	  0.031823646	1.434700E+01
61	  0.032024048	-7.231000E+00	  0.032024048	1.416030E+02	  0.032024048	2.166800E+01	  0.032024048	1.443900E+01
62	  0.032224450	-7.232000E+00	  0.032224450	1.413540E+02	  0.032224450	2.169800E+01	  0.032224450	1.453500E+01
63	  0.032424849	-7.230000E+00	  0.032424849	1.411180E+02	  0.032424849	2.171900E+01	  0.032424849	1.462900E+01
64	  0.032625251	-7.230000E+00	  0.032625251	1.408880E+02	  0.032625251	2.174500E+01	  0.032625251	1.471900E+01
65	  0.032825653	-7.228000E+00	  0.032825653	1.406380E+02	  0.032825653	2.176800E+01	  0.032825653	1.481800E+01
66	  0.033026051	-7.231000E+00	  0.033026051	1.403800E+02	  0.033026051	2.180600E+01	  0.033026051	1.491700E+01
67	  0.033226453	-7.230000E+00	  0.033226453	1.401580E+02	  0.033226453	2.182800E+01	  0.033226453	1.500500E+01
68	  0.033426855	-7.229000E+00	  0.033426855	1.399140E+02	  0.033426855	2.185300E+01	  0.033426855	1.510200E+01
69	  0.033627257	-7.231000E+00	  0.033627257	1.396580E+02	  0.033627257	2.188700E+01	  0.033627257	1.520100E+01
70	  0.033827655	-7.230000E+00	  0.033827655	1.394250E+02	  0.033827655	2.191400E+01	  0.033827655	1.529300E+01
71	  0.034028057	-7.231000E+00	  0.034028057	1.391890E+02	  0.034028057	2.194300E+01	  0.034028057	1.538500E+01
72	  0.034228459	-7.231000E+00	  0.034228459	1.389300E+02	  0.034228459	2.197300E+01	  0.034228459	1.548700E+01
73	  0.034428857	-7.230000E+00	  0.034428857	1.387170E+02	  0.034428857	2.199700E+01	  0.034428857	1.557100E+01
74	  0.034629259	-7.229000E+00	  0.034629259	1.384790E+02	  0.034629259	2.202300E+01	  0.034629259	1.566600E+01
75	  0.034829661	-7.229000E+00	  0.034829661	1.382210E+02	  0.034829661	2.205400E+01	  0.034829661	1.576800E+01
76	  0.035030060	-7.230000E+00	  0.035030060	1.379820E+02	  0.035030060	2.208500E+01	  0.035030060	1.586200E+01
77	  0.035230462	-7.229000E+00	  0.035230462	1.377500E+02	  0.035230462	2.211000E+01	  0.035230462	1.595500E+01
78	  0.035430863	-7.230000E+00	  0.035430863	1.374920E+02	  0.035430863	2.214600E+01	  0.035430863	1.605500E+01
79	  0.035631265	-7.230000E+00	  0.035631265	1.372810E+02	  0.035631265	2.217100E+01	  0.035631265	1.613900E+01
80	  0.035831664	-7.231000E+00	  0.035831664	1.370380E+02	  0.035831664	2.220400E+01	  0.035831664	1.623500E+01
81	  0.036032066	-7.232000E+00	  0.036032066	1.367960E+02	  0.036032066	2.223700E+01	  0.036032066	1.633000E+01
82	  0.036232468	-7.230000E+00	  0.036232468	1.365610E+02	  0.036232468	2.226400E+01	  0.036232468	1.642400E+01
83	  0.036432866	-7.231000E+00	  0.036432866	1.363180E+02	  0.036432866	2.229700E+01	  0.036432866	1.652000E+01
84	  0.036633268	-7.227000E+00	  0.036633268	1.360870E+02	  0.036633268	2.231500E+01	  0.036633268	1.661600E+01
85	  0.036833670	-7.230000E+00	  0.036833670	1.358470E+02	  0.036833670	2.235600E+01	  0.036833670	1.670800E+01
86	  0.037034072	-7.229000E+00	  0.037034072	1.356080E+02	  0.037034072	2.238400E+01	  0.037034072	1.680400E+01
87	  0.037234470	-7.228000E+00	  0.037234470	1.353790E+02	  0.037234470	2.241100E+01	  0.037234470	1.689600E+01
88	  0.037434869	-7.229000E+00	  0.037434869	1.351380E+02	  0.037434869	2.244600E+01	  0.037434869	1.699200E+01
89	  0.037635271	-7.229000E+00	  0.037635271	1.349110E+02	  0.037635271	2.247700E+01	  0.037635271	1.708200E+01
90	  0.037835669	-7.229000E+00	  0.037835669	1.346720E+02	  0.037835669	2.250800E+01	  0.037835669	1.717800E+01
91	  0.038036071	-7.229000E+00	  0.038036071	1.344400E+02	  0.038036071	2.253900E+01	  0.038036071	1.727000E+01
92	  0.038236473	-7.227000E+00	  0.038236473	1.341990E+02	  0.038236473	2.256800E+01	  0.038236473	1.736800E+01
93	  0.038436871	-7.228000E+00	  0.038436871	1.339800E+02	  0.038436871	2.259900E+01	  0.038436871	1.745600E+01
94	  0.038637273	-7.227000E+00	  0.038637273	1.337370E+02	  0.038637273	2.263100E+01	  0.038637273	1.755300E+01
95	  0.038837675	-7.228000E+00	  0.038837675	1.334990E+02	  0.038837675	2.266600E+01	  0.038837675	1.764800E+01
96	  0.039038073	-7.226000E+00	  0.039038073	1.332720E+02	  0.039038073	2.269300E+01	  0.039038073	1.774100E+01
97	  0.039238475	-7.228000E+00	  0.039238475	1.330390E+02	  0.039238475	2.273100E+01	  0.039238475	1.783200E+01
98	  0.039438877	-7.225000E+00	  0.039438877	1.327990E+02	  0.039438877	2.275800E+01	  0.039438877	1.793200E+01
99	  0.039639279	-7.226000E+00	  0.039639279	1.325570E+02	  0.039639279	2.279500E+01	  0.039639279	1.802800E+01
100	  0.039839678	-7.227000E+00	  0.039839678	1.323240E+02	  0.039839678	2.283100E+01	  0.039839678	1.812100E+01
101	  0.040040080	-7.223000E+00	  0.040040080	1.321050E+02	  0.040040080	2.285300E+01	  0.040040080	1.821300E+01
102	  0.040240481	-7.225000E+00	  0.040240481	1.318640E+02	  0.040240481	2.289300E+01	  0.040240481	1.830800E+01
103	  0.040440880	-7.222000E+00	  0.040440880	1.316260E+02	  0.040440880	2.291900E+01	  0.040440880	1.840700E+01
104	  0.040641282	-7.224000E+00	  0.040641282	1.313940E+02	  0.040641282	2.295900E+01	  0.040641282	1.849900E+01
105	  0.040841684	-7.222000E+00	  0.040841684	1.311810E+02	  0.040841684	2.298600E+01	  0.040841684	1.858600E+01
106	  0.041042086	-7.225000E+00	  0.041042086	1.309330E+02	  0.041042086	2.303000E+01	  0.041042086	1.868400E+01
107	  0.041242484	-7.225000E+00	  0.041242484	1.307070E+02	  0.041242484	2.306400E+01	  0.041242484	1.877600E+01
108	  0.041442886	-7.222000E+00	  0.041442886	1.304680E+02	  0.041442886	2.309200E+01	  0.041442886	1.887600E+01
109	  0.041643288	-7.220000E+00	  0.041643288	1.302230E+02	  0.041643288	2.312500E+01	  0.041643288	1.897700E+01
110	  0.041843686	-7.223000E+00	  0.041843686	1.300080E+02	  0.041843686	2.316700E+01	  0.041843686	1.906100E+01
111	  0.042044088	-7.220000E+00	  0.042044088	1.297800E+02	  0.042044088	2.319300E+01	  0.042044088	1.915700E+01
112	  0.042244490	-7.221000E+00	  0.042244490	1.295490E+02	  0.042244490	2.323000E+01	  0.042244490	1.925000E+01
113	  0.042444889	-7.219000E+00	  0.042444889	1.293220E+02	  0.042444889	2.326100E+01	  0.042444889	1.934500E+01
114	  0.042645290	-7.220000E+00	  0.042645290	1.290720E+02	  0.042645290	2.330300E+01	  0.042645290	1.944600E+01
115	  0.042845692	-7.219000E+00	  0.042845692	1.288470E+02	  0.042845692	2.333800E+01	  0.042845692	1.953700E+01
116	  0.043046094	-7.217000E+00	  0.043046094	1.286100E+02	  0.043046094	2.337000E+01	  0.043046094	1.963600E+01
117	  0.043246493	-7.218000E+00	  0.043246493	1.283760E+02	  0.043246493	2.340900E+01	  0.043246493	1.973200E+01
118	  0.043446895	-7.218000E+00	  0.043446895	1.281410E+02	  0.043446895	2.344800E+01	  0.043446895	1.982700E+01
119	  0.043647297	-7.217000E+00	  0.043647297	1.279120E+02	  0.043647297	2.348200E+01	  0.043647297	1.992200E+01
120	  0.043847695	-7.216000E+00	  0.043847695	1.276840E+02	  0.043847695	2.351700E+01	  0.043847695	2.001700E+01
121	  0.044048097	-7.215000E+00	  0.044048097	1.274440E+02	  0.044048097	2.355300E+01	  0.044048097	2.011700E+01
122	  0.044248499	-7.211000E+00	  0.044248499	1.272080E+02	  0.044248499	2.358300E+01	  0.044248499	2.021700E+01
123	  0.044448901	-7.214000E+00	  0.044448901	1.269840E+02	  0.044448901	2.362900E+01	  0.044448901	2.030600E+01
124	  0.044649299	-7.214000E+00	  0.044649299	1.267390E+02	  0.044649299	2.366800E+01	  0.044649299	2.040700E+01
125	  0.044849701	-7.216000E+00	  0.044849701	1.265060E+02	  0.044849701	2.371300E+01	  0.044849701	2.050100E+01
126	  0.045050103	-7.212000E+00	  0.045050103	1.262610E+02	  0.045050103	2.374300E+01	  0.045050103	2.060700E+01
127	  0.045250501	-7.212000E+00	  0.045250501	1.260290E+02	  0.045250501	2.378500E+01	  0.045250501	2.070100E+01
128	  0.045450903	-7.211000E+00	  0.045450903	1.257950E+02	  0.045450903	2.382300E+01	  0.045450903	2.079900E+01
129	  0.045651305	-7.210000E+00	  0.045651305	1.255670E+02	  0.045651305	2.385900E+01	  0.045651305	2.089400E+01
130	  0.045851704	-7.208000E+00	  0.045851704	1.253420E+02	  0.045851704	2.389200E+01	  0.045851704	2.099000E+01
131	  0.046052106	-7.211000E+00	  0.046052106	1.250830E+02	  0.046052106	2.394500E+01	  0.046052106	2.109400E+01
132	  0.046252504	-7.207000E+00	  0.046252504	1.248540E+02	  0.046252504	2.397600E+01	  0.046252504	2.119300E+01
133	  0.046452906	-7.209000E+00	  0.046452906	1.246170E+02	  0.046452906	2.402500E+01	  0.046452906	2.128800E+01
134	  0.046653304	-7.208000E+00	  0.046653304	1.243860E+02	  0.046653304	2.406100E+01	  0.046653304	2.138600E+01
135	  0.046853706	-7.207000E+00	  0.046853706	1.241490E+02	  0.046853706	2.410200E+01	  0.046853706	2.148600E+01
136	  0.047054108	-7.206000E+00	  0.047054108	1.239180E+02	  0.047054108	2.414100E+01	  0.047054108	2.158300E+01
137	  0.047254506	-7.205000E+00	  0.047254506	1.236700E+02	  0.047254506	2.418500E+01	  0.047254506	2.168700E+01
138	  0.047454908	-7.203000E+00	  0.047454908	1.234340E+02	  0.047454908	2.422000E+01	  0.047454908	2.178800E+01
139	  0.047655310	-7.203000E+00	  0.047655310	1.232000E+02	  0.047655310	2.426500E+01	  0.047655310	2.188500E+01
140	  0.047855709	-7.203000E+00	  0.047855709	1.229550E+02	  0.047855709	2.431000E+01	  0.047855709	2.198800E+01
141	  0.048056111	-7.201000E+00	  0.048056111	1.227290E+02	  0.048056111	2.434600E+01	  0.048056111	2.208500E+01
142	  0.048256513	-7.201000E+00	  0.048256513	1.224910E+02	  0.048256513	2.439100E+01	  0.048256513	2.218500E+01
143	  0.048456915	-7.200000E+00	  0.048456915	1.222560E+02	  0.048456915	2.443500E+01	  0.048456915	2.228300E+01
144	  0.048657313	-7.198000E+00	  0.048657313	1.220300E+02	  0.048657313	2.447100E+01	  0.048657313	2.238100E+01
145	  0.048857715	-7.195000E+00	  0.048857715	1.217850E+02	  0.048857715	2.451000E+01	  0.048857715	2.248800E+01
146	  0.049058117	-7.197000E+00	  0.049058117	1.215460E+02	  0.049058117	2.456100E+01	  0.049058117	2.258600E+01
147	  0.049258515	-7.195000E+00	  0.049258515	1.213240E+02	  0.049258515	2.460000E+01	  0.049258515	2.268100E+01
148	  0.049458917	-7.191000E+00	  0.049458917	1.210870E+02	  0.049458917	2.463500E+01	  0.049458917	2.278600E+01
149	  0.049659319	-7.192000E+00	  0.049659319	1.208480E+02	  0.049659319	2.468400E+01	  0.049659319	2.288500E+01
150	  0.049859721	-7.194000E+00	  0.049859721	1.206010E+02	  0.049859721	2.473900E+01	  0.049859721	2.298700E+01
151	  0.050060119	-7.192000E+00	  0.050060119	1.203880E+02	  0.050060119	2.477600E+01	  0.050060119	2.307900E+01
152	  0.050260521	-7.192000E+00	  0.050260521	1.201440E+02	  0.050260521	2.482500E+01	  0.050260521	2.318200E+01
153	  0.050460923	-7.189000E+00	  0.050460923	1.199320E+02	  0.050460923	2.486000E+01	  0.050460923	2.327600E+01
154	  0.050661322	-7.190000E+00	  0.050661322	1.196980E+02	  0.050661322	2.490800E+01	  0.050661322	2.337400E+01
155	  0.050861724	-7.188000E+00	  0.050861724	1.194620E+02	  0.050861724	2.495100E+01	  0.050861724	2.347700E+01
156	  0.051062126	-7.190000E+00	  0.051062126	1.192480E+02	  0.051062126	2.500000E+01	  0.051062126	2.356500E+01
157	  0.051262524	-7.186000E+00	  0.051262524	1.189880E+02	  0.051262524	2.504300E+01	  0.051262524	2.368100E+01
158	  0.051462926	-7.185000E+00	  0.051462926	1.187510E+02	  0.051462926	2.509000E+01	  0.051462926	2.378200E+01
159	  0.051663328	-7.184000E+00	  0.051663328	1.185290E+02	  0.051663328	2.513300E+01	  0.051663328	2.387800E+01
160	  0.051863730	-7.184000E+00	  0.051863730	1.182830E+02	  0.051863730	2.518600E+01	  0.051863730	2.398200E+01
161	  0.052064128	-7.183000E+00	  0.052064128	1.180610E+02	  0.052064128	2.522800E+01	  0.052064128	2.408000E+01
162	  0.052264530	-7.182000E+00	  0.052264530	1.178350E+02	  0.052264530	2.527300E+01	  0.052264530	2.417800E+01
163	  0.052464932	-7.178000E+00	  0.052464932	1.176000E+02	  0.052464932	2.531400E+01	  0.052464932	2.428200E+01
164	  0.052665330	-7.181000E+00	  0.052665330	1.173770E+02	  0.052665330	2.536800E+01	  0.052665330	2.437400E+01
165	  0.052865732	-7.178000E+00	  0.052865732	1.171320E+02	  0.052865732	2.541500E+01	  0.052865732	2.448300E+01
166	  0.053066134	-7.179000E+00	  0.053066134	1.169110E+02	  0.053066134	2.546600E+01	  0.053066134	2.457600E+01
167	  0.053266536	-7.176000E+00	  0.053266536	1.166580E+02	  0.053266536	2.551200E+01	  0.053266536	2.468900E+01
168	  0.053466935	-7.176000E+00	  0.053466935	1.164450E+02	  0.053466935	2.555900E+01	  0.053466935	2.478000E+01
169	  0.053667337	-7.174000E+00	  0.053667337	1.162030E+02	  0.053667337	2.560600E+01	  0.053667337	2.488800E+01
170	  0.053867739	-7.171000E+00	  0.053867739	1.159870E+02	  0.053867739	2.564700E+01	  0.053867739	2.498500E+01
171	  0.054068137	-7.171000E+00	  0.054068137	1.157610E+02	  0.054068137	2.569700E+01	  0.054068137	2.508300E+01
172	  0.054268539	-7.169000E+00	  0.054268539	1.155270E+02	  0.054268539	2.574500E+01	  0.054268539	2.518600E+01
173	  0.054468941	-7.168000E+00	  0.054468941	1.153080E+02	  0.054468941	2.579200E+01	  0.054468941	2.528100E+01
174	  0.054669339	-7.167000E+00	  0.054669339	1.150760E+02	  0.054669339	2.584300E+01	  0.054669339	2.538300E+01
175	  0.054869737	-7.168000E+00	  0.054869737	1.148400E+02	  0.054869737	2.589700E+01	  0.054869737	2.548500E+01
176	  0.055070139	-7.164000E+00	  0.055070139	1.146150E+02	  0.055070139	2.594000E+01	  0.055070139	2.558700E+01
177	  0.055270538	-7.165000E+00	  0.055270538	1.143930E+02	  0.055270538	2.599500E+01	  0.055270538	2.568200E+01
178	  0.055470940	-7.168000E+00	  0.055470940	1.141670E+02	  0.055470940	2.605600E+01	  0.055470940	2.577600E+01
179	  0.055671342	-7.165000E+00	  0.055671342	1.139430E+02	  0.055671342	2.609900E+01	  0.055671342	2.587800E+01
180	  0.055871744	-7.165000E+00	  0.055871744	1.136920E+02	  0.055871744	2.615700E+01	  0.055871744	2.598800E+01
181	  0.056072142	-7.162000E+00	  0.056072142	1.134760E+02	  0.056072142	2.620000E+01	  0.056072142	2.608600E+01
182	  0.056272544	-7.159000E+00	  0.056272544	1.132370E+02	  0.056272544	2.625000E+01	  0.056272544	2.619400E+01
183	  0.056472946	-7.160000E+00	  0.056472946	1.130150E+02	  0.056472946	2.630600E+01	  0.056472946	2.629000E+01
184	  0.056673344	-7.159000E+00	  0.056673344	1.127890E+02	  0.056673344	2.635900E+01	  0.056673344	2.638900E+01
185	  0.056873746	-7.158000E+00	  0.056873746	1.125530E+02	  0.056873746	2.641400E+01	  0.056873746	2.649400E+01
186	  0.057074148	-7.158000E+00	  0.057074148	1.123340E+02	  0.057074148	2.646600E+01	  0.057074148	2.659100E+01
187	  0.057274550	-7.157000E+00	  0.057274550	1.121090E+02	  0.057274550	2.651900E+01	  0.057274550	2.669000E+01
188	  0.057474948	-7.158000E+00	  0.057474948	1.118670E+02	  0.057474948	2.658100E+01	  0.057474948	2.679500E+01
189	  0.057675350	-7.156000E+00	  0.057675350	1.116430E+02	  0.057675350	2.663200E+01	  0.057675350	2.689600E+01
190	  0.057875752	-7.153000E+00	  0.057875752	1.114060E+02	  0.057875752	2.668400E+01	  0.057875752	2.700500E+01
191	  0.058076151	-7.155000E+00	  0.058076151	1.111860E+02	  0.058076151	2.674400E+01	  0.058076151	2.709900E+01
192	  0.058276553	-7.154000E+00	  0.058276553	1.109630E+02	  0.058276553	2.679700E+01	  0.058276553	2.719900E+01
193	  0.058476955	-7.151000E+00	  0.058476955	1.107350E+02	  0.058476955	2.684600E+01	  0.058476955	2.730400E+01
194	  0.058677353	-7.153000E+00	  0.058677353	1.104940E+02	  0.058677353	2.691400E+01	  0.058677353	2.740700E+01
195	  0.058877755	-7.152000E+00	  0.058877755	1.102910E+02	  0.058877755	2.696500E+01	  0.058877755	2.749700E+01
196	  0.059078157	-7.151000E+00	  0.059078157	1.100510E+02	  0.059078157	2.702500E+01	  0.059078157	2.760500E+01
197	  0.059278559	-7.149000E+00	  0.059278559	1.098180E+02	  0.059278559	2.707900E+01	  0.059278559	2.771200E+01
198	  0.059478957	-7.150000E+00	  0.059478957	1.095920E+02	  0.059478957	2.714200E+01	  0.059478957	2.781000E+01
199	  0.059679359	-7.150000E+00	  0.059679359	1.093720E+02	  0.059679359	2.719800E+01	  0.059679359	2.790900E+01
200	  0.059879761	-7.148000E+00	  0.059879761	1.091360E+02	  0.059879761	2.725700E+01	  0.059879761	2.801500E+01
201	  0.060080159	-7.149000E+00	  0.060080159	1.088940E+02	  0.060080159	2.732500E+01	  0.060080159	2.812100E+01
202	  0.060280561	-7.147000E+00	  0.060280561	1.086890E+02	  0.060280561	2.737400E+01	  0.060280561	2.821600E+01
203	  0.060480963	-7.146000E+00	  0.060480963	1.084660E+02	  0.060480963	2.742900E+01	  0.060480963	2.831800E+01
204	  0.060681365	-7.143000E+00	  0.060681365	1.082270E+02	  0.060681365	2.748600E+01	  0.060681365	2.842900E+01
205	  0.060881764	-7.143000E+00	  0.060881764	1.079940E+02	  0.060881764	2.755000E+01	  0.060881764	2.853300E+01
206	  0.061082166	-7.145000E+00	  0.061082166	1.077780E+02	  0.061082166	2.761400E+01	  0.061082166	2.862700E+01
207	  0.061282568	-7.141000E+00	  0.061282568	1.075460E+02	  0.061282568	2.766900E+01	  0.061282568	2.873600E+01
208	  0.061482966	-7.140000E+00	  0.061482966	1.073210E+02	  0.061482966	2.772800E+01	  0.061482966	2.883900E+01
209	  0.061683368	-7.138000E+00	  0.061683368	1.070970E+02	  0.061683368	2.778500E+01	  0.061683368	2.894200E+01
210	  0.061883770	-7.138000E+00	  0.061883770	1.068780E+02	  0.061883770	2.784500E+01	  0.061883770	2.904200E+01
211	  0.062084168	-7.135000E+00	  0.062084168	1.066440E+02	  0.062084168	2.790500E+01	  0.062084168	2.915100E+01
212	  0.062284570	-7.134000E+00	  0.062284570	1.064330E+02	  0.062284570	2.796100E+01	  0.062284570	2.924800E+01
213	  0.062484972	-7.122000E+00	  0.062484972	1.062920E+02	  0.062484972	2.796600E+01	  0.062484972	2.933400E+01
214	  0.062685370	-7.117000E+00	  0.062685370	1.060740E+02	  0.062685370	2.801400E+01	  0.062685370	2.944200E+01
215	  0.062885776	-7.116000E+00	  0.062885776	1.058540E+02	  0.062885776	2.807400E+01	  0.062885776	2.954300E+01
216	  0.063086174	-7.116000E+00	  0.063086174	1.056340E+02	  0.063086174	2.813700E+01	  0.063086174	2.964300E+01
217	  0.063286573	-7.119000E+00	  0.063286573	1.053980E+02	  0.063286573	2.821600E+01	  0.063286573	2.974200E+01
218	  0.063486971	-7.118000E+00	  0.063486971	1.051740E+02	  0.063486971	2.827600E+01	  0.063486971	2.984700E+01
219	  0.063687377	-7.114000E+00	  0.063687377	1.049240E+02	  0.063687377	2.834000E+01	  0.063687377	2.996800E+01
220	  0.063887775	-7.113000E+00	  0.063887775	1.047200E+02	  0.063887775	2.839600E+01	  0.063887775	3.006200E+01
221	  0.064088173	-7.113000E+00	  0.064088173	1.044830E+02	  0.064088173	2.846900E+01	  0.064088173	3.016800E+01
222	  0.064288579	-7.114000E+00	  0.064288579	1.042630E+02	  0.064288579	2.853700E+01	  0.064288579	3.026700E+01
223	  0.064488977	-7.110000E+00	  0.064488977	1.040540E+02	  0.064488977	2.859000E+01	  0.064488977	3.036900E+01
224	  0.064689375	-7.112000E+00	  0.064689375	1.037870E+02	  0.064689375	2.867600E+01	  0.064689375	3.048700E+01
225	  0.064889781	-7.111000E+00	  0.064889781	1.035860E+02	  0.064889781	2.873500E+01	  0.064889781	3.058100E+01
226	  0.065090179	-7.108000E+00	  0.065090179	1.033520E+02	  0.065090179	2.879800E+01	  0.065090179	3.069300E+01
227	  0.065290578	-7.107000E+00	  0.065290578	1.031280E+02	  0.065290578	2.886400E+01	  0.065290578	3.079700E+01
228	  0.065490983	-7.109000E+00	  0.065490983	1.029170E+02	  0.065490983	2.893400E+01	  0.065490983	3.089100E+01
229	  0.065691382	-7.106000E+00	  0.065691382	1.026840E+02	  0.065691382	2.900000E+01	  0.065691382	3.100300E+01
230	  0.065891780	-7.104000E+00	  0.065891780	1.024400E+02	  0.065891780	2.907000E+01	  0.065891780	3.111800E+01
231	  0.066092186	-7.106000E+00	  0.066092186	1.022370E+02	  0.066092186	2.914000E+01	  0.066092186	3.120800E+01
232	  0.066292584	-7.098000E+00	  0.066292584	1.019770E+02	  0.066292584	2.919800E+01	  0.066292584	3.134400E+01
233	  0.066492982	-7.101000E+00	  0.066492982	1.017550E+02	  0.066492982	2.927900E+01	  0.066492982	3.144000E+01
234	  0.066693388	-7.099000E+00	  0.066693388	1.015400E+02	  0.066693388	2.934300E+01	  0.066693388	3.154100E+01
235	  0.066893786	-7.098000E+00	  0.066893786	1.013120E+02	  0.066893786	2.941300E+01	  0.066893786	3.164900E+01
236	  0.067094192	-7.096000E+00	  0.067094192	1.010960E+02	  0.067094192	2.947800E+01	  0.067094192	3.175200E+01
237	  0.067294590	-7.094000E+00	  0.067294590	1.008610E+02	  0.067294590	2.954800E+01	  0.067294590	3.186500E+01
238	  0.067494988	-7.092000E+00	  0.067494988	1.006400E+02	  0.067494988	2.961600E+01	  0.067494988	3.197200E+01
239	  0.067695394	-7.092000E+00	  0.067695394	1.004080E+02	  0.067695394	2.969200E+01	  0.067695394	3.207900E+01
240	  0.067895792	-7.090000E+00	  0.067895792	1.002030E+02	  0.067895792	2.975400E+01	  0.067895792	3.217900E+01
241	  0.068096191	-7.090000E+00	  0.068096191	9.996300E+01	  0.068096191	2.983600E+01	  0.068096191	3.228900E+01
242	  0.068296596	-7.090000E+00	  0.068296596	9.975000E+01	  0.068296596	2.990600E+01	  0.068296596	3.238800E+01
243	  0.068496995	-7.085000E+00	  0.068496995	9.950900E+01	  0.068496995	2.997400E+01	  0.068496995	3.251000E+01
244	  0.068697393	-7.089000E+00	  0.068697393	9.929000E+01	  0.068697393	3.006000E+01	  0.068697393	3.260300E+01
245	  0.068897791	-7.084000E+00	  0.068897791	9.907000E+01	  0.068897791	3.012200E+01	  0.068897791	3.271600E+01
246	  0.069098189	-7.084000E+00	  0.069098189	9.884300E+01	  0.069098189	3.019900E+01	  0.069098189	3.282200E+01
247	  0.069298595	-7.082000E+00	  0.069298595	9.860900E+01	  0.069298595	3.027500E+01	  0.069298595	3.293500E+01
248	  0.069498993	-7.085000E+00	  0.069498993	9.838800E+01	  0.069498993	3.036100E+01	  0.069498993	3.303100E+01
249	  0.069699399	-7.083000E+00	  0.069699399	9.816700E+01	  0.069699399	3.043200E+01	  0.069699399	3.313900E+01
250	  0.069899797	-7.083000E+00	  0.069899797	9.794300E+01	  0.069899797	3.051000E+01	  0.069899797	3.324400E+01
251	  0.070100196	-7.082000E+00	  0.070100196	9.770700E+01	  0.070100196	3.059100E+01	  0.070100196	3.335700E+01
252	  0.070300601	-7.080000E+00	  0.070300601	9.747100E+01	  0.070300601	3.067100E+01	  0.070300601	3.347100E+01
253	  0.070501000	-7.079000E+00	  0.070501000	9.726300E+01	  0.070501000	3.074000E+01	  0.070501000	3.357200E+01
254	  0.070701398	-7.077000E+00	  0.070701398	9.702900E+01	  0.070701398	3.081800E+01	  0.070701398	3.368600E+01
255	  0.070901804	-7.077000E+00	  0.070901804	9.681300E+01	  0.070901804	3.089800E+01	  0.070901804	3.378700E+01
256	  0.071102202	-7.076000E+00	  0.071102202	9.659300E+01	  0.071102202	3.097500E+01	  0.071102202	3.389300E+01
257	  0.071302600	-7.075000E+00	  0.071302600	9.636400E+01	  0.071302600	3.105500E+01	  0.071302600	3.400400E+01
258	  0.071503006	-7.075000E+00	  0.071503006	9.612800E+01	  0.071503006	3.114300E+01	  0.071503006	3.411400E+01
259	  0.071703404	-7.074000E+00	  0.071703404	9.589100E+01	  0.071703404	3.122800E+01	  0.071703404	3.422800E+01
260	  0.071903802	-7.072000E+00	  0.071903802	9.568700E+01	  0.071903802	3.130000E+01	  0.071903802	3.432800E+01
261	  0.072104208	-7.069000E+00	  0.072104208	9.545600E+01	  0.072104208	3.137700E+01	  0.072104208	3.444400E+01
262	  0.072304606	-7.068000E+00	  0.072304606	9.524500E+01	  0.072304606	3.145300E+01	  0.072304606	3.454700E+01
263	  0.072505005	-7.068000E+00	  0.072505005	9.502000E+01	  0.072505005	3.153800E+01	  0.072505005	3.465400E+01
264	  0.072705410	-7.065000E+00	  0.072705410	9.479300E+01	  0.072705410	3.161600E+01	  0.072705410	3.476800E+01
265	  0.072905809	-7.066000E+00	  0.072905809	9.454600E+01	  0.072905809	3.171600E+01	  0.072905809	3.488100E+01
266	  0.073106214	-7.064000E+00	  0.073106214	9.434100E+01	  0.073106214	3.178700E+01	  0.073106214	3.498500E+01
267	  0.073306613	-7.063000E+00	  0.073306613	9.412100E+01	  0.073306613	3.187100E+01	  0.073306613	3.509000E+01
268	  0.073507011	-7.062000E+00	  0.073507011	9.390200E+01	  0.073507011	3.195100E+01	  0.073507011	3.519900E+01
269	  0.073707417	-7.061000E+00	  0.073707417	9.366900E+01	  0.073707417	3.204200E+01	  0.073707417	3.531000E+01
270	  0.073907815	-7.061000E+00	  0.073907815	9.344000E+01	  0.073907815	3.213200E+01	  0.073907815	3.541900E+01
271	  0.074108213	-7.062000E+00	  0.074108213	9.323600E+01	  0.074108213	3.221600E+01	  0.074108213	3.551400E+01
272	  0.074308619	-7.062000E+00	  0.074308619	9.300300E+01	  0.074308619	3.230900E+01	  0.074308619	3.562500E+01
273	  0.074509017	-7.058000E+00	  0.074509017	9.275500E+01	  0.074509017	3.239800E+01	  0.074509017	3.575200E+01
274	  0.074709415	-7.051000E+00	  0.074709415	9.255600E+01	  0.074709415	3.245500E+01	  0.074709415	3.586700E+01
275	  0.074909821	-7.054000E+00	  0.074909821	9.232300E+01	  0.074909821	3.256100E+01	  0.074909821	3.596900E+01
276	  0.075110219	-7.053000E+00	  0.075110219	9.209700E+01	  0.075110219	3.265000E+01	  0.075110219	3.608000E+01
277	  0.075310618	-7.051000E+00	  0.075310618	9.189000E+01	  0.075310618	3.272900E+01	  0.075310618	3.618400E+01
278	  0.075511023	-7.050000E+00	  0.075511023	9.164400E+01	  0.075511023	3.282800E+01	  0.075511023	3.630500E+01
279	  0.075711422	-7.050000E+00	  0.075711422	9.142400E+01	  0.075711422	3.292000E+01	  0.075711422	3.641000E+01
280	  0.075911827	-7.049000E+00	  0.075911827	9.119800E+01	  0.075911827	3.301100E+01	  0.075911827	3.652200E+01
281	  0.076112226	-7.049000E+00	  0.076112226	9.098800E+01	  0.076112226	3.309800E+01	  0.076112226	3.662300E+01
282	  0.076312624	-7.046000E+00	  0.076312624	9.077200E+01	  0.076312624	3.318200E+01	  0.076312624	3.673400E+01
283	  0.076513030	-7.047000E+00	  0.076513030	9.053600E+01	  0.076513030	3.328500E+01	  0.076513030	3.684500E+01
284	  0.076713428	-7.044000E+00	  0.076713428	9.029300E+01	  0.076713428	3.338000E+01	  0.076713428	3.697000E+01
285	  0.076913826	-7.047000E+00	  0.076913826	9.006100E+01	  0.076913826	3.348900E+01	  0.076913826	3.707400E+01
286	  0.077114232	-7.042000E+00	  0.077114232	8.985200E+01	  0.077114232	3.356400E+01	  0.077114232	3.718800E+01
287	  0.077314630	-7.042000E+00	  0.077314630	8.963800E+01	  0.077314630	3.365900E+01	  0.077314630	3.729000E+01
288	  0.077515028	-7.037000E+00	  0.077515028	8.941900E+01	  0.077515028	3.374000E+01	  0.077515028	3.740900E+01
289	  0.077715434	-7.038000E+00	  0.077715434	8.919200E+01	  0.077715434	3.384200E+01	  0.077715434	3.751600E+01
290	  0.077915832	-7.037000E+00	  0.077915832	8.895400E+01	  0.077915832	3.394500E+01	  0.077915832	3.763400E+01
291	  0.078116231	-7.037000E+00	  0.078116231	8.873400E+01	  0.078116231	3.404400E+01	  0.078116231	3.774000E+01
292	  0.078316636	-7.041000E+00	  0.078316636	8.850400E+01	  0.078316636	3.415900E+01	  0.078316636	3.784100E+01
293	  0.078517035	-7.040000E+00	  0.078517035	8.826300E+01	  0.078517035	3.426500E+01	  0.078517035	3.796000E+01
294	  0.078717433	-7.036000E+00	  0.078717433	8.806000E+01	  0.078717433	3.434500E+01	  0.078717433	3.806900E+01
295	  0.078917839	-7.036000E+00	  0.078917839	8.781200E+01	  0.078917839	3.445700E+01	  0.078917839	3.819000E+01
296	  0.079118237	-7.033000E+00	  0.079118237	8.758800E+01	  0.079118237	3.455300E+01	  0.079118237	3.830600E+01
297	  0.079318643	-7.032000E+00	  0.079318643	8.737200E+01	  0.079318643	3.464900E+01	  0.079318643	3.841500E+01
298	  0.079519041	-7.032000E+00	  0.079519041	8.715300E+01	  0.079519041	3.475000E+01	  0.079519041	3.852100E+01
299	  0.079719439	-7.032000E+00	  0.079719439	8.691400E+01	  0.079719439	3.486200E+01	  0.079719439	3.863800E+01
300	  0.079919845	-7.030000E+00	  0.079919845	8.670100E+01	  0.079919845	3.495700E+01	  0.079919845	3.874600E+01
301	  0.080120243	-7.031000E+00	  0.080120243	8.648700E+01	  0.080120243	3.506100E+01	  0.080120243	3.884700E+01
302	  0.080320641	-7.027000E+00	  0.080320641	8.625600E+01	  0.080320641	3.515800E+01	  0.080320641	3.897200E+01
303	  0.080521047	-7.025000E+00	  0.080521047	8.605800E+01	  0.080521047	3.524900E+01	  0.080521047	3.907200E+01
304	  0.080721445	-7.029000E+00	  0.080721445	8.580500E+01	  0.080721445	3.538300E+01	  0.080721445	3.918400E+01
305	  0.080921844	-7.027000E+00	  0.080921844	8.558100E+01	  0.080921844	3.548500E+01	  0.080921844	3.929900E+01
306	  0.081122249	-7.025000E+00	  0.081122249	8.537000E+01	  0.081122249	3.558200E+01	  0.081122249	3.940800E+01
307	  0.081322648	-7.021000E+00	  0.081322648	8.514100E+01	  0.081322648	3.568200E+01	  0.081322648	3.953200E+01
308	  0.081523046	-7.022000E+00	  0.081523046	8.492000E+01	  0.081523046	3.579500E+01	  0.081523046	3.963500E+01
309	  0.081723452	-7.023000E+00	  0.081723452	8.469600E+01	  0.081723452	3.590800E+01	  0.081723452	3.974300E+01
310	  0.081923850	-7.019000E+00	  0.081923850	8.448200E+01	  0.081923850	3.600300E+01	  0.081923850	3.985900E+01
311	  0.082124248	-7.020000E+00	  0.082124248	8.425000E+01	  0.082124248	3.612300E+01	  0.082124248	3.996900E+01
312	  0.082324654	-7.018000E+00	  0.082324654	8.401900E+01	  0.082324654	3.623200E+01	  0.082324654	4.009000E+01
313	  0.082525052	-7.017000E+00	  0.082525052	8.382100E+01	  0.082525052	3.632900E+01	  0.082525052	4.019000E+01
314	  0.082725458	-7.017000E+00	  0.082725458	8.357900E+01	  0.082725458	3.645500E+01	  0.082725458	4.030600E+01
315	  0.082925856	-7.017000E+00	  0.082925856	8.335700E+01	  0.082925856	3.656800E+01	  0.082925856	4.041500E+01
316	  0.083126254	-7.017000E+00	  0.083126254	8.313300E+01	  0.083126254	3.668500E+01	  0.083126254	4.052400E+01
317	  0.083326660	-7.014000E+00	  0.083326660	8.291600E+01	  0.083326660	3.678800E+01	  0.083326660	4.063900E+01
318	  0.083527058	-7.016000E+00	  0.083527058	8.269900E+01	  0.083527058	3.690700E+01	  0.083527058	4.073900E+01
319	  0.083727457	-7.014000E+00	  0.083727457	8.245600E+01	  0.083727457	3.702700E+01	  0.083727457	4.086700E+01
320	  0.083927862	-7.014000E+00	  0.083927862	8.223300E+01	  0.083927862	3.714700E+01	  0.083927862	4.097300E+01
321	  0.084128261	-7.014000E+00	  0.084128261	8.202300E+01	  0.084128261	3.726000E+01	  0.084128261	4.107600E+01
322	  0.084328659	-7.012000E+00	  0.084328659	8.179800E+01	  0.084328659	3.737200E+01	  0.084328659	4.119400E+01
323	  0.084529065	-7.014000E+00	  0.084529065	8.158300E+01	  0.084529065	3.749500E+01	  0.084529065	4.129200E+01
324	  0.084729463	-7.011000E+00	  0.084729463	8.136800E+01	  0.084729463	3.760300E+01	  0.084729463	4.140700E+01
325	  0.084929861	-7.009000E+00	  0.084929861	8.112800E+01	  0.084929861	3.772600E+01	  0.084929861	4.153200E+01
326	  0.085130267	-7.007000E+00	  0.085130267	8.090400E+01	  0.085130267	3.784300E+01	  0.085130267	4.164900E+01
327	  0.085330658	-7.010000E+00	  0.085330658	8.068200E+01	  0.085330658	3.797400E+01	  0.085330658	4.174800E+01
328	  0.085531056	-7.007000E+00	  0.085531056	8.046700E+01	  0.085531056	3.808300E+01	  0.085531056	4.186400E+01
329	  0.085731462	-7.007000E+00	  0.085731462	8.025800E+01	  0.085731462	3.820000E+01	  0.085731462	4.196700E+01
330	  0.085931860	-7.002000E+00	  0.085931860	8.001300E+01	  0.085931860	3.832100E+01	  0.085931860	4.210500E+01
331	  0.086132258	-7.005000E+00	  0.086132258	7.979500E+01	  0.086132258	3.845400E+01	  0.086132258	4.220000E+01
332	  0.086332664	-7.003000E+00	  0.086332664	7.957200E+01	  0.086332664	3.857600E+01	  0.086332664	4.231500E+01
333	  0.086533062	-7.005000E+00	  0.086533062	7.935600E+01	  0.086533062	3.870600E+01	  0.086533062	4.241400E+01
334	  0.086733460	-7.002000E+00	  0.086733460	7.912400E+01	  0.086733460	3.883000E+01	  0.086733460	4.253800E+01
335	  0.086933866	-7.004000E+00	  0.086933866	7.891300E+01	  0.086933866	3.895800E+01	  0.086933866	4.263300E+01
336	  0.087134264	-7.004000E+00	  0.087134264	7.868900E+01	  0.087134264	3.908600E+01	  0.087134264	4.274500E+01
337	  0.087334670	-7.004000E+00	  0.087334670	7.846300E+01	  0.087334670	3.922000E+01	  0.087334670	4.285400E+01
338	  0.087535068	-7.001000E+00	  0.087535068	7.824600E+01	  0.087535068	3.933900E+01	  0.087535068	4.297000E+01
339	  0.087735467	-6.997000E+00	  0.087735467	7.801900E+01	  0.087735467	3.945800E+01	  0.087735467	4.309900E+01
340	  0.087935872	-7.000000E+00	  0.087935872	7.781500E+01	  0.087935872	3.959000E+01	  0.087935872	4.318600E+01
341	  0.088136271	-7.002000E+00	  0.088136271	7.756800E+01	  0.088136271	3.974600E+01	  0.088136271	4.329600E+01
342	  0.088336669	-6.999000E+00	  0.088336669	7.736700E+01	  0.088336669	3.985500E+01	  0.088336669	4.341000E+01
343	  0.088537075	-7.000000E+00	  0.088537075	7.713100E+01	  0.088537075	4.000100E+01	  0.088537075	4.352200E+01
344	  0.088737473	-7.000000E+00	  0.088737473	7.692800E+01	  0.088737473	4.012600E+01	  0.088737473	4.361900E+01
345	  0.088937871	-6.997000E+00	  0.088937871	7.669600E+01	  0.088937871	4.025700E+01	  0.088937871	4.374500E+01
346	  0.089138277	-6.998000E+00	  0.089138277	7.648800E+01	  0.089138277	4.039100E+01	  0.089138277	4.383900E+01
347	  0.089338675	-6.995000E+00	  0.089338675	7.625800E+01	  0.089338675	4.052300E+01	  0.089338675	4.396500E+01
348	  0.089539073	-6.999000E+00	  0.089539073	7.603900E+01	  0.089539073	4.067200E+01	  0.089539073	4.405600E+01
349	  0.089739479	-6.997000E+00	  0.089739479	7.581200E+01	  0.089739479	4.080800E+01	  0.089739479	4.417500E+01
350	  0.089939877	-6.996000E+00	  0.089939877	7.558500E+01	  0.089939877	4.094700E+01	  0.089939877	4.429100E+01
351	  0.090140276	-6.999000E+00	  0.090140276	7.537500E+01	  0.090140276	4.109200E+01	  0.090140276	4.437700E+01
352	  0.090340681	-6.997000E+00	  0.090340681	7.514800E+01	  0.090340681	4.122900E+01	  0.090340681	4.449700E+01
353	  0.090541080	-6.997000E+00	  0.090541080	7.492800E+01	  0.090541080	4.137200E+01	  0.090541080	4.460200E+01
354	  0.090741485	-6.994000E+00	  0.090741485	7.471400E+01	  0.090741485	4.150100E+01	  0.090741485	4.471900E+01
355	  0.090941884	-6.997000E+00	  0.090941884	7.448200E+01	  0.090941884	4.165900E+01	  0.090941884	4.482000E+01
356	  0.091142282	-6.993000E+00	  0.091142282	7.425600E+01	  0.091142282	4.179500E+01	  0.091142282	4.494700E+01
357	  0.091342688	-6.993000E+00	  0.091342688	7.403200E+01	  0.091342688	4.194300E+01	  0.091342688	4.505300E+01
358	  0.091543086	-6.993000E+00	  0.091543086	7.379400E+01	  0.091543086	4.210100E+01	  0.091543086	4.516900E+01
359	  0.091743484	-6.992000E+00	  0.091743484	7.358200E+01	  0.091743484	4.223700E+01	  0.091743484	4.527800E+01
360	  0.091943890	-6.990000E+00	  0.091943890	7.337200E+01	  0.091943890	4.237200E+01	  0.091943890	4.538700E+01
361	  0.092144288	-6.989000E+00	  0.092144288	7.314900E+01	  0.092144288	4.251900E+01	  0.092144288	4.549900E+01
362	  0.092344686	-6.992000E+00	  0.092344686	7.291600E+01	  0.092344686	4.268700E+01	  0.092344686	4.559800E+01
363	  0.092545092	-6.993000E+00	  0.092545092	7.271200E+01	  0.092545092	4.282900E+01	  0.092545092	4.569000E+01
364	  0.092745490	-6.990000E+00	  0.092745490	7.247300E+01	  0.092745490	4.298300E+01	  0.092745490	4.581900E+01
365	  0.092945889	-6.990000E+00	  0.092945889	7.225300E+01	  0.092945889	4.313500E+01	  0.092945889	4.592400E+01
366	  0.093146294	-6.988000E+00	  0.093146294	7.204700E+01	  0.093146294	4.327100E+01	  0.093146294	4.603300E+01
367	  0.093346693	-6.989000E+00	  0.093346693	7.180500E+01	  0.093346693	4.344400E+01	  0.093346693	4.614300E+01
368	  0.093547091	-6.986000E+00	  0.093547091	7.157900E+01	  0.093547091	4.359100E+01	  0.093547091	4.626800E+01
369	  0.093747497	-6.986000E+00	  0.093747497	7.136700E+01	  0.093747497	4.374300E+01	  0.093747497	4.636600E+01
370	  0.093947895	-6.985000E+00	  0.093947895	7.116100E+01	  0.093947895	4.388500E+01	  0.093947895	4.647000E+01
371	  0.094148301	-6.982000E+00	  0.094148301	7.094100E+01	  0.094148301	4.403200E+01	  0.094148301	4.658900E+01
372	  0.094348699	-6.983000E+00	  0.094348699	7.070600E+01	  0.094348699	4.420400E+01	  0.094348699	4.669800E+01
373	  0.094549097	-6.981000E+00	  0.094549097	7.048300E+01	  0.094549097	4.436000E+01	  0.094549097	4.681200E+01
374	  0.094749503	-6.982000E+00	  0.094749503	7.025100E+01	  0.094749503	4.453000E+01	  0.094749503	4.691900E+01
375	  0.094949901	-6.980000E+00	  0.094949901	7.004500E+01	  0.094949901	4.467500E+01	  0.094949901	4.702600E+01
376	  0.095150299	-6.978000E+00	  0.095150299	6.982600E+01	  0.095150299	4.483000E+01	  0.095150299	4.713800E+01
377	  0.095350705	-6.979000E+00	  0.095350705	6.960400E+01	  0.095350705	4.499800E+01	  0.095350705	4.723900E+01
378	  0.095551103	-6.976000E+00	  0.095551103	6.936800E+01	  0.095551103	4.516500E+01	  0.095551103	4.736200E+01
379	  0.095751502	-6.976000E+00	  0.095751502	6.914400E+01	  0.095751502	4.533300E+01	  0.095751502	4.746800E+01
380	  0.095951907	-6.975000E+00	  0.095951907	6.893200E+01	  0.095951907	4.548700E+01	  0.095951907	4.757700E+01
381	  0.096152306	-6.975000E+00	  0.096152306	6.871500E+01	  0.096152306	4.565300E+01	  0.096152306	4.767700E+01
382	  0.096352704	-6.973000E+00	  0.096352704	6.849400E+01	  0.096352704	4.581600E+01	  0.096352704	4.778800E+01
383	  0.096553110	-6.972000E+00	  0.096553110	6.826600E+01	  0.096553110	4.598500E+01	  0.096553110	4.790400E+01
384	  0.096753508	-6.971000E+00	  0.096753508	6.803700E+01	  0.096753508	4.616200E+01	  0.096753508	4.801300E+01
385	  0.096953906	-6.968000E+00	  0.096953906	6.781900E+01	  0.096953906	4.632100E+01	  0.096953906	4.813100E+01
386	  0.097154312	-6.970000E+00	  0.097154312	6.760300E+01	  0.097154312	4.649500E+01	  0.097154312	4.822300E+01
387	  0.097354710	-6.971000E+00	  0.097354710	6.739200E+01	  0.097354710	4.666500E+01	  0.097354710	4.831400E+01
388	  0.097555116	-6.966000E+00	  0.097555116	6.715900E+01	  0.097555116	4.683400E+01	  0.097555116	4.844700E+01
389	  0.097755514	-6.964000E+00	  0.097755514	6.694800E+01	  0.097755514	4.699500E+01	  0.097755514	4.855500E+01
390	  0.097955912	-6.965000E+00	  0.097955912	6.672200E+01	  0.097955912	4.717900E+01	  0.097955912	4.865400E+01
391	  0.098156318	-6.963000E+00	  0.098156318	6.649200E+01	  0.098156318	4.735700E+01	  0.098156318	4.877000E+01
392	  0.098356716	-6.964000E+00	  0.098356716	6.626700E+01	  0.098356716	4.754200E+01	  0.098356716	4.887000E+01
393	  0.098557115	-6.962000E+00	  0.098557115	6.606700E+01	  0.098557115	4.769900E+01	  0.098557115	4.897200E+01
394	  0.098757520	-6.962000E+00	  0.098757520	6.582200E+01	  0.098757520	4.789800E+01	  0.098757520	4.908600E+01
395	  0.098957919	-6.962000E+00	  0.098957919	6.562900E+01	  0.098957919	4.805600E+01	  0.098957919	4.917500E+01
396	  0.099158317	-6.958000E+00	  0.099158317	6.542100E+01	  0.099158317	4.821900E+01	  0.099158317	4.928700E+01
397	  0.099358723	-6.959000E+00	  0.099358723	6.517100E+01	  0.099358723	4.842700E+01	  0.099358723	4.939900E+01
398	  0.099559121	-6.955000E+00	  0.099559121	6.496400E+01	  0.099559121	4.858900E+01	  0.099559121	4.951400E+01
399	  0.099759519	-6.954000E+00	  0.099759519	6.473400E+01	  0.099759519	4.878000E+01	  0.099759519	4.962200E+01
400	  0.099959925	-6.953000E+00	  0.099959925	6.456200E+01	  0.099959925	4.892400E+01	  0.099959925	4.970300E+01
401	  0.100160323	-6.953000E+00	  0.100160323	6.433200E+01	  0.100160323	4.911900E+01	  0.100160323	4.980800E+01
402	  0.100360721	-6.948000E+00	  0.100360721	6.409800E+01	  0.100360721	4.930500E+01	  0.100360721	4.994000E+01
403	  0.100561127	-6.946000E+00	  0.100561127	6.385200E+01	  0.100561127	4.951200E+01	  0.100561127	5.006100E+01
404	  0.100761525	-6.946000E+00	  0.100761525	6.369700E+01	  0.100761525	4.964600E+01	  0.100761525	5.013000E+01
405	  0.100961931	-6.943000E+00	  0.100961931	6.343100E+01	  0.100961931	4.986800E+01	  0.100961931	5.026900E+01
406	  0.101162329	-6.945000E+00	  0.101162329	6.323500E+01	  0.101162329	5.004700E+01	  0.101162329	5.034000E+01
407	  0.101362728	-6.942000E+00	  0.101362728	6.301600E+01	  0.101362728	5.022900E+01	  0.101362728	5.045900E+01
408	  0.101563133	-6.943000E+00	  0.101563133	6.280100E+01	  0.101563133	5.042400E+01	  0.101563133	5.054700E+01
409	  0.101763532	-6.940000E+00	  0.101763532	6.261300E+01	  0.101763532	5.058500E+01	  0.101763532	5.064300E+01
410	  0.101963930	-6.942000E+00	  0.101963930	6.236700E+01	  0.101963930	5.081000E+01	  0.101963930	5.074000E+01
411	  0.102164336	-6.945000E+00	  0.102164336	6.214300E+01	  0.102164336	5.102000E+01	  0.102164336	5.082000E+01
412	  0.102364734	-6.940000E+00	  0.102364734	6.195900E+01	  0.102364734	5.117300E+01	  0.102364734	5.093000E+01
413	  0.102565132	-6.938000E+00	  0.102565132	6.171200E+01	  0.102565132	5.139200E+01	  0.102565132	5.105000E+01
414	  0.102765530	-6.938000E+00	  0.102765530	6.150300E+01	  0.102765530	5.158600E+01	  0.102765530	5.113600E+01
415	  0.102965929	-6.938000E+00	  0.102965929	6.130100E+01	  0.102965929	5.177300E+01	  0.102965929	5.122100E+01
416	  0.103166327	-6.933000E+00	  0.103166327	6.105800E+01	  0.103166327	5.198400E+01	  0.103166327	5.135600E+01
417	  0.103366733	-6.938000E+00	  0.103366733	6.084800E+01	  0.103366733	5.219200E+01	  0.103366733	5.141900E+01
418	  0.103567131	-6.937000E+00	  0.103567131	6.062100E+01	  0.103567131	5.240300E+01	  0.103567131	5.152000E+01
419	  0.103767529	-6.938000E+00	  0.103767529	6.039700E+01	  0.103767529	5.261700E+01	  0.103767529	5.160800E+01
420	  0.103967935	-6.935000E+00	  0.103967935	6.015700E+01	  0.103967935	5.283700E+01	  0.103967935	5.172600E+01
421	  0.104168333	-6.936000E+00	  0.104168333	5.997100E+01	  0.104168333	5.301800E+01	  0.104168333	5.179600E+01
422	  0.104368731	-6.934000E+00	  0.104368731	5.975100E+01	  0.104368731	5.322600E+01	  0.104368731	5.189800E+01
423	  0.104569137	-6.932000E+00	  0.104569137	5.956400E+01	  0.104569137	5.339900E+01	  0.104569137	5.199000E+01
424	  0.104769535	-6.934000E+00	  0.104769535	5.931800E+01	  0.104769535	5.364400E+01	  0.104769535	5.208000E+01
425	  0.104969934	-6.932000E+00	  0.104969934	5.909200E+01	  0.104969934	5.386100E+01	  0.104969934	5.217800E+01
426	  0.105170339	-6.932000E+00	  0.105170339	5.885400E+01	  0.105170339	5.409400E+01	  0.105170339	5.227700E+01
427	  0.105370738	-6.931000E+00	  0.105370738	5.863800E+01	  0.105370738	5.430600E+01	  0.105370738	5.237200E+01
428	  0.105571143	-6.929000E+00	  0.105571143	5.844700E+01	  0.105571143	5.449000E+01	  0.105571143	5.246100E+01
429	  0.105771542	-6.930000E+00	  0.105771542	5.822800E+01	  0.105771542	5.471300E+01	  0.105771542	5.254000E+01
430	  0.105971940	-6.927000E+00	  0.105971940	5.800300E+01	  0.105971940	5.493100E+01	  0.105971940	5.264800E+01
431	  0.106172346	-6.924000E+00	  0.106172346	5.779500E+01	  0.106172346	5.513300E+01	  0.106172346	5.275200E+01
432	  0.106372744	-6.922000E+00	  0.106372744	5.757000E+01	  0.106372744	5.535700E+01	  0.106372744	5.285300E+01
433	  0.106573142	-6.926000E+00	  0.106573142	5.735700E+01	  0.106573142	5.558600E+01	  0.106573142	5.290900E+01
434	  0.106773548	-6.925000E+00	  0.106773548	5.714200E+01	  0.106773548	5.580500E+01	  0.106773548	5.299800E+01
435	  0.106973946	-6.924000E+00	  0.106973946	5.693800E+01	  0.106973946	5.601400E+01	  0.106973946	5.308100E+01
436	  0.107174344	-6.922000E+00	  0.107174344	5.671000E+01	  0.107174344	5.624600E+01	  0.107174344	5.318400E+01
437	  0.107374750	-6.921000E+00	  0.107374750	5.649400E+01	  0.107374750	5.646900E+01	  0.107374750	5.327300E+01
438	  0.107575148	-6.919000E+00	  0.107575148	5.624200E+01	  0.107575148	5.673200E+01	  0.107575148	5.337500E+01
439	  0.107775547	-6.921000E+00	  0.107775547	5.605300E+01	  0.107775547	5.693400E+01	  0.107775547	5.343700E+01
440	  0.107975952	-6.920000E+00	  0.107975952	5.585900E+01	  0.107975952	5.714000E+01	  0.107975952	5.351300E+01
441	  0.108176351	-6.919000E+00	  0.108176351	5.561400E+01	  0.108176351	5.740100E+01	  0.108176351	5.360600E+01
442	  0.108376749	-6.915000E+00	  0.108376749	5.537800E+01	  0.108376749	5.764300E+01	  0.108376749	5.372500E+01
443	  0.108577155	-6.914000E+00	  0.108577155	5.517100E+01	  0.108577155	5.786600E+01	  0.108577155	5.380400E+01
444	  0.108777553	-6.914000E+00	  0.108777553	5.497200E+01	  0.108777553	5.808300E+01	  0.108777553	5.387200E+01
445	  0.108977959	-6.911000E+00	  0.108977959	5.474100E+01	  0.108977959	5.832900E+01	  0.108977959	5.397700E+01
446	  0.109178357	-6.912000E+00	  0.109178357	5.452600E+01	  0.109178357	5.856900E+01	  0.109178357	5.404700E+01
447	  0.109378755	-6.908000E+00	  0.109378755	5.432600E+01	  0.109378755	5.878100E+01	  0.109378755	5.414100E+01
448	  0.109579161	-6.910000E+00	  0.109579161	5.406900E+01	  0.109579161	5.907300E+01	  0.109579161	5.421400E+01
449	  0.109779559	-6.907000E+00	  0.109779559	5.389300E+01	  0.109779559	5.926300E+01	  0.109779559	5.429700E+01
450	  0.109979957	-6.906000E+00	  0.109979957	5.364900E+01	  0.109979957	5.953600E+01	  0.109979957	5.438500E+01
451	  0.110180363	-6.909000E+00	  0.110180363	5.342400E+01	  0.110180363	5.979600E+01	  0.110180363	5.444300E+01
452	  0.110380761	-6.906000E+00	  0.110380761	5.319800E+01	  0.110380761	6.004700E+01	  0.110380761	5.454100E+01
453	  0.110581160	-6.905000E+00	  0.110581160	5.300200E+01	  0.110581160	6.026900E+01	  0.110581160	5.461200E+01
454	  0.110781565	-6.904000E+00	  0.110781565	5.280600E+01	  0.110781565	6.049300E+01	  0.110781565	5.468100E+01
455	  0.110981964	-6.907000E+00	  0.110981964	5.256600E+01	  0.110981964	6.077800E+01	  0.110981964	5.473200E+01
456	  0.111182362	-6.899000E+00	  0.111182362	5.234900E+01	  0.111182362	6.101500E+01	  0.111182362	5.486100E+01
457	  0.111382768	-6.902000E+00	  0.111382768	5.214900E+01	  0.111382768	6.125500E+01	  0.111382768	5.490100E+01
458	  0.111583166	-6.901000E+00	  0.111583166	5.190000E+01	  0.111583166	6.154600E+01	  0.111583166	5.498600E+01
459	  0.111783572	-6.900000E+00	  0.111783572	5.171700E+01	  0.111783572	6.176200E+01	  0.111783572	5.504400E+01
460	  0.111983970	-6.899000E+00	  0.111983970	5.149200E+01	  0.111983970	6.202600E+01	  0.111983970	5.512000E+01
461	  0.112184368	-6.900000E+00	  0.112184368	5.127800E+01	  0.112184368	6.228400E+01	  0.112184368	5.517900E+01
462	  0.112384774	-6.900000E+00	  0.112384774	5.103800E+01	  0.112384774	6.257400E+01	  0.112384774	5.524400E+01
463	  0.112585172	-6.897000E+00	  0.112585172	5.086300E+01	  0.112585172	6.278000E+01	  0.112585172	5.531700E+01
464	  0.112785570	-6.896000E+00	  0.112785570	5.064500E+01	  0.112785570	6.304300E+01	  0.112785570	5.538700E+01
465	  0.112985976	-6.899000E+00	  0.112985976	5.040100E+01	  0.112985976	6.334600E+01	  0.112985976	5.543600E+01
466	  0.113186374	-6.896000E+00	  0.113186374	5.018600E+01	  0.113186374	6.360500E+01	  0.113186374	5.551100E+01
467	  0.113386773	-6.896000E+00	  0.113386773	4.999700E+01	  0.113386773	6.383900E+01	  0.113386773	5.556300E+01
468	  0.113587178	-6.896000E+00	  0.113587178	4.977100E+01	  0.113587178	6.412000E+01	  0.113587178	5.562200E+01
469	  0.113787577	-6.892000E+00	  0.113787577	4.957100E+01	  0.113787577	6.436300E+01	  0.113787577	5.570400E+01
470	  0.113987975	-6.891000E+00	  0.113987975	4.933100E+01	  0.113987975	6.466100E+01	  0.113987975	5.577400E+01
471	  0.114188381	-6.894000E+00	  0.114188381	4.912300E+01	  0.114188381	6.492900E+01	  0.114188381	5.580400E+01
472	  0.114388779	-6.891000E+00	  0.114388779	4.889500E+01	  0.114388779	6.521300E+01	  0.114388779	5.588700E+01
473	  0.114589177	-6.893000E+00	  0.114589177	4.867600E+01	  0.114589177	6.549600E+01	  0.114589177	5.592000E+01
474	  0.114789583	-6.890000E+00	  0.114789583	4.848800E+01	  0.114789583	6.573200E+01	  0.114789583	5.598700E+01
475	  0.114989981	-6.887000E+00	  0.114989981	4.826100E+01	  0.114989981	6.602100E+01	  0.114989981	5.606000E+01
476	  0.115190387	-6.889000E+00	  0.115190387	4.805100E+01	  0.115190387	6.629400E+01	  0.115190387	5.609600E+01
477	  0.115390785	-6.888000E+00	  0.115390785	4.783200E+01	  0.115390785	6.657800E+01	  0.115390785	5.615200E+01
478	  0.115591183	-6.884000E+00	  0.115591183	4.760700E+01	  0.115591183	6.686800E+01	  0.115591183	5.622900E+01
479	  0.115791589	-6.885000E+00	  0.115791589	4.739600E+01	  0.115791589	6.714600E+01	  0.115791589	5.626600E+01
480	  0.115991987	-6.885000E+00	  0.115991987	4.717300E+01	  0.115991987	6.744100E+01	  0.115991987	5.630900E+01
481	  0.116192386	-6.881000E+00	  0.116192386	4.697600E+01	  0.116192386	6.769800E+01	  0.116192386	5.638300E+01
482	  0.116392791	-6.881000E+00	  0.116392791	4.676500E+01	  0.116392791	6.798000E+01	  0.116392791	5.641900E+01
483	  0.116593190	-6.883000E+00	  0.116593190	4.654700E+01	  0.116593190	6.827400E+01	  0.116593190	5.644400E+01
484	  0.116793588	-6.882000E+00	  0.116793588	4.633300E+01	  0.116793588	6.856200E+01	  0.116793588	5.648700E+01
485	  0.116993994	-6.882000E+00	  0.116993994	4.609900E+01	  0.116993994	6.888000E+01	  0.116993994	5.653300E+01
486	  0.117194392	-6.879000E+00	  0.117194392	4.590800E+01	  0.117194392	6.913700E+01	  0.117194392	5.658500E+01
487	  0.117394790	-6.883000E+00	  0.117394790	4.568400E+01	  0.117394790	6.944700E+01	  0.117394790	5.659000E+01
488	  0.117595196	-6.879000E+00	  0.117595196	4.548200E+01	  0.117595196	6.972100E+01	  0.117595196	5.665300E+01
489	  0.117795594	-6.877000E+00	  0.117795594	4.526500E+01	  0.117795594	7.001900E+01	  0.117795594	5.670900E+01
490	  0.117995992	-6.877000E+00	  0.117995992	4.504200E+01	  0.117995992	7.032900E+01	  0.117995992	5.673500E+01
491	  0.118196398	-6.876000E+00	  0.118196398	4.482500E+01	  0.118196398	7.063200E+01	  0.118196398	5.677000E+01
492	  0.118396796	-6.877000E+00	  0.118396796	4.462900E+01	  0.118396796	7.090700E+01	  0.118396796	5.679000E+01
493	  0.118597202	-6.877000E+00	  0.118597202	4.439500E+01	  0.118597202	7.123700E+01	  0.118597202	5.681700E+01
494	  0.118797600	-6.875000E+00	  0.118797600	4.418800E+01	  0.118797600	7.152900E+01	  0.118797600	5.685400E+01
495	  0.118997999	-6.881000E+00	  0.118997999	4.397800E+01	  0.118997999	7.183100E+01	  0.118997999	5.682500E+01
496	  0.119198404	-6.876000E+00	  0.119198404	4.377300E+01	  0.119198404	7.212100E+01	  0.119198404	5.689200E+01
497	  0.119398803	-6.872000E+00	  0.119398803	4.353800E+01	  0.119398803	7.245600E+01	  0.119398803	5.695300E+01
498	  0.119599201	-6.875000E+00	  0.119599201	4.333200E+01	  0.119599201	7.275400E+01	  0.119599201	5.693900E+01
499	  0.119799607	-6.873000E+00	  0.119799607	4.310600E+01	  0.119799607	7.308200E+01	  0.119799607	5.697000E+01
500	  0.120000005	-6.873000E+00	  0.120000005	4.290700E+01	  0.120000005	7.337100E+01	  0.120000005	5.698500E+01
