! Anritsu VNA Master:             	Model: MS2036C/10/77
! SN:             	1601066
! /bd0/18may08.cable.cal/top.49p99.1.txt
! Existing Calibration Information:
! TYPE:             	Current Settings	Active Cal Settings
! TIME:             	05/08/2018 03:52:03 PM	05/08/2018 03:47:05 PM
! INTERNAL TEMP:    	50.5 C	50.5 C
! # POINTS:         	500	500
! START FREQ:       	20.000 MHz	20.000 MHz
! STOP FREQ:        	120.000 MHz	120.000 MHz
! SOURCE POWER:     	High	High
! IFBW:             	50 Hz	50 Hz
! AVG FACTOR:       	  1 	  1 
! REF PLANE 1:      	0 mm	0 mm
! REF PLANE 2:      	0 mm	0 mm
! CAL TYPE:         	Full S11	Full S11
! CAL METHOD:       	SOLT	SOLT
! CAL LINE TYPE:    	Coax	Coax
! DUT PORT 1:       	K-Conn(F)	K-Conn(F)
! DUT PORT 2:       	K-Conn(F)	K-Conn(F)
! CAL STATUS:       	OK: Accuracy High	--
! PROP-V:       	0.700
! CABLE LOSS:       	0.000 dB/m
! REF IMPEDANCE:       	50.0
! Trace Specific Parameters:	TR1	TR2	TR3	TR4
! TRACE.#.Y (GRAPH TYPE)	LOG MAG	PHASE	REAL IMPEDANCE	IMAGINARY IMPEDANCE
! TRACE.#.X 	FREQ.GHZ	FREQ.GHZ	FREQ.GHZ	FREQ.GHZ
! S-PARAMETER	S11	S11	S11	S11
! SMOOTH/APERTURE %	0	0	0	0
! WINDOW	NSL	NSL	NSL	NSL
! GATING	OFF	OFF	OFF	OFF
! FGTD	OFF	OFF	OFF	OFF
Marker Information per Trace:	TR1	TR2	TR3	TR4
!MK1	--	"MK1 TR2:  20.000 MHz,PH:56.15°"	--	--
!MK2	--	--	"MK2 TR3:  70.100 200 MHz,Z:(52.207 ohm, 1.334 ohm)"	--
!MK3	--	--	--	--
!MK4	--	--	--	--
!MK5	--	--	--	--
!MK6	--	--	--	--
!MK7	--	--	--	--
!MK8	--	--	--	--
PNT	TR1.FREQ.GHZ	TR1.LOG MAG.dB	TR2.FREQ.GHZ	TR2.PHASE.deg	TR3.FREQ.GHZ	TR3.REAL IMPEDANCE.ohm	TR4.FREQ.GHZ	TR4.IMAGINARY IMPEDANCE.ohm
1	  0.020000000	-3.971500E+01	  0.020000000	5.614700E+01	  0.020000000	5.057100E+01	  0.020000000	8.670000E-01
2	  0.020200402	-3.955800E+01	  0.020200402	5.589300E+01	  0.020200402	5.058500E+01	  0.020200402	8.810000E-01
3	  0.020400802	-3.949600E+01	  0.020400802	5.507200E+01	  0.020400802	5.060200E+01	  0.020400802	8.790000E-01
4	  0.020601204	-3.944500E+01	  0.020601204	5.575100E+01	  0.020601204	5.059500E+01	  0.020601204	8.910000E-01
5	  0.020801604	-3.937100E+01	  0.020801604	5.547600E+01	  0.020801604	5.060500E+01	  0.020801604	8.960000E-01
6	  0.021002004	-3.938400E+01	  0.021002004	5.557800E+01	  0.021002004	5.060200E+01	  0.021002004	8.960000E-01
7	  0.021202406	-3.925900E+01	  0.021202406	5.515200E+01	  0.021202406	5.061700E+01	  0.021202406	9.040000E-01
8	  0.021402806	-3.923300E+01	  0.021402806	5.523400E+01	  0.021402806	5.061800E+01	  0.021402806	9.080000E-01
9	  0.021603208	-3.918300E+01	  0.021603208	5.479600E+01	  0.021603208	5.062900E+01	  0.021603208	9.090000E-01
10	  0.021803608	-3.908200E+01	  0.021803608	5.513700E+01	  0.021803608	5.063000E+01	  0.021803608	9.230000E-01
11	  0.022004008	-3.906700E+01	  0.022004008	5.474000E+01	  0.022004008	5.063800E+01	  0.022004008	9.200000E-01
12	  0.022204408	-3.900600E+01	  0.022204408	5.489800E+01	  0.022204408	5.064000E+01	  0.022204408	9.290000E-01
13	  0.022404809	-3.899700E+01	  0.022404809	5.468200E+01	  0.022404809	5.064400E+01	  0.022404809	9.270000E-01
14	  0.022605211	-3.888000E+01	  0.022605211	5.466500E+01	  0.022605211	5.065300E+01	  0.022605211	9.400000E-01
15	  0.022805611	-3.884100E+01	  0.022805611	5.423500E+01	  0.022805611	5.066300E+01	  0.022805611	9.390000E-01
16	  0.023006011	-3.885700E+01	  0.023006011	5.464600E+01	  0.023006011	5.065500E+01	  0.023006011	9.420000E-01
17	  0.023206413	-3.874600E+01	  0.023206413	5.401900E+01	  0.023206413	5.067400E+01	  0.023206413	9.470000E-01
18	  0.023406813	-3.866600E+01	  0.023406813	5.471000E+01	  0.023406813	5.066800E+01	  0.023406813	9.640000E-01
19	  0.023607215	-3.862300E+01	  0.023607215	5.410100E+01	  0.023607215	5.068200E+01	  0.023607215	9.620000E-01
20	  0.023807615	-3.859300E+01	  0.023807615	5.400200E+01	  0.023807615	5.068600E+01	  0.023807615	9.640000E-01
21	  0.024008015	-3.852700E+01	  0.024008015	5.414400E+01	  0.024008015	5.068900E+01	  0.024008015	9.730000E-01
22	  0.024208417	-3.850400E+01	  0.024208417	5.397000E+01	  0.024208417	5.069400E+01	  0.024208417	9.740000E-01
23	  0.024408817	-3.839200E+01	  0.024408817	5.418200E+01	  0.024408817	5.069900E+01	  0.024408817	9.890000E-01
24	  0.024609219	-3.835000E+01	  0.024609219	5.407300E+01	  0.024609219	5.070400E+01	  0.024609219	9.930000E-01
25	  0.024809619	-3.828400E+01	  0.024809619	5.359900E+01	  0.024809619	5.071800E+01	  0.024809619	9.940000E-01
26	  0.025010020	-3.826700E+01	  0.025010020	5.329700E+01	  0.025010020	5.072500E+01	  0.025010020	9.930000E-01
27	  0.025210422	-3.822800E+01	  0.025210422	5.360800E+01	  0.025210422	5.072200E+01	  0.025210422	1.001000E+00
28	  0.025410822	-3.815600E+01	  0.025410822	5.343300E+01	  0.025410822	5.073200E+01	  0.025410822	1.007000E+00
29	  0.025611224	-3.806600E+01	  0.025611224	5.320800E+01	  0.025611224	5.074300E+01	  0.025611224	1.015000E+00
30	  0.025811624	-3.805600E+01	  0.025811624	5.350200E+01	  0.025811624	5.073900E+01	  0.025811624	1.020000E+00
31	  0.026012026	-3.800700E+01	  0.026012026	5.337100E+01	  0.026012026	5.074500E+01	  0.026012026	1.024000E+00
32	  0.026212426	-3.793400E+01	  0.026212426	5.365200E+01	  0.026212426	5.074600E+01	  0.026212426	1.037000E+00
33	  0.026412826	-3.791000E+01	  0.026412826	5.367800E+01	  0.026412826	5.074800E+01	  0.026412826	1.040000E+00
34	  0.026613226	-3.786400E+01	  0.026613226	5.290800E+01	  0.026613226	5.076600E+01	  0.026613226	1.035000E+00
35	  0.026813626	-3.782600E+01	  0.026813626	5.338600E+01	  0.026813626	5.076000E+01	  0.026813626	1.046000E+00
36	  0.027014028	-3.777300E+01	  0.027014028	5.297100E+01	  0.027014028	5.077300E+01	  0.027014028	1.047000E+00
37	  0.027214428	-3.768700E+01	  0.027214428	5.242400E+01	  0.027214428	5.079100E+01	  0.027214428	1.050000E+00
38	  0.027414829	-3.768800E+01	  0.027414829	5.301300E+01	  0.027414829	5.078000E+01	  0.027414829	1.058000E+00
39	  0.027615231	-3.768900E+01	  0.027615231	5.253100E+01	  0.027615231	5.078900E+01	  0.027615231	1.052000E+00
40	  0.027815631	-3.750300E+01	  0.027815631	5.264100E+01	  0.027815631	5.080300E+01	  0.027815631	1.076000E+00
41	  0.028016033	-3.752900E+01	  0.028016033	5.233900E+01	  0.028016033	5.080700E+01	  0.028016033	1.069000E+00
42	  0.028216433	-3.746600E+01	  0.028216433	5.245400E+01	  0.028216433	5.081000E+01	  0.028216433	1.078000E+00
43	  0.028416833	-3.739800E+01	  0.028416833	5.195900E+01	  0.028416833	5.082600E+01	  0.028416833	1.080000E+00
44	  0.028617235	-3.736400E+01	  0.028617235	5.226000E+01	  0.028617235	5.082400E+01	  0.028617235	1.089000E+00
45	  0.028817635	-3.738900E+01	  0.028817635	5.237500E+01	  0.028817635	5.081900E+01	  0.028817635	1.087000E+00
46	  0.029018037	-3.730800E+01	  0.029018037	5.180900E+01	  0.029018037	5.083800E+01	  0.029018037	1.089000E+00
47	  0.029218437	-3.728400E+01	  0.029218437	5.233200E+01	  0.029218437	5.083000E+01	  0.029218437	1.100000E+00
48	  0.029418837	-3.720300E+01	  0.029418837	5.194000E+01	  0.029418837	5.084500E+01	  0.029418837	1.105000E+00
49	  0.029619239	-3.721200E+01	  0.029619239	5.160400E+01	  0.029619239	5.085100E+01	  0.029619239	1.098000E+00
50	  0.029819639	-3.711100E+01	  0.029819639	5.159300E+01	  0.029819639	5.086100E+01	  0.029819639	1.111000E+00
51	  0.030020041	-3.704800E+01	  0.030020041	5.135900E+01	  0.030020041	5.087200E+01	  0.030020041	1.116000E+00
52	  0.030220442	-3.705000E+01	  0.030220442	5.144500E+01	  0.030220442	5.087000E+01	  0.030220442	1.117000E+00
53	  0.030420844	-3.701600E+01	  0.030420844	5.138100E+01	  0.030420844	5.087500E+01	  0.030420844	1.121000E+00
54	  0.030621244	-3.692800E+01	  0.030621244	5.106400E+01	  0.030621244	5.089000E+01	  0.030621244	1.127000E+00
55	  0.030821644	-3.693300E+01	  0.030821644	5.083100E+01	  0.030821644	5.089400E+01	  0.030821644	1.123000E+00
56	  0.031022044	-3.687200E+01	  0.031022044	5.114600E+01	  0.031022044	5.089400E+01	  0.031022044	1.136000E+00
57	  0.031222444	-3.682800E+01	  0.031222444	5.096400E+01	  0.031222444	5.090200E+01	  0.031222444	1.139000E+00
58	  0.031422846	-3.675600E+01	  0.031422846	5.124700E+01	  0.031422846	5.090400E+01	  0.031422846	1.153000E+00
59	  0.031623244	-3.670400E+01	  0.031623244	5.104900E+01	  0.031623244	5.091300E+01	  0.031623244	1.157000E+00
60	  0.031823646	-3.671800E+01	  0.031823646	5.052800E+01	  0.031823646	5.092300E+01	  0.031823646	1.147000E+00
61	  0.032024048	-3.668800E+01	  0.032024048	5.074700E+01	  0.032024048	5.092100E+01	  0.032024048	1.154000E+00
62	  0.032224450	-3.657300E+01	  0.032224450	5.033100E+01	  0.032224450	5.094200E+01	  0.032224450	1.163000E+00
63	  0.032424849	-3.658200E+01	  0.032424849	5.052900E+01	  0.032424849	5.093700E+01	  0.032424849	1.165000E+00
64	  0.032625251	-3.659900E+01	  0.032625251	5.039600E+01	  0.032625251	5.093800E+01	  0.032625251	1.161000E+00
65	  0.032825653	-3.654400E+01	  0.032825653	5.000400E+01	  0.032825653	5.095200E+01	  0.032825653	1.162000E+00
66	  0.033026051	-3.645700E+01	  0.033026051	5.042600E+01	  0.033026051	5.095300E+01	  0.033026051	1.181000E+00
67	  0.033226453	-3.634100E+01	  0.033226453	5.001500E+01	  0.033226453	5.097400E+01	  0.033226453	1.190000E+00
68	  0.033426855	-3.645800E+01	  0.033426855	4.971400E+01	  0.033426855	5.096800E+01	  0.033426855	1.169000E+00
69	  0.033627257	-3.635500E+01	  0.033627257	4.977700E+01	  0.033627257	5.097800E+01	  0.033627257	1.184000E+00
70	  0.033827655	-3.634600E+01	  0.033827655	4.967800E+01	  0.033827655	5.098100E+01	  0.033827655	1.184000E+00
71	  0.034028057	-3.634000E+01	  0.034028057	4.928500E+01	  0.034028057	5.099000E+01	  0.034028057	1.178000E+00
72	  0.034228459	-3.625800E+01	  0.034228459	4.964500E+01	  0.034228459	5.099200E+01	  0.034228459	1.195000E+00
73	  0.034428857	-3.622800E+01	  0.034428857	4.996200E+01	  0.034428857	5.098800E+01	  0.034428857	1.205000E+00
74	  0.034629259	-3.615600E+01	  0.034629259	4.919000E+01	  0.034629259	5.101300E+01	  0.034629259	1.202000E+00
75	  0.034829661	-3.610900E+01	  0.034829661	4.928300E+01	  0.034829661	5.101600E+01	  0.034829661	1.210000E+00
76	  0.035030060	-3.611200E+01	  0.035030060	4.936000E+01	  0.035030060	5.101400E+01	  0.035030060	1.211000E+00
77	  0.035230462	-3.607900E+01	  0.035230462	4.892200E+01	  0.035230462	5.102800E+01	  0.035230462	1.208000E+00
78	  0.035430863	-3.602200E+01	  0.035430863	4.862700E+01	  0.035430863	5.104100E+01	  0.035430863	1.211000E+00
79	  0.035631265	-3.601600E+01	  0.035631265	4.851900E+01	  0.035631265	5.104400E+01	  0.035631265	1.210000E+00
80	  0.035831664	-3.600000E+01	  0.035831664	4.860200E+01	  0.035831664	5.104400E+01	  0.035831664	1.214000E+00
81	  0.036032066	-3.597800E+01	  0.036032066	4.834900E+01	  0.036032066	5.105200E+01	  0.036032066	1.212000E+00
82	  0.036232468	-3.589900E+01	  0.036232468	4.853400E+01	  0.036232468	5.105800E+01	  0.036232468	1.227000E+00
83	  0.036432866	-3.588200E+01	  0.036432866	4.841700E+01	  0.036432866	5.106200E+01	  0.036432866	1.227000E+00
84	  0.036633268	-3.583000E+01	  0.036633268	4.827700E+01	  0.036633268	5.107200E+01	  0.036633268	1.232000E+00
85	  0.036833670	-3.584400E+01	  0.036833670	4.830200E+01	  0.036833670	5.106900E+01	  0.036833670	1.230000E+00
86	  0.037034072	-3.578700E+01	  0.037034072	4.847500E+01	  0.037034072	5.107300E+01	  0.037034072	1.242000E+00
87	  0.037234470	-3.573900E+01	  0.037234470	4.774600E+01	  0.037234470	5.109500E+01	  0.037234470	1.235000E+00
88	  0.037434869	-3.576000E+01	  0.037434869	4.816300E+01	  0.037434869	5.108300E+01	  0.037434869	1.240000E+00
89	  0.037635271	-3.563600E+01	  0.037635271	4.807700E+01	  0.037635271	5.110000E+01	  0.037635271	1.257000E+00
90	  0.037835669	-3.563400E+01	  0.037835669	4.797900E+01	  0.037835669	5.110300E+01	  0.037835669	1.255000E+00
91	  0.038036071	-3.566800E+01	  0.038036071	4.760300E+01	  0.038036071	5.110700E+01	  0.038036071	1.243000E+00
92	  0.038236473	-3.558900E+01	  0.038236473	4.774600E+01	  0.038236473	5.111400E+01	  0.038236473	1.257000E+00
93	  0.038436871	-3.549900E+01	  0.038436871	4.752000E+01	  0.038436871	5.113000E+01	  0.038436871	1.266000E+00
94	  0.038637273	-3.552200E+01	  0.038637273	4.738600E+01	  0.038637273	5.113000E+01	  0.038637273	1.260000E+00
95	  0.038837675	-3.546600E+01	  0.038837675	4.744600E+01	  0.038837675	5.113600E+01	  0.038837675	1.270000E+00
96	  0.039038073	-3.544100E+01	  0.039038073	4.751500E+01	  0.039038073	5.113800E+01	  0.039038073	1.275000E+00
97	  0.039238475	-3.536800E+01	  0.039238475	4.689200E+01	  0.039238475	5.116200E+01	  0.039238475	1.273000E+00
98	  0.039438877	-3.538900E+01	  0.039438877	4.717000E+01	  0.039438877	5.115300E+01	  0.039438877	1.276000E+00
99	  0.039639279	-3.531800E+01	  0.039639279	4.709100E+01	  0.039639279	5.116400E+01	  0.039639279	1.285000E+00
100	  0.039839678	-3.526900E+01	  0.039839678	4.689100E+01	  0.039839678	5.117500E+01	  0.039839678	1.288000E+00
101	  0.040040080	-3.525400E+01	  0.040040080	4.662800E+01	  0.040040080	5.118300E+01	  0.040040080	1.285000E+00
102	  0.040240481	-3.522900E+01	  0.040240481	4.656900E+01	  0.040240481	5.118800E+01	  0.040240481	1.288000E+00
103	  0.040440880	-3.517900E+01	  0.040440880	4.655500E+01	  0.040440880	5.119500E+01	  0.040440880	1.295000E+00
104	  0.040641282	-3.513800E+01	  0.040641282	4.654600E+01	  0.040641282	5.120100E+01	  0.040641282	1.301000E+00
105	  0.040841684	-3.517700E+01	  0.040841684	4.648800E+01	  0.040841684	5.119700E+01	  0.040841684	1.294000E+00
106	  0.041042086	-3.513500E+01	  0.041042086	4.623300E+01	  0.041042086	5.120900E+01	  0.041042086	1.295000E+00
107	  0.041242484	-3.512000E+01	  0.041242484	4.624400E+01	  0.041242484	5.121100E+01	  0.041242484	1.297000E+00
108	  0.041442886	-3.503400E+01	  0.041442886	4.584200E+01	  0.041442886	5.123200E+01	  0.041442886	1.302000E+00
109	  0.041643288	-3.505300E+01	  0.041643288	4.591000E+01	  0.041643288	5.122800E+01	  0.041643288	1.301000E+00
110	  0.041843686	-3.501100E+01	  0.041843686	4.590800E+01	  0.041843686	5.123400E+01	  0.041843686	1.307000E+00
111	  0.042044088	-3.499500E+01	  0.042044088	4.568500E+01	  0.042044088	5.124100E+01	  0.042044088	1.304000E+00
112	  0.042244490	-3.498600E+01	  0.042244490	4.557700E+01	  0.042244490	5.124500E+01	  0.042244490	1.304000E+00
113	  0.042444889	-3.490000E+01	  0.042444889	4.558200E+01	  0.042444889	5.125700E+01	  0.042444889	1.317000E+00
114	  0.042645290	-3.489000E+01	  0.042645290	4.553300E+01	  0.042645290	5.126000E+01	  0.042645290	1.317000E+00
115	  0.042845692	-3.485700E+01	  0.042845692	4.545400E+01	  0.042845692	5.126700E+01	  0.042845692	1.321000E+00
116	  0.043046094	-3.482500E+01	  0.043046094	4.524000E+01	  0.043046094	5.127600E+01	  0.043046094	1.321000E+00
117	  0.043246493	-3.482400E+01	  0.043246493	4.530500E+01	  0.043246493	5.127500E+01	  0.043246493	1.323000E+00
118	  0.043446895	-3.478400E+01	  0.043446895	4.536600E+01	  0.043446895	5.127900E+01	  0.043446895	1.330000E+00
119	  0.043647297	-3.472000E+01	  0.043647297	4.457700E+01	  0.043647297	5.130800E+01	  0.043647297	1.323000E+00
120	  0.043847695	-3.468300E+01	  0.043847695	4.485700E+01	  0.043847695	5.130700E+01	  0.043847695	1.335000E+00
121	  0.044048097	-3.468900E+01	  0.044048097	4.497300E+01	  0.044048097	5.130300E+01	  0.044048097	1.337000E+00
122	  0.044248499	-3.465900E+01	  0.044248499	4.495700E+01	  0.044248499	5.130800E+01	  0.044248499	1.341000E+00
123	  0.044448901	-3.467100E+01	  0.044448901	4.452900E+01	  0.044448901	5.131600E+01	  0.044448901	1.329000E+00
124	  0.044649299	-3.455400E+01	  0.044649299	4.472000E+01	  0.044649299	5.132900E+01	  0.044649299	1.352000E+00
125	  0.044849701	-3.456900E+01	  0.044849701	4.438000E+01	  0.044849701	5.133500E+01	  0.044849701	1.342000E+00
126	  0.045050103	-3.454300E+01	  0.045050103	4.417100E+01	  0.045050103	5.134400E+01	  0.045050103	1.341000E+00
127	  0.045250501	-3.451500E+01	  0.045250501	4.449600E+01	  0.045250501	5.134100E+01	  0.045250501	1.353000E+00
128	  0.045450903	-3.447900E+01	  0.045450903	4.429400E+01	  0.045450903	5.135100E+01	  0.045450903	1.354000E+00
129	  0.045651305	-3.446200E+01	  0.045651305	4.394100E+01	  0.045651305	5.136300E+01	  0.045651305	1.349000E+00
130	  0.045851704	-3.444200E+01	  0.045851704	4.388600E+01	  0.045851704	5.136700E+01	  0.045851704	1.350000E+00
131	  0.046052106	-3.439500E+01	  0.046052106	4.411500E+01	  0.046052106	5.136900E+01	  0.046052106	1.363000E+00
132	  0.046252504	-3.440300E+01	  0.046252504	4.379700E+01	  0.046252504	5.137500E+01	  0.046252504	1.355000E+00
133	  0.046452906	-3.435900E+01	  0.046452906	4.371600E+01	  0.046452906	5.138400E+01	  0.046452906	1.360000E+00
134	  0.046653304	-3.434400E+01	  0.046653304	4.331700E+01	  0.046653304	5.139700E+01	  0.046653304	1.352000E+00
135	  0.046853706	-3.432800E+01	  0.046853706	4.346900E+01	  0.046853706	5.139500E+01	  0.046853706	1.359000E+00
136	  0.047054108	-3.431000E+01	  0.047054108	4.352500E+01	  0.047054108	5.139700E+01	  0.047054108	1.363000E+00
137	  0.047254506	-3.425600E+01	  0.047254506	4.343900E+01	  0.047254506	5.140800E+01	  0.047254506	1.369000E+00
138	  0.047454908	-3.422900E+01	  0.047454908	4.321700E+01	  0.047454908	5.141700E+01	  0.047454908	1.368000E+00
139	  0.047655310	-3.419000E+01	  0.047655310	4.293100E+01	  0.047655310	5.143100E+01	  0.047655310	1.368000E+00
140	  0.047855709	-3.418100E+01	  0.047855709	4.277200E+01	  0.047855709	5.143600E+01	  0.047855709	1.365000E+00
141	  0.048056111	-3.412900E+01	  0.048056111	4.287600E+01	  0.048056111	5.144200E+01	  0.048056111	1.376000E+00
142	  0.048256513	-3.416900E+01	  0.048256513	4.271300E+01	  0.048256513	5.144000E+01	  0.048256513	1.366000E+00
143	  0.048456915	-3.414000E+01	  0.048456915	4.269600E+01	  0.048456915	5.144500E+01	  0.048456915	1.370000E+00
144	  0.048657313	-3.405600E+01	  0.048657313	4.259400E+01	  0.048657313	5.146200E+01	  0.048657313	1.381000E+00
145	  0.048857715	-3.407300E+01	  0.048857715	4.269600E+01	  0.048857715	5.145600E+01	  0.048857715	1.381000E+00
146	  0.049058117	-3.405300E+01	  0.049058117	4.261300E+01	  0.049058117	5.146200E+01	  0.049058117	1.382000E+00
147	  0.049258515	-3.402700E+01	  0.049258515	4.236200E+01	  0.049258515	5.147200E+01	  0.049258515	1.380000E+00
148	  0.049458917	-3.403400E+01	  0.049458917	4.188100E+01	  0.049458917	5.148300E+01	  0.049458917	1.366000E+00
149	  0.049659319	-3.398500E+01	  0.049659319	4.198000E+01	  0.049659319	5.148900E+01	  0.049659319	1.377000E+00
150	  0.049859721	-3.401900E+01	  0.049859721	4.188100E+01	  0.049859721	5.148600E+01	  0.049859721	1.369000E+00
151	  0.050060119	-3.387800E+01	  0.050060119	4.172200E+01	  0.050060119	5.151400E+01	  0.050060119	1.388000E+00
152	  0.050260521	-3.391400E+01	  0.050260521	4.160000E+01	  0.050260521	5.151100E+01	  0.050260521	1.378000E+00
153	  0.050460923	-3.391000E+01	  0.050460923	4.134300E+01	  0.050460923	5.151800E+01	  0.050460923	1.372000E+00
154	  0.050661322	-3.381400E+01	  0.050661322	4.134400E+01	  0.050661322	5.153500E+01	  0.050661322	1.388000E+00
155	  0.050861724	-3.383700E+01	  0.050861724	4.127300E+01	  0.050861724	5.153200E+01	  0.050861724	1.382000E+00
156	  0.051062126	-3.375900E+01	  0.051062126	4.093100E+01	  0.051062126	5.155500E+01	  0.051062126	1.386000E+00
157	  0.051262524	-3.377900E+01	  0.051262524	4.076600E+01	  0.051262524	5.155500E+01	  0.051262524	1.378000E+00
158	  0.051462926	-3.377700E+01	  0.051462926	4.063200E+01	  0.051462926	5.155900E+01	  0.051462926	1.375000E+00
159	  0.051663328	-3.376100E+01	  0.051663328	4.072100E+01	  0.051663328	5.156000E+01	  0.051663328	1.380000E+00
160	  0.051863730	-3.373000E+01	  0.051863730	4.075000E+01	  0.051863730	5.156400E+01	  0.051863730	1.386000E+00
161	  0.052064128	-3.367900E+01	  0.052064128	4.061200E+01	  0.052064128	5.157700E+01	  0.052064128	1.390000E+00
162	  0.052264530	-3.365900E+01	  0.052264530	4.020700E+01	  0.052264530	5.159100E+01	  0.052264530	1.382000E+00
163	  0.052464932	-3.369300E+01	  0.052464932	4.032000E+01	  0.052464932	5.158200E+01	  0.052464932	1.380000E+00
164	  0.052665330	-3.365000E+01	  0.052665330	4.010600E+01	  0.052665330	5.159500E+01	  0.052665330	1.381000E+00
165	  0.052865732	-3.362500E+01	  0.052865732	4.003500E+01	  0.052865732	5.160100E+01	  0.052865732	1.383000E+00
166	  0.053066134	-3.358700E+01	  0.053066134	4.001500E+01	  0.053066134	5.160900E+01	  0.053066134	1.389000E+00
167	  0.053266536	-3.356900E+01	  0.053266536	3.991200E+01	  0.053266536	5.161500E+01	  0.053266536	1.389000E+00
168	  0.053466935	-3.353300E+01	  0.053466935	3.985900E+01	  0.053466935	5.162300E+01	  0.053466935	1.393000E+00
169	  0.053667337	-3.352700E+01	  0.053667337	3.947100E+01	  0.053667337	5.163400E+01	  0.053667337	1.383000E+00
170	  0.053867739	-3.348900E+01	  0.053867739	3.964300E+01	  0.053867739	5.163700E+01	  0.053867739	1.394000E+00
171	  0.054068137	-3.351600E+01	  0.054068137	3.965200E+01	  0.054068137	5.163200E+01	  0.054068137	1.390000E+00
172	  0.054268539	-3.344700E+01	  0.054268539	3.910100E+01	  0.054268539	5.165800E+01	  0.054268539	1.386000E+00
173	  0.054468941	-3.340400E+01	  0.054468941	3.907700E+01	  0.054468941	5.166700E+01	  0.054468941	1.392000E+00
174	  0.054669339	-3.343100E+01	  0.054669339	3.913800E+01	  0.054669339	5.166100E+01	  0.054669339	1.389000E+00
175	  0.054869737	-3.334200E+01	  0.054869737	3.882300E+01	  0.054869737	5.168600E+01	  0.054869737	1.395000E+00
176	  0.055070139	-3.337300E+01	  0.055070139	3.912100E+01	  0.055070139	5.167200E+01	  0.055070139	1.398000E+00
177	  0.055270538	-3.335700E+01	  0.055270538	3.872500E+01	  0.055270538	5.168500E+01	  0.055270538	1.389000E+00
178	  0.055470940	-3.335100E+01	  0.055470940	3.891600E+01	  0.055470940	5.168200E+01	  0.055470940	1.396000E+00
179	  0.055671342	-3.328400E+01	  0.055671342	3.853100E+01	  0.055671342	5.170400E+01	  0.055671342	1.396000E+00
180	  0.055871744	-3.328300E+01	  0.055871744	3.838100E+01	  0.055871744	5.170800E+01	  0.055871744	1.392000E+00
181	  0.056072142	-3.323900E+01	  0.056072142	3.834100E+01	  0.056072142	5.171800E+01	  0.056072142	1.398000E+00
182	  0.056272544	-3.325500E+01	  0.056272544	3.815900E+01	  0.056272544	5.171900E+01	  0.056272544	1.389000E+00
183	  0.056472946	-3.318600E+01	  0.056472946	3.795800E+01	  0.056472946	5.173800E+01	  0.056472946	1.395000E+00
184	  0.056673344	-3.318500E+01	  0.056673344	3.806000E+01	  0.056673344	5.173600E+01	  0.056673344	1.398000E+00
185	  0.056873746	-3.320900E+01	  0.056873746	3.782600E+01	  0.056873746	5.173700E+01	  0.056873746	1.387000E+00
186	  0.057074148	-3.316700E+01	  0.057074148	3.787600E+01	  0.057074148	5.174400E+01	  0.057074148	1.395000E+00
187	  0.057274550	-3.312700E+01	  0.057274550	3.758500E+01	  0.057274550	5.176000E+01	  0.057274550	1.393000E+00
188	  0.057474948	-3.313500E+01	  0.057474948	3.732800E+01	  0.057474948	5.176400E+01	  0.057474948	1.384000E+00
189	  0.057675350	-3.307800E+01	  0.057675350	3.729200E+01	  0.057675350	5.177700E+01	  0.057675350	1.392000E+00
190	  0.057875752	-3.307600E+01	  0.057875752	3.713300E+01	  0.057875752	5.178200E+01	  0.057875752	1.388000E+00
191	  0.058076151	-3.305000E+01	  0.058076151	3.696500E+01	  0.058076151	5.179100E+01	  0.058076151	1.387000E+00
192	  0.058276553	-3.302700E+01	  0.058276553	3.719300E+01	  0.058276553	5.179000E+01	  0.058276553	1.398000E+00
193	  0.058476955	-3.303300E+01	  0.058476955	3.696400E+01	  0.058476955	5.179500E+01	  0.058476955	1.389000E+00
194	  0.058677353	-3.298800E+01	  0.058677353	3.670600E+01	  0.058677353	5.181100E+01	  0.058677353	1.389000E+00
195	  0.058877755	-3.296200E+01	  0.058877755	3.663600E+01	  0.058877755	5.181800E+01	  0.058877755	1.391000E+00
196	  0.059078157	-3.294300E+01	  0.059078157	3.652200E+01	  0.059078157	5.182500E+01	  0.059078157	1.390000E+00
197	  0.059278559	-3.291400E+01	  0.059278559	3.648700E+01	  0.059278559	5.183200E+01	  0.059278559	1.394000E+00
198	  0.059478957	-3.292300E+01	  0.059478957	3.619900E+01	  0.059478957	5.183700E+01	  0.059478957	1.383000E+00
199	  0.059679359	-3.291500E+01	  0.059679359	3.644000E+01	  0.059679359	5.183300E+01	  0.059679359	1.392000E+00
200	  0.059879761	-3.286600E+01	  0.059879761	3.609700E+01	  0.059879761	5.185200E+01	  0.059879761	1.389000E+00
201	  0.060080159	-3.288000E+01	  0.060080159	3.606200E+01	  0.060080159	5.185000E+01	  0.060080159	1.386000E+00
202	  0.060280561	-3.284800E+01	  0.060280561	3.596600E+01	  0.060280561	5.185900E+01	  0.060280561	1.388000E+00
203	  0.060480963	-3.284000E+01	  0.060480963	3.593000E+01	  0.060480963	5.186200E+01	  0.060480963	1.388000E+00
204	  0.060681365	-3.281800E+01	  0.060681365	3.586900E+01	  0.060681365	5.186800E+01	  0.060681365	1.390000E+00
205	  0.060881764	-3.281300E+01	  0.060881764	3.578900E+01	  0.060881764	5.187100E+01	  0.060881764	1.388000E+00
206	  0.061082166	-3.273400E+01	  0.061082166	3.528000E+01	  0.061082166	5.190100E+01	  0.061082166	1.384000E+00
207	  0.061282568	-3.275700E+01	  0.061282568	3.541400E+01	  0.061282568	5.189300E+01	  0.061282568	1.385000E+00
208	  0.061482966	-3.270600E+01	  0.061482966	3.527900E+01	  0.061482966	5.190700E+01	  0.061482966	1.389000E+00
209	  0.061683368	-3.271500E+01	  0.061683368	3.512000E+01	  0.061683368	5.190900E+01	  0.061683368	1.382000E+00
210	  0.061883770	-3.273300E+01	  0.061883770	3.528900E+01	  0.061883770	5.190100E+01	  0.061883770	1.385000E+00
211	  0.062084168	-3.270500E+01	  0.062084168	3.492200E+01	  0.062084168	5.191700E+01	  0.062084168	1.377000E+00
212	  0.062284570	-3.265200E+01	  0.062284570	3.491200E+01	  0.062284570	5.192900E+01	  0.062284570	1.385000E+00
213	  0.062484972	-3.263300E+01	  0.062484972	3.488400E+01	  0.062484972	5.193400E+01	  0.062484972	1.387000E+00
214	  0.062685370	-3.258600E+01	  0.062685370	3.482000E+01	  0.062685370	5.194600E+01	  0.062685370	1.393000E+00
215	  0.062885776	-3.263400E+01	  0.062885776	3.451800E+01	  0.062885776	5.194300E+01	  0.062885776	1.375000E+00
216	  0.063086174	-3.257900E+01	  0.063086174	3.455000E+01	  0.063086174	5.195400E+01	  0.063086174	1.385000E+00
217	  0.063286573	-3.257100E+01	  0.063286573	3.430100E+01	  0.063286573	5.196200E+01	  0.063286573	1.378000E+00
218	  0.063486971	-3.252800E+01	  0.063486971	3.444500E+01	  0.063486971	5.196900E+01	  0.063486971	1.390000E+00
219	  0.063687377	-3.250700E+01	  0.063687377	3.423600E+01	  0.063687377	5.197900E+01	  0.063687377	1.386000E+00
220	  0.063887775	-3.251500E+01	  0.063887775	3.405700E+01	  0.063887775	5.198100E+01	  0.063887775	1.379000E+00
221	  0.064088173	-3.247300E+01	  0.064088173	3.425700E+01	  0.064088173	5.198600E+01	  0.064088173	1.393000E+00
222	  0.064288579	-3.247500E+01	  0.064288579	3.364200E+01	  0.064288579	5.200100E+01	  0.064288579	1.370000E+00
223	  0.064488977	-3.244100E+01	  0.064488977	3.377600E+01	  0.064488977	5.200500E+01	  0.064488977	1.381000E+00
224	  0.064689375	-3.244600E+01	  0.064689375	3.362800E+01	  0.064689375	5.200800E+01	  0.064689375	1.375000E+00
225	  0.064889781	-3.240000E+01	  0.064889781	3.373100E+01	  0.064889781	5.201600E+01	  0.064889781	1.386000E+00
226	  0.065090179	-3.239500E+01	  0.065090179	3.370600E+01	  0.065090179	5.201800E+01	  0.065090179	1.386000E+00
227	  0.065290578	-3.243100E+01	  0.065290578	3.358400E+01	  0.065290578	5.201200E+01	  0.065290578	1.376000E+00
228	  0.065490983	-3.237700E+01	  0.065490983	3.331900E+01	  0.065490983	5.203200E+01	  0.065490983	1.375000E+00
229	  0.065691382	-3.235500E+01	  0.065691382	3.324800E+01	  0.065691382	5.203900E+01	  0.065691382	1.376000E+00
230	  0.065891780	-3.237300E+01	  0.065891780	3.292200E+01	  0.065891780	5.204300E+01	  0.065891780	1.362000E+00
231	  0.066092186	-3.234400E+01	  0.066092186	3.273800E+01	  0.066092186	5.205400E+01	  0.066092186	1.360000E+00
232	  0.066292584	-3.231300E+01	  0.066292584	3.273400E+01	  0.066292584	5.206200E+01	  0.066292584	1.364000E+00
233	  0.066492982	-3.226700E+01	  0.066492982	3.244600E+01	  0.066492982	5.208000E+01	  0.066492982	1.361000E+00
234	  0.066693388	-3.226500E+01	  0.066693388	3.249900E+01	  0.066693388	5.207900E+01	  0.066693388	1.364000E+00
235	  0.066893786	-3.227900E+01	  0.066893786	3.229000E+01	  0.066893786	5.208100E+01	  0.066893786	1.354000E+00
236	  0.067094192	-3.220300E+01	  0.067094192	3.228900E+01	  0.067094192	5.210000E+01	  0.067094192	1.366000E+00
237	  0.067294590	-3.220300E+01	  0.067294590	3.217500E+01	  0.067294590	5.210200E+01	  0.067294590	1.362000E+00
238	  0.067494988	-3.218700E+01	  0.067494988	3.226500E+01	  0.067494988	5.210400E+01	  0.067494988	1.368000E+00
239	  0.067695394	-3.220500E+01	  0.067695394	3.189600E+01	  0.067695394	5.210900E+01	  0.067695394	1.351000E+00
240	  0.067895792	-3.214900E+01	  0.067895792	3.189900E+01	  0.067895792	5.212200E+01	  0.067895792	1.360000E+00
241	  0.068096191	-3.213400E+01	  0.068096191	3.199400E+01	  0.068096191	5.212400E+01	  0.068096191	1.366000E+00
242	  0.068296596	-3.215400E+01	  0.068296596	3.141600E+01	  0.068296596	5.213300E+01	  0.068296596	1.341000E+00
243	  0.068496995	-3.212000E+01	  0.068496995	3.171500E+01	  0.068496995	5.213400E+01	  0.068496995	1.358000E+00
244	  0.068697393	-3.208900E+01	  0.068697393	3.143000E+01	  0.068697393	5.214900E+01	  0.068697393	1.353000E+00
245	  0.068897791	-3.215600E+01	  0.068897791	3.128900E+01	  0.068897791	5.213600E+01	  0.068897791	1.336000E+00
246	  0.069098189	-3.212100E+01	  0.069098189	3.131500E+01	  0.069098189	5.214400E+01	  0.069098189	1.343000E+00
247	  0.069298595	-3.204700E+01	  0.069298595	3.108900E+01	  0.069298595	5.216800E+01	  0.069298595	1.346000E+00
248	  0.069498993	-3.204700E+01	  0.069498993	3.127300E+01	  0.069498993	5.216300E+01	  0.069498993	1.353000E+00
249	  0.069699399	-3.201300E+01	  0.069699399	3.095100E+01	  0.069699399	5.218000E+01	  0.069699399	1.347000E+00
250	  0.069899797	-3.199700E+01	  0.069899797	3.062100E+01	  0.069899797	5.219200E+01	  0.069899797	1.336000E+00
251	  0.070100196	-3.196000E+01	  0.070100196	3.040500E+01	  0.070100196	5.220700E+01	  0.070100196	1.334000E+00
252	  0.070300601	-3.199300E+01	  0.070300601	3.053200E+01	  0.070300601	5.219500E+01	  0.070300601	1.333000E+00
253	  0.070501000	-3.197500E+01	  0.070501000	3.031800E+01	  0.070501000	5.220500E+01	  0.070501000	1.328000E+00
254	  0.070701398	-3.195600E+01	  0.070701398	3.019900E+01	  0.070701398	5.221300E+01	  0.070701398	1.326000E+00
255	  0.070901804	-3.193500E+01	  0.070901804	2.992600E+01	  0.070901804	5.222500E+01	  0.070901804	1.319000E+00
256	  0.071102202	-3.193000E+01	  0.071102202	3.005400E+01	  0.071102202	5.222300E+01	  0.071102202	1.325000E+00
257	  0.071302600	-3.193300E+01	  0.071302600	3.004300E+01	  0.071302600	5.222200E+01	  0.071302600	1.324000E+00
258	  0.071503006	-3.188800E+01	  0.071503006	2.995200E+01	  0.071503006	5.223600E+01	  0.071503006	1.328000E+00
259	  0.071703404	-3.188600E+01	  0.071703404	2.966500E+01	  0.071703404	5.224400E+01	  0.071703404	1.317000E+00
260	  0.071903802	-3.192200E+01	  0.071903802	2.940100E+01	  0.071903802	5.224100E+01	  0.071903802	1.300000E+00
261	  0.072104208	-3.181900E+01	  0.072104208	2.925800E+01	  0.072104208	5.227100E+01	  0.072104208	1.311000E+00
262	  0.072304606	-3.184800E+01	  0.072304606	2.940500E+01	  0.072304606	5.226000E+01	  0.072304606	1.312000E+00
263	  0.072505005	-3.185800E+01	  0.072505005	2.934600E+01	  0.072505005	5.225900E+01	  0.072505005	1.308000E+00
264	  0.072705410	-3.182400E+01	  0.072705410	2.895400E+01	  0.072705410	5.227700E+01	  0.072705410	1.298000E+00
265	  0.072905809	-3.178700E+01	  0.072905809	2.893200E+01	  0.072905809	5.228800E+01	  0.072905809	1.303000E+00
266	  0.073106214	-3.178300E+01	  0.073106214	2.868600E+01	  0.073106214	5.229500E+01	  0.073106214	1.293000E+00
267	  0.073306613	-3.176000E+01	  0.073306613	2.893800E+01	  0.073306613	5.229500E+01	  0.073306613	1.307000E+00
268	  0.073507011	-3.172500E+01	  0.073507011	2.868800E+01	  0.073507011	5.231000E+01	  0.073507011	1.302000E+00
269	  0.073707417	-3.177600E+01	  0.073707417	2.883800E+01	  0.073707417	5.229300E+01	  0.073707417	1.301000E+00
270	  0.073907815	-3.172400E+01	  0.073907815	2.854400E+01	  0.073907815	5.231400E+01	  0.073907815	1.297000E+00
271	  0.074108213	-3.171500E+01	  0.074108213	2.821500E+01	  0.074108213	5.232400E+01	  0.074108213	1.285000E+00
272	  0.074308619	-3.170300E+01	  0.074308619	2.828800E+01	  0.074308619	5.232500E+01	  0.074308619	1.289000E+00
273	  0.074509017	-3.170100E+01	  0.074509017	2.795000E+01	  0.074509017	5.233400E+01	  0.074509017	1.276000E+00
274	  0.074709415	-3.165200E+01	  0.074709415	2.788500E+01	  0.074709415	5.234900E+01	  0.074709415	1.281000E+00
275	  0.074909821	-3.169800E+01	  0.074909821	2.786100E+01	  0.074909821	5.233700E+01	  0.074909821	1.273000E+00
276	  0.075110219	-3.167900E+01	  0.075110219	2.780400E+01	  0.075110219	5.234300E+01	  0.075110219	1.273000E+00
277	  0.075310618	-3.160600E+01	  0.075310618	2.780800E+01	  0.075310618	5.236300E+01	  0.075310618	1.284000E+00
278	  0.075511023	-3.163500E+01	  0.075511023	2.755700E+01	  0.075511023	5.236100E+01	  0.075511023	1.270000E+00
279	  0.075711422	-3.161800E+01	  0.075711422	2.726500E+01	  0.075711422	5.237300E+01	  0.075711422	1.260000E+00
280	  0.075911827	-3.160200E+01	  0.075911827	2.700900E+01	  0.075911827	5.238300E+01	  0.075911827	1.251000E+00
281	  0.076112226	-3.162200E+01	  0.076112226	2.714700E+01	  0.076112226	5.237400E+01	  0.076112226	1.254000E+00
282	  0.076312624	-3.156200E+01	  0.076312624	2.691100E+01	  0.076312624	5.239700E+01	  0.076312624	1.253000E+00
283	  0.076513030	-3.154200E+01	  0.076513030	2.717300E+01	  0.076513030	5.239600E+01	  0.076513030	1.268000E+00
284	  0.076713428	-3.154700E+01	  0.076713428	2.653900E+01	  0.076713428	5.240900E+01	  0.076713428	1.240000E+00
285	  0.076913826	-3.159100E+01	  0.076913826	2.686800E+01	  0.076913826	5.238900E+01	  0.076913826	1.247000E+00
286	  0.077114232	-3.148700E+01	  0.077114232	2.676000E+01	  0.077114232	5.242100E+01	  0.077114232	1.258000E+00
287	  0.077314630	-3.154900E+01	  0.077314630	2.642200E+01	  0.077314630	5.241100E+01	  0.077314630	1.234000E+00
288	  0.077515028	-3.146900E+01	  0.077515028	2.635900E+01	  0.077515028	5.243500E+01	  0.077515028	1.244000E+00
289	  0.077715434	-3.143000E+01	  0.077715434	2.628900E+01	  0.077715434	5.244800E+01	  0.077715434	1.246000E+00
290	  0.077915832	-3.148600E+01	  0.077915832	2.620800E+01	  0.077915832	5.243400E+01	  0.077915832	1.235000E+00
291	  0.078116231	-3.141200E+01	  0.078116231	2.590800E+01	  0.078116231	5.246200E+01	  0.078116231	1.233000E+00
292	  0.078316636	-3.145600E+01	  0.078316636	2.602700E+01	  0.078316636	5.244700E+01	  0.078316636	1.231000E+00
293	  0.078517035	-3.145100E+01	  0.078517035	2.559100E+01	  0.078517035	5.245800E+01	  0.078517035	1.213000E+00
294	  0.078717433	-3.142600E+01	  0.078717433	2.570900E+01	  0.078717433	5.246300E+01	  0.078717433	1.222000E+00
295	  0.078917839	-3.141500E+01	  0.078917839	2.559000E+01	  0.078917839	5.246800E+01	  0.078917839	1.218000E+00
296	  0.079118237	-3.139800E+01	  0.079118237	2.546500E+01	  0.079118237	5.247600E+01	  0.079118237	1.215000E+00
297	  0.079318643	-3.137800E+01	  0.079318643	2.530000E+01	  0.079318643	5.248600E+01	  0.079318643	1.211000E+00
298	  0.079519041	-3.136800E+01	  0.079519041	2.516000E+01	  0.079519041	5.249200E+01	  0.079519041	1.206000E+00
299	  0.079719439	-3.138700E+01	  0.079719439	2.510100E+01	  0.079719439	5.248700E+01	  0.079719439	1.201000E+00
300	  0.079919845	-3.132400E+01	  0.079919845	2.484000E+01	  0.079919845	5.251200E+01	  0.079919845	1.198000E+00
301	  0.080120243	-3.131000E+01	  0.080120243	2.491800E+01	  0.080120243	5.251400E+01	  0.080120243	1.204000E+00
302	  0.080320641	-3.128700E+01	  0.080320641	2.467500E+01	  0.080320641	5.252600E+01	  0.080320641	1.196000E+00
303	  0.080521047	-3.129300E+01	  0.080521047	2.466100E+01	  0.080521047	5.252500E+01	  0.080521047	1.195000E+00
304	  0.080721445	-3.129200E+01	  0.080721445	2.450700E+01	  0.080721445	5.252800E+01	  0.080721445	1.188000E+00
305	  0.080921844	-3.124900E+01	  0.080921844	2.449400E+01	  0.080921844	5.254100E+01	  0.080921844	1.194000E+00
306	  0.081122249	-3.125300E+01	  0.081122249	2.443000E+01	  0.081122249	5.254200E+01	  0.081122249	1.190000E+00
307	  0.081322648	-3.126700E+01	  0.081322648	2.398700E+01	  0.081322648	5.254700E+01	  0.081322648	1.168000E+00
308	  0.081523046	-3.124800E+01	  0.081523046	2.395700E+01	  0.081523046	5.255300E+01	  0.081523046	1.169000E+00
309	  0.081723452	-3.122500E+01	  0.081723452	2.382600E+01	  0.081723452	5.256300E+01	  0.081723452	1.167000E+00
310	  0.081923850	-3.119300E+01	  0.081923850	2.389200E+01	  0.081923850	5.257100E+01	  0.081923850	1.174000E+00
311	  0.082124248	-3.121400E+01	  0.082124248	2.360700E+01	  0.082124248	5.257100E+01	  0.082124248	1.158000E+00
312	  0.082324654	-3.121400E+01	  0.082324654	2.374700E+01	  0.082324654	5.256800E+01	  0.082324654	1.165000E+00
313	  0.082525052	-3.117300E+01	  0.082525052	2.353200E+01	  0.082525052	5.258500E+01	  0.082525052	1.160000E+00
314	  0.082725458	-3.119800E+01	  0.082725458	2.371800E+01	  0.082725458	5.257400E+01	  0.082725458	1.166000E+00
315	  0.082925856	-3.120300E+01	  0.082925856	2.339200E+01	  0.082925856	5.257900E+01	  0.082925856	1.150000E+00
316	  0.083126254	-3.120100E+01	  0.083126254	2.324100E+01	  0.083126254	5.258300E+01	  0.083126254	1.143000E+00
317	  0.083326660	-3.116200E+01	  0.083326660	2.316000E+01	  0.083326660	5.259600E+01	  0.083326660	1.145000E+00
318	  0.083527058	-3.113900E+01	  0.083527058	2.293500E+01	  0.083527058	5.260800E+01	  0.083527058	1.138000E+00
319	  0.083727457	-3.114400E+01	  0.083727457	2.263100E+01	  0.083727457	5.261300E+01	  0.083727457	1.123000E+00
320	  0.083927862	-3.111500E+01	  0.083927862	2.263400E+01	  0.083927862	5.262200E+01	  0.083927862	1.127000E+00
321	  0.084128261	-3.111100E+01	  0.084128261	2.246400E+01	  0.084128261	5.262600E+01	  0.084128261	1.119000E+00
322	  0.084328659	-3.109200E+01	  0.084328659	2.244500E+01	  0.084328659	5.263300E+01	  0.084328659	1.121000E+00
323	  0.084529065	-3.106900E+01	  0.084529065	2.242300E+01	  0.084529065	5.264000E+01	  0.084529065	1.123000E+00
324	  0.084729463	-3.107200E+01	  0.084729463	2.216200E+01	  0.084729463	5.264500E+01	  0.084729463	1.111000E+00
325	  0.084929861	-3.106800E+01	  0.084929861	2.221000E+01	  0.084929861	5.264500E+01	  0.084929861	1.113000E+00
326	  0.085130267	-3.104700E+01	  0.085130267	2.194300E+01	  0.085130267	5.265700E+01	  0.085130267	1.103000E+00
327	  0.085330658	-3.106400E+01	  0.085330658	2.193500E+01	  0.085330658	5.265200E+01	  0.085330658	1.101000E+00
328	  0.085531056	-3.102400E+01	  0.085531056	2.176200E+01	  0.085531056	5.266800E+01	  0.085531056	1.098000E+00
329	  0.085731462	-3.105900E+01	  0.085731462	2.170500E+01	  0.085731462	5.265800E+01	  0.085731462	1.091000E+00
330	  0.085931860	-3.103000E+01	  0.085931860	2.154900E+01	  0.085931860	5.267000E+01	  0.085931860	1.087000E+00
331	  0.086132258	-3.101700E+01	  0.086132258	2.141400E+01	  0.086132258	5.267700E+01	  0.086132258	1.082000E+00
332	  0.086332664	-3.099100E+01	  0.086332664	2.134000E+01	  0.086332664	5.268700E+01	  0.086332664	1.082000E+00
333	  0.086533062	-3.100700E+01	  0.086533062	2.127900E+01	  0.086533062	5.268300E+01	  0.086533062	1.077000E+00
334	  0.086733460	-3.098400E+01	  0.086733460	2.111000E+01	  0.086733460	5.269400E+01	  0.086733460	1.072000E+00
335	  0.086933866	-3.093400E+01	  0.086933866	2.115600E+01	  0.086933866	5.270800E+01	  0.086933866	1.081000E+00
336	  0.087134264	-3.095600E+01	  0.087134264	2.078600E+01	  0.087134264	5.270900E+01	  0.087134264	1.060000E+00
337	  0.087334670	-3.092900E+01	  0.087334670	2.104400E+01	  0.087334670	5.271200E+01	  0.087334670	1.076000E+00
338	  0.087535068	-3.097600E+01	  0.087535068	2.079000E+01	  0.087535068	5.270200E+01	  0.087535068	1.058000E+00
339	  0.087735467	-3.096300E+01	  0.087735467	2.067700E+01	  0.087735467	5.270900E+01	  0.087735467	1.054000E+00
340	  0.087935872	-3.093300E+01	  0.087935872	2.039400E+01	  0.087935872	5.272400E+01	  0.087935872	1.044000E+00
341	  0.088136271	-3.094200E+01	  0.088136271	2.008500E+01	  0.088136271	5.272700E+01	  0.088136271	1.028000E+00
342	  0.088336669	-3.093500E+01	  0.088336669	2.004100E+01	  0.088336669	5.273000E+01	  0.088336669	1.027000E+00
343	  0.088537075	-3.088600E+01	  0.088537075	2.005700E+01	  0.088537075	5.274500E+01	  0.088537075	1.033000E+00
344	  0.088737473	-3.090000E+01	  0.088737473	1.986400E+01	  0.088737473	5.274400E+01	  0.088737473	1.022000E+00
345	  0.088937871	-3.087700E+01	  0.088937871	1.965000E+01	  0.088937871	5.275600E+01	  0.088937871	1.015000E+00
346	  0.089138277	-3.090000E+01	  0.089138277	1.978200E+01	  0.089138277	5.274600E+01	  0.089138277	1.018000E+00
347	  0.089338675	-3.091300E+01	  0.089338675	1.959300E+01	  0.089338675	5.274500E+01	  0.089338675	1.007000E+00
348	  0.089539073	-3.086900E+01	  0.089539073	1.956500E+01	  0.089539073	5.276000E+01	  0.089539073	1.011000E+00
349	  0.089739479	-3.086300E+01	  0.089739479	1.957500E+01	  0.089739479	5.276200E+01	  0.089739479	1.013000E+00
350	  0.089939877	-3.083100E+01	  0.089939877	1.923700E+01	  0.089939877	5.277900E+01	  0.089939877	1.000000E+00
351	  0.090140276	-3.083400E+01	  0.090140276	1.901900E+01	  0.090140276	5.278200E+01	  0.090140276	9.890000E-01
352	  0.090340681	-3.084300E+01	  0.090340681	1.890400E+01	  0.090340681	5.278100E+01	  0.090340681	9.820000E-01
353	  0.090541080	-3.081800E+01	  0.090541080	1.897700E+01	  0.090541080	5.278800E+01	  0.090541080	9.880000E-01
354	  0.090741485	-3.082800E+01	  0.090741485	1.893500E+01	  0.090741485	5.278500E+01	  0.090741485	9.850000E-01
355	  0.090941884	-3.081500E+01	  0.090941884	1.847900E+01	  0.090941884	5.279700E+01	  0.090941884	9.640000E-01
356	  0.091142282	-3.082000E+01	  0.091142282	1.850800E+01	  0.091142282	5.279500E+01	  0.091142282	9.650000E-01
357	  0.091342688	-3.080300E+01	  0.091342688	1.855000E+01	  0.091342688	5.280000E+01	  0.091342688	9.690000E-01
358	  0.091543086	-3.082600E+01	  0.091543086	1.843900E+01	  0.091543086	5.279500E+01	  0.091543086	9.610000E-01
359	  0.091743484	-3.080200E+01	  0.091743484	1.817900E+01	  0.091743484	5.280700E+01	  0.091743484	9.500000E-01
360	  0.091943890	-3.075800E+01	  0.091943890	1.796200E+01	  0.091943890	5.282600E+01	  0.091943890	9.450000E-01
361	  0.092144288	-3.079400E+01	  0.092144288	1.795600E+01	  0.092144288	5.281400E+01	  0.092144288	9.400000E-01
362	  0.092344686	-3.079000E+01	  0.092344686	1.782500E+01	  0.092344686	5.281700E+01	  0.092344686	9.340000E-01
363	  0.092545092	-3.075300E+01	  0.092545092	1.760700E+01	  0.092545092	5.283300E+01	  0.092545092	9.270000E-01
364	  0.092745490	-3.073200E+01	  0.092745490	1.746500E+01	  0.092745490	5.284300E+01	  0.092745490	9.220000E-01
365	  0.092945889	-3.075000E+01	  0.092945889	1.728400E+01	  0.092945889	5.284000E+01	  0.092945889	9.110000E-01
366	  0.093146294	-3.072700E+01	  0.093146294	1.737300E+01	  0.093146294	5.284600E+01	  0.093146294	9.180000E-01
367	  0.093346693	-3.074100E+01	  0.093346693	1.735400E+01	  0.093346693	5.284200E+01	  0.093346693	9.160000E-01
368	  0.093547091	-3.074300E+01	  0.093547091	1.709900E+01	  0.093547091	5.284500E+01	  0.093547091	9.020000E-01
369	  0.093747497	-3.074500E+01	  0.093747497	1.710600E+01	  0.093747497	5.284400E+01	  0.093747497	9.020000E-01
370	  0.093947895	-3.071000E+01	  0.093947895	1.684300E+01	  0.093947895	5.286100E+01	  0.093947895	8.930000E-01
371	  0.094148301	-3.072500E+01	  0.094148301	1.670100E+01	  0.094148301	5.285800E+01	  0.094148301	8.840000E-01
372	  0.094348699	-3.072000E+01	  0.094348699	1.652400E+01	  0.094348699	5.286200E+01	  0.094348699	8.750000E-01
373	  0.094549097	-3.067900E+01	  0.094549097	1.644900E+01	  0.094549097	5.287800E+01	  0.094549097	8.760000E-01
374	  0.094749503	-3.068300E+01	  0.094749503	1.633900E+01	  0.094749503	5.287800E+01	  0.094749503	8.700000E-01
375	  0.094949901	-3.068200E+01	  0.094949901	1.627500E+01	  0.094949901	5.287900E+01	  0.094949901	8.670000E-01
376	  0.095150299	-3.064700E+01	  0.095150299	1.622000E+01	  0.095150299	5.289200E+01	  0.095150299	8.680000E-01
377	  0.095350705	-3.066500E+01	  0.095350705	1.617600E+01	  0.095350705	5.288700E+01	  0.095350705	8.630000E-01
378	  0.095551103	-3.068500E+01	  0.095551103	1.606700E+01	  0.095551103	5.288200E+01	  0.095551103	8.560000E-01
379	  0.095751502	-3.064100E+01	  0.095751502	1.590600E+01	  0.095751502	5.289900E+01	  0.095751502	8.520000E-01
380	  0.095951907	-3.063900E+01	  0.095951907	1.571300E+01	  0.095951907	5.290300E+01	  0.095951907	8.420000E-01
381	  0.096152306	-3.066000E+01	  0.096152306	1.566200E+01	  0.096152306	5.289600E+01	  0.096152306	8.370000E-01
382	  0.096352704	-3.061900E+01	  0.096352704	1.530300E+01	  0.096352704	5.291600E+01	  0.096352704	8.230000E-01
383	  0.096553110	-3.058400E+01	  0.096553110	1.517000E+01	  0.096553110	5.293000E+01	  0.096553110	8.190000E-01
384	  0.096753508	-3.063500E+01	  0.096753508	1.525400E+01	  0.096753508	5.291100E+01	  0.096753508	8.190000E-01
385	  0.096953906	-3.060000E+01	  0.096953906	1.519700E+01	  0.096953906	5.292400E+01	  0.096953906	8.190000E-01
386	  0.097154312	-3.059000E+01	  0.097154312	1.481100E+01	  0.097154312	5.293400E+01	  0.097154312	8.000000E-01
387	  0.097354710	-3.061500E+01	  0.097354710	1.473900E+01	  0.097354710	5.292600E+01	  0.097354710	7.940000E-01
388	  0.097555116	-3.059000E+01	  0.097555116	1.472500E+01	  0.097555116	5.293500E+01	  0.097555116	7.950000E-01
389	  0.097755514	-3.059000E+01	  0.097755514	1.451100E+01	  0.097755514	5.293800E+01	  0.097755514	7.840000E-01
390	  0.097955912	-3.058200E+01	  0.097955912	1.433800E+01	  0.097955912	5.294300E+01	  0.097955912	7.760000E-01
391	  0.098156318	-3.057900E+01	  0.098156318	1.429500E+01	  0.098156318	5.294500E+01	  0.098156318	7.740000E-01
392	  0.098356716	-3.057700E+01	  0.098356716	1.403000E+01	  0.098356716	5.294900E+01	  0.098356716	7.600000E-01
393	  0.098557115	-3.053600E+01	  0.098557115	1.405000E+01	  0.098557115	5.296300E+01	  0.098557115	7.650000E-01
394	  0.098757520	-3.056600E+01	  0.098757520	1.381400E+01	  0.098757520	5.295600E+01	  0.098757520	7.490000E-01
395	  0.098957919	-3.055100E+01	  0.098957919	1.382600E+01	  0.098957919	5.296100E+01	  0.098957919	7.510000E-01
396	  0.099158317	-3.053500E+01	  0.099158317	1.381100E+01	  0.099158317	5.296700E+01	  0.099158317	7.520000E-01
397	  0.099358723	-3.053600E+01	  0.099358723	1.338200E+01	  0.099358723	5.297200E+01	  0.099358723	7.290000E-01
398	  0.099559121	-3.052100E+01	  0.099559121	1.344700E+01	  0.099559121	5.297700E+01	  0.099559121	7.340000E-01
399	  0.099759519	-3.052900E+01	  0.099759519	1.327400E+01	  0.099759519	5.297600E+01	  0.099759519	7.240000E-01
400	  0.099959925	-3.056700E+01	  0.099959925	1.301200E+01	  0.099959925	5.296700E+01	  0.099959925	7.070000E-01
401	  0.100160323	-3.051100E+01	  0.100160323	1.310300E+01	  0.100160323	5.298500E+01	  0.100160323	7.160000E-01
402	  0.100360721	-3.052700E+01	  0.100360721	1.291000E+01	  0.100360721	5.298200E+01	  0.100360721	7.050000E-01
403	  0.100561127	-3.051300E+01	  0.100561127	1.263400E+01	  0.100561127	5.299100E+01	  0.100561127	6.910000E-01
404	  0.100761525	-3.049200E+01	  0.100761525	1.275900E+01	  0.100761525	5.299600E+01	  0.100761525	7.000000E-01
405	  0.100961931	-3.048500E+01	  0.100961931	1.316700E+01	  0.100961931	5.299400E+01	  0.100961931	7.220000E-01
406	  0.101162329	-3.048900E+01	  0.101162329	1.275900E+01	  0.101162329	5.299700E+01	  0.101162329	7.000000E-01
407	  0.101362728	-3.048800E+01	  0.101362728	1.253000E+01	  0.101362728	5.300100E+01	  0.101362728	6.880000E-01
408	  0.101563133	-3.047100E+01	  0.101563133	1.212900E+01	  0.101563133	5.301200E+01	  0.101563133	6.670000E-01
409	  0.101763532	-3.045100E+01	  0.101763532	1.214200E+01	  0.101763532	5.301900E+01	  0.101763532	6.700000E-01
410	  0.101963930	-3.045800E+01	  0.101963930	1.214800E+01	  0.101963930	5.301600E+01	  0.101963930	6.690000E-01
411	  0.102164336	-3.044700E+01	  0.102164336	1.180700E+01	  0.102164336	5.302400E+01	  0.102164336	6.520000E-01
412	  0.102364734	-3.046700E+01	  0.102364734	1.195900E+01	  0.102364734	5.301500E+01	  0.102364734	6.590000E-01
413	  0.102565132	-3.042300E+01	  0.102565132	1.171100E+01	  0.102565132	5.303400E+01	  0.102565132	6.490000E-01
414	  0.102765530	-3.040200E+01	  0.102765530	1.174100E+01	  0.102765530	5.304100E+01	  0.102765530	6.520000E-01
415	  0.102965929	-3.041500E+01	  0.102965929	1.145200E+01	  0.102965929	5.304000E+01	  0.102965929	6.350000E-01
416	  0.103166327	-3.043600E+01	  0.103166327	1.130200E+01	  0.103166327	5.303400E+01	  0.103166327	6.250000E-01
417	  0.103366733	-3.042300E+01	  0.103366733	1.121400E+01	  0.103366733	5.304000E+01	  0.103366733	6.210000E-01
418	  0.103567131	-3.039400E+01	  0.103567131	1.117000E+01	  0.103567131	5.305100E+01	  0.103567131	6.210000E-01
419	  0.103767529	-3.045700E+01	  0.103767529	1.073100E+01	  0.103767529	5.303300E+01	  0.103767529	5.930000E-01
420	  0.103967935	-3.040500E+01	  0.103967935	1.097800E+01	  0.103967935	5.304900E+01	  0.103967935	6.100000E-01
421	  0.104168333	-3.045500E+01	  0.104168333	1.097100E+01	  0.104168333	5.303100E+01	  0.104168333	6.060000E-01
422	  0.104368731	-3.040000E+01	  0.104368731	1.047700E+01	  0.104368731	5.305700E+01	  0.104368731	5.830000E-01
423	  0.104569137	-3.045300E+01	  0.104569137	1.069700E+01	  0.104569137	5.303500E+01	  0.104569137	5.910000E-01
424	  0.104769535	-3.041800E+01	  0.104769535	1.056200E+01	  0.104769535	5.304900E+01	  0.104769535	5.860000E-01
425	  0.104969934	-3.045400E+01	  0.104969934	1.021500E+01	  0.104969934	5.304000E+01	  0.104969934	5.650000E-01
426	  0.105170339	-3.041000E+01	  0.105170339	1.056700E+01	  0.105170339	5.305200E+01	  0.105170339	5.870000E-01
427	  0.105370738	-3.039200E+01	  0.105370738	9.965000E+00	  0.105370738	5.306500E+01	  0.105370738	5.550000E-01
428	  0.105571143	-3.039600E+01	  0.105571143	9.746000E+00	  0.105571143	5.306500E+01	  0.105571143	5.430000E-01
429	  0.105771542	-3.040300E+01	  0.105771542	9.734000E+00	  0.105771542	5.306300E+01	  0.105771542	5.420000E-01
430	  0.105971940	-3.042000E+01	  0.105971940	9.876000E+00	  0.105971940	5.305600E+01	  0.105971940	5.480000E-01
431	  0.106172346	-3.037800E+01	  0.106172346	9.177000E+00	  0.106172346	5.307800E+01	  0.106172346	5.130000E-01
432	  0.106372744	-3.040600E+01	  0.106372744	9.152000E+00	  0.106372744	5.306800E+01	  0.106372744	5.090000E-01
433	  0.106573142	-3.040800E+01	  0.106573142	8.924000E+00	  0.106573142	5.306900E+01	  0.106573142	4.970000E-01
434	  0.106773548	-3.040900E+01	  0.106773548	9.060000E+00	  0.106773548	5.306700E+01	  0.106773548	5.040000E-01
435	  0.106973946	-3.037300E+01	  0.106973946	9.034000E+00	  0.106973946	5.308100E+01	  0.106973946	5.050000E-01
436	  0.107174344	-3.034300E+01	  0.107174344	8.834000E+00	  0.107174344	5.309400E+01	  0.107174344	4.960000E-01
437	  0.107374750	-3.038900E+01	  0.107374750	8.849000E+00	  0.107374750	5.307700E+01	  0.107374750	4.940000E-01
438	  0.107575148	-3.039000E+01	  0.107575148	8.780000E+00	  0.107575148	5.307700E+01	  0.107575148	4.900000E-01
439	  0.107775547	-3.034300E+01	  0.107775547	8.332000E+00	  0.107775547	5.309800E+01	  0.107775547	4.680000E-01
440	  0.107975952	-3.040500E+01	  0.107975952	8.708000E+00	  0.107975952	5.307200E+01	  0.107975952	4.850000E-01
441	  0.108176351	-3.037800E+01	  0.108176351	8.200000E+00	  0.108176351	5.308600E+01	  0.108176351	4.580000E-01
442	  0.108376749	-3.030600E+01	  0.108376749	8.242000E+00	  0.108376749	5.311200E+01	  0.108376749	4.650000E-01
443	  0.108577155	-3.035900E+01	  0.108577155	7.644000E+00	  0.108577155	5.309800E+01	  0.108577155	4.290000E-01
444	  0.108777553	-3.033600E+01	  0.108777553	7.713000E+00	  0.108777553	5.310600E+01	  0.108777553	4.340000E-01
445	  0.108977959	-3.038800E+01	  0.108977959	7.771000E+00	  0.108977959	5.308700E+01	  0.108977959	4.340000E-01
446	  0.109178357	-3.035300E+01	  0.109178357	7.616000E+00	  0.109178357	5.310100E+01	  0.109178357	4.270000E-01
447	  0.109378755	-3.033300E+01	  0.109378755	7.472000E+00	  0.109378755	5.310900E+01	  0.109378755	4.200000E-01
448	  0.109579161	-3.038700E+01	  0.109579161	6.984000E+00	  0.109579161	5.309300E+01	  0.109579161	3.900000E-01
449	  0.109779559	-3.033100E+01	  0.109779559	7.609000E+00	  0.109779559	5.310900E+01	  0.109779559	4.280000E-01
450	  0.109979957	-3.037300E+01	  0.109979957	7.131000E+00	  0.109979957	5.309700E+01	  0.109979957	3.990000E-01
451	  0.110180363	-3.033900E+01	  0.110180363	7.078000E+00	  0.110180363	5.311000E+01	  0.110180363	3.980000E-01
452	  0.110380761	-3.030000E+01	  0.110380761	6.704000E+00	  0.110380761	5.312700E+01	  0.110380761	3.790000E-01
453	  0.110581160	-3.032800E+01	  0.110581160	6.787000E+00	  0.110581160	5.311600E+01	  0.110581160	3.820000E-01
454	  0.110781565	-3.028400E+01	  0.110781565	6.451000E+00	  0.110781565	5.313400E+01	  0.110781565	3.650000E-01
455	  0.110981964	-3.033100E+01	  0.110981964	6.588000E+00	  0.110981964	5.311600E+01	  0.110981964	3.710000E-01
456	  0.111182362	-3.030100E+01	  0.111182362	6.377000E+00	  0.111182362	5.312900E+01	  0.111182362	3.600000E-01
457	  0.111382768	-3.032000E+01	  0.111382768	5.981000E+00	  0.111382768	5.312400E+01	  0.111382768	3.370000E-01
458	  0.111583166	-3.034500E+01	  0.111583166	6.150000E+00	  0.111583166	5.311400E+01	  0.111583166	3.460000E-01
459	  0.111783572	-3.030700E+01	  0.111783572	5.529000E+00	  0.111783572	5.313200E+01	  0.111783572	3.120000E-01
460	  0.111983970	-3.040300E+01	  0.111983970	5.518000E+00	  0.111983970	5.309600E+01	  0.111983970	3.080000E-01
461	  0.112184368	-3.030700E+01	  0.112184368	5.596000E+00	  0.112184368	5.313100E+01	  0.112184368	3.160000E-01
462	  0.112384774	-3.033900E+01	  0.112384774	5.678000E+00	  0.112384774	5.311900E+01	  0.112384774	3.190000E-01
463	  0.112585172	-3.029700E+01	  0.112585172	5.264000E+00	  0.112585172	5.313700E+01	  0.112585172	2.980000E-01
464	  0.112785570	-3.030400E+01	  0.112785570	5.305000E+00	  0.112785570	5.313400E+01	  0.112785570	3.000000E-01
465	  0.112985976	-3.028600E+01	  0.112985976	4.970000E+00	  0.112985976	5.314300E+01	  0.112985976	2.820000E-01
466	  0.113186374	-3.034500E+01	  0.113186374	5.088000E+00	  0.113186374	5.312000E+01	  0.113186374	2.860000E-01
467	  0.113386773	-3.031400E+01	  0.113386773	4.826000E+00	  0.113386773	5.313300E+01	  0.113386773	2.720000E-01
468	  0.113587178	-3.031500E+01	  0.113587178	4.437000E+00	  0.113587178	5.313500E+01	  0.113587178	2.500000E-01
469	  0.113787577	-3.026900E+01	  0.113787577	4.589000E+00	  0.113787577	5.315100E+01	  0.113787577	2.600000E-01
470	  0.113987975	-3.028600E+01	  0.113987975	4.774000E+00	  0.113987975	5.314400E+01	  0.113987975	2.700000E-01
471	  0.114188381	-3.027500E+01	  0.114188381	4.439000E+00	  0.114188381	5.314900E+01	  0.114188381	2.520000E-01
472	  0.114388779	-3.034000E+01	  0.114388779	4.282000E+00	  0.114388779	5.312600E+01	  0.114388779	2.410000E-01
473	  0.114589177	-3.026700E+01	  0.114589177	4.243000E+00	  0.114589177	5.315300E+01	  0.114589177	2.410000E-01
474	  0.114789583	-3.027900E+01	  0.114789583	3.809000E+00	  0.114789583	5.315100E+01	  0.114789583	2.160000E-01
475	  0.114989981	-3.026500E+01	  0.114989981	3.651000E+00	  0.114989981	5.315700E+01	  0.114989981	2.070000E-01
476	  0.115190387	-3.029000E+01	  0.115190387	3.612000E+00	  0.115190387	5.314700E+01	  0.115190387	2.050000E-01
477	  0.115390785	-3.027700E+01	  0.115390785	3.790000E+00	  0.115390785	5.315100E+01	  0.115390785	2.150000E-01
478	  0.115591183	-3.026900E+01	  0.115591183	3.326000E+00	  0.115591183	5.315600E+01	  0.115591183	1.890000E-01
479	  0.115791589	-3.025500E+01	  0.115791589	3.345000E+00	  0.115791589	5.316200E+01	  0.115791589	1.900000E-01
480	  0.115991987	-3.029400E+01	  0.115991987	3.252000E+00	  0.115991987	5.314700E+01	  0.115991987	1.840000E-01
481	  0.116192386	-3.029900E+01	  0.116192386	2.981000E+00	  0.116192386	5.314600E+01	  0.116192386	1.690000E-01
482	  0.116392791	-3.025500E+01	  0.116392791	2.996000E+00	  0.116392791	5.316300E+01	  0.116392791	1.700000E-01
483	  0.116593190	-3.024700E+01	  0.116593190	2.924000E+00	  0.116593190	5.316600E+01	  0.116593190	1.660000E-01
484	  0.116793588	-3.025100E+01	  0.116793588	2.728000E+00	  0.116793588	5.316500E+01	  0.116793588	1.550000E-01
485	  0.116993994	-3.024000E+01	  0.116993994	2.479000E+00	  0.116993994	5.317000E+01	  0.116993994	1.410000E-01
486	  0.117194392	-3.020800E+01	  0.117194392	2.700000E+00	  0.117194392	5.318100E+01	  0.117194392	1.540000E-01
487	  0.117394790	-3.025000E+01	  0.117394790	2.423000E+00	  0.117394790	5.316600E+01	  0.117394790	1.380000E-01
488	  0.117595196	-3.028900E+01	  0.117595196	2.237000E+00	  0.117595196	5.315200E+01	  0.117595196	1.270000E-01
489	  0.117795594	-3.028100E+01	  0.117795594	2.257000E+00	  0.117795594	5.315500E+01	  0.117795594	1.280000E-01
490	  0.117995992	-3.024700E+01	  0.117995992	1.832000E+00	  0.117995992	5.316900E+01	  0.117995992	1.040000E-01
491	  0.118196398	-3.022000E+01	  0.118196398	1.822000E+00	  0.118196398	5.317900E+01	  0.118196398	1.040000E-01
492	  0.118396796	-3.023400E+01	  0.118396796	1.532000E+00	  0.118396796	5.317400E+01	  0.118396796	8.700000E-02
493	  0.118597202	-3.025200E+01	  0.118597202	1.506000E+00	  0.118597202	5.316700E+01	  0.118597202	8.500000E-02
494	  0.118797600	-3.024900E+01	  0.118797600	1.196000E+00	  0.118797600	5.316900E+01	  0.118797600	6.800000E-02
495	  0.118997999	-3.027700E+01	  0.118997999	1.373000E+00	  0.118997999	5.315800E+01	  0.118997999	7.800000E-02
496	  0.119198404	-3.023200E+01	  0.119198404	1.187000E+00	  0.119198404	5.317500E+01	  0.119198404	6.700000E-02
497	  0.119398803	-3.026700E+01	  0.119398803	1.236000E+00	  0.119398803	5.316200E+01	  0.119398803	7.000000E-02
498	  0.119599201	-3.028100E+01	  0.119599201	9.820000E-01	  0.119599201	5.315700E+01	  0.119599201	5.500000E-02
499	  0.119799607	-3.023200E+01	  0.119799607	7.270000E-01	  0.119799607	5.317600E+01	  0.119799607	4.100000E-02
500	  0.120000005	-3.024200E+01	  0.120000005	4.370000E-01	  0.120000005	5.317200E+01	  0.120000005	2.400000E-02
