! Anritsu VNA Master:             	Model: MS2036C/10/77
! SN:             	1601066
! /bd0/18may08.cable.cal/top.20.2.txt
! Existing Calibration Information:
! TYPE:             	Current Settings	Active Cal Settings
! TIME:             	05/08/2018 06:13:56 PM	05/08/2018 05:57:55 PM
! INTERNAL TEMP:    	49.5 C	49.3 C
! # POINTS:         	500	500
! START FREQ:       	20.000 MHz	20.000 MHz
! STOP FREQ:        	120.000 MHz	120.000 MHz
! SOURCE POWER:     	High	High
! IFBW:             	50 Hz	50 Hz
! AVG FACTOR:       	  1 	  1 
! REF PLANE 1:      	0 mm	0 mm
! REF PLANE 2:      	0 mm	0 mm
! CAL TYPE:         	Full S11	Full S11
! CAL METHOD:       	SOLT	SOLT
! CAL LINE TYPE:    	Coax	Coax
! DUT PORT 1:       	K-Conn(F)	K-Conn(F)
! DUT PORT 2:       	K-Conn(F)	K-Conn(F)
! CAL STATUS:       	OK: Accuracy High	--
! PROP-V:       	0.700
! CABLE LOSS:       	0.000 dB/m
! REF IMPEDANCE:       	50.0
! Trace Specific Parameters:	TR1	TR2	TR3	TR4
! TRACE.#.Y (GRAPH TYPE)	LOG MAG	PHASE	REAL IMPEDANCE	IMAGINARY IMPEDANCE
! TRACE.#.X 	FREQ.GHZ	FREQ.GHZ	FREQ.GHZ	FREQ.GHZ
! S-PARAMETER	S11	S11	S11	S11
! SMOOTH/APERTURE %	0	0	0	0
! WINDOW	NSL	NSL	NSL	NSL
! GATING	OFF	OFF	OFF	OFF
! FGTD	OFF	OFF	OFF	OFF
Marker Information per Trace:	TR1	TR2	TR3	TR4
!MK1	--	"MK1 TR2:  20.000 MHz,PH:155.69°"	--	--
!MK2	--	--	"MK2 TR3:  70.100 200 MHz,Z:(30.659 ohm, 33.404 ohm)"	--
!MK3	--	--	--	--
!MK4	--	--	--	--
!MK5	--	--	--	--
!MK6	--	--	--	--
!MK7	--	--	--	--
!MK8	--	--	--	--
PNT	TR1.FREQ.GHZ	TR1.LOG MAG.dB	TR2.FREQ.GHZ	TR2.PHASE.deg	TR3.FREQ.GHZ	TR3.REAL IMPEDANCE.ohm	TR4.FREQ.GHZ	TR4.IMAGINARY IMPEDANCE.ohm
1	  0.020000000	-7.257000E+00	  0.020000000	1.556900E+02	  0.020000000	2.051900E+01	  0.020000000	9.023000E+00
2	  0.020200402	-7.256000E+00	  0.020200402	1.554510E+02	  0.020200402	2.053400E+01	  0.020200402	9.113000E+00
3	  0.020400802	-7.257000E+00	  0.020400802	1.552180E+02	  0.020400802	2.055100E+01	  0.020400802	9.200000E+00
4	  0.020601204	-7.256000E+00	  0.020601204	1.549820E+02	  0.020601204	2.056500E+01	  0.020601204	9.290000E+00
5	  0.020801604	-7.256000E+00	  0.020801604	1.547470E+02	  0.020801604	2.057900E+01	  0.020801604	9.379000E+00
6	  0.021002004	-7.257000E+00	  0.021002004	1.545080E+02	  0.021002004	2.059900E+01	  0.021002004	9.468000E+00
7	  0.021202406	-7.257000E+00	  0.021202406	1.542610E+02	  0.021202406	2.061500E+01	  0.021202406	9.562000E+00
8	  0.021402806	-7.258000E+00	  0.021402806	1.540280E+02	  0.021402806	2.063300E+01	  0.021402806	9.650000E+00
9	  0.021603208	-7.257000E+00	  0.021603208	1.537940E+02	  0.021603208	2.064800E+01	  0.021603208	9.739000E+00
10	  0.021803608	-7.257000E+00	  0.021803608	1.535600E+02	  0.021803608	2.066500E+01	  0.021803608	9.827000E+00
11	  0.022004008	-7.261000E+00	  0.022004008	1.533250E+02	  0.022004008	2.069000E+01	  0.022004008	9.914000E+00
12	  0.022204408	-7.257000E+00	  0.022204408	1.530770E+02	  0.022204408	2.070000E+01	  0.022204408	1.001000E+01
13	  0.022404809	-7.259000E+00	  0.022404809	1.528410E+02	  0.022404809	2.072100E+01	  0.022404809	1.009900E+01
14	  0.022605211	-7.260000E+00	  0.022605211	1.526070E+02	  0.022605211	2.074000E+01	  0.022605211	1.018800E+01
15	  0.022805611	-7.262000E+00	  0.022805611	1.523660E+02	  0.022805611	2.076400E+01	  0.022805611	1.027800E+01
16	  0.023006011	-7.262000E+00	  0.023006011	1.521220E+02	  0.023006011	2.078100E+01	  0.023006011	1.037100E+01
17	  0.023206413	-7.259000E+00	  0.023206413	1.518970E+02	  0.023206413	2.079200E+01	  0.023206413	1.045700E+01
18	  0.023406813	-7.260000E+00	  0.023406813	1.516530E+02	  0.023406813	2.081100E+01	  0.023406813	1.055000E+01
19	  0.023607215	-7.260000E+00	  0.023607215	1.514230E+02	  0.023607215	2.083000E+01	  0.023607215	1.063700E+01
20	  0.023807615	-7.262000E+00	  0.023807615	1.511750E+02	  0.023807615	2.085500E+01	  0.023807615	1.073000E+01
21	  0.024008015	-7.262000E+00	  0.024008015	1.509380E+02	  0.024008015	2.087400E+01	  0.024008015	1.082000E+01
22	  0.024208417	-7.263000E+00	  0.024208417	1.507000E+02	  0.024208417	2.089400E+01	  0.024208417	1.091000E+01
23	  0.024408817	-7.262000E+00	  0.024408817	1.504660E+02	  0.024408817	2.091100E+01	  0.024408817	1.100000E+01
24	  0.024609219	-7.261000E+00	  0.024609219	1.502390E+02	  0.024609219	2.092700E+01	  0.024609219	1.108700E+01
25	  0.024809619	-7.264000E+00	  0.024809619	1.499920E+02	  0.024809619	2.095400E+01	  0.024809619	1.118000E+01
26	  0.025010020	-7.265000E+00	  0.025010020	1.497420E+02	  0.025010020	2.097600E+01	  0.025010020	1.127500E+01
27	  0.025210422	-7.264000E+00	  0.025210422	1.495150E+02	  0.025210422	2.099400E+01	  0.025210422	1.136200E+01
28	  0.025410822	-7.263000E+00	  0.025410822	1.492750E+02	  0.025410822	2.101100E+01	  0.025410822	1.145400E+01
29	  0.025611224	-7.265000E+00	  0.025611224	1.490430E+02	  0.025611224	2.103600E+01	  0.025611224	1.154200E+01
30	  0.025811624	-7.267000E+00	  0.025811624	1.488090E+02	  0.025811624	2.106000E+01	  0.025811624	1.163000E+01
31	  0.026012026	-7.266000E+00	  0.026012026	1.485690E+02	  0.026012026	2.107800E+01	  0.026012026	1.172200E+01
32	  0.026212426	-7.265000E+00	  0.026212426	1.483270E+02	  0.026212426	2.109800E+01	  0.026212426	1.181600E+01
33	  0.026412826	-7.265000E+00	  0.026412826	1.480870E+02	  0.026412826	2.111800E+01	  0.026412826	1.190800E+01
34	  0.026613226	-7.265000E+00	  0.026613226	1.478610E+02	  0.026613226	2.113900E+01	  0.026613226	1.199400E+01
35	  0.026813626	-7.265000E+00	  0.026813626	1.476100E+02	  0.026813626	2.116000E+01	  0.026813626	1.209100E+01
36	  0.027014028	-7.266000E+00	  0.027014028	1.473660E+02	  0.027014028	2.118600E+01	  0.027014028	1.218300E+01
37	  0.027214428	-7.265000E+00	  0.027214428	1.471470E+02	  0.027214428	2.120200E+01	  0.027214428	1.226800E+01
38	  0.027414829	-7.263000E+00	  0.027414829	1.468920E+02	  0.027414829	2.122100E+01	  0.027414829	1.236700E+01
39	  0.027615231	-7.264000E+00	  0.027615231	1.466710E+02	  0.027615231	2.124400E+01	  0.027615231	1.245200E+01
40	  0.027815631	-7.265000E+00	  0.027815631	1.464320E+02	  0.027815631	2.126700E+01	  0.027815631	1.254300E+01
41	  0.028016033	-7.265000E+00	  0.028016033	1.462020E+02	  0.028016033	2.128900E+01	  0.028016033	1.263200E+01
42	  0.028216433	-7.264000E+00	  0.028216433	1.459650E+02	  0.028216433	2.131000E+01	  0.028216433	1.272400E+01
43	  0.028416833	-7.265000E+00	  0.028416833	1.457190E+02	  0.028416833	2.133600E+01	  0.028416833	1.281800E+01
44	  0.028617235	-7.265000E+00	  0.028617235	1.454990E+02	  0.028617235	2.135500E+01	  0.028617235	1.290300E+01
45	  0.028817635	-7.266000E+00	  0.028817635	1.452510E+02	  0.028817635	2.138400E+01	  0.028817635	1.299700E+01
46	  0.029018037	-7.263000E+00	  0.029018037	1.450320E+02	  0.029018037	2.139700E+01	  0.029018037	1.308400E+01
47	  0.029218437	-7.262000E+00	  0.029218437	1.447890E+02	  0.029218437	2.141900E+01	  0.029218437	1.317900E+01
48	  0.029418837	-7.262000E+00	  0.029418837	1.445630E+02	  0.029418837	2.144100E+01	  0.029418837	1.326600E+01
49	  0.029619239	-7.261000E+00	  0.029619239	1.443200E+02	  0.029619239	2.146200E+01	  0.029619239	1.336100E+01
50	  0.029819639	-7.260000E+00	  0.029819639	1.440780E+02	  0.029819639	2.148300E+01	  0.029819639	1.345500E+01
51	  0.030020041	-7.259000E+00	  0.030020041	1.438410E+02	  0.030020041	2.150500E+01	  0.030020041	1.354800E+01
52	  0.030220442	-7.259000E+00	  0.030220442	1.436200E+02	  0.030220442	2.152900E+01	  0.030220442	1.363300E+01
53	  0.030420844	-7.257000E+00	  0.030420844	1.433890E+02	  0.030420844	2.154600E+01	  0.030420844	1.372500E+01
54	  0.030621244	-7.257000E+00	  0.030621244	1.431380E+02	  0.030621244	2.157200E+01	  0.030621244	1.382200E+01
55	  0.030821644	-7.255000E+00	  0.030821644	1.429140E+02	  0.030821644	2.159100E+01	  0.030821644	1.391000E+01
56	  0.031022044	-7.257000E+00	  0.031022044	1.426680E+02	  0.031022044	2.162000E+01	  0.031022044	1.400500E+01
57	  0.031222444	-7.238000E+00	  0.031222444	1.425090E+02	  0.031222444	2.159000E+01	  0.031222444	1.408000E+01
58	  0.031422846	-7.236000E+00	  0.031422846	1.422680E+02	  0.031422846	2.161100E+01	  0.031422846	1.417500E+01
59	  0.031623244	-7.238000E+00	  0.031623244	1.420460E+02	  0.031623244	2.164000E+01	  0.031623244	1.426000E+01
60	  0.031823646	-7.239000E+00	  0.031823646	1.417970E+02	  0.031823646	2.166900E+01	  0.031823646	1.435700E+01
61	  0.032024048	-7.240000E+00	  0.032024048	1.415550E+02	  0.032024048	2.169800E+01	  0.032024048	1.445100E+01
62	  0.032224450	-7.240000E+00	  0.032224450	1.413120E+02	  0.032224450	2.172300E+01	  0.032224450	1.454600E+01
63	  0.032424849	-7.239000E+00	  0.032424849	1.410830E+02	  0.032424849	2.174600E+01	  0.032424849	1.463600E+01
64	  0.032625251	-7.239000E+00	  0.032625251	1.408380E+02	  0.032625251	2.177300E+01	  0.032625251	1.473200E+01
65	  0.032825653	-7.237000E+00	  0.032825653	1.406110E+02	  0.032825653	2.179400E+01	  0.032825653	1.482200E+01
66	  0.033026051	-7.240000E+00	  0.033026051	1.403520E+02	  0.033026051	2.183100E+01	  0.033026051	1.492100E+01
67	  0.033226453	-7.240000E+00	  0.033226453	1.401140E+02	  0.033226453	2.185800E+01	  0.033226453	1.501500E+01
68	  0.033426855	-7.237000E+00	  0.033426855	1.398640E+02	  0.033426855	2.188100E+01	  0.033426855	1.511500E+01
69	  0.033627257	-7.239000E+00	  0.033627257	1.396200E+02	  0.033627257	2.191400E+01	  0.033627257	1.520900E+01
70	  0.033827655	-7.239000E+00	  0.033827655	1.393740E+02	  0.033827655	2.194200E+01	  0.033827655	1.530600E+01
71	  0.034028057	-7.240000E+00	  0.034028057	1.391470E+02	  0.034028057	2.197100E+01	  0.034028057	1.539500E+01
72	  0.034228459	-7.239000E+00	  0.034228459	1.388990E+02	  0.034228459	2.199900E+01	  0.034228459	1.549300E+01
73	  0.034428857	-7.238000E+00	  0.034428857	1.386740E+02	  0.034428857	2.202200E+01	  0.034428857	1.558200E+01
74	  0.034629259	-7.237000E+00	  0.034629259	1.384420E+02	  0.034629259	2.204800E+01	  0.034629259	1.567500E+01
75	  0.034829661	-7.239000E+00	  0.034829661	1.381830E+02	  0.034829661	2.208400E+01	  0.034829661	1.577500E+01
76	  0.035030060	-7.238000E+00	  0.035030060	1.379400E+02	  0.035030060	2.211100E+01	  0.035030060	1.587200E+01
77	  0.035230462	-7.236000E+00	  0.035230462	1.377010E+02	  0.035230462	2.213600E+01	  0.035230462	1.596800E+01
78	  0.035430863	-7.238000E+00	  0.035430863	1.374560E+02	  0.035430863	2.217200E+01	  0.035430863	1.606300E+01
79	  0.035631265	-7.238000E+00	  0.035631265	1.372220E+02	  0.035631265	2.220100E+01	  0.035631265	1.615600E+01
80	  0.035831664	-7.240000E+00	  0.035831664	1.369880E+02	  0.035831664	2.223400E+01	  0.035831664	1.624700E+01
81	  0.036032066	-7.239000E+00	  0.036032066	1.367520E+02	  0.036032066	2.226100E+01	  0.036032066	1.634100E+01
82	  0.036232468	-7.240000E+00	  0.036232468	1.365150E+02	  0.036232468	2.229500E+01	  0.036232468	1.643400E+01
83	  0.036432866	-7.238000E+00	  0.036432866	1.362820E+02	  0.036432866	2.231900E+01	  0.036432866	1.652900E+01
84	  0.036633268	-7.235000E+00	  0.036633268	1.360420E+02	  0.036633268	2.234100E+01	  0.036633268	1.662700E+01
85	  0.036833670	-7.239000E+00	  0.036833670	1.358130E+02	  0.036833670	2.238300E+01	  0.036833670	1.671400E+01
86	  0.037034072	-7.239000E+00	  0.037034072	1.355650E+02	  0.037034072	2.241500E+01	  0.037034072	1.681300E+01
87	  0.037234470	-7.238000E+00	  0.037234470	1.353190E+02	  0.037234470	2.244600E+01	  0.037234470	1.691100E+01
88	  0.037434869	-7.238000E+00	  0.037434869	1.350940E+02	  0.037434869	2.247400E+01	  0.037434869	1.700200E+01
89	  0.037635271	-7.237000E+00	  0.037635271	1.348660E+02	  0.037635271	2.250400E+01	  0.037635271	1.709300E+01
90	  0.037835669	-7.236000E+00	  0.037835669	1.346290E+02	  0.037835669	2.253200E+01	  0.037835669	1.718800E+01
91	  0.038036071	-7.238000E+00	  0.038036071	1.343900E+02	  0.038036071	2.257000E+01	  0.038036071	1.728200E+01
92	  0.038236473	-7.237000E+00	  0.038236473	1.341560E+02	  0.038236473	2.260100E+01	  0.038236473	1.737600E+01
93	  0.038436871	-7.234000E+00	  0.038436871	1.339330E+02	  0.038436871	2.262300E+01	  0.038436871	1.746800E+01
94	  0.038637273	-7.236000E+00	  0.038637273	1.336900E+02	  0.038637273	2.266000E+01	  0.038637273	1.756400E+01
95	  0.038837675	-7.237000E+00	  0.038837675	1.334480E+02	  0.038837675	2.269800E+01	  0.038837675	1.766000E+01
96	  0.039038073	-7.234000E+00	  0.039038073	1.332190E+02	  0.039038073	2.272300E+01	  0.039038073	1.775500E+01
97	  0.039238475	-7.235000E+00	  0.039238475	1.329770E+02	  0.039238475	2.275800E+01	  0.039238475	1.785100E+01
98	  0.039438877	-7.236000E+00	  0.039438877	1.327380E+02	  0.039438877	2.279500E+01	  0.039438877	1.794600E+01
99	  0.039639279	-7.235000E+00	  0.039639279	1.325080E+02	  0.039639279	2.282600E+01	  0.039639279	1.803900E+01
100	  0.039839678	-7.235000E+00	  0.039839678	1.322740E+02	  0.039839678	2.285900E+01	  0.039839678	1.813400E+01
101	  0.040040080	-7.232000E+00	  0.040040080	1.320510E+02	  0.040040080	2.288500E+01	  0.040040080	1.822600E+01
102	  0.040240481	-7.233000E+00	  0.040240481	1.318240E+02	  0.040240481	2.292000E+01	  0.040240481	1.831600E+01
103	  0.040440880	-7.232000E+00	  0.040440880	1.315860E+02	  0.040440880	2.295100E+01	  0.040440880	1.841400E+01
104	  0.040641282	-7.232000E+00	  0.040641282	1.313530E+02	  0.040641282	2.298700E+01	  0.040641282	1.850800E+01
105	  0.040841684	-7.231000E+00	  0.040841684	1.311240E+02	  0.040841684	2.301800E+01	  0.040841684	1.860100E+01
106	  0.041042086	-7.230000E+00	  0.041042086	1.308870E+02	  0.041042086	2.305100E+01	  0.041042086	1.869800E+01
107	  0.041242484	-7.231000E+00	  0.041242484	1.306400E+02	  0.041242484	2.309200E+01	  0.041242484	1.879700E+01
108	  0.041442886	-7.231000E+00	  0.041442886	1.304230E+02	  0.041442886	2.312400E+01	  0.041442886	1.888500E+01
109	  0.041643288	-7.229000E+00	  0.041643288	1.301700E+02	  0.041643288	2.315700E+01	  0.041643288	1.899000E+01
110	  0.041843686	-7.231000E+00	  0.041843686	1.299510E+02	  0.041843686	2.319500E+01	  0.041843686	1.907600E+01
111	  0.042044088	-7.229000E+00	  0.042044088	1.297230E+02	  0.042044088	2.322600E+01	  0.042044088	1.917100E+01
112	  0.042244490	-7.228000E+00	  0.042244490	1.294840E+02	  0.042244490	2.326100E+01	  0.042244490	1.926900E+01
113	  0.042444889	-7.229000E+00	  0.042444889	1.292620E+02	  0.042444889	2.329800E+01	  0.042444889	1.935800E+01
114	  0.042645290	-7.227000E+00	  0.042645290	1.290150E+02	  0.042645290	2.333200E+01	  0.042645290	1.946100E+01
115	  0.042845692	-7.228000E+00	  0.042845692	1.287890E+02	  0.042845692	2.337000E+01	  0.042845692	1.955200E+01
116	  0.043046094	-7.227000E+00	  0.043046094	1.285680E+02	  0.043046094	2.340200E+01	  0.043046094	1.964400E+01
117	  0.043246493	-7.226000E+00	  0.043246493	1.283320E+02	  0.043246493	2.343900E+01	  0.043246493	1.974100E+01
118	  0.043446895	-7.226000E+00	  0.043446895	1.280940E+02	  0.043446895	2.347800E+01	  0.043446895	1.983800E+01
119	  0.043647297	-7.224000E+00	  0.043647297	1.278450E+02	  0.043647297	2.351200E+01	  0.043647297	1.994200E+01
120	  0.043847695	-7.225000E+00	  0.043847695	1.276250E+02	  0.043847695	2.355000E+01	  0.043847695	2.003200E+01
121	  0.044048097	-7.222000E+00	  0.044048097	1.273870E+02	  0.044048097	2.358200E+01	  0.044048097	2.013200E+01
122	  0.044248499	-7.220000E+00	  0.044248499	1.271580E+02	  0.044248499	2.361500E+01	  0.044248499	2.022800E+01
123	  0.044448901	-7.221000E+00	  0.044448901	1.269160E+02	  0.044448901	2.365800E+01	  0.044448901	2.032600E+01
124	  0.044649299	-7.223000E+00	  0.044649299	1.266950E+02	  0.044649299	2.370100E+01	  0.044649299	2.041500E+01
125	  0.044849701	-7.223000E+00	  0.044849701	1.264470E+02	  0.044849701	2.374300E+01	  0.044849701	2.051700E+01
126	  0.045050103	-7.220000E+00	  0.045050103	1.261970E+02	  0.045050103	2.377800E+01	  0.045050103	2.062300E+01
127	  0.045250501	-7.220000E+00	  0.045250501	1.259680E+02	  0.045250501	2.381800E+01	  0.045250501	2.071700E+01
128	  0.045450903	-7.220000E+00	  0.045450903	1.257280E+02	  0.045450903	2.385900E+01	  0.045450903	2.081600E+01
129	  0.045651305	-7.219000E+00	  0.045651305	1.254970E+02	  0.045651305	2.389500E+01	  0.045651305	2.091300E+01
130	  0.045851704	-7.218000E+00	  0.045851704	1.252800E+02	  0.045851704	2.393000E+01	  0.045851704	2.100400E+01
131	  0.046052106	-7.217000E+00	  0.046052106	1.250320E+02	  0.046052106	2.397200E+01	  0.046052106	2.110800E+01
132	  0.046252504	-7.216000E+00	  0.046252504	1.247990E+02	  0.046252504	2.401100E+01	  0.046252504	2.120500E+01
133	  0.046452906	-7.218000E+00	  0.046452906	1.245610E+02	  0.046452906	2.405900E+01	  0.046452906	2.130100E+01
134	  0.046653304	-7.218000E+00	  0.046653304	1.243180E+02	  0.046653304	2.410200E+01	  0.046653304	2.140200E+01
135	  0.046853706	-7.218000E+00	  0.046853706	1.240860E+02	  0.046853706	2.414400E+01	  0.046853706	2.149800E+01
136	  0.047054108	-7.215000E+00	  0.047054108	1.238480E+02	  0.047054108	2.418000E+01	  0.047054108	2.160000E+01
137	  0.047254506	-7.214000E+00	  0.047254506	1.236040E+02	  0.047254506	2.422000E+01	  0.047254506	2.170400E+01
138	  0.047454908	-7.212000E+00	  0.047454908	1.233720E+02	  0.047454908	2.425800E+01	  0.047454908	2.180300E+01
139	  0.047655310	-7.213000E+00	  0.047655310	1.231400E+02	  0.047655310	2.430400E+01	  0.047655310	2.189800E+01
140	  0.047855709	-7.211000E+00	  0.047855709	1.229010E+02	  0.047855709	2.434200E+01	  0.047855709	2.200100E+01
141	  0.048056111	-7.209000E+00	  0.048056111	1.226660E+02	  0.048056111	2.438000E+01	  0.048056111	2.210100E+01
142	  0.048256513	-7.207000E+00	  0.048256513	1.224340E+02	  0.048256513	2.442000E+01	  0.048256513	2.220000E+01
143	  0.048456915	-7.208000E+00	  0.048456915	1.221980E+02	  0.048456915	2.446600E+01	  0.048456915	2.229800E+01
144	  0.048657313	-7.206000E+00	  0.048657313	1.219640E+02	  0.048657313	2.450700E+01	  0.048657313	2.239800E+01
145	  0.048857715	-7.204000E+00	  0.048857715	1.217100E+02	  0.048857715	2.454900E+01	  0.048857715	2.250800E+01
146	  0.049058117	-7.204000E+00	  0.049058117	1.214830E+02	  0.049058117	2.459200E+01	  0.049058117	2.260300E+01
147	  0.049258515	-7.203000E+00	  0.049258515	1.212560E+02	  0.049258515	2.463300E+01	  0.049258515	2.270000E+01
148	  0.049458917	-7.202000E+00	  0.049458917	1.210200E+02	  0.049458917	2.467700E+01	  0.049458917	2.280000E+01
149	  0.049659319	-7.202000E+00	  0.049659319	1.207830E+02	  0.049659319	2.472600E+01	  0.049659319	2.289900E+01
150	  0.049859721	-7.203000E+00	  0.049859721	1.205420E+02	  0.049859721	2.477600E+01	  0.049859721	2.300000E+01
151	  0.050060119	-7.201000E+00	  0.050060119	1.203160E+02	  0.050060119	2.481400E+01	  0.050060119	2.309800E+01
152	  0.050260521	-7.200000E+00	  0.050260521	1.200840E+02	  0.050260521	2.485900E+01	  0.050260521	2.319700E+01
153	  0.050460923	-7.198000E+00	  0.050460923	1.198550E+02	  0.050460923	2.489900E+01	  0.050460923	2.329700E+01
154	  0.050661322	-7.197000E+00	  0.050661322	1.196340E+02	  0.050661322	2.494200E+01	  0.050661322	2.339100E+01
155	  0.050861724	-7.197000E+00	  0.050861724	1.193820E+02	  0.050861724	2.499200E+01	  0.050861724	2.349800E+01
156	  0.051062126	-7.196000E+00	  0.051062126	1.191600E+02	  0.051062126	2.503600E+01	  0.051062126	2.359300E+01
157	  0.051262524	-7.194000E+00	  0.051262524	1.189130E+02	  0.051262524	2.508100E+01	  0.051262524	2.370200E+01
158	  0.051462926	-7.193000E+00	  0.051462926	1.186850E+02	  0.051462926	2.512600E+01	  0.051462926	2.380000E+01
159	  0.051663328	-7.192000E+00	  0.051663328	1.184590E+02	  0.051663328	2.516900E+01	  0.051663328	2.389800E+01
160	  0.051863730	-7.192000E+00	  0.051863730	1.182200E+02	  0.051863730	2.522100E+01	  0.051863730	2.399900E+01
161	  0.052064128	-7.192000E+00	  0.052064128	1.179960E+02	  0.052064128	2.526900E+01	  0.052064128	2.409300E+01
162	  0.052264530	-7.189000E+00	  0.052264530	1.177450E+02	  0.052264530	2.531300E+01	  0.052264530	2.420500E+01
163	  0.052464932	-7.188000E+00	  0.052464932	1.175100E+02	  0.052464932	2.536100E+01	  0.052464932	2.430700E+01
164	  0.052665330	-7.189000E+00	  0.052665330	1.173040E+02	  0.052665330	2.540900E+01	  0.052665330	2.439400E+01
165	  0.052865732	-7.186000E+00	  0.052865732	1.170560E+02	  0.052865732	2.545400E+01	  0.052865732	2.450400E+01
166	  0.053066134	-7.188000E+00	  0.053066134	1.168390E+02	  0.053066134	2.550600E+01	  0.053066134	2.459500E+01
167	  0.053266536	-7.186000E+00	  0.053266536	1.165790E+02	  0.053266536	2.555700E+01	  0.053266536	2.470900E+01
168	  0.053466935	-7.183000E+00	  0.053466935	1.163730E+02	  0.053466935	2.559500E+01	  0.053466935	2.480100E+01
169	  0.053667337	-7.183000E+00	  0.053667337	1.161360E+02	  0.053667337	2.564600E+01	  0.053667337	2.490400E+01
170	  0.053867739	-7.180000E+00	  0.053867739	1.159210E+02	  0.053867739	2.568600E+01	  0.053867739	2.500000E+01
171	  0.054068137	-7.179000E+00	  0.054068137	1.156800E+02	  0.054068137	2.573800E+01	  0.054068137	2.510600E+01
172	  0.054268539	-7.177000E+00	  0.054268539	1.154490E+02	  0.054268539	2.578600E+01	  0.054268539	2.520800E+01
173	  0.054468941	-7.178000E+00	  0.054468941	1.152160E+02	  0.054468941	2.584100E+01	  0.054468941	2.530700E+01
174	  0.054669339	-7.175000E+00	  0.054669339	1.149970E+02	  0.054669339	2.588200E+01	  0.054669339	2.540600E+01
175	  0.054869737	-7.176000E+00	  0.054869737	1.147640E+02	  0.054869737	2.593800E+01	  0.054869737	2.550600E+01
176	  0.055070139	-7.175000E+00	  0.055070139	1.145330E+02	  0.055070139	2.599100E+01	  0.055070139	2.560600E+01
177	  0.055270538	-7.176000E+00	  0.055270538	1.143260E+02	  0.055270538	2.604100E+01	  0.055270538	2.569500E+01
178	  0.055470940	-7.175000E+00	  0.055470940	1.140910E+02	  0.055470940	2.609400E+01	  0.055470940	2.579700E+01
179	  0.055671342	-7.172000E+00	  0.055671342	1.138500E+02	  0.055671342	2.614200E+01	  0.055671342	2.590700E+01
180	  0.055871744	-7.173000E+00	  0.055871744	1.136210E+02	  0.055871744	2.619700E+01	  0.055871744	2.600600E+01
181	  0.056072142	-7.170000E+00	  0.056072142	1.133900E+02	  0.056072142	2.624500E+01	  0.056072142	2.611100E+01
182	  0.056272544	-7.170000E+00	  0.056272544	1.131630E+02	  0.056272544	2.629800E+01	  0.056272544	2.621000E+01
183	  0.056472946	-7.168000E+00	  0.056472946	1.129310E+02	  0.056472946	2.634900E+01	  0.056472946	2.631400E+01
184	  0.056673344	-7.167000E+00	  0.056673344	1.126860E+02	  0.056673344	2.640600E+01	  0.056673344	2.642200E+01
185	  0.056873746	-7.165000E+00	  0.056873746	1.124520E+02	  0.056873746	2.645700E+01	  0.056873746	2.652800E+01
186	  0.057074148	-7.167000E+00	  0.057074148	1.122310E+02	  0.057074148	2.651700E+01	  0.057074148	2.662100E+01
187	  0.057274550	-7.164000E+00	  0.057274550	1.120030E+02	  0.057274550	2.656400E+01	  0.057274550	2.672600E+01
188	  0.057474948	-7.166000E+00	  0.057474948	1.117550E+02	  0.057474948	2.663400E+01	  0.057474948	2.683000E+01
189	  0.057675350	-7.163000E+00	  0.057675350	1.115350E+02	  0.057675350	2.667900E+01	  0.057675350	2.693200E+01
190	  0.057875752	-7.162000E+00	  0.057875752	1.113070E+02	  0.057875752	2.673300E+01	  0.057875752	2.703500E+01
191	  0.058076151	-7.162000E+00	  0.058076151	1.110810E+02	  0.058076151	2.679200E+01	  0.058076151	2.713300E+01
192	  0.058276553	-7.163000E+00	  0.058276553	1.108510E+02	  0.058276553	2.685300E+01	  0.058276553	2.723200E+01
193	  0.058476955	-7.160000E+00	  0.058476955	1.106230E+02	  0.058476955	2.690100E+01	  0.058476955	2.733800E+01
194	  0.058677353	-7.161000E+00	  0.058677353	1.103930E+02	  0.058677353	2.696400E+01	  0.058677353	2.743800E+01
195	  0.058877755	-7.161000E+00	  0.058877755	1.101770E+02	  0.058877755	2.701900E+01	  0.058877755	2.753300E+01
196	  0.059078157	-7.159000E+00	  0.059078157	1.099400E+02	  0.059078157	2.707500E+01	  0.059078157	2.764100E+01
197	  0.059278559	-7.158000E+00	  0.059278559	1.096970E+02	  0.059278559	2.713700E+01	  0.059278559	2.775000E+01
198	  0.059478957	-7.158000E+00	  0.059478957	1.094840E+02	  0.059478957	2.719200E+01	  0.059478957	2.784500E+01
199	  0.059679359	-7.156000E+00	  0.059679359	1.092710E+02	  0.059679359	2.724400E+01	  0.059679359	2.794200E+01
200	  0.059879761	-7.156000E+00	  0.059879761	1.090370E+02	  0.059879761	2.730700E+01	  0.059879761	2.804500E+01
201	  0.060080159	-7.157000E+00	  0.060080159	1.087940E+02	  0.060080159	2.737300E+01	  0.060080159	2.815300E+01
202	  0.060280561	-7.155000E+00	  0.060280561	1.085750E+02	  0.060280561	2.742700E+01	  0.060280561	2.825300E+01
203	  0.060480963	-7.154000E+00	  0.060480963	1.083470E+02	  0.060480963	2.748500E+01	  0.060480963	2.835600E+01
204	  0.060681365	-7.151000E+00	  0.060681365	1.081150E+02	  0.060681365	2.754000E+01	  0.060681365	2.846500E+01
205	  0.060881764	-7.151000E+00	  0.060881764	1.078810E+02	  0.060881764	2.760400E+01	  0.060881764	2.856900E+01
206	  0.061082166	-7.153000E+00	  0.061082166	1.076600E+02	  0.061082166	2.767100E+01	  0.061082166	2.866400E+01
207	  0.061282568	-7.149000E+00	  0.061282568	1.074340E+02	  0.061282568	2.772400E+01	  0.061282568	2.877100E+01
208	  0.061482966	-7.149000E+00	  0.061482966	1.072220E+02	  0.061482966	2.778100E+01	  0.061482966	2.886700E+01
209	  0.061683368	-7.145000E+00	  0.061683368	1.069910E+02	  0.061683368	2.783500E+01	  0.061683368	2.897800E+01
210	  0.061883770	-7.148000E+00	  0.061883770	1.067650E+02	  0.061883770	2.790600E+01	  0.061883770	2.907400E+01
211	  0.062084168	-7.144000E+00	  0.062084168	1.065380E+02	  0.062084168	2.795900E+01	  0.062084168	2.918300E+01
212	  0.062284570	-7.143000E+00	  0.062284570	1.063170E+02	  0.062284570	2.802000E+01	  0.062284570	2.928400E+01
213	  0.062484972	-7.129000E+00	  0.062484972	1.061910E+02	  0.062484972	2.801500E+01	  0.062484972	2.936600E+01
214	  0.062685370	-7.127000E+00	  0.062685370	1.059600E+02	  0.062685370	2.807600E+01	  0.062685370	2.947400E+01
215	  0.062885776	-7.124000E+00	  0.062885776	1.057350E+02	  0.062885776	2.813100E+01	  0.062885776	2.958200E+01
216	  0.063086174	-7.127000E+00	  0.063086174	1.055220E+02	  0.063086174	2.820300E+01	  0.063086174	2.967100E+01
217	  0.063286573	-7.128000E+00	  0.063286573	1.052720E+02	  0.063286573	2.827900E+01	  0.063286573	2.978300E+01
218	  0.063486971	-7.123000E+00	  0.063486971	1.050660E+02	  0.063486971	2.832500E+01	  0.063486971	2.988500E+01
219	  0.063687377	-7.122000E+00	  0.063687377	1.048370E+02	  0.063687377	2.838900E+01	  0.063687377	2.999200E+01
220	  0.063887775	-7.120000E+00	  0.063887775	1.046090E+02	  0.063887775	2.845200E+01	  0.063887775	3.009800E+01
221	  0.064088173	-7.121000E+00	  0.064088173	1.043680E+02	  0.064088173	2.852800E+01	  0.064088173	3.020500E+01
222	  0.064288579	-7.121000E+00	  0.064288579	1.041400E+02	  0.064288579	2.859600E+01	  0.064288579	3.030900E+01
223	  0.064488977	-7.120000E+00	  0.064488977	1.039260E+02	  0.064488977	2.865800E+01	  0.064488977	3.040800E+01
224	  0.064689375	-7.121000E+00	  0.064689375	1.036770E+02	  0.064689375	2.873600E+01	  0.064689375	3.052000E+01
225	  0.064889781	-7.119000E+00	  0.064889781	1.034750E+02	  0.064889781	2.879200E+01	  0.064889781	3.061600E+01
226	  0.065090179	-7.117000E+00	  0.065090179	1.032320E+02	  0.065090179	2.886100E+01	  0.065090179	3.073000E+01
227	  0.065290578	-7.117000E+00	  0.065290578	1.029990E+02	  0.065290578	2.893500E+01	  0.065290578	3.083600E+01
228	  0.065490983	-7.115000E+00	  0.065490983	1.027990E+02	  0.065490983	2.899000E+01	  0.065490983	3.093200E+01
229	  0.065691382	-7.114000E+00	  0.065691382	1.025640E+02	  0.065691382	2.906100E+01	  0.065691382	3.104200E+01
230	  0.065891780	-7.114000E+00	  0.065891780	1.023160E+02	  0.065891780	2.914100E+01	  0.065891780	3.115400E+01
231	  0.066092186	-7.114000E+00	  0.066092186	1.021140E+02	  0.066092186	2.920500E+01	  0.066092186	3.124600E+01
232	  0.066292584	-7.106000E+00	  0.066292584	1.018760E+02	  0.066292584	2.925500E+01	  0.066292584	3.137300E+01
233	  0.066492982	-7.107000E+00	  0.066492982	1.016420E+02	  0.066492982	2.933300E+01	  0.066492982	3.147900E+01
234	  0.066693388	-7.107000E+00	  0.066693388	1.014170E+02	  0.066693388	2.940500E+01	  0.066693388	3.158200E+01
235	  0.066893786	-7.106000E+00	  0.066893786	1.011990E+02	  0.066893786	2.947500E+01	  0.066893786	3.168300E+01
236	  0.067094192	-7.105000E+00	  0.067094192	1.009820E+02	  0.067094192	2.954300E+01	  0.067094192	3.178500E+01
237	  0.067294590	-7.102000E+00	  0.067294590	1.007350E+02	  0.067294590	2.961500E+01	  0.067294590	3.190600E+01
238	  0.067494988	-7.103000E+00	  0.067494988	1.005050E+02	  0.067494988	2.969200E+01	  0.067494988	3.201100E+01
239	  0.067695394	-7.101000E+00	  0.067695394	1.002880E+02	  0.067695394	2.975900E+01	  0.067695394	3.211500E+01
240	  0.067895792	-7.098000E+00	  0.067895792	1.000710E+02	  0.067895792	2.982400E+01	  0.067895792	3.222100E+01
241	  0.068096191	-7.099000E+00	  0.068096191	9.983700E+01	  0.068096191	2.990500E+01	  0.068096191	3.232800E+01
242	  0.068296596	-7.099000E+00	  0.068296596	9.961300E+01	  0.068296596	2.997900E+01	  0.068296596	3.243200E+01
243	  0.068496995	-7.093000E+00	  0.068496995	9.939000E+01	  0.068496995	3.003900E+01	  0.068496995	3.254700E+01
244	  0.068697393	-7.096000E+00	  0.068697393	9.916000E+01	  0.068697393	3.012700E+01	  0.068697393	3.264700E+01
245	  0.068897791	-7.094000E+00	  0.068897791	9.894000E+01	  0.068897791	3.019600E+01	  0.068897791	3.275400E+01
246	  0.069098189	-7.093000E+00	  0.069098189	9.871600E+01	  0.069098189	3.027100E+01	  0.069098189	3.286000E+01
247	  0.069298595	-7.091000E+00	  0.069298595	9.847800E+01	  0.069298595	3.034600E+01	  0.069298595	3.297700E+01
248	  0.069498993	-7.092000E+00	  0.069498993	9.824700E+01	  0.069498993	3.042900E+01	  0.069498993	3.308300E+01
249	  0.069699399	-7.093000E+00	  0.069699399	9.801800E+01	  0.069699399	3.051500E+01	  0.069699399	3.318500E+01
250	  0.069899797	-7.091000E+00	  0.069899797	9.780800E+01	  0.069899797	3.058300E+01	  0.069899797	3.328800E+01
251	  0.070100196	-7.088000E+00	  0.070100196	9.757400E+01	  0.070100196	3.065900E+01	  0.070100196	3.340300E+01
252	  0.070300601	-7.088000E+00	  0.070300601	9.735300E+01	  0.070300601	3.073700E+01	  0.070300601	3.350800E+01
253	  0.070501000	-7.087000E+00	  0.070501000	9.713100E+01	  0.070501000	3.081300E+01	  0.070501000	3.361400E+01
254	  0.070701398	-7.087000E+00	  0.070701398	9.689900E+01	  0.070701398	3.089800E+01	  0.070701398	3.372200E+01
255	  0.070901804	-7.086000E+00	  0.070901804	9.667600E+01	  0.070901804	3.097500E+01	  0.070901804	3.383000E+01
256	  0.071102202	-7.082000E+00	  0.071102202	9.645900E+01	  0.071102202	3.104400E+01	  0.071102202	3.394100E+01
257	  0.071302600	-7.083000E+00	  0.071302600	9.623600E+01	  0.071302600	3.112900E+01	  0.071302600	3.404300E+01
258	  0.071503006	-7.082000E+00	  0.071503006	9.600100E+01	  0.071503006	3.121200E+01	  0.071503006	3.415600E+01
259	  0.071703404	-7.081000E+00	  0.071703404	9.578000E+01	  0.071703404	3.129300E+01	  0.071703404	3.426100E+01
260	  0.071903802	-7.081000E+00	  0.071903802	9.554400E+01	  0.071903802	3.138100E+01	  0.071903802	3.437300E+01
261	  0.072104208	-7.078000E+00	  0.072104208	9.532700E+01	  0.072104208	3.145400E+01	  0.072104208	3.448300E+01
262	  0.072304606	-7.075000E+00	  0.072304606	9.510300E+01	  0.072304606	3.152900E+01	  0.072304606	3.459700E+01
263	  0.072505005	-7.077000E+00	  0.072505005	9.487700E+01	  0.072505005	3.162000E+01	  0.072505005	3.469900E+01
264	  0.072705410	-7.075000E+00	  0.072705410	9.465300E+01	  0.072705410	3.170000E+01	  0.072705410	3.480900E+01
265	  0.072905809	-7.075000E+00	  0.072905809	9.440400E+01	  0.072905809	3.179600E+01	  0.072905809	3.492700E+01
266	  0.073106214	-7.073000E+00	  0.073106214	9.421200E+01	  0.073106214	3.186500E+01	  0.073106214	3.502300E+01
267	  0.073306613	-7.073000E+00	  0.073306613	9.399100E+01	  0.073306613	3.195100E+01	  0.073306613	3.512700E+01
268	  0.073507011	-7.072000E+00	  0.073507011	9.376400E+01	  0.073507011	3.203900E+01	  0.073507011	3.523600E+01
269	  0.073707417	-7.070000E+00	  0.073707417	9.353800E+01	  0.073707417	3.212200E+01	  0.073707417	3.534800E+01
270	  0.073907815	-7.070000E+00	  0.073907815	9.329500E+01	  0.073907815	3.221800E+01	  0.073907815	3.546400E+01
271	  0.074108213	-7.070000E+00	  0.074108213	9.309600E+01	  0.074108213	3.229800E+01	  0.074108213	3.555800E+01
272	  0.074308619	-7.067000E+00	  0.074308619	9.286500E+01	  0.074308619	3.238000E+01	  0.074308619	3.567700E+01
273	  0.074509017	-7.064000E+00	  0.074509017	9.262800E+01	  0.074509017	3.246800E+01	  0.074509017	3.579600E+01
274	  0.074709415	-7.062000E+00	  0.074709415	9.240800E+01	  0.074709415	3.254900E+01	  0.074709415	3.590900E+01
275	  0.074909821	-7.063000E+00	  0.074909821	9.219600E+01	  0.074909821	3.264000E+01	  0.074909821	3.600700E+01
276	  0.075110219	-7.061000E+00	  0.075110219	9.195900E+01	  0.075110219	3.273000E+01	  0.075110219	3.612600E+01
277	  0.075310618	-7.059000E+00	  0.075310618	9.175600E+01	  0.075310618	3.281000E+01	  0.075310618	3.622600E+01
278	  0.075511023	-7.057000E+00	  0.075511023	9.151800E+01	  0.075511023	3.290100E+01	  0.075511023	3.634700E+01
279	  0.075711422	-7.058000E+00	  0.075711422	9.127400E+01	  0.075711422	3.300800E+01	  0.075711422	3.645900E+01
280	  0.075911827	-7.058000E+00	  0.075911827	9.105700E+01	  0.075911827	3.309800E+01	  0.075911827	3.656400E+01
281	  0.076112226	-7.057000E+00	  0.076112226	9.084200E+01	  0.076112226	3.318800E+01	  0.076112226	3.666800E+01
282	  0.076312624	-7.055000E+00	  0.076312624	9.062800E+01	  0.076312624	3.327300E+01	  0.076312624	3.677600E+01
283	  0.076513030	-7.053000E+00	  0.076513030	9.039300E+01	  0.076513030	3.336700E+01	  0.076513030	3.689500E+01
284	  0.076713428	-7.054000E+00	  0.076713428	9.015200E+01	  0.076713428	3.347300E+01	  0.076713428	3.700900E+01
285	  0.076913826	-7.054000E+00	  0.076913826	8.992600E+01	  0.076913826	3.357200E+01	  0.076913826	3.711600E+01
286	  0.077114232	-7.050000E+00	  0.077114232	8.970200E+01	  0.077114232	3.365500E+01	  0.077114232	3.723800E+01
287	  0.077314630	-7.048000E+00	  0.077314630	8.948700E+01	  0.077314630	3.374500E+01	  0.077314630	3.734500E+01
288	  0.077515028	-7.049000E+00	  0.077515028	8.928300E+01	  0.077515028	3.383600E+01	  0.077515028	3.744100E+01
289	  0.077715434	-7.048000E+00	  0.077715434	8.904400E+01	  0.077715434	3.394000E+01	  0.077715434	3.755800E+01
290	  0.077915832	-7.047000E+00	  0.077915832	8.880000E+01	  0.077915832	3.404500E+01	  0.077915832	3.768000E+01
291	  0.078116231	-7.046000E+00	  0.078116231	8.857300E+01	  0.078116231	3.414300E+01	  0.078116231	3.779300E+01
292	  0.078316636	-7.046000E+00	  0.078316636	8.835400E+01	  0.078316636	3.424300E+01	  0.078316636	3.789800E+01
293	  0.078517035	-7.046000E+00	  0.078517035	8.812600E+01	  0.078517035	3.434800E+01	  0.078517035	3.800600E+01
294	  0.078717433	-7.045000E+00	  0.078717433	8.790400E+01	  0.078717433	3.444400E+01	  0.078717433	3.811900E+01
295	  0.078917839	-7.044000E+00	  0.078917839	8.767500E+01	  0.078917839	3.454700E+01	  0.078917839	3.823100E+01
296	  0.079118237	-7.042000E+00	  0.079118237	8.745300E+01	  0.079118237	3.464200E+01	  0.079118237	3.834600E+01
297	  0.079318643	-7.042000E+00	  0.079318643	8.721700E+01	  0.079318643	3.475200E+01	  0.079318643	3.846000E+01
298	  0.079519041	-7.039000E+00	  0.079519041	8.700900E+01	  0.079519041	3.484200E+01	  0.079519041	3.856700E+01
299	  0.079719439	-7.038000E+00	  0.079719439	8.676400E+01	  0.079719439	3.495300E+01	  0.079719439	3.869000E+01
300	  0.079919845	-7.037000E+00	  0.079919845	8.655200E+01	  0.079919845	3.505200E+01	  0.079919845	3.879500E+01
301	  0.080120243	-7.036000E+00	  0.080120243	8.633600E+01	  0.080120243	3.515200E+01	  0.080120243	3.890200E+01
302	  0.080320641	-7.036000E+00	  0.080320641	8.610400E+01	  0.080320641	3.526100E+01	  0.080320641	3.901700E+01
303	  0.080521047	-7.034000E+00	  0.080521047	8.590300E+01	  0.080521047	3.535000E+01	  0.080521047	3.912100E+01
304	  0.080721445	-7.037000E+00	  0.080721445	8.567200E+01	  0.080721445	3.547300E+01	  0.080721445	3.922200E+01
305	  0.080921844	-7.034000E+00	  0.080921844	8.543200E+01	  0.080921844	3.558100E+01	  0.080921844	3.934800E+01
306	  0.081122249	-7.030000E+00	  0.081122249	8.522000E+01	  0.081122249	3.567200E+01	  0.081122249	3.946400E+01
307	  0.081322648	-7.029000E+00	  0.081322648	8.499500E+01	  0.081322648	3.577800E+01	  0.081322648	3.957800E+01
308	  0.081523046	-7.031000E+00	  0.081523046	8.477500E+01	  0.081523046	3.589500E+01	  0.081523046	3.967800E+01
309	  0.081723452	-7.031000E+00	  0.081723452	8.454700E+01	  0.081723452	3.600800E+01	  0.081723452	3.978900E+01
310	  0.081923850	-7.028000E+00	  0.081923850	8.432100E+01	  0.081923850	3.611000E+01	  0.081923850	3.991000E+01
311	  0.082124248	-7.029000E+00	  0.082124248	8.409700E+01	  0.082124248	3.622900E+01	  0.082124248	4.001300E+01
312	  0.082324654	-7.028000E+00	  0.082324654	8.386400E+01	  0.082324654	3.634200E+01	  0.082324654	4.013200E+01
313	  0.082525052	-7.027000E+00	  0.082525052	8.365500E+01	  0.082525052	3.644800E+01	  0.082525052	4.023400E+01
314	  0.082725458	-7.025000E+00	  0.082725458	8.342300E+01	  0.082725458	3.656100E+01	  0.082725458	4.035500E+01
315	  0.082925856	-7.026000E+00	  0.082925856	8.320200E+01	  0.082925856	3.667800E+01	  0.082925856	4.045900E+01
316	  0.083126254	-7.027000E+00	  0.083126254	8.299400E+01	  0.083126254	3.678700E+01	  0.083126254	4.055900E+01
317	  0.083326660	-7.023000E+00	  0.083326660	8.276700E+01	  0.083326660	3.689200E+01	  0.083326660	4.068400E+01
318	  0.083527058	-7.024000E+00	  0.083527058	8.253600E+01	  0.083527058	3.702000E+01	  0.083527058	4.079000E+01
319	  0.083727457	-7.023000E+00	  0.083727457	8.230100E+01	  0.083727457	3.713800E+01	  0.083727457	4.091100E+01
320	  0.083927862	-7.022000E+00	  0.083927862	8.206700E+01	  0.083927862	3.726000E+01	  0.083927862	4.102800E+01
321	  0.084128261	-7.024000E+00	  0.084128261	8.186300E+01	  0.084128261	3.737600E+01	  0.084128261	4.112000E+01
322	  0.084328659	-7.021000E+00	  0.084328659	8.163800E+01	  0.084328659	3.748800E+01	  0.084328659	4.124000E+01
323	  0.084529065	-7.022000E+00	  0.084529065	8.143500E+01	  0.084529065	3.760100E+01	  0.084529065	4.133600E+01
324	  0.084729463	-7.019000E+00	  0.084729463	8.121400E+01	  0.084729463	3.771200E+01	  0.084729463	4.145400E+01
325	  0.084929861	-7.018000E+00	  0.084929861	8.096300E+01	  0.084929861	3.784600E+01	  0.084929861	4.157900E+01
326	  0.085130267	-7.017000E+00	  0.085130267	8.074200E+01	  0.085130267	3.796400E+01	  0.085130267	4.169200E+01
327	  0.085330658	-7.017000E+00	  0.085330658	8.053300E+01	  0.085330658	3.808000E+01	  0.085330658	4.179400E+01
328	  0.085531056	-7.015000E+00	  0.085531056	8.030500E+01	  0.085531056	3.820000E+01	  0.085531056	4.191300E+01
329	  0.085731462	-7.015000E+00	  0.085731462	8.008800E+01	  0.085731462	3.832200E+01	  0.085731462	4.201800E+01
330	  0.085931860	-7.014000E+00	  0.085931860	7.986600E+01	  0.085931860	3.844300E+01	  0.085931860	4.213200E+01
331	  0.086132258	-7.015000E+00	  0.086132258	7.963500E+01	  0.086132258	3.857800E+01	  0.086132258	4.224100E+01
332	  0.086332664	-7.012000E+00	  0.086332664	7.941400E+01	  0.086332664	3.869400E+01	  0.086332664	4.236000E+01
333	  0.086533062	-7.015000E+00	  0.086533062	7.918600E+01	  0.086533062	3.883400E+01	  0.086533062	4.246100E+01
334	  0.086733460	-7.016000E+00	  0.086733460	7.897200E+01	  0.086733460	3.896000E+01	  0.086733460	4.256100E+01
335	  0.086933866	-7.012000E+00	  0.086933866	7.874800E+01	  0.086933866	3.908000E+01	  0.086933866	4.268300E+01
336	  0.087134264	-7.012000E+00	  0.087134264	7.852100E+01	  0.087134264	3.921200E+01	  0.087134264	4.279400E+01
337	  0.087334670	-7.012000E+00	  0.087334670	7.829200E+01	  0.087334670	3.934500E+01	  0.087334670	4.290700E+01
338	  0.087535068	-7.011000E+00	  0.087535068	7.805800E+01	  0.087535068	3.948000E+01	  0.087535068	4.302600E+01
339	  0.087735467	-7.008000E+00	  0.087735467	7.784700E+01	  0.087735467	3.959800E+01	  0.087735467	4.313800E+01
340	  0.087935872	-7.009000E+00	  0.087935872	7.763600E+01	  0.087935872	3.972500E+01	  0.087935872	4.323900E+01
341	  0.088136271	-7.011000E+00	  0.088136271	7.740100E+01	  0.088136271	3.987400E+01	  0.088136271	4.334500E+01
342	  0.088336669	-7.007000E+00	  0.088336669	7.720000E+01	  0.088336669	3.998300E+01	  0.088336669	4.345700E+01
343	  0.088537075	-7.010000E+00	  0.088537075	7.696500E+01	  0.088537075	4.013600E+01	  0.088537075	4.356100E+01
344	  0.088737473	-7.009000E+00	  0.088737473	7.675400E+01	  0.088737473	4.026200E+01	  0.088737473	4.366700E+01
345	  0.088937871	-7.007000E+00	  0.088937871	7.651300E+01	  0.088937871	4.040400E+01	  0.088937871	4.379100E+01
346	  0.089138277	-7.005000E+00	  0.089138277	7.629400E+01	  0.089138277	4.053400E+01	  0.089138277	4.390500E+01
347	  0.089338675	-7.005000E+00	  0.089338675	7.609700E+01	  0.089338675	4.065500E+01	  0.089338675	4.400300E+01
348	  0.089539073	-7.008000E+00	  0.089539073	7.587300E+01	  0.089539073	4.080400E+01	  0.089539073	4.410000E+01
349	  0.089739479	-7.007000E+00	  0.089739479	7.563700E+01	  0.089739479	4.095000E+01	  0.089739479	4.421900E+01
350	  0.089939877	-7.005000E+00	  0.089939877	7.541100E+01	  0.089939877	4.108800E+01	  0.089939877	4.433500E+01
351	  0.090140276	-7.007000E+00	  0.090140276	7.520300E+01	  0.090140276	4.122700E+01	  0.090140276	4.442800E+01
352	  0.090340681	-7.006000E+00	  0.090340681	7.498100E+01	  0.090340681	4.136700E+01	  0.090340681	4.453800E+01
353	  0.090541080	-7.005000E+00	  0.090541080	7.475500E+01	  0.090541080	4.150800E+01	  0.090541080	4.465300E+01
354	  0.090741485	-7.007000E+00	  0.090741485	7.453600E+01	  0.090741485	4.165600E+01	  0.090741485	4.475200E+01
355	  0.090941884	-7.005000E+00	  0.090941884	7.430600E+01	  0.090941884	4.180200E+01	  0.090941884	4.486900E+01
356	  0.091142282	-7.001000E+00	  0.091142282	7.407600E+01	  0.091142282	4.194000E+01	  0.091142282	4.499700E+01
357	  0.091342688	-7.002000E+00	  0.091342688	7.384700E+01	  0.091342688	4.209400E+01	  0.091342688	4.510300E+01
358	  0.091543086	-7.003000E+00	  0.091543086	7.360600E+01	  0.091543086	4.225700E+01	  0.091543086	4.521600E+01
359	  0.091743484	-7.000000E+00	  0.091743484	7.340200E+01	  0.091743484	4.238400E+01	  0.091743484	4.532900E+01
360	  0.091943890	-7.000000E+00	  0.091943890	7.317800E+01	  0.091943890	4.253400E+01	  0.091943890	4.543600E+01
361	  0.092144288	-6.998000E+00	  0.092144288	7.296100E+01	  0.092144288	4.267400E+01	  0.092144288	4.555000E+01
362	  0.092344686	-7.001000E+00	  0.092344686	7.274200E+01	  0.092344686	4.283400E+01	  0.092344686	4.564000E+01
363	  0.092545092	-7.001000E+00	  0.092545092	7.252500E+01	  0.092545092	4.298300E+01	  0.092545092	4.574300E+01
364	  0.092745490	-7.003000E+00	  0.092745490	7.228800E+01	  0.092745490	4.315100E+01	  0.092745490	4.584900E+01
365	  0.092945889	-6.999000E+00	  0.092945889	7.205100E+01	  0.092945889	4.330200E+01	  0.092945889	4.598200E+01
366	  0.093146294	-6.998000E+00	  0.093146294	7.185600E+01	  0.093146294	4.343500E+01	  0.093146294	4.607900E+01
367	  0.093346693	-6.998000E+00	  0.093346693	7.162600E+01	  0.093346693	4.359600E+01	  0.093346693	4.618900E+01
368	  0.093547091	-6.995000E+00	  0.093547091	7.140000E+01	  0.093547091	4.374700E+01	  0.093547091	4.631000E+01
369	  0.093747497	-6.995000E+00	  0.093747497	7.118700E+01	  0.093747497	4.389800E+01	  0.093747497	4.641200E+01
370	  0.093947895	-6.994000E+00	  0.093947895	7.097000E+01	  0.093947895	4.404900E+01	  0.093947895	4.652000E+01
371	  0.094148301	-6.992000E+00	  0.094148301	7.074100E+01	  0.094148301	4.420600E+01	  0.094148301	4.664000E+01
372	  0.094348699	-6.992000E+00	  0.094348699	7.052700E+01	  0.094348699	4.436100E+01	  0.094348699	4.674000E+01
373	  0.094549097	-6.991000E+00	  0.094549097	7.029400E+01	  0.094549097	4.452700E+01	  0.094549097	4.685600E+01
374	  0.094749503	-6.992000E+00	  0.094749503	7.006100E+01	  0.094749503	4.470100E+01	  0.094749503	4.696100E+01
375	  0.094949901	-6.991000E+00	  0.094949901	6.984500E+01	  0.094949901	4.485700E+01	  0.094949901	4.706600E+01
376	  0.095150299	-6.989000E+00	  0.095150299	6.962900E+01	  0.095150299	4.501000E+01	  0.095150299	4.718000E+01
377	  0.095350705	-6.989000E+00	  0.095350705	6.939600E+01	  0.095350705	4.518300E+01	  0.095350705	4.728700E+01
378	  0.095551103	-6.986000E+00	  0.095551103	6.916500E+01	  0.095551103	4.534700E+01	  0.095551103	4.741100E+01
379	  0.095751502	-6.987000E+00	  0.095751502	6.895500E+01	  0.095751502	4.550800E+01	  0.095751502	4.750600E+01
380	  0.095951907	-6.982000E+00	  0.095951907	6.873300E+01	  0.095951907	4.566200E+01	  0.095951907	4.763300E+01
381	  0.096152306	-6.983000E+00	  0.096152306	6.850900E+01	  0.096152306	4.583400E+01	  0.096152306	4.773400E+01
382	  0.096352704	-6.982000E+00	  0.096352704	6.829700E+01	  0.096352704	4.599400E+01	  0.096352704	4.783600E+01
383	  0.096553110	-6.983000E+00	  0.096553110	6.806800E+01	  0.096553110	4.617200E+01	  0.096553110	4.794100E+01
384	  0.096753508	-6.979000E+00	  0.096753508	6.784500E+01	  0.096753508	4.633500E+01	  0.096753508	4.806100E+01
385	  0.096953906	-6.977000E+00	  0.096953906	6.760700E+01	  0.096953906	4.651400E+01	  0.096953906	4.818400E+01
386	  0.097154312	-6.981000E+00	  0.097154312	6.739000E+01	  0.097154312	4.669500E+01	  0.097154312	4.826500E+01
387	  0.097354710	-6.980000E+00	  0.097354710	6.719200E+01	  0.097354710	4.685000E+01	  0.097354710	4.835900E+01
388	  0.097555116	-6.975000E+00	  0.097555116	6.694500E+01	  0.097555116	4.703100E+01	  0.097555116	4.849900E+01
389	  0.097755514	-6.975000E+00	  0.097755514	6.674400E+01	  0.097755514	4.719100E+01	  0.097755514	4.859100E+01
390	  0.097955912	-6.974000E+00	  0.097955912	6.653000E+01	  0.097955912	4.735800E+01	  0.097955912	4.869900E+01
391	  0.098156318	-6.974000E+00	  0.098156318	6.628900E+01	  0.098156318	4.755400E+01	  0.098156318	4.880600E+01
392	  0.098356716	-6.974000E+00	  0.098356716	6.605200E+01	  0.098356716	4.774500E+01	  0.098356716	4.891700E+01
393	  0.098557115	-6.973000E+00	  0.098557115	6.586100E+01	  0.098557115	4.790000E+01	  0.098557115	4.900700E+01
394	  0.098757520	-6.972000E+00	  0.098757520	6.561200E+01	  0.098757520	4.810200E+01	  0.098757520	4.912400E+01
395	  0.098957919	-6.970000E+00	  0.098957919	6.540500E+01	  0.098957919	4.826800E+01	  0.098957919	4.923000E+01
396	  0.099158317	-6.968000E+00	  0.099158317	6.518100E+01	  0.099158317	4.844700E+01	  0.099158317	4.934400E+01
397	  0.099358723	-6.968000E+00	  0.099358723	6.495700E+01	  0.099358723	4.863400E+01	  0.099358723	4.944500E+01
398	  0.099559121	-6.966000E+00	  0.099559121	6.473600E+01	  0.099559121	4.881500E+01	  0.099559121	4.955300E+01
399	  0.099759519	-6.964000E+00	  0.099759519	6.452300E+01	  0.099759519	4.898900E+01	  0.099759519	4.965900E+01
400	  0.099959925	-6.964000E+00	  0.099959925	6.433000E+01	  0.099959925	4.915400E+01	  0.099959925	4.974700E+01
401	  0.100160323	-6.962000E+00	  0.100160323	6.411800E+01	  0.100160323	4.932900E+01	  0.100160323	4.985300E+01
402	  0.100360721	-6.958000E+00	  0.100360721	6.387300E+01	  0.100360721	4.953000E+01	  0.100360721	4.998300E+01
403	  0.100561127	-6.958000E+00	  0.100561127	6.367600E+01	  0.100561127	4.970000E+01	  0.100561127	5.007000E+01
404	  0.100761525	-6.958000E+00	  0.100761525	6.347600E+01	  0.100761525	4.987200E+01	  0.100761525	5.016300E+01
405	  0.100961931	-6.955000E+00	  0.100961931	6.323000E+01	  0.100961931	5.008000E+01	  0.100961931	5.028700E+01
406	  0.101162329	-6.956000E+00	  0.101162329	6.301700E+01	  0.101162329	5.027100E+01	  0.101162329	5.037300E+01
407	  0.101362728	-6.953000E+00	  0.101362728	6.279400E+01	  0.101362728	5.045900E+01	  0.101362728	5.048900E+01
408	  0.101563133	-6.955000E+00	  0.101563133	6.256000E+01	  0.101563133	5.067500E+01	  0.101563133	5.057700E+01
409	  0.101763532	-6.950000E+00	  0.101763532	6.236600E+01	  0.101763532	5.083400E+01	  0.101763532	5.069300E+01
410	  0.101963930	-6.953000E+00	  0.101963930	6.215300E+01	  0.101963930	5.103400E+01	  0.101963930	5.076900E+01
411	  0.102164336	-6.953000E+00	  0.102164336	6.191700E+01	  0.102164336	5.124800E+01	  0.102164336	5.087100E+01
412	  0.102364734	-6.953000E+00	  0.102364734	6.170400E+01	  0.102364734	5.144200E+01	  0.102364734	5.096300E+01
413	  0.102565132	-6.948000E+00	  0.102565132	6.149100E+01	  0.102565132	5.162300E+01	  0.102565132	5.108400E+01
414	  0.102765530	-6.948000E+00	  0.102765530	6.127200E+01	  0.102765530	5.182800E+01	  0.102765530	5.117300E+01
415	  0.102965929	-6.951000E+00	  0.102965929	6.106000E+01	  0.102965929	5.203300E+01	  0.102965929	5.124500E+01
416	  0.103166327	-6.947000E+00	  0.103166327	6.083800E+01	  0.103166327	5.222900E+01	  0.103166327	5.136200E+01
417	  0.103366733	-6.946000E+00	  0.103366733	6.060000E+01	  0.103366733	5.244900E+01	  0.103366733	5.146900E+01
418	  0.103567131	-6.946000E+00	  0.103567131	6.037800E+01	  0.103567131	5.265800E+01	  0.103567131	5.156300E+01
419	  0.103767529	-6.945000E+00	  0.103767529	6.013600E+01	  0.103767529	5.288600E+01	  0.103767529	5.166800E+01
420	  0.103967935	-6.943000E+00	  0.103967935	5.993200E+01	  0.103967935	5.307600E+01	  0.103967935	5.176500E+01
421	  0.104168333	-6.945000E+00	  0.104168333	5.972800E+01	  0.104168333	5.327600E+01	  0.104168333	5.184100E+01
422	  0.104368731	-6.946000E+00	  0.104368731	5.951500E+01	  0.104368731	5.348500E+01	  0.104368731	5.192200E+01
423	  0.104569137	-6.946000E+00	  0.104569137	5.930700E+01	  0.104569137	5.368800E+01	  0.104569137	5.200200E+01
424	  0.104769535	-6.944000E+00	  0.104769535	5.906400E+01	  0.104769535	5.392000E+01	  0.104769535	5.211300E+01
425	  0.104969934	-6.945000E+00	  0.104969934	5.886500E+01	  0.104969934	5.411900E+01	  0.104969934	5.218600E+01
426	  0.105170339	-6.941000E+00	  0.105170339	5.862800E+01	  0.105170339	5.434200E+01	  0.105170339	5.230800E+01
427	  0.105370738	-6.940000E+00	  0.105370738	5.840600E+01	  0.105370738	5.456100E+01	  0.105370738	5.240100E+01
428	  0.105571143	-6.942000E+00	  0.105571143	5.820600E+01	  0.105571143	5.476500E+01	  0.105571143	5.247100E+01
429	  0.105771542	-6.940000E+00	  0.105771542	5.796700E+01	  0.105771542	5.500000E+01	  0.105771542	5.257900E+01
430	  0.105971940	-6.936000E+00	  0.105971940	5.776800E+01	  0.105971940	5.519200E+01	  0.105971940	5.267900E+01
431	  0.106172346	-6.934000E+00	  0.106172346	5.755800E+01	  0.106172346	5.540000E+01	  0.106172346	5.277900E+01
432	  0.106372744	-6.933000E+00	  0.106372744	5.734200E+01	  0.106372744	5.562100E+01	  0.106372744	5.286200E+01
433	  0.106573142	-6.936000E+00	  0.106573142	5.712600E+01	  0.106573142	5.585000E+01	  0.106573142	5.292700E+01
434	  0.106773548	-6.936000E+00	  0.106773548	5.689700E+01	  0.106773548	5.608700E+01	  0.106773548	5.301400E+01
435	  0.106973946	-6.934000E+00	  0.106973946	5.668300E+01	  0.106973946	5.630500E+01	  0.106973946	5.310900E+01
436	  0.107174344	-6.932000E+00	  0.107174344	5.643900E+01	  0.107174344	5.655400E+01	  0.107174344	5.321500E+01
437	  0.107374750	-6.929000E+00	  0.107374750	5.623200E+01	  0.107374750	5.676500E+01	  0.107374750	5.331400E+01
438	  0.107575148	-6.931000E+00	  0.107575148	5.598500E+01	  0.107575148	5.703100E+01	  0.107575148	5.339200E+01
439	  0.107775547	-6.930000E+00	  0.107775547	5.579200E+01	  0.107775547	5.723700E+01	  0.107775547	5.346300E+01
440	  0.107975952	-6.929000E+00	  0.107975952	5.561100E+01	  0.107975952	5.742600E+01	  0.107975952	5.354200E+01
441	  0.108176351	-6.929000E+00	  0.108176351	5.540000E+01	  0.108176351	5.765300E+01	  0.108176351	5.361700E+01
442	  0.108376749	-6.921000E+00	  0.108376749	5.512600E+01	  0.108376749	5.793200E+01	  0.108376749	5.377000E+01
443	  0.108577155	-6.924000E+00	  0.108577155	5.493000E+01	  0.108577155	5.815100E+01	  0.108577155	5.381900E+01
444	  0.108777553	-6.922000E+00	  0.108777553	5.468500E+01	  0.108777553	5.841500E+01	  0.108777553	5.392000E+01
445	  0.108977959	-6.922000E+00	  0.108977959	5.449200E+01	  0.108977959	5.862900E+01	  0.108977959	5.398500E+01
446	  0.109178357	-6.923000E+00	  0.109178357	5.426900E+01	  0.109178357	5.887700E+01	  0.109178357	5.405700E+01
447	  0.109378755	-6.924000E+00	  0.109378755	5.405500E+01	  0.109378755	5.911800E+01	  0.109378755	5.412200E+01
448	  0.109579161	-6.921000E+00	  0.109579161	5.384300E+01	  0.109579161	5.934900E+01	  0.109579161	5.421300E+01
449	  0.109779559	-6.918000E+00	  0.109779559	5.362800E+01	  0.109779559	5.958600E+01	  0.109779559	5.430600E+01
450	  0.109979957	-6.917000E+00	  0.109979957	5.337400E+01	  0.109979957	5.987000E+01	  0.109979957	5.440000E+01
451	  0.110180363	-6.916000E+00	  0.110180363	5.316700E+01	  0.110180363	6.010600E+01	  0.110180363	5.447100E+01
452	  0.110380761	-6.916000E+00	  0.110380761	5.295200E+01	  0.110380761	6.035100E+01	  0.110380761	5.454000E+01
453	  0.110581160	-6.916000E+00	  0.110581160	5.272800E+01	  0.110581160	6.060800E+01	  0.110581160	5.461500E+01
454	  0.110781565	-6.917000E+00	  0.110781565	5.252500E+01	  0.110781565	6.084600E+01	  0.110781565	5.466700E+01
455	  0.110981964	-6.918000E+00	  0.110981964	5.230300E+01	  0.110981964	6.110600E+01	  0.110981964	5.473300E+01
456	  0.111182362	-6.912000E+00	  0.111182362	5.207300E+01	  0.111182362	6.136500E+01	  0.111182362	5.484300E+01
457	  0.111382768	-6.911000E+00	  0.111382768	5.188100E+01	  0.111382768	6.158900E+01	  0.111382768	5.491000E+01
458	  0.111583166	-6.912000E+00	  0.111583166	5.163500E+01	  0.111583166	6.188000E+01	  0.111583166	5.498100E+01
459	  0.111783572	-6.911000E+00	  0.111783572	5.143800E+01	  0.111783572	6.211400E+01	  0.111783572	5.504500E+01
460	  0.111983970	-6.910000E+00	  0.111983970	5.122300E+01	  0.111983970	6.237000E+01	  0.111983970	5.511100E+01
461	  0.112184368	-6.911000E+00	  0.112184368	5.098800E+01	  0.112184368	6.265400E+01	  0.112184368	5.516900E+01
462	  0.112384774	-6.908000E+00	  0.112384774	5.077600E+01	  0.112384774	6.290500E+01	  0.112384774	5.525800E+01
463	  0.112585172	-6.909000E+00	  0.112585172	5.055200E+01	  0.112585172	6.318000E+01	  0.112585172	5.531000E+01
464	  0.112785570	-6.906000E+00	  0.112785570	5.035600E+01	  0.112785570	6.341500E+01	  0.112785570	5.538400E+01
465	  0.112985976	-6.909000E+00	  0.112985976	5.013000E+01	  0.112985976	6.369600E+01	  0.112985976	5.542400E+01
466	  0.113186374	-6.906000E+00	  0.113186374	4.992100E+01	  0.113186374	6.395100E+01	  0.113186374	5.550200E+01
467	  0.113386773	-6.908000E+00	  0.113386773	4.971700E+01	  0.113386773	6.420800E+01	  0.113386773	5.553500E+01
468	  0.113587178	-6.904000E+00	  0.113587178	4.950100E+01	  0.113587178	6.447000E+01	  0.113587178	5.562500E+01
469	  0.113787577	-6.903000E+00	  0.113787577	4.927900E+01	  0.113787577	6.474600E+01	  0.113787577	5.569300E+01
470	  0.113987975	-6.903000E+00	  0.113987975	4.906000E+01	  0.113987975	6.502200E+01	  0.113987975	5.574700E+01
471	  0.114188381	-6.903000E+00	  0.114188381	4.883200E+01	  0.114188381	6.531200E+01	  0.114188381	5.580000E+01
472	  0.114388779	-6.903000E+00	  0.114388779	4.860100E+01	  0.114388779	6.560700E+01	  0.114388779	5.585200E+01
473	  0.114589177	-6.901000E+00	  0.114589177	4.839900E+01	  0.114589177	6.586200E+01	  0.114589177	5.591700E+01
474	  0.114789583	-6.900000E+00	  0.114789583	4.821400E+01	  0.114789583	6.610000E+01	  0.114789583	5.596200E+01
475	  0.114989981	-6.896000E+00	  0.114989981	4.797800E+01	  0.114989981	6.640100E+01	  0.114989981	5.604500E+01
476	  0.115190387	-6.899000E+00	  0.115190387	4.775200E+01	  0.115190387	6.669700E+01	  0.115190387	5.607400E+01
477	  0.115390785	-6.896000E+00	  0.115390785	4.753800E+01	  0.115390785	6.697400E+01	  0.115390785	5.614300E+01
478	  0.115591183	-6.895000E+00	  0.115591183	4.732500E+01	  0.115591183	6.725400E+01	  0.115591183	5.619200E+01
479	  0.115791589	-6.896000E+00	  0.115791589	4.711900E+01	  0.115791589	6.752700E+01	  0.115791589	5.622300E+01
480	  0.115991987	-6.893000E+00	  0.115991987	4.688600E+01	  0.115991987	6.783300E+01	  0.115991987	5.629200E+01
481	  0.116192386	-6.892000E+00	  0.116192386	4.668800E+01	  0.116192386	6.809600E+01	  0.116192386	5.633600E+01
482	  0.116392791	-6.894000E+00	  0.116392791	4.648100E+01	  0.116392791	6.837700E+01	  0.116392791	5.636000E+01
483	  0.116593190	-6.890000E+00	  0.116593190	4.625200E+01	  0.116593190	6.868000E+01	  0.116593190	5.643400E+01
484	  0.116793588	-6.891000E+00	  0.116793588	4.605200E+01	  0.116793588	6.895300E+01	  0.116793588	5.645600E+01
485	  0.116993994	-6.891000E+00	  0.116993994	4.579500E+01	  0.116993994	6.930400E+01	  0.116993994	5.649500E+01
486	  0.117194392	-6.890000E+00	  0.117194392	4.560900E+01	  0.117194392	6.955600E+01	  0.117194392	5.653900E+01
487	  0.117394790	-6.888000E+00	  0.117394790	4.539000E+01	  0.117394790	6.985700E+01	  0.117394790	5.658300E+01
488	  0.117595196	-6.888000E+00	  0.117595196	4.517800E+01	  0.117595196	7.014900E+01	  0.117595196	5.662000E+01
489	  0.117795594	-6.890000E+00	  0.117795594	4.498300E+01	  0.117795594	7.042200E+01	  0.117795594	5.662200E+01
490	  0.117995992	-6.888000E+00	  0.117995992	4.474900E+01	  0.117995992	7.074700E+01	  0.117995992	5.667000E+01
491	  0.118196398	-6.885000E+00	  0.118196398	4.450800E+01	  0.118196398	7.108300E+01	  0.118196398	5.673200E+01
492	  0.118396796	-6.886000E+00	  0.118396796	4.431200E+01	  0.118396796	7.136100E+01	  0.118396796	5.673900E+01
493	  0.118597202	-6.887000E+00	  0.118597202	4.408900E+01	  0.118597202	7.167700E+01	  0.118597202	5.675600E+01
494	  0.118797600	-6.886000E+00	  0.118797600	4.388300E+01	  0.118797600	7.197000E+01	  0.118797600	5.678600E+01
495	  0.118997999	-6.887000E+00	  0.118997999	4.367000E+01	  0.118997999	7.227400E+01	  0.118997999	5.680000E+01
496	  0.119198404	-6.883000E+00	  0.119198404	4.344400E+01	  0.119198404	7.259700E+01	  0.119198404	5.684800E+01
497	  0.119398803	-6.882000E+00	  0.119398803	4.321400E+01	  0.119398803	7.292900E+01	  0.119398803	5.687500E+01
498	  0.119599201	-6.883000E+00	  0.119599201	4.301500E+01	  0.119599201	7.321800E+01	  0.119599201	5.688200E+01
499	  0.119799607	-6.883000E+00	  0.119799607	4.279600E+01	  0.119799607	7.353800E+01	  0.119799607	5.689300E+01
500	  0.120000005	-6.883000E+00	  0.120000005	4.257800E+01	  0.120000005	7.385600E+01	  0.120000005	5.691000E+01
