! Anritsu VNA Master:             	Model: MS2036C/10/77
! SN:             	1601066
! /bd0/18may08.cable.cal/top.19p46.1.txt
! Existing Calibration Information:
! TYPE:             	Current Settings	Active Cal Settings
! TIME:             	05/08/2018 03:49:01 PM	05/08/2018 03:47:05 PM
! INTERNAL TEMP:    	50.5 C	50.5 C
! # POINTS:         	500	500
! START FREQ:       	20.000 MHz	20.000 MHz
! STOP FREQ:        	120.000 MHz	120.000 MHz
! SOURCE POWER:     	High	High
! IFBW:             	50 Hz	50 Hz
! AVG FACTOR:       	  1 	  1 
! REF PLANE 1:      	0 mm	0 mm
! REF PLANE 2:      	0 mm	0 mm
! CAL TYPE:         	Full S11	Full S11
! CAL METHOD:       	SOLT	SOLT
! CAL LINE TYPE:    	Coax	Coax
! DUT PORT 1:       	K-Conn(F)	K-Conn(F)
! DUT PORT 2:       	K-Conn(F)	K-Conn(F)
! CAL STATUS:       	OK: Accuracy High	--
! PROP-V:       	0.700
! CABLE LOSS:       	0.000 dB/m
! REF IMPEDANCE:       	50.0
! Trace Specific Parameters:	TR1	TR2	TR3	TR4
! TRACE.#.Y (GRAPH TYPE)	LOG MAG	PHASE	REAL IMPEDANCE	IMAGINARY IMPEDANCE
! TRACE.#.X 	FREQ.GHZ	FREQ.GHZ	FREQ.GHZ	FREQ.GHZ
! S-PARAMETER	S11	S11	S11	S11
! SMOOTH/APERTURE %	0	0	0	0
! WINDOW	NSL	NSL	NSL	NSL
! GATING	OFF	OFF	OFF	OFF
! FGTD	OFF	OFF	OFF	OFF
Marker Information per Trace:	TR1	TR2	TR3	TR4
!MK1	--	"MK1 TR2:  20.000 MHz,PH:155.91°"	--	--
!MK2	--	--	"MK2 TR3:  70.100 200 MHz,Z:(30.600 ohm, 33.258 ohm)"	--
!MK3	--	--	--	--
!MK4	--	--	--	--
!MK5	--	--	--	--
!MK6	--	--	--	--
!MK7	--	--	--	--
!MK8	--	--	--	--
PNT	TR1.FREQ.GHZ	TR1.LOG MAG.dB	TR2.FREQ.GHZ	TR2.PHASE.deg	TR3.FREQ.GHZ	TR3.REAL IMPEDANCE.ohm	TR4.FREQ.GHZ	TR4.IMAGINARY IMPEDANCE.ohm
1	  0.020000000	-7.232000E+00	  0.020000000	1.559110E+02	  0.020000000	2.044400E+01	  0.020000000	8.950000E+00
2	  0.020200402	-7.233000E+00	  0.020200402	1.556740E+02	  0.020200402	2.046200E+01	  0.020200402	9.039000E+00
3	  0.020400802	-7.235000E+00	  0.020400802	1.554300E+02	  0.020400802	2.048300E+01	  0.020400802	9.130000E+00
4	  0.020601204	-7.234000E+00	  0.020601204	1.551950E+02	  0.020601204	2.049500E+01	  0.020601204	9.219000E+00
5	  0.020801604	-7.236000E+00	  0.020801604	1.549570E+02	  0.020801604	2.051500E+01	  0.020801604	9.308000E+00
6	  0.021002004	-7.233000E+00	  0.021002004	1.547290E+02	  0.021002004	2.052400E+01	  0.021002004	9.396000E+00
7	  0.021202406	-7.235000E+00	  0.021202406	1.544890E+02	  0.021202406	2.054500E+01	  0.021202406	9.486000E+00
8	  0.021402806	-7.234000E+00	  0.021402806	1.542660E+02	  0.021402806	2.055700E+01	  0.021402806	9.571000E+00
9	  0.021603208	-7.235000E+00	  0.021603208	1.540140E+02	  0.021603208	2.057800E+01	  0.021603208	9.666000E+00
10	  0.021803608	-7.234000E+00	  0.021803608	1.537740E+02	  0.021803608	2.059200E+01	  0.021803608	9.757000E+00
11	  0.022004008	-7.236000E+00	  0.022004008	1.535430E+02	  0.022004008	2.061200E+01	  0.022004008	9.844000E+00
12	  0.022204408	-7.238000E+00	  0.022204408	1.533100E+02	  0.022204408	2.063400E+01	  0.022204408	9.931000E+00
13	  0.022404809	-7.237000E+00	  0.022404809	1.530770E+02	  0.022404809	2.064900E+01	  0.022404809	1.002000E+01
14	  0.022605211	-7.238000E+00	  0.022605211	1.528370E+02	  0.022605211	2.066800E+01	  0.022605211	1.011100E+01
15	  0.022805611	-7.239000E+00	  0.022805611	1.526070E+02	  0.022805611	2.068800E+01	  0.022805611	1.019800E+01
16	  0.023006011	-7.242000E+00	  0.023006011	1.523720E+02	  0.023006011	2.071300E+01	  0.023006011	1.028500E+01
17	  0.023206413	-7.241000E+00	  0.023206413	1.521300E+02	  0.023206413	2.072900E+01	  0.023206413	1.037700E+01
18	  0.023406813	-7.239000E+00	  0.023406813	1.518960E+02	  0.023406813	2.074200E+01	  0.023406813	1.046700E+01
19	  0.023607215	-7.240000E+00	  0.023607215	1.516520E+02	  0.023607215	2.076200E+01	  0.023607215	1.056000E+01
20	  0.023807615	-7.241000E+00	  0.023807615	1.514070E+02	  0.023807615	2.078400E+01	  0.023807615	1.065300E+01
21	  0.024008015	-7.241000E+00	  0.024008015	1.511860E+02	  0.024008015	2.080100E+01	  0.024008015	1.073700E+01
22	  0.024208417	-7.246000E+00	  0.024208417	1.509540E+02	  0.024208417	2.083100E+01	  0.024208417	1.082300E+01
23	  0.024408817	-7.243000E+00	  0.024408817	1.507140E+02	  0.024408817	2.084300E+01	  0.024408817	1.091600E+01
24	  0.024609219	-7.243000E+00	  0.024609219	1.504650E+02	  0.024609219	2.086300E+01	  0.024609219	1.101100E+01
25	  0.024809619	-7.244000E+00	  0.024809619	1.502330E+02	  0.024809619	2.088500E+01	  0.024809619	1.109800E+01
26	  0.025010020	-7.245000E+00	  0.025010020	1.500100E+02	  0.025010020	2.090600E+01	  0.025010020	1.118300E+01
27	  0.025210422	-7.245000E+00	  0.025210422	1.497570E+02	  0.025210422	2.092500E+01	  0.025210422	1.128000E+01
28	  0.025410822	-7.247000E+00	  0.025410822	1.495270E+02	  0.025410822	2.095000E+01	  0.025410822	1.136600E+01
29	  0.025611224	-7.247000E+00	  0.025611224	1.492900E+02	  0.025611224	2.097100E+01	  0.025611224	1.145700E+01
30	  0.025811624	-7.246000E+00	  0.025811624	1.490620E+02	  0.025811624	2.098500E+01	  0.025811624	1.154500E+01
31	  0.026012026	-7.247000E+00	  0.026012026	1.488160E+02	  0.026012026	2.100900E+01	  0.026012026	1.163900E+01
32	  0.026212426	-7.248000E+00	  0.026212426	1.485970E+02	  0.026212426	2.103100E+01	  0.026212426	1.172200E+01
33	  0.026412826	-7.245000E+00	  0.026412826	1.483570E+02	  0.026412826	2.104500E+01	  0.026412826	1.181600E+01
34	  0.026613226	-7.247000E+00	  0.026613226	1.481120E+02	  0.026613226	2.107000E+01	  0.026613226	1.190800E+01
35	  0.026813626	-7.246000E+00	  0.026813626	1.478700E+02	  0.026813626	2.109000E+01	  0.026813626	1.200200E+01
36	  0.027014028	-7.248000E+00	  0.027014028	1.476520E+02	  0.027014028	2.111300E+01	  0.027014028	1.208500E+01
37	  0.027214428	-7.248000E+00	  0.027214428	1.474070E+02	  0.027214428	2.113500E+01	  0.027214428	1.217900E+01
38	  0.027414829	-7.246000E+00	  0.027414829	1.471660E+02	  0.027414829	2.115200E+01	  0.027414829	1.227200E+01
39	  0.027615231	-7.248000E+00	  0.027615231	1.469330E+02	  0.027615231	2.117800E+01	  0.027615231	1.236100E+01
40	  0.027815631	-7.248000E+00	  0.027815631	1.466930E+02	  0.027815631	2.120200E+01	  0.027815631	1.245300E+01
41	  0.028016033	-7.249000E+00	  0.028016033	1.464560E+02	  0.028016033	2.122600E+01	  0.028016033	1.254400E+01
42	  0.028216433	-7.249000E+00	  0.028216433	1.462310E+02	  0.028216433	2.124500E+01	  0.028216433	1.263100E+01
43	  0.028416833	-7.249000E+00	  0.028416833	1.459910E+02	  0.028416833	2.126900E+01	  0.028416833	1.272300E+01
44	  0.028617235	-7.249000E+00	  0.028617235	1.457590E+02	  0.028617235	2.129000E+01	  0.028617235	1.281300E+01
45	  0.028817635	-7.247000E+00	  0.028817635	1.455340E+02	  0.028817635	2.130600E+01	  0.028817635	1.290100E+01
46	  0.029018037	-7.247000E+00	  0.029018037	1.452920E+02	  0.029018037	2.133000E+01	  0.029018037	1.299400E+01
47	  0.029218437	-7.245000E+00	  0.029218437	1.450700E+02	  0.029218437	2.134700E+01	  0.029218437	1.308100E+01
48	  0.029418837	-7.247000E+00	  0.029418837	1.448330E+02	  0.029418837	2.137400E+01	  0.029418837	1.317200E+01
49	  0.029619239	-7.244000E+00	  0.029619239	1.446030E+02	  0.029619239	2.138900E+01	  0.029619239	1.326300E+01
50	  0.029819639	-7.245000E+00	  0.029819639	1.443700E+02	  0.029819639	2.141600E+01	  0.029819639	1.335200E+01
51	  0.030020041	-7.243000E+00	  0.030020041	1.441260E+02	  0.030020041	2.143500E+01	  0.030020041	1.344800E+01
52	  0.030220442	-7.243000E+00	  0.030220442	1.438860E+02	  0.030220442	2.145900E+01	  0.030220442	1.354100E+01
53	  0.030420844	-7.244000E+00	  0.030420844	1.436630E+02	  0.030420844	2.148400E+01	  0.030420844	1.362700E+01
54	  0.030621244	-7.243000E+00	  0.030621244	1.434130E+02	  0.030621244	2.150700E+01	  0.030621244	1.372500E+01
55	  0.030821644	-7.242000E+00	  0.030821644	1.431800E+02	  0.030821644	2.153000E+01	  0.030821644	1.381600E+01
56	  0.031022044	-7.241000E+00	  0.031022044	1.429390E+02	  0.031022044	2.155300E+01	  0.031022044	1.391000E+01
57	  0.031222444	-7.224000E+00	  0.031222444	1.427840E+02	  0.031222444	2.152300E+01	  0.031222444	1.398300E+01
58	  0.031422846	-7.222000E+00	  0.031422846	1.425490E+02	  0.031422846	2.154500E+01	  0.031422846	1.407500E+01
59	  0.031623244	-7.221000E+00	  0.031623244	1.423150E+02	  0.031623244	2.156700E+01	  0.031623244	1.416700E+01
60	  0.031823646	-7.224000E+00	  0.031823646	1.420670E+02	  0.031823646	2.160100E+01	  0.031823646	1.426200E+01
61	  0.032024048	-7.224000E+00	  0.032024048	1.418340E+02	  0.032024048	2.162500E+01	  0.032024048	1.435400E+01
62	  0.032224450	-7.222000E+00	  0.032224450	1.415920E+02	  0.032224450	2.164800E+01	  0.032224450	1.444900E+01
63	  0.032424849	-7.222000E+00	  0.032424849	1.413500E+02	  0.032424849	2.167400E+01	  0.032424849	1.454300E+01
64	  0.032625251	-7.224000E+00	  0.032625251	1.411240E+02	  0.032625251	2.170300E+01	  0.032625251	1.463100E+01
65	  0.032825653	-7.225000E+00	  0.032825653	1.408790E+02	  0.032825653	2.173200E+01	  0.032825653	1.472600E+01
66	  0.033026051	-7.224000E+00	  0.033026051	1.406250E+02	  0.033026051	2.175900E+01	  0.033026051	1.482600E+01
67	  0.033226453	-7.221000E+00	  0.033226453	1.403720E+02	  0.033226453	2.178000E+01	  0.033226453	1.492800E+01
68	  0.033426855	-7.226000E+00	  0.033426855	1.401570E+02	  0.033426855	2.181800E+01	  0.033426855	1.500800E+01
69	  0.033627257	-7.223000E+00	  0.033627257	1.399110E+02	  0.033627257	2.183900E+01	  0.033627257	1.510700E+01
70	  0.033827655	-7.224000E+00	  0.033827655	1.396550E+02	  0.033827655	2.187100E+01	  0.033827655	1.520700E+01
71	  0.034028057	-7.228000E+00	  0.034028057	1.394380E+02	  0.034028057	2.190500E+01	  0.034028057	1.529000E+01
72	  0.034228459	-7.225000E+00	  0.034228459	1.391920E+02	  0.034228459	2.192800E+01	  0.034228459	1.538800E+01
73	  0.034428857	-7.224000E+00	  0.034428857	1.389580E+02	  0.034428857	2.195200E+01	  0.034428857	1.548100E+01
74	  0.034629259	-7.226000E+00	  0.034629259	1.387040E+02	  0.034629259	2.198700E+01	  0.034629259	1.558000E+01
75	  0.034829661	-7.225000E+00	  0.034829661	1.384680E+02	  0.034829661	2.201300E+01	  0.034829661	1.567400E+01
76	  0.035030060	-7.225000E+00	  0.035030060	1.382220E+02	  0.035030060	2.204200E+01	  0.035030060	1.577100E+01
77	  0.035230462	-7.227000E+00	  0.035230462	1.379860E+02	  0.035230462	2.207800E+01	  0.035230462	1.586200E+01
78	  0.035430863	-7.227000E+00	  0.035430863	1.377410E+02	  0.035430863	2.210700E+01	  0.035430863	1.595900E+01
79	  0.035631265	-7.228000E+00	  0.035631265	1.375090E+02	  0.035631265	2.213900E+01	  0.035631265	1.605000E+01
80	  0.035831664	-7.228000E+00	  0.035831664	1.372830E+02	  0.035831664	2.216500E+01	  0.035831664	1.614000E+01
81	  0.036032066	-7.227000E+00	  0.036032066	1.370460E+02	  0.036032066	2.219400E+01	  0.036032066	1.623400E+01
82	  0.036232468	-7.227000E+00	  0.036232468	1.368030E+02	  0.036232468	2.222400E+01	  0.036232468	1.633100E+01
83	  0.036432866	-7.227000E+00	  0.036432866	1.365570E+02	  0.036432866	2.225500E+01	  0.036432866	1.642900E+01
84	  0.036633268	-7.225000E+00	  0.036633268	1.363270E+02	  0.036633268	2.228100E+01	  0.036633268	1.652100E+01
85	  0.036833670	-7.225000E+00	  0.036833670	1.360860E+02	  0.036833670	2.231200E+01	  0.036833670	1.661700E+01
86	  0.037034072	-7.224000E+00	  0.037034072	1.358510E+02	  0.037034072	2.233900E+01	  0.037034072	1.671200E+01
87	  0.037234470	-7.228000E+00	  0.037234470	1.356180E+02	  0.037234470	2.237900E+01	  0.037234470	1.680100E+01
88	  0.037434869	-7.226000E+00	  0.037434869	1.354000E+02	  0.037434869	2.240300E+01	  0.037434869	1.689000E+01
89	  0.037635271	-7.225000E+00	  0.037635271	1.351480E+02	  0.037635271	2.243400E+01	  0.037635271	1.699100E+01
90	  0.037835669	-7.226000E+00	  0.037835669	1.349110E+02	  0.037835669	2.246900E+01	  0.037835669	1.708400E+01
91	  0.038036071	-7.227000E+00	  0.038036071	1.346950E+02	  0.038036071	2.250000E+01	  0.038036071	1.717000E+01
92	  0.038236473	-7.226000E+00	  0.038236473	1.344560E+02	  0.038236473	2.253000E+01	  0.038236473	1.726700E+01
93	  0.038436871	-7.225000E+00	  0.038436871	1.342120E+02	  0.038436871	2.255900E+01	  0.038436871	1.736500E+01
94	  0.038637273	-7.224000E+00	  0.038637273	1.339930E+02	  0.038637273	2.258800E+01	  0.038637273	1.745400E+01
95	  0.038837675	-7.223000E+00	  0.038837675	1.337490E+02	  0.038837675	2.261900E+01	  0.038837675	1.755200E+01
96	  0.039038073	-7.225000E+00	  0.039038073	1.335220E+02	  0.039038073	2.265600E+01	  0.039038073	1.764100E+01
97	  0.039238475	-7.226000E+00	  0.039238475	1.332750E+02	  0.039238475	2.269200E+01	  0.039238475	1.774000E+01
98	  0.039438877	-7.222000E+00	  0.039438877	1.330630E+02	  0.039438877	2.271300E+01	  0.039438877	1.782800E+01
99	  0.039639279	-7.223000E+00	  0.039639279	1.328120E+02	  0.039639279	2.275100E+01	  0.039639279	1.792800E+01
100	  0.039839678	-7.224000E+00	  0.039839678	1.325730E+02	  0.039839678	2.278800E+01	  0.039839678	1.802300E+01
101	  0.040040080	-7.223000E+00	  0.040040080	1.323450E+02	  0.040040080	2.281700E+01	  0.040040080	1.811600E+01
102	  0.040240481	-7.223000E+00	  0.040240481	1.321160E+02	  0.040240481	2.285200E+01	  0.040240481	1.820800E+01
103	  0.040440880	-7.224000E+00	  0.040440880	1.318750E+02	  0.040440880	2.288800E+01	  0.040440880	1.830500E+01
104	  0.040641282	-7.221000E+00	  0.040641282	1.316480E+02	  0.040641282	2.291200E+01	  0.040641282	1.840000E+01
105	  0.040841684	-7.223000E+00	  0.040841684	1.314130E+02	  0.040841684	2.295400E+01	  0.040841684	1.849200E+01
106	  0.041042086	-7.223000E+00	  0.041042086	1.311850E+02	  0.041042086	2.298700E+01	  0.041042086	1.858500E+01
107	  0.041242484	-7.222000E+00	  0.041242484	1.309550E+02	  0.041242484	2.301900E+01	  0.041242484	1.867900E+01
108	  0.041442886	-7.222000E+00	  0.041442886	1.307120E+02	  0.041442886	2.305600E+01	  0.041442886	1.877700E+01
109	  0.041643288	-7.222000E+00	  0.041643288	1.304900E+02	  0.041643288	2.309000E+01	  0.041643288	1.886700E+01
110	  0.041843686	-7.222000E+00	  0.041843686	1.302700E+02	  0.041843686	2.312300E+01	  0.041843686	1.895600E+01
111	  0.042044088	-7.220000E+00	  0.042044088	1.300270E+02	  0.042044088	2.315500E+01	  0.042044088	1.905700E+01
112	  0.042244490	-7.221000E+00	  0.042244490	1.297910E+02	  0.042244490	2.319500E+01	  0.042244490	1.915200E+01
113	  0.042444889	-7.221000E+00	  0.042444889	1.295540E+02	  0.042444889	2.323000E+01	  0.042444889	1.924800E+01
114	  0.042645290	-7.219000E+00	  0.042645290	1.293300E+02	  0.042645290	2.326100E+01	  0.042645290	1.934100E+01
115	  0.042845692	-7.217000E+00	  0.042845692	1.290970E+02	  0.042845692	2.329300E+01	  0.042845692	1.943800E+01
116	  0.043046094	-7.219000E+00	  0.043046094	1.288560E+02	  0.043046094	2.333600E+01	  0.043046094	1.953400E+01
117	  0.043246493	-7.219000E+00	  0.043246493	1.286290E+02	  0.043246493	2.337100E+01	  0.043246493	1.962700E+01
118	  0.043446895	-7.219000E+00	  0.043446895	1.283930E+02	  0.043446895	2.340900E+01	  0.043446895	1.972400E+01
119	  0.043647297	-7.219000E+00	  0.043647297	1.281560E+02	  0.043647297	2.344700E+01	  0.043647297	1.982100E+01
120	  0.043847695	-7.218000E+00	  0.043847695	1.279130E+02	  0.043847695	2.348600E+01	  0.043847695	1.992000E+01
121	  0.044048097	-7.216000E+00	  0.044048097	1.276850E+02	  0.044048097	2.351800E+01	  0.044048097	2.001600E+01
122	  0.044248499	-7.215000E+00	  0.044248499	1.274490E+02	  0.044248499	2.355300E+01	  0.044248499	2.011400E+01
123	  0.044448901	-7.218000E+00	  0.044448901	1.272170E+02	  0.044448901	2.359800E+01	  0.044448901	2.020600E+01
124	  0.044649299	-7.212000E+00	  0.044649299	1.269640E+02	  0.044649299	2.362600E+01	  0.044649299	2.031600E+01
125	  0.044849701	-7.217000E+00	  0.044849701	1.267420E+02	  0.044849701	2.367700E+01	  0.044849701	2.040200E+01
126	  0.045050103	-7.213000E+00	  0.045050103	1.265010E+02	  0.045050103	2.370600E+01	  0.045050103	2.050600E+01
127	  0.045250501	-7.214000E+00	  0.045250501	1.262780E+02	  0.045250501	2.374700E+01	  0.045250501	2.059600E+01
128	  0.045450903	-7.215000E+00	  0.045450903	1.260330E+02	  0.045450903	2.379100E+01	  0.045450903	2.069700E+01
129	  0.045651305	-7.215000E+00	  0.045651305	1.258220E+02	  0.045651305	2.382700E+01	  0.045651305	2.078400E+01
130	  0.045851704	-7.216000E+00	  0.045851704	1.255790E+02	  0.045851704	2.387200E+01	  0.045851704	2.088300E+01
131	  0.046052106	-7.213000E+00	  0.046052106	1.253360E+02	  0.046052106	2.390700E+01	  0.046052106	2.098700E+01
132	  0.046252504	-7.211000E+00	  0.046252504	1.251120E+02	  0.046252504	2.394100E+01	  0.046252504	2.108100E+01
133	  0.046452906	-7.212000E+00	  0.046452906	1.248720E+02	  0.046452906	2.398700E+01	  0.046452906	2.118000E+01
134	  0.046653304	-7.212000E+00	  0.046653304	1.246220E+02	  0.046653304	2.403000E+01	  0.046653304	2.128400E+01
135	  0.046853706	-7.212000E+00	  0.046853706	1.243970E+02	  0.046853706	2.407000E+01	  0.046853706	2.137700E+01
136	  0.047054108	-7.209000E+00	  0.047054108	1.241590E+02	  0.047054108	2.410600E+01	  0.047054108	2.147900E+01
137	  0.047254506	-7.206000E+00	  0.047254506	1.239280E+02	  0.047254506	2.414000E+01	  0.047254506	2.157800E+01
138	  0.047454908	-7.209000E+00	  0.047454908	1.236840E+02	  0.047454908	2.419100E+01	  0.047454908	2.167700E+01
139	  0.047655310	-7.211000E+00	  0.047655310	1.234530E+02	  0.047655310	2.424000E+01	  0.047655310	2.177000E+01
140	  0.047855709	-7.209000E+00	  0.047855709	1.232070E+02	  0.047855709	2.428000E+01	  0.047855709	2.187600E+01
141	  0.048056111	-7.206000E+00	  0.048056111	1.229730E+02	  0.048056111	2.431400E+01	  0.048056111	2.197700E+01
142	  0.048256513	-7.207000E+00	  0.048256513	1.227390E+02	  0.048256513	2.436200E+01	  0.048256513	2.207300E+01
143	  0.048456915	-7.202000E+00	  0.048456915	1.225150E+02	  0.048456915	2.439100E+01	  0.048456915	2.217200E+01
144	  0.048657313	-7.202000E+00	  0.048657313	1.222570E+02	  0.048657313	2.443900E+01	  0.048657313	2.228100E+01
145	  0.048857715	-7.200000E+00	  0.048857715	1.220410E+02	  0.048857715	2.447600E+01	  0.048857715	2.237300E+01
146	  0.049058117	-7.200000E+00	  0.049058117	1.217980E+02	  0.049058117	2.452300E+01	  0.049058117	2.247500E+01
147	  0.049258515	-7.202000E+00	  0.049258515	1.215700E+02	  0.049258515	2.457000E+01	  0.049258515	2.256900E+01
148	  0.049458917	-7.202000E+00	  0.049458917	1.213500E+02	  0.049458917	2.461300E+01	  0.049458917	2.266100E+01
149	  0.049659319	-7.202000E+00	  0.049659319	1.211000E+02	  0.049659319	2.466100E+01	  0.049659319	2.276700E+01
150	  0.049859721	-7.201000E+00	  0.049859721	1.208820E+02	  0.049859721	2.470200E+01	  0.049859721	2.286000E+01
151	  0.050060119	-7.197000E+00	  0.050060119	1.206310E+02	  0.050060119	2.474000E+01	  0.050060119	2.297100E+01
152	  0.050260521	-7.197000E+00	  0.050260521	1.204080E+02	  0.050260521	2.478400E+01	  0.050260521	2.306500E+01
153	  0.050460923	-7.197000E+00	  0.050460923	1.201820E+02	  0.050460923	2.483100E+01	  0.050460923	2.316000E+01
154	  0.050661322	-7.198000E+00	  0.050661322	1.199410E+02	  0.050661322	2.488300E+01	  0.050661322	2.326000E+01
155	  0.050861724	-7.196000E+00	  0.050861724	1.196720E+02	  0.050861724	2.493100E+01	  0.050861724	2.337600E+01
156	  0.051062126	-7.196000E+00	  0.051062126	1.194290E+02	  0.051062126	2.498000E+01	  0.051062126	2.348000E+01
157	  0.051262524	-7.194000E+00	  0.051262524	1.191970E+02	  0.051262524	2.502100E+01	  0.051262524	2.358100E+01
158	  0.051462926	-7.197000E+00	  0.051462926	1.189570E+02	  0.051462926	2.508100E+01	  0.051462926	2.367800E+01
159	  0.051663328	-7.196000E+00	  0.051663328	1.187370E+02	  0.051663328	2.512400E+01	  0.051663328	2.377300E+01
160	  0.051863730	-7.192000E+00	  0.051863730	1.185060E+02	  0.051863730	2.516000E+01	  0.051863730	2.387700E+01
161	  0.052064128	-7.193000E+00	  0.052064128	1.182620E+02	  0.052064128	2.521300E+01	  0.052064128	2.398000E+01
162	  0.052264530	-7.193000E+00	  0.052264530	1.180420E+02	  0.052264530	2.526100E+01	  0.052264530	2.407300E+01
163	  0.052464932	-7.190000E+00	  0.052464932	1.178120E+02	  0.052464932	2.530300E+01	  0.052464932	2.417500E+01
164	  0.052665330	-7.191000E+00	  0.052665330	1.175820E+02	  0.052665330	2.535400E+01	  0.052665330	2.427200E+01
165	  0.052865732	-7.190000E+00	  0.052865732	1.173590E+02	  0.052865732	2.540000E+01	  0.052865732	2.436800E+01
166	  0.053066134	-7.190000E+00	  0.053066134	1.171160E+02	  0.053066134	2.545200E+01	  0.053066134	2.447200E+01
167	  0.053266536	-7.188000E+00	  0.053266536	1.168940E+02	  0.053266536	2.549400E+01	  0.053266536	2.457100E+01
168	  0.053466935	-7.187000E+00	  0.053466935	1.166450E+02	  0.053466935	2.554600E+01	  0.053466935	2.467900E+01
169	  0.053667337	-7.186000E+00	  0.053667337	1.164340E+02	  0.053667337	2.558900E+01	  0.053667337	2.477100E+01
170	  0.053867739	-7.185000E+00	  0.053867739	1.161930E+02	  0.053867739	2.564000E+01	  0.053867739	2.487600E+01
171	  0.054068137	-7.185000E+00	  0.054068137	1.159890E+02	  0.054068137	2.568700E+01	  0.054068137	2.496300E+01
172	  0.054268539	-7.183000E+00	  0.054268539	1.157330E+02	  0.054268539	2.573700E+01	  0.054268539	2.507700E+01
173	  0.054468941	-7.183000E+00	  0.054468941	1.155040E+02	  0.054468941	2.578900E+01	  0.054468941	2.517500E+01
174	  0.054669339	-7.181000E+00	  0.054669339	1.152820E+02	  0.054669339	2.583500E+01	  0.054669339	2.527400E+01
175	  0.054869737	-7.181000E+00	  0.054869737	1.150460E+02	  0.054869737	2.588900E+01	  0.054869737	2.537500E+01
176	  0.055070139	-7.177000E+00	  0.055070139	1.148460E+02	  0.055070139	2.592400E+01	  0.055070139	2.546800E+01
177	  0.055270538	-7.179000E+00	  0.055270538	1.145960E+02	  0.055270538	2.598800E+01	  0.055270538	2.557300E+01
178	  0.055470940	-7.179000E+00	  0.055470940	1.143640E+02	  0.055470940	2.603900E+01	  0.055470940	2.567400E+01
179	  0.055671342	-7.177000E+00	  0.055671342	1.141360E+02	  0.055671342	2.608800E+01	  0.055671342	2.577600E+01
180	  0.055871744	-7.178000E+00	  0.055871744	1.139110E+02	  0.055871744	2.614300E+01	  0.055871744	2.587200E+01
181	  0.056072142	-7.175000E+00	  0.056072142	1.136650E+02	  0.056072142	2.619400E+01	  0.056072142	2.598300E+01
182	  0.056272544	-7.173000E+00	  0.056272544	1.134380E+02	  0.056272544	2.624300E+01	  0.056272544	2.608400E+01
183	  0.056472946	-7.172000E+00	  0.056472946	1.132110E+02	  0.056472946	2.629300E+01	  0.056472946	2.618500E+01
184	  0.056673344	-7.170000E+00	  0.056673344	1.130010E+02	  0.056673344	2.633900E+01	  0.056673344	2.627900E+01
185	  0.056873746	-7.172000E+00	  0.056873746	1.127480E+02	  0.056873746	2.640700E+01	  0.056873746	2.638600E+01
186	  0.057074148	-7.172000E+00	  0.057074148	1.125420E+02	  0.057074148	2.645600E+01	  0.057074148	2.647600E+01
187	  0.057274550	-7.169000E+00	  0.057274550	1.123180E+02	  0.057274550	2.650200E+01	  0.057274550	2.657900E+01
188	  0.057474948	-7.172000E+00	  0.057474948	1.120730E+02	  0.057474948	2.657000E+01	  0.057474948	2.668200E+01
189	  0.057675350	-7.169000E+00	  0.057675350	1.118450E+02	  0.057675350	2.661900E+01	  0.057675350	2.678600E+01
190	  0.057875752	-7.169000E+00	  0.057875752	1.116270E+02	  0.057875752	2.667200E+01	  0.057875752	2.688200E+01
191	  0.058076151	-7.167000E+00	  0.058076151	1.113930E+02	  0.058076151	2.672700E+01	  0.058076151	2.698700E+01
192	  0.058276553	-7.165000E+00	  0.058276553	1.111670E+02	  0.058276553	2.677700E+01	  0.058276553	2.709000E+01
193	  0.058476955	-7.166000E+00	  0.058476955	1.109380E+02	  0.058476955	2.683800E+01	  0.058476955	2.719000E+01
194	  0.058677353	-7.169000E+00	  0.058677353	1.107050E+02	  0.058677353	2.690700E+01	  0.058677353	2.728700E+01
195	  0.058877755	-7.164000E+00	  0.058877755	1.104820E+02	  0.058877755	2.694900E+01	  0.058877755	2.739400E+01
196	  0.059078157	-7.164000E+00	  0.059078157	1.102520E+02	  0.059078157	2.701000E+01	  0.059078157	2.749400E+01
197	  0.059278559	-7.166000E+00	  0.059278559	1.100160E+02	  0.059278559	2.707700E+01	  0.059278559	2.759500E+01
198	  0.059478957	-7.167000E+00	  0.059478957	1.098040E+02	  0.059478957	2.713300E+01	  0.059478957	2.768800E+01
199	  0.059679359	-7.166000E+00	  0.059679359	1.095630E+02	  0.059679359	2.719400E+01	  0.059679359	2.779600E+01
200	  0.059879761	-7.163000E+00	  0.059879761	1.093460E+02	  0.059879761	2.724400E+01	  0.059879761	2.789700E+01
201	  0.060080159	-7.163000E+00	  0.060080159	1.091180E+02	  0.060080159	2.730500E+01	  0.060080159	2.799800E+01
202	  0.060280561	-7.164000E+00	  0.060280561	1.088870E+02	  0.060280561	2.736900E+01	  0.060280561	2.809900E+01
203	  0.060480963	-7.163000E+00	  0.060480963	1.086540E+02	  0.060480963	2.742800E+01	  0.060480963	2.820400E+01
204	  0.060681365	-7.162000E+00	  0.060681365	1.084190E+02	  0.060681365	2.748900E+01	  0.060681365	2.831000E+01
205	  0.060881764	-7.158000E+00	  0.060881764	1.081960E+02	  0.060881764	2.754000E+01	  0.060881764	2.841500E+01
206	  0.061082166	-7.161000E+00	  0.061082166	1.079610E+02	  0.061082166	2.761100E+01	  0.061082166	2.851600E+01
207	  0.061282568	-7.159000E+00	  0.061282568	1.077360E+02	  0.061282568	2.766800E+01	  0.061282568	2.861900E+01
208	  0.061482966	-7.154000E+00	  0.061482966	1.075080E+02	  0.061482966	2.771600E+01	  0.061482966	2.873000E+01
209	  0.061683368	-7.156000E+00	  0.061683368	1.072790E+02	  0.061683368	2.778500E+01	  0.061683368	2.882900E+01
210	  0.061883770	-7.153000E+00	  0.061883770	1.070640E+02	  0.061883770	2.783800E+01	  0.061883770	2.893000E+01
211	  0.062084168	-7.155000E+00	  0.062084168	1.068350E+02	  0.062084168	2.790800E+01	  0.062084168	2.902900E+01
212	  0.062284570	-7.151000E+00	  0.062284570	1.066060E+02	  0.062284570	2.796000E+01	  0.062284570	2.913900E+01
213	  0.062484972	-7.131000E+00	  0.062484972	1.064710E+02	  0.062484972	2.794000E+01	  0.062484972	2.923800E+01
214	  0.062685370	-7.134000E+00	  0.062685370	1.062680E+02	  0.062685370	2.800700E+01	  0.062685370	2.932300E+01
215	  0.062885776	-7.134000E+00	  0.062885776	1.060200E+02	  0.062885776	2.807900E+01	  0.062885776	2.943400E+01
216	  0.063086174	-7.133000E+00	  0.063086174	1.058180E+02	  0.063086174	2.813300E+01	  0.063086174	2.952800E+01
217	  0.063286573	-7.135000E+00	  0.063286573	1.055860E+02	  0.063286573	2.820700E+01	  0.063286573	2.962800E+01
218	  0.063486971	-7.127000E+00	  0.063486971	1.053460E+02	  0.063486971	2.825500E+01	  0.063486971	2.975100E+01
219	  0.063687377	-7.130000E+00	  0.063687377	1.051130E+02	  0.063687377	2.833100E+01	  0.063687377	2.985100E+01
220	  0.063887775	-7.128000E+00	  0.063887775	1.049010E+02	  0.063887775	2.838800E+01	  0.063887775	2.995000E+01
221	  0.064088173	-7.127000E+00	  0.064088173	1.046620E+02	  0.064088173	2.845600E+01	  0.064088173	3.006100E+01
222	  0.064288579	-7.130000E+00	  0.064288579	1.044390E+02	  0.064288579	2.853300E+01	  0.064288579	3.015500E+01
223	  0.064488977	-7.128000E+00	  0.064488977	1.042090E+02	  0.064488977	2.859700E+01	  0.064488977	3.026300E+01
224	  0.064689375	-7.127000E+00	  0.064689375	1.039760E+02	  0.064689375	2.866400E+01	  0.064689375	3.037100E+01
225	  0.064889781	-7.125000E+00	  0.064889781	1.037510E+02	  0.064889781	2.872500E+01	  0.064889781	3.047800E+01
226	  0.065090179	-7.123000E+00	  0.065090179	1.035240E+02	  0.065090179	2.879000E+01	  0.065090179	3.058400E+01
227	  0.065290578	-7.125000E+00	  0.065290578	1.033170E+02	  0.065290578	2.886000E+01	  0.065290578	3.067500E+01
228	  0.065490983	-7.125000E+00	  0.065490983	1.030730E+02	  0.065490983	2.893400E+01	  0.065490983	3.078700E+01
229	  0.065691382	-7.119000E+00	  0.065691382	1.028490E+02	  0.065691382	2.898800E+01	  0.065691382	3.090000E+01
230	  0.065891780	-7.122000E+00	  0.065891780	1.026280E+02	  0.065891780	2.906500E+01	  0.065891780	3.099500E+01
231	  0.066092186	-7.121000E+00	  0.066092186	1.023990E+02	  0.066092186	2.913400E+01	  0.066092186	3.110300E+01
232	  0.066292584	-7.118000E+00	  0.066292584	1.021640E+02	  0.066292584	2.919800E+01	  0.066292584	3.121700E+01
233	  0.066492982	-7.117000E+00	  0.066492982	1.019110E+02	  0.066492982	2.927900E+01	  0.066492982	3.133200E+01
234	  0.066693388	-7.116000E+00	  0.066693388	1.016870E+02	  0.066693388	2.934600E+01	  0.066693388	3.143900E+01
235	  0.066893786	-7.118000E+00	  0.066893786	1.014800E+02	  0.066893786	2.942000E+01	  0.066893786	3.152900E+01
236	  0.067094192	-7.112000E+00	  0.067094192	1.012270E+02	  0.067094192	2.948400E+01	  0.067094192	3.165800E+01
237	  0.067294590	-7.112000E+00	  0.067294590	1.010230E+02	  0.067294590	2.955100E+01	  0.067294590	3.175100E+01
238	  0.067494988	-7.113000E+00	  0.067494988	1.008100E+02	  0.067494988	2.962300E+01	  0.067494988	3.184800E+01
239	  0.067695394	-7.111000E+00	  0.067695394	1.005740E+02	  0.067695394	2.969500E+01	  0.067695394	3.196100E+01
240	  0.067895792	-7.110000E+00	  0.067895792	1.003250E+02	  0.067895792	2.977400E+01	  0.067895792	3.207800E+01
241	  0.068096191	-7.105000E+00	  0.068096191	1.001090E+02	  0.068096191	2.983200E+01	  0.068096191	3.218800E+01
242	  0.068296596	-7.111000E+00	  0.068296596	9.988500E+01	  0.068296596	2.992500E+01	  0.068296596	3.227900E+01
243	  0.068496995	-7.108000E+00	  0.068496995	9.966600E+01	  0.068496995	2.999000E+01	  0.068496995	3.238700E+01
244	  0.068697393	-7.106000E+00	  0.068697393	9.943800E+01	  0.068697393	3.006300E+01	  0.068697393	3.249600E+01
245	  0.068897791	-7.107000E+00	  0.068897791	9.922000E+01	  0.068897791	3.013900E+01	  0.068897791	3.259500E+01
246	  0.069098189	-7.103000E+00	  0.069098189	9.900200E+01	  0.069098189	3.020200E+01	  0.069098189	3.270500E+01
247	  0.069298595	-7.104000E+00	  0.069298595	9.874900E+01	  0.069298595	3.029100E+01	  0.069298595	3.282100E+01
248	  0.069498993	-7.101000E+00	  0.069498993	9.852800E+01	  0.069498993	3.035900E+01	  0.069498993	3.293000E+01
249	  0.069699399	-7.100000E+00	  0.069699399	9.828500E+01	  0.069699399	3.044200E+01	  0.069699399	3.304500E+01
250	  0.069899797	-7.099000E+00	  0.069899797	9.808100E+01	  0.069899797	3.051200E+01	  0.069899797	3.314200E+01
251	  0.070100196	-7.099000E+00	  0.070100196	9.783300E+01	  0.070100196	3.060000E+01	  0.070100196	3.325700E+01
252	  0.070300601	-7.100000E+00	  0.070300601	9.762700E+01	  0.070300601	3.067500E+01	  0.070300601	3.335200E+01
253	  0.070501000	-7.098000E+00	  0.070501000	9.740200E+01	  0.070501000	3.074900E+01	  0.070501000	3.346100E+01
254	  0.070701398	-7.095000E+00	  0.070701398	9.717200E+01	  0.070701398	3.082400E+01	  0.070701398	3.357500E+01
255	  0.070901804	-7.097000E+00	  0.070901804	9.695400E+01	  0.070901804	3.090800E+01	  0.070901804	3.367300E+01
256	  0.071102202	-7.094000E+00	  0.071102202	9.672400E+01	  0.071102202	3.098300E+01	  0.071102202	3.378800E+01
257	  0.071302600	-7.094000E+00	  0.071302600	9.650400E+01	  0.071302600	3.106400E+01	  0.071302600	3.389000E+01
258	  0.071503006	-7.093000E+00	  0.071503006	9.626300E+01	  0.071503006	3.115100E+01	  0.071503006	3.400500E+01
259	  0.071703404	-7.092000E+00	  0.071703404	9.604300E+01	  0.071703404	3.122800E+01	  0.071703404	3.411100E+01
260	  0.071903802	-7.093000E+00	  0.071903802	9.584900E+01	  0.071903802	3.130200E+01	  0.071903802	3.420200E+01
261	  0.072104208	-7.092000E+00	  0.072104208	9.558200E+01	  0.072104208	3.140100E+01	  0.072104208	3.432800E+01
262	  0.072304606	-7.090000E+00	  0.072304606	9.538600E+01	  0.072304606	3.146700E+01	  0.072304606	3.442600E+01
263	  0.072505005	-7.090000E+00	  0.072505005	9.517800E+01	  0.072505005	3.154700E+01	  0.072505005	3.452300E+01
264	  0.072705410	-7.090000E+00	  0.072705410	9.492700E+01	  0.072705410	3.164100E+01	  0.072705410	3.464200E+01
265	  0.072905809	-7.089000E+00	  0.072905809	9.469900E+01	  0.072905809	3.172600E+01	  0.072905809	3.475200E+01
266	  0.073106214	-7.090000E+00	  0.073106214	9.447200E+01	  0.073106214	3.181900E+01	  0.073106214	3.485500E+01
267	  0.073306613	-7.085000E+00	  0.073306613	9.424500E+01	  0.073306613	3.189000E+01	  0.073306613	3.497600E+01
268	  0.073507011	-7.084000E+00	  0.073507011	9.401100E+01	  0.073507011	3.198000E+01	  0.073507011	3.508800E+01
269	  0.073707417	-7.083000E+00	  0.073707417	9.381600E+01	  0.073707417	3.205100E+01	  0.073707417	3.518500E+01
270	  0.073907815	-7.082000E+00	  0.073907815	9.358000E+01	  0.073907815	3.214300E+01	  0.073907815	3.529700E+01
271	  0.074108213	-7.085000E+00	  0.074108213	9.334200E+01	  0.074108213	3.224700E+01	  0.074108213	3.540200E+01
272	  0.074308619	-7.082000E+00	  0.074308619	9.310900E+01	  0.074308619	3.232900E+01	  0.074308619	3.552100E+01
273	  0.074509017	-7.081000E+00	  0.074509017	9.287700E+01	  0.074509017	3.242000E+01	  0.074509017	3.563400E+01
274	  0.074709415	-7.081000E+00	  0.074709415	9.267700E+01	  0.074709415	3.250200E+01	  0.074709415	3.572800E+01
275	  0.074909821	-7.076000E+00	  0.074909821	9.243100E+01	  0.074909821	3.258600E+01	  0.074909821	3.585800E+01
276	  0.075110219	-7.076000E+00	  0.075110219	9.223000E+01	  0.075110219	3.266700E+01	  0.075110219	3.595500E+01
277	  0.075310618	-7.074000E+00	  0.075310618	9.198200E+01	  0.075310618	3.276200E+01	  0.075310618	3.607900E+01
278	  0.075511023	-7.074000E+00	  0.075511023	9.177500E+01	  0.075511023	3.284900E+01	  0.075511023	3.617700E+01
279	  0.075711422	-7.075000E+00	  0.075711422	9.155100E+01	  0.075711422	3.294500E+01	  0.075711422	3.628000E+01
280	  0.075911827	-7.074000E+00	  0.075911827	9.130200E+01	  0.075911827	3.304600E+01	  0.075911827	3.640200E+01
281	  0.076112226	-7.072000E+00	  0.076112226	9.110700E+01	  0.076112226	3.312200E+01	  0.076112226	3.650100E+01
282	  0.076312624	-7.072000E+00	  0.076312624	9.087800E+01	  0.076312624	3.321800E+01	  0.076312624	3.661100E+01
283	  0.076513030	-7.069000E+00	  0.076513030	9.065300E+01	  0.076513030	3.330400E+01	  0.076513030	3.672700E+01
284	  0.076713428	-7.071000E+00	  0.076713428	9.042400E+01	  0.076713428	3.341000E+01	  0.076713428	3.683000E+01
285	  0.076913826	-7.069000E+00	  0.076913826	9.020200E+01	  0.076913826	3.349900E+01	  0.076913826	3.694100E+01
286	  0.077114232	-7.066000E+00	  0.077114232	8.996000E+01	  0.077114232	3.359400E+01	  0.077114232	3.706700E+01
287	  0.077314630	-7.067000E+00	  0.077314630	8.974100E+01	  0.077314630	3.369200E+01	  0.077314630	3.716900E+01
288	  0.077515028	-7.063000E+00	  0.077515028	8.951100E+01	  0.077515028	3.378200E+01	  0.077515028	3.729000E+01
289	  0.077715434	-7.062000E+00	  0.077715434	8.927500E+01	  0.077715434	3.388300E+01	  0.077715434	3.740600E+01
290	  0.077915832	-7.064000E+00	  0.077915832	8.906400E+01	  0.077915832	3.398200E+01	  0.077915832	3.750200E+01
291	  0.078116231	-7.064000E+00	  0.078116231	8.883200E+01	  0.078116231	3.408400E+01	  0.078116231	3.761500E+01
292	  0.078316636	-7.063000E+00	  0.078316636	8.861700E+01	  0.078316636	3.417700E+01	  0.078316636	3.772100E+01
293	  0.078517035	-7.064000E+00	  0.078517035	8.837000E+01	  0.078517035	3.429500E+01	  0.078517035	3.783400E+01
294	  0.078717433	-7.062000E+00	  0.078717433	8.815400E+01	  0.078717433	3.438400E+01	  0.078717433	3.794700E+01
295	  0.078917839	-7.060000E+00	  0.078917839	8.793200E+01	  0.078917839	3.448000E+01	  0.078917839	3.805900E+01
296	  0.079118237	-7.060000E+00	  0.079118237	8.769600E+01	  0.079118237	3.458700E+01	  0.079118237	3.817300E+01
297	  0.079318643	-7.058000E+00	  0.079318643	8.747100E+01	  0.079318643	3.468700E+01	  0.079318643	3.828600E+01
298	  0.079519041	-7.056000E+00	  0.079519041	8.725900E+01	  0.079519041	3.477900E+01	  0.079519041	3.839400E+01
299	  0.079719439	-7.056000E+00	  0.079719439	8.702600E+01	  0.079719439	3.488800E+01	  0.079719439	3.850600E+01
300	  0.079919845	-7.056000E+00	  0.079919845	8.680100E+01	  0.079919845	3.499300E+01	  0.079919845	3.861600E+01
301	  0.080120243	-7.054000E+00	  0.080120243	8.654800E+01	  0.080120243	3.510700E+01	  0.080120243	3.874400E+01
302	  0.080320641	-7.053000E+00	  0.080320641	8.634300E+01	  0.080320641	3.520100E+01	  0.080320641	3.884800E+01
303	  0.080521047	-7.052000E+00	  0.080521047	8.613600E+01	  0.080521047	3.529800E+01	  0.080521047	3.894900E+01
304	  0.080721445	-7.052000E+00	  0.080721445	8.592400E+01	  0.080721445	3.540000E+01	  0.080721445	3.905100E+01
305	  0.080921844	-7.047000E+00	  0.080921844	8.566600E+01	  0.080921844	3.550800E+01	  0.080921844	3.919300E+01
306	  0.081122249	-7.048000E+00	  0.081122249	8.545100E+01	  0.081122249	3.561600E+01	  0.081122249	3.929400E+01
307	  0.081322648	-7.049000E+00	  0.081322648	8.521900E+01	  0.081322648	3.573300E+01	  0.081322648	3.940300E+01
308	  0.081523046	-7.049000E+00	  0.081523046	8.499900E+01	  0.081523046	3.584100E+01	  0.081523046	3.951000E+01
309	  0.081723452	-7.048000E+00	  0.081723452	8.476800E+01	  0.081723452	3.595200E+01	  0.081723452	3.962600E+01
310	  0.081923850	-7.047000E+00	  0.081923850	8.453900E+01	  0.081923850	3.606300E+01	  0.081923850	3.974000E+01
311	  0.082124248	-7.048000E+00	  0.082124248	8.431900E+01	  0.082124248	3.617700E+01	  0.082124248	3.984300E+01
312	  0.082324654	-7.044000E+00	  0.082324654	8.411300E+01	  0.082324654	3.626900E+01	  0.082324654	3.995600E+01
313	  0.082525052	-7.043000E+00	  0.082525052	8.387900E+01	  0.082525052	3.638500E+01	  0.082525052	4.007200E+01
314	  0.082725458	-7.042000E+00	  0.082725458	8.366300E+01	  0.082725458	3.648900E+01	  0.082725458	4.018300E+01
315	  0.082925856	-7.043000E+00	  0.082925856	8.344600E+01	  0.082925856	3.660600E+01	  0.082925856	4.028400E+01
316	  0.083126254	-7.041000E+00	  0.083126254	8.320700E+01	  0.083126254	3.672400E+01	  0.083126254	4.040500E+01
317	  0.083326660	-7.039000E+00	  0.083326660	8.298700E+01	  0.083326660	3.682900E+01	  0.083326660	4.052100E+01
318	  0.083527058	-7.039000E+00	  0.083527058	8.276500E+01	  0.083527058	3.694700E+01	  0.083527058	4.062700E+01
319	  0.083727457	-7.041000E+00	  0.083727457	8.254800E+01	  0.083727457	3.706500E+01	  0.083727457	4.072800E+01
320	  0.083927862	-7.039000E+00	  0.083927862	8.231900E+01	  0.083927862	3.718300E+01	  0.083927862	4.084300E+01
321	  0.084128261	-7.039000E+00	  0.084128261	8.209100E+01	  0.084128261	3.730400E+01	  0.084128261	4.095500E+01
322	  0.084328659	-7.036000E+00	  0.084328659	8.187000E+01	  0.084328659	3.741100E+01	  0.084328659	4.107300E+01
323	  0.084529065	-7.034000E+00	  0.084529065	8.162900E+01	  0.084529065	3.753600E+01	  0.084529065	4.119700E+01
324	  0.084729463	-7.035000E+00	  0.084729463	8.141300E+01	  0.084729463	3.765400E+01	  0.084729463	4.130000E+01
325	  0.084929861	-7.036000E+00	  0.084929861	8.119300E+01	  0.084929861	3.777800E+01	  0.084929861	4.140200E+01
326	  0.085130267	-7.035000E+00	  0.085130267	8.096600E+01	  0.085130267	3.789700E+01	  0.085130267	4.151900E+01
327	  0.085330658	-7.032000E+00	  0.085330658	8.074000E+01	  0.085330658	3.801200E+01	  0.085330658	4.163900E+01
328	  0.085531056	-7.032000E+00	  0.085531056	8.052500E+01	  0.085531056	3.813400E+01	  0.085531056	4.174200E+01
329	  0.085731462	-7.033000E+00	  0.085731462	8.029400E+01	  0.085731462	3.826400E+01	  0.085731462	4.185200E+01
330	  0.085931860	-7.030000E+00	  0.085931860	8.007100E+01	  0.085931860	3.838100E+01	  0.085931860	4.197000E+01
331	  0.086132258	-7.032000E+00	  0.086132258	7.986100E+01	  0.086132258	3.850500E+01	  0.086132258	4.206500E+01
332	  0.086332664	-7.028000E+00	  0.086332664	7.964600E+01	  0.086332664	3.861400E+01	  0.086332664	4.218600E+01
333	  0.086533062	-7.031000E+00	  0.086533062	7.940800E+01	  0.086533062	3.875900E+01	  0.086533062	4.229100E+01
334	  0.086733460	-7.030000E+00	  0.086733460	7.917500E+01	  0.086733460	3.888800E+01	  0.086733460	4.240900E+01
335	  0.086933866	-7.029000E+00	  0.086933866	7.895100E+01	  0.086933866	3.901600E+01	  0.086933866	4.251900E+01
336	  0.087134264	-7.029000E+00	  0.087134264	7.871900E+01	  0.087134264	3.915000E+01	  0.087134264	4.263300E+01
337	  0.087334670	-7.025000E+00	  0.087334670	7.852000E+01	  0.087334670	3.925500E+01	  0.087334670	4.274300E+01
338	  0.087535068	-7.025000E+00	  0.087535068	7.829600E+01	  0.087535068	3.938500E+01	  0.087535068	4.285400E+01
339	  0.087735467	-7.027000E+00	  0.087735467	7.807000E+01	  0.087735467	3.952700E+01	  0.087735467	4.295400E+01
340	  0.087935872	-7.027000E+00	  0.087935872	7.783600E+01	  0.087935872	3.966400E+01	  0.087935872	4.307000E+01
341	  0.088136271	-7.027000E+00	  0.088136271	7.760700E+01	  0.088136271	3.980100E+01	  0.088136271	4.318100E+01
342	  0.088336669	-7.027000E+00	  0.088336669	7.738000E+01	  0.088336669	3.993900E+01	  0.088336669	4.329000E+01
343	  0.088537075	-7.024000E+00	  0.088537075	7.717600E+01	  0.088537075	4.005100E+01	  0.088537075	4.340300E+01
344	  0.088737473	-7.027000E+00	  0.088737473	7.695300E+01	  0.088737473	4.019700E+01	  0.088737473	4.349800E+01
345	  0.088937871	-7.024000E+00	  0.088937871	7.672800E+01	  0.088937871	4.032500E+01	  0.088937871	4.362000E+01
346	  0.089138277	-7.023000E+00	  0.089138277	7.651800E+01	  0.089138277	4.045300E+01	  0.089138277	4.372400E+01
347	  0.089338675	-7.024000E+00	  0.089338675	7.629400E+01	  0.089338675	4.059200E+01	  0.089338675	4.383100E+01
348	  0.089539073	-7.020000E+00	  0.089539073	7.605800E+01	  0.089539073	4.072800E+01	  0.089539073	4.395900E+01
349	  0.089739479	-7.022000E+00	  0.089739479	7.585700E+01	  0.089739479	4.086100E+01	  0.089739479	4.404800E+01
350	  0.089939877	-7.023000E+00	  0.089939877	7.561100E+01	  0.089939877	4.101900E+01	  0.089939877	4.416200E+01
351	  0.090140276	-7.021000E+00	  0.090140276	7.539300E+01	  0.090140276	4.114900E+01	  0.090140276	4.427900E+01
352	  0.090340681	-7.023000E+00	  0.090340681	7.517700E+01	  0.090340681	4.129300E+01	  0.090340681	4.437500E+01
353	  0.090541080	-7.023000E+00	  0.090541080	7.496300E+01	  0.090541080	4.143200E+01	  0.090541080	4.447500E+01
354	  0.090741485	-7.023000E+00	  0.090741485	7.473000E+01	  0.090741485	4.158000E+01	  0.090741485	4.459000E+01
355	  0.090941884	-7.022000E+00	  0.090941884	7.449900E+01	  0.090941884	4.172900E+01	  0.090941884	4.470300E+01
356	  0.091142282	-7.022000E+00	  0.091142282	7.428800E+01	  0.091142282	4.186500E+01	  0.091142282	4.480700E+01
357	  0.091342688	-7.020000E+00	  0.091342688	7.404700E+01	  0.091342688	4.201900E+01	  0.091342688	4.492900E+01
358	  0.091543086	-7.019000E+00	  0.091543086	7.383900E+01	  0.091543086	4.215200E+01	  0.091543086	4.503500E+01
359	  0.091743484	-7.020000E+00	  0.091743484	7.360000E+01	  0.091743484	4.231600E+01	  0.091743484	4.514200E+01
360	  0.091943890	-7.020000E+00	  0.091943890	7.337700E+01	  0.091943890	4.246400E+01	  0.091943890	4.525100E+01
361	  0.092144288	-7.020000E+00	  0.092144288	7.317900E+01	  0.092144288	4.259700E+01	  0.092144288	4.534600E+01
362	  0.092344686	-7.017000E+00	  0.092344686	7.294300E+01	  0.092344686	4.274700E+01	  0.092344686	4.547200E+01
363	  0.092545092	-7.017000E+00	  0.092545092	7.271600E+01	  0.092545092	4.290200E+01	  0.092545092	4.558000E+01
364	  0.092745490	-7.015000E+00	  0.092745490	7.247200E+01	  0.092745490	4.306300E+01	  0.092745490	4.570500E+01
365	  0.092945889	-7.019000E+00	  0.092945889	7.226100E+01	  0.092945889	4.322200E+01	  0.092945889	4.578700E+01
366	  0.093146294	-7.016000E+00	  0.093146294	7.203700E+01	  0.093146294	4.336600E+01	  0.093146294	4.590900E+01
367	  0.093346693	-7.015000E+00	  0.093346693	7.181800E+01	  0.093346693	4.351600E+01	  0.093346693	4.601700E+01
368	  0.093547091	-7.013000E+00	  0.093547091	7.159500E+01	  0.093547091	4.366500E+01	  0.093547091	4.613400E+01
369	  0.093747497	-7.013000E+00	  0.093747497	7.137900E+01	  0.093747497	4.381700E+01	  0.093747497	4.623700E+01
370	  0.093947895	-7.012000E+00	  0.093947895	7.115200E+01	  0.093947895	4.397500E+01	  0.093947895	4.634900E+01
371	  0.094148301	-7.014000E+00	  0.094148301	7.092200E+01	  0.094148301	4.414700E+01	  0.094148301	4.644600E+01
372	  0.094348699	-7.011000E+00	  0.094348699	7.070600E+01	  0.094348699	4.429200E+01	  0.094348699	4.656400E+01
373	  0.094549097	-7.008000E+00	  0.094549097	7.048000E+01	  0.094549097	4.444800E+01	  0.094549097	4.668200E+01
374	  0.094749503	-7.011000E+00	  0.094749503	7.025200E+01	  0.094749503	4.462100E+01	  0.094749503	4.677800E+01
375	  0.094949901	-7.013000E+00	  0.094949901	7.001000E+01	  0.094949901	4.480300E+01	  0.094949901	4.688400E+01
376	  0.095150299	-7.009000E+00	  0.095150299	6.979900E+01	  0.095150299	4.494600E+01	  0.095150299	4.700200E+01
377	  0.095350705	-7.006000E+00	  0.095350705	6.958900E+01	  0.095350705	4.509100E+01	  0.095350705	4.711600E+01
378	  0.095551103	-7.006000E+00	  0.095551103	6.935700E+01	  0.095551103	4.526700E+01	  0.095551103	4.722100E+01
379	  0.095751502	-7.004000E+00	  0.095751502	6.913200E+01	  0.095751502	4.542800E+01	  0.095751502	4.733700E+01
380	  0.095951907	-7.005000E+00	  0.095951907	6.889800E+01	  0.095951907	4.560600E+01	  0.095951907	4.744300E+01
381	  0.096152306	-7.004000E+00	  0.096152306	6.868700E+01	  0.096152306	4.576300E+01	  0.096152306	4.754600E+01
382	  0.096352704	-7.003000E+00	  0.096352704	6.847400E+01	  0.096352704	4.592200E+01	  0.096352704	4.765000E+01
383	  0.096553110	-7.003000E+00	  0.096553110	6.823300E+01	  0.096553110	4.610600E+01	  0.096553110	4.776300E+01
384	  0.096753508	-7.002000E+00	  0.096753508	6.802000E+01	  0.096753508	4.626800E+01	  0.096753508	4.786600E+01
385	  0.096953906	-7.000000E+00	  0.096953906	6.778700E+01	  0.096953906	4.644300E+01	  0.096953906	4.798300E+01
386	  0.097154312	-7.000000E+00	  0.097154312	6.755700E+01	  0.097154312	4.662100E+01	  0.097154312	4.809000E+01
387	  0.097354710	-6.998000E+00	  0.097354710	6.734600E+01	  0.097354710	4.678200E+01	  0.097354710	4.819500E+01
388	  0.097555116	-6.999000E+00	  0.097555116	6.711700E+01	  0.097555116	4.696500E+01	  0.097555116	4.829600E+01
389	  0.097755514	-6.996000E+00	  0.097755514	6.690000E+01	  0.097755514	4.713000E+01	  0.097755514	4.840800E+01
390	  0.097955912	-6.995000E+00	  0.097955912	6.667600E+01	  0.097955912	4.730700E+01	  0.097955912	4.851700E+01
391	  0.098156318	-6.997000E+00	  0.098156318	6.645500E+01	  0.098156318	4.748800E+01	  0.098156318	4.861100E+01
392	  0.098356716	-6.995000E+00	  0.098356716	6.623400E+01	  0.098356716	4.766100E+01	  0.098356716	4.872000E+01
393	  0.098557115	-6.994000E+00	  0.098557115	6.601100E+01	  0.098557115	4.784000E+01	  0.098557115	4.882600E+01
394	  0.098757520	-6.994000E+00	  0.098757520	6.578900E+01	  0.098757520	4.802100E+01	  0.098757520	4.892600E+01
395	  0.098957919	-6.991000E+00	  0.098957919	6.557900E+01	  0.098957919	4.818600E+01	  0.098957919	4.903700E+01
396	  0.099158317	-6.990000E+00	  0.099158317	6.534000E+01	  0.099158317	4.838100E+01	  0.099158317	4.914900E+01
397	  0.099358723	-6.990000E+00	  0.099358723	6.511200E+01	  0.099358723	4.857100E+01	  0.099358723	4.925100E+01
398	  0.099559121	-6.990000E+00	  0.099559121	6.489500E+01	  0.099559121	4.875100E+01	  0.099559121	4.935100E+01
399	  0.099759519	-6.987000E+00	  0.099759519	6.467200E+01	  0.099759519	4.893000E+01	  0.099759519	4.946700E+01
400	  0.099959925	-6.979000E+00	  0.099959925	6.450100E+01	  0.099959925	4.905100E+01	  0.099959925	4.958800E+01
401	  0.100160323	-6.983000E+00	  0.100160323	6.425200E+01	  0.100160323	4.927500E+01	  0.100160323	4.967700E+01
402	  0.100360721	-6.979000E+00	  0.100360721	6.405800E+01	  0.100360721	4.943000E+01	  0.100360721	4.978400E+01
403	  0.100561127	-6.979000E+00	  0.100561127	6.381600E+01	  0.100561127	4.963800E+01	  0.100561127	4.989300E+01
404	  0.100761525	-6.975000E+00	  0.100761525	6.360600E+01	  0.100761525	4.980800E+01	  0.100761525	5.000900E+01
405	  0.100961931	-6.974000E+00	  0.100961931	6.340300E+01	  0.100961931	4.998200E+01	  0.100961931	5.010300E+01
406	  0.101162329	-6.973000E+00	  0.101162329	6.316200E+01	  0.101162329	5.019300E+01	  0.101162329	5.021000E+01
407	  0.101362728	-6.973000E+00	  0.101362728	6.294700E+01	  0.101362728	5.038200E+01	  0.101362728	5.030400E+01
408	  0.101563133	-6.975000E+00	  0.101563133	6.275900E+01	  0.101563133	5.055400E+01	  0.101563133	5.037500E+01
409	  0.101763532	-6.973000E+00	  0.101763532	6.250800E+01	  0.101763532	5.077100E+01	  0.101763532	5.049800E+01
410	  0.101963930	-6.971000E+00	  0.101963930	6.230300E+01	  0.101963930	5.095100E+01	  0.101963930	5.059500E+01
411	  0.102164336	-6.973000E+00	  0.102164336	6.206600E+01	  0.102164336	5.117100E+01	  0.102164336	5.068400E+01
412	  0.102364734	-6.969000E+00	  0.102364734	6.189100E+01	  0.102364734	5.131600E+01	  0.102364734	5.078700E+01
413	  0.102565132	-6.965000E+00	  0.102565132	6.159200E+01	  0.102565132	5.157800E+01	  0.102565132	5.093700E+01
414	  0.102765530	-6.972000E+00	  0.102765530	6.141100E+01	  0.102765530	5.176400E+01	  0.102765530	5.097200E+01
415	  0.102965929	-6.968000E+00	  0.102965929	6.118100E+01	  0.102965929	5.196700E+01	  0.102965929	5.109100E+01
416	  0.103166327	-6.971000E+00	  0.103166327	6.097500E+01	  0.103166327	5.216600E+01	  0.103166327	5.115900E+01
417	  0.103366733	-6.965000E+00	  0.103366733	6.072600E+01	  0.103366733	5.238100E+01	  0.103366733	5.130300E+01
418	  0.103567131	-6.964000E+00	  0.103567131	6.052000E+01	  0.103567131	5.257300E+01	  0.103567131	5.139500E+01
419	  0.103767529	-6.969000E+00	  0.103767529	6.030400E+01	  0.103767529	5.279200E+01	  0.103767529	5.144900E+01
420	  0.103967935	-6.966000E+00	  0.103967935	6.008300E+01	  0.103967935	5.299300E+01	  0.103967935	5.156100E+01
421	  0.104168333	-6.964000E+00	  0.104168333	5.987100E+01	  0.104168333	5.319200E+01	  0.104168333	5.165600E+01
422	  0.104368731	-6.964000E+00	  0.104368731	5.964300E+01	  0.104368731	5.341100E+01	  0.104368731	5.175100E+01
423	  0.104569137	-6.965000E+00	  0.104569137	5.943400E+01	  0.104569137	5.361400E+01	  0.104569137	5.183200E+01
424	  0.104769535	-6.961000E+00	  0.104769535	5.921500E+01	  0.104769535	5.381800E+01	  0.104769535	5.194300E+01
425	  0.104969934	-6.960000E+00	  0.104969934	5.900100E+01	  0.104969934	5.402400E+01	  0.104969934	5.203600E+01
426	  0.105170339	-6.960000E+00	  0.105170339	5.877600E+01	  0.105170339	5.424500E+01	  0.105170339	5.212700E+01
427	  0.105370738	-6.957000E+00	  0.105370738	5.856100E+01	  0.105370738	5.445200E+01	  0.105370738	5.222800E+01
428	  0.105571143	-6.960000E+00	  0.105571143	5.833500E+01	  0.105571143	5.468400E+01	  0.105571143	5.229900E+01
429	  0.105771542	-6.956000E+00	  0.105771542	5.811100E+01	  0.105771542	5.489800E+01	  0.105771542	5.241300E+01
430	  0.105971940	-6.956000E+00	  0.105971940	5.789400E+01	  0.105971940	5.511500E+01	  0.105971940	5.249900E+01
431	  0.106172346	-6.961000E+00	  0.106172346	5.766500E+01	  0.106172346	5.536000E+01	  0.106172346	5.255500E+01
432	  0.106372744	-6.958000E+00	  0.106372744	5.745700E+01	  0.106372744	5.556500E+01	  0.106372744	5.265200E+01
433	  0.106573142	-6.958000E+00	  0.106573142	5.722600E+01	  0.106573142	5.580200E+01	  0.106573142	5.274000E+01
434	  0.106773548	-6.955000E+00	  0.106773548	5.701400E+01	  0.106773548	5.601200E+01	  0.106773548	5.284000E+01
435	  0.106973946	-6.955000E+00	  0.106973946	5.679500E+01	  0.106973946	5.623800E+01	  0.106973946	5.292500E+01
436	  0.107174344	-6.953000E+00	  0.107174344	5.654700E+01	  0.107174344	5.649300E+01	  0.107174344	5.303000E+01
437	  0.107374750	-6.952000E+00	  0.107374750	5.637700E+01	  0.107374750	5.666900E+01	  0.107374750	5.309800E+01
438	  0.107575148	-6.951000E+00	  0.107575148	5.615000E+01	  0.107575148	5.690700E+01	  0.107575148	5.318600E+01
439	  0.107775547	-6.949000E+00	  0.107775547	5.586500E+01	  0.107775547	5.720200E+01	  0.107775547	5.330900E+01
440	  0.107975952	-6.949000E+00	  0.107975952	5.569700E+01	  0.107975952	5.738300E+01	  0.107975952	5.336600E+01
441	  0.108176351	-6.949000E+00	  0.108176351	5.547900E+01	  0.108176351	5.761400E+01	  0.108176351	5.344700E+01
442	  0.108376749	-6.951000E+00	  0.108376749	5.523000E+01	  0.108376749	5.788900E+01	  0.108376749	5.351800E+01
443	  0.108577155	-6.951000E+00	  0.108577155	5.503900E+01	  0.108577155	5.809500E+01	  0.108577155	5.358800E+01
444	  0.108777553	-6.950000E+00	  0.108777553	5.481000E+01	  0.108777553	5.834300E+01	  0.108777553	5.367100E+01
445	  0.108977959	-6.948000E+00	  0.108977959	5.461200E+01	  0.108977959	5.855600E+01	  0.108977959	5.375500E+01
446	  0.109178357	-6.944000E+00	  0.109178357	5.438500E+01	  0.109178357	5.879800E+01	  0.109178357	5.385900E+01
447	  0.109378755	-6.944000E+00	  0.109378755	5.416800E+01	  0.109378755	5.903700E+01	  0.109378755	5.393500E+01
448	  0.109579161	-6.945000E+00	  0.109579161	5.392700E+01	  0.109579161	5.930700E+01	  0.109579161	5.400900E+01
449	  0.109779559	-6.940000E+00	  0.109779559	5.370400E+01	  0.109779559	5.954700E+01	  0.109779559	5.411700E+01
450	  0.109979957	-6.941000E+00	  0.109979957	5.348700E+01	  0.109979957	5.979400E+01	  0.109979957	5.418100E+01
451	  0.110180363	-6.941000E+00	  0.110180363	5.325100E+01	  0.110180363	6.006300E+01	  0.110180363	5.425500E+01
452	  0.110380761	-6.940000E+00	  0.110380761	5.303700E+01	  0.110380761	6.030400E+01	  0.110380761	5.433400E+01
453	  0.110581160	-6.942000E+00	  0.110581160	5.283100E+01	  0.110581160	6.054300E+01	  0.110581160	5.438400E+01
454	  0.110781565	-6.938000E+00	  0.110781565	5.260500E+01	  0.110781565	6.079700E+01	  0.110781565	5.448300E+01
455	  0.110981964	-6.940000E+00	  0.110981964	5.239200E+01	  0.110981964	6.104900E+01	  0.110981964	5.453100E+01
456	  0.111182362	-6.934000E+00	  0.111182362	5.218100E+01	  0.111182362	6.128200E+01	  0.111182362	5.464200E+01
457	  0.111382768	-6.940000E+00	  0.111382768	5.194700E+01	  0.111382768	6.156800E+01	  0.111382768	5.466500E+01
458	  0.111583166	-6.932000E+00	  0.111583166	5.173800E+01	  0.111583166	6.179800E+01	  0.111583166	5.479200E+01
459	  0.111783572	-6.935000E+00	  0.111783572	5.153500E+01	  0.111783572	6.204400E+01	  0.111783572	5.482700E+01
460	  0.111983970	-6.936000E+00	  0.111983970	5.133800E+01	  0.111983970	6.228100E+01	  0.111983970	5.487400E+01
461	  0.112184368	-6.933000E+00	  0.112184368	5.109000E+01	  0.112184368	6.257200E+01	  0.112184368	5.497000E+01
462	  0.112384774	-6.930000E+00	  0.112384774	5.088100E+01	  0.112384774	6.281700E+01	  0.112384774	5.505400E+01
463	  0.112585172	-6.931000E+00	  0.112585172	5.063600E+01	  0.112585172	6.311600E+01	  0.112585172	5.511000E+01
464	  0.112785570	-6.926000E+00	  0.112785570	5.042800E+01	  0.112785570	6.336100E+01	  0.112785570	5.520600E+01
465	  0.112985976	-6.930000E+00	  0.112985976	5.022900E+01	  0.112985976	6.361100E+01	  0.112985976	5.522900E+01
466	  0.113186374	-6.929000E+00	  0.113186374	5.000200E+01	  0.113186374	6.388900E+01	  0.113186374	5.529500E+01
467	  0.113386773	-6.927000E+00	  0.113386773	4.977800E+01	  0.113386773	6.416300E+01	  0.113386773	5.536700E+01
468	  0.113587178	-6.929000E+00	  0.113587178	4.956800E+01	  0.113587178	6.442800E+01	  0.113587178	5.540000E+01
469	  0.113787577	-6.924000E+00	  0.113787577	4.935000E+01	  0.113787577	6.469100E+01	  0.113787577	5.550100E+01
470	  0.113987975	-6.922000E+00	  0.113987975	4.914500E+01	  0.113987975	6.494600E+01	  0.113987975	5.556000E+01
471	  0.114188381	-6.921000E+00	  0.114188381	4.890300E+01	  0.114188381	6.525000E+01	  0.114188381	5.563100E+01
472	  0.114388779	-6.924000E+00	  0.114388779	4.868400E+01	  0.114388779	6.553200E+01	  0.114388779	5.565800E+01
473	  0.114589177	-6.918000E+00	  0.114589177	4.846500E+01	  0.114589177	6.580200E+01	  0.114589177	5.575900E+01
474	  0.114789583	-6.922000E+00	  0.114789583	4.824400E+01	  0.114789583	6.609300E+01	  0.114789583	5.576900E+01
475	  0.114989981	-6.919000E+00	  0.114989981	4.804100E+01	  0.114989981	6.635000E+01	  0.114989981	5.583800E+01
476	  0.115190387	-6.921000E+00	  0.115190387	4.780500E+01	  0.115190387	6.666000E+01	  0.115190387	5.586700E+01
477	  0.115390785	-6.919000E+00	  0.115390785	4.759900E+01	  0.115390785	6.692500E+01	  0.115390785	5.593200E+01
478	  0.115591183	-6.918000E+00	  0.115591183	4.737400E+01	  0.115591183	6.721900E+01	  0.115591183	5.598500E+01
479	  0.115791589	-6.916000E+00	  0.115791589	4.717200E+01	  0.115791589	6.748200E+01	  0.115791589	5.604300E+01
480	  0.115991987	-6.914000E+00	  0.115991987	4.694600E+01	  0.115991987	6.777800E+01	  0.115991987	5.609800E+01
481	  0.116192386	-6.915000E+00	  0.116192386	4.673800E+01	  0.116192386	6.805600E+01	  0.116192386	5.613200E+01
482	  0.116392791	-6.912000E+00	  0.116392791	4.652100E+01	  0.116392791	6.834200E+01	  0.116392791	5.619300E+01
483	  0.116593190	-6.912000E+00	  0.116593190	4.630500E+01	  0.116593190	6.863300E+01	  0.116593190	5.623300E+01
484	  0.116793588	-6.911000E+00	  0.116793588	4.606300E+01	  0.116793588	6.895900E+01	  0.116793588	5.627700E+01
485	  0.116993994	-6.912000E+00	  0.116993994	4.583300E+01	  0.116993994	6.927200E+01	  0.116993994	5.630400E+01
486	  0.117194392	-6.907000E+00	  0.117194392	4.563500E+01	  0.117194392	6.953900E+01	  0.117194392	5.637700E+01
487	  0.117394790	-6.911000E+00	  0.117394790	4.542900E+01	  0.117394790	6.982300E+01	  0.117394790	5.637500E+01
488	  0.117595196	-6.909000E+00	  0.117595196	4.522700E+01	  0.117595196	7.010200E+01	  0.117595196	5.641400E+01
489	  0.117795594	-6.912000E+00	  0.117795594	4.500000E+01	  0.117795594	7.041700E+01	  0.117795594	5.641800E+01
490	  0.117995992	-6.909000E+00	  0.117995992	4.476700E+01	  0.117995992	7.073900E+01	  0.117995992	5.647200E+01
491	  0.118196398	-6.908000E+00	  0.118196398	4.453700E+01	  0.118196398	7.106000E+01	  0.118196398	5.651300E+01
492	  0.118396796	-6.907000E+00	  0.118396796	4.432100E+01	  0.118396796	7.136300E+01	  0.118396796	5.654700E+01
493	  0.118597202	-6.908000E+00	  0.118597202	4.412700E+01	  0.118597202	7.163800E+01	  0.118597202	5.655200E+01
494	  0.118797600	-6.905000E+00	  0.118797600	4.390300E+01	  0.118797600	7.195200E+01	  0.118797600	5.660500E+01
495	  0.118997999	-6.905000E+00	  0.118997999	4.368000E+01	  0.118997999	7.227100E+01	  0.118997999	5.662700E+01
496	  0.119198404	-6.906000E+00	  0.119198404	4.348400E+01	  0.119198404	7.255100E+01	  0.119198404	5.663200E+01
497	  0.119398803	-6.905000E+00	  0.119398803	4.325400E+01	  0.119398803	7.288300E+01	  0.119398803	5.665600E+01
498	  0.119599201	-6.903000E+00	  0.119599201	4.304000E+01	  0.119599201	7.319000E+01	  0.119599201	5.668600E+01
499	  0.119799607	-6.901000E+00	  0.119799607	4.281100E+01	  0.119799607	7.352200E+01	  0.119799607	5.672500E+01
500	  0.120000005	-6.905000E+00	  0.120000005	4.257900E+01	  0.120000005	7.386200E+01	  0.120000005	5.669700E+01
