! Anritsu VNA Master:             	Model: MS2036C/10/77
! SN:             	1601066
! /bd0/18may08.cable.cal/unused.194p65.1.txt
! Existing Calibration Information:
! TYPE:             	Current Settings	Active Cal Settings
! TIME:             	05/08/2018 04:31:57 PM	05/08/2018 04:21:58 PM
! INTERNAL TEMP:    	50.0 C	50.0 C
! # POINTS:         	500	500
! START FREQ:       	20.000 MHz	20.000 MHz
! STOP FREQ:        	120.000 MHz	120.000 MHz
! SOURCE POWER:     	High	High
! IFBW:             	50 Hz	50 Hz
! AVG FACTOR:       	  1 	  1 
! REF PLANE 1:      	0 mm	0 mm
! REF PLANE 2:      	0 mm	0 mm
! CAL TYPE:         	Full S11	Full S11
! CAL METHOD:       	SOLT	SOLT
! CAL LINE TYPE:    	Coax	Coax
! DUT PORT 1:       	K-Conn(F)	K-Conn(F)
! DUT PORT 2:       	K-Conn(F)	K-Conn(F)
! CAL STATUS:       	OK: Accuracy High	--
! PROP-V:       	0.700
! CABLE LOSS:       	0.000 dB/m
! REF IMPEDANCE:       	50.0
! Trace Specific Parameters:	TR1	TR2	TR3	TR4
! TRACE.#.Y (GRAPH TYPE)	LOG MAG	PHASE	REAL IMPEDANCE	IMAGINARY IMPEDANCE
! TRACE.#.X 	FREQ.GHZ	FREQ.GHZ	FREQ.GHZ	FREQ.GHZ
! S-PARAMETER	S11	S11	S11	S11
! SMOOTH/APERTURE %	0	0	0	0
! WINDOW	NSL	NSL	NSL	NSL
! GATING	OFF	OFF	OFF	OFF
! FGTD	OFF	OFF	OFF	OFF
Marker Information per Trace:	TR1	TR2	TR3	TR4
!MK1	--	"MK1 TR2:  20.000 MHz,PH:-21.12°"	--	--
!MK2	--	--	"MK2 TR3:  70.100 200 MHz,Z:(31.675 ohm, -54.232 ohm)"	--
!MK3	--	--	--	--
!MK4	--	--	--	--
!MK5	--	--	--	--
!MK6	--	--	--	--
!MK7	--	--	--	--
!MK8	--	--	--	--
PNT	TR1.FREQ.GHZ	TR1.LOG MAG.dB	TR2.FREQ.GHZ	TR2.PHASE.deg	TR3.FREQ.GHZ	TR3.REAL IMPEDANCE.ohm	TR4.FREQ.GHZ	TR4.IMAGINARY IMPEDANCE.ohm
1	  0.020000000	-4.547000E+00	  0.020000000	-2.112100E+01	  0.020000000	1.320630E+02	  0.020000000	-8.686500E+01
2	  0.020200402	-4.548000E+00	  0.020200402	-2.133100E+01	  0.020200402	1.312160E+02	  0.020200402	-8.711200E+01
3	  0.020400802	-4.548000E+00	  0.020400802	-2.154400E+01	  0.020400802	1.303670E+02	  0.020400802	-8.736600E+01
4	  0.020601204	-4.550000E+00	  0.020601204	-2.175600E+01	  0.020601204	1.295130E+02	  0.020601204	-8.756200E+01
5	  0.020801604	-4.550000E+00	  0.020801604	-2.197100E+01	  0.020801604	1.286600E+02	  0.020801604	-8.780400E+01
6	  0.021002004	-4.553000E+00	  0.021002004	-2.219100E+01	  0.021002004	1.277800E+02	  0.021002004	-8.798800E+01
7	  0.021202406	-4.552000E+00	  0.021202406	-2.240700E+01	  0.021202406	1.269380E+02	  0.021202406	-8.821900E+01
8	  0.021402806	-4.552000E+00	  0.021402806	-2.262100E+01	  0.021402806	1.261030E+02	  0.021402806	-8.843400E+01
9	  0.021603208	-4.554000E+00	  0.021603208	-2.283500E+01	  0.021603208	1.252590E+02	  0.021603208	-8.859000E+01
10	  0.021803608	-4.555000E+00	  0.021803608	-2.304800E+01	  0.021803608	1.244290E+02	  0.021803608	-8.875700E+01
11	  0.022004008	-4.558000E+00	  0.022004008	-2.325300E+01	  0.022004008	1.236290E+02	  0.022004008	-8.887500E+01
12	  0.022204408	-4.558000E+00	  0.022204408	-2.348400E+01	  0.022204408	1.227410E+02	  0.022204408	-8.904400E+01
13	  0.022404809	-4.558000E+00	  0.022404809	-2.369100E+01	  0.022404809	1.219530E+02	  0.022404809	-8.921700E+01
14	  0.022605211	-4.559000E+00	  0.022605211	-2.389500E+01	  0.022605211	1.211780E+02	  0.022605211	-8.935700E+01
15	  0.022805611	-4.560000E+00	  0.022805611	-2.412600E+01	  0.022805611	1.202980E+02	  0.022805611	-8.947400E+01
16	  0.023006011	-4.559000E+00	  0.023006011	-2.433200E+01	  0.023006011	1.195360E+02	  0.023006011	-8.966100E+01
17	  0.023206413	-4.560000E+00	  0.023206413	-2.455200E+01	  0.023206413	1.187100E+02	  0.023206413	-8.977000E+01
18	  0.023406813	-4.561000E+00	  0.023406813	-2.476900E+01	  0.023406813	1.178990E+02	  0.023406813	-8.987600E+01
19	  0.023607215	-4.562000E+00	  0.023607215	-2.497800E+01	  0.023607215	1.171250E+02	  0.023607215	-8.996900E+01
20	  0.023807615	-4.563000E+00	  0.023807615	-2.519800E+01	  0.023807615	1.163110E+02	  0.023807615	-9.004600E+01
21	  0.024008015	-4.564000E+00	  0.024008015	-2.541300E+01	  0.024008015	1.155260E+02	  0.024008015	-9.012900E+01
22	  0.024208417	-4.564000E+00	  0.024208417	-2.563300E+01	  0.024208417	1.147300E+02	  0.024208417	-9.023800E+01
23	  0.024408817	-4.565000E+00	  0.024408817	-2.586200E+01	  0.024408817	1.139040E+02	  0.024408817	-9.031400E+01
24	  0.024609219	-4.566000E+00	  0.024609219	-2.606700E+01	  0.024609219	1.131650E+02	  0.024609219	-9.036200E+01
25	  0.024809619	-4.567000E+00	  0.024809619	-2.628900E+01	  0.024809619	1.123750E+02	  0.024809619	-9.042800E+01
26	  0.025010020	-4.567000E+00	  0.025010020	-2.649400E+01	  0.025010020	1.116460E+02	  0.025010020	-9.048100E+01
27	  0.025210422	-4.569000E+00	  0.025210422	-2.671400E+01	  0.025210422	1.108720E+02	  0.025210422	-9.050900E+01
28	  0.025410822	-4.570000E+00	  0.025410822	-2.693600E+01	  0.025410822	1.100950E+02	  0.025410822	-9.053500E+01
29	  0.025611224	-4.570000E+00	  0.025611224	-2.713300E+01	  0.025611224	1.094090E+02	  0.025611224	-9.057800E+01
30	  0.025811624	-4.571000E+00	  0.025811624	-2.736200E+01	  0.025811624	1.086200E+02	  0.025811624	-9.062000E+01
31	  0.026012026	-4.571000E+00	  0.026012026	-2.756900E+01	  0.026012026	1.079100E+02	  0.026012026	-9.065100E+01
32	  0.026212426	-4.572000E+00	  0.026212426	-2.778900E+01	  0.026212426	1.071630E+02	  0.026212426	-9.066000E+01
33	  0.026412826	-4.573000E+00	  0.026412826	-2.801800E+01	  0.026412826	1.063870E+02	  0.026412826	-9.066400E+01
34	  0.026613226	-4.573000E+00	  0.026613226	-2.822200E+01	  0.026613226	1.057030E+02	  0.026613226	-9.068600E+01
35	  0.026813626	-4.573000E+00	  0.026813626	-2.843400E+01	  0.026813626	1.049940E+02	  0.026813626	-9.070300E+01
36	  0.027014028	-4.574000E+00	  0.027014028	-2.865900E+01	  0.027014028	1.042510E+02	  0.027014028	-9.067800E+01
37	  0.027214428	-4.574000E+00	  0.027214428	-2.888300E+01	  0.027214428	1.035140E+02	  0.027214428	-9.068600E+01
38	  0.027414829	-4.575000E+00	  0.027414829	-2.909700E+01	  0.027414829	1.028150E+02	  0.027414829	-9.065800E+01
39	  0.027615231	-4.575000E+00	  0.027615231	-2.931800E+01	  0.027615231	1.020960E+02	  0.027615231	-9.066400E+01
40	  0.027815631	-4.576000E+00	  0.027815631	-2.952500E+01	  0.027815631	1.014320E+02	  0.027815631	-9.061900E+01
41	  0.028016033	-4.577000E+00	  0.028016033	-2.975500E+01	  0.028016033	1.006960E+02	  0.028016033	-9.058200E+01
42	  0.028216433	-4.578000E+00	  0.028216433	-2.996500E+01	  0.028216433	1.000310E+02	  0.028216433	-9.053300E+01
43	  0.028416833	-4.579000E+00	  0.028416833	-3.018400E+01	  0.028416833	9.934100E+01	  0.028416833	-9.049000E+01
44	  0.028617235	-4.579000E+00	  0.028617235	-3.040700E+01	  0.028617235	9.864600E+01	  0.028617235	-9.044100E+01
45	  0.028817635	-4.580000E+00	  0.028817635	-3.062000E+01	  0.028817635	9.798700E+01	  0.028817635	-9.038600E+01
46	  0.029018037	-4.580000E+00	  0.029018037	-3.085000E+01	  0.029018037	9.727600E+01	  0.029018037	-9.035000E+01
47	  0.029218437	-4.581000E+00	  0.029218437	-3.105700E+01	  0.029218437	9.664600E+01	  0.029218437	-9.027700E+01
48	  0.029418837	-4.583000E+00	  0.029418837	-3.128000E+01	  0.029418837	9.597200E+01	  0.029418837	-9.019300E+01
49	  0.029619239	-4.584000E+00	  0.029619239	-3.150300E+01	  0.029619239	9.530400E+01	  0.029619239	-9.011800E+01
50	  0.029819639	-4.584000E+00	  0.029819639	-3.170800E+01	  0.029819639	9.469100E+01	  0.029819639	-9.004600E+01
51	  0.030020041	-4.585000E+00	  0.030020041	-3.192600E+01	  0.030020041	9.404700E+01	  0.030020041	-8.996700E+01
52	  0.030220442	-4.585000E+00	  0.030220442	-3.214200E+01	  0.030220442	9.341000E+01	  0.030220442	-8.989900E+01
53	  0.030420844	-4.587000E+00	  0.030420844	-3.235500E+01	  0.030420844	9.279200E+01	  0.030420844	-8.979400E+01
54	  0.030621244	-4.585000E+00	  0.030621244	-3.257200E+01	  0.030621244	9.216200E+01	  0.030621244	-8.974800E+01
55	  0.030821644	-4.587000E+00	  0.030821644	-3.278400E+01	  0.030821644	9.155500E+01	  0.030821644	-8.964000E+01
56	  0.031022044	-4.588000E+00	  0.031022044	-3.300200E+01	  0.031022044	9.093500E+01	  0.031022044	-8.953600E+01
57	  0.031222444	-4.577000E+00	  0.031222444	-3.316500E+01	  0.031222444	9.044500E+01	  0.031222444	-8.967200E+01
58	  0.031422846	-4.579000E+00	  0.031422846	-3.337900E+01	  0.031422846	8.984500E+01	  0.031422846	-8.955800E+01
59	  0.031623244	-4.579000E+00	  0.031623244	-3.359400E+01	  0.031623244	8.924500E+01	  0.031623244	-8.945500E+01
60	  0.031823646	-4.582000E+00	  0.031823646	-3.381900E+01	  0.031823646	8.862800E+01	  0.031823646	-8.929600E+01
61	  0.032024048	-4.581000E+00	  0.032024048	-3.402700E+01	  0.032024048	8.805400E+01	  0.032024048	-8.922300E+01
62	  0.032224450	-4.582000E+00	  0.032224450	-3.421900E+01	  0.032224450	8.753000E+01	  0.032224450	-8.911900E+01
63	  0.032424849	-4.582000E+00	  0.032424849	-3.444100E+01	  0.032424849	8.693100E+01	  0.032424849	-8.899300E+01
64	  0.032625251	-4.583000E+00	  0.032625251	-3.465400E+01	  0.032625251	8.635900E+01	  0.032625251	-8.887600E+01
65	  0.032825653	-4.585000E+00	  0.032825653	-3.487600E+01	  0.032825653	8.577300E+01	  0.032825653	-8.872900E+01
66	  0.033026051	-4.587000E+00	  0.033026051	-3.507700E+01	  0.033026051	8.525000E+01	  0.033026051	-8.859100E+01
67	  0.033226453	-4.584000E+00	  0.033226453	-3.529600E+01	  0.033226453	8.466400E+01	  0.033226453	-8.850900E+01
68	  0.033426855	-4.586000E+00	  0.033426855	-3.551000E+01	  0.033426855	8.411200E+01	  0.033426855	-8.836600E+01
69	  0.033627257	-4.588000E+00	  0.033627257	-3.572400E+01	  0.033627257	8.356800E+01	  0.033627257	-8.821000E+01
70	  0.033827655	-4.588000E+00	  0.033827655	-3.593200E+01	  0.033827655	8.303600E+01	  0.033827655	-8.808500E+01
71	  0.034028057	-4.590000E+00	  0.034028057	-3.614100E+01	  0.034028057	8.250900E+01	  0.034028057	-8.793300E+01
72	  0.034228459	-4.589000E+00	  0.034228459	-3.637100E+01	  0.034228459	8.192600E+01	  0.034228459	-8.781400E+01
73	  0.034428857	-4.590000E+00	  0.034428857	-3.657100E+01	  0.034428857	8.143100E+01	  0.034428857	-8.767200E+01
74	  0.034629259	-4.590000E+00	  0.034629259	-3.679600E+01	  0.034629259	8.087300E+01	  0.034629259	-8.752800E+01
75	  0.034829661	-4.590000E+00	  0.034829661	-3.700600E+01	  0.034829661	8.035600E+01	  0.034829661	-8.739400E+01
76	  0.035030060	-4.591000E+00	  0.035030060	-3.721500E+01	  0.035030060	7.984900E+01	  0.035030060	-8.724000E+01
77	  0.035230462	-4.589000E+00	  0.035230462	-3.743600E+01	  0.035230462	7.930700E+01	  0.035230462	-8.712700E+01
78	  0.035430863	-4.590000E+00	  0.035430863	-3.765400E+01	  0.035430863	7.878800E+01	  0.035430863	-8.695900E+01
79	  0.035631265	-4.592000E+00	  0.035631265	-3.786300E+01	  0.035631265	7.830000E+01	  0.035631265	-8.678900E+01
80	  0.035831664	-4.592000E+00	  0.035831664	-3.807400E+01	  0.035831664	7.780000E+01	  0.035831664	-8.664300E+01
81	  0.036032066	-4.592000E+00	  0.036032066	-3.828800E+01	  0.036032066	7.730000E+01	  0.036032066	-8.649500E+01
82	  0.036232468	-4.594000E+00	  0.036232468	-3.851000E+01	  0.036232468	7.679400E+01	  0.036232468	-8.630900E+01
83	  0.036432866	-4.593000E+00	  0.036432866	-3.872400E+01	  0.036432866	7.629500E+01	  0.036432866	-8.617200E+01
84	  0.036633268	-4.593000E+00	  0.036633268	-3.894700E+01	  0.036633268	7.578200E+01	  0.036633268	-8.601900E+01
85	  0.036833670	-4.594000E+00	  0.036833670	-3.915600E+01	  0.036833670	7.531600E+01	  0.036833670	-8.584800E+01
86	  0.037034072	-4.596000E+00	  0.037034072	-3.935900E+01	  0.037034072	7.486800E+01	  0.037034072	-8.567000E+01
87	  0.037234470	-4.596000E+00	  0.037234470	-3.958500E+01	  0.037234470	7.436200E+01	  0.037234470	-8.550700E+01
88	  0.037434869	-4.596000E+00	  0.037434869	-3.980700E+01	  0.037434869	7.387600E+01	  0.037434869	-8.532700E+01
89	  0.037635271	-4.597000E+00	  0.037635271	-4.002200E+01	  0.037635271	7.340900E+01	  0.037635271	-8.515000E+01
90	  0.037835669	-4.597000E+00	  0.037835669	-4.022500E+01	  0.037835669	7.296900E+01	  0.037835669	-8.499400E+01
91	  0.038036071	-4.598000E+00	  0.038036071	-4.045800E+01	  0.038036071	7.246800E+01	  0.038036071	-8.480900E+01
92	  0.038236473	-4.598000E+00	  0.038236473	-4.066800E+01	  0.038236473	7.202100E+01	  0.038236473	-8.464100E+01
93	  0.038436871	-4.598000E+00	  0.038436871	-4.087300E+01	  0.038436871	7.158500E+01	  0.038436871	-8.448800E+01
94	  0.038637273	-4.600000E+00	  0.038637273	-4.109200E+01	  0.038637273	7.113700E+01	  0.038637273	-8.428000E+01
95	  0.038837675	-4.600000E+00	  0.038837675	-4.131900E+01	  0.038837675	7.066600E+01	  0.038837675	-8.409700E+01
96	  0.039038073	-4.600000E+00	  0.039038073	-4.152800E+01	  0.039038073	7.023200E+01	  0.039038073	-8.393100E+01
97	  0.039238475	-4.601000E+00	  0.039238475	-4.174700E+01	  0.039238475	6.979100E+01	  0.039238475	-8.373700E+01
98	  0.039438877	-4.603000E+00	  0.039438877	-4.196900E+01	  0.039438877	6.934900E+01	  0.039438877	-8.353300E+01
99	  0.039639279	-4.602000E+00	  0.039639279	-4.216600E+01	  0.039639279	6.894800E+01	  0.039639279	-8.338400E+01
100	  0.039839678	-4.604000E+00	  0.039839678	-4.239100E+01	  0.039839678	6.850500E+01	  0.039839678	-8.318000E+01
101	  0.040040080	-4.603000E+00	  0.040040080	-4.260700E+01	  0.040040080	6.807200E+01	  0.040040080	-8.301600E+01
102	  0.040240481	-4.603000E+00	  0.040240481	-4.282700E+01	  0.040240481	6.764300E+01	  0.040240481	-8.282700E+01
103	  0.040440880	-4.607000E+00	  0.040440880	-4.304200E+01	  0.040440880	6.724300E+01	  0.040440880	-8.260200E+01
104	  0.040641282	-4.606000E+00	  0.040641282	-4.326300E+01	  0.040641282	6.681000E+01	  0.040641282	-8.242700E+01
105	  0.040841684	-4.606000E+00	  0.040841684	-4.347400E+01	  0.040841684	6.640900E+01	  0.040841684	-8.224700E+01
106	  0.041042086	-4.607000E+00	  0.041042086	-4.368500E+01	  0.041042086	6.601300E+01	  0.041042086	-8.205600E+01
107	  0.041242484	-4.608000E+00	  0.041242484	-4.390200E+01	  0.041242484	6.561000E+01	  0.041242484	-8.186000E+01
108	  0.041442886	-4.608000E+00	  0.041442886	-4.411500E+01	  0.041442886	6.521600E+01	  0.041442886	-8.167000E+01
109	  0.041643288	-4.606000E+00	  0.041643288	-4.434400E+01	  0.041643288	6.478100E+01	  0.041643288	-8.149700E+01
110	  0.041843686	-4.609000E+00	  0.041843686	-4.456000E+01	  0.041843686	6.439600E+01	  0.041843686	-8.128300E+01
111	  0.042044088	-4.608000E+00	  0.042044088	-4.475700E+01	  0.042044088	6.403300E+01	  0.042044088	-8.112200E+01
112	  0.042244490	-4.608000E+00	  0.042244490	-4.498200E+01	  0.042244490	6.362900E+01	  0.042244490	-8.092100E+01
113	  0.042444889	-4.608000E+00	  0.042444889	-4.519600E+01	  0.042444889	6.324500E+01	  0.042444889	-8.073700E+01
114	  0.042645290	-4.609000E+00	  0.042645290	-4.541500E+01	  0.042645290	6.286400E+01	  0.042645290	-8.052800E+01
115	  0.042845692	-4.609000E+00	  0.042845692	-4.562500E+01	  0.042845692	6.249600E+01	  0.042845692	-8.034400E+01
116	  0.043046094	-4.609000E+00	  0.043046094	-4.584700E+01	  0.043046094	6.210600E+01	  0.043046094	-8.015000E+01
117	  0.043246493	-4.610000E+00	  0.043246493	-4.605700E+01	  0.043246493	6.175000E+01	  0.043246493	-7.994800E+01
118	  0.043446895	-4.609000E+00	  0.043446895	-4.627900E+01	  0.043446895	6.136200E+01	  0.043446895	-7.976900E+01
119	  0.043647297	-4.610000E+00	  0.043647297	-4.649300E+01	  0.043647297	6.100300E+01	  0.043647297	-7.956500E+01
120	  0.043847695	-4.612000E+00	  0.043847695	-4.671200E+01	  0.043847695	6.064500E+01	  0.043847695	-7.934900E+01
121	  0.044048097	-4.613000E+00	  0.044048097	-4.693100E+01	  0.044048097	6.028300E+01	  0.044048097	-7.914500E+01
122	  0.044248499	-4.611000E+00	  0.044248499	-4.714400E+01	  0.044248499	5.992200E+01	  0.044248499	-7.896700E+01
123	  0.044448901	-4.613000E+00	  0.044448901	-4.736700E+01	  0.044448901	5.956700E+01	  0.044448901	-7.874600E+01
124	  0.044649299	-4.612000E+00	  0.044649299	-4.757400E+01	  0.044649299	5.922400E+01	  0.044649299	-7.857100E+01
125	  0.044849701	-4.612000E+00	  0.044849701	-4.779300E+01	  0.044849701	5.886600E+01	  0.044849701	-7.837900E+01
126	  0.045050103	-4.614000E+00	  0.045050103	-4.801000E+01	  0.045050103	5.853300E+01	  0.045050103	-7.815800E+01
127	  0.045250501	-4.614000E+00	  0.045250501	-4.822100E+01	  0.045250501	5.819600E+01	  0.045250501	-7.796800E+01
128	  0.045450903	-4.614000E+00	  0.045450903	-4.844100E+01	  0.045450903	5.784700E+01	  0.045450903	-7.777300E+01
129	  0.045651305	-4.614000E+00	  0.045651305	-4.865500E+01	  0.045651305	5.751400E+01	  0.045651305	-7.757400E+01
130	  0.045851704	-4.615000E+00	  0.045851704	-4.886500E+01	  0.045851704	5.719500E+01	  0.045851704	-7.737200E+01
131	  0.046052106	-4.616000E+00	  0.046052106	-4.909900E+01	  0.046052106	5.684000E+01	  0.046052106	-7.715000E+01
132	  0.046252504	-4.616000E+00	  0.046252504	-4.931900E+01	  0.046252504	5.650600E+01	  0.046252504	-7.694900E+01
133	  0.046452906	-4.619000E+00	  0.046452906	-4.952800E+01	  0.046452906	5.620800E+01	  0.046452906	-7.672900E+01
134	  0.046653304	-4.617000E+00	  0.046653304	-4.975200E+01	  0.046653304	5.586200E+01	  0.046653304	-7.654200E+01
135	  0.046853706	-4.617000E+00	  0.046853706	-4.996800E+01	  0.046853706	5.553900E+01	  0.046853706	-7.634700E+01
136	  0.047054108	-4.618000E+00	  0.047054108	-5.021500E+01	  0.047054108	5.517900E+01	  0.047054108	-7.611200E+01
137	  0.047254506	-4.617000E+00	  0.047254506	-5.041300E+01	  0.047254506	5.488900E+01	  0.047254506	-7.593400E+01
138	  0.047454908	-4.619000E+00	  0.047454908	-5.062700E+01	  0.047454908	5.458700E+01	  0.047454908	-7.572400E+01
139	  0.047655310	-4.618000E+00	  0.047655310	-5.084900E+01	  0.047655310	5.426100E+01	  0.047655310	-7.553200E+01
140	  0.047855709	-4.618000E+00	  0.047855709	-5.107400E+01	  0.047855709	5.394200E+01	  0.047855709	-7.532300E+01
141	  0.048056111	-4.618000E+00	  0.048056111	-5.129100E+01	  0.048056111	5.363400E+01	  0.048056111	-7.512300E+01
142	  0.048256513	-4.617000E+00	  0.048256513	-5.151700E+01	  0.048256513	5.331300E+01	  0.048256513	-7.492400E+01
143	  0.048456915	-4.619000E+00	  0.048456915	-5.173100E+01	  0.048456915	5.302500E+01	  0.048456915	-7.471300E+01
144	  0.048657313	-4.620000E+00	  0.048657313	-5.194500E+01	  0.048657313	5.274000E+01	  0.048657313	-7.450100E+01
145	  0.048857715	-4.619000E+00	  0.048857715	-5.216700E+01	  0.048857715	5.243000E+01	  0.048857715	-7.430900E+01
146	  0.049058117	-4.620000E+00	  0.049058117	-5.237600E+01	  0.049058117	5.215400E+01	  0.049058117	-7.410600E+01
147	  0.049258515	-4.622000E+00	  0.049258515	-5.259600E+01	  0.049258515	5.186800E+01	  0.049258515	-7.389100E+01
148	  0.049458917	-4.622000E+00	  0.049458917	-5.281300E+01	  0.049458917	5.158100E+01	  0.049458917	-7.368600E+01
149	  0.049659319	-4.621000E+00	  0.049659319	-5.301600E+01	  0.049659319	5.130400E+01	  0.049659319	-7.351400E+01
150	  0.049859721	-4.621000E+00	  0.049859721	-5.324600E+01	  0.049859721	5.100500E+01	  0.049859721	-7.329800E+01
151	  0.050060119	-4.622000E+00	  0.050060119	-5.346300E+01	  0.050060119	5.073100E+01	  0.050060119	-7.308600E+01
152	  0.050260521	-4.621000E+00	  0.050260521	-5.368200E+01	  0.050260521	5.044100E+01	  0.050260521	-7.289400E+01
153	  0.050460923	-4.622000E+00	  0.050460923	-5.390400E+01	  0.050460923	5.016200E+01	  0.050460923	-7.268300E+01
154	  0.050661322	-4.621000E+00	  0.050661322	-5.412300E+01	  0.050661322	4.987800E+01	  0.050661322	-7.249100E+01
155	  0.050861724	-4.625000E+00	  0.050861724	-5.433100E+01	  0.050861724	4.964000E+01	  0.050861724	-7.226900E+01
156	  0.051062126	-4.624000E+00	  0.051062126	-5.455300E+01	  0.051062126	4.936000E+01	  0.051062126	-7.206800E+01
157	  0.051262524	-4.624000E+00	  0.051262524	-5.476800E+01	  0.051262524	4.909400E+01	  0.051262524	-7.187200E+01
158	  0.051462926	-4.625000E+00	  0.051462926	-5.497700E+01	  0.051462926	4.884200E+01	  0.051462926	-7.167600E+01
159	  0.051663328	-4.627000E+00	  0.051663328	-5.519500E+01	  0.051663328	4.858900E+01	  0.051663328	-7.145800E+01
160	  0.051863730	-4.625000E+00	  0.051863730	-5.541500E+01	  0.051863730	4.831300E+01	  0.051863730	-7.127100E+01
161	  0.052064128	-4.626000E+00	  0.052064128	-5.563100E+01	  0.052064128	4.806100E+01	  0.052064128	-7.106300E+01
162	  0.052264530	-4.628000E+00	  0.052264530	-5.585200E+01	  0.052264530	4.781000E+01	  0.052264530	-7.084800E+01
163	  0.052464932	-4.628000E+00	  0.052464932	-5.607900E+01	  0.052464932	4.754100E+01	  0.052464932	-7.064300E+01
164	  0.052665330	-4.629000E+00	  0.052665330	-5.628700E+01	  0.052665330	4.730400E+01	  0.052665330	-7.044800E+01
165	  0.052865732	-4.629000E+00	  0.052865732	-5.649300E+01	  0.052865732	4.706400E+01	  0.052865732	-7.026200E+01
166	  0.053066134	-4.630000E+00	  0.053066134	-5.671600E+01	  0.053066134	4.681400E+01	  0.053066134	-7.004800E+01
167	  0.053266536	-4.628000E+00	  0.053266536	-5.692700E+01	  0.053266536	4.656500E+01	  0.053266536	-6.986600E+01
168	  0.053466935	-4.630000E+00	  0.053466935	-5.714700E+01	  0.053466935	4.632400E+01	  0.053466935	-6.965700E+01
169	  0.053667337	-4.631000E+00	  0.053667337	-5.737000E+01	  0.053667337	4.608200E+01	  0.053667337	-6.944500E+01
170	  0.053867739	-4.631000E+00	  0.053867739	-5.758500E+01	  0.053867739	4.584200E+01	  0.053867739	-6.925200E+01
171	  0.054068137	-4.631000E+00	  0.054068137	-5.780600E+01	  0.054068137	4.559600E+01	  0.054068137	-6.905300E+01
172	  0.054268539	-4.632000E+00	  0.054268539	-5.801200E+01	  0.054268539	4.537700E+01	  0.054268539	-6.885900E+01
173	  0.054468941	-4.633000E+00	  0.054468941	-5.824000E+01	  0.054468941	4.513800E+01	  0.054468941	-6.864200E+01
174	  0.054669339	-4.633000E+00	  0.054669339	-5.845600E+01	  0.054669339	4.490500E+01	  0.054669339	-6.844700E+01
175	  0.054869737	-4.634000E+00	  0.054869737	-5.867200E+01	  0.054869737	4.467900E+01	  0.054869737	-6.824700E+01
176	  0.055070139	-4.634000E+00	  0.055070139	-5.888200E+01	  0.055070139	4.445700E+01	  0.055070139	-6.805700E+01
177	  0.055270538	-4.633000E+00	  0.055270538	-5.909200E+01	  0.055270538	4.423300E+01	  0.055270538	-6.787300E+01
178	  0.055470940	-4.635000E+00	  0.055470940	-5.931400E+01	  0.055470940	4.401100E+01	  0.055470940	-6.766100E+01
179	  0.055671342	-4.634000E+00	  0.055671342	-5.952900E+01	  0.055671342	4.378400E+01	  0.055671342	-6.747300E+01
180	  0.055871744	-4.635000E+00	  0.055871744	-5.975200E+01	  0.055871744	4.356200E+01	  0.055871744	-6.726600E+01
181	  0.056072142	-4.636000E+00	  0.056072142	-5.996500E+01	  0.056072142	4.334900E+01	  0.056072142	-6.707100E+01
182	  0.056272544	-4.636000E+00	  0.056272544	-6.017000E+01	  0.056272544	4.314300E+01	  0.056272544	-6.688700E+01
183	  0.056472946	-4.637000E+00	  0.056472946	-6.038700E+01	  0.056472946	4.293100E+01	  0.056472946	-6.668600E+01
184	  0.056673344	-4.638000E+00	  0.056673344	-6.060000E+01	  0.056673344	4.272100E+01	  0.056673344	-6.649600E+01
185	  0.056873746	-4.640000E+00	  0.056873746	-6.081100E+01	  0.056873746	4.252500E+01	  0.056873746	-6.629300E+01
186	  0.057074148	-4.639000E+00	  0.057074148	-6.103100E+01	  0.057074148	4.230600E+01	  0.057074148	-6.610200E+01
187	  0.057274550	-4.641000E+00	  0.057274550	-6.124900E+01	  0.057274550	4.210500E+01	  0.057274550	-6.589600E+01
188	  0.057474948	-4.642000E+00	  0.057474948	-6.146300E+01	  0.057474948	4.190600E+01	  0.057474948	-6.570000E+01
189	  0.057675350	-4.642000E+00	  0.057675350	-6.167300E+01	  0.057675350	4.170400E+01	  0.057675350	-6.551400E+01
190	  0.057875752	-4.644000E+00	  0.057875752	-6.190400E+01	  0.057875752	4.149500E+01	  0.057875752	-6.530100E+01
191	  0.058076151	-4.645000E+00	  0.058076151	-6.212000E+01	  0.058076151	4.129900E+01	  0.058076151	-6.510400E+01
192	  0.058276553	-4.647000E+00	  0.058276553	-6.234100E+01	  0.058276553	4.110000E+01	  0.058276553	-6.490000E+01
193	  0.058476955	-4.648000E+00	  0.058476955	-6.254100E+01	  0.058476955	4.092000E+01	  0.058476955	-6.471900E+01
194	  0.058677353	-4.648000E+00	  0.058677353	-6.277700E+01	  0.058677353	4.070500E+01	  0.058677353	-6.451100E+01
195	  0.058877755	-4.652000E+00	  0.058877755	-6.298000E+01	  0.058877755	4.054000E+01	  0.058877755	-6.431100E+01
196	  0.059078157	-4.648000E+00	  0.059078157	-6.321400E+01	  0.059078157	4.031000E+01	  0.059078157	-6.412800E+01
197	  0.059278559	-4.652000E+00	  0.059278559	-6.342900E+01	  0.059278559	4.013700E+01	  0.059278559	-6.391800E+01
198	  0.059478957	-4.652000E+00	  0.059478957	-6.363600E+01	  0.059478957	3.995200E+01	  0.059478957	-6.374000E+01
199	  0.059679359	-4.653000E+00	  0.059679359	-6.384500E+01	  0.059679359	3.977500E+01	  0.059679359	-6.355000E+01
200	  0.059879761	-4.656000E+00	  0.059879761	-6.407200E+01	  0.059879761	3.959000E+01	  0.059879761	-6.334000E+01
201	  0.060080159	-4.656000E+00	  0.060080159	-6.429200E+01	  0.060080159	3.939800E+01	  0.060080159	-6.315100E+01
202	  0.060280561	-4.657000E+00	  0.060280561	-6.451200E+01	  0.060280561	3.921600E+01	  0.060280561	-6.295200E+01
203	  0.060480963	-4.659000E+00	  0.060480963	-6.472600E+01	  0.060480963	3.904200E+01	  0.060480963	-6.276000E+01
204	  0.060681365	-4.659000E+00	  0.060681365	-6.494600E+01	  0.060681365	3.885400E+01	  0.060681365	-6.257100E+01
205	  0.060881764	-4.658000E+00	  0.060881764	-6.515900E+01	  0.060881764	3.867000E+01	  0.060881764	-6.239300E+01
206	  0.061082166	-4.659000E+00	  0.061082166	-6.537900E+01	  0.061082166	3.848900E+01	  0.061082166	-6.220200E+01
207	  0.061282568	-4.660000E+00	  0.061282568	-6.559500E+01	  0.061282568	3.831400E+01	  0.061282568	-6.201200E+01
208	  0.061482966	-4.658000E+00	  0.061482966	-6.581500E+01	  0.061482966	3.812400E+01	  0.061482966	-6.183300E+01
209	  0.061683368	-4.660000E+00	  0.061683368	-6.601300E+01	  0.061683368	3.796900E+01	  0.061683368	-6.165800E+01
210	  0.061883770	-4.661000E+00	  0.061883770	-6.623300E+01	  0.061883770	3.779800E+01	  0.061883770	-6.146400E+01
211	  0.062084168	-4.661000E+00	  0.062084168	-6.645400E+01	  0.062084168	3.762100E+01	  0.062084168	-6.127600E+01
212	  0.062284570	-4.663000E+00	  0.062284570	-6.666800E+01	  0.062284570	3.745800E+01	  0.062284570	-6.108800E+01
213	  0.062484972	-4.649000E+00	  0.062484972	-6.680200E+01	  0.062484972	3.727400E+01	  0.062484972	-6.104700E+01
214	  0.062685370	-4.649000E+00	  0.062685370	-6.699900E+01	  0.062685370	3.711700E+01	  0.062685370	-6.088100E+01
215	  0.062885776	-4.653000E+00	  0.062885776	-6.724200E+01	  0.062885776	3.694800E+01	  0.062885776	-6.065600E+01
216	  0.063086174	-4.654000E+00	  0.063086174	-6.743800E+01	  0.063086174	3.680100E+01	  0.063086174	-6.048600E+01
217	  0.063286573	-4.655000E+00	  0.063286573	-6.766000E+01	  0.063286573	3.663800E+01	  0.063286573	-6.029300E+01
218	  0.063486971	-4.656000E+00	  0.063486971	-6.789100E+01	  0.063486971	3.646600E+01	  0.063486971	-6.009600E+01
219	  0.063687377	-4.655000E+00	  0.063687377	-6.810200E+01	  0.063687377	3.629900E+01	  0.063687377	-5.992500E+01
220	  0.063887775	-4.656000E+00	  0.063887775	-6.832300E+01	  0.063887775	3.613500E+01	  0.063887775	-5.973700E+01
221	  0.064088173	-4.657000E+00	  0.064088173	-6.853400E+01	  0.064088173	3.598400E+01	  0.064088173	-5.955700E+01
222	  0.064288579	-4.658000E+00	  0.064288579	-6.874700E+01	  0.064288579	3.583100E+01	  0.064288579	-5.937400E+01
223	  0.064488977	-4.659000E+00	  0.064488977	-6.898100E+01	  0.064488977	3.566100E+01	  0.064488977	-5.917700E+01
224	  0.064689375	-4.660000E+00	  0.064689375	-6.918500E+01	  0.064689375	3.551600E+01	  0.064689375	-5.900600E+01
225	  0.064889781	-4.662000E+00	  0.064889781	-6.939900E+01	  0.064889781	3.537100E+01	  0.064889781	-5.882000E+01
226	  0.065090179	-4.663000E+00	  0.065090179	-6.962000E+01	  0.065090179	3.521600E+01	  0.065090179	-5.863300E+01
227	  0.065290578	-4.665000E+00	  0.065290578	-6.984100E+01	  0.065290578	3.506900E+01	  0.065290578	-5.844300E+01
228	  0.065490983	-4.665000E+00	  0.065490983	-7.004600E+01	  0.065490983	3.492200E+01	  0.065490983	-5.827600E+01
229	  0.065691382	-4.666000E+00	  0.065691382	-7.027100E+01	  0.065691382	3.477200E+01	  0.065691382	-5.808500E+01
230	  0.065891780	-4.665000E+00	  0.065891780	-7.049400E+01	  0.065891780	3.460600E+01	  0.065891780	-5.791000E+01
231	  0.066092186	-4.666000E+00	  0.066092186	-7.070700E+01	  0.066092186	3.446800E+01	  0.066092186	-5.773000E+01
232	  0.066292584	-4.667000E+00	  0.066292584	-7.092100E+01	  0.066292584	3.432200E+01	  0.066292584	-5.755400E+01
233	  0.066492982	-4.668000E+00	  0.066492982	-7.115300E+01	  0.066492982	3.417100E+01	  0.066492982	-5.736100E+01
234	  0.066693388	-4.668000E+00	  0.066693388	-7.137900E+01	  0.066693388	3.401700E+01	  0.066693388	-5.717800E+01
235	  0.066893786	-4.668000E+00	  0.066893786	-7.158700E+01	  0.066893786	3.387200E+01	  0.066893786	-5.701400E+01
236	  0.067094192	-4.667000E+00	  0.067094192	-7.179500E+01	  0.067094192	3.372800E+01	  0.067094192	-5.685000E+01
237	  0.067294590	-4.668000E+00	  0.067294590	-7.200200E+01	  0.067294590	3.359500E+01	  0.067294590	-5.668100E+01
238	  0.067494988	-4.671000E+00	  0.067494988	-7.224600E+01	  0.067494988	3.344800E+01	  0.067494988	-5.647400E+01
239	  0.067695394	-4.668000E+00	  0.067695394	-7.246700E+01	  0.067695394	3.329100E+01	  0.067695394	-5.630800E+01
240	  0.067895792	-4.669000E+00	  0.067895792	-7.268800E+01	  0.067895792	3.315000E+01	  0.067895792	-5.612900E+01
241	  0.068096191	-4.667000E+00	  0.068096191	-7.288800E+01	  0.068096191	3.301100E+01	  0.068096191	-5.597800E+01
242	  0.068296596	-4.672000E+00	  0.068296596	-7.312100E+01	  0.068296596	3.288500E+01	  0.068296596	-5.577500E+01
243	  0.068496995	-4.670000E+00	  0.068496995	-7.332800E+01	  0.068496995	3.274400E+01	  0.068496995	-5.561900E+01
244	  0.068697393	-4.673000E+00	  0.068697393	-7.355200E+01	  0.068697393	3.262100E+01	  0.068697393	-5.542700E+01
245	  0.068897791	-4.673000E+00	  0.068897791	-7.377600E+01	  0.068897791	3.247600E+01	  0.068897791	-5.525300E+01
246	  0.069098189	-4.671000E+00	  0.069098189	-7.400300E+01	  0.069098189	3.232300E+01	  0.069098189	-5.508500E+01
247	  0.069298595	-4.672000E+00	  0.069298595	-7.421900E+01	  0.069298595	3.219900E+01	  0.069298595	-5.490800E+01
248	  0.069498993	-4.674000E+00	  0.069498993	-7.442900E+01	  0.069498993	3.207900E+01	  0.069498993	-5.473700E+01
249	  0.069699399	-4.674000E+00	  0.069699399	-7.464300E+01	  0.069699399	3.194900E+01	  0.069699399	-5.457000E+01
250	  0.069899797	-4.674000E+00	  0.069899797	-7.485900E+01	  0.069899797	3.181800E+01	  0.069899797	-5.440100E+01
251	  0.070100196	-4.673000E+00	  0.070100196	-7.508500E+01	  0.070100196	3.167400E+01	  0.070100196	-5.423200E+01
252	  0.070300601	-4.675000E+00	  0.070300601	-7.529300E+01	  0.070300601	3.156100E+01	  0.070300601	-5.406300E+01
253	  0.070501000	-4.676000E+00	  0.070501000	-7.553100E+01	  0.070501000	3.142700E+01	  0.070501000	-5.387400E+01
254	  0.070701398	-4.676000E+00	  0.070701398	-7.573500E+01	  0.070701398	3.130500E+01	  0.070701398	-5.371900E+01
255	  0.070901804	-4.676000E+00	  0.070901804	-7.596800E+01	  0.070901804	3.116800E+01	  0.070901804	-5.354000E+01
256	  0.071102202	-4.675000E+00	  0.071102202	-7.616300E+01	  0.071102202	3.105200E+01	  0.071102202	-5.339200E+01
257	  0.071302600	-4.679000E+00	  0.071302600	-7.639600E+01	  0.071302600	3.093500E+01	  0.071302600	-5.320200E+01
258	  0.071503006	-4.678000E+00	  0.071503006	-7.661900E+01	  0.071503006	3.080300E+01	  0.071503006	-5.303400E+01
259	  0.071703404	-4.681000E+00	  0.071703404	-7.684300E+01	  0.071703404	3.069100E+01	  0.071703404	-5.285200E+01
260	  0.071903802	-4.679000E+00	  0.071903802	-7.704300E+01	  0.071903802	3.056700E+01	  0.071903802	-5.270900E+01
261	  0.072104208	-4.683000E+00	  0.072104208	-7.727200E+01	  0.072104208	3.045800E+01	  0.072104208	-5.252100E+01
262	  0.072304606	-4.681000E+00	  0.072304606	-7.749200E+01	  0.072304606	3.032500E+01	  0.072304606	-5.236300E+01
263	  0.072505005	-4.682000E+00	  0.072505005	-7.773000E+01	  0.072505005	3.020300E+01	  0.072505005	-5.217700E+01
264	  0.072705410	-4.683000E+00	  0.072705410	-7.794400E+01	  0.072705410	3.008600E+01	  0.072705410	-5.201600E+01
265	  0.072905809	-4.685000E+00	  0.072905809	-7.815000E+01	  0.072905809	2.998700E+01	  0.072905809	-5.185100E+01
266	  0.073106214	-4.685000E+00	  0.073106214	-7.836400E+01	  0.073106214	2.986800E+01	  0.073106214	-5.169400E+01
267	  0.073306613	-4.687000E+00	  0.073306613	-7.858800E+01	  0.073306613	2.976100E+01	  0.073306613	-5.151800E+01
268	  0.073507011	-4.684000E+00	  0.073507011	-7.881500E+01	  0.073507011	2.962500E+01	  0.073507011	-5.136000E+01
269	  0.073707417	-4.687000E+00	  0.073707417	-7.902000E+01	  0.073707417	2.953300E+01	  0.073707417	-5.119600E+01
270	  0.073907815	-4.686000E+00	  0.073907815	-7.926300E+01	  0.073907815	2.940000E+01	  0.073907815	-5.101900E+01
271	  0.074108213	-4.688000E+00	  0.074108213	-7.946300E+01	  0.074108213	2.930200E+01	  0.074108213	-5.086700E+01
272	  0.074308619	-4.690000E+00	  0.074308619	-7.970600E+01	  0.074308619	2.918900E+01	  0.074308619	-5.067900E+01
273	  0.074509017	-4.687000E+00	  0.074509017	-7.993400E+01	  0.074509017	2.905600E+01	  0.074509017	-5.052200E+01
274	  0.074709415	-4.690000E+00	  0.074709415	-8.012600E+01	  0.074709415	2.897200E+01	  0.074709415	-5.037100E+01
275	  0.074909821	-4.689000E+00	  0.074909821	-8.034800E+01	  0.074909821	2.885200E+01	  0.074909821	-5.021400E+01
276	  0.075110219	-4.690000E+00	  0.075110219	-8.058600E+01	  0.075110219	2.874000E+01	  0.075110219	-5.003500E+01
277	  0.075310618	-4.691000E+00	  0.075310618	-8.080300E+01	  0.075310618	2.863700E+01	  0.075310618	-4.987300E+01
278	  0.075511023	-4.690000E+00	  0.075511023	-8.100700E+01	  0.075511023	2.853100E+01	  0.075511023	-4.972800E+01
279	  0.075711422	-4.694000E+00	  0.075711422	-8.124000E+01	  0.075711422	2.843500E+01	  0.075711422	-4.954600E+01
280	  0.075911827	-4.693000E+00	  0.075911827	-8.145000E+01	  0.075911827	2.832800E+01	  0.075911827	-4.939700E+01
281	  0.076112226	-4.693000E+00	  0.076112226	-8.167000E+01	  0.076112226	2.822000E+01	  0.076112226	-4.923900E+01
282	  0.076312624	-4.694000E+00	  0.076312624	-8.189300E+01	  0.076312624	2.811500E+01	  0.076312624	-4.907700E+01
283	  0.076513030	-4.694000E+00	  0.076513030	-8.210600E+01	  0.076513030	2.801500E+01	  0.076513030	-4.892200E+01
284	  0.076713428	-4.694000E+00	  0.076713428	-8.233000E+01	  0.076713428	2.790800E+01	  0.076713428	-4.876200E+01
285	  0.076913826	-4.697000E+00	  0.076913826	-8.255700E+01	  0.076913826	2.781200E+01	  0.076913826	-4.859200E+01
286	  0.077114232	-4.696000E+00	  0.077114232	-8.276800E+01	  0.077114232	2.770900E+01	  0.077114232	-4.844400E+01
287	  0.077314630	-4.697000E+00	  0.077314630	-8.298400E+01	  0.077314630	2.761300E+01	  0.077314630	-4.828700E+01
288	  0.077515028	-4.700000E+00	  0.077515028	-8.320800E+01	  0.077515028	2.752500E+01	  0.077515028	-4.811800E+01
289	  0.077715434	-4.700000E+00	  0.077715434	-8.341800E+01	  0.077715434	2.742500E+01	  0.077715434	-4.797200E+01
290	  0.077915832	-4.700000E+00	  0.077915832	-8.365000E+01	  0.077915832	2.732000E+01	  0.077915832	-4.780700E+01
291	  0.078116231	-4.703000E+00	  0.078116231	-8.385900E+01	  0.078116231	2.723900E+01	  0.078116231	-4.765100E+01
292	  0.078316636	-4.701000E+00	  0.078316636	-8.408700E+01	  0.078316636	2.712700E+01	  0.078316636	-4.749600E+01
293	  0.078517035	-4.704000E+00	  0.078517035	-8.429600E+01	  0.078517035	2.704700E+01	  0.078517035	-4.734100E+01
294	  0.078717433	-4.701000E+00	  0.078717433	-8.451500E+01	  0.078717433	2.693400E+01	  0.078717433	-4.719800E+01
295	  0.078917839	-4.702000E+00	  0.078917839	-8.473200E+01	  0.078917839	2.684300E+01	  0.078917839	-4.704400E+01
296	  0.079118237	-4.702000E+00	  0.079118237	-8.494400E+01	  0.079118237	2.675200E+01	  0.079118237	-4.689500E+01
297	  0.079318643	-4.703000E+00	  0.079318643	-8.518200E+01	  0.079318643	2.665200E+01	  0.079318643	-4.672700E+01
298	  0.079519041	-4.703000E+00	  0.079519041	-8.540700E+01	  0.079519041	2.655400E+01	  0.079519041	-4.657100E+01
299	  0.079719439	-4.703000E+00	  0.079719439	-8.561900E+01	  0.079719439	2.646400E+01	  0.079719439	-4.642500E+01
300	  0.079919845	-4.707000E+00	  0.079919845	-8.584500E+01	  0.079919845	2.638400E+01	  0.079919845	-4.625800E+01
301	  0.080120243	-4.706000E+00	  0.080120243	-8.605000E+01	  0.080120243	2.629200E+01	  0.080120243	-4.612000E+01
302	  0.080320641	-4.705000E+00	  0.080320641	-8.628100E+01	  0.080320641	2.619100E+01	  0.080320641	-4.596300E+01
303	  0.080521047	-4.707000E+00	  0.080521047	-8.649300E+01	  0.080521047	2.611100E+01	  0.080521047	-4.581400E+01
304	  0.080721445	-4.708000E+00	  0.080721445	-8.671000E+01	  0.080721445	2.602400E+01	  0.080721445	-4.566300E+01
305	  0.080921844	-4.705000E+00	  0.080921844	-8.691900E+01	  0.080921844	2.592700E+01	  0.080921844	-4.552700E+01
306	  0.081122249	-4.707000E+00	  0.081122249	-8.716100E+01	  0.081122249	2.583600E+01	  0.081122249	-4.535800E+01
307	  0.081322648	-4.707000E+00	  0.081322648	-8.737400E+01	  0.081322648	2.574700E+01	  0.081322648	-4.521400E+01
308	  0.081523046	-4.710000E+00	  0.081523046	-8.759300E+01	  0.081523046	2.567400E+01	  0.081523046	-4.505700E+01
309	  0.081723452	-4.711000E+00	  0.081723452	-8.782600E+01	  0.081723452	2.558500E+01	  0.081723452	-4.489700E+01
310	  0.081923850	-4.712000E+00	  0.081923850	-8.802400E+01	  0.081923850	2.550900E+01	  0.081923850	-4.476100E+01
311	  0.082124248	-4.712000E+00	  0.082124248	-8.823500E+01	  0.082124248	2.542700E+01	  0.082124248	-4.461900E+01
312	  0.082324654	-4.712000E+00	  0.082324654	-8.846400E+01	  0.082324654	2.533400E+01	  0.082324654	-4.446800E+01
313	  0.082525052	-4.712000E+00	  0.082525052	-8.869700E+01	  0.082525052	2.524300E+01	  0.082525052	-4.431100E+01
314	  0.082725458	-4.713000E+00	  0.082725458	-8.891200E+01	  0.082725458	2.516500E+01	  0.082725458	-4.416500E+01
315	  0.082925856	-4.713000E+00	  0.082925856	-8.911800E+01	  0.082925856	2.508700E+01	  0.082925856	-4.402600E+01
316	  0.083126254	-4.717000E+00	  0.083126254	-8.933800E+01	  0.083126254	2.501700E+01	  0.083126254	-4.387200E+01
317	  0.083326660	-4.717000E+00	  0.083326660	-8.955800E+01	  0.083326660	2.493300E+01	  0.083326660	-4.372600E+01
318	  0.083527058	-4.717000E+00	  0.083527058	-8.977400E+01	  0.083527058	2.485100E+01	  0.083527058	-4.358300E+01
319	  0.083727457	-4.714000E+00	  0.083727457	-8.999600E+01	  0.083727457	2.475300E+01	  0.083727457	-4.344500E+01
320	  0.083927862	-4.719000E+00	  0.083927862	-9.020900E+01	  0.083927862	2.469900E+01	  0.083927862	-4.329100E+01
321	  0.084128261	-4.719000E+00	  0.084128261	-9.043900E+01	  0.084128261	2.461000E+01	  0.084128261	-4.314200E+01
322	  0.084328659	-4.719000E+00	  0.084328659	-9.065700E+01	  0.084328659	2.453200E+01	  0.084328659	-4.299700E+01
323	  0.084529065	-4.719000E+00	  0.084529065	-9.087800E+01	  0.084529065	2.444800E+01	  0.084529065	-4.285500E+01
324	  0.084729463	-4.722000E+00	  0.084729463	-9.108800E+01	  0.084729463	2.438600E+01	  0.084729463	-4.270900E+01
325	  0.084929861	-4.722000E+00	  0.084929861	-9.130600E+01	  0.084929861	2.430700E+01	  0.084929861	-4.256800E+01
326	  0.085130267	-4.723000E+00	  0.085130267	-9.154200E+01	  0.085130267	2.422700E+01	  0.085130267	-4.241200E+01
327	  0.085330658	-4.724000E+00	  0.085330658	-9.176100E+01	  0.085330658	2.415100E+01	  0.085330658	-4.226900E+01
328	  0.085531056	-4.727000E+00	  0.085531056	-9.197600E+01	  0.085531056	2.408700E+01	  0.085531056	-4.212300E+01
329	  0.085731462	-4.726000E+00	  0.085731462	-9.220000E+01	  0.085731462	2.400500E+01	  0.085731462	-4.198100E+01
330	  0.085931860	-4.727000E+00	  0.085931860	-9.240800E+01	  0.085931860	2.393700E+01	  0.085931860	-4.184500E+01
331	  0.086132258	-4.728000E+00	  0.086132258	-9.262500E+01	  0.086132258	2.386600E+01	  0.086132258	-4.170300E+01
332	  0.086332664	-4.726000E+00	  0.086332664	-9.286100E+01	  0.086332664	2.377500E+01	  0.086332664	-4.155700E+01
333	  0.086533062	-4.731000E+00	  0.086533062	-9.305700E+01	  0.086533062	2.372800E+01	  0.086533062	-4.142000E+01
334	  0.086733460	-4.730000E+00	  0.086733460	-9.329200E+01	  0.086733460	2.364400E+01	  0.086733460	-4.127300E+01
335	  0.086933866	-4.729000E+00	  0.086933866	-9.351200E+01	  0.086933866	2.356600E+01	  0.086933866	-4.113500E+01
336	  0.087134264	-4.731000E+00	  0.087134264	-9.373300E+01	  0.087134264	2.350100E+01	  0.087134264	-4.098900E+01
337	  0.087334670	-4.733000E+00	  0.087334670	-9.392700E+01	  0.087334670	2.344400E+01	  0.087334670	-4.086200E+01
338	  0.087535068	-4.732000E+00	  0.087535068	-9.415900E+01	  0.087535068	2.336300E+01	  0.087535068	-4.071900E+01
339	  0.087735467	-4.736000E+00	  0.087735467	-9.439300E+01	  0.087735467	2.329900E+01	  0.087735467	-4.056400E+01
340	  0.087935872	-4.735000E+00	  0.087935872	-9.461500E+01	  0.087935872	2.322100E+01	  0.087935872	-4.042700E+01
341	  0.088136271	-4.738000E+00	  0.088136271	-9.484000E+01	  0.088136271	2.316200E+01	  0.088136271	-4.027900E+01
342	  0.088336669	-4.738000E+00	  0.088336669	-9.504200E+01	  0.088336669	2.309600E+01	  0.088336669	-4.015200E+01
343	  0.088537075	-4.739000E+00	  0.088537075	-9.526900E+01	  0.088537075	2.302900E+01	  0.088537075	-4.000800E+01
344	  0.088737473	-4.740000E+00	  0.088737473	-9.548000E+01	  0.088737473	2.296300E+01	  0.088737473	-3.987500E+01
345	  0.088937871	-4.740000E+00	  0.088937871	-9.571600E+01	  0.088937871	2.288700E+01	  0.088937871	-3.972900E+01
346	  0.089138277	-4.741000E+00	  0.089138277	-9.593700E+01	  0.089138277	2.282400E+01	  0.089138277	-3.958800E+01
347	  0.089338675	-4.744000E+00	  0.089338675	-9.616100E+01	  0.089338675	2.276400E+01	  0.089338675	-3.944500E+01
348	  0.089539073	-4.744000E+00	  0.089539073	-9.636300E+01	  0.089539073	2.270300E+01	  0.089539073	-3.931900E+01
349	  0.089739479	-4.748000E+00	  0.089739479	-9.659500E+01	  0.089739479	2.264500E+01	  0.089739479	-3.916900E+01
350	  0.089939877	-4.748000E+00	  0.089939877	-9.681000E+01	  0.089939877	2.258000E+01	  0.089939877	-3.903600E+01
351	  0.090140276	-4.751000E+00	  0.090140276	-9.704900E+01	  0.090140276	2.251800E+01	  0.090140276	-3.888500E+01
352	  0.090340681	-4.751000E+00	  0.090340681	-9.724100E+01	  0.090340681	2.245800E+01	  0.090340681	-3.876800E+01
353	  0.090541080	-4.752000E+00	  0.090541080	-9.747000E+01	  0.090541080	2.239600E+01	  0.090541080	-3.862500E+01
354	  0.090741485	-4.751000E+00	  0.090741485	-9.769800E+01	  0.090741485	2.232100E+01	  0.090741485	-3.848900E+01
355	  0.090941884	-4.755000E+00	  0.090941884	-9.791600E+01	  0.090941884	2.227400E+01	  0.090941884	-3.834800E+01
356	  0.091142282	-4.755000E+00	  0.091142282	-9.813600E+01	  0.091142282	2.220600E+01	  0.091142282	-3.821600E+01
357	  0.091342688	-4.758000E+00	  0.091342688	-9.836200E+01	  0.091342688	2.215300E+01	  0.091342688	-3.807300E+01
358	  0.091543086	-4.755000E+00	  0.091543086	-9.857800E+01	  0.091543086	2.207700E+01	  0.091543086	-3.794900E+01
359	  0.091743484	-4.758000E+00	  0.091743484	-9.879100E+01	  0.091743484	2.202900E+01	  0.091743484	-3.781300E+01
360	  0.091943890	-4.761000E+00	  0.091943890	-9.901300E+01	  0.091943890	2.197600E+01	  0.091943890	-3.767400E+01
361	  0.092144288	-4.759000E+00	  0.092144288	-9.925900E+01	  0.092144288	2.189500E+01	  0.092144288	-3.753200E+01
362	  0.092344686	-4.762000E+00	  0.092344686	-9.947700E+01	  0.092344686	2.184400E+01	  0.092344686	-3.739600E+01
363	  0.092545092	-4.762000E+00	  0.092545092	-9.970200E+01	  0.092545092	2.178300E+01	  0.092545092	-3.726100E+01
364	  0.092745490	-4.764000E+00	  0.092745490	-9.991200E+01	  0.092745490	2.173000E+01	  0.092745490	-3.713200E+01
365	  0.092945889	-4.762000E+00	  0.092945889	-1.001480E+02	  0.092945889	2.165600E+01	  0.092945889	-3.699600E+01
366	  0.093146294	-4.767000E+00	  0.093146294	-1.003510E+02	  0.093146294	2.161900E+01	  0.093146294	-3.686700E+01
367	  0.093346693	-4.764000E+00	  0.093346693	-1.005630E+02	  0.093346693	2.154900E+01	  0.093346693	-3.674600E+01
368	  0.093547091	-4.769000E+00	  0.093547091	-1.007860E+02	  0.093547091	2.150800E+01	  0.093547091	-3.660500E+01
369	  0.093747497	-4.768000E+00	  0.093747497	-1.010210E+02	  0.093747497	2.143800E+01	  0.093747497	-3.646900E+01
370	  0.093947895	-4.768000E+00	  0.093947895	-1.012400E+02	  0.093947895	2.137700E+01	  0.093947895	-3.634200E+01
371	  0.094148301	-4.768000E+00	  0.094148301	-1.014590E+02	  0.094148301	2.132000E+01	  0.094148301	-3.621200E+01
372	  0.094348699	-4.770000E+00	  0.094348699	-1.016820E+02	  0.094348699	2.126700E+01	  0.094348699	-3.607800E+01
373	  0.094549097	-4.769000E+00	  0.094549097	-1.019130E+02	  0.094549097	2.120300E+01	  0.094549097	-3.594500E+01
374	  0.094749503	-4.770000E+00	  0.094749503	-1.021320E+02	  0.094749503	2.114600E+01	  0.094749503	-3.581600E+01
375	  0.094949901	-4.769000E+00	  0.094949901	-1.023590E+02	  0.094949901	2.108200E+01	  0.094949901	-3.568600E+01
376	  0.095150299	-4.771000E+00	  0.095150299	-1.025800E+02	  0.095150299	2.103200E+01	  0.095150299	-3.555400E+01
377	  0.095350705	-4.773000E+00	  0.095350705	-1.027960E+02	  0.095350705	2.098400E+01	  0.095350705	-3.542600E+01
378	  0.095551103	-4.775000E+00	  0.095551103	-1.030130E+02	  0.095551103	2.093500E+01	  0.095551103	-3.529700E+01
379	  0.095751502	-4.774000E+00	  0.095751502	-1.032250E+02	  0.095751502	2.087700E+01	  0.095751502	-3.517700E+01
380	  0.095951907	-4.777000E+00	  0.095951907	-1.034670E+02	  0.095951907	2.082600E+01	  0.095951907	-3.503200E+01
381	  0.096152306	-4.777000E+00	  0.096152306	-1.036970E+02	  0.096152306	2.076800E+01	  0.096152306	-3.490000E+01
382	  0.096352704	-4.777000E+00	  0.096352704	-1.039190E+02	  0.096352704	2.071400E+01	  0.096352704	-3.477200E+01
383	  0.096553110	-4.775000E+00	  0.096553110	-1.041360E+02	  0.096553110	2.065200E+01	  0.096553110	-3.465100E+01
384	  0.096753508	-4.778000E+00	  0.096753508	-1.043570E+02	  0.096753508	2.060700E+01	  0.096753508	-3.452100E+01
385	  0.096953906	-4.778000E+00	  0.096953906	-1.045730E+02	  0.096953906	2.055400E+01	  0.096953906	-3.439700E+01
386	  0.097154312	-4.780000E+00	  0.097154312	-1.047910E+02	  0.097154312	2.050600E+01	  0.097154312	-3.427100E+01
387	  0.097354710	-4.779000E+00	  0.097354710	-1.050160E+02	  0.097354710	2.044900E+01	  0.097354710	-3.414400E+01
388	  0.097555116	-4.781000E+00	  0.097555116	-1.052410E+02	  0.097555116	2.040300E+01	  0.097555116	-3.401300E+01
389	  0.097755514	-4.782000E+00	  0.097755514	-1.054770E+02	  0.097755514	2.034700E+01	  0.097755514	-3.387900E+01
390	  0.097955912	-4.783000E+00	  0.097955912	-1.056930E+02	  0.097955912	2.029900E+01	  0.097955912	-3.375600E+01
391	  0.098156318	-4.784000E+00	  0.098156318	-1.059190E+02	  0.098156318	2.024900E+01	  0.098156318	-3.362700E+01
392	  0.098356716	-4.784000E+00	  0.098356716	-1.061320E+02	  0.098356716	2.020000E+01	  0.098356716	-3.350700E+01
393	  0.098557115	-4.783000E+00	  0.098557115	-1.063500E+02	  0.098557115	2.014500E+01	  0.098557115	-3.338700E+01
394	  0.098757520	-4.786000E+00	  0.098757520	-1.065750E+02	  0.098757520	2.010200E+01	  0.098757520	-3.325600E+01
395	  0.098957919	-4.783000E+00	  0.098957919	-1.068000E+02	  0.098957919	2.004100E+01	  0.098957919	-3.313400E+01
396	  0.099158317	-4.786000E+00	  0.099158317	-1.070250E+02	  0.099158317	1.999900E+01	  0.099158317	-3.300500E+01
397	  0.099358723	-4.785000E+00	  0.099358723	-1.072400E+02	  0.099358723	1.994700E+01	  0.099358723	-3.288600E+01
398	  0.099559121	-4.788000E+00	  0.099559121	-1.074560E+02	  0.099559121	1.990600E+01	  0.099559121	-3.276300E+01
399	  0.099759519	-4.788000E+00	  0.099759519	-1.077000E+02	  0.099759519	1.985100E+01	  0.099759519	-3.262800E+01
400	  0.099959925	-4.780000E+00	  0.099959925	-1.078790E+02	  0.099959925	1.978300E+01	  0.099959925	-3.254000E+01
401	  0.100160323	-4.780000E+00	  0.100160323	-1.081140E+02	  0.100160323	1.973100E+01	  0.100160323	-3.241000E+01
402	  0.100360721	-4.782000E+00	  0.100360721	-1.083180E+02	  0.100360721	1.969000E+01	  0.100360721	-3.229600E+01
403	  0.100561127	-4.778000E+00	  0.100561127	-1.085460E+02	  0.100561127	1.962700E+01	  0.100561127	-3.217600E+01
404	  0.100761525	-4.785000E+00	  0.100761525	-1.087770E+02	  0.100761525	1.960000E+01	  0.100761525	-3.203900E+01
405	  0.100961931	-4.787000E+00	  0.100961931	-1.090210E+02	  0.100961931	1.955500E+01	  0.100961931	-3.190200E+01
406	  0.101162329	-4.784000E+00	  0.101162329	-1.092080E+02	  0.101162329	1.950500E+01	  0.101162329	-3.180300E+01
407	  0.101362728	-4.784000E+00	  0.101362728	-1.094270E+02	  0.101362728	1.945800E+01	  0.101362728	-3.168300E+01
408	  0.101563133	-4.784000E+00	  0.101563133	-1.096670E+02	  0.101563133	1.940700E+01	  0.101563133	-3.155300E+01
409	  0.101763532	-4.788000E+00	  0.101763532	-1.098760E+02	  0.101763532	1.937600E+01	  0.101763532	-3.143400E+01
410	  0.101963930	-4.787000E+00	  0.101963930	-1.101250E+02	  0.101963930	1.932000E+01	  0.101963930	-3.130000E+01
411	  0.102164336	-4.791000E+00	  0.102164336	-1.103160E+02	  0.102164336	1.929100E+01	  0.102164336	-3.119200E+01
412	  0.102364734	-4.791000E+00	  0.102364734	-1.105440E+02	  0.102364734	1.924300E+01	  0.102364734	-3.106900E+01
413	  0.102565132	-4.789000E+00	  0.102565132	-1.107900E+02	  0.102565132	1.918800E+01	  0.102565132	-3.093800E+01
414	  0.102765530	-4.790000E+00	  0.102765530	-1.110090E+02	  0.102765530	1.914500E+01	  0.102765530	-3.081900E+01
415	  0.102965929	-4.788000E+00	  0.102965929	-1.112150E+02	  0.102965929	1.909600E+01	  0.102965929	-3.071000E+01
416	  0.103166327	-4.794000E+00	  0.103166327	-1.114480E+02	  0.103166327	1.907100E+01	  0.103166327	-3.057700E+01
417	  0.103366733	-4.797000E+00	  0.103366733	-1.116570E+02	  0.103366733	1.903800E+01	  0.103366733	-3.046100E+01
418	  0.103567131	-4.793000E+00	  0.103567131	-1.118870E+02	  0.103567131	1.897600E+01	  0.103567131	-3.034400E+01
419	  0.103767529	-4.793000E+00	  0.103767529	-1.121070E+02	  0.103767529	1.893200E+01	  0.103767529	-3.022700E+01
420	  0.103967935	-4.797000E+00	  0.103967935	-1.123170E+02	  0.103967935	1.890600E+01	  0.103967935	-3.010900E+01
421	  0.104168333	-4.797000E+00	  0.104168333	-1.125440E+02	  0.104168333	1.886000E+01	  0.104168333	-2.998900E+01
422	  0.104368731	-4.799000E+00	  0.104368731	-1.127570E+02	  0.104368731	1.882400E+01	  0.104368731	-2.987300E+01
423	  0.104569137	-4.799000E+00	  0.104569137	-1.130000E+02	  0.104569137	1.877700E+01	  0.104569137	-2.974500E+01
424	  0.104769535	-4.796000E+00	  0.104769535	-1.132080E+02	  0.104769535	1.872800E+01	  0.104769535	-2.963800E+01
425	  0.104969934	-4.799000E+00	  0.104969934	-1.134390E+02	  0.104969934	1.869200E+01	  0.104969934	-2.951300E+01
426	  0.105170339	-4.802000E+00	  0.105170339	-1.136660E+02	  0.105170339	1.866000E+01	  0.105170339	-2.938900E+01
427	  0.105370738	-4.805000E+00	  0.105370738	-1.138940E+02	  0.105370738	1.862500E+01	  0.105370738	-2.926600E+01
428	  0.105571143	-4.800000E+00	  0.105571143	-1.141100E+02	  0.105571143	1.856800E+01	  0.105571143	-2.915800E+01
429	  0.105771542	-4.804000E+00	  0.105771542	-1.143490E+02	  0.105771542	1.853500E+01	  0.105771542	-2.902900E+01
430	  0.105971940	-4.805000E+00	  0.105971940	-1.145660E+02	  0.105971940	1.849800E+01	  0.105971940	-2.891400E+01
431	  0.106172346	-4.807000E+00	  0.106172346	-1.147720E+02	  0.106172346	1.846800E+01	  0.106172346	-2.880300E+01
432	  0.106372744	-4.808000E+00	  0.106372744	-1.150110E+02	  0.106372744	1.842800E+01	  0.106372744	-2.867800E+01
433	  0.106573142	-4.806000E+00	  0.106573142	-1.152220E+02	  0.106573142	1.838100E+01	  0.106573142	-2.857100E+01
434	  0.106773548	-4.805000E+00	  0.106773548	-1.154530E+02	  0.106773548	1.833600E+01	  0.106773548	-2.845200E+01
435	  0.106973946	-4.808000E+00	  0.106973946	-1.156690E+02	  0.106973946	1.830900E+01	  0.106973946	-2.833500E+01
436	  0.107174344	-4.809000E+00	  0.107174344	-1.158820E+02	  0.107174344	1.827100E+01	  0.107174344	-2.822500E+01
437	  0.107374750	-4.811000E+00	  0.107374750	-1.161410E+02	  0.107374750	1.823100E+01	  0.107374750	-2.808900E+01
438	  0.107575148	-4.810000E+00	  0.107575148	-1.163420E+02	  0.107575148	1.819400E+01	  0.107575148	-2.798500E+01
439	  0.107775547	-4.811000E+00	  0.107775547	-1.165630E+02	  0.107775547	1.815900E+01	  0.107775547	-2.787000E+01
440	  0.107975952	-4.811000E+00	  0.107975952	-1.168000E+02	  0.107975952	1.811700E+01	  0.107975952	-2.774900E+01
441	  0.108176351	-4.812000E+00	  0.108176351	-1.170290E+02	  0.108176351	1.807800E+01	  0.108176351	-2.763100E+01
442	  0.108376749	-4.815000E+00	  0.108376749	-1.172450E+02	  0.108376749	1.805100E+01	  0.108376749	-2.751700E+01
443	  0.108577155	-4.816000E+00	  0.108577155	-1.174470E+02	  0.108577155	1.801900E+01	  0.108577155	-2.741200E+01
444	  0.108777553	-4.814000E+00	  0.108777553	-1.176950E+02	  0.108777553	1.797100E+01	  0.108777553	-2.728800E+01
445	  0.108977959	-4.815000E+00	  0.108977959	-1.179050E+02	  0.108977959	1.793700E+01	  0.108977959	-2.718000E+01
446	  0.109178357	-4.817000E+00	  0.109178357	-1.181320E+02	  0.109178357	1.790500E+01	  0.109178357	-2.706200E+01
447	  0.109378755	-4.816000E+00	  0.109378755	-1.183660E+02	  0.109378755	1.786400E+01	  0.109378755	-2.694400E+01
448	  0.109579161	-4.817000E+00	  0.109579161	-1.185900E+02	  0.109579161	1.782900E+01	  0.109579161	-2.682900E+01
449	  0.109779559	-4.817000E+00	  0.109779559	-1.188080E+02	  0.109779559	1.779300E+01	  0.109779559	-2.671900E+01
450	  0.109979957	-4.817000E+00	  0.109979957	-1.190180E+02	  0.109979957	1.775900E+01	  0.109979957	-2.661300E+01
451	  0.110180363	-4.817000E+00	  0.110180363	-1.192740E+02	  0.110180363	1.771600E+01	  0.110180363	-2.648400E+01
452	  0.110380761	-4.817000E+00	  0.110380761	-1.194990E+02	  0.110380761	1.767800E+01	  0.110380761	-2.637100E+01
453	  0.110581160	-4.820000E+00	  0.110581160	-1.197150E+02	  0.110581160	1.765600E+01	  0.110581160	-2.625800E+01
454	  0.110781565	-4.820000E+00	  0.110781565	-1.199210E+02	  0.110781565	1.762000E+01	  0.110781565	-2.615600E+01
455	  0.110981964	-4.822000E+00	  0.110981964	-1.201390E+02	  0.110981964	1.759300E+01	  0.110981964	-2.604400E+01
456	  0.111182362	-4.823000E+00	  0.111182362	-1.203890E+02	  0.111182362	1.755700E+01	  0.111182362	-2.591800E+01
457	  0.111382768	-4.821000E+00	  0.111382768	-1.206020E+02	  0.111382768	1.751500E+01	  0.111382768	-2.581400E+01
458	  0.111583166	-4.823000E+00	  0.111583166	-1.208580E+02	  0.111583166	1.748200E+01	  0.111583166	-2.568400E+01
459	  0.111783572	-4.823000E+00	  0.111783572	-1.210680E+02	  0.111783572	1.744800E+01	  0.111783572	-2.558000E+01
460	  0.111983970	-4.825000E+00	  0.111983970	-1.212820E+02	  0.111983970	1.742400E+01	  0.111983970	-2.547000E+01
461	  0.112184368	-4.825000E+00	  0.112184368	-1.215090E+02	  0.112184368	1.738800E+01	  0.112184368	-2.535800E+01
462	  0.112384774	-4.825000E+00	  0.112384774	-1.217180E+02	  0.112384774	1.735500E+01	  0.112384774	-2.525500E+01
463	  0.112585172	-4.829000E+00	  0.112585172	-1.219380E+02	  0.112585172	1.733600E+01	  0.112585172	-2.514200E+01
464	  0.112785570	-4.829000E+00	  0.112785570	-1.221780E+02	  0.112785570	1.729800E+01	  0.112785570	-2.502400E+01
465	  0.112985976	-4.826000E+00	  0.112985976	-1.224010E+02	  0.112985976	1.725500E+01	  0.112985976	-2.491600E+01
466	  0.113186374	-4.828000E+00	  0.113186374	-1.226260E+02	  0.113186374	1.722700E+01	  0.113186374	-2.480400E+01
467	  0.113386773	-4.828000E+00	  0.113386773	-1.228580E+02	  0.113386773	1.719500E+01	  0.113386773	-2.469000E+01
468	  0.113587178	-4.827000E+00	  0.113587178	-1.230600E+02	  0.113587178	1.716200E+01	  0.113587178	-2.459100E+01
469	  0.113787577	-4.830000E+00	  0.113787577	-1.233110E+02	  0.113787577	1.713400E+01	  0.113787577	-2.446600E+01
470	  0.113987975	-4.830000E+00	  0.113987975	-1.235200E+02	  0.113987975	1.710200E+01	  0.113987975	-2.436400E+01
471	  0.114188381	-4.831000E+00	  0.114188381	-1.237550E+02	  0.114188381	1.707300E+01	  0.114188381	-2.424700E+01
472	  0.114388779	-4.832000E+00	  0.114388779	-1.239670E+02	  0.114388779	1.704300E+01	  0.114388779	-2.414400E+01
473	  0.114589177	-4.832000E+00	  0.114589177	-1.241890E+02	  0.114589177	1.701200E+01	  0.114589177	-2.403500E+01
474	  0.114789583	-4.836000E+00	  0.114789583	-1.244400E+02	  0.114789583	1.699100E+01	  0.114789583	-2.390900E+01
475	  0.114989981	-4.836000E+00	  0.114989981	-1.246630E+02	  0.114989981	1.695900E+01	  0.114989981	-2.380100E+01
476	  0.115190387	-4.836000E+00	  0.115190387	-1.248780E+02	  0.115190387	1.692900E+01	  0.115190387	-2.369700E+01
477	  0.115390785	-4.834000E+00	  0.115390785	-1.250880E+02	  0.115390785	1.689200E+01	  0.115390785	-2.359800E+01
478	  0.115591183	-4.837000E+00	  0.115591183	-1.253190E+02	  0.115591183	1.686900E+01	  0.115591183	-2.348300E+01
479	  0.115791589	-4.839000E+00	  0.115791589	-1.255530E+02	  0.115791589	1.684400E+01	  0.115791589	-2.336800E+01
480	  0.115991987	-4.838000E+00	  0.115991987	-1.257620E+02	  0.115991987	1.681400E+01	  0.115991987	-2.326800E+01
481	  0.116192386	-4.842000E+00	  0.116192386	-1.259760E+02	  0.116192386	1.679600E+01	  0.116192386	-2.316200E+01
482	  0.116392791	-4.840000E+00	  0.116392791	-1.262020E+02	  0.116392791	1.675800E+01	  0.116392791	-2.305500E+01
483	  0.116593190	-4.842000E+00	  0.116593190	-1.264180E+02	  0.116593190	1.673700E+01	  0.116593190	-2.295000E+01
484	  0.116793588	-4.842000E+00	  0.116793588	-1.266210E+02	  0.116793588	1.671000E+01	  0.116793588	-2.285200E+01
485	  0.116993994	-4.841000E+00	  0.116993994	-1.268600E+02	  0.116993994	1.667400E+01	  0.116993994	-2.273900E+01
486	  0.117194392	-4.843000E+00	  0.117194392	-1.270790E+02	  0.117194392	1.665100E+01	  0.117194392	-2.263300E+01
487	  0.117394790	-4.839000E+00	  0.117394790	-1.273050E+02	  0.117394790	1.661100E+01	  0.117394790	-2.252800E+01
488	  0.117595196	-4.844000E+00	  0.117595196	-1.275230E+02	  0.117595196	1.659800E+01	  0.117595196	-2.242000E+01
489	  0.117795594	-4.845000E+00	  0.117795594	-1.277620E+02	  0.117795594	1.656800E+01	  0.117795594	-2.230600E+01
490	  0.117995992	-4.847000E+00	  0.117995992	-1.279900E+02	  0.117995992	1.654600E+01	  0.117995992	-2.219500E+01
491	  0.118196398	-4.847000E+00	  0.118196398	-1.282150E+02	  0.118196398	1.651600E+01	  0.118196398	-2.208900E+01
492	  0.118396796	-4.844000E+00	  0.118396796	-1.284240E+02	  0.118396796	1.648100E+01	  0.118396796	-2.199200E+01
493	  0.118597202	-4.846000E+00	  0.118597202	-1.286510E+02	  0.118597202	1.645900E+01	  0.118597202	-2.188300E+01
494	  0.118797600	-4.848000E+00	  0.118797600	-1.288750E+02	  0.118797600	1.643700E+01	  0.118797600	-2.177600E+01
495	  0.118997999	-4.848000E+00	  0.118997999	-1.291030E+02	  0.118997999	1.641000E+01	  0.118997999	-2.166800E+01
496	  0.119198404	-4.848000E+00	  0.119198404	-1.293230E+02	  0.119198404	1.638100E+01	  0.119198404	-2.156500E+01
497	  0.119398803	-4.851000E+00	  0.119398803	-1.295350E+02	  0.119398803	1.636500E+01	  0.119398803	-2.146200E+01
498	  0.119599201	-4.849000E+00	  0.119599201	-1.297710E+02	  0.119599201	1.633000E+01	  0.119599201	-2.135300E+01
499	  0.119799607	-4.850000E+00	  0.119799607	-1.299770E+02	  0.119799607	1.630700E+01	  0.119799607	-2.125600E+01
500	  0.120000005	-4.851000E+00	  0.120000005	-1.302200E+02	  0.120000005	1.628000E+01	  0.120000005	-2.114200E+01
