! Anritsu VNA Master:             	Model: MS2036C/10/77
! SN:             	1601066
! /bd0/18may08.cable.cal/unused.19p46.1.txt
! Existing Calibration Information:
! TYPE:             	Current Settings	Active Cal Settings
! TIME:             	05/08/2018 04:27:44 PM	05/08/2018 04:21:58 PM
! INTERNAL TEMP:    	50.0 C	50.0 C
! # POINTS:         	500	500
! START FREQ:       	20.000 MHz	20.000 MHz
! STOP FREQ:        	120.000 MHz	120.000 MHz
! SOURCE POWER:     	High	High
! IFBW:             	50 Hz	50 Hz
! AVG FACTOR:       	  1 	  1 
! REF PLANE 1:      	0 mm	0 mm
! REF PLANE 2:      	0 mm	0 mm
! CAL TYPE:         	Full S11	Full S11
! CAL METHOD:       	SOLT	SOLT
! CAL LINE TYPE:    	Coax	Coax
! DUT PORT 1:       	K-Conn(F)	K-Conn(F)
! DUT PORT 2:       	K-Conn(F)	K-Conn(F)
! CAL STATUS:       	OK: Accuracy High	--
! PROP-V:       	0.700
! CABLE LOSS:       	0.000 dB/m
! REF IMPEDANCE:       	50.0
! Trace Specific Parameters:	TR1	TR2	TR3	TR4
! TRACE.#.Y (GRAPH TYPE)	LOG MAG	PHASE	REAL IMPEDANCE	IMAGINARY IMPEDANCE
! TRACE.#.X 	FREQ.GHZ	FREQ.GHZ	FREQ.GHZ	FREQ.GHZ
! S-PARAMETER	S11	S11	S11	S11
! SMOOTH/APERTURE %	0	0	0	0
! WINDOW	NSL	NSL	NSL	NSL
! GATING	OFF	OFF	OFF	OFF
! FGTD	OFF	OFF	OFF	OFF
Marker Information per Trace:	TR1	TR2	TR3	TR4
!MK1	--	"MK1 TR2:  20.000 MHz,PH:156.08°"	--	--
!MK2	--	--	"MK2 TR3:  70.100 200 MHz,Z:(30.437 ohm, 32.947 ohm)"	--
!MK3	--	--	--	--
!MK4	--	--	--	--
!MK5	--	--	--	--
!MK6	--	--	--	--
!MK7	--	--	--	--
!MK8	--	--	--	--
PNT	TR1.FREQ.GHZ	TR1.LOG MAG.dB	TR2.FREQ.GHZ	TR2.PHASE.deg	TR3.FREQ.GHZ	TR3.REAL IMPEDANCE.ohm	TR4.FREQ.GHZ	TR4.IMAGINARY IMPEDANCE.ohm
1	  0.020000000	-7.225000E+00	  0.020000000	1.560830E+02	  0.020000000	2.041600E+01	  0.020000000	8.888000E+00
2	  0.020200402	-7.227000E+00	  0.020200402	1.558520E+02	  0.020200402	2.043600E+01	  0.020200402	8.974000E+00
3	  0.020400802	-7.226000E+00	  0.020400802	1.556340E+02	  0.020400802	2.044700E+01	  0.020400802	9.057000E+00
4	  0.020601204	-7.228000E+00	  0.020601204	1.553940E+02	  0.020601204	2.046700E+01	  0.020601204	9.147000E+00
5	  0.020801604	-7.229000E+00	  0.020801604	1.551640E+02	  0.020801604	2.048500E+01	  0.020801604	9.233000E+00
6	  0.021002004	-7.230000E+00	  0.021002004	1.549260E+02	  0.021002004	2.050200E+01	  0.021002004	9.323000E+00
7	  0.021202406	-7.231000E+00	  0.021202406	1.547040E+02	  0.021202406	2.051900E+01	  0.021202406	9.406000E+00
8	  0.021402806	-7.232000E+00	  0.021402806	1.544580E+02	  0.021402806	2.054000E+01	  0.021402806	9.499000E+00
9	  0.021603208	-7.231000E+00	  0.021603208	1.542210E+02	  0.021603208	2.055400E+01	  0.021603208	9.589000E+00
10	  0.021803608	-7.231000E+00	  0.021803608	1.539870E+02	  0.021803608	2.057000E+01	  0.021803608	9.677000E+00
11	  0.022004008	-7.232000E+00	  0.022004008	1.537500E+02	  0.022004008	2.058800E+01	  0.022004008	9.767000E+00
12	  0.022204408	-7.233000E+00	  0.022204408	1.535200E+02	  0.022204408	2.060700E+01	  0.022204408	9.854000E+00
13	  0.022404809	-7.234000E+00	  0.022404809	1.532840E+02	  0.022404809	2.062600E+01	  0.022404809	9.943000E+00
14	  0.022605211	-7.234000E+00	  0.022605211	1.530410E+02	  0.022605211	2.064400E+01	  0.022605211	1.003500E+01
15	  0.022805611	-7.235000E+00	  0.022805611	1.528240E+02	  0.022805611	2.066100E+01	  0.022805611	1.011700E+01
16	  0.023006011	-7.235000E+00	  0.023006011	1.525790E+02	  0.023006011	2.068000E+01	  0.023006011	1.021000E+01
17	  0.023206413	-7.234000E+00	  0.023206413	1.523430E+02	  0.023206413	2.069600E+01	  0.023206413	1.030000E+01
18	  0.023406813	-7.237000E+00	  0.023406813	1.521230E+02	  0.023406813	2.071900E+01	  0.023406813	1.038200E+01
19	  0.023607215	-7.239000E+00	  0.023607215	1.518870E+02	  0.023607215	2.074200E+01	  0.023607215	1.047100E+01
20	  0.023807615	-7.237000E+00	  0.023807615	1.516520E+02	  0.023807615	2.075500E+01	  0.023807615	1.056100E+01
21	  0.024008015	-7.239000E+00	  0.024008015	1.514200E+02	  0.024008015	2.077700E+01	  0.024008015	1.064900E+01
22	  0.024208417	-7.240000E+00	  0.024208417	1.511650E+02	  0.024208417	2.080000E+01	  0.024208417	1.074500E+01
23	  0.024408817	-7.240000E+00	  0.024408817	1.509450E+02	  0.024408817	2.081800E+01	  0.024408817	1.082900E+01
24	  0.024609219	-7.242000E+00	  0.024609219	1.507100E+02	  0.024609219	2.084000E+01	  0.024609219	1.091800E+01
25	  0.024809619	-7.243000E+00	  0.024809619	1.504750E+02	  0.024809619	2.086200E+01	  0.024809619	1.100700E+01
26	  0.025010020	-7.243000E+00	  0.025010020	1.502380E+02	  0.025010020	2.088100E+01	  0.025010020	1.109700E+01
27	  0.025210422	-7.244000E+00	  0.025210422	1.499970E+02	  0.025210422	2.090400E+01	  0.025210422	1.118900E+01
28	  0.025410822	-7.243000E+00	  0.025410822	1.497790E+02	  0.025410822	2.091800E+01	  0.025410822	1.127300E+01
29	  0.025611224	-7.245000E+00	  0.025611224	1.495280E+02	  0.025611224	2.094400E+01	  0.025611224	1.136700E+01
30	  0.025811624	-7.247000E+00	  0.025811624	1.493250E+02	  0.025811624	2.096500E+01	  0.025811624	1.144400E+01
31	  0.026012026	-7.246000E+00	  0.026012026	1.490730E+02	  0.026012026	2.098600E+01	  0.026012026	1.154100E+01
32	  0.026212426	-7.244000E+00	  0.026212426	1.488270E+02	  0.026212426	2.100200E+01	  0.026212426	1.163600E+01
33	  0.026412826	-7.243000E+00	  0.026412826	1.486030E+02	  0.026412826	2.101900E+01	  0.026412826	1.172200E+01
34	  0.026613226	-7.244000E+00	  0.026613226	1.483590E+02	  0.026613226	2.104200E+01	  0.026613226	1.181500E+01
35	  0.026813626	-7.247000E+00	  0.026813626	1.481260E+02	  0.026813626	2.106900E+01	  0.026813626	1.190300E+01
36	  0.027014028	-7.246000E+00	  0.027014028	1.478910E+02	  0.027014028	2.108700E+01	  0.027014028	1.199400E+01
37	  0.027214428	-7.245000E+00	  0.027214428	1.476700E+02	  0.027214428	2.110500E+01	  0.027214428	1.207900E+01
38	  0.027414829	-7.245000E+00	  0.027414829	1.474260E+02	  0.027414829	2.112700E+01	  0.027414829	1.217300E+01
39	  0.027615231	-7.247000E+00	  0.027615231	1.471890E+02	  0.027615231	2.115100E+01	  0.027615231	1.226300E+01
40	  0.027815631	-7.247000E+00	  0.027815631	1.469550E+02	  0.027815631	2.117500E+01	  0.027815631	1.235300E+01
41	  0.028016033	-7.246000E+00	  0.028016033	1.467340E+02	  0.028016033	2.119200E+01	  0.028016033	1.243800E+01
42	  0.028216433	-7.246000E+00	  0.028216433	1.464910E+02	  0.028216433	2.121500E+01	  0.028216433	1.253200E+01
43	  0.028416833	-7.248000E+00	  0.028416833	1.462640E+02	  0.028416833	2.124100E+01	  0.028416833	1.261800E+01
44	  0.028617235	-7.247000E+00	  0.028617235	1.460350E+02	  0.028617235	2.125900E+01	  0.028617235	1.270700E+01
45	  0.028817635	-7.248000E+00	  0.028817635	1.458030E+02	  0.028817635	2.128400E+01	  0.028817635	1.279600E+01
46	  0.029018037	-7.247000E+00	  0.029018037	1.455650E+02	  0.029018037	2.130300E+01	  0.029018037	1.288900E+01
47	  0.029218437	-7.246000E+00	  0.029218437	1.453370E+02	  0.029218437	2.132400E+01	  0.029218437	1.297700E+01
48	  0.029418837	-7.247000E+00	  0.029418837	1.451100E+02	  0.029418837	2.134700E+01	  0.029418837	1.306500E+01
49	  0.029619239	-7.243000E+00	  0.029619239	1.448850E+02	  0.029619239	2.136000E+01	  0.029619239	1.315400E+01
50	  0.029819639	-7.244000E+00	  0.029819639	1.446330E+02	  0.029819639	2.138800E+01	  0.029819639	1.325100E+01
51	  0.030020041	-7.241000E+00	  0.030020041	1.444080E+02	  0.030020041	2.140200E+01	  0.030020041	1.334000E+01
52	  0.030220442	-7.243000E+00	  0.030220442	1.441720E+02	  0.030220442	2.143000E+01	  0.030220442	1.343000E+01
53	  0.030420844	-7.242000E+00	  0.030420844	1.439570E+02	  0.030420844	2.144800E+01	  0.030420844	1.351500E+01
54	  0.030621244	-7.240000E+00	  0.030621244	1.437150E+02	  0.030621244	2.147000E+01	  0.030621244	1.360900E+01
55	  0.030821644	-7.241000E+00	  0.030821644	1.434680E+02	  0.030821644	2.149700E+01	  0.030821644	1.370500E+01
56	  0.031022044	-7.239000E+00	  0.031022044	1.432350E+02	  0.031022044	2.151600E+01	  0.031022044	1.379700E+01
57	  0.031222444	-7.222000E+00	  0.031222444	1.430830E+02	  0.031222444	2.148700E+01	  0.031222444	1.386800E+01
58	  0.031422846	-7.222000E+00	  0.031422846	1.428600E+02	  0.031422846	2.151200E+01	  0.031422846	1.395400E+01
59	  0.031623244	-7.224000E+00	  0.031623244	1.426070E+02	  0.031623244	2.154200E+01	  0.031623244	1.405200E+01
60	  0.031823646	-7.223000E+00	  0.031823646	1.423600E+02	  0.031823646	2.156800E+01	  0.031823646	1.414800E+01
61	  0.032024048	-7.224000E+00	  0.032024048	1.421390E+02	  0.032024048	2.159300E+01	  0.032024048	1.423400E+01
62	  0.032224450	-7.223000E+00	  0.032224450	1.418920E+02	  0.032224450	2.161600E+01	  0.032224450	1.433100E+01
63	  0.032424849	-7.223000E+00	  0.032424849	1.416550E+02	  0.032424849	2.164200E+01	  0.032424849	1.442400E+01
64	  0.032625251	-7.224000E+00	  0.032625251	1.414190E+02	  0.032625251	2.167200E+01	  0.032625251	1.451500E+01
65	  0.032825653	-7.224000E+00	  0.032825653	1.411940E+02	  0.032825653	2.169600E+01	  0.032825653	1.460300E+01
66	  0.033026051	-7.224000E+00	  0.033026051	1.409450E+02	  0.033026051	2.172400E+01	  0.033026051	1.470000E+01
67	  0.033226453	-7.225000E+00	  0.033226453	1.407130E+02	  0.033226453	2.175100E+01	  0.033226453	1.479100E+01
68	  0.033426855	-7.224000E+00	  0.033426855	1.404680E+02	  0.033426855	2.177600E+01	  0.033426855	1.488800E+01
69	  0.033627257	-7.226000E+00	  0.033627257	1.402300E+02	  0.033627257	2.180900E+01	  0.033627257	1.498000E+01
70	  0.033827655	-7.226000E+00	  0.033827655	1.399850E+02	  0.033827655	2.183700E+01	  0.033827655	1.507600E+01
71	  0.034028057	-7.225000E+00	  0.034028057	1.397430E+02	  0.034028057	2.186400E+01	  0.034028057	1.517100E+01
72	  0.034228459	-7.228000E+00	  0.034228459	1.395170E+02	  0.034228459	2.189500E+01	  0.034228459	1.525900E+01
73	  0.034428857	-7.226000E+00	  0.034428857	1.392710E+02	  0.034428857	2.192100E+01	  0.034428857	1.535700E+01
74	  0.034629259	-7.227000E+00	  0.034629259	1.390440E+02	  0.034629259	2.195000E+01	  0.034629259	1.544500E+01
75	  0.034829661	-7.228000E+00	  0.034829661	1.387820E+02	  0.034829661	2.198300E+01	  0.034829661	1.554800E+01
76	  0.035030060	-7.227000E+00	  0.035030060	1.385580E+02	  0.035030060	2.200900E+01	  0.035030060	1.563600E+01
77	  0.035230462	-7.229000E+00	  0.035230462	1.383180E+02	  0.035230462	2.204100E+01	  0.035230462	1.573000E+01
78	  0.035430863	-7.227000E+00	  0.035430863	1.380920E+02	  0.035430863	2.206400E+01	  0.035430863	1.582100E+01
79	  0.035631265	-7.227000E+00	  0.035631265	1.378430E+02	  0.035631265	2.209500E+01	  0.035631265	1.591900E+01
80	  0.035831664	-7.227000E+00	  0.035831664	1.376060E+02	  0.035831664	2.212300E+01	  0.035831664	1.601300E+01
81	  0.036032066	-7.229000E+00	  0.036032066	1.373750E+02	  0.036032066	2.215600E+01	  0.036032066	1.610300E+01
82	  0.036232468	-7.227000E+00	  0.036232468	1.371410E+02	  0.036232468	2.218100E+01	  0.036232468	1.619700E+01
83	  0.036432866	-7.228000E+00	  0.036432866	1.369000E+02	  0.036432866	2.221400E+01	  0.036432866	1.629200E+01
84	  0.036633268	-7.228000E+00	  0.036633268	1.366800E+02	  0.036633268	2.224200E+01	  0.036633268	1.637900E+01
85	  0.036833670	-7.227000E+00	  0.036833670	1.364340E+02	  0.036833670	2.227000E+01	  0.036833670	1.647800E+01
86	  0.037034072	-7.228000E+00	  0.037034072	1.362030E+02	  0.037034072	2.230500E+01	  0.037034072	1.656800E+01
87	  0.037234470	-7.228000E+00	  0.037234470	1.359830E+02	  0.037234470	2.233200E+01	  0.037234470	1.665600E+01
88	  0.037434869	-7.228000E+00	  0.037434869	1.357390E+02	  0.037434869	2.236400E+01	  0.037434869	1.675300E+01
89	  0.037635271	-7.228000E+00	  0.037635271	1.355070E+02	  0.037635271	2.239300E+01	  0.037635271	1.684600E+01
90	  0.037835669	-7.229000E+00	  0.037835669	1.352740E+02	  0.037835669	2.242800E+01	  0.037835669	1.693700E+01
91	  0.038036071	-7.228000E+00	  0.038036071	1.350500E+02	  0.038036071	2.245500E+01	  0.038036071	1.702700E+01
92	  0.038236473	-7.228000E+00	  0.038236473	1.348030E+02	  0.038236473	2.248700E+01	  0.038236473	1.712600E+01
93	  0.038436871	-7.229000E+00	  0.038436871	1.345640E+02	  0.038436871	2.252300E+01	  0.038436871	1.722000E+01
94	  0.038637273	-7.225000E+00	  0.038637273	1.343340E+02	  0.038637273	2.254400E+01	  0.038637273	1.731600E+01
95	  0.038837675	-7.227000E+00	  0.038837675	1.341210E+02	  0.038837675	2.257700E+01	  0.038837675	1.740000E+01
96	  0.039038073	-7.228000E+00	  0.039038073	1.338860E+02	  0.039038073	2.261200E+01	  0.039038073	1.749300E+01
97	  0.039238475	-7.226000E+00	  0.039238475	1.336520E+02	  0.039238475	2.263900E+01	  0.039238475	1.758800E+01
98	  0.039438877	-7.225000E+00	  0.039438877	1.334140E+02	  0.039438877	2.267000E+01	  0.039438877	1.768500E+01
99	  0.039639279	-7.227000E+00	  0.039639279	1.331790E+02	  0.039639279	2.270800E+01	  0.039639279	1.777700E+01
100	  0.039839678	-7.226000E+00	  0.039839678	1.329450E+02	  0.039839678	2.274000E+01	  0.039839678	1.787200E+01
101	  0.040040080	-7.228000E+00	  0.040040080	1.327210E+02	  0.040040080	2.277600E+01	  0.040040080	1.796000E+01
102	  0.040240481	-7.227000E+00	  0.040240481	1.324900E+02	  0.040240481	2.280600E+01	  0.040240481	1.805500E+01
103	  0.040440880	-7.224000E+00	  0.040440880	1.322490E+02	  0.040440880	2.283300E+01	  0.040440880	1.815400E+01
104	  0.040641282	-7.225000E+00	  0.040641282	1.320280E+02	  0.040641282	2.286900E+01	  0.040641282	1.824200E+01
105	  0.040841684	-7.225000E+00	  0.040841684	1.317920E+02	  0.040841684	2.290400E+01	  0.040841684	1.833700E+01
106	  0.041042086	-7.224000E+00	  0.041042086	1.315500E+02	  0.041042086	2.293700E+01	  0.041042086	1.843600E+01
107	  0.041242484	-7.225000E+00	  0.041242484	1.313310E+02	  0.041242484	2.297100E+01	  0.041242484	1.852300E+01
108	  0.041442886	-7.224000E+00	  0.041442886	1.310950E+02	  0.041442886	2.300400E+01	  0.041442886	1.862000E+01
109	  0.041643288	-7.224000E+00	  0.041643288	1.308850E+02	  0.041643288	2.303500E+01	  0.041643288	1.870500E+01
110	  0.041843686	-7.223000E+00	  0.041843686	1.306360E+02	  0.041843686	2.307000E+01	  0.041843686	1.880700E+01
111	  0.042044088	-7.223000E+00	  0.042044088	1.304000E+02	  0.042044088	2.310500E+01	  0.042044088	1.890300E+01
112	  0.042244490	-7.223000E+00	  0.042244490	1.301760E+02	  0.042244490	2.314000E+01	  0.042244490	1.899300E+01
113	  0.042444889	-7.225000E+00	  0.042444889	1.299540E+02	  0.042444889	2.318000E+01	  0.042444889	1.908100E+01
114	  0.042645290	-7.221000E+00	  0.042645290	1.297270E+02	  0.042645290	2.320300E+01	  0.042645290	1.917800E+01
115	  0.042845692	-7.223000E+00	  0.042845692	1.294820E+02	  0.042845692	2.324700E+01	  0.042845692	1.927500E+01
116	  0.043046094	-7.224000E+00	  0.043046094	1.292560E+02	  0.043046094	2.328400E+01	  0.043046094	1.936600E+01
117	  0.043246493	-7.223000E+00	  0.043246493	1.290180E+02	  0.043246493	2.332000E+01	  0.043246493	1.946400E+01
118	  0.043446895	-7.223000E+00	  0.043446895	1.287860E+02	  0.043446895	2.335900E+01	  0.043446895	1.955800E+01
119	  0.043647297	-7.221000E+00	  0.043647297	1.285620E+02	  0.043647297	2.338900E+01	  0.043647297	1.965200E+01
120	  0.043847695	-7.221000E+00	  0.043847695	1.283190E+02	  0.043847695	2.342800E+01	  0.043847695	1.975100E+01
121	  0.044048097	-7.220000E+00	  0.044048097	1.280920E+02	  0.044048097	2.346200E+01	  0.044048097	1.984500E+01
122	  0.044248499	-7.220000E+00	  0.044248499	1.278490E+02	  0.044248499	2.350100E+01	  0.044248499	1.994500E+01
123	  0.044448901	-7.221000E+00	  0.044448901	1.276360E+02	  0.044448901	2.353900E+01	  0.044448901	2.003100E+01
124	  0.044649299	-7.223000E+00	  0.044649299	1.273890E+02	  0.044649299	2.358500E+01	  0.044649299	2.013000E+01
125	  0.044849701	-7.221000E+00	  0.044849701	1.271600E+02	  0.044849701	2.361700E+01	  0.044849701	2.022600E+01
126	  0.045050103	-7.220000E+00	  0.045050103	1.269320E+02	  0.045050103	2.365100E+01	  0.045050103	2.032100E+01
127	  0.045250501	-7.219000E+00	  0.045250501	1.266910E+02	  0.045250501	2.369100E+01	  0.045250501	2.042100E+01
128	  0.045450903	-7.219000E+00	  0.045450903	1.264540E+02	  0.045450903	2.373000E+01	  0.045450903	2.051900E+01
129	  0.045651305	-7.219000E+00	  0.045651305	1.262070E+02	  0.045651305	2.377300E+01	  0.045651305	2.062000E+01
130	  0.045851704	-7.217000E+00	  0.045851704	1.259650E+02	  0.045851704	2.381000E+01	  0.045851704	2.072200E+01
131	  0.046052106	-7.218000E+00	  0.046052106	1.257470E+02	  0.046052106	2.384900E+01	  0.046052106	2.081100E+01
132	  0.046252504	-7.216000E+00	  0.046252504	1.255230E+02	  0.046252504	2.388200E+01	  0.046252504	2.090600E+01
133	  0.046452906	-7.216000E+00	  0.046452906	1.252700E+02	  0.046452906	2.392700E+01	  0.046452906	2.101000E+01
134	  0.046653304	-7.216000E+00	  0.046653304	1.250500E+02	  0.046653304	2.396500E+01	  0.046653304	2.110200E+01
135	  0.046853706	-7.218000E+00	  0.046853706	1.248010E+02	  0.046853706	2.401500E+01	  0.046853706	2.120200E+01
136	  0.047054108	-7.214000E+00	  0.047054108	1.245850E+02	  0.047054108	2.404300E+01	  0.047054108	2.129600E+01
137	  0.047254506	-7.215000E+00	  0.047254506	1.243380E+02	  0.047254506	2.408900E+01	  0.047254506	2.139800E+01
138	  0.047454908	-7.213000E+00	  0.047454908	1.241010E+02	  0.047454908	2.412700E+01	  0.047454908	2.149800E+01
139	  0.047655310	-7.212000E+00	  0.047655310	1.238690E+02	  0.047655310	2.416700E+01	  0.047655310	2.159600E+01
140	  0.047855709	-7.211000E+00	  0.047855709	1.236380E+02	  0.047855709	2.420700E+01	  0.047855709	2.169300E+01
141	  0.048056111	-7.211000E+00	  0.048056111	1.233770E+02	  0.048056111	2.425500E+01	  0.048056111	2.180200E+01
142	  0.048256513	-7.211000E+00	  0.048256513	1.231570E+02	  0.048256513	2.429400E+01	  0.048256513	2.189400E+01
143	  0.048456915	-7.210000E+00	  0.048456915	1.229360E+02	  0.048456915	2.433200E+01	  0.048456915	2.198700E+01
144	  0.048657313	-7.209000E+00	  0.048657313	1.226800E+02	  0.048657313	2.437800E+01	  0.048657313	2.209500E+01
145	  0.048857715	-7.209000E+00	  0.048857715	1.224770E+02	  0.048857715	2.441600E+01	  0.048857715	2.218000E+01
146	  0.049058117	-7.210000E+00	  0.049058117	1.222230E+02	  0.049058117	2.446600E+01	  0.049058117	2.228600E+01
147	  0.049258515	-7.206000E+00	  0.049258515	1.220020E+02	  0.049258515	2.449800E+01	  0.049258515	2.238300E+01
148	  0.049458917	-7.205000E+00	  0.049458917	1.217620E+02	  0.049458917	2.454200E+01	  0.049458917	2.248500E+01
149	  0.049659319	-7.208000E+00	  0.049659319	1.215370E+02	  0.049659319	2.459400E+01	  0.049659319	2.257500E+01
150	  0.049859721	-7.207000E+00	  0.049859721	1.213080E+02	  0.049859721	2.463500E+01	  0.049859721	2.267300E+01
151	  0.050060119	-7.206000E+00	  0.050060119	1.210700E+02	  0.050060119	2.468000E+01	  0.050060119	2.277300E+01
152	  0.050260521	-7.203000E+00	  0.050260521	1.208400E+02	  0.050260521	2.471700E+01	  0.050260521	2.287400E+01
153	  0.050460923	-7.202000E+00	  0.050460923	1.206180E+02	  0.050460923	2.475900E+01	  0.050460923	2.296900E+01
154	  0.050661322	-7.204000E+00	  0.050661322	1.203740E+02	  0.050661322	2.481200E+01	  0.050661322	2.306900E+01
155	  0.050861724	-7.200000E+00	  0.050861724	1.201440E+02	  0.050861724	2.484700E+01	  0.050861724	2.317200E+01
156	  0.051062126	-7.203000E+00	  0.051062126	1.199100E+02	  0.051062126	2.490100E+01	  0.051062126	2.326700E+01
157	  0.051262524	-7.201000E+00	  0.051262524	1.196850E+02	  0.051262524	2.494300E+01	  0.051262524	2.336400E+01
158	  0.051462926	-7.201000E+00	  0.051462926	1.194440E+02	  0.051462926	2.499000E+01	  0.051462926	2.346700E+01
159	  0.051663328	-7.200000E+00	  0.051663328	1.192120E+02	  0.051663328	2.503600E+01	  0.051663328	2.356600E+01
160	  0.051863730	-7.198000E+00	  0.051863730	1.189730E+02	  0.051863730	2.508100E+01	  0.051863730	2.367000E+01
161	  0.052064128	-7.198000E+00	  0.052064128	1.187420E+02	  0.052064128	2.512700E+01	  0.052064128	2.376900E+01
162	  0.052264530	-7.196000E+00	  0.052264530	1.185180E+02	  0.052264530	2.516800E+01	  0.052264530	2.386700E+01
163	  0.052464932	-7.196000E+00	  0.052464932	1.182920E+02	  0.052464932	2.521800E+01	  0.052464932	2.396200E+01
164	  0.052665330	-7.197000E+00	  0.052665330	1.180720E+02	  0.052665330	2.526500E+01	  0.052665330	2.405500E+01
165	  0.052865732	-7.194000E+00	  0.052865732	1.178280E+02	  0.052865732	2.530900E+01	  0.052865732	2.416300E+01
166	  0.053066134	-7.194000E+00	  0.053066134	1.176050E+02	  0.053066134	2.535700E+01	  0.053066134	2.425800E+01
167	  0.053266536	-7.196000E+00	  0.053266536	1.173780E+02	  0.053266536	2.541300E+01	  0.053266536	2.435200E+01
168	  0.053466935	-7.192000E+00	  0.053466935	1.171390E+02	  0.053466935	2.545300E+01	  0.053466935	2.446000E+01
169	  0.053667337	-7.191000E+00	  0.053667337	1.169090E+02	  0.053667337	2.549800E+01	  0.053667337	2.456000E+01
170	  0.053867739	-7.191000E+00	  0.053867739	1.166800E+02	  0.053867739	2.555000E+01	  0.053867739	2.465800E+01
171	  0.054068137	-7.188000E+00	  0.054068137	1.164580E+02	  0.054068137	2.559100E+01	  0.054068137	2.475700E+01
172	  0.054268539	-7.188000E+00	  0.054268539	1.162070E+02	  0.054268539	2.564700E+01	  0.054268539	2.486500E+01
173	  0.054468941	-7.187000E+00	  0.054468941	1.160000E+02	  0.054468941	2.568800E+01	  0.054468941	2.495600E+01
174	  0.054669339	-7.187000E+00	  0.054669339	1.157830E+02	  0.054669339	2.573900E+01	  0.054669339	2.504900E+01
175	  0.054869737	-7.186000E+00	  0.054869737	1.155380E+02	  0.054869737	2.579000E+01	  0.054869737	2.515700E+01
176	  0.055070139	-7.183000E+00	  0.055070139	1.153250E+02	  0.055070139	2.583100E+01	  0.055070139	2.525200E+01
177	  0.055270538	-7.185000E+00	  0.055270538	1.150830E+02	  0.055270538	2.589000E+01	  0.055270538	2.535400E+01
178	  0.055470940	-7.186000E+00	  0.055470940	1.148650E+02	  0.055470940	2.594400E+01	  0.055470940	2.544700E+01
179	  0.055671342	-7.182000E+00	  0.055671342	1.146210E+02	  0.055671342	2.599000E+01	  0.055671342	2.555700E+01
180	  0.055871744	-7.183000E+00	  0.055871744	1.144180E+02	  0.055871744	2.604000E+01	  0.055871744	2.564300E+01
181	  0.056072142	-7.181000E+00	  0.056072142	1.141870E+02	  0.056072142	2.608700E+01	  0.056072142	2.574700E+01
182	  0.056272544	-7.181000E+00	  0.056272544	1.139530E+02	  0.056272544	2.614200E+01	  0.056272544	2.584900E+01
183	  0.056472946	-7.182000E+00	  0.056472946	1.137220E+02	  0.056472946	2.620200E+01	  0.056472946	2.594700E+01
184	  0.056673344	-7.180000E+00	  0.056673344	1.134920E+02	  0.056673344	2.625000E+01	  0.056673344	2.605000E+01
185	  0.056873746	-7.180000E+00	  0.056873746	1.132750E+02	  0.056873746	2.630000E+01	  0.056873746	2.614500E+01
186	  0.057074148	-7.177000E+00	  0.057074148	1.130280E+02	  0.057074148	2.635300E+01	  0.057074148	2.625600E+01
187	  0.057274550	-7.176000E+00	  0.057274550	1.128070E+02	  0.057274550	2.640200E+01	  0.057274550	2.635500E+01
188	  0.057474948	-7.178000E+00	  0.057474948	1.125730E+02	  0.057474948	2.646600E+01	  0.057474948	2.645300E+01
189	  0.057675350	-7.176000E+00	  0.057675350	1.123400E+02	  0.057675350	2.651600E+01	  0.057675350	2.655900E+01
190	  0.057875752	-7.175000E+00	  0.057875752	1.121190E+02	  0.057875752	2.656800E+01	  0.057875752	2.665700E+01
191	  0.058076151	-7.175000E+00	  0.058076151	1.118880E+02	  0.058076151	2.662500E+01	  0.058076151	2.675800E+01
192	  0.058276553	-7.174000E+00	  0.058276553	1.116710E+02	  0.058276553	2.667600E+01	  0.058276553	2.685500E+01
193	  0.058476955	-7.174000E+00	  0.058476955	1.114330E+02	  0.058476955	2.673700E+01	  0.058476955	2.695800E+01
194	  0.058677353	-7.174000E+00	  0.058677353	1.112200E+02	  0.058677353	2.679000E+01	  0.058677353	2.705200E+01
195	  0.058877755	-7.172000E+00	  0.058877755	1.109930E+02	  0.058877755	2.684100E+01	  0.058877755	2.715600E+01
196	  0.059078157	-7.175000E+00	  0.059078157	1.107640E+02	  0.059078157	2.691100E+01	  0.059078157	2.725000E+01
197	  0.059278559	-7.173000E+00	  0.059278559	1.105450E+02	  0.059278559	2.696100E+01	  0.059278559	2.735000E+01
198	  0.059478957	-7.172000E+00	  0.059478957	1.102970E+02	  0.059478957	2.702200E+01	  0.059478957	2.746100E+01
199	  0.059679359	-7.174000E+00	  0.059679359	1.100740E+02	  0.059679359	2.708400E+01	  0.059679359	2.755600E+01
200	  0.059879761	-7.172000E+00	  0.059879761	1.098520E+02	  0.059879761	2.713700E+01	  0.059879761	2.765700E+01
201	  0.060080159	-7.172000E+00	  0.060080159	1.096370E+02	  0.060080159	2.719200E+01	  0.060080159	2.775300E+01
202	  0.060280561	-7.170000E+00	  0.060280561	1.094020E+02	  0.060280561	2.724800E+01	  0.060280561	2.786100E+01
203	  0.060480963	-7.169000E+00	  0.060480963	1.091780E+02	  0.060480963	2.730700E+01	  0.060480963	2.796000E+01
204	  0.060681365	-7.169000E+00	  0.060681365	1.089470E+02	  0.060681365	2.736800E+01	  0.060681365	2.806300E+01
205	  0.060881764	-7.171000E+00	  0.060881764	1.087310E+02	  0.060881764	2.743100E+01	  0.060881764	2.815600E+01
206	  0.061082166	-7.169000E+00	  0.061082166	1.085020E+02	  0.061082166	2.748800E+01	  0.061082166	2.826000E+01
207	  0.061282568	-7.170000E+00	  0.061282568	1.082790E+02	  0.061282568	2.755200E+01	  0.061282568	2.835700E+01
208	  0.061482966	-7.165000E+00	  0.061482966	1.080550E+02	  0.061482966	2.759900E+01	  0.061482966	2.846600E+01
209	  0.061683368	-7.164000E+00	  0.061683368	1.078220E+02	  0.061683368	2.765900E+01	  0.061683368	2.857100E+01
210	  0.061883770	-7.163000E+00	  0.061883770	1.075990E+02	  0.061883770	2.771900E+01	  0.061883770	2.867200E+01
211	  0.062084168	-7.164000E+00	  0.062084168	1.073860E+02	  0.062084168	2.778000E+01	  0.062084168	2.876600E+01
212	  0.062284570	-7.161000E+00	  0.062284570	1.071390E+02	  0.062284570	2.784100E+01	  0.062284570	2.888100E+01
213	  0.062484972	-7.145000E+00	  0.062484972	1.070190E+02	  0.062484972	2.782700E+01	  0.062484972	2.896500E+01
214	  0.062685370	-7.145000E+00	  0.062685370	1.067830E+02	  0.062685370	2.789300E+01	  0.062685370	2.907100E+01
215	  0.062885776	-7.142000E+00	  0.062885776	1.065680E+02	  0.062885776	2.794500E+01	  0.062885776	2.917300E+01
216	  0.063086174	-7.144000E+00	  0.063086174	1.063330E+02	  0.063086174	2.801800E+01	  0.063086174	2.927500E+01
217	  0.063286573	-7.142000E+00	  0.063286573	1.060950E+02	  0.063286573	2.808100E+01	  0.063286573	2.938500E+01
218	  0.063486971	-7.139000E+00	  0.063486971	1.058870E+02	  0.063486971	2.813100E+01	  0.063486971	2.948500E+01
219	  0.063687377	-7.143000E+00	  0.063687377	1.056620E+02	  0.063687377	2.820800E+01	  0.063687377	2.957900E+01
220	  0.063887775	-7.144000E+00	  0.063887775	1.054460E+02	  0.063887775	2.827600E+01	  0.063887775	2.967300E+01
221	  0.064088173	-7.142000E+00	  0.064088173	1.052070E+02	  0.064088173	2.834000E+01	  0.064088173	2.978500E+01
222	  0.064288579	-7.141000E+00	  0.064288579	1.049870E+02	  0.064288579	2.840100E+01	  0.064288579	2.988600E+01
223	  0.064488977	-7.142000E+00	  0.064488977	1.047730E+02	  0.064488977	2.846900E+01	  0.064488977	2.998100E+01
224	  0.064689375	-7.142000E+00	  0.064689375	1.045480E+02	  0.064689375	2.853600E+01	  0.064689375	3.008200E+01
225	  0.064889781	-7.141000E+00	  0.064889781	1.043060E+02	  0.064889781	2.860500E+01	  0.064889781	3.019400E+01
226	  0.065090179	-7.139000E+00	  0.065090179	1.040530E+02	  0.065090179	2.867700E+01	  0.065090179	3.031200E+01
227	  0.065290578	-7.134000E+00	  0.065290578	1.038420E+02	  0.065290578	2.872500E+01	  0.065290578	3.041800E+01
228	  0.065490983	-7.133000E+00	  0.065490983	1.036080E+02	  0.065490983	2.879500E+01	  0.065490983	3.052500E+01
229	  0.065691382	-7.133000E+00	  0.065691382	1.033790E+02	  0.065691382	2.886300E+01	  0.065691382	3.063100E+01
230	  0.065891780	-7.135000E+00	  0.065891780	1.031630E+02	  0.065891780	2.893600E+01	  0.065891780	3.072500E+01
231	  0.066092186	-7.130000E+00	  0.066092186	1.029410E+02	  0.066092186	2.899100E+01	  0.066092186	3.083600E+01
232	  0.066292584	-7.131000E+00	  0.066292584	1.027130E+02	  0.066292584	2.906500E+01	  0.066292584	3.093900E+01
233	  0.066492982	-7.130000E+00	  0.066492982	1.024810E+02	  0.066492982	2.913600E+01	  0.066492982	3.104600E+01
234	  0.066693388	-7.125000E+00	  0.066693388	1.022540E+02	  0.066693388	2.919200E+01	  0.066693388	3.116000E+01
235	  0.066893786	-7.128000E+00	  0.066893786	1.020450E+02	  0.066893786	2.926800E+01	  0.066893786	3.124900E+01
236	  0.067094192	-7.127000E+00	  0.067094192	1.018030E+02	  0.067094192	2.934300E+01	  0.067094192	3.136100E+01
237	  0.067294590	-7.124000E+00	  0.067294590	1.015610E+02	  0.067294590	2.941000E+01	  0.067294590	3.148000E+01
238	  0.067494988	-7.124000E+00	  0.067494988	1.013650E+02	  0.067494988	2.947600E+01	  0.067494988	3.156800E+01
239	  0.067695394	-7.124000E+00	  0.067695394	1.011300E+02	  0.067695394	2.955100E+01	  0.067695394	3.167700E+01
240	  0.067895792	-7.125000E+00	  0.067895792	1.009140E+02	  0.067895792	2.962500E+01	  0.067895792	3.177400E+01
241	  0.068096191	-7.124000E+00	  0.068096191	1.006660E+02	  0.068096191	2.970400E+01	  0.068096191	3.189000E+01
242	  0.068296596	-7.121000E+00	  0.068296596	1.004640E+02	  0.068296596	2.976100E+01	  0.068296596	3.199000E+01
243	  0.068496995	-7.120000E+00	  0.068496995	1.002090E+02	  0.068496995	2.984300E+01	  0.068496995	3.211000E+01
244	  0.068697393	-7.117000E+00	  0.068697393	9.999800E+01	  0.068697393	2.990700E+01	  0.068697393	3.221200E+01
245	  0.068897791	-7.119000E+00	  0.068897791	9.977300E+01	  0.068897791	2.998700E+01	  0.068897791	3.231300E+01
246	  0.069098189	-7.119000E+00	  0.069098189	9.956600E+01	  0.069098189	3.005700E+01	  0.069098189	3.240900E+01
247	  0.069298595	-7.117000E+00	  0.069298595	9.933400E+01	  0.069298595	3.013100E+01	  0.069298595	3.251900E+01
248	  0.069498993	-7.118000E+00	  0.069498993	9.910000E+01	  0.069498993	3.021500E+01	  0.069498993	3.262500E+01
249	  0.069699399	-7.116000E+00	  0.069699399	9.888300E+01	  0.069699399	3.028200E+01	  0.069699399	3.273100E+01
250	  0.069899797	-7.112000E+00	  0.069899797	9.864700E+01	  0.069899797	3.035300E+01	  0.069899797	3.285000E+01
251	  0.070100196	-7.114000E+00	  0.070100196	9.842700E+01	  0.070100196	3.043700E+01	  0.070100196	3.294600E+01
252	  0.070300601	-7.112000E+00	  0.070300601	9.819400E+01	  0.070300601	3.051200E+01	  0.070300601	3.305900E+01
253	  0.070501000	-7.112000E+00	  0.070501000	9.798100E+01	  0.070501000	3.058600E+01	  0.070501000	3.315900E+01
254	  0.070701398	-7.111000E+00	  0.070701398	9.774500E+01	  0.070701398	3.066700E+01	  0.070701398	3.327100E+01
255	  0.070901804	-7.112000E+00	  0.070901804	9.752000E+01	  0.070901804	3.075000E+01	  0.070901804	3.337400E+01
256	  0.071102202	-7.113000E+00	  0.071102202	9.729700E+01	  0.071102202	3.083400E+01	  0.071102202	3.347400E+01
257	  0.071302600	-7.109000E+00	  0.071302600	9.706600E+01	  0.071302600	3.090600E+01	  0.071302600	3.359100E+01
258	  0.071503006	-7.108000E+00	  0.071503006	9.684100E+01	  0.071503006	3.098300E+01	  0.071503006	3.370000E+01
259	  0.071703404	-7.112000E+00	  0.071703404	9.661800E+01	  0.071703404	3.107900E+01	  0.071703404	3.379300E+01
260	  0.071903802	-7.108000E+00	  0.071903802	9.638700E+01	  0.071903802	3.114900E+01	  0.071903802	3.391200E+01
261	  0.072104208	-7.106000E+00	  0.072104208	9.618200E+01	  0.072104208	3.122000E+01	  0.072104208	3.401200E+01
262	  0.072304606	-7.105000E+00	  0.072304606	9.595400E+01	  0.072304606	3.130000E+01	  0.072304606	3.412300E+01
263	  0.072505005	-7.105000E+00	  0.072505005	9.574400E+01	  0.072505005	3.138100E+01	  0.072505005	3.421900E+01
264	  0.072705410	-7.105000E+00	  0.072705410	9.551700E+01	  0.072705410	3.146600E+01	  0.072705410	3.432600E+01
265	  0.072905809	-7.103000E+00	  0.072905809	9.529000E+01	  0.072905809	3.154400E+01	  0.072905809	3.443900E+01
266	  0.073106214	-7.102000E+00	  0.073106214	9.504500E+01	  0.073106214	3.163400E+01	  0.073106214	3.455600E+01
267	  0.073306613	-7.101000E+00	  0.073306613	9.483100E+01	  0.073306613	3.171400E+01	  0.073306613	3.465800E+01
268	  0.073507011	-7.100000E+00	  0.073507011	9.460000E+01	  0.073507011	3.180000E+01	  0.073507011	3.476900E+01
269	  0.073707417	-7.100000E+00	  0.073707417	9.435900E+01	  0.073707417	3.189400E+01	  0.073707417	3.488200E+01
270	  0.073907815	-7.099000E+00	  0.073907815	9.415300E+01	  0.073907815	3.196800E+01	  0.073907815	3.498400E+01
271	  0.074108213	-7.094000E+00	  0.074108213	9.391500E+01	  0.074108213	3.204900E+01	  0.074108213	3.510800E+01
272	  0.074308619	-7.096000E+00	  0.074308619	9.371400E+01	  0.074308619	3.213200E+01	  0.074308619	3.519800E+01
273	  0.074509017	-7.098000E+00	  0.074509017	9.349700E+01	  0.074509017	3.222400E+01	  0.074509017	3.529600E+01
274	  0.074709415	-7.093000E+00	  0.074709415	9.325200E+01	  0.074709415	3.230700E+01	  0.074709415	3.542400E+01
275	  0.074909821	-7.096000E+00	  0.074909821	9.303200E+01	  0.074909821	3.240500E+01	  0.074909821	3.552000E+01
276	  0.075110219	-7.090000E+00	  0.075110219	9.283200E+01	  0.075110219	3.246600E+01	  0.075110219	3.563200E+01
277	  0.075310618	-7.090000E+00	  0.075310618	9.257500E+01	  0.075310618	3.257000E+01	  0.075310618	3.575300E+01
278	  0.075511023	-7.088000E+00	  0.075511023	9.235400E+01	  0.075511023	3.265500E+01	  0.075511023	3.586300E+01
279	  0.075711422	-7.085000E+00	  0.075711422	9.213800E+01	  0.075711422	3.273300E+01	  0.075711422	3.597400E+01
280	  0.075911827	-7.087000E+00	  0.075911827	9.189900E+01	  0.075911827	3.283900E+01	  0.075911827	3.608200E+01
281	  0.076112226	-7.088000E+00	  0.076112226	9.167400E+01	  0.076112226	3.293400E+01	  0.076112226	3.618700E+01
282	  0.076312624	-7.086000E+00	  0.076312624	9.144300E+01	  0.076312624	3.302400E+01	  0.076312624	3.630200E+01
283	  0.076513030	-7.084000E+00	  0.076513030	9.123400E+01	  0.076513030	3.310700E+01	  0.076513030	3.640700E+01
284	  0.076713428	-7.083000E+00	  0.076713428	9.100400E+01	  0.076713428	3.320000E+01	  0.076713428	3.651900E+01
285	  0.076913826	-7.081000E+00	  0.076913826	9.077400E+01	  0.076913826	3.329200E+01	  0.076913826	3.663500E+01
286	  0.077114232	-7.082000E+00	  0.077114232	9.055900E+01	  0.077114232	3.338800E+01	  0.077114232	3.673300E+01
287	  0.077314630	-7.082000E+00	  0.077314630	9.034000E+01	  0.077314630	3.347900E+01	  0.077314630	3.684000E+01
288	  0.077515028	-7.075000E+00	  0.077515028	9.012800E+01	  0.077515028	3.355000E+01	  0.077515028	3.696000E+01
289	  0.077715434	-7.080000E+00	  0.077715434	8.987800E+01	  0.077715434	3.367300E+01	  0.077715434	3.706600E+01
290	  0.077915832	-7.078000E+00	  0.077915832	8.967400E+01	  0.077915832	3.375700E+01	  0.077915832	3.716900E+01
291	  0.078116231	-7.075000E+00	  0.078116231	8.943500E+01	  0.078116231	3.385300E+01	  0.078116231	3.729200E+01
292	  0.078316636	-7.077000E+00	  0.078316636	8.922600E+01	  0.078316636	3.395100E+01	  0.078316636	3.738600E+01
293	  0.078517035	-7.076000E+00	  0.078517035	8.898500E+01	  0.078517035	3.405500E+01	  0.078517035	3.750400E+01
294	  0.078717433	-7.078000E+00	  0.078717433	8.873500E+01	  0.078717433	3.417200E+01	  0.078717433	3.762000E+01
295	  0.078917839	-7.076000E+00	  0.078917839	8.851600E+01	  0.078917839	3.426700E+01	  0.078917839	3.772900E+01
296	  0.079118237	-7.076000E+00	  0.079118237	8.829200E+01	  0.079118237	3.436600E+01	  0.079118237	3.783800E+01
297	  0.079318643	-7.071000E+00	  0.079318643	8.807400E+01	  0.079318643	3.445000E+01	  0.079318643	3.795600E+01
298	  0.079519041	-7.075000E+00	  0.079519041	8.785300E+01	  0.079519041	3.456500E+01	  0.079519041	3.805000E+01
299	  0.079719439	-7.072000E+00	  0.079719439	8.762300E+01	  0.079719439	3.466000E+01	  0.079719439	3.817200E+01
300	  0.079919845	-7.070000E+00	  0.079919845	8.740700E+01	  0.079919845	3.475400E+01	  0.079919845	3.828100E+01
301	  0.080120243	-7.070000E+00	  0.080120243	8.718600E+01	  0.080120243	3.485800E+01	  0.080120243	3.838600E+01
302	  0.080320641	-7.069000E+00	  0.080320641	8.694200E+01	  0.080320641	3.496800E+01	  0.080320641	3.850800E+01
303	  0.080521047	-7.068000E+00	  0.080521047	8.671900E+01	  0.080521047	3.507000E+01	  0.080521047	3.861800E+01
304	  0.080721445	-7.068000E+00	  0.080721445	8.650600E+01	  0.080721445	3.517300E+01	  0.080721445	3.871900E+01
305	  0.080921844	-7.068000E+00	  0.080921844	8.626400E+01	  0.080921844	3.528500E+01	  0.080921844	3.883900E+01
306	  0.081122249	-7.066000E+00	  0.081122249	8.606800E+01	  0.081122249	3.537600E+01	  0.081122249	3.893700E+01
307	  0.081322648	-7.068000E+00	  0.081322648	8.582200E+01	  0.081322648	3.549900E+01	  0.081322648	3.905000E+01
308	  0.081523046	-7.063000E+00	  0.081523046	8.561300E+01	  0.081523046	3.558500E+01	  0.081523046	3.916700E+01
309	  0.081723452	-7.061000E+00	  0.081723452	8.537900E+01	  0.081723452	3.569300E+01	  0.081723452	3.928600E+01
310	  0.081923850	-7.061000E+00	  0.081923850	8.515500E+01	  0.081923850	3.580300E+01	  0.081923850	3.939500E+01
311	  0.082124248	-7.064000E+00	  0.082124248	8.493400E+01	  0.082124248	3.592100E+01	  0.082124248	3.949300E+01
312	  0.082324654	-7.062000E+00	  0.082324654	8.472400E+01	  0.082324654	3.601900E+01	  0.082324654	3.960100E+01
313	  0.082525052	-7.062000E+00	  0.082525052	8.450800E+01	  0.082525052	3.612800E+01	  0.082525052	3.970400E+01
314	  0.082725458	-7.061000E+00	  0.082725458	8.427600E+01	  0.082725458	3.624000E+01	  0.082725458	3.982100E+01
315	  0.082925856	-7.059000E+00	  0.082925856	8.402500E+01	  0.082925856	3.636100E+01	  0.082925856	3.994800E+01
316	  0.083126254	-7.057000E+00	  0.083126254	8.382300E+01	  0.083126254	3.645800E+01	  0.083126254	4.005200E+01
317	  0.083326660	-7.058000E+00	  0.083326660	8.358600E+01	  0.083326660	3.658200E+01	  0.083326660	4.016500E+01
318	  0.083527058	-7.059000E+00	  0.083527058	8.337300E+01	  0.083527058	3.669300E+01	  0.083527058	4.026600E+01
319	  0.083727457	-7.060000E+00	  0.083727457	8.314300E+01	  0.083727457	3.681600E+01	  0.083727457	4.037200E+01
320	  0.083927862	-7.057000E+00	  0.083927862	8.290900E+01	  0.083927862	3.692700E+01	  0.083927862	4.049800E+01
321	  0.084128261	-7.056000E+00	  0.084128261	8.270600E+01	  0.084128261	3.703000E+01	  0.084128261	4.060000E+01
322	  0.084328659	-7.055000E+00	  0.084328659	8.246500E+01	  0.084328659	3.715700E+01	  0.084328659	4.071700E+01
323	  0.084529065	-7.055000E+00	  0.084529065	8.224300E+01	  0.084529065	3.727300E+01	  0.084529065	4.082600E+01
324	  0.084729463	-7.054000E+00	  0.084729463	8.201400E+01	  0.084729463	3.739100E+01	  0.084729463	4.094100E+01
325	  0.084929861	-7.054000E+00	  0.084929861	8.180900E+01	  0.084929861	3.750200E+01	  0.084929861	4.104000E+01
326	  0.085130267	-7.055000E+00	  0.085130267	8.157800E+01	  0.085130267	3.762800E+01	  0.085130267	4.115000E+01
327	  0.085330658	-7.052000E+00	  0.085330658	8.135700E+01	  0.085330658	3.773900E+01	  0.085330658	4.126600E+01
328	  0.085531056	-7.052000E+00	  0.085531056	8.114200E+01	  0.085531056	3.785600E+01	  0.085531056	4.137000E+01
329	  0.085731462	-7.053000E+00	  0.085731462	8.091900E+01	  0.085731462	3.798400E+01	  0.085731462	4.147400E+01
330	  0.085931860	-7.049000E+00	  0.085931860	8.070300E+01	  0.085931860	3.808800E+01	  0.085931860	4.159500E+01
331	  0.086132258	-7.046000E+00	  0.086132258	8.045900E+01	  0.086132258	3.821400E+01	  0.086132258	4.172400E+01
332	  0.086332664	-7.051000E+00	  0.086332664	8.026700E+01	  0.086332664	3.833800E+01	  0.086332664	4.179800E+01
333	  0.086533062	-7.048000E+00	  0.086533062	8.001300E+01	  0.086533062	3.846900E+01	  0.086533062	4.193400E+01
334	  0.086733460	-7.047000E+00	  0.086733460	7.980100E+01	  0.086733460	3.858700E+01	  0.086733460	4.203900E+01
335	  0.086933866	-7.049000E+00	  0.086933866	7.957900E+01	  0.086933866	3.872000E+01	  0.086933866	4.213800E+01
336	  0.087134264	-7.047000E+00	  0.087134264	7.935200E+01	  0.087134264	3.884200E+01	  0.087134264	4.225700E+01
337	  0.087334670	-7.046000E+00	  0.087334670	7.912200E+01	  0.087334670	3.897200E+01	  0.087334670	4.237100E+01
338	  0.087535068	-7.049000E+00	  0.087535068	7.889400E+01	  0.087535068	3.911200E+01	  0.087535068	4.247200E+01
339	  0.087735467	-7.046000E+00	  0.087735467	7.868900E+01	  0.087735467	3.922200E+01	  0.087735467	4.258200E+01
340	  0.087935872	-7.044000E+00	  0.087935872	7.846000E+01	  0.087935872	3.934800E+01	  0.087935872	4.270200E+01
341	  0.088136271	-7.043000E+00	  0.088136271	7.823900E+01	  0.088136271	3.947800E+01	  0.088136271	4.281000E+01
342	  0.088336669	-7.043000E+00	  0.088336669	7.802300E+01	  0.088336669	3.960500E+01	  0.088336669	4.291600E+01
343	  0.088537075	-7.044000E+00	  0.088537075	7.779400E+01	  0.088537075	3.974300E+01	  0.088537075	4.302300E+01
344	  0.088737473	-7.045000E+00	  0.088737473	7.758300E+01	  0.088737473	3.987300E+01	  0.088737473	4.312100E+01
345	  0.088937871	-7.044000E+00	  0.088937871	7.736700E+01	  0.088937871	4.000100E+01	  0.088937871	4.322800E+01
346	  0.089138277	-7.043000E+00	  0.089138277	7.713100E+01	  0.089138277	4.013900E+01	  0.089138277	4.334800E+01
347	  0.089338675	-7.044000E+00	  0.089338675	7.690900E+01	  0.089338675	4.027800E+01	  0.089338675	4.345100E+01
348	  0.089539073	-7.042000E+00	  0.089539073	7.669600E+01	  0.089539073	4.040300E+01	  0.089539073	4.356100E+01
349	  0.089739479	-7.041000E+00	  0.089739479	7.645200E+01	  0.089739479	4.055000E+01	  0.089739479	4.368300E+01
350	  0.089939877	-7.043000E+00	  0.089939877	7.624400E+01	  0.089939877	4.068500E+01	  0.089939877	4.377500E+01
351	  0.090140276	-7.041000E+00	  0.090140276	7.602400E+01	  0.090140276	4.081500E+01	  0.090140276	4.389000E+01
352	  0.090340681	-7.045000E+00	  0.090340681	7.579900E+01	  0.090340681	4.097100E+01	  0.090340681	4.397900E+01
353	  0.090541080	-7.043000E+00	  0.090541080	7.557400E+01	  0.090541080	4.110500E+01	  0.090541080	4.409900E+01
354	  0.090741485	-7.042000E+00	  0.090741485	7.534000E+01	  0.090741485	4.124900E+01	  0.090741485	4.421600E+01
355	  0.090941884	-7.042000E+00	  0.090941884	7.513300E+01	  0.090941884	4.138200E+01	  0.090941884	4.431600E+01
356	  0.091142282	-7.041000E+00	  0.091142282	7.490800E+01	  0.091142282	4.152300E+01	  0.091142282	4.442700E+01
357	  0.091342688	-7.040000E+00	  0.091342688	7.467400E+01	  0.091342688	4.167200E+01	  0.091342688	4.454400E+01
358	  0.091543086	-7.041000E+00	  0.091543086	7.444600E+01	  0.091543086	4.182400E+01	  0.091543086	4.464700E+01
359	  0.091743484	-7.039000E+00	  0.091743484	7.424500E+01	  0.091743484	4.194900E+01	  0.091743484	4.475200E+01
360	  0.091943890	-7.040000E+00	  0.091943890	7.400900E+01	  0.091943890	4.210800E+01	  0.091943890	4.485900E+01
361	  0.092144288	-7.040000E+00	  0.092144288	7.380200E+01	  0.092144288	4.224300E+01	  0.092144288	4.496000E+01
362	  0.092344686	-7.041000E+00	  0.092344686	7.356100E+01	  0.092344686	4.240600E+01	  0.092344686	4.507200E+01
363	  0.092545092	-7.039000E+00	  0.092545092	7.334300E+01	  0.092545092	4.254800E+01	  0.092545092	4.518100E+01
364	  0.092745490	-7.038000E+00	  0.092745490	7.310100E+01	  0.092745490	4.270500E+01	  0.092745490	4.530400E+01
365	  0.092945889	-7.035000E+00	  0.092945889	7.288800E+01	  0.092945889	4.284000E+01	  0.092945889	4.542000E+01
366	  0.093146294	-7.036000E+00	  0.093146294	7.267300E+01	  0.093146294	4.299200E+01	  0.093146294	4.551400E+01
367	  0.093346693	-7.038000E+00	  0.093346693	7.244800E+01	  0.093346693	4.315100E+01	  0.093346693	4.561400E+01
368	  0.093547091	-7.034000E+00	  0.093547091	7.223200E+01	  0.093547091	4.328800E+01	  0.093547091	4.573300E+01
369	  0.093747497	-7.034000E+00	  0.093747497	7.199000E+01	  0.093747497	4.345600E+01	  0.093747497	4.584700E+01
370	  0.093947895	-7.034000E+00	  0.093947895	7.176800E+01	  0.093947895	4.361000E+01	  0.093947895	4.595300E+01
371	  0.094148301	-7.030000E+00	  0.094148301	7.155000E+01	  0.094148301	4.375100E+01	  0.094148301	4.607600E+01
372	  0.094348699	-7.030000E+00	  0.094348699	7.133400E+01	  0.094348699	4.390500E+01	  0.094348699	4.617500E+01
373	  0.094549097	-7.030000E+00	  0.094549097	7.110600E+01	  0.094549097	4.406400E+01	  0.094549097	4.628800E+01
374	  0.094749503	-7.031000E+00	  0.094749503	7.090100E+01	  0.094749503	4.421400E+01	  0.094749503	4.637700E+01
375	  0.094949901	-7.032000E+00	  0.094949901	7.065200E+01	  0.094949901	4.439700E+01	  0.094949901	4.648800E+01
376	  0.095150299	-7.030000E+00	  0.095150299	7.044200E+01	  0.095150299	4.454300E+01	  0.095150299	4.659600E+01
377	  0.095350705	-7.028000E+00	  0.095350705	7.022400E+01	  0.095350705	4.469500E+01	  0.095350705	4.670800E+01
378	  0.095551103	-7.027000E+00	  0.095551103	6.998900E+01	  0.095551103	4.486400E+01	  0.095551103	4.682300E+01
379	  0.095751502	-7.027000E+00	  0.095751502	6.975600E+01	  0.095751502	4.503400E+01	  0.095751502	4.693200E+01
380	  0.095951907	-7.025000E+00	  0.095951907	6.955300E+01	  0.095951907	4.517700E+01	  0.095951907	4.703900E+01
381	  0.096152306	-7.023000E+00	  0.096152306	6.933000E+01	  0.096152306	4.533700E+01	  0.096152306	4.715300E+01
382	  0.096352704	-7.023000E+00	  0.096352704	6.909900E+01	  0.096352704	4.550900E+01	  0.096352704	4.726000E+01
383	  0.096553110	-7.022000E+00	  0.096553110	6.887500E+01	  0.096553110	4.567700E+01	  0.096553110	4.736700E+01
384	  0.096753508	-7.020000E+00	  0.096753508	6.864000E+01	  0.096753508	4.585000E+01	  0.096753508	4.748400E+01
385	  0.096953906	-7.021000E+00	  0.096953906	6.843200E+01	  0.096953906	4.601100E+01	  0.096953906	4.757600E+01
386	  0.097154312	-7.019000E+00	  0.097154312	6.820800E+01	  0.097154312	4.617700E+01	  0.097154312	4.769000E+01
387	  0.097354710	-7.019000E+00	  0.097354710	6.799000E+01	  0.097354710	4.634200E+01	  0.097354710	4.779300E+01
388	  0.097555116	-7.017000E+00	  0.097555116	6.776900E+01	  0.097555116	4.650900E+01	  0.097555116	4.790300E+01
389	  0.097755514	-7.016000E+00	  0.097755514	6.755900E+01	  0.097755514	4.667000E+01	  0.097755514	4.800400E+01
390	  0.097955912	-7.015000E+00	  0.097955912	6.732400E+01	  0.097955912	4.685100E+01	  0.097955912	4.811700E+01
391	  0.098156318	-7.013000E+00	  0.098156318	6.709100E+01	  0.098156318	4.703000E+01	  0.098156318	4.823200E+01
392	  0.098356716	-7.013000E+00	  0.098356716	6.688300E+01	  0.098356716	4.719500E+01	  0.098356716	4.832700E+01
393	  0.098557115	-7.013000E+00	  0.098557115	6.666100E+01	  0.098557115	4.737300E+01	  0.098557115	4.842800E+01
394	  0.098757520	-7.013000E+00	  0.098757520	6.643300E+01	  0.098757520	4.755400E+01	  0.098757520	4.853500E+01
395	  0.098957919	-7.013000E+00	  0.098957919	6.622100E+01	  0.098957919	4.772700E+01	  0.098957919	4.862800E+01
396	  0.099158317	-7.012000E+00	  0.099158317	6.599400E+01	  0.099158317	4.790700E+01	  0.099158317	4.873800E+01
397	  0.099358723	-7.010000E+00	  0.099358723	6.577600E+01	  0.099358723	4.807900E+01	  0.099358723	4.884700E+01
398	  0.099559121	-7.006000E+00	  0.099559121	6.554900E+01	  0.099559121	4.825500E+01	  0.099559121	4.896700E+01
399	  0.099759519	-7.006000E+00	  0.099759519	6.532900E+01	  0.099759519	4.843800E+01	  0.099759519	4.906600E+01
400	  0.099959925	-7.001000E+00	  0.099959925	6.513200E+01	  0.099959925	4.858400E+01	  0.099959925	4.918600E+01
401	  0.100160323	-7.001000E+00	  0.100160323	6.491900E+01	  0.100160323	4.876500E+01	  0.100160323	4.927600E+01
402	  0.100360721	-7.001000E+00	  0.100360721	6.468500E+01	  0.100360721	4.896100E+01	  0.100360721	4.938200E+01
403	  0.100561127	-7.005000E+00	  0.100561127	6.446300E+01	  0.100561127	4.915900E+01	  0.100561127	4.946000E+01
404	  0.100761525	-6.998000E+00	  0.100761525	6.428700E+01	  0.100761525	4.928900E+01	  0.100761525	4.957800E+01
405	  0.100961931	-6.997000E+00	  0.100961931	6.405600E+01	  0.100961931	4.948400E+01	  0.100961931	4.968400E+01
406	  0.101162329	-7.000000E+00	  0.101162329	6.380500E+01	  0.101162329	4.970800E+01	  0.101162329	4.977800E+01
407	  0.101362728	-6.996000E+00	  0.101362728	6.357800E+01	  0.101362728	4.989400E+01	  0.101362728	4.989800E+01
408	  0.101563133	-6.999000E+00	  0.101563133	6.337100E+01	  0.101563133	5.008200E+01	  0.101563133	4.997300E+01
409	  0.101763532	-6.992000E+00	  0.101763532	6.315800E+01	  0.101763532	5.024900E+01	  0.101763532	5.010400E+01
410	  0.101963930	-6.998000E+00	  0.101963930	6.294000E+01	  0.101963930	5.045900E+01	  0.101963930	5.016300E+01
411	  0.102164336	-6.993000E+00	  0.102164336	6.272800E+01	  0.102164336	5.063100E+01	  0.102164336	5.028600E+01
412	  0.102364734	-6.992000E+00	  0.102364734	6.251500E+01	  0.102364734	5.082000E+01	  0.102364734	5.037800E+01
413	  0.102565132	-6.994000E+00	  0.102565132	6.228000E+01	  0.102565132	5.103600E+01	  0.102565132	5.047000E+01
414	  0.102765530	-6.991000E+00	  0.102765530	6.205700E+01	  0.102765530	5.123000E+01	  0.102765530	5.058000E+01
415	  0.102965929	-6.990000E+00	  0.102965929	6.181600E+01	  0.102965929	5.144600E+01	  0.102965929	5.068900E+01
416	  0.103166327	-6.986000E+00	  0.103166327	6.164000E+01	  0.103166327	5.159400E+01	  0.103166327	5.079000E+01
417	  0.103366733	-6.983000E+00	  0.103366733	6.140400E+01	  0.103366733	5.180100E+01	  0.103366733	5.090800E+01
418	  0.103567131	-6.987000E+00	  0.103567131	6.117500E+01	  0.103567131	5.202300E+01	  0.103567131	5.098000E+01
419	  0.103767529	-6.987000E+00	  0.103767529	6.096000E+01	  0.103767529	5.222400E+01	  0.103767529	5.106700E+01
420	  0.103967935	-6.983000E+00	  0.103967935	6.072000E+01	  0.103967935	5.243800E+01	  0.103967935	5.119000E+01
421	  0.104168333	-6.985000E+00	  0.104168333	6.051200E+01	  0.104168333	5.263700E+01	  0.104168333	5.126700E+01
422	  0.104368731	-6.983000E+00	  0.104368731	6.028700E+01	  0.104368731	5.284400E+01	  0.104368731	5.137100E+01
423	  0.104569137	-6.982000E+00	  0.104569137	6.007100E+01	  0.104569137	5.304700E+01	  0.104569137	5.146700E+01
424	  0.104769535	-6.986000E+00	  0.104769535	5.984800E+01	  0.104769535	5.327300E+01	  0.104769535	5.152800E+01
425	  0.104969934	-6.982000E+00	  0.104969934	5.959600E+01	  0.104969934	5.350400E+01	  0.104969934	5.165600E+01
426	  0.105170339	-6.981000E+00	  0.105170339	5.940100E+01	  0.105170339	5.368900E+01	  0.105170339	5.174300E+01
427	  0.105370738	-6.980000E+00	  0.105370738	5.916800E+01	  0.105370738	5.391400E+01	  0.105370738	5.184000E+01
428	  0.105571143	-6.978000E+00	  0.105571143	5.896100E+01	  0.105571143	5.411100E+01	  0.105571143	5.193600E+01
429	  0.105771542	-6.981000E+00	  0.105771542	5.876200E+01	  0.105771542	5.431400E+01	  0.105771542	5.199500E+01
430	  0.105971940	-6.976000E+00	  0.105971940	5.852700E+01	  0.105971940	5.453300E+01	  0.105971940	5.212200E+01
431	  0.106172346	-6.975000E+00	  0.106172346	5.831100E+01	  0.106172346	5.474500E+01	  0.106172346	5.221200E+01
432	  0.106372744	-6.979000E+00	  0.106372744	5.809800E+01	  0.106372744	5.496800E+01	  0.106372744	5.226800E+01
433	  0.106573142	-6.976000E+00	  0.106573142	5.785400E+01	  0.106573142	5.520800E+01	  0.106573142	5.237800E+01
434	  0.106773548	-6.978000E+00	  0.106773548	5.766000E+01	  0.106773548	5.540800E+01	  0.106773548	5.244200E+01
435	  0.106973946	-6.975000E+00	  0.106973946	5.743500E+01	  0.106973946	5.563100E+01	  0.106973946	5.254500E+01
436	  0.107174344	-6.968000E+00	  0.107174344	5.723100E+01	  0.107174344	5.582200E+01	  0.107174344	5.267100E+01
437	  0.107374750	-6.969000E+00	  0.107374750	5.700300E+01	  0.107374750	5.605700E+01	  0.107374750	5.275100E+01
438	  0.107575148	-6.970000E+00	  0.107575148	5.676200E+01	  0.107575148	5.631100E+01	  0.107575148	5.283200E+01
439	  0.107775547	-6.969000E+00	  0.107775547	5.652700E+01	  0.107775547	5.655200E+01	  0.107775547	5.292900E+01
440	  0.107975952	-6.971000E+00	  0.107975952	5.634400E+01	  0.107975952	5.674900E+01	  0.107975952	5.297800E+01
441	  0.108176351	-6.968000E+00	  0.108176351	5.612600E+01	  0.108176351	5.697200E+01	  0.108176351	5.307600E+01
442	  0.108376749	-6.965000E+00	  0.108376749	5.589000E+01	  0.108376749	5.721400E+01	  0.108376749	5.318800E+01
443	  0.108577155	-6.962000E+00	  0.108577155	5.566800E+01	  0.108577155	5.744400E+01	  0.108577155	5.328600E+01
444	  0.108777553	-6.966000E+00	  0.108777553	5.545700E+01	  0.108777553	5.767900E+01	  0.108777553	5.333100E+01
445	  0.108977959	-6.963000E+00	  0.108977959	5.525800E+01	  0.108977959	5.788500E+01	  0.108977959	5.342600E+01
446	  0.109178357	-6.960000E+00	  0.109178357	5.502600E+01	  0.109178357	5.813000E+01	  0.109178357	5.352800E+01
447	  0.109378755	-6.963000E+00	  0.109378755	5.480300E+01	  0.109378755	5.837900E+01	  0.109378755	5.358300E+01
448	  0.109579161	-6.962000E+00	  0.109579161	5.457300E+01	  0.109579161	5.863100E+01	  0.109579161	5.366200E+01
449	  0.109779559	-6.958000E+00	  0.109779559	5.436900E+01	  0.109779559	5.884600E+01	  0.109779559	5.376100E+01
450	  0.109979957	-6.958000E+00	  0.109979957	5.411300E+01	  0.109979957	5.912800E+01	  0.109979957	5.385200E+01
451	  0.110180363	-6.962000E+00	  0.110180363	5.394100E+01	  0.110180363	5.933000E+01	  0.110180363	5.387700E+01
452	  0.110380761	-6.960000E+00	  0.110380761	5.370800E+01	  0.110380761	5.958500E+01	  0.110380761	5.397100E+01
453	  0.110581160	-6.958000E+00	  0.110581160	5.350000E+01	  0.110581160	5.981600E+01	  0.110581160	5.404900E+01
454	  0.110781565	-6.956000E+00	  0.110781565	5.327500E+01	  0.110781565	6.006700E+01	  0.110781565	5.413800E+01
455	  0.110981964	-6.956000E+00	  0.110981964	5.303900E+01	  0.110981964	6.033500E+01	  0.110981964	5.421300E+01
456	  0.111182362	-6.954000E+00	  0.111182362	5.283700E+01	  0.111182362	6.056200E+01	  0.111182362	5.429100E+01
457	  0.111382768	-6.955000E+00	  0.111382768	5.260900E+01	  0.111382768	6.082800E+01	  0.111382768	5.435000E+01
458	  0.111583166	-6.953000E+00	  0.111583166	5.238900E+01	  0.111583166	6.107700E+01	  0.111583166	5.443400E+01
459	  0.111783572	-6.955000E+00	  0.111783572	5.218100E+01	  0.111783572	6.132200E+01	  0.111783572	5.448400E+01
460	  0.111983970	-6.949000E+00	  0.111983970	5.196600E+01	  0.111983970	6.156400E+01	  0.111983970	5.458800E+01
461	  0.112184368	-6.951000E+00	  0.112184368	5.174400E+01	  0.112184368	6.182700E+01	  0.112184368	5.464300E+01
462	  0.112384774	-6.950000E+00	  0.112384774	5.152500E+01	  0.112384774	6.208600E+01	  0.112384774	5.470900E+01
463	  0.112585172	-6.946000E+00	  0.112585172	5.132000E+01	  0.112585172	6.232000E+01	  0.112585172	5.480500E+01
464	  0.112785570	-6.945000E+00	  0.112785570	5.110000E+01	  0.112785570	6.258300E+01	  0.112785570	5.486800E+01
465	  0.112985976	-6.945000E+00	  0.112985976	5.088100E+01	  0.112985976	6.284600E+01	  0.112985976	5.493100E+01
466	  0.113186374	-6.948000E+00	  0.113186374	5.064500E+01	  0.113186374	6.313600E+01	  0.113186374	5.497200E+01
467	  0.113386773	-6.946000E+00	  0.113386773	5.043600E+01	  0.113386773	6.338800E+01	  0.113386773	5.504000E+01
468	  0.113587178	-6.947000E+00	  0.113587178	5.023000E+01	  0.113587178	6.363900E+01	  0.113587178	5.509200E+01
469	  0.113787577	-6.944000E+00	  0.113787577	5.002200E+01	  0.113787577	6.388900E+01	  0.113787577	5.516900E+01
470	  0.113987975	-6.946000E+00	  0.113987975	4.978000E+01	  0.113987975	6.419200E+01	  0.113987975	5.521000E+01
471	  0.114188381	-6.943000E+00	  0.114188381	4.957600E+01	  0.114188381	6.444000E+01	  0.114188381	5.528300E+01
472	  0.114388779	-6.940000E+00	  0.114388779	4.935600E+01	  0.114388779	6.470900E+01	  0.114388779	5.536200E+01
473	  0.114589177	-6.943000E+00	  0.114589177	4.912400E+01	  0.114589177	6.500500E+01	  0.114589177	5.539200E+01
474	  0.114789583	-6.940000E+00	  0.114789583	4.893100E+01	  0.114789583	6.524300E+01	  0.114789583	5.546800E+01
475	  0.114989981	-6.939000E+00	  0.114989981	4.869400E+01	  0.114989981	6.554200E+01	  0.114989981	5.552800E+01
476	  0.115190387	-6.937000E+00	  0.115190387	4.848100E+01	  0.115190387	6.581100E+01	  0.115190387	5.559100E+01
477	  0.115390785	-6.937000E+00	  0.115390785	4.826600E+01	  0.115390785	6.608500E+01	  0.115390785	5.563900E+01
478	  0.115591183	-6.937000E+00	  0.115591183	4.806400E+01	  0.115591183	6.634500E+01	  0.115591183	5.568200E+01
479	  0.115791589	-6.936000E+00	  0.115791589	4.784700E+01	  0.115791589	6.662500E+01	  0.115791589	5.573700E+01
480	  0.115991987	-6.934000E+00	  0.115991987	4.762800E+01	  0.115991987	6.690800E+01	  0.115991987	5.579300E+01
481	  0.116192386	-6.929000E+00	  0.116192386	4.740100E+01	  0.116192386	6.719700E+01	  0.116192386	5.588100E+01
482	  0.116392791	-6.931000E+00	  0.116392791	4.717600E+01	  0.116392791	6.749400E+01	  0.116392791	5.591100E+01
483	  0.116593190	-6.931000E+00	  0.116593190	4.696500E+01	  0.116593190	6.777400E+01	  0.116593190	5.594400E+01
484	  0.116793588	-6.932000E+00	  0.116793588	4.675300E+01	  0.116793588	6.805600E+01	  0.116793588	5.597600E+01
485	  0.116993994	-6.930000E+00	  0.116993994	4.651200E+01	  0.116993994	6.837600E+01	  0.116993994	5.603100E+01
486	  0.117194392	-6.929000E+00	  0.117194392	4.631100E+01	  0.117194392	6.864400E+01	  0.117194392	5.607300E+01
487	  0.117394790	-6.932000E+00	  0.117394790	4.610000E+01	  0.117394790	6.893100E+01	  0.117394790	5.608500E+01
488	  0.117595196	-6.928000E+00	  0.117595196	4.586700E+01	  0.117595196	6.924300E+01	  0.117595196	5.615200E+01
489	  0.117795594	-6.931000E+00	  0.117795594	4.566700E+01	  0.117795594	6.951800E+01	  0.117795594	5.615800E+01
490	  0.117995992	-6.927000E+00	  0.117995992	4.546600E+01	  0.117995992	6.978900E+01	  0.117995992	5.622400E+01
491	  0.118196398	-6.929000E+00	  0.118196398	4.524100E+01	  0.118196398	7.009900E+01	  0.118196398	5.623800E+01
492	  0.118396796	-6.928000E+00	  0.118396796	4.501600E+01	  0.118396796	7.040900E+01	  0.118396796	5.627400E+01
493	  0.118597202	-6.927000E+00	  0.118597202	4.480500E+01	  0.118597202	7.070000E+01	  0.118597202	5.631100E+01
494	  0.118797600	-6.923000E+00	  0.118797600	4.460200E+01	  0.118797600	7.098100E+01	  0.118797600	5.636500E+01
495	  0.118997999	-6.924000E+00	  0.118997999	4.436800E+01	  0.118997999	7.130800E+01	  0.118997999	5.638500E+01
496	  0.119198404	-6.920000E+00	  0.119198404	4.415100E+01	  0.119198404	7.161000E+01	  0.119198404	5.644400E+01
497	  0.119398803	-6.922000E+00	  0.119398803	4.393300E+01	  0.119398803	7.192100E+01	  0.119398803	5.644800E+01
498	  0.119599201	-6.921000E+00	  0.119599201	4.370000E+01	  0.119599201	7.225100E+01	  0.119599201	5.646900E+01
499	  0.119799607	-6.924000E+00	  0.119799607	4.348700E+01	  0.119799607	7.255600E+01	  0.119799607	5.645900E+01
500	  0.120000005	-6.920000E+00	  0.120000005	4.328200E+01	  0.120000005	7.284900E+01	  0.120000005	5.650900E+01
