! Anritsu VNA Master:             	Model: MS2036C/10/77
! SN:             	1601066
! /bd0/18may08.cable.cal/unused.49p99.1.txt
! Existing Calibration Information:
! TYPE:             	Current Settings	Active Cal Settings
! TIME:             	05/08/2018 04:29:00 PM	05/08/2018 04:21:58 PM
! INTERNAL TEMP:    	50.0 C	50.0 C
! # POINTS:         	500	500
! START FREQ:       	20.000 MHz	20.000 MHz
! STOP FREQ:        	120.000 MHz	120.000 MHz
! SOURCE POWER:     	High	High
! IFBW:             	50 Hz	50 Hz
! AVG FACTOR:       	  1 	  1 
! REF PLANE 1:      	0 mm	0 mm
! REF PLANE 2:      	0 mm	0 mm
! CAL TYPE:         	Full S11	Full S11
! CAL METHOD:       	SOLT	SOLT
! CAL LINE TYPE:    	Coax	Coax
! DUT PORT 1:       	K-Conn(F)	K-Conn(F)
! DUT PORT 2:       	K-Conn(F)	K-Conn(F)
! CAL STATUS:       	OK: Accuracy High	--
! PROP-V:       	0.700
! CABLE LOSS:       	0.000 dB/m
! REF IMPEDANCE:       	50.0
! Trace Specific Parameters:	TR1	TR2	TR3	TR4
! TRACE.#.Y (GRAPH TYPE)	LOG MAG	PHASE	REAL IMPEDANCE	IMAGINARY IMPEDANCE
! TRACE.#.X 	FREQ.GHZ	FREQ.GHZ	FREQ.GHZ	FREQ.GHZ
! S-PARAMETER	S11	S11	S11	S11
! SMOOTH/APERTURE %	0	0	0	0
! WINDOW	NSL	NSL	NSL	NSL
! GATING	OFF	OFF	OFF	OFF
! FGTD	OFF	OFF	OFF	OFF
Marker Information per Trace:	TR1	TR2	TR3	TR4
!MK1	--	"MK1 TR2:  20.000 MHz,PH:57.56°"	--	--
!MK2	--	--	"MK2 TR3:  70.100 200 MHz,Z:(52.220 ohm, 1.319 ohm)"	--
!MK3	--	--	--	--
!MK4	--	--	--	--
!MK5	--	--	--	--
!MK6	--	--	--	--
!MK7	--	--	--	--
!MK8	--	--	--	--
PNT	TR1.FREQ.GHZ	TR1.LOG MAG.dB	TR2.FREQ.GHZ	TR2.PHASE.deg	TR3.FREQ.GHZ	TR3.REAL IMPEDANCE.ohm	TR4.FREQ.GHZ	TR4.IMAGINARY IMPEDANCE.ohm
1	  0.020000000	-3.976200E+01	  0.020000000	5.756100E+01	  0.020000000	5.054600E+01	  0.020000000	8.760000E-01
2	  0.020200402	-3.971900E+01	  0.020200402	5.785000E+01	  0.020200402	5.054400E+01	  0.020200402	8.840000E-01
3	  0.020400802	-3.971200E+01	  0.020400802	5.809500E+01	  0.020400802	5.054100E+01	  0.020400802	8.870000E-01
4	  0.020601204	-3.961200E+01	  0.020601204	5.753300E+01	  0.020601204	5.055600E+01	  0.020601204	8.920000E-01
5	  0.020801604	-3.949100E+01	  0.020801604	5.714200E+01	  0.020801604	5.057000E+01	  0.020801604	9.000000E-01
6	  0.021002004	-3.947400E+01	  0.021002004	5.717000E+01	  0.021002004	5.057100E+01	  0.021002004	9.030000E-01
7	  0.021202406	-3.944700E+01	  0.021202406	5.745000E+01	  0.021202406	5.056800E+01	  0.021202406	9.080000E-01
8	  0.021402806	-3.935700E+01	  0.021402806	5.640900E+01	  0.021402806	5.059100E+01	  0.021402806	9.070000E-01
9	  0.021603208	-3.930000E+01	  0.021603208	5.656300E+01	  0.021603208	5.059200E+01	  0.021603208	9.150000E-01
10	  0.021803608	-3.920300E+01	  0.021803608	5.696700E+01	  0.021803608	5.059200E+01	  0.021803608	9.290000E-01
11	  0.022004008	-3.914800E+01	  0.022004008	5.697600E+01	  0.022004008	5.059600E+01	  0.022004008	9.350000E-01
12	  0.022204408	-3.911700E+01	  0.022204408	5.710100E+01	  0.022204408	5.059600E+01	  0.022204408	9.400000E-01
13	  0.022404809	-3.906800E+01	  0.022404809	5.678500E+01	  0.022404809	5.060400E+01	  0.022404809	9.420000E-01
14	  0.022605211	-3.892200E+01	  0.022605211	5.640000E+01	  0.022605211	5.062100E+01	  0.022605211	9.540000E-01
15	  0.022805611	-3.901200E+01	  0.022805611	5.637700E+01	  0.022805611	5.061500E+01	  0.022805611	9.440000E-01
16	  0.023006011	-3.890800E+01	  0.023006011	5.564800E+01	  0.023006011	5.063500E+01	  0.023006011	9.480000E-01
17	  0.023206413	-3.875500E+01	  0.023206413	5.601000E+01	  0.023206413	5.064000E+01	  0.023206413	9.690000E-01
18	  0.023406813	-3.880400E+01	  0.023406813	5.612900E+01	  0.023406813	5.063400E+01	  0.023406813	9.650000E-01
19	  0.023607215	-3.877600E+01	  0.023607215	5.570000E+01	  0.023607215	5.064300E+01	  0.023607215	9.630000E-01
20	  0.023807615	-3.864300E+01	  0.023807615	5.603200E+01	  0.023807615	5.064700E+01	  0.023807615	9.820000E-01
21	  0.024008015	-3.860400E+01	  0.024008015	5.566900E+01	  0.024008015	5.065700E+01	  0.024008015	9.820000E-01
22	  0.024208417	-3.850900E+01	  0.024208417	5.537800E+01	  0.024208417	5.066900E+01	  0.024208417	9.900000E-01
23	  0.024408817	-3.852400E+01	  0.024408817	5.567500E+01	  0.024408817	5.066300E+01	  0.024408817	9.910000E-01
24	  0.024609219	-3.846600E+01	  0.024609219	5.577300E+01	  0.024609219	5.066500E+01	  0.024609219	9.990000E-01
25	  0.024809619	-3.840500E+01	  0.024809619	5.501500E+01	  0.024809619	5.068300E+01	  0.024809619	9.980000E-01
26	  0.025010020	-3.831200E+01	  0.025010020	5.526200E+01	  0.025010020	5.068600E+01	  0.025010020	1.011000E+00
27	  0.025210422	-3.822100E+01	  0.025210422	5.493800E+01	  0.025210422	5.069900E+01	  0.025210422	1.018000E+00
28	  0.025410822	-3.827200E+01	  0.025410822	5.547100E+01	  0.025410822	5.068600E+01	  0.025410822	1.019000E+00
29	  0.025611224	-3.816800E+01	  0.025611224	5.510900E+01	  0.025611224	5.070000E+01	  0.025611224	1.027000E+00
30	  0.025811624	-3.818200E+01	  0.025811624	5.491100E+01	  0.025811624	5.070300E+01	  0.025811624	1.023000E+00
31	  0.026012026	-3.805000E+01	  0.026012026	5.431100E+01	  0.026012026	5.072400E+01	  0.026012026	1.031000E+00
32	  0.026212426	-3.801000E+01	  0.026212426	5.501500E+01	  0.026212426	5.071500E+01	  0.026212426	1.045000E+00
33	  0.026412826	-3.797900E+01	  0.026412826	5.507400E+01	  0.026412826	5.071600E+01	  0.026412826	1.049000E+00
34	  0.026613226	-3.796600E+01	  0.026613226	5.474000E+01	  0.026613226	5.072400E+01	  0.026613226	1.047000E+00
35	  0.026813626	-3.786700E+01	  0.026813626	5.426500E+01	  0.026813626	5.074100E+01	  0.026813626	1.053000E+00
36	  0.027014028	-3.783500E+01	  0.027014028	5.443700E+01	  0.027014028	5.074000E+01	  0.027014028	1.059000E+00
37	  0.027214428	-3.779200E+01	  0.027214428	5.439500E+01	  0.027214428	5.074500E+01	  0.027214428	1.064000E+00
38	  0.027414829	-3.771400E+01	  0.027414829	5.461900E+01	  0.027414829	5.074700E+01	  0.027414829	1.076000E+00
39	  0.027615231	-3.769800E+01	  0.027615231	5.398900E+01	  0.027615231	5.076000E+01	  0.027615231	1.070000E+00
40	  0.027815631	-3.763000E+01	  0.027815631	5.362200E+01	  0.027815631	5.077300E+01	  0.027815631	1.074000E+00
41	  0.028016033	-3.761100E+01	  0.028016033	5.416700E+01	  0.028016033	5.076500E+01	  0.028016033	1.083000E+00
42	  0.028216433	-3.750400E+01	  0.028216433	5.395300E+01	  0.028216433	5.077800E+01	  0.028216433	1.094000E+00
43	  0.028416833	-3.750300E+01	  0.028416833	5.353700E+01	  0.028416833	5.078600E+01	  0.028416833	1.089000E+00
44	  0.028617235	-3.747400E+01	  0.028617235	5.372100E+01	  0.028617235	5.078500E+01	  0.028617235	1.095000E+00
45	  0.028817635	-3.743000E+01	  0.028817635	5.347700E+01	  0.028817635	5.079400E+01	  0.028817635	1.097000E+00
46	  0.029018037	-3.735400E+01	  0.029018037	5.356800E+01	  0.029018037	5.079900E+01	  0.029018037	1.108000E+00
47	  0.029218437	-3.734300E+01	  0.029218437	5.339700E+01	  0.029218437	5.080400E+01	  0.029218437	1.107000E+00
48	  0.029418837	-3.729900E+01	  0.029418837	5.295000E+01	  0.029418837	5.081600E+01	  0.029418837	1.107000E+00
49	  0.029619239	-3.725100E+01	  0.029619239	5.333700E+01	  0.029619239	5.081300E+01	  0.029619239	1.118000E+00
50	  0.029819639	-3.717200E+01	  0.029819639	5.287700E+01	  0.029819639	5.083000E+01	  0.029819639	1.122000E+00
51	  0.030020041	-3.712700E+01	  0.030020041	5.290800E+01	  0.030020041	5.083300E+01	  0.030020041	1.129000E+00
52	  0.030220442	-3.709300E+01	  0.030220442	5.284700E+01	  0.030220442	5.083800E+01	  0.030220442	1.132000E+00
53	  0.030420844	-3.709300E+01	  0.030420844	5.297200E+01	  0.030420844	5.083500E+01	  0.030420844	1.134000E+00
54	  0.030621244	-3.702500E+01	  0.030621244	5.261900E+01	  0.030621244	5.084900E+01	  0.030621244	1.138000E+00
55	  0.030821644	-3.694400E+01	  0.030821644	5.245900E+01	  0.030821644	5.086000E+01	  0.030821644	1.146000E+00
56	  0.031022044	-3.694200E+01	  0.031022044	5.246300E+01	  0.031022044	5.086000E+01	  0.031022044	1.147000E+00
57	  0.031222444	-3.688500E+01	  0.031222444	5.272300E+01	  0.031222444	5.086100E+01	  0.031222444	1.158000E+00
58	  0.031422846	-3.687600E+01	  0.031422846	5.227200E+01	  0.031422846	5.087100E+01	  0.031422846	1.153000E+00
59	  0.031623244	-3.686800E+01	  0.031623244	5.208400E+01	  0.031623244	5.087500E+01	  0.031623244	1.151000E+00
60	  0.031823646	-3.678400E+01	  0.031823646	5.246300E+01	  0.031823646	5.087600E+01	  0.031823646	1.168000E+00
61	  0.032024048	-3.675700E+01	  0.032024048	5.206400E+01	  0.032024048	5.088700E+01	  0.032024048	1.166000E+00
62	  0.032224450	-3.666600E+01	  0.032224450	5.181100E+01	  0.032224450	5.090200E+01	  0.032224450	1.174000E+00
63	  0.032424849	-3.665700E+01	  0.032424849	5.154600E+01	  0.032424849	5.090800E+01	  0.032424849	1.171000E+00
64	  0.032625251	-3.661600E+01	  0.032625251	5.131900E+01	  0.032625251	5.091700E+01	  0.032625251	1.173000E+00
65	  0.032825653	-3.664000E+01	  0.032825653	5.158400E+01	  0.032825653	5.090900E+01	  0.032825653	1.174000E+00
66	  0.033026051	-3.652000E+01	  0.033026051	5.144600E+01	  0.033026051	5.092500E+01	  0.033026051	1.189000E+00
67	  0.033226453	-3.655300E+01	  0.033226453	5.120900E+01	  0.033226453	5.092600E+01	  0.033226453	1.180000E+00
68	  0.033426855	-3.646900E+01	  0.033426855	5.073100E+01	  0.033426855	5.094500E+01	  0.033426855	1.184000E+00
69	  0.033627257	-3.641900E+01	  0.033627257	5.120200E+01	  0.033627257	5.094100E+01	  0.033627257	1.199000E+00
70	  0.033827655	-3.635300E+01	  0.033827655	5.084700E+01	  0.033827655	5.095500E+01	  0.033827655	1.202000E+00
71	  0.034028057	-3.632800E+01	  0.034028057	5.092800E+01	  0.034028057	5.095600E+01	  0.034028057	1.207000E+00
72	  0.034228459	-3.634900E+01	  0.034228459	5.063400E+01	  0.034228459	5.096000E+01	  0.034228459	1.199000E+00
73	  0.034428857	-3.627000E+01	  0.034428857	5.059000E+01	  0.034428857	5.097000E+01	  0.034428857	1.210000E+00
74	  0.034629259	-3.625800E+01	  0.034629259	5.031900E+01	  0.034629259	5.097700E+01	  0.034629259	1.207000E+00
75	  0.034829661	-3.610600E+01	  0.034829661	5.046800E+01	  0.034829661	5.099100E+01	  0.034829661	1.231000E+00
76	  0.035030060	-3.619500E+01	  0.035030060	4.999800E+01	  0.035030060	5.099100E+01	  0.035030060	1.210000E+00
77	  0.035230462	-3.614200E+01	  0.035230462	4.973800E+01	  0.035230462	5.100300E+01	  0.035230462	1.213000E+00
78	  0.035430863	-3.609000E+01	  0.035430863	5.011400E+01	  0.035430863	5.100100E+01	  0.035430863	1.227000E+00
79	  0.035631265	-3.605100E+01	  0.035631265	5.012700E+01	  0.035631265	5.100500E+01	  0.035631265	1.233000E+00
80	  0.035831664	-3.601500E+01	  0.035831664	4.993900E+01	  0.035831664	5.101300E+01	  0.035831664	1.235000E+00
81	  0.036032066	-3.599600E+01	  0.036032066	4.976100E+01	  0.036032066	5.101900E+01	  0.036032066	1.235000E+00
82	  0.036232468	-3.595700E+01	  0.036232468	4.987600E+01	  0.036232468	5.102100E+01	  0.036232468	1.243000E+00
83	  0.036432866	-3.592500E+01	  0.036432866	4.936600E+01	  0.036432866	5.103600E+01	  0.036432866	1.238000E+00
84	  0.036633268	-3.591300E+01	  0.036633268	4.940400E+01	  0.036633268	5.103700E+01	  0.036633268	1.241000E+00
85	  0.036833670	-3.585600E+01	  0.036833670	4.918800E+01	  0.036833670	5.104800E+01	  0.036833670	1.245000E+00
86	  0.037034072	-3.582400E+01	  0.037034072	4.926900E+01	  0.037034072	5.105000E+01	  0.037034072	1.251000E+00
87	  0.037234470	-3.581400E+01	  0.037234470	4.905800E+01	  0.037234470	5.105600E+01	  0.037234470	1.249000E+00
88	  0.037434869	-3.574200E+01	  0.037434869	4.889600E+01	  0.037434869	5.106900E+01	  0.037434869	1.256000E+00
89	  0.037635271	-3.568600E+01	  0.037635271	4.906800E+01	  0.037635271	5.107200E+01	  0.037635271	1.268000E+00
90	  0.037835669	-3.568600E+01	  0.037835669	4.887400E+01	  0.037835669	5.107600E+01	  0.037835669	1.264000E+00
91	  0.038036071	-3.566400E+01	  0.038036071	4.857800E+01	  0.038036071	5.108600E+01	  0.038036071	1.262000E+00
92	  0.038236473	-3.558800E+01	  0.038236473	4.862900E+01	  0.038236473	5.109400E+01	  0.038236473	1.274000E+00
93	  0.038436871	-3.557600E+01	  0.038436871	4.817400E+01	  0.038436871	5.110600E+01	  0.038436871	1.267000E+00
94	  0.038637273	-3.553300E+01	  0.038637273	4.855300E+01	  0.038637273	5.110300E+01	  0.038637273	1.281000E+00
95	  0.038837675	-3.549500E+01	  0.038837675	4.812800E+01	  0.038837675	5.111700E+01	  0.038837675	1.279000E+00
96	  0.039038073	-3.548900E+01	  0.039038073	4.810100E+01	  0.039038073	5.111900E+01	  0.039038073	1.279000E+00
97	  0.039238475	-3.548400E+01	  0.039238475	4.820800E+01	  0.039238475	5.111700E+01	  0.039238475	1.282000E+00
98	  0.039438877	-3.541600E+01	  0.039438877	4.813400E+01	  0.039438877	5.112700E+01	  0.039438877	1.291000E+00
99	  0.039639279	-3.537600E+01	  0.039639279	4.768300E+01	  0.039639279	5.114300E+01	  0.039639279	1.288000E+00
100	  0.039839678	-3.535800E+01	  0.039839678	4.775500E+01	  0.039839678	5.114400E+01	  0.039839678	1.292000E+00
101	  0.040040080	-3.537000E+01	  0.040040080	4.738900E+01	  0.040040080	5.115000E+01	  0.040040080	1.283000E+00
102	  0.040240481	-3.531900E+01	  0.040240481	4.734700E+01	  0.040240481	5.115800E+01	  0.040240481	1.290000E+00
103	  0.040440880	-3.521600E+01	  0.040440880	4.764700E+01	  0.040440880	5.116500E+01	  0.040440880	1.312000E+00
104	  0.040641282	-3.521700E+01	  0.040641282	4.733900E+01	  0.040641282	5.117200E+01	  0.040641282	1.305000E+00
105	  0.040841684	-3.517800E+01	  0.040841684	4.731600E+01	  0.040841684	5.117800E+01	  0.040841684	1.311000E+00
106	  0.041042086	-3.510200E+01	  0.041042086	4.741800E+01	  0.041042086	5.118600E+01	  0.041042086	1.325000E+00
107	  0.041242484	-3.513100E+01	  0.041242484	4.708000E+01	  0.041242484	5.119000E+01	  0.041242484	1.313000E+00
108	  0.041442886	-3.507400E+01	  0.041442886	4.713300E+01	  0.041442886	5.119600E+01	  0.041442886	1.323000E+00
109	  0.041643288	-3.510800E+01	  0.041643288	4.657600E+01	  0.041643288	5.120500E+01	  0.041643288	1.306000E+00
110	  0.041843686	-3.504600E+01	  0.041843686	4.657900E+01	  0.041843686	5.121300E+01	  0.041843686	1.316000E+00
111	  0.042044088	-3.495000E+01	  0.042044088	4.662200E+01	  0.042044088	5.122600E+01	  0.042044088	1.332000E+00
112	  0.042244490	-3.502500E+01	  0.042244490	4.649900E+01	  0.042244490	5.121800E+01	  0.042244490	1.317000E+00
113	  0.042444889	-3.496800E+01	  0.042444889	4.619100E+01	  0.042444889	5.123300E+01	  0.042444889	1.320000E+00
114	  0.042645290	-3.490500E+01	  0.042645290	4.642400E+01	  0.042645290	5.123700E+01	  0.042645290	1.334000E+00
115	  0.042845692	-3.485500E+01	  0.042845692	4.597800E+01	  0.042845692	5.125500E+01	  0.042845692	1.333000E+00
116	  0.043046094	-3.486900E+01	  0.043046094	4.621200E+01	  0.043046094	5.124700E+01	  0.043046094	1.336000E+00
117	  0.043246493	-3.483100E+01	  0.043246493	4.593600E+01	  0.043246493	5.125900E+01	  0.043246493	1.336000E+00
118	  0.043446895	-3.482700E+01	  0.043446895	4.567800E+01	  0.043446895	5.126600E+01	  0.043446895	1.331000E+00
119	  0.043647297	-3.474100E+01	  0.043647297	4.580800E+01	  0.043647297	5.127500E+01	  0.043647297	1.347000E+00
120	  0.043847695	-3.474900E+01	  0.043847695	4.593300E+01	  0.043847695	5.127100E+01	  0.043847695	1.348000E+00
121	  0.044048097	-3.471300E+01	  0.044048097	4.591700E+01	  0.044048097	5.127700E+01	  0.044048097	1.354000E+00
122	  0.044248499	-3.466700E+01	  0.044248499	4.530100E+01	  0.044248499	5.129800E+01	  0.044248499	1.347000E+00
123	  0.044448901	-3.467600E+01	  0.044448901	4.530400E+01	  0.044448901	5.129700E+01	  0.044448901	1.346000E+00
124	  0.044649299	-3.462600E+01	  0.044649299	4.509100E+01	  0.044649299	5.131000E+01	  0.044649299	1.349000E+00
125	  0.044849701	-3.460100E+01	  0.044849701	4.510600E+01	  0.044849701	5.131300E+01	  0.044849701	1.353000E+00
126	  0.045050103	-3.453700E+01	  0.045050103	4.505300E+01	  0.045050103	5.132400E+01	  0.045050103	1.363000E+00
127	  0.045250501	-3.454500E+01	  0.045250501	4.496500E+01	  0.045250501	5.132500E+01	  0.045250501	1.359000E+00
128	  0.045450903	-3.448600E+01	  0.045450903	4.490700E+01	  0.045450903	5.133500E+01	  0.045450903	1.367000E+00
129	  0.045651305	-3.446500E+01	  0.045651305	4.477700E+01	  0.045651305	5.134200E+01	  0.045651305	1.368000E+00
130	  0.045851704	-3.438600E+01	  0.045851704	4.461700E+01	  0.045851704	5.135800E+01	  0.045851704	1.377000E+00
131	  0.046052106	-3.443100E+01	  0.046052106	4.454100E+01	  0.046052106	5.135300E+01	  0.046052106	1.368000E+00
132	  0.046252504	-3.444000E+01	  0.046252504	4.440500E+01	  0.046252504	5.135500E+01	  0.046252504	1.363000E+00
133	  0.046452906	-3.438200E+01	  0.046452906	4.444000E+01	  0.046452906	5.136300E+01	  0.046452906	1.373000E+00
134	  0.046653304	-3.439000E+01	  0.046653304	4.420600E+01	  0.046653304	5.136700E+01	  0.046653304	1.366000E+00
135	  0.046853706	-3.432700E+01	  0.046853706	4.396200E+01	  0.046853706	5.138300E+01	  0.046853706	1.371000E+00
136	  0.047054108	-3.431100E+01	  0.047054108	4.423900E+01	  0.047054108	5.137900E+01	  0.047054108	1.380000E+00
137	  0.047254506	-3.425800E+01	  0.047254506	4.392500E+01	  0.047254506	5.139500E+01	  0.047254506	1.381000E+00
138	  0.047454908	-3.422300E+01	  0.047454908	4.396400E+01	  0.047454908	5.140000E+01	  0.047454908	1.388000E+00
139	  0.047655310	-3.419000E+01	  0.047655310	4.393300E+01	  0.047655310	5.140600E+01	  0.047655310	1.392000E+00
140	  0.047855709	-3.418700E+01	  0.047855709	4.358900E+01	  0.047855709	5.141500E+01	  0.047855709	1.384000E+00
141	  0.048056111	-3.416500E+01	  0.048056111	4.320000E+01	  0.048056111	5.142800E+01	  0.048056111	1.378000E+00
142	  0.048256513	-3.414900E+01	  0.048256513	4.308000E+01	  0.048256513	5.143400E+01	  0.048256513	1.378000E+00
143	  0.048456915	-3.413800E+01	  0.048456915	4.321700E+01	  0.048456915	5.143200E+01	  0.048456915	1.383000E+00
144	  0.048657313	-3.407400E+01	  0.048657313	4.303700E+01	  0.048657313	5.144800E+01	  0.048657313	1.389000E+00
145	  0.048857715	-3.411800E+01	  0.048857715	4.291600E+01	  0.048857715	5.144300E+01	  0.048857715	1.379000E+00
146	  0.049058117	-3.404000E+01	  0.049058117	4.263600E+01	  0.049058117	5.146300E+01	  0.049058117	1.385000E+00
147	  0.049258515	-3.403500E+01	  0.049258515	4.281100E+01	  0.049258515	5.146000E+01	  0.049258515	1.390000E+00
148	  0.049458917	-3.400500E+01	  0.049458917	4.289300E+01	  0.049458917	5.146300E+01	  0.049458917	1.397000E+00
149	  0.049659319	-3.399500E+01	  0.049659319	4.251600E+01	  0.049659319	5.147400E+01	  0.049659319	1.389000E+00
150	  0.049859721	-3.399100E+01	  0.049859721	4.234600E+01	  0.049859721	5.147900E+01	  0.049859721	1.385000E+00
151	  0.050060119	-3.392100E+01	  0.050060119	4.238600E+01	  0.050060119	5.149000E+01	  0.050060119	1.398000E+00
152	  0.050260521	-3.388700E+01	  0.050260521	4.216800E+01	  0.050260521	5.150100E+01	  0.050260521	1.398000E+00
153	  0.050460923	-3.392500E+01	  0.050460923	4.198200E+01	  0.050460923	5.149900E+01	  0.050460923	1.387000E+00
154	  0.050661322	-3.391600E+01	  0.050661322	4.153800E+01	  0.050661322	5.151200E+01	  0.050661322	1.376000E+00
155	  0.050861724	-3.382600E+01	  0.050861724	4.192400E+01	  0.050861724	5.151800E+01	  0.050861724	1.401000E+00
156	  0.051062126	-3.382300E+01	  0.051062126	4.151500E+01	  0.051062126	5.152900E+01	  0.051062126	1.391000E+00
157	  0.051262524	-3.380800E+01	  0.051262524	4.135700E+01	  0.051262524	5.153500E+01	  0.051262524	1.389000E+00
158	  0.051462926	-3.374200E+01	  0.051462926	4.123700E+01	  0.051462926	5.155000E+01	  0.051462926	1.397000E+00
159	  0.051663328	-3.373300E+01	  0.051663328	4.108100E+01	  0.051663328	5.155600E+01	  0.051663328	1.394000E+00
160	  0.051863730	-3.368900E+01	  0.051863730	4.095500E+01	  0.051863730	5.156700E+01	  0.051863730	1.398000E+00
161	  0.052064128	-3.366400E+01	  0.052064128	4.072100E+01	  0.052064128	5.157700E+01	  0.052064128	1.396000E+00
162	  0.052264530	-3.367200E+01	  0.052264530	4.113100E+01	  0.052264530	5.156500E+01	  0.052264530	1.406000E+00
163	  0.052464932	-3.364900E+01	  0.052464932	4.075000E+01	  0.052464932	5.157900E+01	  0.052464932	1.399000E+00
164	  0.052665330	-3.365500E+01	  0.052665330	4.044700E+01	  0.052665330	5.158600E+01	  0.052665330	1.390000E+00
165	  0.052865732	-3.360000E+01	  0.052865732	4.053700E+01	  0.052865732	5.159300E+01	  0.052865732	1.401000E+00
166	  0.053066134	-3.355900E+01	  0.053066134	4.031300E+01	  0.053066134	5.160700E+01	  0.053066134	1.402000E+00
167	  0.053266536	-3.355700E+01	  0.053266536	3.996600E+01	  0.053266536	5.161600E+01	  0.053266536	1.392000E+00
168	  0.053466935	-3.352900E+01	  0.053466935	4.015000E+01	  0.053466935	5.161600E+01	  0.053466935	1.402000E+00
169	  0.053667337	-3.349600E+01	  0.053667337	4.007000E+01	  0.053667337	5.162500E+01	  0.053667337	1.406000E+00
170	  0.053867739	-3.351900E+01	  0.053867739	3.983300E+01	  0.053867739	5.162600E+01	  0.053867739	1.395000E+00
171	  0.054068137	-3.345000E+01	  0.054068137	3.982800E+01	  0.054068137	5.163900E+01	  0.054068137	1.406000E+00
172	  0.054268539	-3.339100E+01	  0.054268539	3.968900E+01	  0.054268539	5.165400E+01	  0.054268539	1.412000E+00
173	  0.054468941	-3.342500E+01	  0.054468941	3.955300E+01	  0.054468941	5.165100E+01	  0.054468941	1.402000E+00
174	  0.054669339	-3.343600E+01	  0.054669339	3.967000E+01	  0.054669339	5.164600E+01	  0.054669339	1.404000E+00
175	  0.054869737	-3.336100E+01	  0.054869737	3.938300E+01	  0.054869737	5.166800E+01	  0.054869737	1.408000E+00
176	  0.055070139	-3.333600E+01	  0.055070139	3.909900E+01	  0.055070139	5.168000E+01	  0.055070139	1.404000E+00
177	  0.055270538	-3.332600E+01	  0.055270538	3.909000E+01	  0.055270538	5.168200E+01	  0.055270538	1.405000E+00
178	  0.055470940	-3.331400E+01	  0.055470940	3.892800E+01	  0.055470940	5.168900E+01	  0.055470940	1.403000E+00
179	  0.055671342	-3.328000E+01	  0.055671342	3.878200E+01	  0.055671342	5.169900E+01	  0.055671342	1.404000E+00
180	  0.055871744	-3.327700E+01	  0.055871744	3.869700E+01	  0.055871744	5.170200E+01	  0.055871744	1.402000E+00
181	  0.056072142	-3.325300E+01	  0.056072142	3.877600E+01	  0.056072142	5.170400E+01	  0.056072142	1.408000E+00
182	  0.056272544	-3.321000E+01	  0.056272544	3.845000E+01	  0.056272544	5.172100E+01	  0.056272544	1.406000E+00
183	  0.056472946	-3.323100E+01	  0.056472946	3.826100E+01	  0.056472946	5.172200E+01	  0.056472946	1.397000E+00
184	  0.056673344	-3.316800E+01	  0.056673344	3.807700E+01	  0.056673344	5.173900E+01	  0.056673344	1.401000E+00
185	  0.056873746	-3.317800E+01	  0.056873746	3.796800E+01	  0.056873746	5.174000E+01	  0.056873746	1.396000E+00
186	  0.057074148	-3.315000E+01	  0.057074148	3.795900E+01	  0.057074148	5.174600E+01	  0.057074148	1.401000E+00
187	  0.057274550	-3.310300E+01	  0.057274550	3.783000E+01	  0.057274550	5.175800E+01	  0.057274550	1.405000E+00
188	  0.057474948	-3.308500E+01	  0.057474948	3.748200E+01	  0.057474948	5.177100E+01	  0.057474948	1.397000E+00
189	  0.057675350	-3.304500E+01	  0.057675350	3.734400E+01	  0.057675350	5.178300E+01	  0.057675350	1.399000E+00
190	  0.057875752	-3.304300E+01	  0.057875752	3.724300E+01	  0.057875752	5.178600E+01	  0.057875752	1.397000E+00
191	  0.058076151	-3.303700E+01	  0.058076151	3.735700E+01	  0.058076151	5.178400E+01	  0.058076151	1.401000E+00
192	  0.058276553	-3.300300E+01	  0.058276553	3.741700E+01	  0.058276553	5.179000E+01	  0.058276553	1.409000E+00
193	  0.058476955	-3.296900E+01	  0.058476955	3.686000E+01	  0.058476955	5.181100E+01	  0.058476955	1.397000E+00
194	  0.058677353	-3.302100E+01	  0.058677353	3.695800E+01	  0.058677353	5.179700E+01	  0.058677353	1.391000E+00
195	  0.058877755	-3.295200E+01	  0.058877755	3.707600E+01	  0.058877755	5.180900E+01	  0.058877755	1.406000E+00
196	  0.059078157	-3.294100E+01	  0.059078157	3.627900E+01	  0.059078157	5.183100E+01	  0.059078157	1.383000E+00
197	  0.059278559	-3.294700E+01	  0.059278559	3.664100E+01	  0.059278559	5.182100E+01	  0.059278559	1.393000E+00
198	  0.059478957	-3.289000E+01	  0.059478957	3.651500E+01	  0.059478957	5.183600E+01	  0.059478957	1.399000E+00
199	  0.059679359	-3.283500E+01	  0.059679359	3.632000E+01	  0.059679359	5.185300E+01	  0.059679359	1.402000E+00
200	  0.059879761	-3.286500E+01	  0.059879761	3.609400E+01	  0.059879761	5.185200E+01	  0.059879761	1.389000E+00
201	  0.060080159	-3.284400E+01	  0.060080159	3.606200E+01	  0.060080159	5.185800E+01	  0.060080159	1.392000E+00
202	  0.060280561	-3.287500E+01	  0.060280561	3.603600E+01	  0.060280561	5.185100E+01	  0.060280561	1.386000E+00
203	  0.060480963	-3.278300E+01	  0.060480963	3.607200E+01	  0.060480963	5.187000E+01	  0.060480963	1.402000E+00
204	  0.060681365	-3.281900E+01	  0.060681365	3.567500E+01	  0.060681365	5.187300E+01	  0.060681365	1.383000E+00
205	  0.060881764	-3.277900E+01	  0.060881764	3.547600E+01	  0.060881764	5.188600E+01	  0.060881764	1.383000E+00
206	  0.061082166	-3.278000E+01	  0.061082166	3.555800E+01	  0.061082166	5.188400E+01	  0.061082166	1.386000E+00
207	  0.061282568	-3.273900E+01	  0.061282568	3.556200E+01	  0.061282568	5.189300E+01	  0.061282568	1.393000E+00
208	  0.061482966	-3.274700E+01	  0.061482966	3.534100E+01	  0.061482966	5.189700E+01	  0.061482966	1.384000E+00
209	  0.061683368	-3.267200E+01	  0.061683368	3.524300E+01	  0.061683368	5.191600E+01	  0.061683368	1.393000E+00
210	  0.061883770	-3.265600E+01	  0.061883770	3.506400E+01	  0.061883770	5.192400E+01	  0.061883770	1.390000E+00
211	  0.062084168	-3.268900E+01	  0.062084168	3.485900E+01	  0.062084168	5.192200E+01	  0.062084168	1.377000E+00
212	  0.062284570	-3.260500E+01	  0.062284570	3.476500E+01	  0.062284570	5.194300E+01	  0.062284570	1.388000E+00
213	  0.062484972	-3.260500E+01	  0.062484972	3.488700E+01	  0.062484972	5.194000E+01	  0.062484972	1.392000E+00
214	  0.062685370	-3.256400E+01	  0.062685370	3.468500E+01	  0.062685370	5.195400E+01	  0.062685370	1.392000E+00
215	  0.062885776	-3.261500E+01	  0.062885776	3.473700E+01	  0.062885776	5.194100E+01	  0.062885776	1.386000E+00
216	  0.063086174	-3.252900E+01	  0.063086174	3.444000E+01	  0.063086174	5.196800E+01	  0.063086174	1.389000E+00
217	  0.063286573	-3.247800E+01	  0.063286573	3.458400E+01	  0.063286573	5.197600E+01	  0.063286573	1.403000E+00
218	  0.063486971	-3.248700E+01	  0.063486971	3.433500E+01	  0.063486971	5.198100E+01	  0.063486971	1.393000E+00
219	  0.063687377	-3.253000E+01	  0.063687377	3.443500E+01	  0.063687377	5.196800E+01	  0.063687377	1.389000E+00
220	  0.063887775	-3.251000E+01	  0.063887775	3.397800E+01	  0.063887775	5.198400E+01	  0.063887775	1.377000E+00
221	  0.064088173	-3.242700E+01	  0.064088173	3.384500E+01	  0.064088173	5.200700E+01	  0.064088173	1.386000E+00
222	  0.064288579	-3.245400E+01	  0.064288579	3.378700E+01	  0.064288579	5.200200E+01	  0.064288579	1.379000E+00
223	  0.064488977	-3.241500E+01	  0.064488977	3.358900E+01	  0.064488977	5.201600E+01	  0.064488977	1.379000E+00
224	  0.064689375	-3.237300E+01	  0.064689375	3.358000E+01	  0.064689375	5.202600E+01	  0.064689375	1.385000E+00
225	  0.064889781	-3.237000E+01	  0.064889781	3.329900E+01	  0.064889781	5.203400E+01	  0.064889781	1.375000E+00
226	  0.065090179	-3.233000E+01	  0.065090179	3.307500E+01	  0.065090179	5.204900E+01	  0.065090179	1.374000E+00
227	  0.065290578	-3.231100E+01	  0.065290578	3.324900E+01	  0.065290578	5.204900E+01	  0.065290578	1.384000E+00
228	  0.065490983	-3.231600E+01	  0.065490983	3.303100E+01	  0.065490983	5.205400E+01	  0.065490983	1.375000E+00
229	  0.065691382	-3.228500E+01	  0.065691382	3.299800E+01	  0.065691382	5.206200E+01	  0.065691382	1.379000E+00
230	  0.065891780	-3.231100E+01	  0.065891780	3.282400E+01	  0.065891780	5.206000E+01	  0.065891780	1.368000E+00
231	  0.066092186	-3.226600E+01	  0.066092186	3.266400E+01	  0.066092186	5.207500E+01	  0.066092186	1.370000E+00
232	  0.066292584	-3.223900E+01	  0.066292584	3.257500E+01	  0.066292584	5.208300E+01	  0.066292584	1.371000E+00
233	  0.066492982	-3.223200E+01	  0.066492982	3.274000E+01	  0.066492982	5.208100E+01	  0.066492982	1.378000E+00
234	  0.066693388	-3.219300E+01	  0.066693388	3.247000E+01	  0.066693388	5.209700E+01	  0.066693388	1.374000E+00
235	  0.066893786	-3.222400E+01	  0.066893786	3.197700E+01	  0.066893786	5.210200E+01	  0.066893786	1.351000E+00
236	  0.067094192	-3.220700E+01	  0.067094192	3.205700E+01	  0.067094192	5.210400E+01	  0.067094192	1.357000E+00
237	  0.067294590	-3.212700E+01	  0.067294590	3.179900E+01	  0.067294590	5.213000E+01	  0.067294590	1.360000E+00
238	  0.067494988	-3.217400E+01	  0.067494988	3.196700E+01	  0.067494988	5.211500E+01	  0.067494988	1.359000E+00
239	  0.067695394	-3.212700E+01	  0.067695394	3.158500E+01	  0.067695394	5.213600E+01	  0.067695394	1.352000E+00
240	  0.067895792	-3.214800E+01	  0.067895792	3.159100E+01	  0.067895792	5.213000E+01	  0.067895792	1.349000E+00
241	  0.068096191	-3.210600E+01	  0.068096191	3.127800E+01	  0.068096191	5.214800E+01	  0.068096191	1.344000E+00
242	  0.068296596	-3.213100E+01	  0.068296596	3.136800E+01	  0.068296596	5.214000E+01	  0.068296596	1.343000E+00
243	  0.068496995	-3.205700E+01	  0.068496995	3.108500E+01	  0.068496995	5.216500E+01	  0.068496995	1.344000E+00
244	  0.068697393	-3.204300E+01	  0.068697393	3.132700E+01	  0.068697393	5.216300E+01	  0.068697393	1.356000E+00
245	  0.068897791	-3.204900E+01	  0.068897791	3.117800E+01	  0.068897791	5.216500E+01	  0.068897791	1.349000E+00
246	  0.069098189	-3.205900E+01	  0.069098189	3.102500E+01	  0.069098189	5.216700E+01	  0.069098189	1.342000E+00
247	  0.069298595	-3.197500E+01	  0.069298595	3.061300E+01	  0.069298595	5.219800E+01	  0.069298595	1.340000E+00
248	  0.069498993	-3.198800E+01	  0.069498993	3.059100E+01	  0.069498993	5.219500E+01	  0.069498993	1.336000E+00
249	  0.069699399	-3.200100E+01	  0.069699399	3.048500E+01	  0.069699399	5.219400E+01	  0.069699399	1.330000E+00
250	  0.069899797	-3.191900E+01	  0.069899797	3.045300E+01	  0.069899797	5.221600E+01	  0.069899797	1.342000E+00
251	  0.070100196	-3.195000E+01	  0.070100196	2.997200E+01	  0.070100196	5.222000E+01	  0.070100196	1.318000E+00
252	  0.070300601	-3.193300E+01	  0.070300601	2.996900E+01	  0.070300601	5.222400E+01	  0.070300601	1.321000E+00
253	  0.070501000	-3.191000E+01	  0.070501000	2.997200E+01	  0.070501000	5.223000E+01	  0.070501000	1.325000E+00
254	  0.070701398	-3.190800E+01	  0.070701398	2.973800E+01	  0.070701398	5.223600E+01	  0.070701398	1.316000E+00
255	  0.070901804	-3.186100E+01	  0.070901804	2.948900E+01	  0.070901804	5.225500E+01	  0.070901804	1.313000E+00
256	  0.071102202	-3.185000E+01	  0.071102202	2.915700E+01	  0.071102202	5.226600E+01	  0.071102202	1.302000E+00
257	  0.071302600	-3.186500E+01	  0.071302600	2.931900E+01	  0.071302600	5.225800E+01	  0.071302600	1.306000E+00
258	  0.071503006	-3.182200E+01	  0.071503006	2.929100E+01	  0.071503006	5.227000E+01	  0.071503006	1.312000E+00
259	  0.071703404	-3.178700E+01	  0.071703404	2.924900E+01	  0.071703404	5.228000E+01	  0.071703404	1.316000E+00
260	  0.071903802	-3.178000E+01	  0.071903802	2.882300E+01	  0.071903802	5.229200E+01	  0.071903802	1.299000E+00
261	  0.072104208	-3.179800E+01	  0.072104208	2.888900E+01	  0.072104208	5.228600E+01	  0.072104208	1.299000E+00
262	  0.072304606	-3.177000E+01	  0.072304606	2.831300E+01	  0.072304606	5.230700E+01	  0.072304606	1.280000E+00
263	  0.072505005	-3.179000E+01	  0.072505005	2.849600E+01	  0.072505005	5.229700E+01	  0.072505005	1.284000E+00
264	  0.072705410	-3.176400E+01	  0.072705410	2.866100E+01	  0.072705410	5.230000E+01	  0.072705410	1.295000E+00
265	  0.072905809	-3.171900E+01	  0.072905809	2.845900E+01	  0.072905809	5.231700E+01	  0.072905809	1.294000E+00
266	  0.073106214	-3.170100E+01	  0.073106214	2.824300E+01	  0.073106214	5.232700E+01	  0.073106214	1.288000E+00
267	  0.073306613	-3.170900E+01	  0.073306613	2.821600E+01	  0.073306613	5.232600E+01	  0.073306613	1.286000E+00
268	  0.073507011	-3.166800E+01	  0.073507011	2.812000E+01	  0.073507011	5.233900E+01	  0.073507011	1.288000E+00
269	  0.073707417	-3.164400E+01	  0.073707417	2.778500E+01	  0.073707417	5.235400E+01	  0.073707417	1.278000E+00
270	  0.073907815	-3.168400E+01	  0.073907815	2.788100E+01	  0.073907815	5.234000E+01	  0.073907815	1.276000E+00
271	  0.074108213	-3.165700E+01	  0.074108213	2.768500E+01	  0.074108213	5.235200E+01	  0.074108213	1.272000E+00
272	  0.074308619	-3.161900E+01	  0.074308619	2.786000E+01	  0.074308619	5.235900E+01	  0.074308619	1.285000E+00
273	  0.074509017	-3.164000E+01	  0.074509017	2.719800E+01	  0.074509017	5.236800E+01	  0.074509017	1.254000E+00
274	  0.074709415	-3.162000E+01	  0.074709415	2.743600E+01	  0.074709415	5.236800E+01	  0.074709415	1.267000E+00
275	  0.074909821	-3.158600E+01	  0.074909821	2.731900E+01	  0.074909821	5.238100E+01	  0.074909821	1.267000E+00
276	  0.075110219	-3.159900E+01	  0.075110219	2.722000E+01	  0.075110219	5.237900E+01	  0.075110219	1.261000E+00
277	  0.075310618	-3.154000E+01	  0.075310618	2.702700E+01	  0.075310618	5.240000E+01	  0.075310618	1.262000E+00
278	  0.075511023	-3.152800E+01	  0.075511023	2.685100E+01	  0.075511023	5.240700E+01	  0.075511023	1.256000E+00
279	  0.075711422	-3.153200E+01	  0.075711422	2.677500E+01	  0.075711422	5.240800E+01	  0.075711422	1.252000E+00
280	  0.075911827	-3.155300E+01	  0.075911827	2.653800E+01	  0.075911827	5.240800E+01	  0.075911827	1.239000E+00
281	  0.076112226	-3.149200E+01	  0.076112226	2.662800E+01	  0.076112226	5.242300E+01	  0.076112226	1.252000E+00
282	  0.076312624	-3.147600E+01	  0.076312624	2.640500E+01	  0.076312624	5.243200E+01	  0.076312624	1.245000E+00
283	  0.076513030	-3.148000E+01	  0.076513030	2.603700E+01	  0.076513030	5.244000E+01	  0.076513030	1.228000E+00
284	  0.076713428	-3.144800E+01	  0.076713428	2.611600E+01	  0.076713428	5.244700E+01	  0.076713428	1.236000E+00
285	  0.076913826	-3.144600E+01	  0.076913826	2.599100E+01	  0.076913826	5.245000E+01	  0.076913826	1.231000E+00
286	  0.077114232	-3.143000E+01	  0.077114232	2.577500E+01	  0.077114232	5.246000E+01	  0.077114232	1.224000E+00
287	  0.077314630	-3.141300E+01	  0.077314630	2.576100E+01	  0.077314630	5.246500E+01	  0.077314630	1.226000E+00
288	  0.077515028	-3.139200E+01	  0.077515028	2.575200E+01	  0.077515028	5.247200E+01	  0.077515028	1.229000E+00
289	  0.077715434	-3.140800E+01	  0.077715434	2.552600E+01	  0.077715434	5.247200E+01	  0.077715434	1.216000E+00
290	  0.077915832	-3.138000E+01	  0.077915832	2.550000E+01	  0.077915832	5.248000E+01	  0.077915832	1.219000E+00
291	  0.078116231	-3.131700E+01	  0.078116231	2.555200E+01	  0.078116231	5.249800E+01	  0.078116231	1.231000E+00
292	  0.078316636	-3.138300E+01	  0.078316636	2.542900E+01	  0.078316636	5.248100E+01	  0.078316636	1.216000E+00
293	  0.078517035	-3.128700E+01	  0.078517035	2.523600E+01	  0.078517035	5.251400E+01	  0.078517035	1.221000E+00
294	  0.078717433	-3.126300E+01	  0.078717433	2.481500E+01	  0.078717433	5.253000E+01	  0.078717433	1.206000E+00
295	  0.078917839	-3.130700E+01	  0.078917839	2.481300E+01	  0.078917839	5.251700E+01	  0.078917839	1.200000E+00
296	  0.079118237	-3.127400E+01	  0.079118237	2.446700E+01	  0.079118237	5.253500E+01	  0.079118237	1.189000E+00
297	  0.079318643	-3.125800E+01	  0.079318643	2.465300E+01	  0.079318643	5.253500E+01	  0.079318643	1.199000E+00
298	  0.079519041	-3.126800E+01	  0.079519041	2.438800E+01	  0.079519041	5.253800E+01	  0.079519041	1.186000E+00
299	  0.079719439	-3.124200E+01	  0.079719439	2.426800E+01	  0.079719439	5.254800E+01	  0.079719439	1.184000E+00
300	  0.079919845	-3.122500E+01	  0.079919845	2.427300E+01	  0.079919845	5.255400E+01	  0.079919845	1.187000E+00
301	  0.080120243	-3.123300E+01	  0.080120243	2.405200E+01	  0.080120243	5.255600E+01	  0.080120243	1.176000E+00
302	  0.080320641	-3.121900E+01	  0.080320641	2.392800E+01	  0.080320641	5.256300E+01	  0.080320641	1.172000E+00
303	  0.080521047	-3.116200E+01	  0.080521047	2.378900E+01	  0.080521047	5.258300E+01	  0.080521047	1.174000E+00
304	  0.080721445	-3.115600E+01	  0.080721445	2.349900E+01	  0.080721445	5.259100E+01	  0.080721445	1.161000E+00
305	  0.080921844	-3.115400E+01	  0.080921844	2.331500E+01	  0.080921844	5.259500E+01	  0.080921844	1.153000E+00
306	  0.081122249	-3.118500E+01	  0.081122249	2.359100E+01	  0.081122249	5.258000E+01	  0.081122249	1.161000E+00
307	  0.081322648	-3.116200E+01	  0.081322648	2.294600E+01	  0.081322648	5.260100E+01	  0.081322648	1.135000E+00
308	  0.081523046	-3.114200E+01	  0.081523046	2.323900E+01	  0.081523046	5.260100E+01	  0.081523046	1.151000E+00
309	  0.081723452	-3.111700E+01	  0.081723452	2.312700E+01	  0.081723452	5.261100E+01	  0.081723452	1.149000E+00
310	  0.081923850	-3.110200E+01	  0.081923850	2.314400E+01	  0.081923850	5.261500E+01	  0.081923850	1.152000E+00
311	  0.082124248	-3.109800E+01	  0.082124248	2.280400E+01	  0.082124248	5.262400E+01	  0.082124248	1.137000E+00
312	  0.082324654	-3.109000E+01	  0.082324654	2.266800E+01	  0.082324654	5.262900E+01	  0.082324654	1.132000E+00
313	  0.082525052	-3.109000E+01	  0.082525052	2.275200E+01	  0.082525052	5.262700E+01	  0.082525052	1.136000E+00
314	  0.082725458	-3.108300E+01	  0.082725458	2.237500E+01	  0.082725458	5.263700E+01	  0.082725458	1.119000E+00
315	  0.082925856	-3.103900E+01	  0.082925856	2.219700E+01	  0.082925856	5.265400E+01	  0.082925856	1.117000E+00
316	  0.083126254	-3.103500E+01	  0.083126254	2.222900E+01	  0.083126254	5.265500E+01	  0.083126254	1.119000E+00
317	  0.083326660	-3.101200E+01	  0.083326660	2.208700E+01	  0.083326660	5.266500E+01	  0.083326660	1.115000E+00
318	  0.083527058	-3.099000E+01	  0.083527058	2.190100E+01	  0.083527058	5.267600E+01	  0.083527058	1.109000E+00
319	  0.083727457	-3.100000E+01	  0.083727457	2.157500E+01	  0.083727457	5.267900E+01	  0.083727457	1.092000E+00
320	  0.083927862	-3.095100E+01	  0.083927862	2.168400E+01	  0.083927862	5.269300E+01	  0.083927862	1.104000E+00
321	  0.084128261	-3.098900E+01	  0.084128261	2.164100E+01	  0.084128261	5.268100E+01	  0.084128261	1.097000E+00
322	  0.084328659	-3.095500E+01	  0.084328659	2.142200E+01	  0.084328659	5.269600E+01	  0.084328659	1.091000E+00
323	  0.084529065	-3.095000E+01	  0.084529065	2.116300E+01	  0.084529065	5.270300E+01	  0.084529065	1.079000E+00
324	  0.084729463	-3.092200E+01	  0.084729463	2.110100E+01	  0.084729463	5.271300E+01	  0.084729463	1.080000E+00
325	  0.084929861	-3.093500E+01	  0.084929861	2.073200E+01	  0.084929861	5.271700E+01	  0.084929861	1.060000E+00
326	  0.085130267	-3.092300E+01	  0.085130267	2.094200E+01	  0.085130267	5.271600E+01	  0.085130267	1.072000E+00
327	  0.085330658	-3.091000E+01	  0.085330658	2.090000E+01	  0.085330658	5.272100E+01	  0.085330658	1.072000E+00
328	  0.085531056	-3.092100E+01	  0.085531056	2.072700E+01	  0.085531056	5.272100E+01	  0.085531056	1.062000E+00
329	  0.085731462	-3.089800E+01	  0.085731462	2.070000E+01	  0.085731462	5.272900E+01	  0.085731462	1.063000E+00
330	  0.085931860	-3.087200E+01	  0.085931860	2.064900E+01	  0.085931860	5.273800E+01	  0.085931860	1.064000E+00
331	  0.086132258	-3.086300E+01	  0.086132258	2.053000E+01	  0.086132258	5.274400E+01	  0.086132258	1.060000E+00
332	  0.086332664	-3.087200E+01	  0.086332664	2.005500E+01	  0.086332664	5.275000E+01	  0.086332664	1.035000E+00
333	  0.086533062	-3.081500E+01	  0.086533062	2.011400E+01	  0.086533062	5.276700E+01	  0.086533062	1.045000E+00
334	  0.086733460	-3.082600E+01	  0.086733460	2.008200E+01	  0.086733460	5.276400E+01	  0.086733460	1.042000E+00
335	  0.086933866	-3.083100E+01	  0.086933866	1.985300E+01	  0.086933866	5.276700E+01	  0.086933866	1.030000E+00
336	  0.087134264	-3.081100E+01	  0.087134264	1.972700E+01	  0.087134264	5.277600E+01	  0.087134264	1.026000E+00
337	  0.087334670	-3.079900E+01	  0.087334670	1.949200E+01	  0.087334670	5.278400E+01	  0.087334670	1.016000E+00
338	  0.087535068	-3.080700E+01	  0.087535068	1.942800E+01	  0.087535068	5.278300E+01	  0.087535068	1.012000E+00
339	  0.087735467	-3.080500E+01	  0.087735467	1.956700E+01	  0.087735467	5.278100E+01	  0.087735467	1.019000E+00
340	  0.087935872	-3.076500E+01	  0.087935872	1.926200E+01	  0.087935872	5.280000E+01	  0.087935872	1.009000E+00
341	  0.088136271	-3.079600E+01	  0.088136271	1.932000E+01	  0.088136271	5.278900E+01	  0.088136271	1.008000E+00
342	  0.088336669	-3.073100E+01	  0.088336669	1.899600E+01	  0.088336669	5.281600E+01	  0.088336669	1.000000E+00
343	  0.088537075	-3.076300E+01	  0.088537075	1.887300E+01	  0.088537075	5.280800E+01	  0.088537075	9.900000E-01
344	  0.088737473	-3.073700E+01	  0.088737473	1.865100E+01	  0.088737473	5.282000E+01	  0.088737473	9.820000E-01
345	  0.088937871	-3.072700E+01	  0.088937871	1.854600E+01	  0.088937871	5.282500E+01	  0.088937871	9.780000E-01
346	  0.089138277	-3.071900E+01	  0.089138277	1.852600E+01	  0.089138277	5.282800E+01	  0.089138277	9.780000E-01
347	  0.089338675	-3.070800E+01	  0.089338675	1.823000E+01	  0.089338675	5.283800E+01	  0.089338675	9.640000E-01
348	  0.089539073	-3.069200E+01	  0.089539073	1.830000E+01	  0.089539073	5.284200E+01	  0.089539073	9.690000E-01
349	  0.089739479	-3.069800E+01	  0.089739479	1.806100E+01	  0.089739479	5.284400E+01	  0.089739479	9.560000E-01
350	  0.089939877	-3.068600E+01	  0.089939877	1.796100E+01	  0.089939877	5.285000E+01	  0.089939877	9.530000E-01
351	  0.090140276	-3.070000E+01	  0.090140276	1.796200E+01	  0.090140276	5.284500E+01	  0.090140276	9.510000E-01
352	  0.090340681	-3.067700E+01	  0.090340681	1.754800E+01	  0.090340681	5.286000E+01	  0.090340681	9.330000E-01
353	  0.090541080	-3.063300E+01	  0.090541080	1.762500E+01	  0.090541080	5.287400E+01	  0.090541080	9.420000E-01
354	  0.090741485	-3.065000E+01	  0.090741485	1.743100E+01	  0.090741485	5.287100E+01	  0.090741485	9.300000E-01
355	  0.090941884	-3.066700E+01	  0.090941884	1.766500E+01	  0.090941884	5.286100E+01	  0.090941884	9.400000E-01
356	  0.091142282	-3.063900E+01	  0.091142282	1.714800E+01	  0.091142282	5.288000E+01	  0.091142282	9.160000E-01
357	  0.091342688	-3.062900E+01	  0.091342688	1.718300E+01	  0.091342688	5.288200E+01	  0.091342688	9.190000E-01
358	  0.091543086	-3.061500E+01	  0.091543086	1.675600E+01	  0.091543086	5.289400E+01	  0.091543086	8.990000E-01
359	  0.091743484	-3.064100E+01	  0.091743484	1.677600E+01	  0.091743484	5.288500E+01	  0.091743484	8.970000E-01
360	  0.091943890	-3.059500E+01	  0.091943890	1.676500E+01	  0.091943890	5.290100E+01	  0.091943890	9.010000E-01
361	  0.092144288	-3.058600E+01	  0.092144288	1.640400E+01	  0.092144288	5.291000E+01	  0.092144288	8.840000E-01
362	  0.092344686	-3.061400E+01	  0.092344686	1.640300E+01	  0.092344686	5.290000E+01	  0.092344686	8.810000E-01
363	  0.092545092	-3.060100E+01	  0.092545092	1.608800E+01	  0.092545092	5.291000E+01	  0.092545092	8.660000E-01
364	  0.092745490	-3.054700E+01	  0.092745490	1.608300E+01	  0.092745490	5.292900E+01	  0.092745490	8.710000E-01
365	  0.092945889	-3.054900E+01	  0.092945889	1.596800E+01	  0.092945889	5.293000E+01	  0.092945889	8.650000E-01
366	  0.093146294	-3.055300E+01	  0.093146294	1.602700E+01	  0.093146294	5.292800E+01	  0.093146294	8.670000E-01
367	  0.093346693	-3.052200E+01	  0.093346693	1.562000E+01	  0.093346693	5.294500E+01	  0.093346693	8.490000E-01
368	  0.093547091	-3.051000E+01	  0.093547091	1.573000E+01	  0.093547091	5.294700E+01	  0.093547091	8.560000E-01
369	  0.093747497	-3.049900E+01	  0.093747497	1.550400E+01	  0.093747497	5.295500E+01	  0.093747497	8.450000E-01
370	  0.093947895	-3.054300E+01	  0.093947895	1.520000E+01	  0.093947895	5.294400E+01	  0.093947895	8.250000E-01
371	  0.094148301	-3.050400E+01	  0.094148301	1.524400E+01	  0.094148301	5.295700E+01	  0.094148301	8.310000E-01
372	  0.094348699	-3.049900E+01	  0.094348699	1.524400E+01	  0.094348699	5.295900E+01	  0.094348699	8.320000E-01
373	  0.094549097	-3.049000E+01	  0.094549097	1.510300E+01	  0.094549097	5.296400E+01	  0.094549097	8.250000E-01
374	  0.094749503	-3.048400E+01	  0.094749503	1.492200E+01	  0.094749503	5.296900E+01	  0.094749503	8.160000E-01
375	  0.094949901	-3.048700E+01	  0.094949901	1.459900E+01	  0.094949901	5.297300E+01	  0.094949901	7.990000E-01
376	  0.095150299	-3.047400E+01	  0.095150299	1.471400E+01	  0.095150299	5.297500E+01	  0.095150299	8.060000E-01
377	  0.095350705	-3.045400E+01	  0.095350705	1.460800E+01	  0.095350705	5.298400E+01	  0.095350705	8.020000E-01
378	  0.095551103	-3.044400E+01	  0.095551103	1.453000E+01	  0.095551103	5.298900E+01	  0.095551103	7.990000E-01
379	  0.095751502	-3.043700E+01	  0.095751502	1.428100E+01	  0.095751502	5.299500E+01	  0.095751502	7.860000E-01
380	  0.095951907	-3.044600E+01	  0.095951907	1.427900E+01	  0.095951907	5.299200E+01	  0.095951907	7.850000E-01
381	  0.096152306	-3.043300E+01	  0.096152306	1.406200E+01	  0.096152306	5.300000E+01	  0.096152306	7.750000E-01
382	  0.096352704	-3.043000E+01	  0.096352704	1.394100E+01	  0.096352704	5.300200E+01	  0.096352704	7.690000E-01
383	  0.096553110	-3.040600E+01	  0.096553110	1.363500E+01	  0.096553110	5.301500E+01	  0.096553110	7.540000E-01
384	  0.096753508	-3.037400E+01	  0.096753508	1.372600E+01	  0.096753508	5.302600E+01	  0.096753508	7.620000E-01
385	  0.096953906	-3.037800E+01	  0.096953906	1.355600E+01	  0.096953906	5.302600E+01	  0.096953906	7.530000E-01
386	  0.097154312	-3.036900E+01	  0.097154312	1.340800E+01	  0.097154312	5.303200E+01	  0.097154312	7.460000E-01
387	  0.097354710	-3.037900E+01	  0.097354710	1.306000E+01	  0.097354710	5.303300E+01	  0.097354710	7.260000E-01
388	  0.097555116	-3.035100E+01	  0.097555116	1.311800E+01	  0.097555116	5.304200E+01	  0.097555116	7.310000E-01
389	  0.097755514	-3.035900E+01	  0.097755514	1.312700E+01	  0.097755514	5.303900E+01	  0.097755514	7.310000E-01
390	  0.097955912	-3.035300E+01	  0.097955912	1.282300E+01	  0.097955912	5.304500E+01	  0.097955912	7.150000E-01
391	  0.098156318	-3.032600E+01	  0.098156318	1.286500E+01	  0.098156318	5.305400E+01	  0.098156318	7.200000E-01
392	  0.098356716	-3.032200E+01	  0.098356716	1.253000E+01	  0.098356716	5.306000E+01	  0.098356716	7.020000E-01
393	  0.098557115	-3.033900E+01	  0.098557115	1.226100E+01	  0.098557115	5.305800E+01	  0.098557115	6.850000E-01
394	  0.098757520	-3.030200E+01	  0.098757520	1.243100E+01	  0.098757520	5.306900E+01	  0.098757520	6.980000E-01
395	  0.098957919	-3.033300E+01	  0.098957919	1.220500E+01	  0.098957919	5.306000E+01	  0.098957919	6.830000E-01
396	  0.099158317	-3.031500E+01	  0.099158317	1.223100E+01	  0.099158317	5.306700E+01	  0.099158317	6.860000E-01
397	  0.099358723	-3.031200E+01	  0.099358723	1.204200E+01	  0.099358723	5.307000E+01	  0.099358723	6.760000E-01
398	  0.099559121	-3.027800E+01	  0.099559121	1.199000E+01	  0.099559121	5.308300E+01	  0.099559121	6.760000E-01
399	  0.099759519	-3.031500E+01	  0.099759519	1.185500E+01	  0.099759519	5.307100E+01	  0.099759519	6.650000E-01
400	  0.099959925	-3.026700E+01	  0.099959925	1.164300E+01	  0.099959925	5.309200E+01	  0.099959925	6.570000E-01
401	  0.100160323	-3.028400E+01	  0.100160323	1.164100E+01	  0.100160323	5.308500E+01	  0.100160323	6.560000E-01
402	  0.100360721	-3.028200E+01	  0.100360721	1.109500E+01	  0.100360721	5.309300E+01	  0.100360721	6.260000E-01
403	  0.100561127	-3.027200E+01	  0.100561127	1.120500E+01	  0.100561127	5.309500E+01	  0.100561127	6.320000E-01
404	  0.100761525	-3.024000E+01	  0.100761525	1.138000E+01	  0.100761525	5.310500E+01	  0.100761525	6.450000E-01
405	  0.100961931	-3.030100E+01	  0.100961931	1.104400E+01	  0.100961931	5.308600E+01	  0.100961931	6.210000E-01
406	  0.101162329	-3.023200E+01	  0.101162329	1.065100E+01	  0.101162329	5.311600E+01	  0.101162329	6.050000E-01
407	  0.101362728	-3.018900E+01	  0.101362728	1.089000E+01	  0.101362728	5.312900E+01	  0.101362728	6.210000E-01
408	  0.101563133	-3.024000E+01	  0.101563133	1.049600E+01	  0.101563133	5.311500E+01	  0.101563133	5.950000E-01
409	  0.101763532	-3.017800E+01	  0.101763532	1.072300E+01	  0.101763532	5.313500E+01	  0.101763532	6.130000E-01
410	  0.101963930	-3.025700E+01	  0.101963930	1.031400E+01	  0.101963930	5.311100E+01	  0.101963930	5.840000E-01
411	  0.102164336	-3.020700E+01	  0.102164336	1.032200E+01	  0.102164336	5.312900E+01	  0.102164336	5.880000E-01
412	  0.102364734	-3.019100E+01	  0.102364734	1.022400E+01	  0.102364734	5.313600E+01	  0.102364734	5.840000E-01
413	  0.102565132	-3.023500E+01	  0.102565132	1.003800E+01	  0.102565132	5.312200E+01	  0.102565132	5.700000E-01
414	  0.102765530	-3.021400E+01	  0.102765530	1.015200E+01	  0.102765530	5.312800E+01	  0.102765530	5.780000E-01
415	  0.102965929	-3.018400E+01	  0.102965929	9.678000E+00	  0.102965929	5.314400E+01	  0.102965929	5.530000E-01
416	  0.103166327	-3.018400E+01	  0.103166327	9.822000E+00	  0.103166327	5.314300E+01	  0.103166327	5.610000E-01
417	  0.103366733	-3.011700E+01	  0.103366733	9.715000E+00	  0.103366733	5.316900E+01	  0.103366733	5.600000E-01
418	  0.103567131	-3.016800E+01	  0.103567131	9.010000E+00	  0.103567131	5.315700E+01	  0.103567131	5.160000E-01
419	  0.103767529	-3.018900E+01	  0.103767529	9.244000E+00	  0.103767529	5.314700E+01	  0.103767529	5.280000E-01
420	  0.103967935	-3.014100E+01	  0.103967935	9.315000E+00	  0.103967935	5.316400E+01	  0.103967935	5.350000E-01
421	  0.104168333	-3.016600E+01	  0.104168333	9.041000E+00	  0.104168333	5.315700E+01	  0.104168333	5.180000E-01
422	  0.104368731	-3.013600E+01	  0.104368731	8.754000E+00	  0.104368731	5.317100E+01	  0.104368731	5.040000E-01
423	  0.104569137	-3.014500E+01	  0.104569137	8.889000E+00	  0.104569137	5.316700E+01	  0.104569137	5.110000E-01
424	  0.104769535	-3.014500E+01	  0.104769535	8.430000E+00	  0.104769535	5.317100E+01	  0.104769535	4.850000E-01
425	  0.104969934	-3.011100E+01	  0.104969934	8.003000E+00	  0.104969934	5.318800E+01	  0.104969934	4.620000E-01
426	  0.105170339	-3.017700E+01	  0.105170339	8.323000E+00	  0.105170339	5.316000E+01	  0.105170339	4.770000E-01
427	  0.105370738	-3.010000E+01	  0.105370738	8.357000E+00	  0.105370738	5.318900E+01	  0.105370738	4.830000E-01
428	  0.105571143	-3.012700E+01	  0.105571143	7.873000E+00	  0.105571143	5.318200E+01	  0.105571143	4.540000E-01
429	  0.105771542	-3.013000E+01	  0.105771542	7.989000E+00	  0.105771542	5.318100E+01	  0.105771542	4.600000E-01
430	  0.105971940	-3.009900E+01	  0.105971940	7.654000E+00	  0.105971940	5.319500E+01	  0.105971940	4.430000E-01
431	  0.106172346	-3.006900E+01	  0.106172346	7.768000E+00	  0.106172346	5.320600E+01	  0.106172346	4.510000E-01
432	  0.106372744	-3.013300E+01	  0.106372744	7.730000E+00	  0.106372744	5.318200E+01	  0.106372744	4.450000E-01
433	  0.106573142	-3.009500E+01	  0.106573142	7.169000E+00	  0.106573142	5.320100E+01	  0.106573142	4.150000E-01
434	  0.106773548	-3.008200E+01	  0.106773548	7.172000E+00	  0.106773548	5.320500E+01	  0.106773548	4.160000E-01
435	  0.106973946	-3.005900E+01	  0.106973946	6.950000E+00	  0.106973946	5.321600E+01	  0.106973946	4.040000E-01
436	  0.107174344	-3.008000E+01	  0.107174344	7.223000E+00	  0.107174344	5.320600E+01	  0.107174344	4.190000E-01
437	  0.107374750	-3.004100E+01	  0.107374750	7.242000E+00	  0.107374750	5.322000E+01	  0.107374750	4.220000E-01
438	  0.107575148	-3.005400E+01	  0.107575148	6.586000E+00	  0.107575148	5.322000E+01	  0.107575148	3.840000E-01
439	  0.107775547	-3.004600E+01	  0.107775547	6.456000E+00	  0.107775547	5.322400E+01	  0.107775547	3.760000E-01
440	  0.107975952	-3.006600E+01	  0.107975952	6.556000E+00	  0.107975952	5.321600E+01	  0.107975952	3.810000E-01
441	  0.108176351	-3.007000E+01	  0.108176351	6.519000E+00	  0.108176351	5.321500E+01	  0.108176351	3.790000E-01
442	  0.108376749	-3.003500E+01	  0.108376749	6.312000E+00	  0.108376749	5.323000E+01	  0.108376749	3.680000E-01
443	  0.108577155	-3.004100E+01	  0.108577155	6.026000E+00	  0.108577155	5.322900E+01	  0.108577155	3.520000E-01
444	  0.108777553	-3.004200E+01	  0.108777553	6.047000E+00	  0.108777553	5.322900E+01	  0.108777553	3.530000E-01
445	  0.108977959	-3.006600E+01	  0.108977959	6.009000E+00	  0.108977959	5.322000E+01	  0.108977959	3.500000E-01
446	  0.109178357	-3.001100E+01	  0.109178357	6.046000E+00	  0.109178357	5.324100E+01	  0.109178357	3.540000E-01
447	  0.109378755	-3.003600E+01	  0.109378755	5.495000E+00	  0.109378755	5.323400E+01	  0.109378755	3.210000E-01
448	  0.109579161	-2.999100E+01	  0.109579161	5.642000E+00	  0.109579161	5.325100E+01	  0.109579161	3.310000E-01
449	  0.109779559	-3.002500E+01	  0.109779559	5.381000E+00	  0.109779559	5.323900E+01	  0.109779559	3.150000E-01
450	  0.109979957	-2.997200E+01	  0.109979957	5.192000E+00	  0.109979957	5.326100E+01	  0.109979957	3.060000E-01
451	  0.110180363	-3.008000E+01	  0.110180363	4.949000E+00	  0.110180363	5.322100E+01	  0.110180363	2.870000E-01
452	  0.110380761	-3.007000E+01	  0.110380761	4.562000E+00	  0.110380761	5.322600E+01	  0.110380761	2.650000E-01
453	  0.110581160	-3.001100E+01	  0.110581160	5.118000E+00	  0.110581160	5.324600E+01	  0.110581160	3.000000E-01
454	  0.110781565	-2.997400E+01	  0.110781565	4.836000E+00	  0.110781565	5.326200E+01	  0.110781565	2.850000E-01
455	  0.110981964	-2.998300E+01	  0.110981964	4.464000E+00	  0.110981964	5.326000E+01	  0.110981964	2.620000E-01
456	  0.111182362	-2.994600E+01	  0.111182362	4.587000E+00	  0.111182362	5.327400E+01	  0.111182362	2.710000E-01
457	  0.111382768	-3.000700E+01	  0.111382768	4.215000E+00	  0.111382768	5.325300E+01	  0.111382768	2.470000E-01
458	  0.111583166	-2.995800E+01	  0.111583166	4.195000E+00	  0.111583166	5.327200E+01	  0.111583166	2.470000E-01
459	  0.111783572	-3.001700E+01	  0.111783572	3.893000E+00	  0.111783572	5.325000E+01	  0.111783572	2.280000E-01
460	  0.111983970	-2.993700E+01	  0.111983970	4.080000E+00	  0.111983970	5.328000E+01	  0.111983970	2.410000E-01
461	  0.112184368	-2.995700E+01	  0.112184368	3.564000E+00	  0.112184368	5.327500E+01	  0.112184368	2.100000E-01
462	  0.112384774	-2.993000E+01	  0.112384774	3.558000E+00	  0.112384774	5.328500E+01	  0.112384774	2.110000E-01
463	  0.112585172	-2.992600E+01	  0.112585172	3.644000E+00	  0.112585172	5.328600E+01	  0.112585172	2.160000E-01
464	  0.112785570	-2.993900E+01	  0.112785570	3.274000E+00	  0.112785570	5.328300E+01	  0.112785570	1.940000E-01
465	  0.112985976	-2.997400E+01	  0.112985976	3.331000E+00	  0.112985976	5.326900E+01	  0.112985976	1.960000E-01
466	  0.113186374	-2.993700E+01	  0.113186374	2.778000E+00	  0.113186374	5.328500E+01	  0.113186374	1.640000E-01
467	  0.113386773	-2.996800E+01	  0.113386773	3.102000E+00	  0.113386773	5.327200E+01	  0.113386773	1.830000E-01
468	  0.113587178	-2.994500E+01	  0.113587178	2.681000E+00	  0.113587178	5.328200E+01	  0.113587178	1.580000E-01
469	  0.113787577	-2.993900E+01	  0.113787577	2.723000E+00	  0.113787577	5.328400E+01	  0.113787577	1.610000E-01
470	  0.113987975	-2.991600E+01	  0.113987975	2.316000E+00	  0.113987975	5.329500E+01	  0.113987975	1.370000E-01
471	  0.114188381	-2.995000E+01	  0.114188381	2.202000E+00	  0.114188381	5.328200E+01	  0.114188381	1.300000E-01
472	  0.114388779	-2.990700E+01	  0.114388779	2.299000E+00	  0.114388779	5.329800E+01	  0.114388779	1.360000E-01
473	  0.114589177	-2.992300E+01	  0.114589177	1.968000E+00	  0.114589177	5.329300E+01	  0.114589177	1.160000E-01
474	  0.114789583	-2.990000E+01	  0.114789583	2.070000E+00	  0.114789583	5.330100E+01	  0.114789583	1.230000E-01
475	  0.114989981	-2.995200E+01	  0.114989981	1.973000E+00	  0.114989981	5.328100E+01	  0.114989981	1.160000E-01
476	  0.115190387	-2.992000E+01	  0.115190387	1.729000E+00	  0.115190387	5.329400E+01	  0.115190387	1.020000E-01
477	  0.115390785	-2.990100E+01	  0.115390785	1.640000E+00	  0.115390785	5.330200E+01	  0.115390785	9.700000E-02
478	  0.115591183	-2.989200E+01	  0.115591183	1.449000E+00	  0.115591183	5.330600E+01	  0.115591183	8.600000E-02
479	  0.115791589	-2.987100E+01	  0.115791589	1.406000E+00	  0.115791589	5.331400E+01	  0.115791589	8.400000E-02
480	  0.115991987	-2.987800E+01	  0.115991987	1.210000E+00	  0.115991987	5.331200E+01	  0.115991987	7.200000E-02
481	  0.116192386	-2.987500E+01	  0.116192386	1.147000E+00	  0.116192386	5.331300E+01	  0.116192386	6.800000E-02
482	  0.116392791	-2.987900E+01	  0.116392791	1.047000E+00	  0.116392791	5.331200E+01	  0.116392791	6.200000E-02
483	  0.116593190	-2.987000E+01	  0.116593190	8.700000E-01	  0.116593190	5.331500E+01	  0.116593190	5.200000E-02
484	  0.116793588	-2.984600E+01	  0.116793588	6.410000E-01	  0.116793588	5.332500E+01	  0.116793588	3.800000E-02
485	  0.116993994	-2.985200E+01	  0.116993994	4.020000E-01	  0.116993994	5.332300E+01	  0.116993994	2.400000E-02
486	  0.117194392	-2.987200E+01	  0.117194392	5.200000E-01	  0.117194392	5.331500E+01	  0.117194392	3.100000E-02
487	  0.117394790	-2.985400E+01	  0.117394790	3.300000E-01	  0.117394790	5.332200E+01	  0.117394790	1.900000E-02
488	  0.117595196	-2.987200E+01	  0.117595196	7.200000E-02	  0.117595196	5.331500E+01	  0.117595196	4.000000E-03
489	  0.117795594	-2.987900E+01	  0.117795594	-2.590000E-01	  0.117795594	5.331200E+01	  0.117795594	-1.500000E-02
490	  0.117995992	-2.987700E+01	  0.117995992	3.600000E-02	  0.117995992	5.331300E+01	  0.117995992	2.000000E-03
491	  0.118196398	-2.988100E+01	  0.118196398	1.600000E-02	  0.118196398	5.331100E+01	  0.118196398	1.000000E-03
492	  0.118396796	-2.988400E+01	  0.118396796	-4.600000E-01	  0.118396796	5.331000E+01	  0.118396796	-2.700000E-02
493	  0.118597202	-2.986500E+01	  0.118597202	-4.860000E-01	  0.118597202	5.331700E+01	  0.118597202	-2.900000E-02
494	  0.118797600	-2.986400E+01	  0.118797600	-5.760000E-01	  0.118797600	5.331800E+01	  0.118797600	-3.400000E-02
495	  0.118997999	-2.983500E+01	  0.118997999	-3.950000E-01	  0.118997999	5.333000E+01	  0.118997999	-2.300000E-02
496	  0.119198404	-2.984000E+01	  0.119198404	-8.450000E-01	  0.119198404	5.332700E+01	  0.119198404	-5.000000E-02
497	  0.119398803	-2.980100E+01	  0.119398803	-9.500000E-01	  0.119398803	5.334300E+01	  0.119398803	-5.700000E-02
498	  0.119599201	-2.982100E+01	  0.119599201	-1.167000E+00	  0.119599201	5.333400E+01	  0.119599201	-7.000000E-02
499	  0.119799607	-2.982600E+01	  0.119799607	-1.521000E+00	  0.119799607	5.333200E+01	  0.119799607	-9.100000E-02
500	  0.120000005	-2.983000E+01	  0.120000005	-1.521000E+00	  0.120000005	5.333000E+01	  0.120000005	-9.100000E-02
