! Anritsu VNA Master:             	Model: MS2036C/10/77
! SN:             	1601066
! /bd0/18may08.cable.cal/uu.20.2.txt
! Existing Calibration Information:
! TYPE:             	Current Settings	Active Cal Settings
! TIME:             	05/08/2018 06:01:39 PM	05/08/2018 05:57:55 PM
! INTERNAL TEMP:    	49.3 C	49.3 C
! # POINTS:         	500	500
! START FREQ:       	20.000 MHz	20.000 MHz
! STOP FREQ:        	120.000 MHz	120.000 MHz
! SOURCE POWER:     	High	High
! IFBW:             	50 Hz	50 Hz
! AVG FACTOR:       	  1 	  1 
! REF PLANE 1:      	0 mm	0 mm
! REF PLANE 2:      	0 mm	0 mm
! CAL TYPE:         	Full S11	Full S11
! CAL METHOD:       	SOLT	SOLT
! CAL LINE TYPE:    	Coax	Coax
! DUT PORT 1:       	K-Conn(F)	K-Conn(F)
! DUT PORT 2:       	K-Conn(F)	K-Conn(F)
! CAL STATUS:       	OK: Accuracy High	--
! PROP-V:       	0.700
! CABLE LOSS:       	0.000 dB/m
! REF IMPEDANCE:       	50.0
! Trace Specific Parameters:	TR1	TR2	TR3	TR4
! TRACE.#.Y (GRAPH TYPE)	LOG MAG	PHASE	REAL IMPEDANCE	IMAGINARY IMPEDANCE
! TRACE.#.X 	FREQ.GHZ	FREQ.GHZ	FREQ.GHZ	FREQ.GHZ
! S-PARAMETER	S11	S11	S11	S11
! SMOOTH/APERTURE %	0	0	0	0
! WINDOW	NSL	NSL	NSL	NSL
! GATING	OFF	OFF	OFF	OFF
! FGTD	OFF	OFF	OFF	OFF
Marker Information per Trace:	TR1	TR2	TR3	TR4
!MK1	--	"MK1 TR2:  20.000 MHz,PH:156.01°"	--	--
!MK2	--	--	"MK2 TR3:  70.100 200 MHz,Z:(30.450 ohm, 33.043 ohm)"	--
!MK3	--	--	--	--
!MK4	--	--	--	--
!MK5	--	--	--	--
!MK6	--	--	--	--
!MK7	--	--	--	--
!MK8	--	--	--	--
PNT	TR1.FREQ.GHZ	TR1.LOG MAG.dB	TR2.FREQ.GHZ	TR2.PHASE.deg	TR3.FREQ.GHZ	TR3.REAL IMPEDANCE.ohm	TR4.FREQ.GHZ	TR4.IMAGINARY IMPEDANCE.ohm
1	  0.020000000	-7.237000E+00	  0.020000000	1.560110E+02	  0.020000000	2.045000E+01	  0.020000000	8.910000E+00
2	  0.020200402	-7.239000E+00	  0.020200402	1.557790E+02	  0.020200402	2.046800E+01	  0.020200402	8.997000E+00
3	  0.020400802	-7.239000E+00	  0.020400802	1.555450E+02	  0.020400802	2.048400E+01	  0.020400802	9.085000E+00
4	  0.020601204	-7.238000E+00	  0.020601204	1.553070E+02	  0.020601204	2.049900E+01	  0.020601204	9.175000E+00
5	  0.020801604	-7.239000E+00	  0.020801604	1.550760E+02	  0.020801604	2.051500E+01	  0.020801604	9.262000E+00
6	  0.021002004	-7.241000E+00	  0.021002004	1.548360E+02	  0.021002004	2.053600E+01	  0.021002004	9.352000E+00
7	  0.021202406	-7.240000E+00	  0.021202406	1.546050E+02	  0.021202406	2.055000E+01	  0.021202406	9.440000E+00
8	  0.021402806	-7.241000E+00	  0.021402806	1.543790E+02	  0.021402806	2.056800E+01	  0.021402806	9.525000E+00
9	  0.021603208	-7.242000E+00	  0.021603208	1.541450E+02	  0.021603208	2.058500E+01	  0.021603208	9.613000E+00
10	  0.021803608	-7.241000E+00	  0.021803608	1.538940E+02	  0.021803608	2.060200E+01	  0.021803608	9.708000E+00
11	  0.022004008	-7.244000E+00	  0.022004008	1.536720E+02	  0.022004008	2.062300E+01	  0.022004008	9.791000E+00
12	  0.022204408	-7.243000E+00	  0.022204408	1.534320E+02	  0.022204408	2.063900E+01	  0.022204408	9.882000E+00
13	  0.022404809	-7.243000E+00	  0.022404809	1.531980E+02	  0.022404809	2.065500E+01	  0.022404809	9.971000E+00
14	  0.022605211	-7.245000E+00	  0.022605211	1.529510E+02	  0.022605211	2.067800E+01	  0.022605211	1.006400E+01
15	  0.022805611	-7.247000E+00	  0.022805611	1.527220E+02	  0.022805611	2.070000E+01	  0.022805611	1.015000E+01
16	  0.023006011	-7.246000E+00	  0.023006011	1.524950E+02	  0.023006011	2.071500E+01	  0.023006011	1.023600E+01
17	  0.023206413	-7.247000E+00	  0.023206413	1.522570E+02	  0.023206413	2.073300E+01	  0.023206413	1.032600E+01
18	  0.023406813	-7.246000E+00	  0.023406813	1.520040E+02	  0.023406813	2.075000E+01	  0.023406813	1.042300E+01
19	  0.023607215	-7.247000E+00	  0.023607215	1.517890E+02	  0.023607215	2.076900E+01	  0.023607215	1.050400E+01
20	  0.023807615	-7.247000E+00	  0.023807615	1.515400E+02	  0.023807615	2.078800E+01	  0.023807615	1.059900E+01
21	  0.024008015	-7.248000E+00	  0.024008015	1.513060E+02	  0.024008015	2.081000E+01	  0.024008015	1.068700E+01
22	  0.024208417	-7.248000E+00	  0.024208417	1.510850E+02	  0.024208417	2.082700E+01	  0.024208417	1.077100E+01
23	  0.024408817	-7.249000E+00	  0.024408817	1.508370E+02	  0.024408817	2.084800E+01	  0.024408817	1.086600E+01
24	  0.024609219	-7.251000E+00	  0.024609219	1.506140E+02	  0.024609219	2.087100E+01	  0.024609219	1.094900E+01
25	  0.024809619	-7.251000E+00	  0.024809619	1.503730E+02	  0.024809619	2.089000E+01	  0.024809619	1.104200E+01
26	  0.025010020	-7.251000E+00	  0.025010020	1.501330E+02	  0.025010020	2.091000E+01	  0.025010020	1.113300E+01
27	  0.025210422	-7.253000E+00	  0.025210422	1.499050E+02	  0.025210422	2.093300E+01	  0.025210422	1.121900E+01
28	  0.025410822	-7.250000E+00	  0.025410822	1.496660E+02	  0.025410822	2.094600E+01	  0.025410822	1.131200E+01
29	  0.025611224	-7.253000E+00	  0.025611224	1.494270E+02	  0.025611224	2.097300E+01	  0.025611224	1.140200E+01
30	  0.025811624	-7.255000E+00	  0.025811624	1.491990E+02	  0.025811624	2.099800E+01	  0.025811624	1.148700E+01
31	  0.026012026	-7.253000E+00	  0.026012026	1.489740E+02	  0.026012026	2.101100E+01	  0.026012026	1.157500E+01
32	  0.026212426	-7.253000E+00	  0.026212426	1.487240E+02	  0.026212426	2.103300E+01	  0.026212426	1.167100E+01
33	  0.026412826	-7.252000E+00	  0.026412826	1.484970E+02	  0.026412826	2.104900E+01	  0.026412826	1.175800E+01
34	  0.026613226	-7.254000E+00	  0.026613226	1.482580E+02	  0.026613226	2.107400E+01	  0.026613226	1.184900E+01
35	  0.026813626	-7.254000E+00	  0.026813626	1.480090E+02	  0.026813626	2.109700E+01	  0.026813626	1.194400E+01
36	  0.027014028	-7.254000E+00	  0.027014028	1.477780E+02	  0.027014028	2.111700E+01	  0.027014028	1.203300E+01
37	  0.027214428	-7.254000E+00	  0.027214428	1.475480E+02	  0.027214428	2.113700E+01	  0.027214428	1.212100E+01
38	  0.027414829	-7.254000E+00	  0.027414829	1.473140E+02	  0.027414829	2.116000E+01	  0.027414829	1.221100E+01
39	  0.027615231	-7.254000E+00	  0.027615231	1.470830E+02	  0.027615231	2.117900E+01	  0.027615231	1.230000E+01
40	  0.027815631	-7.254000E+00	  0.027815631	1.468470E+02	  0.027815631	2.120300E+01	  0.027815631	1.239000E+01
41	  0.028016033	-7.255000E+00	  0.028016033	1.466140E+02	  0.028016033	2.122500E+01	  0.028016033	1.248000E+01
42	  0.028216433	-7.254000E+00	  0.028216433	1.463910E+02	  0.028216433	2.124200E+01	  0.028216433	1.256600E+01
43	  0.028416833	-7.255000E+00	  0.028416833	1.461400E+02	  0.028416833	2.127000E+01	  0.028416833	1.266200E+01
44	  0.028617235	-7.255000E+00	  0.028617235	1.459240E+02	  0.028617235	2.128900E+01	  0.028617235	1.274500E+01
45	  0.028817635	-7.255000E+00	  0.028817635	1.456710E+02	  0.028817635	2.131400E+01	  0.028817635	1.284300E+01
46	  0.029018037	-7.254000E+00	  0.029018037	1.454640E+02	  0.029018037	2.133100E+01	  0.029018037	1.292300E+01
47	  0.029218437	-7.252000E+00	  0.029218437	1.452200E+02	  0.029218437	2.135000E+01	  0.029218437	1.301900E+01
48	  0.029418837	-7.253000E+00	  0.029418837	1.449960E+02	  0.029418837	2.137400E+01	  0.029418837	1.310500E+01
49	  0.029619239	-7.252000E+00	  0.029619239	1.447600E+02	  0.029619239	2.139400E+01	  0.029619239	1.319700E+01
50	  0.029819639	-7.250000E+00	  0.029819639	1.445170E+02	  0.029819639	2.141400E+01	  0.029819639	1.329200E+01
51	  0.030020041	-7.250000E+00	  0.030020041	1.442890E+02	  0.030020041	2.143700E+01	  0.030020041	1.338000E+01
52	  0.030220442	-7.250000E+00	  0.030220442	1.440610E+02	  0.030220442	2.145900E+01	  0.030220442	1.346900E+01
53	  0.030420844	-7.248000E+00	  0.030420844	1.438320E+02	  0.030420844	2.147700E+01	  0.030420844	1.355900E+01
54	  0.030621244	-7.248000E+00	  0.030621244	1.435820E+02	  0.030621244	2.150200E+01	  0.030621244	1.365600E+01
55	  0.030821644	-7.248000E+00	  0.030821644	1.433570E+02	  0.030821644	2.152500E+01	  0.030821644	1.374400E+01
56	  0.031022044	-7.248000E+00	  0.031022044	1.431160E+02	  0.031022044	2.155100E+01	  0.031022044	1.383700E+01
57	  0.031222444	-7.229000E+00	  0.031222444	1.429640E+02	  0.031222444	2.151900E+01	  0.031222444	1.390900E+01
58	  0.031422846	-7.228000E+00	  0.031422846	1.427240E+02	  0.031422846	2.154200E+01	  0.031422846	1.400300E+01
59	  0.031623244	-7.230000E+00	  0.031623244	1.424940E+02	  0.031623244	2.157000E+01	  0.031623244	1.409200E+01
60	  0.031823646	-7.229000E+00	  0.031823646	1.422510E+02	  0.031823646	2.159400E+01	  0.031823646	1.418700E+01
61	  0.032024048	-7.230000E+00	  0.032024048	1.420190E+02	  0.032024048	2.162200E+01	  0.032024048	1.427700E+01
62	  0.032224450	-7.233000E+00	  0.032224450	1.417630E+02	  0.032224450	2.165600E+01	  0.032224450	1.437400E+01
63	  0.032424849	-7.230000E+00	  0.032424849	1.415510E+02	  0.032424849	2.167300E+01	  0.032424849	1.445900E+01
64	  0.032625251	-7.232000E+00	  0.032625251	1.413070E+02	  0.032625251	2.170500E+01	  0.032625251	1.455300E+01
65	  0.032825653	-7.230000E+00	  0.032825653	1.410570E+02	  0.032825653	2.172700E+01	  0.032825653	1.465200E+01
66	  0.033026051	-7.232000E+00	  0.033026051	1.408150E+02	  0.033026051	2.175800E+01	  0.033026051	1.474600E+01
67	  0.033226453	-7.232000E+00	  0.033226453	1.405850E+02	  0.033226453	2.178500E+01	  0.033226453	1.483600E+01
68	  0.033426855	-7.231000E+00	  0.033426855	1.403350E+02	  0.033426855	2.180900E+01	  0.033426855	1.493500E+01
69	  0.033627257	-7.232000E+00	  0.033627257	1.400940E+02	  0.033627257	2.184000E+01	  0.033627257	1.502900E+01
70	  0.033827655	-7.231000E+00	  0.033827655	1.398540E+02	  0.033827655	2.186500E+01	  0.033827655	1.512300E+01
71	  0.034028057	-7.234000E+00	  0.034028057	1.396350E+02	  0.034028057	2.189800E+01	  0.034028057	1.520800E+01
72	  0.034228459	-7.235000E+00	  0.034228459	1.393720E+02	  0.034228459	2.193100E+01	  0.034228459	1.531000E+01
73	  0.034428857	-7.231000E+00	  0.034428857	1.391420E+02	  0.034428857	2.194900E+01	  0.034428857	1.540300E+01
74	  0.034629259	-7.232000E+00	  0.034629259	1.389140E+02	  0.034629259	2.197700E+01	  0.034629259	1.549300E+01
75	  0.034829661	-7.232000E+00	  0.034829661	1.386650E+02	  0.034829661	2.200800E+01	  0.034829661	1.559100E+01
76	  0.035030060	-7.233000E+00	  0.035030060	1.384250E+02	  0.035030060	2.203900E+01	  0.035030060	1.568500E+01
77	  0.035230462	-7.231000E+00	  0.035230462	1.381840E+02	  0.035230462	2.206200E+01	  0.035230462	1.578200E+01
78	  0.035430863	-7.233000E+00	  0.035430863	1.379440E+02	  0.035430863	2.209900E+01	  0.035430863	1.587400E+01
79	  0.035631265	-7.232000E+00	  0.035631265	1.377070E+02	  0.035631265	2.212500E+01	  0.035631265	1.596900E+01
80	  0.035831664	-7.233000E+00	  0.035831664	1.374700E+02	  0.035831664	2.215700E+01	  0.035831664	1.606200E+01
81	  0.036032066	-7.232000E+00	  0.036032066	1.372470E+02	  0.036032066	2.218200E+01	  0.036032066	1.615100E+01
82	  0.036232468	-7.233000E+00	  0.036232468	1.369980E+02	  0.036232468	2.221400E+01	  0.036232468	1.624900E+01
83	  0.036432866	-7.233000E+00	  0.036432866	1.367660E+02	  0.036432866	2.224400E+01	  0.036432866	1.634100E+01
84	  0.036633268	-7.229000E+00	  0.036633268	1.365350E+02	  0.036633268	2.226400E+01	  0.036633268	1.643600E+01
85	  0.036833670	-7.233000E+00	  0.036833670	1.363060E+02	  0.036833670	2.230400E+01	  0.036833670	1.652300E+01
86	  0.037034072	-7.232000E+00	  0.037034072	1.360630E+02	  0.037034072	2.233200E+01	  0.037034072	1.662100E+01
87	  0.037234470	-7.233000E+00	  0.037234470	1.358280E+02	  0.037234470	2.236400E+01	  0.037234470	1.671300E+01
88	  0.037434869	-7.234000E+00	  0.037434869	1.355980E+02	  0.037434869	2.239800E+01	  0.037434869	1.680400E+01
89	  0.037635271	-7.234000E+00	  0.037635271	1.353710E+02	  0.037635271	2.242700E+01	  0.037635271	1.689400E+01
90	  0.037835669	-7.232000E+00	  0.037835669	1.351340E+02	  0.037835669	2.245400E+01	  0.037835669	1.699000E+01
91	  0.038036071	-7.233000E+00	  0.038036071	1.349010E+02	  0.038036071	2.248700E+01	  0.038036071	1.708300E+01
92	  0.038236473	-7.233000E+00	  0.038236473	1.346610E+02	  0.038236473	2.252000E+01	  0.038236473	1.717900E+01
93	  0.038436871	-7.231000E+00	  0.038436871	1.344340E+02	  0.038436871	2.254500E+01	  0.038436871	1.727100E+01
94	  0.038637273	-7.232000E+00	  0.038637273	1.341950E+02	  0.038637273	2.258100E+01	  0.038637273	1.736500E+01
95	  0.038837675	-7.233000E+00	  0.038837675	1.339710E+02	  0.038837675	2.261300E+01	  0.038837675	1.745400E+01
96	  0.039038073	-7.230000E+00	  0.039038073	1.337400E+02	  0.039038073	2.263700E+01	  0.039038073	1.755000E+01
97	  0.039238475	-7.232000E+00	  0.039238475	1.335140E+02	  0.039238475	2.267500E+01	  0.039238475	1.763800E+01
98	  0.039438877	-7.230000E+00	  0.039438877	1.332670E+02	  0.039438877	2.270400E+01	  0.039438877	1.773900E+01
99	  0.039639279	-7.231000E+00	  0.039639279	1.330230E+02	  0.039639279	2.274100E+01	  0.039639279	1.783600E+01
100	  0.039839678	-7.232000E+00	  0.039839678	1.328010E+02	  0.039839678	2.277600E+01	  0.039839678	1.792400E+01
101	  0.040040080	-7.230000E+00	  0.040040080	1.325710E+02	  0.040040080	2.280300E+01	  0.040040080	1.801900E+01
102	  0.040240481	-7.230000E+00	  0.040240481	1.323400E+02	  0.040240481	2.283500E+01	  0.040240481	1.811200E+01
103	  0.040440880	-7.227000E+00	  0.040440880	1.321120E+02	  0.040440880	2.286200E+01	  0.040440880	1.820600E+01
104	  0.040641282	-7.229000E+00	  0.040641282	1.318860E+02	  0.040641282	2.290100E+01	  0.040641282	1.829500E+01
105	  0.040841684	-7.229000E+00	  0.040841684	1.316540E+02	  0.040841684	2.293400E+01	  0.040841684	1.838900E+01
106	  0.041042086	-7.228000E+00	  0.041042086	1.314150E+02	  0.041042086	2.296600E+01	  0.041042086	1.848700E+01
107	  0.041242484	-7.229000E+00	  0.041242484	1.311690E+02	  0.041242484	2.300700E+01	  0.041242484	1.858500E+01
108	  0.041442886	-7.228000E+00	  0.041442886	1.309480E+02	  0.041442886	2.303600E+01	  0.041442886	1.867600E+01
109	  0.041643288	-7.227000E+00	  0.041643288	1.307040E+02	  0.041643288	2.307000E+01	  0.041643288	1.877500E+01
110	  0.041843686	-7.228000E+00	  0.041843686	1.304880E+02	  0.041843686	2.310500E+01	  0.041843686	1.886200E+01
111	  0.042044088	-7.226000E+00	  0.042044088	1.302610E+02	  0.042044088	2.313500E+01	  0.042044088	1.895600E+01
112	  0.042244490	-7.227000E+00	  0.042244490	1.300340E+02	  0.042244490	2.317200E+01	  0.042244490	1.904700E+01
113	  0.042444889	-7.226000E+00	  0.042444889	1.298050E+02	  0.042444889	2.320600E+01	  0.042444889	1.914000E+01
114	  0.042645290	-7.225000E+00	  0.042645290	1.295670E+02	  0.042645290	2.324000E+01	  0.042645290	1.923900E+01
115	  0.042845692	-7.225000E+00	  0.042845692	1.293280E+02	  0.042845692	2.327700E+01	  0.042845692	1.933500E+01
116	  0.043046094	-7.227000E+00	  0.043046094	1.291100E+02	  0.043046094	2.331600E+01	  0.043046094	1.942300E+01
117	  0.043246493	-7.225000E+00	  0.043246493	1.288800E+02	  0.043246493	2.334600E+01	  0.043246493	1.951900E+01
118	  0.043446895	-7.225000E+00	  0.043446895	1.286360E+02	  0.043446895	2.338500E+01	  0.043446895	1.961800E+01
119	  0.043647297	-7.225000E+00	  0.043647297	1.284100E+02	  0.043647297	2.342300E+01	  0.043647297	1.971000E+01
120	  0.043847695	-7.223000E+00	  0.043847695	1.281800E+02	  0.043847695	2.345400E+01	  0.043847695	1.980600E+01
121	  0.044048097	-7.222000E+00	  0.044048097	1.279440E+02	  0.044048097	2.349000E+01	  0.044048097	1.990400E+01
122	  0.044248499	-7.220000E+00	  0.044248499	1.277070E+02	  0.044248499	2.352300E+01	  0.044248499	2.000300E+01
123	  0.044448901	-7.220000E+00	  0.044448901	1.274650E+02	  0.044448901	2.356300E+01	  0.044448901	2.010200E+01
124	  0.044649299	-7.223000E+00	  0.044649299	1.272340E+02	  0.044649299	2.361000E+01	  0.044649299	2.019400E+01
125	  0.044849701	-7.223000E+00	  0.044849701	1.270030E+02	  0.044849701	2.364800E+01	  0.044849701	2.028900E+01
126	  0.045050103	-7.220000E+00	  0.045050103	1.267490E+02	  0.045050103	2.368300E+01	  0.045050103	2.039600E+01
127	  0.045250501	-7.221000E+00	  0.045250501	1.265250E+02	  0.045250501	2.372300E+01	  0.045250501	2.048700E+01
128	  0.045450903	-7.219000E+00	  0.045450903	1.263010E+02	  0.045450903	2.375600E+01	  0.045450903	2.058200E+01
129	  0.045651305	-7.218000E+00	  0.045651305	1.260740E+02	  0.045651305	2.379300E+01	  0.045651305	2.067600E+01
130	  0.045851704	-7.219000E+00	  0.045851704	1.258540E+02	  0.045851704	2.383400E+01	  0.045851704	2.076500E+01
131	  0.046052106	-7.218000E+00	  0.046052106	1.256000E+02	  0.046052106	2.387600E+01	  0.046052106	2.087100E+01
132	  0.046252504	-7.217000E+00	  0.046252504	1.253600E+02	  0.046252504	2.391500E+01	  0.046252504	2.097100E+01
133	  0.046452906	-7.219000E+00	  0.046452906	1.251230E+02	  0.046452906	2.396100E+01	  0.046452906	2.106800E+01
134	  0.046653304	-7.216000E+00	  0.046653304	1.248820E+02	  0.046653304	2.399600E+01	  0.046653304	2.117100E+01
135	  0.046853706	-7.218000E+00	  0.046853706	1.246540E+02	  0.046853706	2.404100E+01	  0.046853706	2.126300E+01
136	  0.047054108	-7.215000E+00	  0.047054108	1.244250E+02	  0.047054108	2.407300E+01	  0.047054108	2.136200E+01
137	  0.047254506	-7.214000E+00	  0.047254506	1.241830E+02	  0.047254506	2.411400E+01	  0.047254506	2.146400E+01
138	  0.047454908	-7.214000E+00	  0.047454908	1.239440E+02	  0.047454908	2.415800E+01	  0.047454908	2.156300E+01
139	  0.047655310	-7.210000E+00	  0.047655310	1.236900E+02	  0.047655310	2.419400E+01	  0.047655310	2.167200E+01
140	  0.047855709	-7.213000E+00	  0.047855709	1.234740E+02	  0.047855709	2.424100E+01	  0.047855709	2.175900E+01
141	  0.048056111	-7.210000E+00	  0.048056111	1.232400E+02	  0.048056111	2.427700E+01	  0.048056111	2.186000E+01
142	  0.048256513	-7.209000E+00	  0.048256513	1.230070E+02	  0.048256513	2.431800E+01	  0.048256513	2.195900E+01
143	  0.048456915	-7.209000E+00	  0.048456915	1.227720E+02	  0.048456915	2.436100E+01	  0.048456915	2.205700E+01
144	  0.048657313	-7.207000E+00	  0.048657313	1.225560E+02	  0.048657313	2.439700E+01	  0.048657313	2.214900E+01
145	  0.048857715	-7.204000E+00	  0.048857715	1.223040E+02	  0.048857715	2.443700E+01	  0.048857715	2.225800E+01
146	  0.049058117	-7.205000E+00	  0.049058117	1.220640E+02	  0.049058117	2.448500E+01	  0.049058117	2.235800E+01
147	  0.049258515	-7.206000E+00	  0.049258515	1.218400E+02	  0.049258515	2.452900E+01	  0.049258515	2.245100E+01
148	  0.049458917	-7.202000E+00	  0.049458917	1.216060E+02	  0.049458917	2.456400E+01	  0.049458917	2.255300E+01
149	  0.049659319	-7.204000E+00	  0.049659319	1.213830E+02	  0.049659319	2.461300E+01	  0.049659319	2.264500E+01
150	  0.049859721	-7.206000E+00	  0.049859721	1.211340E+02	  0.049859721	2.466600E+01	  0.049859721	2.274700E+01
151	  0.050060119	-7.203000E+00	  0.050060119	1.209050E+02	  0.050060119	2.470200E+01	  0.050060119	2.284800E+01
152	  0.050260521	-7.203000E+00	  0.050260521	1.206780E+02	  0.050260521	2.474900E+01	  0.050260521	2.294200E+01
153	  0.050460923	-7.201000E+00	  0.050460923	1.204490E+02	  0.050460923	2.478800E+01	  0.050460923	2.304200E+01
154	  0.050661322	-7.199000E+00	  0.050661322	1.202290E+02	  0.050661322	2.482600E+01	  0.050661322	2.313700E+01
155	  0.050861724	-7.198000E+00	  0.050861724	1.199810E+02	  0.050861724	2.487300E+01	  0.050861724	2.324400E+01
156	  0.051062126	-7.199000E+00	  0.051062126	1.197690E+02	  0.051062126	2.492000E+01	  0.051062126	2.333100E+01
157	  0.051262524	-7.198000E+00	  0.051262524	1.195300E+02	  0.051262524	2.496600E+01	  0.051262524	2.343400E+01
158	  0.051462926	-7.197000E+00	  0.051462926	1.192830E+02	  0.051462926	2.501400E+01	  0.051462926	2.353900E+01
159	  0.051663328	-7.196000E+00	  0.051663328	1.190680E+02	  0.051663328	2.505600E+01	  0.051663328	2.363200E+01
160	  0.051863730	-7.195000E+00	  0.051863730	1.188180E+02	  0.051863730	2.510500E+01	  0.051863730	2.374000E+01
161	  0.052064128	-7.198000E+00	  0.052064128	1.185980E+02	  0.052064128	2.515900E+01	  0.052064128	2.382900E+01
162	  0.052264530	-7.193000E+00	  0.052264530	1.183610E+02	  0.052264530	2.519200E+01	  0.052264530	2.393800E+01
163	  0.052464932	-7.191000E+00	  0.052464932	1.181230E+02	  0.052464932	2.523800E+01	  0.052464932	2.404200E+01
164	  0.052665330	-7.193000E+00	  0.052665330	1.179100E+02	  0.052665330	2.528800E+01	  0.052665330	2.413000E+01
165	  0.052865732	-7.192000E+00	  0.052865732	1.176680E+02	  0.052865732	2.533800E+01	  0.052865732	2.423400E+01
166	  0.053066134	-7.191000E+00	  0.053066134	1.174490E+02	  0.053066134	2.538200E+01	  0.053066134	2.432900E+01
167	  0.053266536	-7.191000E+00	  0.053266536	1.172160E+02	  0.053266536	2.543300E+01	  0.053266536	2.442900E+01
168	  0.053466935	-7.189000E+00	  0.053466935	1.169870E+02	  0.053466935	2.547600E+01	  0.053466935	2.453000E+01
169	  0.053667337	-7.188000E+00	  0.053667337	1.167480E+02	  0.053667337	2.552700E+01	  0.053667337	2.463300E+01
170	  0.053867739	-7.185000E+00	  0.053867739	1.165260E+02	  0.053867739	2.556600E+01	  0.053867739	2.473300E+01
171	  0.054068137	-7.184000E+00	  0.054068137	1.163000E+02	  0.054068137	2.561300E+01	  0.054068137	2.483100E+01
172	  0.054268539	-7.181000E+00	  0.054268539	1.160730E+02	  0.054268539	2.565600E+01	  0.054268539	2.493300E+01
173	  0.054468941	-7.183000E+00	  0.054468941	1.158430E+02	  0.054468941	2.571400E+01	  0.054468941	2.502900E+01
174	  0.054669339	-7.180000E+00	  0.054669339	1.156070E+02	  0.054669339	2.575700E+01	  0.054669339	2.513500E+01
175	  0.054869737	-7.181000E+00	  0.054869737	1.153960E+02	  0.054869737	2.580800E+01	  0.054869737	2.522400E+01
176	  0.055070139	-7.181000E+00	  0.055070139	1.151570E+02	  0.055070139	2.586400E+01	  0.055070139	2.532700E+01
177	  0.055270538	-7.180000E+00	  0.055270538	1.149500E+02	  0.055270538	2.590900E+01	  0.055270538	2.541800E+01
178	  0.055470940	-7.182000E+00	  0.055470940	1.147070E+02	  0.055470940	2.596900E+01	  0.055470940	2.552000E+01
179	  0.055671342	-7.180000E+00	  0.055671342	1.144800E+02	  0.055671342	2.601600E+01	  0.055671342	2.562200E+01
180	  0.055871744	-7.180000E+00	  0.055871744	1.142480E+02	  0.055871744	2.607100E+01	  0.055871744	2.572200E+01
181	  0.056072142	-7.175000E+00	  0.056072142	1.140200E+02	  0.056072142	2.611000E+01	  0.056072142	2.582800E+01
182	  0.056272544	-7.174000E+00	  0.056272544	1.137990E+02	  0.056272544	2.615800E+01	  0.056272544	2.592700E+01
183	  0.056472946	-7.175000E+00	  0.056472946	1.135720E+02	  0.056472946	2.621600E+01	  0.056472946	2.602300E+01
184	  0.056673344	-7.174000E+00	  0.056673344	1.133310E+02	  0.056673344	2.627000E+01	  0.056673344	2.613000E+01
185	  0.056873746	-7.172000E+00	  0.056873746	1.131010E+02	  0.056873746	2.632000E+01	  0.056873746	2.623300E+01
186	  0.057074148	-7.172000E+00	  0.057074148	1.128980E+02	  0.057074148	2.636900E+01	  0.057074148	2.632200E+01
187	  0.057274550	-7.171000E+00	  0.057274550	1.126580E+02	  0.057274550	2.642500E+01	  0.057274550	2.642800E+01
188	  0.057474948	-7.172000E+00	  0.057474948	1.124280E+02	  0.057474948	2.648400E+01	  0.057474948	2.652600E+01
189	  0.057675350	-7.170000E+00	  0.057675350	1.121880E+02	  0.057675350	2.653700E+01	  0.057675350	2.663500E+01
190	  0.057875752	-7.170000E+00	  0.057875752	1.119570E+02	  0.057875752	2.659300E+01	  0.057875752	2.673600E+01
191	  0.058076151	-7.171000E+00	  0.058076151	1.117420E+02	  0.058076151	2.664900E+01	  0.058076151	2.682900E+01
192	  0.058276553	-7.169000E+00	  0.058276553	1.115220E+02	  0.058276553	2.670000E+01	  0.058276553	2.692800E+01
193	  0.058476955	-7.167000E+00	  0.058476955	1.112800E+02	  0.058476955	2.675400E+01	  0.058476955	2.703700E+01
194	  0.058677353	-7.168000E+00	  0.058677353	1.110670E+02	  0.058677353	2.681200E+01	  0.058677353	2.712900E+01
195	  0.058877755	-7.168000E+00	  0.058877755	1.108510E+02	  0.058877755	2.686800E+01	  0.058877755	2.722300E+01
196	  0.059078157	-7.168000E+00	  0.059078157	1.106080E+02	  0.059078157	2.692900E+01	  0.059078157	2.733100E+01
197	  0.059278559	-7.167000E+00	  0.059278559	1.103780E+02	  0.059278559	2.698700E+01	  0.059278559	2.743300E+01
198	  0.059478957	-7.167000E+00	  0.059478957	1.101570E+02	  0.059478957	2.704300E+01	  0.059478957	2.753200E+01
199	  0.059679359	-7.164000E+00	  0.059679359	1.099410E+02	  0.059679359	2.709100E+01	  0.059679359	2.763200E+01
200	  0.059879761	-7.165000E+00	  0.059879761	1.097140E+02	  0.059879761	2.715100E+01	  0.059879761	2.773100E+01
201	  0.060080159	-7.166000E+00	  0.060080159	1.094650E+02	  0.060080159	2.722000E+01	  0.060080159	2.783900E+01
202	  0.060280561	-7.164000E+00	  0.060280561	1.092400E+02	  0.060280561	2.727500E+01	  0.060280561	2.794200E+01
203	  0.060480963	-7.162000E+00	  0.060480963	1.090290E+02	  0.060480963	2.732500E+01	  0.060480963	2.803900E+01
204	  0.060681365	-7.162000E+00	  0.060681365	1.087910E+02	  0.060681365	2.738900E+01	  0.060681365	2.814400E+01
205	  0.060881764	-7.160000E+00	  0.060881764	1.085580E+02	  0.060881764	2.744700E+01	  0.060881764	2.825100E+01
206	  0.061082166	-7.161000E+00	  0.061082166	1.083300E+02	  0.061082166	2.751000E+01	  0.061082166	2.835200E+01
207	  0.061282568	-7.158000E+00	  0.061282568	1.081130E+02	  0.061282568	2.756200E+01	  0.061282568	2.845300E+01
208	  0.061482966	-7.156000E+00	  0.061482966	1.078890E+02	  0.061482966	2.761800E+01	  0.061482966	2.855500E+01
209	  0.061683368	-7.155000E+00	  0.061683368	1.076680E+02	  0.061683368	2.767600E+01	  0.061683368	2.865600E+01
210	  0.061883770	-7.154000E+00	  0.061883770	1.074430E+02	  0.061883770	2.773500E+01	  0.061883770	2.875800E+01
211	  0.062084168	-7.153000E+00	  0.062084168	1.072180E+02	  0.062084168	2.779400E+01	  0.062084168	2.886200E+01
212	  0.062284570	-7.151000E+00	  0.062284570	1.070020E+02	  0.062284570	2.785000E+01	  0.062284570	2.896100E+01
213	  0.062484972	-7.137000E+00	  0.062484972	1.068590E+02	  0.062484972	2.784800E+01	  0.062484972	2.905200E+01
214	  0.062685370	-7.137000E+00	  0.062685370	1.066310E+02	  0.062685370	2.791200E+01	  0.062685370	2.915400E+01
215	  0.062885776	-7.132000E+00	  0.062885776	1.064220E+02	  0.062885776	2.795700E+01	  0.062885776	2.925800E+01
216	  0.063086174	-7.136000E+00	  0.063086174	1.061980E+02	  0.063086174	2.803400E+01	  0.063086174	2.935000E+01
217	  0.063286573	-7.139000E+00	  0.063286573	1.059580E+02	  0.063286573	2.811000E+01	  0.063286573	2.945300E+01
218	  0.063486971	-7.133000E+00	  0.063486971	1.057490E+02	  0.063486971	2.815500E+01	  0.063486971	2.955700E+01
219	  0.063687377	-7.132000E+00	  0.063687377	1.054990E+02	  0.063687377	2.822600E+01	  0.063687377	2.967200E+01
220	  0.063887775	-7.132000E+00	  0.063887775	1.052820E+02	  0.063887775	2.828800E+01	  0.063887775	2.977000E+01
221	  0.064088173	-7.134000E+00	  0.064088173	1.050590E+02	  0.064088173	2.835900E+01	  0.064088173	2.986700E+01
222	  0.064288579	-7.132000E+00	  0.064288579	1.048380E+02	  0.064288579	2.841900E+01	  0.064288579	2.997100E+01
223	  0.064488977	-7.129000E+00	  0.064488977	1.046070E+02	  0.064488977	2.847900E+01	  0.064488977	3.008200E+01
224	  0.064689375	-7.130000E+00	  0.064689375	1.043740E+02	  0.064689375	2.855200E+01	  0.064689375	3.018500E+01
225	  0.064889781	-7.130000E+00	  0.064889781	1.041700E+02	  0.064889781	2.861400E+01	  0.064889781	3.027700E+01
226	  0.065090179	-7.127000E+00	  0.065090179	1.039320E+02	  0.065090179	2.867600E+01	  0.065090179	3.039200E+01
227	  0.065290578	-7.128000E+00	  0.065290578	1.036940E+02	  0.065290578	2.875400E+01	  0.065290578	3.049700E+01
228	  0.065490983	-7.127000E+00	  0.065490983	1.034900E+02	  0.065490983	2.881200E+01	  0.065490983	3.059200E+01
229	  0.065691382	-7.125000E+00	  0.065691382	1.032490E+02	  0.065691382	2.888100E+01	  0.065691382	3.070600E+01
230	  0.065891780	-7.124000E+00	  0.065891780	1.030260E+02	  0.065891780	2.894700E+01	  0.065891780	3.080900E+01
231	  0.066092186	-7.127000E+00	  0.066092186	1.028140E+02	  0.066092186	2.902200E+01	  0.066092186	3.090000E+01
232	  0.066292584	-7.118000E+00	  0.066292584	1.025690E+02	  0.066292584	2.907100E+01	  0.066292584	3.103100E+01
233	  0.066492982	-7.120000E+00	  0.066492982	1.023400E+02	  0.066492982	2.914900E+01	  0.066492982	3.113200E+01
234	  0.066693388	-7.119000E+00	  0.066693388	1.020970E+02	  0.066693388	2.922500E+01	  0.066693388	3.124400E+01
235	  0.066893786	-7.119000E+00	  0.066893786	1.018970E+02	  0.066893786	2.928700E+01	  0.066893786	3.133700E+01
236	  0.067094192	-7.117000E+00	  0.067094192	1.016750E+02	  0.067094192	2.935200E+01	  0.067094192	3.144300E+01
237	  0.067294590	-7.115000E+00	  0.067294590	1.014330E+02	  0.067294590	2.942500E+01	  0.067294590	3.155700E+01
238	  0.067494988	-7.115000E+00	  0.067494988	1.012050E+02	  0.067494988	2.949900E+01	  0.067494988	3.166200E+01
239	  0.067695394	-7.112000E+00	  0.067695394	1.009760E+02	  0.067695394	2.956500E+01	  0.067695394	3.177400E+01
240	  0.067895792	-7.111000E+00	  0.067895792	1.007760E+02	  0.067895792	2.962700E+01	  0.067895792	3.186800E+01
241	  0.068096191	-7.110000E+00	  0.068096191	1.005290E+02	  0.068096191	2.970600E+01	  0.068096191	3.198400E+01
242	  0.068296596	-7.111000E+00	  0.068296596	1.003120E+02	  0.068296596	2.978200E+01	  0.068296596	3.208100E+01
243	  0.068496995	-7.107000E+00	  0.068496995	1.000940E+02	  0.068496995	2.984200E+01	  0.068496995	3.219200E+01
244	  0.068697393	-7.107000E+00	  0.068697393	9.985700E+01	  0.068697393	2.992400E+01	  0.068697393	3.230000E+01
245	  0.068897791	-7.106000E+00	  0.068897791	9.964600E+01	  0.068897791	2.999200E+01	  0.068897791	3.240000E+01
246	  0.069098189	-7.107000E+00	  0.069098189	9.941800E+01	  0.069098189	3.007000E+01	  0.069098189	3.250400E+01
247	  0.069298595	-7.106000E+00	  0.069298595	9.919100E+01	  0.069298595	3.014500E+01	  0.069298595	3.261200E+01
248	  0.069498993	-7.106000E+00	  0.069498993	9.896200E+01	  0.069498993	3.022500E+01	  0.069498993	3.271700E+01
249	  0.069699399	-7.106000E+00	  0.069699399	9.872300E+01	  0.069699399	3.030800E+01	  0.069699399	3.282700E+01
250	  0.069899797	-7.106000E+00	  0.069899797	9.850000E+01	  0.069899797	3.038500E+01	  0.069899797	3.293200E+01
251	  0.070100196	-7.102000E+00	  0.070100196	9.828100E+01	  0.070100196	3.044900E+01	  0.070100196	3.304300E+01
252	  0.070300601	-7.103000E+00	  0.070300601	9.804700E+01	  0.070300601	3.053600E+01	  0.070300601	3.314900E+01
253	  0.070501000	-7.099000E+00	  0.070501000	9.785100E+01	  0.070501000	3.059100E+01	  0.070501000	3.325000E+01
254	  0.070701398	-7.100000E+00	  0.070701398	9.760500E+01	  0.070701398	3.068400E+01	  0.070701398	3.336200E+01
255	  0.070901804	-7.099000E+00	  0.070901804	9.740400E+01	  0.070901804	3.075300E+01	  0.070901804	3.345700E+01
256	  0.071102202	-7.096000E+00	  0.071102202	9.716500E+01	  0.071102202	3.083000E+01	  0.071102202	3.357500E+01
257	  0.071302600	-7.098000E+00	  0.071302600	9.693500E+01	  0.071302600	3.091900E+01	  0.071302600	3.367900E+01
258	  0.071503006	-7.095000E+00	  0.071503006	9.671000E+01	  0.071503006	3.099000E+01	  0.071503006	3.379300E+01
259	  0.071703404	-7.095000E+00	  0.071703404	9.647700E+01	  0.071703404	3.107600E+01	  0.071703404	3.390100E+01
260	  0.071903802	-7.096000E+00	  0.071903802	9.625700E+01	  0.071903802	3.116100E+01	  0.071903802	3.400100E+01
261	  0.072104208	-7.093000E+00	  0.072104208	9.604300E+01	  0.072104208	3.123100E+01	  0.072104208	3.410900E+01
262	  0.072304606	-7.090000E+00	  0.072304606	9.581400E+01	  0.072304606	3.130800E+01	  0.072304606	3.422300E+01
263	  0.072505005	-7.090000E+00	  0.072505005	9.559400E+01	  0.072505005	3.139000E+01	  0.072505005	3.432700E+01
264	  0.072705410	-7.092000E+00	  0.072705410	9.536400E+01	  0.072705410	3.148300E+01	  0.072705410	3.443000E+01
265	  0.072905809	-7.087000E+00	  0.072905809	9.511700E+01	  0.072905809	3.156200E+01	  0.072905809	3.455800E+01
266	  0.073106214	-7.088000E+00	  0.073106214	9.491500E+01	  0.073106214	3.164100E+01	  0.073106214	3.465200E+01
267	  0.073306613	-7.089000E+00	  0.073306613	9.469700E+01	  0.073306613	3.172700E+01	  0.073306613	3.475300E+01
268	  0.073507011	-7.086000E+00	  0.073507011	9.448500E+01	  0.073507011	3.180100E+01	  0.073507011	3.486000E+01
269	  0.073707417	-7.088000E+00	  0.073707417	9.423900E+01	  0.073707417	3.190300E+01	  0.073707417	3.497000E+01
270	  0.073907815	-7.088000E+00	  0.073907815	9.402200E+01	  0.073907815	3.198500E+01	  0.073907815	3.507500E+01
271	  0.074108213	-7.088000E+00	  0.074108213	9.381200E+01	  0.074108213	3.206900E+01	  0.074108213	3.517300E+01
272	  0.074308619	-7.084000E+00	  0.074308619	9.358000E+01	  0.074308619	3.214800E+01	  0.074308619	3.529300E+01
273	  0.074509017	-7.081000E+00	  0.074509017	9.333700E+01	  0.074509017	3.223500E+01	  0.074509017	3.541700E+01
274	  0.074709415	-7.077000E+00	  0.074709415	9.311300E+01	  0.074709415	3.231300E+01	  0.074709415	3.553200E+01
275	  0.074909821	-7.079000E+00	  0.074909821	9.290000E+01	  0.074909821	3.240500E+01	  0.074909821	3.562800E+01
276	  0.075110219	-7.076000E+00	  0.075110219	9.268400E+01	  0.075110219	3.248200E+01	  0.075110219	3.573900E+01
277	  0.075310618	-7.076000E+00	  0.075310618	9.246300E+01	  0.075310618	3.257200E+01	  0.075310618	3.584300E+01
278	  0.075511023	-7.074000E+00	  0.075511023	9.221800E+01	  0.075511023	3.266600E+01	  0.075511023	3.596500E+01
279	  0.075711422	-7.076000E+00	  0.075711422	9.198600E+01	  0.075711422	3.276700E+01	  0.075711422	3.607100E+01
280	  0.075911827	-7.075000E+00	  0.075911827	9.177100E+01	  0.075911827	3.285300E+01	  0.075911827	3.617700E+01
281	  0.076112226	-7.073000E+00	  0.076112226	9.155200E+01	  0.076112226	3.293900E+01	  0.076112226	3.628500E+01
282	  0.076312624	-7.072000E+00	  0.076312624	9.134900E+01	  0.076312624	3.302000E+01	  0.076312624	3.638600E+01
283	  0.076513030	-7.072000E+00	  0.076513030	9.110700E+01	  0.076513030	3.312300E+01	  0.076513030	3.650000E+01
284	  0.076713428	-7.073000E+00	  0.076713428	9.085600E+01	  0.076713428	3.323200E+01	  0.076713428	3.661700E+01
285	  0.076913826	-7.072000E+00	  0.076913826	9.063000E+01	  0.076913826	3.332400E+01	  0.076913826	3.672900E+01
286	  0.077114232	-7.066000E+00	  0.077114232	9.042600E+01	  0.077114232	3.339400E+01	  0.077114232	3.684200E+01
287	  0.077314630	-7.067000E+00	  0.077314630	9.020900E+01	  0.077314630	3.349000E+01	  0.077314630	3.694400E+01
288	  0.077515028	-7.066000E+00	  0.077515028	9.000300E+01	  0.077515028	3.357600E+01	  0.077515028	3.704500E+01
289	  0.077715434	-7.064000E+00	  0.077715434	8.974500E+01	  0.077715434	3.368000E+01	  0.077715434	3.717600E+01
290	  0.077915832	-7.065000E+00	  0.077915832	8.952400E+01	  0.077915832	3.378200E+01	  0.077915832	3.727800E+01
291	  0.078116231	-7.064000E+00	  0.078116231	8.930500E+01	  0.078116231	3.387500E+01	  0.078116231	3.738700E+01
292	  0.078316636	-7.064000E+00	  0.078316636	8.906500E+01	  0.078316636	3.398200E+01	  0.078316636	3.750100E+01
293	  0.078517035	-7.065000E+00	  0.078517035	8.884500E+01	  0.078517035	3.408200E+01	  0.078517035	3.760500E+01
294	  0.078717433	-7.061000E+00	  0.078717433	8.861900E+01	  0.078717433	3.417200E+01	  0.078717433	3.772400E+01
295	  0.078917839	-7.061000E+00	  0.078917839	8.838300E+01	  0.078917839	3.427700E+01	  0.078917839	3.783900E+01
296	  0.079118237	-7.059000E+00	  0.079118237	8.816800E+01	  0.079118237	3.436800E+01	  0.079118237	3.794900E+01
297	  0.079318643	-7.059000E+00	  0.079318643	8.794000E+01	  0.079318643	3.447300E+01	  0.079318643	3.805800E+01
298	  0.079519041	-7.059000E+00	  0.079519041	8.772900E+01	  0.079519041	3.456900E+01	  0.079519041	3.816000E+01
299	  0.079719439	-7.057000E+00	  0.079719439	8.749500E+01	  0.079719439	3.467300E+01	  0.079719439	3.827800E+01
300	  0.079919845	-7.057000E+00	  0.079919845	8.727000E+01	  0.079919845	3.477600E+01	  0.079919845	3.838700E+01
301	  0.080120243	-7.056000E+00	  0.080120243	8.706200E+01	  0.080120243	3.487100E+01	  0.080120243	3.848900E+01
302	  0.080320641	-7.055000E+00	  0.080320641	8.683000E+01	  0.080320641	3.497500E+01	  0.080320641	3.860600E+01
303	  0.080521047	-7.054000E+00	  0.080521047	8.662200E+01	  0.080521047	3.507000E+01	  0.080521047	3.871000E+01
304	  0.080721445	-7.055000E+00	  0.080721445	8.638100E+01	  0.080721445	3.518900E+01	  0.080721445	3.882300E+01
305	  0.080921844	-7.054000E+00	  0.080921844	8.614000E+01	  0.080921844	3.530100E+01	  0.080921844	3.894300E+01
306	  0.081122249	-7.052000E+00	  0.081122249	8.594700E+01	  0.081122249	3.538700E+01	  0.081122249	3.904200E+01
307	  0.081322648	-7.048000E+00	  0.081322648	8.571800E+01	  0.081322648	3.548700E+01	  0.081322648	3.916400E+01
308	  0.081523046	-7.051000E+00	  0.081523046	8.549300E+01	  0.081523046	3.560400E+01	  0.081523046	3.926600E+01
309	  0.081723452	-7.049000E+00	  0.081723452	8.526000E+01	  0.081723452	3.571300E+01	  0.081723452	3.938400E+01
310	  0.081923850	-7.046000E+00	  0.081923850	8.503800E+01	  0.081923850	3.581100E+01	  0.081923850	3.950200E+01
311	  0.082124248	-7.048000E+00	  0.082124248	8.482600E+01	  0.082124248	3.592400E+01	  0.082124248	3.959700E+01
312	  0.082324654	-7.045000E+00	  0.082324654	8.457900E+01	  0.082324654	3.603600E+01	  0.082324654	3.972700E+01
313	  0.082525052	-7.045000E+00	  0.082525052	8.437900E+01	  0.082525052	3.613800E+01	  0.082525052	3.982300E+01
314	  0.082725458	-7.045000E+00	  0.082725458	8.415500E+01	  0.082725458	3.624900E+01	  0.082725458	3.993300E+01
315	  0.082925856	-7.045000E+00	  0.082925856	8.391900E+01	  0.082925856	3.636900E+01	  0.082925856	4.004800E+01
316	  0.083126254	-7.046000E+00	  0.083126254	8.370200E+01	  0.083126254	3.648300E+01	  0.083126254	4.015000E+01
317	  0.083326660	-7.043000E+00	  0.083326660	8.348300E+01	  0.083326660	3.658800E+01	  0.083326660	4.026400E+01
318	  0.083527058	-7.043000E+00	  0.083527058	8.327300E+01	  0.083527058	3.669500E+01	  0.083527058	4.036700E+01
319	  0.083727457	-7.041000E+00	  0.083727457	8.302600E+01	  0.083727457	3.681700E+01	  0.083727457	4.049300E+01
320	  0.083927862	-7.042000E+00	  0.083927862	8.280100E+01	  0.083927862	3.693600E+01	  0.083927862	4.060200E+01
321	  0.084128261	-7.041000E+00	  0.084128261	8.258300E+01	  0.084128261	3.705000E+01	  0.084128261	4.070800E+01
322	  0.084328659	-7.039000E+00	  0.084328659	8.237100E+01	  0.084328659	3.715500E+01	  0.084328659	4.081800E+01
323	  0.084529065	-7.041000E+00	  0.084529065	8.216000E+01	  0.084529065	3.727100E+01	  0.084529065	4.091700E+01
324	  0.084729463	-7.038000E+00	  0.084729463	8.193100E+01	  0.084729463	3.738600E+01	  0.084729463	4.103700E+01
325	  0.084929861	-7.037000E+00	  0.084929861	8.168700E+01	  0.084929861	3.751200E+01	  0.084929861	4.116000E+01
326	  0.085130267	-7.034000E+00	  0.085130267	8.146700E+01	  0.085130267	3.762200E+01	  0.085130267	4.127600E+01
327	  0.085330658	-7.037000E+00	  0.085330658	8.125000E+01	  0.085330658	3.775100E+01	  0.085330658	4.137100E+01
328	  0.085531056	-7.034000E+00	  0.085531056	8.103900E+01	  0.085531056	3.785700E+01	  0.085531056	4.148400E+01
329	  0.085731462	-7.035000E+00	  0.085731462	8.081300E+01	  0.085731462	3.798100E+01	  0.085731462	4.159300E+01
330	  0.085931860	-7.032000E+00	  0.085931860	8.057700E+01	  0.085931860	3.810300E+01	  0.085931860	4.171800E+01
331	  0.086132258	-7.035000E+00	  0.086132258	8.036600E+01	  0.086132258	3.823000E+01	  0.086132258	4.181100E+01
332	  0.086332664	-7.032000E+00	  0.086332664	8.013300E+01	  0.086332664	3.835000E+01	  0.086332664	4.193400E+01
333	  0.086533062	-7.033000E+00	  0.086533062	7.991200E+01	  0.086533062	3.847900E+01	  0.086533062	4.203700E+01
334	  0.086733460	-7.033000E+00	  0.086733460	7.968800E+01	  0.086733460	3.860600E+01	  0.086733460	4.214600E+01
335	  0.086933866	-7.032000E+00	  0.086933866	7.946800E+01	  0.086933866	3.872800E+01	  0.086933866	4.225600E+01
336	  0.087134264	-7.033000E+00	  0.087134264	7.924900E+01	  0.087134264	3.885600E+01	  0.087134264	4.236100E+01
337	  0.087334670	-7.031000E+00	  0.087334670	7.902700E+01	  0.087334670	3.898000E+01	  0.087334670	4.247300E+01
338	  0.087535068	-7.031000E+00	  0.087535068	7.879300E+01	  0.087535068	3.911500E+01	  0.087535068	4.258800E+01
339	  0.087735467	-7.028000E+00	  0.087735467	7.857200E+01	  0.087735467	3.923400E+01	  0.087735467	4.270800E+01
340	  0.087935872	-7.027000E+00	  0.087935872	7.836800E+01	  0.087935872	3.934900E+01	  0.087935872	4.281200E+01
341	  0.088136271	-7.031000E+00	  0.088136271	7.812800E+01	  0.088136271	3.950400E+01	  0.088136271	4.291200E+01
342	  0.088336669	-7.027000E+00	  0.088336669	7.792400E+01	  0.088336669	3.961300E+01	  0.088336669	4.302600E+01
343	  0.088537075	-7.028000E+00	  0.088537075	7.768600E+01	  0.088537075	3.975600E+01	  0.088537075	4.314000E+01
344	  0.088737473	-7.027000E+00	  0.088737473	7.748900E+01	  0.088737473	3.987300E+01	  0.088737473	4.323800E+01
345	  0.088937871	-7.026000E+00	  0.088937871	7.725200E+01	  0.088937871	4.001300E+01	  0.088937871	4.335600E+01
346	  0.089138277	-7.027000E+00	  0.089138277	7.703200E+01	  0.089138277	4.014900E+01	  0.089138277	4.346000E+01
347	  0.089338675	-7.026000E+00	  0.089338675	7.680000E+01	  0.089338675	4.028800E+01	  0.089338675	4.357400E+01
348	  0.089539073	-7.026000E+00	  0.089539073	7.659300E+01	  0.089539073	4.041600E+01	  0.089539073	4.367500E+01
349	  0.089739479	-7.025000E+00	  0.089739479	7.636900E+01	  0.089739479	4.055100E+01	  0.089739479	4.378700E+01
350	  0.089939877	-7.025000E+00	  0.089939877	7.613400E+01	  0.089939877	4.069500E+01	  0.089939877	4.390400E+01
351	  0.090140276	-7.026000E+00	  0.090140276	7.593000E+01	  0.090140276	4.082600E+01	  0.090140276	4.399700E+01
352	  0.090340681	-7.024000E+00	  0.090340681	7.569800E+01	  0.090340681	4.096700E+01	  0.090340681	4.411700E+01
353	  0.090541080	-7.023000E+00	  0.090541080	7.548300E+01	  0.090541080	4.110000E+01	  0.090541080	4.422400E+01
354	  0.090741485	-7.024000E+00	  0.090741485	7.526500E+01	  0.090741485	4.124100E+01	  0.090741485	4.432700E+01
355	  0.090941884	-7.026000E+00	  0.090941884	7.502800E+01	  0.090941884	4.139900E+01	  0.090941884	4.443200E+01
356	  0.091142282	-7.023000E+00	  0.091142282	7.480400E+01	  0.091142282	4.153400E+01	  0.091142282	4.455200E+01
357	  0.091342688	-7.023000E+00	  0.091342688	7.456800E+01	  0.091342688	4.168700E+01	  0.091342688	4.466600E+01
358	  0.091543086	-7.021000E+00	  0.091543086	7.434400E+01	  0.091543086	4.182700E+01	  0.091543086	4.478200E+01
359	  0.091743484	-7.020000E+00	  0.091743484	7.412900E+01	  0.091743484	4.196500E+01	  0.091743484	4.489100E+01
360	  0.091943890	-7.019000E+00	  0.091943890	7.391400E+01	  0.091943890	4.210200E+01	  0.091943890	4.499900E+01
361	  0.092144288	-7.017000E+00	  0.092144288	7.369800E+01	  0.092144288	4.224100E+01	  0.092144288	4.511000E+01
362	  0.092344686	-7.021000E+00	  0.092344686	7.346700E+01	  0.092344686	4.240800E+01	  0.092344686	4.520200E+01
363	  0.092545092	-7.019000E+00	  0.092545092	7.325800E+01	  0.092545092	4.254200E+01	  0.092545092	4.531100E+01
364	  0.092745490	-7.020000E+00	  0.092745490	7.301700E+01	  0.092745490	4.270800E+01	  0.092745490	4.542200E+01
365	  0.092945889	-7.018000E+00	  0.092945889	7.279000E+01	  0.092945889	4.285300E+01	  0.092945889	4.554200E+01
366	  0.093146294	-7.018000E+00	  0.093146294	7.258700E+01	  0.093146294	4.299300E+01	  0.093146294	4.563900E+01
367	  0.093346693	-7.016000E+00	  0.093346693	7.234500E+01	  0.093346693	4.315400E+01	  0.093346693	4.576100E+01
368	  0.093547091	-7.015000E+00	  0.093547091	7.213000E+01	  0.093547091	4.330000E+01	  0.093547091	4.586700E+01
369	  0.093747497	-7.014000E+00	  0.093747497	7.190200E+01	  0.093747497	4.345500E+01	  0.093747497	4.598200E+01
370	  0.093947895	-7.015000E+00	  0.093947895	7.170100E+01	  0.093947895	4.359700E+01	  0.093947895	4.607600E+01
371	  0.094148301	-7.012000E+00	  0.094148301	7.145900E+01	  0.094148301	4.375900E+01	  0.094148301	4.620300E+01
372	  0.094348699	-7.011000E+00	  0.094348699	7.125200E+01	  0.094348699	4.390200E+01	  0.094348699	4.630600E+01
373	  0.094549097	-7.011000E+00	  0.094549097	7.101100E+01	  0.094549097	4.407400E+01	  0.094549097	4.641800E+01
374	  0.094749503	-7.010000E+00	  0.094749503	7.078800E+01	  0.094749503	4.422900E+01	  0.094749503	4.653100E+01
375	  0.094949901	-7.010000E+00	  0.094949901	7.059100E+01	  0.094949901	4.437200E+01	  0.094949901	4.662200E+01
376	  0.095150299	-7.008000E+00	  0.095150299	7.035500E+01	  0.095150299	4.453600E+01	  0.095150299	4.674500E+01
377	  0.095350705	-7.008000E+00	  0.095350705	7.013200E+01	  0.095350705	4.469900E+01	  0.095350705	4.684900E+01
378	  0.095551103	-7.006000E+00	  0.095551103	6.988400E+01	  0.095551103	4.487400E+01	  0.095551103	4.697600E+01
379	  0.095751502	-7.007000E+00	  0.095751502	6.967500E+01	  0.095751502	4.503200E+01	  0.095751502	4.706900E+01
380	  0.095951907	-7.004000E+00	  0.095951907	6.945200E+01	  0.095951907	4.518800E+01	  0.095951907	4.718800E+01
381	  0.096152306	-7.004000E+00	  0.096152306	6.923800E+01	  0.096152306	4.534700E+01	  0.096152306	4.728900E+01
382	  0.096352704	-7.002000E+00	  0.096352704	6.901300E+01	  0.096352704	4.551100E+01	  0.096352704	4.740200E+01
383	  0.096553110	-7.001000E+00	  0.096553110	6.878700E+01	  0.096553110	4.567800E+01	  0.096553110	4.751500E+01
384	  0.096753508	-7.000000E+00	  0.096753508	6.857800E+01	  0.096753508	4.583600E+01	  0.096753508	4.761400E+01
385	  0.096953906	-6.997000E+00	  0.096953906	6.833700E+01	  0.096953906	4.600900E+01	  0.096953906	4.774400E+01
386	  0.097154312	-6.998000E+00	  0.097154312	6.811500E+01	  0.097154312	4.618300E+01	  0.097154312	4.784100E+01
387	  0.097354710	-6.997000E+00	  0.097354710	6.791700E+01	  0.097354710	4.633300E+01	  0.097354710	4.793700E+01
388	  0.097555116	-6.995000E+00	  0.097555116	6.767200E+01	  0.097555116	4.651800E+01	  0.097555116	4.806200E+01
389	  0.097755514	-6.992000E+00	  0.097755514	6.745400E+01	  0.097755514	4.668100E+01	  0.097755514	4.817500E+01
390	  0.097955912	-6.993000E+00	  0.097955912	6.723300E+01	  0.097955912	4.685600E+01	  0.097955912	4.827400E+01
391	  0.098156318	-6.991000E+00	  0.098156318	6.700200E+01	  0.098156318	4.703300E+01	  0.098156318	4.839100E+01
392	  0.098356716	-6.991000E+00	  0.098356716	6.678300E+01	  0.098356716	4.720800E+01	  0.098356716	4.849000E+01
393	  0.098557115	-6.990000E+00	  0.098557115	6.658100E+01	  0.098557115	4.736600E+01	  0.098557115	4.858800E+01
394	  0.098757520	-6.990000E+00	  0.098757520	6.633800E+01	  0.098757520	4.756400E+01	  0.098757520	4.869700E+01
395	  0.098957919	-6.988000E+00	  0.098957919	6.613400E+01	  0.098957919	4.772100E+01	  0.098957919	4.880500E+01
396	  0.099158317	-6.987000E+00	  0.099158317	6.592000E+01	  0.099158317	4.789100E+01	  0.099158317	4.890800E+01
397	  0.099358723	-6.987000E+00	  0.099358723	6.567900E+01	  0.099358723	4.809000E+01	  0.099358723	4.901600E+01
398	  0.099559121	-6.985000E+00	  0.099559121	6.546600E+01	  0.099559121	4.825900E+01	  0.099559121	4.912400E+01
399	  0.099759519	-6.983000E+00	  0.099759519	6.524000E+01	  0.099759519	4.844400E+01	  0.099759519	4.923200E+01
400	  0.099959925	-6.978000E+00	  0.099959925	6.508100E+01	  0.099959925	4.856100E+01	  0.099959925	4.933100E+01
401	  0.100160323	-6.980000E+00	  0.100160323	6.484100E+01	  0.100160323	4.876600E+01	  0.100160323	4.943100E+01
402	  0.100360721	-6.976000E+00	  0.100360721	6.460900E+01	  0.100360721	4.895300E+01	  0.100360721	4.955300E+01
403	  0.100561127	-6.972000E+00	  0.100561127	6.438900E+01	  0.100561127	4.912500E+01	  0.100561127	4.967900E+01
404	  0.100761525	-6.974000E+00	  0.100761525	6.419200E+01	  0.100761525	4.929900E+01	  0.100761525	4.975500E+01
405	  0.100961931	-6.972000E+00	  0.100961931	6.394700E+01	  0.100961931	4.950400E+01	  0.100961931	4.987400E+01
406	  0.101162329	-6.970000E+00	  0.101162329	6.372700E+01	  0.101162329	4.968900E+01	  0.101162329	4.998200E+01
407	  0.101362728	-6.968000E+00	  0.101362728	6.351800E+01	  0.101362728	4.986600E+01	  0.101362728	5.008400E+01
408	  0.101563133	-6.972000E+00	  0.101563133	6.328600E+01	  0.101563133	5.007900E+01	  0.101563133	5.016400E+01
409	  0.101763532	-6.967000E+00	  0.101763532	6.309500E+01	  0.101763532	5.023500E+01	  0.101763532	5.027500E+01
410	  0.101963930	-6.972000E+00	  0.101963930	6.287300E+01	  0.101963930	5.044400E+01	  0.101963930	5.034300E+01
411	  0.102164336	-6.972000E+00	  0.102164336	6.263300E+01	  0.102164336	5.065800E+01	  0.102164336	5.044600E+01
412	  0.102364734	-6.964000E+00	  0.102364734	6.245500E+01	  0.102364734	5.079300E+01	  0.102364734	5.057300E+01
413	  0.102565132	-6.966000E+00	  0.102565132	6.221200E+01	  0.102565132	5.101800E+01	  0.102565132	5.066600E+01
414	  0.102765530	-6.967000E+00	  0.102765530	6.198000E+01	  0.102765530	5.123000E+01	  0.102765530	5.076000E+01
415	  0.102965929	-6.962000E+00	  0.102965929	6.176500E+01	  0.102965929	5.141400E+01	  0.102965929	5.087900E+01
416	  0.103166327	-6.961000E+00	  0.103166327	6.154800E+01	  0.103166327	5.160800E+01	  0.103166327	5.097900E+01
417	  0.103366733	-6.962000E+00	  0.103366733	6.133500E+01	  0.103366733	5.180700E+01	  0.103366733	5.106500E+01
418	  0.103567131	-6.965000E+00	  0.103567131	6.110100E+01	  0.103567131	5.203100E+01	  0.103567131	5.114600E+01
419	  0.103767529	-6.963000E+00	  0.103767529	6.086000E+01	  0.103767529	5.225000E+01	  0.103767529	5.125900E+01
420	  0.103967935	-6.963000E+00	  0.103967935	6.065200E+01	  0.103967935	5.244500E+01	  0.103967935	5.134600E+01
421	  0.104168333	-6.961000E+00	  0.104168333	6.046200E+01	  0.104168333	5.262000E+01	  0.104168333	5.143500E+01
422	  0.104368731	-6.963000E+00	  0.104368731	6.024300E+01	  0.104368731	5.283200E+01	  0.104368731	5.151500E+01
423	  0.104569137	-6.960000E+00	  0.104569137	6.001200E+01	  0.104569137	5.304600E+01	  0.104569137	5.162600E+01
424	  0.104769535	-6.962000E+00	  0.104769535	5.979700E+01	  0.104769535	5.325800E+01	  0.104769535	5.170100E+01
425	  0.104969934	-6.958000E+00	  0.104969934	5.957100E+01	  0.104969934	5.346200E+01	  0.104969934	5.182200E+01
426	  0.105170339	-6.959000E+00	  0.105170339	5.934000E+01	  0.105170339	5.369100E+01	  0.105170339	5.190600E+01
427	  0.105370738	-6.957000E+00	  0.105370738	5.913900E+01	  0.105370738	5.388200E+01	  0.105370738	5.200000E+01
428	  0.105571143	-6.958000E+00	  0.105571143	5.892500E+01	  0.105571143	5.409300E+01	  0.105571143	5.208100E+01
429	  0.105771542	-6.955000E+00	  0.105771542	5.869100E+01	  0.105771542	5.431500E+01	  0.105771542	5.219600E+01
430	  0.105971940	-6.956000E+00	  0.105971940	5.848600E+01	  0.105971940	5.452400E+01	  0.105971940	5.226400E+01
431	  0.106172346	-6.950000E+00	  0.106172346	5.824300E+01	  0.106172346	5.475100E+01	  0.106172346	5.240000E+01
432	  0.106372744	-6.950000E+00	  0.106372744	5.808000E+01	  0.106372744	5.491400E+01	  0.106372744	5.246400E+01
433	  0.106573142	-6.953000E+00	  0.106573142	5.782700E+01	  0.106573142	5.517500E+01	  0.106573142	5.254500E+01
434	  0.106773548	-6.952000E+00	  0.106773548	5.761600E+01	  0.106773548	5.538800E+01	  0.106773548	5.263100E+01
435	  0.106973946	-6.950000E+00	  0.106973946	5.738100E+01	  0.106973946	5.562400E+01	  0.106973946	5.273300E+01
436	  0.107174344	-6.947000E+00	  0.107174344	5.716500E+01	  0.107174344	5.583600E+01	  0.107174344	5.284100E+01
437	  0.107374750	-6.946000E+00	  0.107374750	5.696300E+01	  0.107374750	5.604300E+01	  0.107374750	5.292100E+01
438	  0.107575148	-6.948000E+00	  0.107575148	5.672900E+01	  0.107575148	5.629200E+01	  0.107575148	5.299400E+01
439	  0.107775547	-6.945000E+00	  0.107775547	5.651700E+01	  0.107775547	5.650600E+01	  0.107775547	5.309200E+01
440	  0.107975952	-6.949000E+00	  0.107975952	5.632900E+01	  0.107975952	5.671100E+01	  0.107975952	5.314000E+01
441	  0.108176351	-6.946000E+00	  0.108176351	5.609700E+01	  0.108176351	5.694900E+01	  0.108176351	5.324500E+01
442	  0.108376749	-6.940000E+00	  0.108376749	5.585400E+01	  0.108376749	5.719300E+01	  0.108376749	5.337400E+01
443	  0.108577155	-6.942000E+00	  0.108577155	5.564100E+01	  0.108577155	5.742400E+01	  0.108577155	5.343800E+01
444	  0.108777553	-6.937000E+00	  0.108777553	5.541900E+01	  0.108777553	5.765300E+01	  0.108777553	5.354800E+01
445	  0.108977959	-6.937000E+00	  0.108977959	5.523000E+01	  0.108977959	5.785600E+01	  0.108977959	5.361800E+01
446	  0.109178357	-6.939000E+00	  0.109178357	5.497200E+01	  0.109178357	5.814100E+01	  0.109178357	5.369700E+01
447	  0.109378755	-6.937000E+00	  0.109378755	5.477800E+01	  0.109378755	5.834800E+01	  0.109378755	5.377600E+01
448	  0.109579161	-6.936000E+00	  0.109579161	5.453800E+01	  0.109579161	5.861000E+01	  0.109579161	5.386700E+01
449	  0.109779559	-6.937000E+00	  0.109779559	5.434600E+01	  0.109779559	5.882500E+01	  0.109779559	5.392300E+01
450	  0.109979957	-6.936000E+00	  0.109979957	5.410100E+01	  0.109979957	5.909500E+01	  0.109979957	5.401300E+01
451	  0.110180363	-6.936000E+00	  0.110180363	5.389300E+01	  0.110180363	5.932600E+01	  0.110180363	5.408600E+01
452	  0.110380761	-6.932000E+00	  0.110380761	5.368200E+01	  0.110380761	5.955400E+01	  0.110380761	5.418800E+01
453	  0.110581160	-6.930000E+00	  0.110581160	5.344300E+01	  0.110581160	5.982100E+01	  0.110581160	5.427400E+01
454	  0.110781565	-6.934000E+00	  0.110781565	5.324700E+01	  0.110781565	6.005200E+01	  0.110781565	5.430900E+01
455	  0.110981964	-6.930000E+00	  0.110981964	5.302500E+01	  0.110981964	6.029800E+01	  0.110981964	5.440900E+01
456	  0.111182362	-6.926000E+00	  0.111182362	5.279900E+01	  0.111182362	6.054800E+01	  0.111182362	5.451300E+01
457	  0.111382768	-6.928000E+00	  0.111382768	5.260200E+01	  0.111382768	6.077900E+01	  0.111382768	5.456200E+01
458	  0.111583166	-6.927000E+00	  0.111583166	5.236100E+01	  0.111583166	6.105800E+01	  0.111583166	5.463900E+01
459	  0.111783572	-6.926000E+00	  0.111783572	5.216400E+01	  0.111783572	6.128600E+01	  0.111783572	5.470800E+01
460	  0.111983970	-6.925000E+00	  0.111983970	5.193400E+01	  0.111983970	6.155400E+01	  0.111983970	5.478400E+01
461	  0.112184368	-6.924000E+00	  0.112184368	5.171000E+01	  0.112184368	6.181700E+01	  0.112184368	5.486000E+01
462	  0.112384774	-6.922000E+00	  0.112384774	5.148900E+01	  0.112384774	6.207500E+01	  0.112384774	5.493900E+01
463	  0.112585172	-6.924000E+00	  0.112585172	5.128100E+01	  0.112585172	6.232600E+01	  0.112585172	5.498600E+01
464	  0.112785570	-6.923000E+00	  0.112785570	5.107900E+01	  0.112785570	6.256600E+01	  0.112785570	5.505500E+01
465	  0.112985976	-6.921000E+00	  0.112985976	5.082100E+01	  0.112985976	6.287500E+01	  0.112985976	5.513600E+01
466	  0.113186374	-6.917000E+00	  0.113186374	5.062900E+01	  0.113186374	6.310000E+01	  0.113186374	5.522200E+01
467	  0.113386773	-6.921000E+00	  0.113386773	5.042200E+01	  0.113386773	6.335900E+01	  0.113386773	5.524900E+01
468	  0.113587178	-6.922000E+00	  0.113587178	5.020700E+01	  0.113587178	6.362500E+01	  0.113587178	5.529700E+01
469	  0.113787577	-6.917000E+00	  0.113787577	4.999900E+01	  0.113787577	6.387200E+01	  0.113787577	5.539600E+01
470	  0.113987975	-6.918000E+00	  0.113987975	4.976600E+01	  0.113987975	6.416300E+01	  0.113987975	5.544200E+01
471	  0.114188381	-6.918000E+00	  0.114188381	4.955600E+01	  0.114188381	6.442500E+01	  0.114188381	5.549400E+01
472	  0.114388779	-6.916000E+00	  0.114388779	4.934100E+01	  0.114388779	6.468900E+01	  0.114388779	5.557000E+01
473	  0.114589177	-6.916000E+00	  0.114589177	4.912900E+01	  0.114589177	6.495500E+01	  0.114589177	5.562100E+01
474	  0.114789583	-6.914000E+00	  0.114789583	4.891400E+01	  0.114789583	6.522400E+01	  0.114789583	5.568600E+01
475	  0.114989981	-6.911000E+00	  0.114989981	4.868400E+01	  0.114989981	6.551400E+01	  0.114989981	5.576100E+01
476	  0.115190387	-6.913000E+00	  0.115190387	4.848500E+01	  0.115190387	6.577000E+01	  0.115190387	5.579400E+01
477	  0.115390785	-6.909000E+00	  0.115390785	4.824500E+01	  0.115390785	6.607300E+01	  0.115390785	5.587800E+01
478	  0.115591183	-6.909000E+00	  0.115591183	4.803900E+01	  0.115591183	6.633900E+01	  0.115591183	5.592400E+01
479	  0.115791589	-6.909000E+00	  0.115791589	4.782100E+01	  0.115791589	6.662300E+01	  0.115791589	5.596800E+01
480	  0.115991987	-6.908000E+00	  0.115991987	4.759900E+01	  0.115991987	6.691000E+01	  0.115991987	5.602900E+01
481	  0.116192386	-6.907000E+00	  0.116192386	4.738300E+01	  0.116192386	6.719300E+01	  0.116192386	5.607300E+01
482	  0.116392791	-6.906000E+00	  0.116392791	4.718700E+01	  0.116392791	6.744900E+01	  0.116392791	5.612800E+01
483	  0.116593190	-6.907000E+00	  0.116593190	4.695600E+01	  0.116593190	6.775700E+01	  0.116593190	5.615900E+01
484	  0.116793588	-6.908000E+00	  0.116793588	4.675700E+01	  0.116793588	6.802300E+01	  0.116793588	5.618800E+01
485	  0.116993994	-6.906000E+00	  0.116993994	4.650900E+01	  0.116993994	6.835200E+01	  0.116993994	5.624900E+01
486	  0.117194392	-6.903000E+00	  0.117194392	4.632600E+01	  0.117194392	6.859500E+01	  0.117194392	5.630400E+01
487	  0.117394790	-6.903000E+00	  0.117394790	4.611500E+01	  0.117394790	6.888000E+01	  0.117394790	5.634400E+01
488	  0.117595196	-6.903000E+00	  0.117595196	4.590200E+01	  0.117595196	6.916900E+01	  0.117595196	5.637300E+01
489	  0.117795594	-6.901000E+00	  0.117795594	4.567900E+01	  0.117795594	6.947100E+01	  0.117795594	5.642700E+01
490	  0.117995992	-6.901000E+00	  0.117995992	4.546900E+01	  0.117995992	6.976100E+01	  0.117995992	5.645300E+01
491	  0.118196398	-6.899000E+00	  0.118196398	4.521500E+01	  0.118196398	7.010800E+01	  0.118196398	5.651200E+01
492	  0.118396796	-6.901000E+00	  0.118396796	4.502500E+01	  0.118396796	7.037300E+01	  0.118396796	5.652100E+01
493	  0.118597202	-6.900000E+00	  0.118597202	4.480200E+01	  0.118597202	7.068400E+01	  0.118597202	5.655100E+01
494	  0.118797600	-6.898000E+00	  0.118797600	4.459700E+01	  0.118797600	7.096800E+01	  0.118797600	5.659600E+01
495	  0.118997999	-6.900000E+00	  0.118997999	4.436500E+01	  0.118997999	7.129600E+01	  0.118997999	5.660400E+01
496	  0.119198404	-6.896000E+00	  0.119198404	4.416800E+01	  0.119198404	7.157000E+01	  0.119198404	5.666600E+01
497	  0.119398803	-6.896000E+00	  0.119398803	4.393400E+01	  0.119398803	7.190400E+01	  0.119398803	5.668700E+01
498	  0.119599201	-6.897000E+00	  0.119599201	4.373600E+01	  0.119599201	7.218600E+01	  0.119599201	5.669400E+01
499	  0.119799607	-6.899000E+00	  0.119799607	4.351200E+01	  0.119799607	7.250800E+01	  0.119799607	5.669600E+01
500	  0.120000005	-6.894000E+00	  0.120000005	4.331500E+01	  0.120000005	7.278800E+01	  0.120000005	5.676000E+01
