! Anritsu VNA Master:             	Model: MS2036C/10/77
! SN:             	1601066
! /bd0/18may08.cable.cal/uu.200.2.txt
! Existing Calibration Information:
! TYPE:             	Current Settings	Active Cal Settings
! TIME:             	05/08/2018 06:04:33 PM	05/08/2018 05:57:55 PM
! INTERNAL TEMP:    	49.3 C	49.3 C
! # POINTS:         	500	500
! START FREQ:       	20.000 MHz	20.000 MHz
! STOP FREQ:        	120.000 MHz	120.000 MHz
! SOURCE POWER:     	High	High
! IFBW:             	50 Hz	50 Hz
! AVG FACTOR:       	  1 	  1 
! REF PLANE 1:      	0 mm	0 mm
! REF PLANE 2:      	0 mm	0 mm
! CAL TYPE:         	Full S11	Full S11
! CAL METHOD:       	SOLT	SOLT
! CAL LINE TYPE:    	Coax	Coax
! DUT PORT 1:       	K-Conn(F)	K-Conn(F)
! DUT PORT 2:       	K-Conn(F)	K-Conn(F)
! CAL STATUS:       	OK: Accuracy High	--
! PROP-V:       	0.700
! CABLE LOSS:       	0.000 dB/m
! REF IMPEDANCE:       	50.0
! Trace Specific Parameters:	TR1	TR2	TR3	TR4
! TRACE.#.Y (GRAPH TYPE)	LOG MAG	PHASE	REAL IMPEDANCE	IMAGINARY IMPEDANCE
! TRACE.#.X 	FREQ.GHZ	FREQ.GHZ	FREQ.GHZ	FREQ.GHZ
! S-PARAMETER	S11	S11	S11	S11
! SMOOTH/APERTURE %	0	0	0	0
! WINDOW	NSL	NSL	NSL	NSL
! GATING	OFF	OFF	OFF	OFF
! FGTD	OFF	OFF	OFF	OFF
Marker Information per Trace:	TR1	TR2	TR3	TR4
!MK1	--	"MK1 TR2:  20.000 MHz,PH:-21.06°"	--	--
!MK2	--	--	"MK2 TR3:  70.100 200 MHz,Z:(31.842 ohm, -54.235 ohm)"	--
!MK3	--	--	--	--
!MK4	--	--	--	--
!MK5	--	--	--	--
!MK6	--	--	--	--
!MK7	--	--	--	--
!MK8	--	--	--	--
PNT	TR1.FREQ.GHZ	TR1.LOG MAG.dB	TR2.FREQ.GHZ	TR2.PHASE.deg	TR3.FREQ.GHZ	TR3.REAL IMPEDANCE.ohm	TR4.FREQ.GHZ	TR4.IMAGINARY IMPEDANCE.ohm
1	  0.020000000	-4.555000E+00	  0.020000000	-2.105500E+01	  0.020000000	1.322630E+02	  0.020000000	-8.658300E+01
2	  0.020200402	-4.553000E+00	  0.020200402	-2.128000E+01	  0.020200402	1.313780E+02	  0.020200402	-8.691600E+01
3	  0.020400802	-4.554000E+00	  0.020400802	-2.148200E+01	  0.020400802	1.305650E+02	  0.020400802	-8.713000E+01
4	  0.020601204	-4.558000E+00	  0.020601204	-2.169400E+01	  0.020601204	1.297000E+02	  0.020601204	-8.729500E+01
5	  0.020801604	-4.557000E+00	  0.020801604	-2.190400E+01	  0.020801604	1.288760E+02	  0.020801604	-8.754800E+01
6	  0.021002004	-4.556000E+00	  0.021002004	-2.212400E+01	  0.021002004	1.280170E+02	  0.021002004	-8.782600E+01
7	  0.021202406	-4.558000E+00	  0.021202406	-2.233300E+01	  0.021202406	1.271870E+02	  0.021202406	-8.798900E+01
8	  0.021402806	-4.558000E+00	  0.021402806	-2.255700E+01	  0.021402806	1.263150E+02	  0.021402806	-8.822500E+01
9	  0.021603208	-4.559000E+00	  0.021603208	-2.276500E+01	  0.021603208	1.254990E+02	  0.021603208	-8.838900E+01
10	  0.021803608	-4.560000E+00	  0.021803608	-2.298200E+01	  0.021803608	1.246550E+02	  0.021803608	-8.857500E+01
11	  0.022004008	-4.560000E+00	  0.022004008	-2.320000E+01	  0.022004008	1.238130E+02	  0.022004008	-8.875600E+01
12	  0.022204408	-4.562000E+00	  0.022204408	-2.340700E+01	  0.022204408	1.230110E+02	  0.022204408	-8.888400E+01
13	  0.022404809	-4.563000E+00	  0.022404809	-2.363400E+01	  0.022404809	1.221430E+02	  0.022404809	-8.904900E+01
14	  0.022605211	-4.564000E+00	  0.022605211	-2.383500E+01	  0.022605211	1.213820E+02	  0.022605211	-8.918900E+01
15	  0.022805611	-4.563000E+00	  0.022805611	-2.406300E+01	  0.022805611	1.205240E+02	  0.022805611	-8.937400E+01
16	  0.023006011	-4.566000E+00	  0.023006011	-2.427900E+01	  0.023006011	1.197010E+02	  0.023006011	-8.944900E+01
17	  0.023206413	-4.565000E+00	  0.023206413	-2.450700E+01	  0.023206413	1.188550E+02	  0.023206413	-8.962100E+01
18	  0.023406813	-4.566000E+00	  0.023406813	-2.470800E+01	  0.023406813	1.181050E+02	  0.023406813	-8.971700E+01
19	  0.023607215	-4.567000E+00	  0.023607215	-2.491100E+01	  0.023607215	1.173530E+02	  0.023607215	-8.980000E+01
20	  0.023807615	-4.567000E+00	  0.023807615	-2.513600E+01	  0.023807615	1.165280E+02	  0.023807615	-8.992700E+01
21	  0.024008015	-4.567000E+00	  0.024008015	-2.534300E+01	  0.024008015	1.157700E+02	  0.024008015	-9.002100E+01
22	  0.024208417	-4.570000E+00	  0.024208417	-2.557800E+01	  0.024208417	1.149120E+02	  0.024208417	-9.006600E+01
23	  0.024408817	-4.570000E+00	  0.024408817	-2.579400E+01	  0.024408817	1.141330E+02	  0.024408817	-9.015500E+01
24	  0.024609219	-4.572000E+00	  0.024609219	-2.600400E+01	  0.024609219	1.133740E+02	  0.024609219	-9.020000E+01
25	  0.024809619	-4.571000E+00	  0.024809619	-2.622200E+01	  0.024809619	1.126020E+02	  0.024809619	-9.031300E+01
26	  0.025010020	-4.572000E+00	  0.025010020	-2.643100E+01	  0.025010020	1.118580E+02	  0.025010020	-9.035400E+01
27	  0.025210422	-4.574000E+00	  0.025210422	-2.665900E+01	  0.025210422	1.110530E+02	  0.025210422	-9.036700E+01
28	  0.025410822	-4.573000E+00	  0.025410822	-2.686100E+01	  0.025410822	1.103520E+02	  0.025410822	-9.046400E+01
29	  0.025611224	-4.575000E+00	  0.025611224	-2.708300E+01	  0.025611224	1.095780E+02	  0.025611224	-9.047300E+01
30	  0.025811624	-4.574000E+00	  0.025811624	-2.730500E+01	  0.025811624	1.088120E+02	  0.025811624	-9.052300E+01
31	  0.026012026	-4.576000E+00	  0.026012026	-2.751200E+01	  0.026012026	1.081010E+02	  0.026012026	-9.052300E+01
32	  0.026212426	-4.577000E+00	  0.026212426	-2.772300E+01	  0.026212426	1.073810E+02	  0.026212426	-9.054900E+01
33	  0.026412826	-4.577000E+00	  0.026412826	-2.793900E+01	  0.026412826	1.066500E+02	  0.026412826	-9.057500E+01
34	  0.026613226	-4.577000E+00	  0.026613226	-2.816700E+01	  0.026613226	1.058830E+02	  0.026613226	-9.059100E+01
35	  0.026813626	-4.577000E+00	  0.026813626	-2.838000E+01	  0.026813626	1.051730E+02	  0.026813626	-9.060400E+01
36	  0.027014028	-4.577000E+00	  0.027014028	-2.860200E+01	  0.027014028	1.044360E+02	  0.027014028	-9.062500E+01
37	  0.027214428	-4.577000E+00	  0.027214428	-2.881800E+01	  0.027214428	1.037250E+02	  0.027214428	-9.061300E+01
38	  0.027414829	-4.579000E+00	  0.027414829	-2.902800E+01	  0.027414829	1.030390E+02	  0.027414829	-9.057400E+01
39	  0.027615231	-4.579000E+00	  0.027615231	-2.925800E+01	  0.027615231	1.022940E+02	  0.027615231	-9.056800E+01
40	  0.027815631	-4.580000E+00	  0.027815631	-2.947800E+01	  0.027815631	1.015860E+02	  0.027815631	-9.053600E+01
41	  0.028016033	-4.579000E+00	  0.028016033	-2.969900E+01	  0.028016033	1.008760E+02	  0.028016033	-9.053900E+01
42	  0.028216433	-4.582000E+00	  0.028216433	-2.991000E+01	  0.028216433	1.002070E+02	  0.028216433	-9.046200E+01
43	  0.028416833	-4.584000E+00	  0.028416833	-3.012600E+01	  0.028416833	9.953000E+01	  0.028416833	-9.039500E+01
44	  0.028617235	-4.582000E+00	  0.028617235	-3.034000E+01	  0.028617235	9.885700E+01	  0.028617235	-9.039700E+01
45	  0.028817635	-4.584000E+00	  0.028817635	-3.055100E+01	  0.028817635	9.820300E+01	  0.028817635	-9.032300E+01
46	  0.029018037	-4.584000E+00	  0.029018037	-3.078000E+01	  0.029018037	9.749600E+01	  0.029018037	-9.027900E+01
47	  0.029218437	-4.586000E+00	  0.029218437	-3.099300E+01	  0.029218437	9.684800E+01	  0.029218437	-9.020100E+01
48	  0.029418837	-4.587000E+00	  0.029418837	-3.121000E+01	  0.029418837	9.619000E+01	  0.029418837	-9.013300E+01
49	  0.029619239	-4.587000E+00	  0.029619239	-3.142600E+01	  0.029619239	9.553900E+01	  0.029619239	-9.007600E+01
50	  0.029819639	-4.590000E+00	  0.029819639	-3.164700E+01	  0.029819639	9.488300E+01	  0.029819639	-8.996200E+01
51	  0.030020041	-4.588000E+00	  0.030020041	-3.186500E+01	  0.030020041	9.423100E+01	  0.030020041	-8.993900E+01
52	  0.030220442	-4.589000E+00	  0.030220442	-3.207000E+01	  0.030220442	9.363000E+01	  0.030220442	-8.984800E+01
53	  0.030420844	-4.592000E+00	  0.030420844	-3.229700E+01	  0.030420844	9.297400E+01	  0.030420844	-8.970800E+01
54	  0.030621244	-4.592000E+00	  0.030621244	-3.249800E+01	  0.030621244	9.239000E+01	  0.030621244	-8.964600E+01
55	  0.030821644	-4.593000E+00	  0.030821644	-3.272600E+01	  0.030821644	9.173500E+01	  0.030821644	-8.955200E+01
56	  0.031022044	-4.594000E+00	  0.031022044	-3.293800E+01	  0.031022044	9.113000E+01	  0.031022044	-8.945800E+01
57	  0.031222444	-4.584000E+00	  0.031222444	-3.309300E+01	  0.031222444	9.066500E+01	  0.031222444	-8.957900E+01
58	  0.031422846	-4.585000E+00	  0.031422846	-3.331300E+01	  0.031422846	9.004700E+01	  0.031422846	-8.946600E+01
59	  0.031623244	-4.586000E+00	  0.031623244	-3.353300E+01	  0.031623244	8.943300E+01	  0.031623244	-8.935800E+01
60	  0.031823646	-4.586000E+00	  0.031823646	-3.373900E+01	  0.031823646	8.886100E+01	  0.031823646	-8.926400E+01
61	  0.032024048	-4.587000E+00	  0.032024048	-3.395600E+01	  0.032024048	8.826500E+01	  0.032024048	-8.915200E+01
62	  0.032224450	-4.588000E+00	  0.032224450	-3.416200E+01	  0.032224450	8.770600E+01	  0.032224450	-8.903400E+01
63	  0.032424849	-4.588000E+00	  0.032424849	-3.437900E+01	  0.032424849	8.711600E+01	  0.032424849	-8.892600E+01
64	  0.032625251	-4.589000E+00	  0.032625251	-3.459100E+01	  0.032625251	8.654900E+01	  0.032625251	-8.880000E+01
65	  0.032825653	-4.591000E+00	  0.032825653	-3.480100E+01	  0.032825653	8.599400E+01	  0.032825653	-8.866100E+01
66	  0.033026051	-4.593000E+00	  0.033026051	-3.500000E+01	  0.033026051	8.547400E+01	  0.033026051	-8.852700E+01
67	  0.033226453	-4.592000E+00	  0.033226453	-3.524100E+01	  0.033226453	8.483700E+01	  0.033226453	-8.840700E+01
68	  0.033426855	-4.593000E+00	  0.033426855	-3.544700E+01	  0.033426855	8.430300E+01	  0.033426855	-8.828600E+01
69	  0.033627257	-4.593000E+00	  0.033627257	-3.566300E+01	  0.033627257	8.374500E+01	  0.033627257	-8.815100E+01
70	  0.033827655	-4.593000E+00	  0.033827655	-3.586300E+01	  0.033827655	8.322900E+01	  0.033827655	-8.804400E+01
71	  0.034028057	-4.595000E+00	  0.034028057	-3.607500E+01	  0.034028057	8.269900E+01	  0.034028057	-8.788600E+01
72	  0.034228459	-4.596000E+00	  0.034228459	-3.628000E+01	  0.034228459	8.218400E+01	  0.034228459	-8.774000E+01
73	  0.034428857	-4.597000E+00	  0.034428857	-3.649700E+01	  0.034428857	8.164400E+01	  0.034428857	-8.760000E+01
74	  0.034629259	-4.597000E+00	  0.034629259	-3.671900E+01	  0.034629259	8.109200E+01	  0.034629259	-8.746000E+01
75	  0.034829661	-4.598000E+00	  0.034829661	-3.693600E+01	  0.034829661	8.056000E+01	  0.034829661	-8.731100E+01
76	  0.035030060	-4.598000E+00	  0.035030060	-3.713300E+01	  0.035030060	8.008200E+01	  0.035030060	-8.717600E+01
77	  0.035230462	-4.598000E+00	  0.035230462	-3.736200E+01	  0.035230462	7.952300E+01	  0.035230462	-8.703900E+01
78	  0.035430863	-4.599000E+00	  0.035430863	-3.757200E+01	  0.035430863	7.902500E+01	  0.035430863	-8.687400E+01
79	  0.035631265	-4.599000E+00	  0.035631265	-3.779700E+01	  0.035631265	7.848700E+01	  0.035631265	-8.672700E+01
80	  0.035831664	-4.599000E+00	  0.035831664	-3.801400E+01	  0.035831664	7.797200E+01	  0.035831664	-8.658300E+01
81	  0.036032066	-4.600000E+00	  0.036032066	-3.822100E+01	  0.036032066	7.749200E+01	  0.036032066	-8.642000E+01
82	  0.036232468	-4.600000E+00	  0.036232468	-3.842800E+01	  0.036232468	7.700900E+01	  0.036232468	-8.628300E+01
83	  0.036432866	-4.600000E+00	  0.036432866	-3.865300E+01	  0.036432866	7.648900E+01	  0.036432866	-8.612200E+01
84	  0.036633268	-4.603000E+00	  0.036633268	-3.887100E+01	  0.036633268	7.600600E+01	  0.036633268	-8.591500E+01
85	  0.036833670	-4.601000E+00	  0.036833670	-3.907900E+01	  0.036833670	7.552200E+01	  0.036833670	-8.580200E+01
86	  0.037034072	-4.603000E+00	  0.037034072	-3.928900E+01	  0.037034072	7.505700E+01	  0.037034072	-8.562100E+01
87	  0.037234470	-4.603000E+00	  0.037234470	-3.950000E+01	  0.037234470	7.458900E+01	  0.037234470	-8.546000E+01
88	  0.037434869	-4.604000E+00	  0.037434869	-3.971900E+01	  0.037434869	7.410700E+01	  0.037434869	-8.528400E+01
89	  0.037635271	-4.604000E+00	  0.037635271	-3.994700E+01	  0.037635271	7.360800E+01	  0.037635271	-8.510800E+01
90	  0.037835669	-4.606000E+00	  0.037835669	-4.016100E+01	  0.037835669	7.315400E+01	  0.037835669	-8.491400E+01
91	  0.038036071	-4.604000E+00	  0.038036071	-4.036200E+01	  0.038036071	7.270800E+01	  0.038036071	-8.478800E+01
92	  0.038236473	-4.607000E+00	  0.038236473	-4.058600E+01	  0.038236473	7.223900E+01	  0.038236473	-8.458700E+01
93	  0.038436871	-4.608000E+00	  0.038436871	-4.081800E+01	  0.038436871	7.175800E+01	  0.038436871	-8.438100E+01
94	  0.038637273	-4.608000E+00	  0.038637273	-4.101600E+01	  0.038637273	7.134000E+01	  0.038637273	-8.422700E+01
95	  0.038837675	-4.607000E+00	  0.038837675	-4.123200E+01	  0.038837675	7.088100E+01	  0.038837675	-8.407300E+01
96	  0.039038073	-4.610000E+00	  0.039038073	-4.144700E+01	  0.039038073	7.045000E+01	  0.039038073	-8.386400E+01
97	  0.039238475	-4.610000E+00	  0.039238475	-4.166000E+01	  0.039238475	7.001300E+01	  0.039238475	-8.369400E+01
98	  0.039438877	-4.610000E+00	  0.039438877	-4.188300E+01	  0.039438877	6.956300E+01	  0.039438877	-8.350800E+01
99	  0.039639279	-4.612000E+00	  0.039639279	-4.208900E+01	  0.039639279	6.915400E+01	  0.039639279	-8.332000E+01
100	  0.039839678	-4.613000E+00	  0.039839678	-4.231000E+01	  0.039839678	6.871600E+01	  0.039839678	-8.313100E+01
101	  0.040040080	-4.612000E+00	  0.040040080	-4.252000E+01	  0.040040080	6.829800E+01	  0.040040080	-8.296200E+01
102	  0.040240481	-4.612000E+00	  0.040240481	-4.274300E+01	  0.040240481	6.785900E+01	  0.040240481	-8.277600E+01
103	  0.040440880	-4.614000E+00	  0.040440880	-4.296000E+01	  0.040440880	6.744500E+01	  0.040440880	-8.257000E+01
104	  0.040641282	-4.614000E+00	  0.040641282	-4.317500E+01	  0.040641282	6.702700E+01	  0.040641282	-8.239600E+01
105	  0.040841684	-4.615000E+00	  0.040841684	-4.339100E+01	  0.040841684	6.661800E+01	  0.040841684	-8.220200E+01
106	  0.041042086	-4.615000E+00	  0.041042086	-4.360000E+01	  0.041042086	6.621900E+01	  0.041042086	-8.202700E+01
107	  0.041242484	-4.613000E+00	  0.041242484	-4.382100E+01	  0.041242484	6.579400E+01	  0.041242484	-8.185800E+01
108	  0.041442886	-4.615000E+00	  0.041442886	-4.402800E+01	  0.041442886	6.541600E+01	  0.041442886	-8.166100E+01
109	  0.041643288	-4.617000E+00	  0.041643288	-4.423500E+01	  0.041643288	6.504200E+01	  0.041643288	-8.146100E+01
110	  0.041843686	-4.616000E+00	  0.041843686	-4.446300E+01	  0.041843686	6.462000E+01	  0.041843686	-8.127200E+01
111	  0.042044088	-4.617000E+00	  0.042044088	-4.468300E+01	  0.042044088	6.422000E+01	  0.042044088	-8.107800E+01
112	  0.042244490	-4.619000E+00	  0.042244490	-4.490000E+01	  0.042244490	6.383700E+01	  0.042244490	-8.086800E+01
113	  0.042444889	-4.618000E+00	  0.042444889	-4.511400E+01	  0.042444889	6.345100E+01	  0.042444889	-8.068900E+01
114	  0.042645290	-4.617000E+00	  0.042645290	-4.532300E+01	  0.042645290	6.307200E+01	  0.042645290	-8.052100E+01
115	  0.042845692	-4.619000E+00	  0.042845692	-4.553000E+01	  0.042845692	6.271900E+01	  0.042845692	-8.031500E+01
116	  0.043046094	-4.619000E+00	  0.043046094	-4.575400E+01	  0.043046094	6.232600E+01	  0.043046094	-8.011600E+01
117	  0.043246493	-4.619000E+00	  0.043246493	-4.598000E+01	  0.043246493	6.193500E+01	  0.043246493	-7.991900E+01
118	  0.043446895	-4.620000E+00	  0.043446895	-4.618800E+01	  0.043446895	6.158100E+01	  0.043446895	-7.972500E+01
119	  0.043647297	-4.621000E+00	  0.043647297	-4.640200E+01	  0.043647297	6.122200E+01	  0.043647297	-7.952300E+01
120	  0.043847695	-4.622000E+00	  0.043847695	-4.663100E+01	  0.043847695	6.084100E+01	  0.043847695	-7.931000E+01
121	  0.044048097	-4.622000E+00	  0.044048097	-4.684700E+01	  0.044048097	6.047900E+01	  0.044048097	-7.911700E+01
122	  0.044248499	-4.623000E+00	  0.044248499	-4.705200E+01	  0.044248499	6.014600E+01	  0.044248499	-7.892000E+01
123	  0.044448901	-4.623000E+00	  0.044448901	-4.728200E+01	  0.044448901	5.976200E+01	  0.044448901	-7.872200E+01
124	  0.044649299	-4.623000E+00	  0.044649299	-4.748800E+01	  0.044649299	5.942600E+01	  0.044649299	-7.853700E+01
125	  0.044849701	-4.624000E+00	  0.044849701	-4.770900E+01	  0.044849701	5.907600E+01	  0.044849701	-7.832100E+01
126	  0.045050103	-4.624000E+00	  0.045050103	-4.791700E+01	  0.045050103	5.873700E+01	  0.045050103	-7.814400E+01
127	  0.045250501	-4.625000E+00	  0.045250501	-4.813800E+01	  0.045250501	5.839400E+01	  0.045250501	-7.792700E+01
128	  0.045450903	-4.624000E+00	  0.045450903	-4.835600E+01	  0.045450903	5.804300E+01	  0.045450903	-7.774300E+01
129	  0.045651305	-4.626000E+00	  0.045651305	-4.857900E+01	  0.045651305	5.770400E+01	  0.045651305	-7.752100E+01
130	  0.045851704	-4.625000E+00	  0.045851704	-4.878600E+01	  0.045851704	5.737800E+01	  0.045851704	-7.733900E+01
131	  0.046052106	-4.625000E+00	  0.046052106	-4.900500E+01	  0.046052106	5.703900E+01	  0.046052106	-7.714200E+01
132	  0.046252504	-4.629000E+00	  0.046252504	-4.922500E+01	  0.046252504	5.673000E+01	  0.046252504	-7.690000E+01
133	  0.046452906	-4.627000E+00	  0.046452906	-4.944800E+01	  0.046452906	5.637700E+01	  0.046452906	-7.672100E+01
134	  0.046653304	-4.628000E+00	  0.046653304	-4.967200E+01	  0.046653304	5.604700E+01	  0.046653304	-7.650500E+01
135	  0.046853706	-4.628000E+00	  0.046853706	-4.988300E+01	  0.046853706	5.573000E+01	  0.046853706	-7.631600E+01
136	  0.047054108	-4.628000E+00	  0.047054108	-5.011300E+01	  0.047054108	5.539200E+01	  0.047054108	-7.610300E+01
137	  0.047254506	-4.628000E+00	  0.047254506	-5.033100E+01	  0.047254506	5.507200E+01	  0.047254506	-7.590600E+01
138	  0.047454908	-4.629000E+00	  0.047454908	-5.054600E+01	  0.047454908	5.476700E+01	  0.047454908	-7.569900E+01
139	  0.047655310	-4.629000E+00	  0.047655310	-5.075200E+01	  0.047655310	5.446700E+01	  0.047655310	-7.551600E+01
140	  0.047855709	-4.630000E+00	  0.047855709	-5.097600E+01	  0.047855709	5.415100E+01	  0.047855709	-7.530300E+01
141	  0.048056111	-4.630000E+00	  0.048056111	-5.119400E+01	  0.048056111	5.384500E+01	  0.048056111	-7.510000E+01
142	  0.048256513	-4.629000E+00	  0.048256513	-5.142500E+01	  0.048256513	5.351100E+01	  0.048256513	-7.490300E+01
143	  0.048456915	-4.629000E+00	  0.048456915	-5.163700E+01	  0.048456915	5.321900E+01	  0.048456915	-7.470500E+01
144	  0.048657313	-4.631000E+00	  0.048657313	-5.186100E+01	  0.048657313	5.291900E+01	  0.048657313	-7.448400E+01
145	  0.048857715	-4.632000E+00	  0.048857715	-5.207000E+01	  0.048857715	5.264200E+01	  0.048857715	-7.427800E+01
146	  0.049058117	-4.633000E+00	  0.049058117	-5.228900E+01	  0.049058117	5.235200E+01	  0.049058117	-7.406700E+01
147	  0.049258515	-4.631000E+00	  0.049258515	-5.250900E+01	  0.049258515	5.203900E+01	  0.049258515	-7.388800E+01
148	  0.049458917	-4.633000E+00	  0.049458917	-5.272300E+01	  0.049458917	5.176800E+01	  0.049458917	-7.367200E+01
149	  0.049659319	-4.633000E+00	  0.049659319	-5.293900E+01	  0.049659319	5.148200E+01	  0.049659319	-7.347300E+01
150	  0.049859721	-4.632000E+00	  0.049859721	-5.315300E+01	  0.049859721	5.119000E+01	  0.049859721	-7.329200E+01
151	  0.050060119	-4.633000E+00	  0.050060119	-5.336500E+01	  0.050060119	5.092400E+01	  0.050060119	-7.308300E+01
152	  0.050260521	-4.633000E+00	  0.050260521	-5.358200E+01	  0.050260521	5.063900E+01	  0.050260521	-7.289100E+01
153	  0.050460923	-4.633000E+00	  0.050460923	-5.380600E+01	  0.050460923	5.035700E+01	  0.050460923	-7.267800E+01
154	  0.050661322	-4.635000E+00	  0.050661322	-5.402500E+01	  0.050661322	5.008500E+01	  0.050661322	-7.246700E+01
155	  0.050861724	-4.635000E+00	  0.050861724	-5.423900E+01	  0.050861724	4.981500E+01	  0.050861724	-7.227200E+01
156	  0.051062126	-4.635000E+00	  0.051062126	-5.446500E+01	  0.051062126	4.953600E+01	  0.051062126	-7.206100E+01
157	  0.051262524	-4.637000E+00	  0.051262524	-5.466500E+01	  0.051262524	4.929800E+01	  0.051262524	-7.186400E+01
158	  0.051462926	-4.635000E+00	  0.051462926	-5.488200E+01	  0.051462926	4.901900E+01	  0.051462926	-7.168200E+01
159	  0.051663328	-4.637000E+00	  0.051663328	-5.511200E+01	  0.051663328	4.875300E+01	  0.051663328	-7.145200E+01
160	  0.051863730	-4.637000E+00	  0.051863730	-5.532400E+01	  0.051863730	4.849600E+01	  0.051863730	-7.125900E+01
161	  0.052064128	-4.639000E+00	  0.052064128	-5.554900E+01	  0.052064128	4.823300E+01	  0.052064128	-7.104300E+01
162	  0.052264530	-4.639000E+00	  0.052264530	-5.575900E+01	  0.052264530	4.798400E+01	  0.052264530	-7.085000E+01
163	  0.052464932	-4.639000E+00	  0.052464932	-5.596500E+01	  0.052464932	4.774000E+01	  0.052464932	-7.066300E+01
164	  0.052665330	-4.638000E+00	  0.052665330	-5.619600E+01	  0.052665330	4.746600E+01	  0.052665330	-7.045600E+01
165	  0.052865732	-4.641000E+00	  0.052865732	-5.641400E+01	  0.052865732	4.722800E+01	  0.052865732	-7.023900E+01
166	  0.053066134	-4.640000E+00	  0.053066134	-5.662200E+01	  0.053066134	4.698700E+01	  0.053066134	-7.005300E+01
167	  0.053266536	-4.642000E+00	  0.053266536	-5.683800E+01	  0.053266536	4.674600E+01	  0.053266536	-6.984800E+01
168	  0.053466935	-4.642000E+00	  0.053466935	-5.706400E+01	  0.053466935	4.649100E+01	  0.053466935	-6.964200E+01
169	  0.053667337	-4.643000E+00	  0.053667337	-5.727100E+01	  0.053667337	4.626600E+01	  0.053667337	-6.944500E+01
170	  0.053867739	-4.642000E+00	  0.053867739	-5.750600E+01	  0.053867739	4.599900E+01	  0.053867739	-6.923700E+01
171	  0.054068137	-4.644000E+00	  0.054068137	-5.771200E+01	  0.054068137	4.578100E+01	  0.054068137	-6.903900E+01
172	  0.054268539	-4.645000E+00	  0.054268539	-5.792600E+01	  0.054268539	4.554800E+01	  0.054268539	-6.884200E+01
173	  0.054468941	-4.646000E+00	  0.054468941	-5.815300E+01	  0.054468941	4.530900E+01	  0.054468941	-6.862900E+01
174	  0.054669339	-4.646000E+00	  0.054669339	-5.834800E+01	  0.054669339	4.509900E+01	  0.054669339	-6.845100E+01
175	  0.054869737	-4.646000E+00	  0.054869737	-5.857500E+01	  0.054869737	4.485700E+01	  0.054869737	-6.824700E+01
176	  0.055070139	-4.646000E+00	  0.055070139	-5.878400E+01	  0.055070139	4.463000E+01	  0.055070139	-6.806500E+01
177	  0.055270538	-4.647000E+00	  0.055270538	-5.901400E+01	  0.055270538	4.439300E+01	  0.055270538	-6.785000E+01
178	  0.055470940	-4.647000E+00	  0.055470940	-5.923000E+01	  0.055470940	4.417000E+01	  0.055470940	-6.765300E+01
179	  0.055671342	-4.648000E+00	  0.055671342	-5.943900E+01	  0.055671342	4.395600E+01	  0.055671342	-6.746300E+01
180	  0.055871744	-4.648000E+00	  0.055871744	-5.964100E+01	  0.055871744	4.375200E+01	  0.055871744	-6.727800E+01
181	  0.056072142	-4.650000E+00	  0.056072142	-5.986400E+01	  0.056072142	4.353400E+01	  0.056072142	-6.706600E+01
182	  0.056272544	-4.651000E+00	  0.056272544	-6.007700E+01	  0.056272544	4.332500E+01	  0.056272544	-6.686900E+01
183	  0.056472946	-4.651000E+00	  0.056472946	-6.029400E+01	  0.056472946	4.310400E+01	  0.056472946	-6.667800E+01
184	  0.056673344	-4.652000E+00	  0.056673344	-6.049800E+01	  0.056673344	4.290600E+01	  0.056673344	-6.649100E+01
185	  0.056873746	-4.655000E+00	  0.056873746	-6.071600E+01	  0.056873746	4.270500E+01	  0.056873746	-6.628100E+01
186	  0.057074148	-4.654000E+00	  0.057074148	-6.094200E+01	  0.057074148	4.247900E+01	  0.057074148	-6.608500E+01
187	  0.057274550	-4.655000E+00	  0.057274550	-6.116100E+01	  0.057274550	4.227200E+01	  0.057274550	-6.588500E+01
188	  0.057474948	-4.656000E+00	  0.057474948	-6.137800E+01	  0.057474948	4.206400E+01	  0.057474948	-6.569200E+01
189	  0.057675350	-4.656000E+00	  0.057675350	-6.159400E+01	  0.057675350	4.185900E+01	  0.057675350	-6.549900E+01
190	  0.057875752	-4.658000E+00	  0.057875752	-6.180700E+01	  0.057875752	4.166500E+01	  0.057875752	-6.530100E+01
191	  0.058076151	-4.658000E+00	  0.058076151	-6.202000E+01	  0.058076151	4.146500E+01	  0.058076151	-6.511300E+01
192	  0.058276553	-4.659000E+00	  0.058276553	-6.224200E+01	  0.058276553	4.126500E+01	  0.058276553	-6.491100E+01
193	  0.058476955	-4.664000E+00	  0.058476955	-6.244900E+01	  0.058476955	4.109700E+01	  0.058476955	-6.470200E+01
194	  0.058677353	-4.663000E+00	  0.058677353	-6.265900E+01	  0.058677353	4.090100E+01	  0.058677353	-6.452100E+01
195	  0.058877755	-4.664000E+00	  0.058877755	-6.289700E+01	  0.058877755	4.068600E+01	  0.058877755	-6.431100E+01
196	  0.059078157	-4.665000E+00	  0.059078157	-6.310300E+01	  0.059078157	4.050400E+01	  0.059078157	-6.412500E+01
197	  0.059278559	-4.666000E+00	  0.059278559	-6.331600E+01	  0.059278559	4.031800E+01	  0.059278559	-6.393500E+01
198	  0.059478957	-4.666000E+00	  0.059478957	-6.353300E+01	  0.059478957	4.012400E+01	  0.059478957	-6.374600E+01
199	  0.059679359	-4.667000E+00	  0.059679359	-6.377100E+01	  0.059679359	3.991900E+01	  0.059679359	-6.353300E+01
200	  0.059879761	-4.669000E+00	  0.059879761	-6.397100E+01	  0.059879761	3.975100E+01	  0.059879761	-6.335300E+01
201	  0.060080159	-4.669000E+00	  0.060080159	-6.418200E+01	  0.060080159	3.956600E+01	  0.060080159	-6.317100E+01
202	  0.060280561	-4.671000E+00	  0.060280561	-6.440700E+01	  0.060280561	3.938600E+01	  0.060280561	-6.296300E+01
203	  0.060480963	-4.673000E+00	  0.060480963	-6.462900E+01	  0.060480963	3.920200E+01	  0.060480963	-6.276500E+01
204	  0.060681365	-4.676000E+00	  0.060681365	-6.484500E+01	  0.060681365	3.903700E+01	  0.060681365	-6.256200E+01
205	  0.060881764	-4.674000E+00	  0.060881764	-6.505800E+01	  0.060881764	3.884400E+01	  0.060881764	-6.239100E+01
206	  0.061082166	-4.674000E+00	  0.061082166	-6.527000E+01	  0.061082166	3.866600E+01	  0.061082166	-6.221000E+01
207	  0.061282568	-4.677000E+00	  0.061282568	-6.548900E+01	  0.061282568	3.850100E+01	  0.061282568	-6.200600E+01
208	  0.061482966	-4.674000E+00	  0.061482966	-6.570500E+01	  0.061482966	3.830200E+01	  0.061482966	-6.184200E+01
209	  0.061683368	-4.675000E+00	  0.061683368	-6.592500E+01	  0.061683368	3.812700E+01	  0.061683368	-6.165000E+01
210	  0.061883770	-4.676000E+00	  0.061883770	-6.613000E+01	  0.061883770	3.796400E+01	  0.061883770	-6.147100E+01
211	  0.062084168	-4.677000E+00	  0.062084168	-6.634400E+01	  0.062084168	3.779600E+01	  0.062084168	-6.128500E+01
212	  0.062284570	-4.678000E+00	  0.062284570	-6.657100E+01	  0.062284570	3.762100E+01	  0.062284570	-6.108800E+01
213	  0.062484972	-4.665000E+00	  0.062484972	-6.669900E+01	  0.062484972	3.744700E+01	  0.062484972	-6.104800E+01
214	  0.062685370	-4.669000E+00	  0.062685370	-6.690100E+01	  0.062685370	3.730800E+01	  0.062685370	-6.085800E+01
215	  0.062885776	-4.670000E+00	  0.062885776	-6.712200E+01	  0.062885776	3.713600E+01	  0.062885776	-6.067000E+01
216	  0.063086174	-4.670000E+00	  0.063086174	-6.735300E+01	  0.063086174	3.695800E+01	  0.063086174	-6.047300E+01
217	  0.063286573	-4.669000E+00	  0.063286573	-6.755400E+01	  0.063286573	3.679800E+01	  0.063286573	-6.030900E+01
218	  0.063486971	-4.673000E+00	  0.063486971	-6.778700E+01	  0.063486971	3.663600E+01	  0.063486971	-6.009900E+01
219	  0.063687377	-4.673000E+00	  0.063687377	-6.800200E+01	  0.063687377	3.647400E+01	  0.063687377	-5.991700E+01
220	  0.063887775	-4.675000E+00	  0.063887775	-6.820600E+01	  0.063887775	3.632800E+01	  0.063887775	-5.973900E+01
221	  0.064088173	-4.675000E+00	  0.064088173	-6.843600E+01	  0.064088173	3.615400E+01	  0.064088173	-5.955000E+01
222	  0.064288579	-4.676000E+00	  0.064288579	-6.865000E+01	  0.064288579	3.600000E+01	  0.064288579	-5.936700E+01
223	  0.064488977	-4.678000E+00	  0.064488977	-6.886900E+01	  0.064488977	3.584900E+01	  0.064488977	-5.917500E+01
224	  0.064689375	-4.679000E+00	  0.064689375	-6.908000E+01	  0.064689375	3.569700E+01	  0.064689375	-5.899900E+01
225	  0.064889781	-4.679000E+00	  0.064889781	-6.929800E+01	  0.064889781	3.553900E+01	  0.064889781	-5.881900E+01
226	  0.065090179	-4.682000E+00	  0.065090179	-6.952500E+01	  0.065090179	3.539100E+01	  0.065090179	-5.861800E+01
227	  0.065290578	-4.683000E+00	  0.065290578	-6.974100E+01	  0.065290578	3.523700E+01	  0.065290578	-5.844000E+01
228	  0.065490983	-4.682000E+00	  0.065490983	-6.996600E+01	  0.065490983	3.507400E+01	  0.065490983	-5.825800E+01
229	  0.065691382	-4.683000E+00	  0.065691382	-7.018600E+01	  0.065691382	3.492300E+01	  0.065691382	-5.807500E+01
230	  0.065891780	-4.683000E+00	  0.065891780	-7.040600E+01	  0.065891780	3.476800E+01	  0.065891780	-5.789600E+01
231	  0.066092186	-4.681000E+00	  0.066092186	-7.062000E+01	  0.066092186	3.460500E+01	  0.066092186	-5.773400E+01
232	  0.066292584	-4.688000E+00	  0.066292584	-7.082600E+01	  0.066292584	3.450100E+01	  0.066292584	-5.753500E+01
233	  0.066492982	-4.685000E+00	  0.066492982	-7.105300E+01	  0.066492982	3.432800E+01	  0.066492982	-5.736600E+01
234	  0.066693388	-4.685000E+00	  0.066693388	-7.127300E+01	  0.066693388	3.417400E+01	  0.066693388	-5.719000E+01
235	  0.066893786	-4.688000E+00	  0.066893786	-7.148500E+01	  0.066893786	3.405100E+01	  0.066893786	-5.700300E+01
236	  0.067094192	-4.684000E+00	  0.067094192	-7.171900E+01	  0.067094192	3.387000E+01	  0.067094192	-5.683400E+01
237	  0.067294590	-4.687000E+00	  0.067294590	-7.190500E+01	  0.067294590	3.376300E+01	  0.067294590	-5.667200E+01
238	  0.067494988	-4.689000E+00	  0.067494988	-7.214400E+01	  0.067494988	3.361100E+01	  0.067494988	-5.647500E+01
239	  0.067695394	-4.691000E+00	  0.067695394	-7.235800E+01	  0.067695394	3.348200E+01	  0.067695394	-5.629400E+01
240	  0.067895792	-4.691000E+00	  0.067895792	-7.259500E+01	  0.067895792	3.332900E+01	  0.067895792	-5.610600E+01
241	  0.068096191	-4.690000E+00	  0.068096191	-7.280500E+01	  0.068096191	3.318600E+01	  0.068096191	-5.594400E+01
242	  0.068296596	-4.690000E+00	  0.068296596	-7.301700E+01	  0.068296596	3.304900E+01	  0.068296596	-5.577800E+01
243	  0.068496995	-4.692000E+00	  0.068496995	-7.322600E+01	  0.068496995	3.292400E+01	  0.068496995	-5.560600E+01
244	  0.068697393	-4.691000E+00	  0.068697393	-7.344000E+01	  0.068697393	3.278100E+01	  0.068697393	-5.544300E+01
245	  0.068897791	-4.690000E+00	  0.068897791	-7.367800E+01	  0.068897791	3.262600E+01	  0.068897791	-5.525900E+01
246	  0.069098189	-4.694000E+00	  0.069098189	-7.389000E+01	  0.069098189	3.251200E+01	  0.069098189	-5.507800E+01
247	  0.069298595	-4.692000E+00	  0.069298595	-7.410100E+01	  0.069298595	3.237500E+01	  0.069298595	-5.491800E+01
248	  0.069498993	-4.694000E+00	  0.069498993	-7.431700E+01	  0.069498993	3.224700E+01	  0.069498993	-5.474500E+01
249	  0.069699399	-4.694000E+00	  0.069699399	-7.453900E+01	  0.069699399	3.211100E+01	  0.069699399	-5.457200E+01
250	  0.069899797	-4.694000E+00	  0.069899797	-7.475900E+01	  0.069899797	3.197900E+01	  0.069899797	-5.440100E+01
251	  0.070100196	-4.693000E+00	  0.070100196	-7.497800E+01	  0.070100196	3.184200E+01	  0.070100196	-5.423500E+01
252	  0.070300601	-4.695000E+00	  0.070300601	-7.519700E+01	  0.070300601	3.172000E+01	  0.070300601	-5.405900E+01
253	  0.070501000	-4.694000E+00	  0.070501000	-7.541200E+01	  0.070501000	3.158500E+01	  0.070501000	-5.389800E+01
254	  0.070701398	-4.698000E+00	  0.070701398	-7.564200E+01	  0.070701398	3.147300E+01	  0.070701398	-5.370300E+01
255	  0.070901804	-4.698000E+00	  0.070901804	-7.586400E+01	  0.070901804	3.134000E+01	  0.070901804	-5.353500E+01
256	  0.071102202	-4.699000E+00	  0.071102202	-7.608200E+01	  0.071102202	3.121900E+01	  0.071102202	-5.336300E+01
257	  0.071302600	-4.698000E+00	  0.071302600	-7.629300E+01	  0.071302600	3.109000E+01	  0.071302600	-5.320800E+01
258	  0.071503006	-4.698000E+00	  0.071503006	-7.651700E+01	  0.071503006	3.096400E+01	  0.071503006	-5.303500E+01
259	  0.071703404	-4.699000E+00	  0.071703404	-7.671600E+01	  0.071703404	3.085400E+01	  0.071703404	-5.288200E+01
260	  0.071903802	-4.700000E+00	  0.071903802	-7.694800E+01	  0.071903802	3.072800E+01	  0.071903802	-5.270200E+01
261	  0.072104208	-4.705000E+00	  0.072104208	-7.719000E+01	  0.072104208	3.061300E+01	  0.072104208	-5.250200E+01
262	  0.072304606	-4.705000E+00	  0.072304606	-7.739700E+01	  0.072304606	3.049700E+01	  0.072304606	-5.234700E+01
263	  0.072505005	-4.705000E+00	  0.072505005	-7.761200E+01	  0.072505005	3.038100E+01	  0.072505005	-5.218300E+01
264	  0.072705410	-4.706000E+00	  0.072705410	-7.782800E+01	  0.072705410	3.026500E+01	  0.072705410	-5.201900E+01
265	  0.072905809	-4.707000E+00	  0.072905809	-7.804500E+01	  0.072905809	3.015100E+01	  0.072905809	-5.185300E+01
266	  0.073106214	-4.709000E+00	  0.073106214	-7.826900E+01	  0.073106214	3.004000E+01	  0.073106214	-5.167800E+01
267	  0.073306613	-4.708000E+00	  0.073306613	-7.849000E+01	  0.073306613	2.991600E+01	  0.073306613	-5.151600E+01
268	  0.073507011	-4.711000E+00	  0.073507011	-7.872400E+01	  0.073507011	2.980400E+01	  0.073507011	-5.133300E+01
269	  0.073707417	-4.708000E+00	  0.073707417	-7.893900E+01	  0.073707417	2.967600E+01	  0.073707417	-5.118400E+01
270	  0.073907815	-4.706000E+00	  0.073907815	-7.915500E+01	  0.073907815	2.955400E+01	  0.073907815	-5.102900E+01
271	  0.074108213	-4.710000E+00	  0.074108213	-7.936800E+01	  0.074108213	2.946200E+01	  0.074108213	-5.085800E+01
272	  0.074308619	-4.709000E+00	  0.074308619	-7.958900E+01	  0.074308619	2.934200E+01	  0.074308619	-5.070000E+01
273	  0.074509017	-4.711000E+00	  0.074509017	-7.979900E+01	  0.074509017	2.924300E+01	  0.074509017	-5.053800E+01
274	  0.074709415	-4.716000E+00	  0.074709415	-8.002300E+01	  0.074709415	2.915000E+01	  0.074709415	-5.035900E+01
275	  0.074909821	-4.713000E+00	  0.074909821	-8.024300E+01	  0.074909821	2.902500E+01	  0.074909821	-5.020700E+01
276	  0.075110219	-4.714000E+00	  0.075110219	-8.047400E+01	  0.075110219	2.891100E+01	  0.075110219	-5.003700E+01
277	  0.075310618	-4.715000E+00	  0.075310618	-8.069400E+01	  0.075310618	2.880600E+01	  0.075310618	-4.987300E+01
278	  0.075511023	-4.718000E+00	  0.075511023	-8.089000E+01	  0.075511023	2.872300E+01	  0.075511023	-4.972100E+01
279	  0.075711422	-4.717000E+00	  0.075711422	-8.112600E+01	  0.075711422	2.860000E+01	  0.075711422	-4.955500E+01
280	  0.075911827	-4.716000E+00	  0.075911827	-8.134800E+01	  0.075911827	2.848300E+01	  0.075911827	-4.939900E+01
281	  0.076112226	-4.718000E+00	  0.076112226	-8.157100E+01	  0.076112226	2.838700E+01	  0.076112226	-4.922900E+01
282	  0.076312624	-4.720000E+00	  0.076312624	-8.180200E+01	  0.076312624	2.828400E+01	  0.076312624	-4.905800E+01
283	  0.076513030	-4.718000E+00	  0.076513030	-8.200600E+01	  0.076513030	2.817600E+01	  0.076513030	-4.891800E+01
284	  0.076713428	-4.720000E+00	  0.076713428	-8.221000E+01	  0.076713428	2.808600E+01	  0.076713428	-4.876700E+01
285	  0.076913826	-4.720000E+00	  0.076913826	-8.243600E+01	  0.076913826	2.798000E+01	  0.076913826	-4.860500E+01
286	  0.077114232	-4.720000E+00	  0.077114232	-8.265900E+01	  0.077114232	2.787500E+01	  0.077114232	-4.844600E+01
287	  0.077314630	-4.723000E+00	  0.077314630	-8.288100E+01	  0.077314630	2.778100E+01	  0.077314630	-4.828100E+01
288	  0.077515028	-4.725000E+00	  0.077515028	-8.311800E+01	  0.077515028	2.768300E+01	  0.077515028	-4.810500E+01
289	  0.077715434	-4.723000E+00	  0.077715434	-8.333500E+01	  0.077715434	2.757100E+01	  0.077715434	-4.796100E+01
290	  0.077915832	-4.725000E+00	  0.077915832	-8.352700E+01	  0.077915832	2.749100E+01	  0.077915832	-4.781900E+01
291	  0.078116231	-4.724000E+00	  0.078116231	-8.375700E+01	  0.078116231	2.738500E+01	  0.078116231	-4.765800E+01
292	  0.078316636	-4.724000E+00	  0.078316636	-8.397500E+01	  0.078316636	2.728300E+01	  0.078316636	-4.750800E+01
293	  0.078517035	-4.723000E+00	  0.078517035	-8.418700E+01	  0.078517035	2.718300E+01	  0.078517035	-4.736100E+01
294	  0.078717433	-4.724000E+00	  0.078717433	-8.441800E+01	  0.078717433	2.708500E+01	  0.078717433	-4.719700E+01
295	  0.078917839	-4.723000E+00	  0.078917839	-8.464100E+01	  0.078917839	2.697900E+01	  0.078917839	-4.704600E+01
296	  0.079118237	-4.727000E+00	  0.079118237	-8.485800E+01	  0.079118237	2.690500E+01	  0.079118237	-4.688100E+01
297	  0.079318643	-4.727000E+00	  0.079318643	-8.508400E+01	  0.079318643	2.680500E+01	  0.079318643	-4.672600E+01
298	  0.079519041	-4.728000E+00	  0.079519041	-8.530300E+01	  0.079519041	2.671500E+01	  0.079519041	-4.657100E+01
299	  0.079719439	-4.729000E+00	  0.079719439	-8.552400E+01	  0.079719439	2.662400E+01	  0.079719439	-4.641500E+01
300	  0.079919845	-4.727000E+00	  0.079919845	-8.573300E+01	  0.079919845	2.652500E+01	  0.079919845	-4.627800E+01
301	  0.080120243	-4.728000E+00	  0.080120243	-8.594900E+01	  0.080120243	2.643600E+01	  0.080120243	-4.612700E+01
302	  0.080320641	-4.730000E+00	  0.080320641	-8.616800E+01	  0.080320641	2.635200E+01	  0.080320641	-4.597200E+01
303	  0.080521047	-4.734000E+00	  0.080521047	-8.639500E+01	  0.080521047	2.627600E+01	  0.080521047	-4.580500E+01
304	  0.080721445	-4.730000E+00	  0.080721445	-8.660900E+01	  0.080721445	2.616700E+01	  0.080721445	-4.567000E+01
305	  0.080921844	-4.733000E+00	  0.080921844	-8.682000E+01	  0.080921844	2.609100E+01	  0.080921844	-4.552000E+01
306	  0.081122249	-4.735000E+00	  0.081122249	-8.706000E+01	  0.081122249	2.600200E+01	  0.081122249	-4.535100E+01
307	  0.081322648	-4.736000E+00	  0.081322648	-8.727500E+01	  0.081322648	2.591700E+01	  0.081322648	-4.520300E+01
308	  0.081523046	-4.736000E+00	  0.081523046	-8.750000E+01	  0.081523046	2.582500E+01	  0.081523046	-4.505200E+01
309	  0.081723452	-4.736000E+00	  0.081723452	-8.770300E+01	  0.081723452	2.574500E+01	  0.081723452	-4.491300E+01
310	  0.081923850	-4.740000E+00	  0.081923850	-8.791700E+01	  0.081923850	2.567800E+01	  0.081923850	-4.475900E+01
311	  0.082124248	-4.740000E+00	  0.082124248	-8.815600E+01	  0.082124248	2.557900E+01	  0.082124248	-4.460100E+01
312	  0.082324654	-4.740000E+00	  0.082324654	-8.835900E+01	  0.082324654	2.550000E+01	  0.082324654	-4.446400E+01
313	  0.082525052	-4.742000E+00	  0.082525052	-8.858700E+01	  0.082525052	2.541900E+01	  0.082525052	-4.430600E+01
314	  0.082725458	-4.742000E+00	  0.082725458	-8.880700E+01	  0.082725458	2.533200E+01	  0.082725458	-4.416100E+01
315	  0.082925856	-4.743000E+00	  0.082925856	-8.902500E+01	  0.082925856	2.525200E+01	  0.082925856	-4.401300E+01
316	  0.083126254	-4.743000E+00	  0.083126254	-8.924800E+01	  0.083126254	2.516500E+01	  0.083126254	-4.386600E+01
317	  0.083326660	-4.745000E+00	  0.083326660	-8.947400E+01	  0.083326660	2.508900E+01	  0.083326660	-4.371000E+01
318	  0.083527058	-4.744000E+00	  0.083527058	-8.969700E+01	  0.083527058	2.499800E+01	  0.083527058	-4.356600E+01
319	  0.083727457	-4.745000E+00	  0.083727457	-8.989100E+01	  0.083727457	2.492900E+01	  0.083727457	-4.343600E+01
320	  0.083927862	-4.746000E+00	  0.083927862	-9.010900E+01	  0.083927862	2.485000E+01	  0.083927862	-4.329200E+01
321	  0.084128261	-4.747000E+00	  0.084128261	-9.033700E+01	  0.084128261	2.477200E+01	  0.084128261	-4.313800E+01
322	  0.084328659	-4.748000E+00	  0.084328659	-9.056800E+01	  0.084328659	2.468800E+01	  0.084328659	-4.298600E+01
323	  0.084529065	-4.749000E+00	  0.084529065	-9.077500E+01	  0.084529065	2.461600E+01	  0.084529065	-4.284800E+01
324	  0.084729463	-4.749000E+00	  0.084729463	-9.099300E+01	  0.084729463	2.453600E+01	  0.084729463	-4.270600E+01
325	  0.084929861	-4.751000E+00	  0.084929861	-9.121500E+01	  0.084929861	2.446400E+01	  0.084929861	-4.255800E+01
326	  0.085130267	-4.753000E+00	  0.085130267	-9.142600E+01	  0.085130267	2.439600E+01	  0.085130267	-4.241600E+01
327	  0.085330658	-4.752000E+00	  0.085330658	-9.165400E+01	  0.085330658	2.430900E+01	  0.085330658	-4.227200E+01
328	  0.085531056	-4.755000E+00	  0.085531056	-9.188300E+01	  0.085531056	2.423900E+01	  0.085531056	-4.211800E+01
329	  0.085731462	-4.757000E+00	  0.085731462	-9.210700E+01	  0.085731462	2.417000E+01	  0.085731462	-4.196800E+01
330	  0.085931860	-4.759000E+00	  0.085931860	-9.231400E+01	  0.085931860	2.410600E+01	  0.085931860	-4.183000E+01
331	  0.086132258	-4.756000E+00	  0.086132258	-9.253300E+01	  0.086132258	2.401400E+01	  0.086132258	-4.169800E+01
332	  0.086332664	-4.759000E+00	  0.086332664	-9.275600E+01	  0.086332664	2.394900E+01	  0.086332664	-4.154900E+01
333	  0.086533062	-4.759000E+00	  0.086533062	-9.297600E+01	  0.086533062	2.387400E+01	  0.086533062	-4.140800E+01
334	  0.086733460	-4.761000E+00	  0.086733460	-9.320000E+01	  0.086733460	2.380700E+01	  0.086733460	-4.126100E+01
335	  0.086933866	-4.761000E+00	  0.086933866	-9.341400E+01	  0.086933866	2.373500E+01	  0.086933866	-4.112500E+01
336	  0.087134264	-4.761000E+00	  0.087134264	-9.363500E+01	  0.087134264	2.365700E+01	  0.087134264	-4.098700E+01
337	  0.087334670	-4.763000E+00	  0.087334670	-9.384600E+01	  0.087334670	2.359500E+01	  0.087334670	-4.084800E+01
338	  0.087535068	-4.764000E+00	  0.087535068	-9.406500E+01	  0.087535068	2.352700E+01	  0.087535068	-4.070700E+01
339	  0.087735467	-4.768000E+00	  0.087735467	-9.428200E+01	  0.087735467	2.347000E+01	  0.087735467	-4.056300E+01
340	  0.087935872	-4.764000E+00	  0.087935872	-9.451400E+01	  0.087935872	2.337500E+01	  0.087935872	-4.042700E+01
341	  0.088136271	-4.766000E+00	  0.088136271	-9.474200E+01	  0.088136271	2.330800E+01	  0.088136271	-4.028100E+01
342	  0.088336669	-4.768000E+00	  0.088336669	-9.496300E+01	  0.088336669	2.324800E+01	  0.088336669	-4.013600E+01
343	  0.088537075	-4.771000E+00	  0.088537075	-9.518100E+01	  0.088537075	2.318900E+01	  0.088537075	-3.999400E+01
344	  0.088737473	-4.771000E+00	  0.088737473	-9.541000E+01	  0.088737473	2.311400E+01	  0.088737473	-3.985200E+01
345	  0.088937871	-4.773000E+00	  0.088937871	-9.562300E+01	  0.088937871	2.305400E+01	  0.088937871	-3.971600E+01
346	  0.089138277	-4.774000E+00	  0.089138277	-9.583700E+01	  0.089138277	2.298700E+01	  0.089138277	-3.958300E+01
347	  0.089338675	-4.776000E+00	  0.089338675	-9.606900E+01	  0.089338675	2.292600E+01	  0.089338675	-3.943400E+01
348	  0.089539073	-4.776000E+00	  0.089539073	-9.628300E+01	  0.089539073	2.285500E+01	  0.089539073	-3.930400E+01
349	  0.089739479	-4.778000E+00	  0.089739479	-9.650600E+01	  0.089739479	2.279600E+01	  0.089739479	-3.916200E+01
350	  0.089939877	-4.779000E+00	  0.089939877	-9.671500E+01	  0.089939877	2.273400E+01	  0.089939877	-3.903200E+01
351	  0.090140276	-4.779000E+00	  0.090140276	-9.694800E+01	  0.090140276	2.266200E+01	  0.090140276	-3.889000E+01
352	  0.090340681	-4.780000E+00	  0.090340681	-9.716400E+01	  0.090340681	2.260100E+01	  0.090340681	-3.875500E+01
353	  0.090541080	-4.783000E+00	  0.090541080	-9.737000E+01	  0.090541080	2.255000E+01	  0.090541080	-3.862400E+01
354	  0.090741485	-4.784000E+00	  0.090741485	-9.760600E+01	  0.090741485	2.248200E+01	  0.090741485	-3.847900E+01
355	  0.090941884	-4.784000E+00	  0.090941884	-9.781800E+01	  0.090941884	2.241800E+01	  0.090941884	-3.835100E+01
356	  0.091142282	-4.788000E+00	  0.091142282	-9.804100E+01	  0.091142282	2.236600E+01	  0.091142282	-3.820800E+01
357	  0.091342688	-4.788000E+00	  0.091342688	-9.827100E+01	  0.091342688	2.229900E+01	  0.091342688	-3.806900E+01
358	  0.091543086	-4.789000E+00	  0.091543086	-9.847400E+01	  0.091543086	2.224300E+01	  0.091543086	-3.794400E+01
359	  0.091743484	-4.792000E+00	  0.091743484	-9.871200E+01	  0.091743484	2.218600E+01	  0.091743484	-3.779600E+01
360	  0.091943890	-4.793000E+00	  0.091943890	-9.891800E+01	  0.091943890	2.212800E+01	  0.091943890	-3.767100E+01
361	  0.092144288	-4.794000E+00	  0.092144288	-9.915600E+01	  0.092144288	2.206200E+01	  0.092144288	-3.752700E+01
362	  0.092344686	-4.793000E+00	  0.092344686	-9.938600E+01	  0.092344686	2.199400E+01	  0.092344686	-3.739100E+01
363	  0.092545092	-4.793000E+00	  0.092545092	-9.961900E+01	  0.092545092	2.192800E+01	  0.092545092	-3.725200E+01
364	  0.092745490	-4.796000E+00	  0.092745490	-9.982700E+01	  0.092745490	2.187800E+01	  0.092745490	-3.712400E+01
365	  0.092945889	-4.798000E+00	  0.092945889	-1.000550E+02	  0.092945889	2.182100E+01	  0.092945889	-3.698500E+01
366	  0.093146294	-4.800000E+00	  0.093146294	-1.002790E+02	  0.093146294	2.176900E+01	  0.093146294	-3.684800E+01
367	  0.093346693	-4.800000E+00	  0.093346693	-1.004970E+02	  0.093346693	2.170600E+01	  0.093346693	-3.672000E+01
368	  0.093547091	-4.800000E+00	  0.093547091	-1.007100E+02	  0.093547091	2.164700E+01	  0.093547091	-3.659500E+01
369	  0.093747497	-4.801000E+00	  0.093747497	-1.009300E+02	  0.093747497	2.159100E+01	  0.093747497	-3.646300E+01
370	  0.093947895	-4.803000E+00	  0.093947895	-1.011730E+02	  0.093947895	2.153200E+01	  0.093947895	-3.631700E+01
371	  0.094148301	-4.800000E+00	  0.094148301	-1.013840E+02	  0.094148301	2.146400E+01	  0.094148301	-3.619800E+01
372	  0.094348699	-4.804000E+00	  0.094348699	-1.016050E+02	  0.094348699	2.141800E+01	  0.094348699	-3.606300E+01
373	  0.094549097	-4.803000E+00	  0.094549097	-1.018140E+02	  0.094549097	2.135700E+01	  0.094549097	-3.594400E+01
374	  0.094749503	-4.803000E+00	  0.094749503	-1.020490E+02	  0.094749503	2.129800E+01	  0.094749503	-3.580600E+01
375	  0.094949901	-4.806000E+00	  0.094949901	-1.022780E+02	  0.094949901	2.124600E+01	  0.094949901	-3.566900E+01
376	  0.095150299	-4.805000E+00	  0.095150299	-1.024900E+02	  0.095150299	2.118600E+01	  0.095150299	-3.554800E+01
377	  0.095350705	-4.806000E+00	  0.095350705	-1.027270E+02	  0.095350705	2.112800E+01	  0.095350705	-3.540900E+01
378	  0.095551103	-4.807000E+00	  0.095551103	-1.029430E+02	  0.095551103	2.107700E+01	  0.095551103	-3.528200E+01
379	  0.095751502	-4.806000E+00	  0.095751502	-1.031610E+02	  0.095751502	2.101600E+01	  0.095751502	-3.515800E+01
380	  0.095951907	-4.809000E+00	  0.095951907	-1.033870E+02	  0.095951907	2.096800E+01	  0.095951907	-3.502400E+01
381	  0.096152306	-4.810000E+00	  0.096152306	-1.036070E+02	  0.096152306	2.091600E+01	  0.096152306	-3.489600E+01
382	  0.096352704	-4.811000E+00	  0.096352704	-1.038460E+02	  0.096352704	2.085800E+01	  0.096352704	-3.475800E+01
383	  0.096553110	-4.810000E+00	  0.096553110	-1.040430E+02	  0.096553110	2.080500E+01	  0.096553110	-3.464700E+01
384	  0.096753508	-4.812000E+00	  0.096753508	-1.042750E+02	  0.096753508	2.075400E+01	  0.096753508	-3.451200E+01
385	  0.096953906	-4.812000E+00	  0.096953906	-1.044970E+02	  0.096953906	2.070100E+01	  0.096953906	-3.438500E+01
386	  0.097154312	-4.811000E+00	  0.097154312	-1.047150E+02	  0.097154312	2.064100E+01	  0.097154312	-3.426300E+01
387	  0.097354710	-4.813000E+00	  0.097354710	-1.049480E+02	  0.097354710	2.059300E+01	  0.097354710	-3.412800E+01
388	  0.097555116	-4.815000E+00	  0.097555116	-1.051760E+02	  0.097555116	2.054400E+01	  0.097555116	-3.399600E+01
389	  0.097755514	-4.817000E+00	  0.097755514	-1.054010E+02	  0.097755514	2.049800E+01	  0.097755514	-3.386500E+01
390	  0.097955912	-4.816000E+00	  0.097955912	-1.056250E+02	  0.097955912	2.043900E+01	  0.097955912	-3.374100E+01
391	  0.098156318	-4.818000E+00	  0.098156318	-1.058360E+02	  0.098156318	2.039600E+01	  0.098156318	-3.362000E+01
392	  0.098356716	-4.816000E+00	  0.098356716	-1.060580E+02	  0.098356716	2.033700E+01	  0.098356716	-3.349800E+01
393	  0.098557115	-4.819000E+00	  0.098557115	-1.062870E+02	  0.098557115	2.029100E+01	  0.098557115	-3.336600E+01
394	  0.098757520	-4.818000E+00	  0.098757520	-1.064870E+02	  0.098757520	2.024200E+01	  0.098757520	-3.325500E+01
395	  0.098957919	-4.818000E+00	  0.098957919	-1.067190E+02	  0.098957919	2.018600E+01	  0.098957919	-3.312700E+01
396	  0.099158317	-4.819000E+00	  0.099158317	-1.069610E+02	  0.099158317	2.013600E+01	  0.099158317	-3.298900E+01
397	  0.099358723	-4.819000E+00	  0.099358723	-1.071600E+02	  0.099358723	2.009000E+01	  0.099358723	-3.287900E+01
398	  0.099559121	-4.821000E+00	  0.099559121	-1.074000E+02	  0.099559121	2.004000E+01	  0.099559121	-3.274400E+01
399	  0.099759519	-4.821000E+00	  0.099759519	-1.076150E+02	  0.099759519	1.999100E+01	  0.099759519	-3.262500E+01
400	  0.099959925	-4.816000E+00	  0.099959925	-1.078230E+02	  0.099959925	1.992500E+01	  0.099959925	-3.251800E+01
401	  0.100160323	-4.814000E+00	  0.100160323	-1.080500E+02	  0.100160323	1.986900E+01	  0.100160323	-3.239500E+01
402	  0.100360721	-4.820000E+00	  0.100360721	-1.082450E+02	  0.100360721	1.984600E+01	  0.100360721	-3.227900E+01
403	  0.100561127	-4.821000E+00	  0.100561127	-1.084680E+02	  0.100561127	1.979800E+01	  0.100561127	-3.215600E+01
404	  0.100761525	-4.821000E+00	  0.100761525	-1.087040E+02	  0.100761525	1.974700E+01	  0.100761525	-3.202600E+01
405	  0.100961931	-4.821000E+00	  0.100961931	-1.089220E+02	  0.100961931	1.970000E+01	  0.100961931	-3.190700E+01
406	  0.101162329	-4.821000E+00	  0.101162329	-1.091550E+02	  0.101162329	1.964800E+01	  0.101162329	-3.178000E+01
407	  0.101362728	-4.825000E+00	  0.101362728	-1.093500E+02	  0.101362728	1.962200E+01	  0.101362728	-3.166700E+01
408	  0.101563133	-4.822000E+00	  0.101563133	-1.095940E+02	  0.101563133	1.955700E+01	  0.101563133	-3.153900E+01
409	  0.101763532	-4.826000E+00	  0.101763532	-1.098270E+02	  0.101763532	1.952200E+01	  0.101763532	-3.140700E+01
410	  0.101963930	-4.822000E+00	  0.101963930	-1.100390E+02	  0.101963930	1.946300E+01	  0.101963930	-3.129800E+01
411	  0.102164336	-4.825000E+00	  0.102164336	-1.102660E+02	  0.102164336	1.942300E+01	  0.102164336	-3.117200E+01
412	  0.102364734	-4.827000E+00	  0.102364734	-1.105050E+02	  0.102364734	1.938200E+01	  0.102364734	-3.103900E+01
413	  0.102565132	-4.828000E+00	  0.102565132	-1.107060E+02	  0.102565132	1.934100E+01	  0.102565132	-3.093000E+01
414	  0.102765530	-4.829000E+00	  0.102765530	-1.109270E+02	  0.102765530	1.929900E+01	  0.102765530	-3.081100E+01
415	  0.102965929	-4.824000E+00	  0.102965929	-1.111580E+02	  0.102965929	1.923500E+01	  0.102965929	-3.069200E+01
416	  0.103166327	-4.829000E+00	  0.103166327	-1.113710E+02	  0.103166327	1.920700E+01	  0.103166327	-3.057200E+01
417	  0.103366733	-4.831000E+00	  0.103366733	-1.116010E+02	  0.103366733	1.916800E+01	  0.103366733	-3.044600E+01
418	  0.103567131	-4.830000E+00	  0.103567131	-1.118180E+02	  0.103567131	1.912300E+01	  0.103567131	-3.033100E+01
419	  0.103767529	-4.830000E+00	  0.103767529	-1.120300E+02	  0.103767529	1.907900E+01	  0.103767529	-3.021800E+01
420	  0.103967935	-4.834000E+00	  0.103967935	-1.122550E+02	  0.103967935	1.904700E+01	  0.103967935	-3.009400E+01
421	  0.104168333	-4.833000E+00	  0.104168333	-1.124830E+02	  0.104168333	1.899800E+01	  0.104168333	-2.997400E+01
422	  0.104368731	-4.832000E+00	  0.104368731	-1.126980E+02	  0.104368731	1.895100E+01	  0.104368731	-2.986200E+01
423	  0.104569137	-4.835000E+00	  0.104569137	-1.129350E+02	  0.104569137	1.891500E+01	  0.104569137	-2.973200E+01
424	  0.104769535	-4.834000E+00	  0.104769535	-1.131480E+02	  0.104769535	1.887200E+01	  0.104769535	-2.962100E+01
425	  0.104969934	-4.834000E+00	  0.104969934	-1.133960E+02	  0.104969934	1.882400E+01	  0.104969934	-2.949000E+01
426	  0.105170339	-4.838000E+00	  0.105170339	-1.136090E+02	  0.105170339	1.879400E+01	  0.105170339	-2.937400E+01
427	  0.105370738	-4.840000E+00	  0.105370738	-1.138470E+02	  0.105370738	1.875800E+01	  0.105370738	-2.924600E+01
428	  0.105571143	-4.837000E+00	  0.105571143	-1.140810E+02	  0.105571143	1.870300E+01	  0.105571143	-2.912600E+01
429	  0.105771542	-4.841000E+00	  0.105771542	-1.142660E+02	  0.105771542	1.868000E+01	  0.105771542	-2.902600E+01
430	  0.105971940	-4.843000E+00	  0.105971940	-1.144940E+02	  0.105971940	1.864400E+01	  0.105971940	-2.890400E+01
431	  0.106172346	-4.842000E+00	  0.106172346	-1.147180E+02	  0.106172346	1.859700E+01	  0.106172346	-2.878900E+01
432	  0.106372744	-4.847000E+00	  0.106372744	-1.149600E+02	  0.106372744	1.857100E+01	  0.106372744	-2.865600E+01
433	  0.106573142	-4.844000E+00	  0.106573142	-1.151700E+02	  0.106573142	1.852300E+01	  0.106573142	-2.855100E+01
434	  0.106773548	-4.844000E+00	  0.106773548	-1.154030E+02	  0.106773548	1.847800E+01	  0.106773548	-2.843100E+01
435	  0.106973946	-4.844000E+00	  0.106973946	-1.156390E+02	  0.106973946	1.843500E+01	  0.106973946	-2.830800E+01
436	  0.107174344	-4.845000E+00	  0.107174344	-1.158370E+02	  0.107174344	1.840300E+01	  0.107174344	-2.820500E+01
437	  0.107374750	-4.850000E+00	  0.107374750	-1.160740E+02	  0.107374750	1.837600E+01	  0.107374750	-2.807700E+01
438	  0.107575148	-4.848000E+00	  0.107575148	-1.162790E+02	  0.107575148	1.833400E+01	  0.107575148	-2.797300E+01
439	  0.107775547	-4.848000E+00	  0.107775547	-1.165250E+02	  0.107775547	1.828800E+01	  0.107775547	-2.784800E+01
440	  0.107975952	-4.849000E+00	  0.107975952	-1.167670E+02	  0.107975952	1.824900E+01	  0.107975952	-2.772200E+01
441	  0.108176351	-4.850000E+00	  0.108176351	-1.169720E+02	  0.108176351	1.821700E+01	  0.108176351	-2.761600E+01
442	  0.108376749	-4.854000E+00	  0.108376749	-1.171940E+02	  0.108376749	1.819100E+01	  0.108376749	-2.749800E+01
443	  0.108577155	-4.851000E+00	  0.108577155	-1.174250E+02	  0.108577155	1.814100E+01	  0.108577155	-2.738300E+01
444	  0.108777553	-4.853000E+00	  0.108777553	-1.176360E+02	  0.108777553	1.811100E+01	  0.108777553	-2.727400E+01
445	  0.108977959	-4.853000E+00	  0.108977959	-1.178570E+02	  0.108977959	1.807400E+01	  0.108977959	-2.716200E+01
446	  0.109178357	-4.854000E+00	  0.109178357	-1.180790E+02	  0.109178357	1.803800E+01	  0.109178357	-2.704800E+01
447	  0.109378755	-4.853000E+00	  0.109378755	-1.183090E+02	  0.109378755	1.799800E+01	  0.109378755	-2.693100E+01
448	  0.109579161	-4.854000E+00	  0.109579161	-1.185450E+02	  0.109579161	1.796000E+01	  0.109579161	-2.681100E+01
449	  0.109779559	-4.857000E+00	  0.109779559	-1.187630E+02	  0.109779559	1.793500E+01	  0.109779559	-2.669800E+01
450	  0.109979957	-4.853000E+00	  0.109979957	-1.189670E+02	  0.109979957	1.788800E+01	  0.109979957	-2.659900E+01
451	  0.110180363	-4.855000E+00	  0.110180363	-1.191850E+02	  0.110180363	1.785600E+01	  0.110180363	-2.648800E+01
452	  0.110380761	-4.857000E+00	  0.110380761	-1.194350E+02	  0.110380761	1.782200E+01	  0.110380761	-2.636000E+01
453	  0.110581160	-4.857000E+00	  0.110581160	-1.196530E+02	  0.110581160	1.778600E+01	  0.110581160	-2.625100E+01
454	  0.110781565	-4.859000E+00	  0.110781565	-1.199000E+02	  0.110781565	1.775300E+01	  0.110781565	-2.612500E+01
455	  0.110981964	-4.857000E+00	  0.110981964	-1.201150E+02	  0.110981964	1.771300E+01	  0.110981964	-2.601900E+01
456	  0.111182362	-4.861000E+00	  0.111182362	-1.203310E+02	  0.111182362	1.769000E+01	  0.111182362	-2.590700E+01
457	  0.111382768	-4.860000E+00	  0.111382768	-1.205620E+02	  0.111382768	1.765200E+01	  0.111382768	-2.579200E+01
458	  0.111583166	-4.864000E+00	  0.111583166	-1.207760E+02	  0.111583166	1.762900E+01	  0.111583166	-2.568300E+01
459	  0.111783572	-4.862000E+00	  0.111783572	-1.210330E+02	  0.111783572	1.758200E+01	  0.111783572	-2.555700E+01
460	  0.111983970	-4.864000E+00	  0.111983970	-1.212430E+02	  0.111983970	1.755600E+01	  0.111983970	-2.545100E+01
461	  0.112184368	-4.864000E+00	  0.112184368	-1.214610E+02	  0.112184368	1.752200E+01	  0.112184368	-2.534300E+01
462	  0.112384774	-4.863000E+00	  0.112384774	-1.216890E+02	  0.112384774	1.748300E+01	  0.112384774	-2.523100E+01
463	  0.112585172	-4.863000E+00	  0.112585172	-1.219220E+02	  0.112585172	1.745000E+01	  0.112585172	-2.511500E+01
464	  0.112785570	-4.865000E+00	  0.112785570	-1.221420E+02	  0.112785570	1.742100E+01	  0.112785570	-2.500600E+01
465	  0.112985976	-4.865000E+00	  0.112985976	-1.223390E+02	  0.112985976	1.739300E+01	  0.112985976	-2.490800E+01
466	  0.113186374	-4.868000E+00	  0.113186374	-1.225940E+02	  0.113186374	1.736200E+01	  0.113186374	-2.478000E+01
467	  0.113386773	-4.865000E+00	  0.113386773	-1.228290E+02	  0.113386773	1.731700E+01	  0.113386773	-2.466800E+01
468	  0.113587178	-4.868000E+00	  0.113587178	-1.230380E+02	  0.113587178	1.729600E+01	  0.113587178	-2.456200E+01
469	  0.113787577	-4.872000E+00	  0.113787577	-1.232790E+02	  0.113787577	1.727500E+01	  0.113787577	-2.444000E+01
470	  0.113987975	-4.869000E+00	  0.113987975	-1.234900E+02	  0.113987975	1.723300E+01	  0.113987975	-2.434100E+01
471	  0.114188381	-4.866000E+00	  0.114188381	-1.237170E+02	  0.114188381	1.719000E+01	  0.114188381	-2.423300E+01
472	  0.114388779	-4.871000E+00	  0.114388779	-1.239430E+02	  0.114388779	1.717300E+01	  0.114388779	-2.411800E+01
473	  0.114589177	-4.871000E+00	  0.114589177	-1.241580E+02	  0.114589177	1.714200E+01	  0.114589177	-2.401400E+01
474	  0.114789583	-4.874000E+00	  0.114789583	-1.243820E+02	  0.114789583	1.712000E+01	  0.114789583	-2.390200E+01
475	  0.114989981	-4.875000E+00	  0.114989981	-1.246180E+02	  0.114989981	1.709100E+01	  0.114989981	-2.378600E+01
476	  0.115190387	-4.875000E+00	  0.115190387	-1.248330E+02	  0.115190387	1.705900E+01	  0.115190387	-2.368300E+01
477	  0.115390785	-4.875000E+00	  0.115390785	-1.250580E+02	  0.115390785	1.702800E+01	  0.115390785	-2.357400E+01
478	  0.115591183	-4.877000E+00	  0.115591183	-1.252780E+02	  0.115591183	1.700300E+01	  0.115591183	-2.346600E+01
479	  0.115791589	-4.877000E+00	  0.115791589	-1.255070E+02	  0.115791589	1.697100E+01	  0.115791589	-2.335600E+01
480	  0.115991987	-4.875000E+00	  0.115991987	-1.257080E+02	  0.115991987	1.693900E+01	  0.115991987	-2.326100E+01
481	  0.116192386	-4.879000E+00	  0.116192386	-1.259350E+02	  0.116192386	1.691800E+01	  0.116192386	-2.314900E+01
482	  0.116392791	-4.878000E+00	  0.116392791	-1.261760E+02	  0.116392791	1.688400E+01	  0.116392791	-2.303300E+01
483	  0.116593190	-4.878000E+00	  0.116593190	-1.264090E+02	  0.116593190	1.685200E+01	  0.116593190	-2.292200E+01
484	  0.116793588	-4.880000E+00	  0.116793588	-1.266220E+02	  0.116793588	1.682900E+01	  0.116793588	-2.281800E+01
485	  0.116993994	-4.877000E+00	  0.116993994	-1.268360E+02	  0.116993994	1.679200E+01	  0.116993994	-2.271900E+01
486	  0.117194392	-4.881000E+00	  0.117194392	-1.270750E+02	  0.117194392	1.677000E+01	  0.117194392	-2.260200E+01
487	  0.117394790	-4.879000E+00	  0.117394790	-1.272960E+02	  0.117394790	1.673700E+01	  0.117394790	-2.249800E+01
488	  0.117595196	-4.883000E+00	  0.117595196	-1.275200E+02	  0.117595196	1.671900E+01	  0.117595196	-2.238800E+01
489	  0.117795594	-4.881000E+00	  0.117795594	-1.277450E+02	  0.117795594	1.668400E+01	  0.117795594	-2.228300E+01
490	  0.117995992	-4.885000E+00	  0.117995992	-1.279670E+02	  0.117995992	1.666700E+01	  0.117995992	-2.217400E+01
491	  0.118196398	-4.885000E+00	  0.118196398	-1.281630E+02	  0.118196398	1.664200E+01	  0.118196398	-2.208100E+01
492	  0.118396796	-4.886000E+00	  0.118396796	-1.284180E+02	  0.118396796	1.661200E+01	  0.118396796	-2.196000E+01
493	  0.118597202	-4.883000E+00	  0.118597202	-1.286350E+02	  0.118597202	1.657600E+01	  0.118597202	-2.186000E+01
494	  0.118797600	-4.888000E+00	  0.118797600	-1.288740E+02	  0.118797600	1.656100E+01	  0.118797600	-2.174300E+01
495	  0.118997999	-4.887000E+00	  0.118997999	-1.290830E+02	  0.118997999	1.653200E+01	  0.118997999	-2.164600E+01
496	  0.119198404	-4.887000E+00	  0.119198404	-1.293100E+02	  0.119198404	1.650400E+01	  0.119198404	-2.153900E+01
497	  0.119398803	-4.889000E+00	  0.119398803	-1.295250E+02	  0.119398803	1.648300E+01	  0.119398803	-2.143700E+01
498	  0.119599201	-4.887000E+00	  0.119599201	-1.297510E+02	  0.119599201	1.644900E+01	  0.119599201	-2.133200E+01
499	  0.119799607	-4.890000E+00	  0.119799607	-1.299720E+02	  0.119799607	1.643200E+01	  0.119799607	-2.122600E+01
500	  0.120000005	-4.890000E+00	  0.120000005	-1.302150E+02	  0.120000005	1.640100E+01	  0.120000005	-2.111300E+01
