! Anritsu VNA Master:             	Model: MS2036C/10/77
! SN:             	1601066
! /bd0/18may08.cable.cal/uu.50.2.txt
! Existing Calibration Information:
! TYPE:             	Current Settings	Active Cal Settings
! TIME:             	05/08/2018 06:03:07 PM	05/08/2018 05:57:55 PM
! INTERNAL TEMP:    	49.3 C	49.3 C
! # POINTS:         	500	500
! START FREQ:       	20.000 MHz	20.000 MHz
! STOP FREQ:        	120.000 MHz	120.000 MHz
! SOURCE POWER:     	High	High
! IFBW:             	50 Hz	50 Hz
! AVG FACTOR:       	  1 	  1 
! REF PLANE 1:      	0 mm	0 mm
! REF PLANE 2:      	0 mm	0 mm
! CAL TYPE:         	Full S11	Full S11
! CAL METHOD:       	SOLT	SOLT
! CAL LINE TYPE:    	Coax	Coax
! DUT PORT 1:       	K-Conn(F)	K-Conn(F)
! DUT PORT 2:       	K-Conn(F)	K-Conn(F)
! CAL STATUS:       	OK: Accuracy High	--
! PROP-V:       	0.700
! CABLE LOSS:       	0.000 dB/m
! REF IMPEDANCE:       	50.0
! Trace Specific Parameters:	TR1	TR2	TR3	TR4
! TRACE.#.Y (GRAPH TYPE)	LOG MAG	PHASE	REAL IMPEDANCE	IMAGINARY IMPEDANCE
! TRACE.#.X 	FREQ.GHZ	FREQ.GHZ	FREQ.GHZ	FREQ.GHZ
! S-PARAMETER	S11	S11	S11	S11
! SMOOTH/APERTURE %	0	0	0	0
! WINDOW	NSL	NSL	NSL	NSL
! GATING	OFF	OFF	OFF	OFF
! FGTD	OFF	OFF	OFF	OFF
Marker Information per Trace:	TR1	TR2	TR3	TR4
!MK1	--	"MK1 TR2:  20.000 MHz,PH:56.67°"	--	--
!MK2	--	--	"MK2 TR3:  70.100 200 MHz,Z:(52.306 ohm, 1.420 ohm)"	--
!MK3	--	--	--	--
!MK4	--	--	--	--
!MK5	--	--	--	--
!MK6	--	--	--	--
!MK7	--	--	--	--
!MK8	--	--	--	--
PNT	TR1.FREQ.GHZ	TR1.LOG MAG.dB	TR2.FREQ.GHZ	TR2.PHASE.deg	TR3.FREQ.GHZ	TR3.REAL IMPEDANCE.ohm	TR4.FREQ.GHZ	TR4.IMAGINARY IMPEDANCE.ohm
1	  0.020000000	-3.927000E+01	  0.020000000	5.667000E+01	  0.020000000	5.059200E+01	  0.020000000	9.190000E-01
2	  0.020200402	-3.924800E+01	  0.020200402	5.658700E+01	  0.020200402	5.059500E+01	  0.020200402	9.210000E-01
3	  0.020400802	-3.910700E+01	  0.020400802	5.646800E+01	  0.020400802	5.060700E+01	  0.020400802	9.350000E-01
4	  0.020601204	-3.907300E+01	  0.020601204	5.661000E+01	  0.020601204	5.060700E+01	  0.020601204	9.400000E-01
5	  0.020801604	-3.905200E+01	  0.020801604	5.636600E+01	  0.020801604	5.061200E+01	  0.020801604	9.400000E-01
6	  0.021002004	-3.903900E+01	  0.021002004	5.573300E+01	  0.021002004	5.062400E+01	  0.021002004	9.340000E-01
7	  0.021202406	-3.889200E+01	  0.021202406	5.626100E+01	  0.021202406	5.062500E+01	  0.021202406	9.560000E-01
8	  0.021402806	-3.885800E+01	  0.021402806	5.608100E+01	  0.021402806	5.063100E+01	  0.021402806	9.580000E-01
9	  0.021603208	-3.882700E+01	  0.021603208	5.590500E+01	  0.021603208	5.063600E+01	  0.021603208	9.590000E-01
10	  0.021803608	-3.877000E+01	  0.021803608	5.605000E+01	  0.021803608	5.063800E+01	  0.021803608	9.680000E-01
11	  0.022004008	-3.871100E+01	  0.022004008	5.498700E+01	  0.022004008	5.066000E+01	  0.022004008	9.620000E-01
12	  0.022204408	-3.860000E+01	  0.022204408	5.528400E+01	  0.022204408	5.066400E+01	  0.022204408	9.780000E-01
13	  0.022404809	-3.852500E+01	  0.022404809	5.527200E+01	  0.022404809	5.066900E+01	  0.022404809	9.870000E-01
14	  0.022605211	-3.851700E+01	  0.022605211	5.557600E+01	  0.022605211	5.066500E+01	  0.022605211	9.910000E-01
15	  0.022805611	-3.848900E+01	  0.022805611	5.510400E+01	  0.022805611	5.067500E+01	  0.022805611	9.890000E-01
16	  0.023006011	-3.830500E+01	  0.023006011	5.500900E+01	  0.023006011	5.069100E+01	  0.023006011	1.009000E+00
17	  0.023206413	-3.841900E+01	  0.023206413	5.524400E+01	  0.023206413	5.067800E+01	  0.023206413	9.990000E-01
18	  0.023406813	-3.830300E+01	  0.023406813	5.520800E+01	  0.023406813	5.068800E+01	  0.023406813	1.012000E+00
19	  0.023607215	-3.823900E+01	  0.023607215	5.504700E+01	  0.023607215	5.069600E+01	  0.023607215	1.017000E+00
20	  0.023807615	-3.813500E+01	  0.023807615	5.520200E+01	  0.023807615	5.070100E+01	  0.023807615	1.032000E+00
21	  0.024008015	-3.802900E+01	  0.024008015	5.472500E+01	  0.024008015	5.071900E+01	  0.024008015	1.039000E+00
22	  0.024208417	-3.810900E+01	  0.024208417	5.450300E+01	  0.024208417	5.071600E+01	  0.024208417	1.026000E+00
23	  0.024408817	-3.805700E+01	  0.024408817	5.510900E+01	  0.024408817	5.070900E+01	  0.024408817	1.040000E+00
24	  0.024609219	-3.801200E+01	  0.024609219	5.442300E+01	  0.024609219	5.072600E+01	  0.024609219	1.037000E+00
25	  0.024809619	-3.798100E+01	  0.024809619	5.449200E+01	  0.024809619	5.072700E+01	  0.024809619	1.042000E+00
26	  0.025010020	-3.778800E+01	  0.025010020	5.429400E+01	  0.025010020	5.074700E+01	  0.025010020	1.063000E+00
27	  0.025210422	-3.780900E+01	  0.025210422	5.429400E+01	  0.025210422	5.074500E+01	  0.025210422	1.060000E+00
28	  0.025410822	-3.775800E+01	  0.025410822	5.418200E+01	  0.025410822	5.075200E+01	  0.025410822	1.065000E+00
29	  0.025611224	-3.768100E+01	  0.025611224	5.391600E+01	  0.025611224	5.076300E+01	  0.025611224	1.071000E+00
30	  0.025811624	-3.768700E+01	  0.025811624	5.377300E+01	  0.025811624	5.076500E+01	  0.025811624	1.069000E+00
31	  0.026012026	-3.758800E+01	  0.026012026	5.370600E+01	  0.026012026	5.077500E+01	  0.026012026	1.080000E+00
32	  0.026212426	-3.755200E+01	  0.026212426	5.392800E+01	  0.026212426	5.077400E+01	  0.026212426	1.088000E+00
33	  0.026412826	-3.747000E+01	  0.026412826	5.421100E+01	  0.026412826	5.077600E+01	  0.026412826	1.102000E+00
34	  0.026613226	-3.749600E+01	  0.026613226	5.406500E+01	  0.026613226	5.077700E+01	  0.026613226	1.097000E+00
35	  0.026813626	-3.742500E+01	  0.026813626	5.377300E+01	  0.026813626	5.078900E+01	  0.026813626	1.102000E+00
36	  0.027014028	-3.740300E+01	  0.027014028	5.378500E+01	  0.027014028	5.079000E+01	  0.027014028	1.105000E+00
37	  0.027214428	-3.734300E+01	  0.027214428	5.347300E+01	  0.027214428	5.080200E+01	  0.027214428	1.108000E+00
38	  0.027414829	-3.718500E+01	  0.027414829	5.352100E+01	  0.027414829	5.081600E+01	  0.027414829	1.130000E+00
39	  0.027615231	-3.721700E+01	  0.027615231	5.345600E+01	  0.027615231	5.081400E+01	  0.027615231	1.125000E+00
40	  0.027815631	-3.715600E+01	  0.027815631	5.310300E+01	  0.027815631	5.082700E+01	  0.027815631	1.127000E+00
41	  0.028016033	-3.715400E+01	  0.028016033	5.286400E+01	  0.028016033	5.083200E+01	  0.028016033	1.124000E+00
42	  0.028216433	-3.710800E+01	  0.028216433	5.329400E+01	  0.028216433	5.082700E+01	  0.028216433	1.137000E+00
43	  0.028416833	-3.696600E+01	  0.028416833	5.302800E+01	  0.028416833	5.084600E+01	  0.028416833	1.152000E+00
44	  0.028617235	-3.701100E+01	  0.028617235	5.284200E+01	  0.028617235	5.084600E+01	  0.028617235	1.143000E+00
45	  0.028817635	-3.692000E+01	  0.028817635	5.276800E+01	  0.028817635	5.085600E+01	  0.028817635	1.154000E+00
46	  0.029018037	-3.695400E+01	  0.029018037	5.257100E+01	  0.029018037	5.085700E+01	  0.029018037	1.147000E+00
47	  0.029218437	-3.687700E+01	  0.029218437	5.290900E+01	  0.029218437	5.085800E+01	  0.029218437	1.162000E+00
48	  0.029418837	-3.681600E+01	  0.029418837	5.230900E+01	  0.029418837	5.087600E+01	  0.029418837	1.161000E+00
49	  0.029619239	-3.676700E+01	  0.029619239	5.247900E+01	  0.029619239	5.087700E+01	  0.029619239	1.171000E+00
50	  0.029819639	-3.672100E+01	  0.029819639	5.222800E+01	  0.029819639	5.088700E+01	  0.029819639	1.173000E+00
51	  0.030020041	-3.667800E+01	  0.030020041	5.223400E+01	  0.030020041	5.089200E+01	  0.030020041	1.179000E+00
52	  0.030220442	-3.664600E+01	  0.030220442	5.184900E+01	  0.030220442	5.090300E+01	  0.030220442	1.178000E+00
53	  0.030420844	-3.657600E+01	  0.030420844	5.222900E+01	  0.030420844	5.090200E+01	  0.030420844	1.193000E+00
54	  0.030621244	-3.651100E+01	  0.030621244	5.224900E+01	  0.030621244	5.090800E+01	  0.030621244	1.203000E+00
55	  0.030821644	-3.656100E+01	  0.030821644	5.205800E+01	  0.030821644	5.090700E+01	  0.030821644	1.193000E+00
56	  0.031022044	-3.652500E+01	  0.031022044	5.169000E+01	  0.031022044	5.091900E+01	  0.031022044	1.192000E+00
57	  0.031222444	-3.635000E+01	  0.031222444	5.200200E+01	  0.031222444	5.093100E+01	  0.031222444	1.222000E+00
58	  0.031422846	-3.635500E+01	  0.031422846	5.186800E+01	  0.031422846	5.093300E+01	  0.031422846	1.219000E+00
59	  0.031623244	-3.635100E+01	  0.031623244	5.173400E+01	  0.031623244	5.093600E+01	  0.031623244	1.217000E+00
60	  0.031823646	-3.632700E+01	  0.031823646	5.181700E+01	  0.031823646	5.093700E+01	  0.031823646	1.222000E+00
61	  0.032024048	-3.631900E+01	  0.032024048	5.137600E+01	  0.032024048	5.094800E+01	  0.032024048	1.216000E+00
62	  0.032224450	-3.619700E+01	  0.032224450	5.114200E+01	  0.032224450	5.096600E+01	  0.032224450	1.230000E+00
63	  0.032424849	-3.620800E+01	  0.032424849	5.139900E+01	  0.032424849	5.095900E+01	  0.032424849	1.232000E+00
64	  0.032625251	-3.618500E+01	  0.032625251	5.124400E+01	  0.032625251	5.096500E+01	  0.032625251	1.233000E+00
65	  0.032825653	-3.615700E+01	  0.032825653	5.100700E+01	  0.032825653	5.097300E+01	  0.032825653	1.233000E+00
66	  0.033026051	-3.609700E+01	  0.033026051	5.064900E+01	  0.033026051	5.098800E+01	  0.033026051	1.236000E+00
67	  0.033226453	-3.611300E+01	  0.033226453	5.078600E+01	  0.033226453	5.098300E+01	  0.033226453	1.236000E+00
68	  0.033426855	-3.602500E+01	  0.033426855	5.083500E+01	  0.033426855	5.099200E+01	  0.033426855	1.249000E+00
69	  0.033627257	-3.597600E+01	  0.033627257	5.065200E+01	  0.033627257	5.100200E+01	  0.033627257	1.253000E+00
70	  0.033827655	-3.592400E+01	  0.033827655	5.035600E+01	  0.033827655	5.101400E+01	  0.033827655	1.256000E+00
71	  0.034028057	-3.594100E+01	  0.034028057	5.026100E+01	  0.034028057	5.101400E+01	  0.034028057	1.252000E+00
72	  0.034228459	-3.585600E+01	  0.034228459	4.994900E+01	  0.034228459	5.103100E+01	  0.034228459	1.259000E+00
73	  0.034428857	-3.583000E+01	  0.034428857	5.021300E+01	  0.034428857	5.102900E+01	  0.034428857	1.267000E+00
74	  0.034629259	-3.585900E+01	  0.034629259	4.999000E+01	  0.034629259	5.103000E+01	  0.034629259	1.259000E+00
75	  0.034829661	-3.575500E+01	  0.034829661	5.016200E+01	  0.034829661	5.103900E+01	  0.034829661	1.278000E+00
76	  0.035030060	-3.569900E+01	  0.035030060	4.997700E+01	  0.035030060	5.105000E+01	  0.035030060	1.283000E+00
77	  0.035230462	-3.565700E+01	  0.035230462	5.029400E+01	  0.035230462	5.104700E+01	  0.035230462	1.295000E+00
78	  0.035430863	-3.561100E+01	  0.035430863	4.951900E+01	  0.035430863	5.107100E+01	  0.035430863	1.288000E+00
79	  0.035631265	-3.561000E+01	  0.035631265	4.954000E+01	  0.035631265	5.107000E+01	  0.035631265	1.288000E+00
80	  0.035831664	-3.555500E+01	  0.035831664	4.965000E+01	  0.035831664	5.107500E+01	  0.035831664	1.298000E+00
81	  0.036032066	-3.557200E+01	  0.036032066	4.963300E+01	  0.036032066	5.107300E+01	  0.036032066	1.296000E+00
82	  0.036232468	-3.552300E+01	  0.036232468	4.924700E+01	  0.036232468	5.108800E+01	  0.036232468	1.296000E+00
83	  0.036432866	-3.550500E+01	  0.036432866	4.934100E+01	  0.036432866	5.108800E+01	  0.036432866	1.300000E+00
84	  0.036633268	-3.546000E+01	  0.036633268	4.964900E+01	  0.036633268	5.108600E+01	  0.036633268	1.313000E+00
85	  0.036833670	-3.543100E+01	  0.036833670	4.910600E+01	  0.036833670	5.110300E+01	  0.036833670	1.307000E+00
86	  0.037034072	-3.535800E+01	  0.037034072	4.891200E+01	  0.037034072	5.111600E+01	  0.037034072	1.315000E+00
87	  0.037234470	-3.532200E+01	  0.037234470	4.895000E+01	  0.037234470	5.112000E+01	  0.037234470	1.321000E+00
88	  0.037434869	-3.528100E+01	  0.037434869	4.887800E+01	  0.037434869	5.112700E+01	  0.037434869	1.326000E+00
89	  0.037635271	-3.528700E+01	  0.037635271	4.841800E+01	  0.037635271	5.113700E+01	  0.037635271	1.316000E+00
90	  0.037835669	-3.523100E+01	  0.037835669	4.855800E+01	  0.037835669	5.114100E+01	  0.037835669	1.328000E+00
91	  0.038036071	-3.518800E+01	  0.038036071	4.830300E+01	  0.038036071	5.115300E+01	  0.038036071	1.329000E+00
92	  0.038236473	-3.513400E+01	  0.038236473	4.837300E+01	  0.038236473	5.115900E+01	  0.038236473	1.339000E+00
93	  0.038436871	-3.513900E+01	  0.038436871	4.863600E+01	  0.038436871	5.115200E+01	  0.038436871	1.344000E+00
94	  0.038637273	-3.508300E+01	  0.038637273	4.817100E+01	  0.038637273	5.117000E+01	  0.038637273	1.343000E+00
95	  0.038837675	-3.504800E+01	  0.038837675	4.798600E+01	  0.038837675	5.117900E+01	  0.038837675	1.345000E+00
96	  0.039038073	-3.503100E+01	  0.039038073	4.816700E+01	  0.039038073	5.117700E+01	  0.039038073	1.351000E+00
97	  0.039238475	-3.503000E+01	  0.039238475	4.774200E+01	  0.039238475	5.118800E+01	  0.039238475	1.343000E+00
98	  0.039438877	-3.497800E+01	  0.039438877	4.793200E+01	  0.039438877	5.119000E+01	  0.039438877	1.355000E+00
99	  0.039639279	-3.492500E+01	  0.039639279	4.749400E+01	  0.039639279	5.120800E+01	  0.039639279	1.354000E+00
100	  0.039839678	-3.488100E+01	  0.039839678	4.736300E+01	  0.039839678	5.121700E+01	  0.039839678	1.358000E+00
101	  0.040040080	-3.486900E+01	  0.040040080	4.781500E+01	  0.040040080	5.120800E+01	  0.040040080	1.370000E+00
102	  0.040240481	-3.488500E+01	  0.040240481	4.711200E+01	  0.040240481	5.122300E+01	  0.040240481	1.352000E+00
103	  0.040440880	-3.484300E+01	  0.040440880	4.720100E+01	  0.040440880	5.122700E+01	  0.040440880	1.361000E+00
104	  0.040641282	-3.479600E+01	  0.040641282	4.737100E+01	  0.040641282	5.122900E+01	  0.040641282	1.372000E+00
105	  0.040841684	-3.476900E+01	  0.040841684	4.727900E+01	  0.040841684	5.123500E+01	  0.040841684	1.375000E+00
106	  0.041042086	-3.471700E+01	  0.041042086	4.657000E+01	  0.041042086	5.126000E+01	  0.041042086	1.368000E+00
107	  0.041242484	-3.466600E+01	  0.041242484	4.652800E+01	  0.041242484	5.126800E+01	  0.041242484	1.375000E+00
108	  0.041442886	-3.468300E+01	  0.041442886	4.667300E+01	  0.041442886	5.126200E+01	  0.041442886	1.375000E+00
109	  0.041643288	-3.461800E+01	  0.041643288	4.659000E+01	  0.041643288	5.127400E+01	  0.041643288	1.384000E+00
110	  0.041843686	-3.460000E+01	  0.041843686	4.646000E+01	  0.041843686	5.128000E+01	  0.041843686	1.384000E+00
111	  0.042044088	-3.460300E+01	  0.042044088	4.646800E+01	  0.042044088	5.127900E+01	  0.042044088	1.384000E+00
112	  0.042244490	-3.452000E+01	  0.042244490	4.666600E+01	  0.042244490	5.128700E+01	  0.042244490	1.402000E+00
113	  0.042444889	-3.453600E+01	  0.042444889	4.620900E+01	  0.042444889	5.129600E+01	  0.042444889	1.389000E+00
114	  0.042645290	-3.447800E+01	  0.042645290	4.617700E+01	  0.042645290	5.130500E+01	  0.042645290	1.398000E+00
115	  0.042845692	-3.445900E+01	  0.042845692	4.590400E+01	  0.042845692	5.131500E+01	  0.042845692	1.395000E+00
116	  0.043046094	-3.443900E+01	  0.043046094	4.597200E+01	  0.043046094	5.131600E+01	  0.043046094	1.400000E+00
117	  0.043246493	-3.441900E+01	  0.043246493	4.602200E+01	  0.043246493	5.131800E+01	  0.043246493	1.404000E+00
118	  0.043446895	-3.439800E+01	  0.043446895	4.581000E+01	  0.043446895	5.132600E+01	  0.043446895	1.403000E+00
119	  0.043647297	-3.434600E+01	  0.043647297	4.580300E+01	  0.043647297	5.133500E+01	  0.043647297	1.411000E+00
120	  0.043847695	-3.435300E+01	  0.043847695	4.583400E+01	  0.043847695	5.133300E+01	  0.043847695	1.411000E+00
121	  0.044048097	-3.434000E+01	  0.044048097	4.550100E+01	  0.044048097	5.134300E+01	  0.044048097	1.405000E+00
122	  0.044248499	-3.424900E+01	  0.044248499	4.562200E+01	  0.044248499	5.135400E+01	  0.044248499	1.423000E+00
123	  0.044448901	-3.423500E+01	  0.044448901	4.569100E+01	  0.044448901	5.135400E+01	  0.044448901	1.427000E+00
124	  0.044649299	-3.420800E+01	  0.044649299	4.521800E+01	  0.044649299	5.137100E+01	  0.044649299	1.421000E+00
125	  0.044849701	-3.416200E+01	  0.044849701	4.508700E+01	  0.044849701	5.138100E+01	  0.044849701	1.425000E+00
126	  0.045050103	-3.414100E+01	  0.045050103	4.511500E+01	  0.045050103	5.138400E+01	  0.045050103	1.429000E+00
127	  0.045250501	-3.411500E+01	  0.045250501	4.474100E+01	  0.045250501	5.139800E+01	  0.045250501	1.425000E+00
128	  0.045450903	-3.405500E+01	  0.045450903	4.492900E+01	  0.045450903	5.140300E+01	  0.045450903	1.439000E+00
129	  0.045651305	-3.407700E+01	  0.045651305	4.491900E+01	  0.045651305	5.139900E+01	  0.045651305	1.436000E+00
130	  0.045851704	-3.405100E+01	  0.045851704	4.464600E+01	  0.045851704	5.141100E+01	  0.045851704	1.433000E+00
131	  0.046052106	-3.399500E+01	  0.046052106	4.456400E+01	  0.046052106	5.142200E+01	  0.046052106	1.441000E+00
132	  0.046252504	-3.396200E+01	  0.046252504	4.446000E+01	  0.046252504	5.143000E+01	  0.046252504	1.444000E+00
133	  0.046452906	-3.397100E+01	  0.046452906	4.427800E+01	  0.046452906	5.143300E+01	  0.046452906	1.438000E+00
134	  0.046653304	-3.395000E+01	  0.046653304	4.409000E+01	  0.046653304	5.144100E+01	  0.046653304	1.437000E+00
135	  0.046853706	-3.392700E+01	  0.046853706	4.392600E+01	  0.046853706	5.144900E+01	  0.046853706	1.436000E+00
136	  0.047054108	-3.386200E+01	  0.047054108	4.399900E+01	  0.047054108	5.145900E+01	  0.047054108	1.449000E+00
137	  0.047254506	-3.384000E+01	  0.047254506	4.381200E+01	  0.047254506	5.146700E+01	  0.047254506	1.448000E+00
138	  0.047454908	-3.381500E+01	  0.047454908	4.393100E+01	  0.047454908	5.146800E+01	  0.047454908	1.456000E+00
139	  0.047655310	-3.378500E+01	  0.047655310	4.370600E+01	  0.047655310	5.147900E+01	  0.047655310	1.455000E+00
140	  0.047855709	-3.375100E+01	  0.047855709	4.344800E+01	  0.047855709	5.149200E+01	  0.047855709	1.454000E+00
141	  0.048056111	-3.373100E+01	  0.048056111	4.370300E+01	  0.048056111	5.148900E+01	  0.048056111	1.464000E+00
142	  0.048256513	-3.373700E+01	  0.048256513	4.325300E+01	  0.048256513	5.149900E+01	  0.048256513	1.451000E+00
143	  0.048456915	-3.368700E+01	  0.048456915	4.312000E+01	  0.048456915	5.151100E+01	  0.048456915	1.457000E+00
144	  0.048657313	-3.369700E+01	  0.048657313	4.310200E+01	  0.048657313	5.151000E+01	  0.048657313	1.454000E+00
145	  0.048857715	-3.361900E+01	  0.048857715	4.298100E+01	  0.048857715	5.152700E+01	  0.048857715	1.465000E+00
146	  0.049058117	-3.360900E+01	  0.049058117	4.299000E+01	  0.049058117	5.152900E+01	  0.049058117	1.467000E+00
147	  0.049258515	-3.360800E+01	  0.049258515	4.291100E+01	  0.049258515	5.153100E+01	  0.049258515	1.465000E+00
148	  0.049458917	-3.354800E+01	  0.049458917	4.267500E+01	  0.049458917	5.154800E+01	  0.049458917	1.469000E+00
149	  0.049659319	-3.357600E+01	  0.049659319	4.289100E+01	  0.049659319	5.153700E+01	  0.049659319	1.470000E+00
150	  0.049859721	-3.353200E+01	  0.049859721	4.227500E+01	  0.049859721	5.156100E+01	  0.049859721	1.461000E+00
151	  0.050060119	-3.349200E+01	  0.050060119	4.217500E+01	  0.050060119	5.157100E+01	  0.050060119	1.465000E+00
152	  0.050260521	-3.347700E+01	  0.050260521	4.217500E+01	  0.050260521	5.157400E+01	  0.050260521	1.468000E+00
153	  0.050460923	-3.346500E+01	  0.050460923	4.194100E+01	  0.050460923	5.158200E+01	  0.050460923	1.463000E+00
154	  0.050661322	-3.344100E+01	  0.050661322	4.206600E+01	  0.050661322	5.158300E+01	  0.050661322	1.471000E+00
155	  0.050861724	-3.342700E+01	  0.050861724	4.176600E+01	  0.050861724	5.159400E+01	  0.050861724	1.465000E+00
156	  0.051062126	-3.341900E+01	  0.051062126	4.172200E+01	  0.051062126	5.159600E+01	  0.051062126	1.465000E+00
157	  0.051262524	-3.334000E+01	  0.051262524	4.158800E+01	  0.051262524	5.161400E+01	  0.051262524	1.475000E+00
158	  0.051462926	-3.334200E+01	  0.051462926	4.114400E+01	  0.051462926	5.162600E+01	  0.051462926	1.462000E+00
159	  0.051663328	-3.332800E+01	  0.051663328	4.140400E+01	  0.051663328	5.162200E+01	  0.051663328	1.472000E+00
160	  0.051863730	-3.329100E+01	  0.051863730	4.105900E+01	  0.051863730	5.163800E+01	  0.051863730	1.469000E+00
161	  0.052064128	-3.325800E+01	  0.052064128	4.103400E+01	  0.052064128	5.164500E+01	  0.052064128	1.474000E+00
162	  0.052264530	-3.322100E+01	  0.052264530	4.114500E+01	  0.052264530	5.164900E+01	  0.052264530	1.484000E+00
163	  0.052464932	-3.321300E+01	  0.052464932	4.099000E+01	  0.052464932	5.165400E+01	  0.052464932	1.480000E+00
164	  0.052665330	-3.324000E+01	  0.052665330	4.066100E+01	  0.052665330	5.165800E+01	  0.052665330	1.466000E+00
165	  0.052865732	-3.317100E+01	  0.052865732	4.080500E+01	  0.052865732	5.166700E+01	  0.052865732	1.482000E+00
166	  0.053066134	-3.315400E+01	  0.053066134	4.053600E+01	  0.053066134	5.167800E+01	  0.053066134	1.478000E+00
167	  0.053266536	-3.314800E+01	  0.053266536	4.036400E+01	  0.053266536	5.168400E+01	  0.053266536	1.474000E+00
168	  0.053466935	-3.315200E+01	  0.053466935	4.041800E+01	  0.053466935	5.168100E+01	  0.053466935	1.474000E+00
169	  0.053667337	-3.310600E+01	  0.053667337	4.019900E+01	  0.053667337	5.169600E+01	  0.053667337	1.476000E+00
170	  0.053867739	-3.306300E+01	  0.053867739	4.033700E+01	  0.053867739	5.170100E+01	  0.053867739	1.488000E+00
171	  0.054068137	-3.304900E+01	  0.054068137	4.015000E+01	  0.054068137	5.170900E+01	  0.054068137	1.485000E+00
172	  0.054268539	-3.302000E+01	  0.054268539	4.024500E+01	  0.054268539	5.171200E+01	  0.054268539	1.493000E+00
173	  0.054468941	-3.302800E+01	  0.054468941	3.996100E+01	  0.054468941	5.171800E+01	  0.054468941	1.483000E+00
174	  0.054669339	-3.297100E+01	  0.054669339	3.971900E+01	  0.054669339	5.173600E+01	  0.054669339	1.485000E+00
175	  0.054869737	-3.297100E+01	  0.054869737	3.951900E+01	  0.054869737	5.174100E+01	  0.054869737	1.479000E+00
176	  0.055070139	-3.292300E+01	  0.055070139	3.934500E+01	  0.055070139	5.175600E+01	  0.055070139	1.482000E+00
177	  0.055270538	-3.296300E+01	  0.055270538	3.954800E+01	  0.055270538	5.174200E+01	  0.055270538	1.482000E+00
178	  0.055470940	-3.293600E+01	  0.055470940	3.911200E+01	  0.055470940	5.175900E+01	  0.055470940	1.473000E+00
179	  0.055671342	-3.288200E+01	  0.055671342	3.898700E+01	  0.055671342	5.177400E+01	  0.055671342	1.479000E+00
180	  0.055871744	-3.284600E+01	  0.055871744	3.903400E+01	  0.055871744	5.178000E+01	  0.055871744	1.486000E+00
181	  0.056072142	-3.284800E+01	  0.056072142	3.892100E+01	  0.056072142	5.178200E+01	  0.056072142	1.482000E+00
182	  0.056272544	-3.278200E+01	  0.056272544	3.899400E+01	  0.056272544	5.179400E+01	  0.056272544	1.497000E+00
183	  0.056472946	-3.282900E+01	  0.056472946	3.850900E+01	  0.056472946	5.179700E+01	  0.056472946	1.473000E+00
184	  0.056673344	-3.276300E+01	  0.056673344	3.853200E+01	  0.056673344	5.181000E+01	  0.056673344	1.485000E+00
185	  0.056873746	-3.273500E+01	  0.056873746	3.831300E+01	  0.056873746	5.182200E+01	  0.056873746	1.483000E+00
186	  0.057074148	-3.276300E+01	  0.057074148	3.837500E+01	  0.057074148	5.181500E+01	  0.057074148	1.480000E+00
187	  0.057274550	-3.274700E+01	  0.057274550	3.830800E+01	  0.057274550	5.182000E+01	  0.057274550	1.481000E+00
188	  0.057474948	-3.268700E+01	  0.057474948	3.797000E+01	  0.057474948	5.184200E+01	  0.057474948	1.481000E+00
189	  0.057675350	-3.266100E+01	  0.057675350	3.790900E+01	  0.057675350	5.184900E+01	  0.057675350	1.483000E+00
190	  0.057875752	-3.262500E+01	  0.057875752	3.774100E+01	  0.057875752	5.186100E+01	  0.057875752	1.484000E+00
191	  0.058076151	-3.264300E+01	  0.058076151	3.759300E+01	  0.058076151	5.186100E+01	  0.058076151	1.476000E+00
192	  0.058276553	-3.262600E+01	  0.058276553	3.743700E+01	  0.058276553	5.186900E+01	  0.058276553	1.474000E+00
193	  0.058476955	-3.257100E+01	  0.058476955	3.754100E+01	  0.058476955	5.187800E+01	  0.058476955	1.487000E+00
194	  0.058677353	-3.256900E+01	  0.058677353	3.705700E+01	  0.058677353	5.189200E+01	  0.058677353	1.472000E+00
195	  0.058877755	-3.256000E+01	  0.058877755	3.725700E+01	  0.058877755	5.188800E+01	  0.058877755	1.480000E+00
196	  0.059078157	-3.254200E+01	  0.059078157	3.700900E+01	  0.059078157	5.189900E+01	  0.059078157	1.475000E+00
197	  0.059278559	-3.251400E+01	  0.059278559	3.691600E+01	  0.059278559	5.190700E+01	  0.059278559	1.477000E+00
198	  0.059478957	-3.249500E+01	  0.059478957	3.688400E+01	  0.059478957	5.191200E+01	  0.059478957	1.479000E+00
199	  0.059679359	-3.250600E+01	  0.059679359	3.695300E+01	  0.059679359	5.190800E+01	  0.059679359	1.479000E+00
200	  0.059879761	-3.243100E+01	  0.059879761	3.665900E+01	  0.059879761	5.193300E+01	  0.059879761	1.482000E+00
201	  0.060080159	-3.243300E+01	  0.060080159	3.631000E+01	  0.060080159	5.194200E+01	  0.060080159	1.470000E+00
202	  0.060280561	-3.242700E+01	  0.060280561	3.637000E+01	  0.060280561	5.194100E+01	  0.060280561	1.474000E+00
203	  0.060480963	-3.240800E+01	  0.060480963	3.634500E+01	  0.060480963	5.194600E+01	  0.060480963	1.476000E+00
204	  0.060681365	-3.235200E+01	  0.060681365	3.627900E+01	  0.060681365	5.196100E+01	  0.060681365	1.483000E+00
205	  0.060881764	-3.236600E+01	  0.060881764	3.615800E+01	  0.060881764	5.196100E+01	  0.060881764	1.477000E+00
206	  0.061082166	-3.236600E+01	  0.061082166	3.586200E+01	  0.061082166	5.196900E+01	  0.061082166	1.467000E+00
207	  0.061282568	-3.230400E+01	  0.061282568	3.588700E+01	  0.061282568	5.198200E+01	  0.061282568	1.478000E+00
208	  0.061482966	-3.230300E+01	  0.061482966	3.579100E+01	  0.061482966	5.198500E+01	  0.061482966	1.475000E+00
209	  0.061683368	-3.229500E+01	  0.061683368	3.569900E+01	  0.061683368	5.199000E+01	  0.061683368	1.474000E+00
210	  0.061883770	-3.225800E+01	  0.061883770	3.552700E+01	  0.061883770	5.200300E+01	  0.061883770	1.474000E+00
211	  0.062084168	-3.222600E+01	  0.062084168	3.543800E+01	  0.062084168	5.201300E+01	  0.062084168	1.476000E+00
212	  0.062284570	-3.224900E+01	  0.062284570	3.546900E+01	  0.062284570	5.200600E+01	  0.062284570	1.474000E+00
213	  0.062484972	-3.221800E+01	  0.062484972	3.524200E+01	  0.062484972	5.202000E+01	  0.062484972	1.471000E+00
214	  0.062685370	-3.216900E+01	  0.062685370	3.513500E+01	  0.062685370	5.203400E+01	  0.062685370	1.476000E+00
215	  0.062885776	-3.213200E+01	  0.062885776	3.532200E+01	  0.062885776	5.203800E+01	  0.062885776	1.489000E+00
216	  0.063086174	-3.215300E+01	  0.063086174	3.494000E+01	  0.063086174	5.204300E+01	  0.063086174	1.472000E+00
217	  0.063286573	-3.215000E+01	  0.063286573	3.475100E+01	  0.063286573	5.204900E+01	  0.063286573	1.465000E+00
218	  0.063486971	-3.214000E+01	  0.063486971	3.487400E+01	  0.063486971	5.204800E+01	  0.063486971	1.472000E+00
219	  0.063687377	-3.211500E+01	  0.063687377	3.478600E+01	  0.063687377	5.205600E+01	  0.063687377	1.473000E+00
220	  0.063887775	-3.208700E+01	  0.063887775	3.450300E+01	  0.063887775	5.207100E+01	  0.063887775	1.467000E+00
221	  0.064088173	-3.207800E+01	  0.064088173	3.453600E+01	  0.064088173	5.207200E+01	  0.064088173	1.470000E+00
222	  0.064288579	-3.204600E+01	  0.064288579	3.424500E+01	  0.064288579	5.208700E+01	  0.064288579	1.465000E+00
223	  0.064488977	-3.202300E+01	  0.064488977	3.429500E+01	  0.064488977	5.209200E+01	  0.064488977	1.471000E+00
224	  0.064689375	-3.196600E+01	  0.064689375	3.396800E+01	  0.064689375	5.211400E+01	  0.064689375	1.469000E+00
225	  0.064889781	-3.200400E+01	  0.064889781	3.416200E+01	  0.064889781	5.210000E+01	  0.064889781	1.469000E+00
226	  0.065090179	-3.192700E+01	  0.065090179	3.407700E+01	  0.065090179	5.212100E+01	  0.065090179	1.480000E+00
227	  0.065290578	-3.195700E+01	  0.065290578	3.352600E+01	  0.065290578	5.212800E+01	  0.065290578	1.454000E+00
228	  0.065490983	-3.194900E+01	  0.065490983	3.364700E+01	  0.065490983	5.212700E+01	  0.065490983	1.460000E+00
229	  0.065691382	-3.193700E+01	  0.065691382	3.350800E+01	  0.065691382	5.213400E+01	  0.065691382	1.457000E+00
230	  0.065891780	-3.191100E+01	  0.065891780	3.357800E+01	  0.065891780	5.213800E+01	  0.065891780	1.464000E+00
231	  0.066092186	-3.192600E+01	  0.066092186	3.314800E+01	  0.066092186	5.214600E+01	  0.066092186	1.445000E+00
232	  0.066292584	-3.183800E+01	  0.066292584	3.333600E+01	  0.066292584	5.216300E+01	  0.066292584	1.468000E+00
233	  0.066492982	-3.182400E+01	  0.066492982	3.310500E+01	  0.066492982	5.217300E+01	  0.066492982	1.461000E+00
234	  0.066693388	-3.181100E+01	  0.066693388	3.305400E+01	  0.066693388	5.217700E+01	  0.066693388	1.462000E+00
235	  0.066893786	-3.182900E+01	  0.066893786	3.277700E+01	  0.066893786	5.218000E+01	  0.066893786	1.448000E+00
236	  0.067094192	-3.180900E+01	  0.067094192	3.281500E+01	  0.067094192	5.218400E+01	  0.067094192	1.453000E+00
237	  0.067294590	-3.176400E+01	  0.067294590	3.268100E+01	  0.067294590	5.219900E+01	  0.067294590	1.455000E+00
238	  0.067494988	-3.178500E+01	  0.067494988	3.242400E+01	  0.067494988	5.220100E+01	  0.067494988	1.442000E+00
239	  0.067695394	-3.171600E+01	  0.067695394	3.240000E+01	  0.067695394	5.221900E+01	  0.067695394	1.453000E+00
240	  0.067895792	-3.176900E+01	  0.067895792	3.247300E+01	  0.067895792	5.220300E+01	  0.067895792	1.446000E+00
241	  0.068096191	-3.171400E+01	  0.068096191	3.218300E+01	  0.068096191	5.222600E+01	  0.068096191	1.445000E+00
242	  0.068296596	-3.171200E+01	  0.068296596	3.206200E+01	  0.068296596	5.222900E+01	  0.068296596	1.440000E+00
243	  0.068496995	-3.166300E+01	  0.068496995	3.214200E+01	  0.068496995	5.224000E+01	  0.068496995	1.452000E+00
244	  0.068697393	-3.168500E+01	  0.068697393	3.178200E+01	  0.068697393	5.224300E+01	  0.068697393	1.434000E+00
245	  0.068897791	-3.165900E+01	  0.068897791	3.164100E+01	  0.068897791	5.225400E+01	  0.068897791	1.433000E+00
246	  0.069098189	-3.165000E+01	  0.069098189	3.151500E+01	  0.069098189	5.226000E+01	  0.069098189	1.429000E+00
247	  0.069298595	-3.161100E+01	  0.069298595	3.136900E+01	  0.069298595	5.227400E+01	  0.069298595	1.430000E+00
248	  0.069498993	-3.161000E+01	  0.069498993	3.116400E+01	  0.069498993	5.227900E+01	  0.069498993	1.422000E+00
249	  0.069699399	-3.159500E+01	  0.069699399	3.098900E+01	  0.069699399	5.228800E+01	  0.069699399	1.418000E+00
250	  0.069899797	-3.159400E+01	  0.069899797	3.076700E+01	  0.069899797	5.229400E+01	  0.069899797	1.409000E+00
251	  0.070100196	-3.154500E+01	  0.070100196	3.082600E+01	  0.070100196	5.230500E+01	  0.070100196	1.419000E+00
252	  0.070300601	-3.153900E+01	  0.070300601	3.076700E+01	  0.070300601	5.230900E+01	  0.070300601	1.418000E+00
253	  0.070501000	-3.152300E+01	  0.070501000	3.062200E+01	  0.070501000	5.231700E+01	  0.070501000	1.415000E+00
254	  0.070701398	-3.152800E+01	  0.070701398	3.056100E+01	  0.070701398	5.231700E+01	  0.070701398	1.411000E+00
255	  0.070901804	-3.148000E+01	  0.070901804	3.059000E+01	  0.070901804	5.232900E+01	  0.070901804	1.421000E+00
256	  0.071102202	-3.150200E+01	  0.071102202	3.037900E+01	  0.071102202	5.232900E+01	  0.071102202	1.408000E+00
257	  0.071302600	-3.145800E+01	  0.071302600	3.011800E+01	  0.071302600	5.234700E+01	  0.071302600	1.405000E+00
258	  0.071503006	-3.146700E+01	  0.071503006	3.024000E+01	  0.071503006	5.234200E+01	  0.071503006	1.408000E+00
259	  0.071703404	-3.141000E+01	  0.071703404	3.004400E+01	  0.071703404	5.236300E+01	  0.071703404	1.410000E+00
260	  0.071903802	-3.140100E+01	  0.071903802	2.971500E+01	  0.071903802	5.237400E+01	  0.071903802	1.398000E+00
261	  0.072104208	-3.142600E+01	  0.072104208	2.978600E+01	  0.072104208	5.236500E+01	  0.072104208	1.397000E+00
262	  0.072304606	-3.138500E+01	  0.072304606	2.983400E+01	  0.072304606	5.237500E+01	  0.072304606	1.406000E+00
263	  0.072505005	-3.136400E+01	  0.072505005	2.947700E+01	  0.072505005	5.239000E+01	  0.072505005	1.394000E+00
264	  0.072705410	-3.137400E+01	  0.072705410	2.957100E+01	  0.072705410	5.238500E+01	  0.072705410	1.396000E+00
265	  0.072905809	-3.133000E+01	  0.072905809	2.906000E+01	  0.072905809	5.241000E+01	  0.072905809	1.382000E+00
266	  0.073106214	-3.131900E+01	  0.073106214	2.949000E+01	  0.073106214	5.240200E+01	  0.073106214	1.402000E+00
267	  0.073306613	-3.134000E+01	  0.073306613	2.898600E+01	  0.073306613	5.240900E+01	  0.073306613	1.377000E+00
268	  0.073507011	-3.130700E+01	  0.073507011	2.898600E+01	  0.073507011	5.241800E+01	  0.073507011	1.383000E+00
269	  0.073707417	-3.127200E+01	  0.073707417	2.870800E+01	  0.073707417	5.243500E+01	  0.073707417	1.376000E+00
270	  0.073907815	-3.129000E+01	  0.073907815	2.868400E+01	  0.073907815	5.243100E+01	  0.073907815	1.373000E+00
271	  0.074108213	-3.126300E+01	  0.074108213	2.851700E+01	  0.074108213	5.244300E+01	  0.074108213	1.370000E+00
272	  0.074308619	-3.126400E+01	  0.074308619	2.844100E+01	  0.074308619	5.244400E+01	  0.074308619	1.366000E+00
273	  0.074509017	-3.120200E+01	  0.074509017	2.826800E+01	  0.074509017	5.246600E+01	  0.074509017	1.369000E+00
274	  0.074709415	-3.118300E+01	  0.074709415	2.867300E+01	  0.074709415	5.246200E+01	  0.074709415	1.390000E+00
275	  0.074909821	-3.119800E+01	  0.074909821	2.826300E+01	  0.074909821	5.246800E+01	  0.074909821	1.369000E+00
276	  0.075110219	-3.118100E+01	  0.075110219	2.795000E+01	  0.075110219	5.248100E+01	  0.075110219	1.358000E+00
277	  0.075310618	-3.120500E+01	  0.075310618	2.814400E+01	  0.075310618	5.246900E+01	  0.075310618	1.363000E+00
278	  0.075511023	-3.117200E+01	  0.075511023	2.790600E+01	  0.075511023	5.248400E+01	  0.075511023	1.358000E+00
279	  0.075711422	-3.114300E+01	  0.075711422	2.780100E+01	  0.075711422	5.249500E+01	  0.075711422	1.358000E+00
280	  0.075911827	-3.111500E+01	  0.075911827	2.738100E+01	  0.075911827	5.251400E+01	  0.075911827	1.344000E+00
281	  0.076112226	-3.112700E+01	  0.076112226	2.768200E+01	  0.076112226	5.250300E+01	  0.076112226	1.355000E+00
282	  0.076312624	-3.111800E+01	  0.076312624	2.764800E+01	  0.076312624	5.250600E+01	  0.076312624	1.355000E+00
283	  0.076513030	-3.110500E+01	  0.076513030	2.721800E+01	  0.076513030	5.252100E+01	  0.076513030	1.338000E+00
284	  0.076713428	-3.105200E+01	  0.076713428	2.694400E+01	  0.076713428	5.254300E+01	  0.076713428	1.334000E+00
285	  0.076913826	-3.102900E+01	  0.076913826	2.673300E+01	  0.076913826	5.255500E+01	  0.076913826	1.329000E+00
286	  0.077114232	-3.104500E+01	  0.077114232	2.706200E+01	  0.077114232	5.254300E+01	  0.077114232	1.341000E+00
287	  0.077314630	-3.105300E+01	  0.077314630	2.684300E+01	  0.077314630	5.254600E+01	  0.077314630	1.330000E+00
288	  0.077515028	-3.103700E+01	  0.077515028	2.714600E+01	  0.077515028	5.254300E+01	  0.077515028	1.346000E+00
289	  0.077715434	-3.098600E+01	  0.077715434	2.671500E+01	  0.077715434	5.256900E+01	  0.077715434	1.335000E+00
290	  0.077915832	-3.099900E+01	  0.077915832	2.630100E+01	  0.077915832	5.257500E+01	  0.077915832	1.314000E+00
291	  0.078116231	-3.096500E+01	  0.078116231	2.642800E+01	  0.078116231	5.258200E+01	  0.078116231	1.325000E+00
292	  0.078316636	-3.094400E+01	  0.078316636	2.605000E+01	  0.078316636	5.259800E+01	  0.078316636	1.311000E+00
293	  0.078517035	-3.096000E+01	  0.078517035	2.591300E+01	  0.078517035	5.259600E+01	  0.078517035	1.302000E+00
294	  0.078717433	-3.091500E+01	  0.078717433	2.596100E+01	  0.078717433	5.260900E+01	  0.078717433	1.311000E+00
295	  0.078917839	-3.091200E+01	  0.078917839	2.581700E+01	  0.078917839	5.261300E+01	  0.078917839	1.305000E+00
296	  0.079118237	-3.087800E+01	  0.079118237	2.574900E+01	  0.079118237	5.262500E+01	  0.079118237	1.307000E+00
297	  0.079318643	-3.090500E+01	  0.079318643	2.554800E+01	  0.079318643	5.262100E+01	  0.079318643	1.294000E+00
298	  0.079519041	-3.085300E+01	  0.079519041	2.550400E+01	  0.079519041	5.263900E+01	  0.079519041	1.300000E+00
299	  0.079719439	-3.086900E+01	  0.079719439	2.539900E+01	  0.079719439	5.263600E+01	  0.079719439	1.292000E+00
300	  0.079919845	-3.087200E+01	  0.079919845	2.511100E+01	  0.079919845	5.264200E+01	  0.079919845	1.278000E+00
301	  0.080120243	-3.082400E+01	  0.080120243	2.513200E+01	  0.080120243	5.265700E+01	  0.080120243	1.287000E+00
302	  0.080320641	-3.082600E+01	  0.080320641	2.487000E+01	  0.080320641	5.266200E+01	  0.080320641	1.274000E+00
303	  0.080521047	-3.084600E+01	  0.080521047	2.499700E+01	  0.080521047	5.265300E+01	  0.080521047	1.277000E+00
304	  0.080721445	-3.083000E+01	  0.080721445	2.448000E+01	  0.080721445	5.267000E+01	  0.080721445	1.255000E+00
305	  0.080921844	-3.080900E+01	  0.080921844	2.451400E+01	  0.080921844	5.267600E+01	  0.080921844	1.260000E+00
306	  0.081122249	-3.079000E+01	  0.081122249	2.451200E+01	  0.081122249	5.268200E+01	  0.081122249	1.263000E+00
307	  0.081322648	-3.077600E+01	  0.081322648	2.459900E+01	  0.081322648	5.268400E+01	  0.081322648	1.269000E+00
308	  0.081523046	-3.079400E+01	  0.081523046	2.428600E+01	  0.081523046	5.268600E+01	  0.081523046	1.251000E+00
309	  0.081723452	-3.077200E+01	  0.081723452	2.404400E+01	  0.081723452	5.269800E+01	  0.081723452	1.243000E+00
310	  0.081923850	-3.071900E+01	  0.081923850	2.430100E+01	  0.081923850	5.270900E+01	  0.081923850	1.263000E+00
311	  0.082124248	-3.071000E+01	  0.082124248	2.386600E+01	  0.082124248	5.272200E+01	  0.082124248	1.244000E+00
312	  0.082324654	-3.067900E+01	  0.082324654	2.373800E+01	  0.082324654	5.273500E+01	  0.082324654	1.242000E+00
313	  0.082525052	-3.073000E+01	  0.082525052	2.373700E+01	  0.082525052	5.271900E+01	  0.082525052	1.234000E+00
314	  0.082725458	-3.069000E+01	  0.082725458	2.365200E+01	  0.082725458	5.273300E+01	  0.082725458	1.236000E+00
315	  0.082925856	-3.067100E+01	  0.082925856	2.361100E+01	  0.082925856	5.274000E+01	  0.082925856	1.237000E+00
316	  0.083126254	-3.069100E+01	  0.083126254	2.309900E+01	  0.083126254	5.274600E+01	  0.083126254	1.209000E+00
317	  0.083326660	-3.067600E+01	  0.083326660	2.323800E+01	  0.083326660	5.274700E+01	  0.083326660	1.218000E+00
318	  0.083527058	-3.068300E+01	  0.083527058	2.311200E+01	  0.083527058	5.274800E+01	  0.083527058	1.211000E+00
319	  0.083727457	-3.060300E+01	  0.083727457	2.288700E+01	  0.083727457	5.277900E+01	  0.083727457	1.212000E+00
320	  0.083927862	-3.061900E+01	  0.083927862	2.279800E+01	  0.083927862	5.277600E+01	  0.083927862	1.205000E+00
321	  0.084128261	-3.062400E+01	  0.084128261	2.263700E+01	  0.084128261	5.277800E+01	  0.084128261	1.196000E+00
322	  0.084328659	-3.061900E+01	  0.084328659	2.257800E+01	  0.084328659	5.278100E+01	  0.084328659	1.194000E+00
323	  0.084529065	-3.062600E+01	  0.084529065	2.243100E+01	  0.084529065	5.278100E+01	  0.084529065	1.186000E+00
324	  0.084729463	-3.059800E+01	  0.084729463	2.235300E+01	  0.084729463	5.279200E+01	  0.084729463	1.186000E+00
325	  0.084929861	-3.055900E+01	  0.084929861	2.226200E+01	  0.084929861	5.280700E+01	  0.084929861	1.187000E+00
326	  0.085130267	-3.053900E+01	  0.085130267	2.208600E+01	  0.085130267	5.281800E+01	  0.085130267	1.181000E+00
327	  0.085330658	-3.055600E+01	  0.085330658	2.184900E+01	  0.085330658	5.281700E+01	  0.085330658	1.167000E+00
328	  0.085531056	-3.056100E+01	  0.085531056	2.211200E+01	  0.085531056	5.281000E+01	  0.085531056	1.179000E+00
329	  0.085731462	-3.055100E+01	  0.085731462	2.211500E+01	  0.085731462	5.281300E+01	  0.085731462	1.181000E+00
330	  0.085931860	-3.052800E+01	  0.085931860	2.182200E+01	  0.085931860	5.282700E+01	  0.085931860	1.169000E+00
331	  0.086132258	-3.050100E+01	  0.086132258	2.154800E+01	  0.086132258	5.284200E+01	  0.086132258	1.159000E+00
332	  0.086332664	-3.051100E+01	  0.086332664	2.152300E+01	  0.086332664	5.283900E+01	  0.086332664	1.157000E+00
333	  0.086533062	-3.048100E+01	  0.086533062	2.146200E+01	  0.086533062	5.285100E+01	  0.086533062	1.158000E+00
334	  0.086733460	-3.049800E+01	  0.086733460	2.132000E+01	  0.086733460	5.284800E+01	  0.086733460	1.148000E+00
335	  0.086933866	-3.045700E+01	  0.086933866	2.103700E+01	  0.086933866	5.286800E+01	  0.086933866	1.139000E+00
336	  0.087134264	-3.047400E+01	  0.087134264	2.089000E+01	  0.087134264	5.286500E+01	  0.087134264	1.129000E+00
337	  0.087334670	-3.043000E+01	  0.087334670	2.079700E+01	  0.087334670	5.288200E+01	  0.087334670	1.131000E+00
338	  0.087535068	-3.043700E+01	  0.087535068	2.068200E+01	  0.087535068	5.288200E+01	  0.087535068	1.124000E+00
339	  0.087735467	-3.039700E+01	  0.087735467	2.052000E+01	  0.087735467	5.289900E+01	  0.087735467	1.121000E+00
340	  0.087935872	-3.043000E+01	  0.087935872	2.052900E+01	  0.087935872	5.288700E+01	  0.087935872	1.117000E+00
341	  0.088136271	-3.041000E+01	  0.088136271	2.017500E+01	  0.088136271	5.290100E+01	  0.088136271	1.101000E+00
342	  0.088336669	-3.041900E+01	  0.088336669	2.036100E+01	  0.088336669	5.289500E+01	  0.088336669	1.110000E+00
343	  0.088537075	-3.039900E+01	  0.088537075	2.026100E+01	  0.088537075	5.290300E+01	  0.088537075	1.107000E+00
344	  0.088737473	-3.040300E+01	  0.088737473	1.998900E+01	  0.088737473	5.290800E+01	  0.088737473	1.093000E+00
345	  0.088937871	-3.036400E+01	  0.088937871	1.977300E+01	  0.088937871	5.292500E+01	  0.088937871	1.086000E+00
346	  0.089138277	-3.036400E+01	  0.089138277	1.991300E+01	  0.089138277	5.292300E+01	  0.089138277	1.094000E+00
347	  0.089338675	-3.035400E+01	  0.089338675	1.966600E+01	  0.089338675	5.293100E+01	  0.089338675	1.082000E+00
348	  0.089539073	-3.036900E+01	  0.089539073	1.949900E+01	  0.089539073	5.292900E+01	  0.089539073	1.071000E+00
349	  0.089739479	-3.032600E+01	  0.089739479	1.942400E+01	  0.089739479	5.294600E+01	  0.089739479	1.073000E+00
350	  0.089939877	-3.031000E+01	  0.089939877	1.920700E+01	  0.089939877	5.295500E+01	  0.089939877	1.064000E+00
351	  0.090140276	-3.033500E+01	  0.090140276	1.899600E+01	  0.090140276	5.295100E+01	  0.090140276	1.049000E+00
352	  0.090340681	-3.031400E+01	  0.090340681	1.888900E+01	  0.090340681	5.296000E+01	  0.090340681	1.046000E+00
353	  0.090541080	-3.032100E+01	  0.090541080	1.890500E+01	  0.090541080	5.295700E+01	  0.090541080	1.046000E+00
354	  0.090741485	-3.031400E+01	  0.090741485	1.867700E+01	  0.090741485	5.296400E+01	  0.090741485	1.035000E+00
355	  0.090941884	-3.030200E+01	  0.090941884	1.854400E+01	  0.090941884	5.297100E+01	  0.090941884	1.029000E+00
356	  0.091142282	-3.026200E+01	  0.091142282	1.847700E+01	  0.091142282	5.298600E+01	  0.091142282	1.031000E+00
357	  0.091342688	-3.029900E+01	  0.091342688	1.829900E+01	  0.091342688	5.297700E+01	  0.091342688	1.017000E+00
358	  0.091543086	-3.027100E+01	  0.091543086	1.809400E+01	  0.091543086	5.299000E+01	  0.091543086	1.009000E+00
359	  0.091743484	-3.025300E+01	  0.091743484	1.840300E+01	  0.091743484	5.299100E+01	  0.091743484	1.028000E+00
360	  0.091943890	-3.024900E+01	  0.091943890	1.801800E+01	  0.091943890	5.300000E+01	  0.091943890	1.008000E+00
361	  0.092144288	-3.019700E+01	  0.092144288	1.798500E+01	  0.092144288	5.301900E+01	  0.092144288	1.013000E+00
362	  0.092344686	-3.024600E+01	  0.092344686	1.754600E+01	  0.092344686	5.300900E+01	  0.092344686	9.830000E-01
363	  0.092545092	-3.023500E+01	  0.092545092	1.758500E+01	  0.092545092	5.301300E+01	  0.092545092	9.860000E-01
364	  0.092745490	-3.021200E+01	  0.092745490	1.739600E+01	  0.092745490	5.302400E+01	  0.092745490	9.790000E-01
365	  0.092945889	-3.018600E+01	  0.092945889	1.739300E+01	  0.092945889	5.303400E+01	  0.092945889	9.820000E-01
366	  0.093146294	-3.021400E+01	  0.093146294	1.755100E+01	  0.093146294	5.302100E+01	  0.093146294	9.870000E-01
367	  0.093346693	-3.020200E+01	  0.093346693	1.730600E+01	  0.093346693	5.302900E+01	  0.093346693	9.750000E-01
368	  0.093547091	-3.016700E+01	  0.093547091	1.720900E+01	  0.093547091	5.304400E+01	  0.093547091	9.740000E-01
369	  0.093747497	-3.015200E+01	  0.093747497	1.700600E+01	  0.093747497	5.305300E+01	  0.093747497	9.650000E-01
370	  0.093947895	-3.017800E+01	  0.093947895	1.697700E+01	  0.093947895	5.304400E+01	  0.093947895	9.600000E-01
371	  0.094148301	-3.015900E+01	  0.094148301	1.669300E+01	  0.094148301	5.305600E+01	  0.094148301	9.470000E-01
372	  0.094348699	-3.016500E+01	  0.094348699	1.656800E+01	  0.094348699	5.305600E+01	  0.094348699	9.390000E-01
373	  0.094549097	-3.015600E+01	  0.094549097	1.652600E+01	  0.094549097	5.306000E+01	  0.094549097	9.380000E-01
374	  0.094749503	-3.013300E+01	  0.094749503	1.633300E+01	  0.094749503	5.307200E+01	  0.094749503	9.300000E-01
375	  0.094949901	-3.013500E+01	  0.094949901	1.625300E+01	  0.094949901	5.307200E+01	  0.094949901	9.250000E-01
376	  0.095150299	-3.010900E+01	  0.095150299	1.623100E+01	  0.095150299	5.308200E+01	  0.095150299	9.270000E-01
377	  0.095350705	-3.010700E+01	  0.095350705	1.612600E+01	  0.095350705	5.308500E+01	  0.095350705	9.210000E-01
378	  0.095551103	-3.010100E+01	  0.095551103	1.578400E+01	  0.095551103	5.309200E+01	  0.095551103	9.030000E-01
379	  0.095751502	-3.009300E+01	  0.095751502	1.571000E+01	  0.095751502	5.309700E+01	  0.095751502	9.000000E-01
380	  0.095951907	-3.009300E+01	  0.095951907	1.564500E+01	  0.095951907	5.309800E+01	  0.095951907	8.960000E-01
381	  0.096152306	-3.009400E+01	  0.096152306	1.550500E+01	  0.096152306	5.310000E+01	  0.096152306	8.880000E-01
382	  0.096352704	-3.005800E+01	  0.096352704	1.546000E+01	  0.096352704	5.311400E+01	  0.096352704	8.900000E-01
383	  0.096553110	-3.006700E+01	  0.096553110	1.523900E+01	  0.096553110	5.311400E+01	  0.096553110	8.770000E-01
384	  0.096753508	-3.008000E+01	  0.096753508	1.527200E+01	  0.096753508	5.310900E+01	  0.096753508	8.770000E-01
385	  0.096953906	-3.003200E+01	  0.096953906	1.519700E+01	  0.096953906	5.312800E+01	  0.096953906	8.780000E-01
386	  0.097154312	-3.003300E+01	  0.097154312	1.475900E+01	  0.097154312	5.313400E+01	  0.097154312	8.530000E-01
387	  0.097354710	-3.004100E+01	  0.097354710	1.483900E+01	  0.097354710	5.313000E+01	  0.097354710	8.570000E-01
388	  0.097555116	-3.002600E+01	  0.097555116	1.479400E+01	  0.097555116	5.313600E+01	  0.097555116	8.560000E-01
389	  0.097755514	-3.001700E+01	  0.097755514	1.481400E+01	  0.097755514	5.313900E+01	  0.097755514	8.580000E-01
390	  0.097955912	-3.000700E+01	  0.097955912	1.442600E+01	  0.097955912	5.314900E+01	  0.097955912	8.370000E-01
391	  0.098156318	-2.998800E+01	  0.098156318	1.427200E+01	  0.098156318	5.315900E+01	  0.098156318	8.300000E-01
392	  0.098356716	-2.999400E+01	  0.098356716	1.417400E+01	  0.098356716	5.315800E+01	  0.098356716	8.240000E-01
393	  0.098557115	-2.998800E+01	  0.098557115	1.415200E+01	  0.098557115	5.316000E+01	  0.098557115	8.230000E-01
394	  0.098757520	-2.995500E+01	  0.098757520	1.380600E+01	  0.098757520	5.317800E+01	  0.098757520	8.070000E-01
395	  0.098957919	-2.998000E+01	  0.098957919	1.375400E+01	  0.098957919	5.317000E+01	  0.098957919	8.020000E-01
396	  0.099158317	-2.997700E+01	  0.099158317	1.370700E+01	  0.099158317	5.317100E+01	  0.099158317	7.990000E-01
397	  0.099358723	-2.995200E+01	  0.099358723	1.348400E+01	  0.099358723	5.318400E+01	  0.099358723	7.890000E-01
398	  0.099559121	-2.994000E+01	  0.099559121	1.370600E+01	  0.099559121	5.318500E+01	  0.099559121	8.030000E-01
399	  0.099759519	-2.992500E+01	  0.099759519	1.333400E+01	  0.099759519	5.319700E+01	  0.099759519	7.830000E-01
400	  0.099959925	-2.993500E+01	  0.099959925	1.302800E+01	  0.099959925	5.319700E+01	  0.099959925	7.640000E-01
401	  0.100160323	-2.997000E+01	  0.100160323	1.302300E+01	  0.100160323	5.318400E+01	  0.100160323	7.610000E-01
402	  0.100360721	-2.983700E+01	  0.100360721	1.319600E+01	  0.100360721	5.323200E+01	  0.100360721	7.830000E-01
403	  0.100561127	-2.988300E+01	  0.100561127	1.311000E+01	  0.100561127	5.321600E+01	  0.100561127	7.740000E-01
404	  0.100761525	-2.995400E+01	  0.100761525	1.327200E+01	  0.100761525	5.318600E+01	  0.100761525	7.770000E-01
405	  0.100961931	-2.982700E+01	  0.100961931	1.266500E+01	  0.100961931	5.324400E+01	  0.100961931	7.530000E-01
406	  0.101162329	-2.986600E+01	  0.101162329	1.251100E+01	  0.101162329	5.323100E+01	  0.101162329	7.410000E-01
407	  0.101362728	-2.986300E+01	  0.101362728	1.264100E+01	  0.101362728	5.323000E+01	  0.101362728	7.490000E-01
408	  0.101563133	-2.989800E+01	  0.101563133	1.242900E+01	  0.101563133	5.321900E+01	  0.101563133	7.330000E-01
409	  0.101763532	-2.986100E+01	  0.101763532	1.269700E+01	  0.101763532	5.323000E+01	  0.101763532	7.520000E-01
410	  0.101963930	-2.989200E+01	  0.101963930	1.209000E+01	  0.101963930	5.322600E+01	  0.101963930	7.140000E-01
411	  0.102164336	-2.990600E+01	  0.102164336	1.185800E+01	  0.102164336	5.322400E+01	  0.102164336	6.990000E-01
412	  0.102364734	-2.985000E+01	  0.102364734	1.202600E+01	  0.102364734	5.324400E+01	  0.102364734	7.140000E-01
413	  0.102565132	-2.982600E+01	  0.102565132	1.169900E+01	  0.102565132	5.325700E+01	  0.102565132	6.970000E-01
414	  0.102765530	-2.984700E+01	  0.102765530	1.176900E+01	  0.102765530	5.324800E+01	  0.102765530	6.990000E-01
415	  0.102965929	-2.987000E+01	  0.102965929	1.134700E+01	  0.102965929	5.324400E+01	  0.102965929	6.730000E-01
416	  0.103166327	-2.984100E+01	  0.103166327	1.142100E+01	  0.103166327	5.325500E+01	  0.103166327	6.790000E-01
417	  0.103366733	-2.981500E+01	  0.103366733	1.136800E+01	  0.103366733	5.326500E+01	  0.103366733	6.780000E-01
418	  0.103567131	-2.976600E+01	  0.103567131	1.109800E+01	  0.103567131	5.328800E+01	  0.103567131	6.670000E-01
419	  0.103767529	-2.979600E+01	  0.103767529	1.065200E+01	  0.103767529	5.328100E+01	  0.103767529	6.380000E-01
420	  0.103967935	-2.979200E+01	  0.103967935	1.077600E+01	  0.103967935	5.328200E+01	  0.103967935	6.450000E-01
421	  0.104168333	-2.978100E+01	  0.104168333	1.050700E+01	  0.104168333	5.328900E+01	  0.104168333	6.300000E-01
422	  0.104368731	-2.981400E+01	  0.104368731	1.069900E+01	  0.104368731	5.327400E+01	  0.104368731	6.390000E-01
423	  0.104569137	-2.981600E+01	  0.104569137	1.070500E+01	  0.104569137	5.327300E+01	  0.104569137	6.390000E-01
424	  0.104769535	-2.984600E+01	  0.104769535	1.011200E+01	  0.104769535	5.326800E+01	  0.104769535	6.020000E-01
425	  0.104969934	-2.982800E+01	  0.104969934	1.047600E+01	  0.104969934	5.327100E+01	  0.104969934	6.250000E-01
426	  0.105170339	-2.974000E+01	  0.105170339	1.016300E+01	  0.105170339	5.330900E+01	  0.105170339	6.130000E-01
427	  0.105370738	-2.979000E+01	  0.105370738	1.003300E+01	  0.105370738	5.329100E+01	  0.105370738	6.020000E-01
428	  0.105571143	-2.983200E+01	  0.105571143	9.709000E+00	  0.105571143	5.327800E+01	  0.105571143	5.790000E-01
429	  0.105771542	-2.975300E+01	  0.105771542	9.650000E+00	  0.105771542	5.331000E+01	  0.105771542	5.820000E-01
430	  0.105971940	-2.977700E+01	  0.105971940	9.704000E+00	  0.105971940	5.330000E+01	  0.105971940	5.830000E-01
431	  0.106172346	-2.975700E+01	  0.106172346	9.524000E+00	  0.106172346	5.331000E+01	  0.106172346	5.740000E-01
432	  0.106372744	-2.977200E+01	  0.106372744	9.726000E+00	  0.106372744	5.330100E+01	  0.106372744	5.850000E-01
433	  0.106573142	-2.979500E+01	  0.106573142	9.230000E+00	  0.106573142	5.329800E+01	  0.106573142	5.540000E-01
434	  0.106773548	-2.980900E+01	  0.106773548	9.092000E+00	  0.106773548	5.329300E+01	  0.106773548	5.440000E-01
435	  0.106973946	-2.979300E+01	  0.106973946	9.093000E+00	  0.106973946	5.330000E+01	  0.106973946	5.460000E-01
436	  0.107174344	-2.975900E+01	  0.107174344	8.605000E+00	  0.107174344	5.331800E+01	  0.107174344	5.190000E-01
437	  0.107374750	-2.973000E+01	  0.107374750	8.928000E+00	  0.107374750	5.332600E+01	  0.107374750	5.400000E-01
438	  0.107575148	-2.974900E+01	  0.107575148	8.541000E+00	  0.107575148	5.332300E+01	  0.107575148	5.160000E-01
439	  0.107775547	-2.974000E+01	  0.107775547	8.638000E+00	  0.107775547	5.332500E+01	  0.107775547	5.220000E-01
440	  0.107975952	-2.972700E+01	  0.107975952	8.542000E+00	  0.107975952	5.333100E+01	  0.107975952	5.170000E-01
441	  0.108176351	-2.976300E+01	  0.108176351	8.443000E+00	  0.108176351	5.331800E+01	  0.108176351	5.090000E-01
442	  0.108376749	-2.968600E+01	  0.108376749	8.161000E+00	  0.108376749	5.335100E+01	  0.108376749	4.970000E-01
443	  0.108577155	-2.969900E+01	  0.108577155	7.911000E+00	  0.108577155	5.334800E+01	  0.108577155	4.810000E-01
444	  0.108777553	-2.970200E+01	  0.108777553	7.873000E+00	  0.108777553	5.334700E+01	  0.108777553	4.780000E-01
445	  0.108977959	-2.968100E+01	  0.108977959	7.816000E+00	  0.108977959	5.335600E+01	  0.108977959	4.760000E-01
446	  0.109178357	-2.972400E+01	  0.109178357	7.606000E+00	  0.109178357	5.334100E+01	  0.109178357	4.610000E-01
447	  0.109378755	-2.969700E+01	  0.109378755	7.381000E+00	  0.109378755	5.335400E+01	  0.109378755	4.490000E-01
448	  0.109579161	-2.971000E+01	  0.109579161	7.470000E+00	  0.109579161	5.334800E+01	  0.109579161	4.540000E-01
449	  0.109779559	-2.971100E+01	  0.109779559	7.449000E+00	  0.109779559	5.334800E+01	  0.109779559	4.520000E-01
450	  0.109979957	-2.967000E+01	  0.109979957	7.004000E+00	  0.109979957	5.336700E+01	  0.109979957	4.270000E-01
451	  0.110180363	-2.965300E+01	  0.110180363	6.975000E+00	  0.110180363	5.337500E+01	  0.110180363	4.270000E-01
452	  0.110380761	-2.966300E+01	  0.110380761	6.700000E+00	  0.110380761	5.337300E+01	  0.110380761	4.090000E-01
453	  0.110581160	-2.963200E+01	  0.110581160	6.926000E+00	  0.110581160	5.338300E+01	  0.110581160	4.250000E-01
454	  0.110781565	-2.968300E+01	  0.110781565	6.956000E+00	  0.110781565	5.336300E+01	  0.110781565	4.240000E-01
455	  0.110981964	-2.966100E+01	  0.110981964	6.579000E+00	  0.110981964	5.337500E+01	  0.110981964	4.020000E-01
456	  0.111182362	-2.964500E+01	  0.111182362	6.660000E+00	  0.111182362	5.338000E+01	  0.111182362	4.080000E-01
457	  0.111382768	-2.966300E+01	  0.111382768	6.246000E+00	  0.111382768	5.337600E+01	  0.111382768	3.820000E-01
458	  0.111583166	-2.965900E+01	  0.111583166	6.121000E+00	  0.111583166	5.337900E+01	  0.111583166	3.740000E-01
459	  0.111783572	-2.966900E+01	  0.111783572	5.944000E+00	  0.111783572	5.337600E+01	  0.111783572	3.630000E-01
460	  0.111983970	-2.966000E+01	  0.111983970	6.112000E+00	  0.111983970	5.337800E+01	  0.111983970	3.740000E-01
461	  0.112184368	-2.960200E+01	  0.112184368	5.929000E+00	  0.112184368	5.340300E+01	  0.112184368	3.650000E-01
462	  0.112384774	-2.964500E+01	  0.112384774	5.590000E+00	  0.112384774	5.338800E+01	  0.112384774	3.420000E-01
463	  0.112585172	-2.965300E+01	  0.112585172	5.694000E+00	  0.112585172	5.338400E+01	  0.112585172	3.490000E-01
464	  0.112785570	-2.966400E+01	  0.112785570	5.674000E+00	  0.112785570	5.337900E+01	  0.112785570	3.470000E-01
465	  0.112985976	-2.962200E+01	  0.112985976	5.092000E+00	  0.112985976	5.340000E+01	  0.112985976	3.130000E-01
466	  0.113186374	-2.963100E+01	  0.113186374	5.209000E+00	  0.113186374	5.339600E+01	  0.113186374	3.200000E-01
467	  0.113386773	-2.967100E+01	  0.113386773	5.087000E+00	  0.113386773	5.338100E+01	  0.113386773	3.110000E-01
468	  0.113587178	-2.962500E+01	  0.113587178	4.914000E+00	  0.113587178	5.340000E+01	  0.113587178	3.020000E-01
469	  0.113787577	-2.958900E+01	  0.113787577	4.955000E+00	  0.113787577	5.341400E+01	  0.113787577	3.060000E-01
470	  0.113987975	-2.961100E+01	  0.113987975	4.646000E+00	  0.113987975	5.340700E+01	  0.113987975	2.860000E-01
471	  0.114188381	-2.959300E+01	  0.114188381	4.562000E+00	  0.114188381	5.341500E+01	  0.114188381	2.810000E-01
472	  0.114388779	-2.958800E+01	  0.114388779	4.269000E+00	  0.114388779	5.341800E+01	  0.114388779	2.640000E-01
473	  0.114589177	-2.956900E+01	  0.114589177	4.165000E+00	  0.114589177	5.342700E+01	  0.114589177	2.580000E-01
474	  0.114789583	-2.964500E+01	  0.114789583	4.195000E+00	  0.114789583	5.339600E+01	  0.114789583	2.570000E-01
475	  0.114989981	-2.956800E+01	  0.114989981	4.172000E+00	  0.114989981	5.342700E+01	  0.114989981	2.580000E-01
476	  0.115190387	-2.960400E+01	  0.115190387	3.827000E+00	  0.115190387	5.341400E+01	  0.115190387	2.360000E-01
477	  0.115390785	-2.960000E+01	  0.115390785	3.804000E+00	  0.115390785	5.341600E+01	  0.115390785	2.340000E-01
478	  0.115591183	-2.958900E+01	  0.115591183	3.619000E+00	  0.115591183	5.342100E+01	  0.115591183	2.230000E-01
479	  0.115791589	-2.957800E+01	  0.115791589	3.669000E+00	  0.115791589	5.342500E+01	  0.115791589	2.270000E-01
480	  0.115991987	-2.955900E+01	  0.115991987	3.206000E+00	  0.115991987	5.343500E+01	  0.115991987	1.990000E-01
481	  0.116192386	-2.955600E+01	  0.116192386	3.418000E+00	  0.116192386	5.343500E+01	  0.116192386	2.120000E-01
482	  0.116392791	-2.954500E+01	  0.116392791	3.127000E+00	  0.116392791	5.344100E+01	  0.116392791	1.940000E-01
483	  0.116593190	-2.955900E+01	  0.116593190	3.077000E+00	  0.116593190	5.343500E+01	  0.116593190	1.910000E-01
484	  0.116793588	-2.959300E+01	  0.116793588	3.011000E+00	  0.116793588	5.342200E+01	  0.116793588	1.860000E-01
485	  0.116993994	-2.955800E+01	  0.116993994	2.540000E+00	  0.116993994	5.343700E+01	  0.116993994	1.570000E-01
486	  0.117194392	-2.957400E+01	  0.117194392	2.833000E+00	  0.117194392	5.343000E+01	  0.117194392	1.750000E-01
487	  0.117394790	-2.959400E+01	  0.117394790	2.620000E+00	  0.117394790	5.342200E+01	  0.117394790	1.620000E-01
488	  0.117595196	-2.959600E+01	  0.117595196	2.762000E+00	  0.117595196	5.342100E+01	  0.117595196	1.700000E-01
489	  0.117795594	-2.959100E+01	  0.117795594	2.357000E+00	  0.117795594	5.342400E+01	  0.117795594	1.450000E-01
490	  0.117995992	-2.955900E+01	  0.117995992	2.184000E+00	  0.117995992	5.343800E+01	  0.117995992	1.350000E-01
491	  0.118196398	-2.953700E+01	  0.118196398	2.122000E+00	  0.118196398	5.344700E+01	  0.118196398	1.320000E-01
492	  0.118396796	-2.957000E+01	  0.118396796	2.201000E+00	  0.118396796	5.343400E+01	  0.118396796	1.360000E-01
493	  0.118597202	-2.954000E+01	  0.118597202	1.541000E+00	  0.118597202	5.344700E+01	  0.118597202	9.500000E-02
494	  0.118797600	-2.954200E+01	  0.118797600	2.000000E+00	  0.118797600	5.344600E+01	  0.118797600	1.240000E-01
495	  0.118997999	-2.958900E+01	  0.118997999	1.424000E+00	  0.118997999	5.342700E+01	  0.118997999	8.800000E-02
496	  0.119198404	-2.952800E+01	  0.119198404	1.642000E+00	  0.119198404	5.345200E+01	  0.119198404	1.020000E-01
497	  0.119398803	-2.952300E+01	  0.119398803	1.205000E+00	  0.119398803	5.345500E+01	  0.119398803	7.500000E-02
498	  0.119599201	-2.955200E+01	  0.119599201	1.276000E+00	  0.119599201	5.344300E+01	  0.119599201	7.900000E-02
499	  0.119799607	-2.952900E+01	  0.119799607	9.080000E-01	  0.119799607	5.345200E+01	  0.119799607	5.600000E-02
500	  0.120000005	-2.954800E+01	  0.120000005	1.127000E+00	  0.120000005	5.344500E+01	  0.120000005	7.000000E-02
