! Anritsu VNA Master:             	Model: MS2036C/10/77
! SN:             	1601066
! /bd0/18may09/252.ew.m9.txt
! Existing Calibration Information:
! TYPE:             	Current Settings	Active Cal Settings
! TIME:             	05/09/2018 08:25:25 AM	05/09/2018 08:17:55 AM
! INTERNAL TEMP:    	40.8 C	41.3 C
! # POINTS:         	500	500
! START FREQ:       	20.000 MHz	20.000 MHz
! STOP FREQ:        	120.000 MHz	120.000 MHz
! SOURCE POWER:     	High	High
! IFBW:             	50 Hz	50 Hz
! AVG FACTOR:       	  1 	  1 
! REF PLANE 1:      	0 mm	0 mm
! REF PLANE 2:      	0 mm	0 mm
! CAL TYPE:         	Full S11	Full S11
! CAL METHOD:       	SOLT	SOLT
! CAL LINE TYPE:    	Coax	Coax
! DUT PORT 1:       	K-Conn(F)	K-Conn(F)
! DUT PORT 2:       	K-Conn(F)	K-Conn(F)
! CAL STATUS:       	OK: Accuracy High	--
! PROP-V:       	0.700
! CABLE LOSS:       	0.000 dB/m
! REF IMPEDANCE:       	50.0
! Trace Specific Parameters:	TR1	TR2	TR3	TR4
! TRACE.#.Y (GRAPH TYPE)	LOG MAG	PHASE	REAL IMPEDANCE	IMAGINARY IMPEDANCE
! TRACE.#.X 	FREQ.GHZ	FREQ.GHZ	FREQ.GHZ	FREQ.GHZ
! S-PARAMETER	S11	S11	S11	S11
! SMOOTH/APERTURE %	0	0	0	0
! WINDOW	NSL	NSL	NSL	NSL
! GATING	OFF	OFF	OFF	OFF
! FGTD	OFF	OFF	OFF	OFF
Marker Information per Trace:	TR1	TR2	TR3	TR4
!MK1	--	"MK1 TR2:  20.000 MHz,PH:-124.34°"	--	--
!MK2	--	--	"MK2 TR3:  70.100 200 MHz,Z:(17.271 ohm, -3.002 ohm)"	--
!MK3	--	--	--	--
!MK4	--	--	--	--
!MK5	--	--	--	--
!MK6	--	--	--	--
!MK7	--	--	--	--
!MK8	--	--	--	--
PNT	TR1.FREQ.GHZ	TR1.LOG MAG.dB	TR2.FREQ.GHZ	TR2.PHASE.deg	TR3.FREQ.GHZ	TR3.REAL IMPEDANCE.ohm	TR4.FREQ.GHZ	TR4.IMAGINARY IMPEDANCE.ohm
1	  0.020000000	-5.960000E-01	  0.020000000	-1.243350E+02	  0.020000000	2.192000E+00	  0.020000000	-2.635800E+01
2	  0.020200402	-5.950000E-01	  0.020200402	-1.257740E+02	  0.020200402	2.161000E+00	  0.020200402	-2.556200E+01
3	  0.020400802	-5.950000E-01	  0.020400802	-1.272190E+02	  0.020400802	2.135000E+00	  0.020400802	-2.477300E+01
4	  0.020601204	-5.970000E-01	  0.020601204	-1.286580E+02	  0.020601204	2.116000E+00	  0.020601204	-2.399600E+01
5	  0.020801604	-6.030000E-01	  0.020801604	-1.301450E+02	  0.020801604	2.109000E+00	  0.020801604	-2.320300E+01
6	  0.021002004	-6.070000E-01	  0.021002004	-1.316540E+02	  0.021002004	2.100000E+00	  0.021002004	-2.240900E+01
7	  0.021202406	-6.140000E-01	  0.021202406	-1.331710E+02	  0.021202406	2.098000E+00	  0.021202406	-2.161900E+01
8	  0.021402806	-6.180000E-01	  0.021402806	-1.346820E+02	  0.021402806	2.088000E+00	  0.021402806	-2.084200E+01
9	  0.021603208	-6.200000E-01	  0.021603208	-1.361940E+02	  0.021603208	2.073000E+00	  0.021603208	-2.007200E+01
10	  0.021803608	-6.250000E-01	  0.021803608	-1.377120E+02	  0.021803608	2.067000E+00	  0.021803608	-1.930800E+01
11	  0.022004008	-6.320000E-01	  0.022004008	-1.392320E+02	  0.022004008	2.070000E+00	  0.022004008	-1.855000E+01
12	  0.022204408	-6.340000E-01	  0.022204408	-1.407740E+02	  0.022204408	2.055000E+00	  0.022204408	-1.779000E+01
13	  0.022404809	-6.400000E-01	  0.022404809	-1.423380E+02	  0.022404809	2.055000E+00	  0.022404809	-1.702500E+01
14	  0.022605211	-6.440000E-01	  0.022605211	-1.439030E+02	  0.022605211	2.050000E+00	  0.022605211	-1.626700E+01
15	  0.022805611	-6.430000E-01	  0.022805611	-1.454880E+02	  0.022805611	2.028000E+00	  0.022805611	-1.550700E+01
16	  0.023006011	-6.470000E-01	  0.023006011	-1.470690E+02	  0.023006011	2.023000E+00	  0.023006011	-1.475500E+01
17	  0.023206413	-6.480000E-01	  0.023206413	-1.486350E+02	  0.023206413	2.013000E+00	  0.023206413	-1.401600E+01
18	  0.023406813	-6.540000E-01	  0.023406813	-1.502070E+02	  0.023406813	2.014000E+00	  0.023406813	-1.328000E+01
19	  0.023607215	-6.580000E-01	  0.023607215	-1.517830E+02	  0.023607215	2.014000E+00	  0.023607215	-1.254700E+01
20	  0.023807615	-6.660000E-01	  0.023807615	-1.533770E+02	  0.023807615	2.023000E+00	  0.023807615	-1.181100E+01
21	  0.024008015	-6.750000E-01	  0.024008015	-1.549940E+02	  0.024008015	2.038000E+00	  0.024008015	-1.106900E+01
22	  0.024208417	-6.840000E-01	  0.024208417	-1.566310E+02	  0.024208417	2.053000E+00	  0.024208417	-1.032300E+01
23	  0.024408817	-6.930000E-01	  0.024408817	-1.582580E+02	  0.024408817	2.068000E+00	  0.024408817	-9.586000E+00
24	  0.024609219	-7.030000E-01	  0.024609219	-1.598940E+02	  0.024609219	2.087000E+00	  0.024609219	-8.848000E+00
25	  0.024809619	-7.120000E-01	  0.024809619	-1.615220E+02	  0.024809619	2.103000E+00	  0.024809619	-8.118000E+00
26	  0.025010020	-7.230000E-01	  0.025010020	-1.631730E+02	  0.025010020	2.125000E+00	  0.025010020	-7.382000E+00
27	  0.025210422	-7.360000E-01	  0.025210422	-1.648360E+02	  0.025210422	2.154000E+00	  0.025210422	-6.643000E+00
28	  0.025410822	-7.490000E-01	  0.025410822	-1.665020E+02	  0.025410822	2.186000E+00	  0.025410822	-5.905000E+00
29	  0.025611224	-7.630000E-01	  0.025611224	-1.682080E+02	  0.025611224	2.219000E+00	  0.025611224	-5.153000E+00
30	  0.025811624	-7.760000E-01	  0.025811624	-1.699080E+02	  0.025811624	2.250000E+00	  0.025811624	-4.405000E+00
31	  0.026012026	-7.840000E-01	  0.026012026	-1.716150E+02	  0.026012026	2.267000E+00	  0.026012026	-3.657000E+00
32	  0.026212426	-7.970000E-01	  0.026212426	-1.733320E+02	  0.026212426	2.300000E+00	  0.026212426	-2.906000E+00
33	  0.026412826	-8.090000E-01	  0.026412826	-1.750520E+02	  0.026412826	2.333000E+00	  0.026412826	-2.155000E+00
34	  0.026613226	-8.230000E-01	  0.026613226	-1.767790E+02	  0.026613226	2.371000E+00	  0.026613226	-1.402000E+00
35	  0.026813626	-8.400000E-01	  0.026813626	-1.785250E+02	  0.026813626	2.416000E+00	  0.026813626	-6.410000E-01
36	  0.027014028	-8.570000E-01	  0.027014028	1.797190E+02	  0.027014028	2.466000E+00	  0.027014028	1.220000E-01
37	  0.027214428	-8.720000E-01	  0.027214428	1.779390E+02	  0.027214428	2.510000E+00	  0.027214428	8.960000E-01
38	  0.027414829	-8.880000E-01	  0.027414829	1.761650E+02	  0.027414829	2.557000E+00	  0.027414829	1.669000E+00
39	  0.027615231	-9.060000E-01	  0.027615231	1.743620E+02	  0.027615231	2.611000E+00	  0.027615231	2.455000E+00
40	  0.027815631	-9.260000E-01	  0.027815631	1.725750E+02	  0.027815631	2.675000E+00	  0.027815631	3.234000E+00
41	  0.028016033	-9.480000E-01	  0.028016033	1.707630E+02	  0.028016033	2.744000E+00	  0.028016033	4.027000E+00
42	  0.028216433	-9.700000E-01	  0.028216433	1.689500E+02	  0.028216433	2.816000E+00	  0.028216433	4.821000E+00
43	  0.028416833	-9.910000E-01	  0.028416833	1.671270E+02	  0.028416833	2.886000E+00	  0.028416833	5.621000E+00
44	  0.028617235	-1.010000E+00	  0.028617235	1.653070E+02	  0.028617235	2.952000E+00	  0.028617235	6.424000E+00
45	  0.028817635	-1.029000E+00	  0.028817635	1.634850E+02	  0.028817635	3.022000E+00	  0.028817635	7.230000E+00
46	  0.029018037	-1.050000E+00	  0.029018037	1.616810E+02	  0.029018037	3.099000E+00	  0.029018037	8.031000E+00
47	  0.029218437	-1.073000E+00	  0.029218437	1.598530E+02	  0.029218437	3.181000E+00	  0.029218437	8.847000E+00
48	  0.029418837	-1.098000E+00	  0.029418837	1.580270E+02	  0.029418837	3.274000E+00	  0.029418837	9.666000E+00
49	  0.029619239	-1.126000E+00	  0.029619239	1.561730E+02	  0.029619239	3.380000E+00	  0.029619239	1.050200E+01
50	  0.029819639	-1.155000E+00	  0.029819639	1.542970E+02	  0.029819639	3.493000E+00	  0.029819639	1.135300E+01
51	  0.030020041	-1.185000E+00	  0.030020041	1.523940E+02	  0.030020041	3.612000E+00	  0.030020041	1.222300E+01
52	  0.030220442	-1.216000E+00	  0.030220442	1.504710E+02	  0.030220442	3.738000E+00	  0.030220442	1.310800E+01
53	  0.030420844	-1.247000E+00	  0.030420844	1.485570E+02	  0.030420844	3.866000E+00	  0.030420844	1.399600E+01
54	  0.030621244	-1.280000E+00	  0.030621244	1.466510E+02	  0.030621244	4.006000E+00	  0.030621244	1.488800E+01
55	  0.030821644	-1.313000E+00	  0.030821644	1.447320E+02	  0.030821644	4.152000E+00	  0.030821644	1.579300E+01
56	  0.031022044	-1.349000E+00	  0.031022044	1.428010E+02	  0.031022044	4.311000E+00	  0.031022044	1.671300E+01
57	  0.031222444	-1.384000E+00	  0.031222444	1.408750E+02	  0.031222444	4.476000E+00	  0.031222444	1.764000E+01
58	  0.031422846	-1.422000E+00	  0.031422846	1.388770E+02	  0.031422846	4.656000E+00	  0.031422846	1.861200E+01
59	  0.031623244	-1.458000E+00	  0.031623244	1.368800E+02	  0.031623244	4.835000E+00	  0.031623244	1.959500E+01
60	  0.031823646	-1.493000E+00	  0.031823646	1.348830E+02	  0.031823646	5.023000E+00	  0.031823646	2.059100E+01
61	  0.032024048	-1.529000E+00	  0.032024048	1.328830E+02	  0.032024048	5.219000E+00	  0.032024048	2.160100E+01
62	  0.032224450	-1.564000E+00	  0.032224450	1.309130E+02	  0.032224450	5.418000E+00	  0.032224450	2.260900E+01
63	  0.032424849	-1.602000E+00	  0.032424849	1.289470E+02	  0.032424849	5.635000E+00	  0.032424849	2.362900E+01
64	  0.032625251	-1.640000E+00	  0.032625251	1.269680E+02	  0.032625251	5.867000E+00	  0.032625251	2.467000E+01
65	  0.032825653	-1.684000E+00	  0.032825653	1.249940E+02	  0.032825653	6.127000E+00	  0.032825653	2.572200E+01
66	  0.033026051	-1.731000E+00	  0.033026051	1.230170E+02	  0.033026051	6.412000E+00	  0.033026051	2.679200E+01
67	  0.033226453	-1.780000E+00	  0.033226453	1.210030E+02	  0.033226453	6.717000E+00	  0.033226453	2.789800E+01
68	  0.033426855	-1.837000E+00	  0.033426855	1.190140E+02	  0.033426855	7.069000E+00	  0.033426855	2.900400E+01
69	  0.033627257	-1.893000E+00	  0.033627257	1.169830E+02	  0.033627257	7.433000E+00	  0.033627257	3.015500E+01
70	  0.033827655	-1.946000E+00	  0.033827655	1.149030E+02	  0.033827655	7.812000E+00	  0.033827655	3.135600E+01
71	  0.034028057	-2.000000E+00	  0.034028057	1.127960E+02	  0.034028057	8.215000E+00	  0.034028057	3.259600E+01
72	  0.034228459	-2.051000E+00	  0.034228459	1.106840E+02	  0.034228459	8.628000E+00	  0.034228459	3.386500E+01
73	  0.034428857	-2.100000E+00	  0.034428857	1.085340E+02	  0.034428857	9.062000E+00	  0.034428857	3.518700E+01
74	  0.034629259	-2.147000E+00	  0.034629259	1.064360E+02	  0.034629259	9.504000E+00	  0.034629259	3.650500E+01
75	  0.034829661	-2.193000E+00	  0.034829661	1.043280E+02	  0.034829661	9.975000E+00	  0.034829661	3.786000E+01
76	  0.035030060	-2.237000E+00	  0.035030060	1.022320E+02	  0.035030060	1.045800E+01	  0.035030060	3.924100E+01
77	  0.035230462	-2.284000E+00	  0.035230462	1.001400E+02	  0.035230462	1.098600E+01	  0.035230462	4.064800E+01
78	  0.035430863	-2.330000E+00	  0.035430863	9.806900E+01	  0.035430863	1.154100E+01	  0.035430863	4.207400E+01
79	  0.035631265	-2.375000E+00	  0.035631265	9.598600E+01	  0.035631265	1.212600E+01	  0.035631265	4.354600E+01
80	  0.035831664	-2.424000E+00	  0.035831664	9.393300E+01	  0.035831664	1.276200E+01	  0.035831664	4.502700E+01
81	  0.036032066	-2.474000E+00	  0.036032066	9.189900E+01	  0.036032066	1.344300E+01	  0.036032066	4.652900E+01
82	  0.036232468	-2.525000E+00	  0.036232468	8.987400E+01	  0.036232468	1.416900E+01	  0.036232468	4.805900E+01
83	  0.036432866	-2.578000E+00	  0.036432866	8.785700E+01	  0.036432866	1.495400E+01	  0.036432866	4.961800E+01
84	  0.036633268	-2.637000E+00	  0.036633268	8.582900E+01	  0.036633268	1.583000E+01	  0.036633268	5.121300E+01
85	  0.036833670	-2.702000E+00	  0.036833670	8.379600E+01	  0.036833670	1.680500E+01	  0.036833670	5.283800E+01
86	  0.037034072	-2.765000E+00	  0.037034072	8.172500E+01	  0.037034072	1.784400E+01	  0.037034072	5.454100E+01
87	  0.037234470	-2.828000E+00	  0.037234470	7.962700E+01	  0.037234470	1.897500E+01	  0.037234470	5.630700E+01
88	  0.037434869	-2.896000E+00	  0.037434869	7.754700E+01	  0.037434869	2.020400E+01	  0.037434869	5.809000E+01
89	  0.037635271	-2.956000E+00	  0.037635271	7.544100E+01	  0.037635271	2.149300E+01	  0.037635271	5.996000E+01
90	  0.037835669	-3.019000E+00	  0.037835669	7.331700E+01	  0.037835669	2.291300E+01	  0.037835669	6.188300E+01
91	  0.038036071	-3.076000E+00	  0.038036071	7.114600E+01	  0.038036071	2.442800E+01	  0.038036071	6.392100E+01
92	  0.038236473	-3.133000E+00	  0.038236473	6.895000E+01	  0.038236473	2.608700E+01	  0.038236473	6.603800E+01
93	  0.038436871	-3.194000E+00	  0.038436871	6.678600E+01	  0.038436871	2.789500E+01	  0.038436871	6.815200E+01
94	  0.038637273	-3.251000E+00	  0.038637273	6.467000E+01	  0.038637273	2.979100E+01	  0.038637273	7.027600E+01
95	  0.038837675	-3.306000E+00	  0.038837675	6.258000E+01	  0.038837675	3.181300E+01	  0.038837675	7.242300E+01
96	  0.039038073	-3.358000E+00	  0.039038073	6.052700E+01	  0.039038073	3.395600E+01	  0.039038073	7.457600E+01
97	  0.039238475	-3.414000E+00	  0.039238475	5.849800E+01	  0.039238475	3.628100E+01	  0.039238475	7.671300E+01
98	  0.039438877	-3.477000E+00	  0.039438877	5.647800E+01	  0.039438877	3.886200E+01	  0.039438877	7.880100E+01
99	  0.039639279	-3.540000E+00	  0.039639279	5.443700E+01	  0.039639279	4.168000E+01	  0.039639279	8.091900E+01
100	  0.039839678	-3.605000E+00	  0.039839678	5.240700E+01	  0.039839678	4.473500E+01	  0.039839678	8.299800E+01
101	  0.040040080	-3.674000E+00	  0.040040080	5.033600E+01	  0.040040080	4.814900E+01	  0.040040080	8.504900E+01
102	  0.040240481	-3.742000E+00	  0.040240481	4.825700E+01	  0.040240481	5.184600E+01	  0.040240481	8.706900E+01
103	  0.040440880	-3.809000E+00	  0.040440880	4.619000E+01	  0.040440880	5.583600E+01	  0.040440880	8.898700E+01
104	  0.040641282	-3.876000E+00	  0.040641282	4.411300E+01	  0.040641282	6.016900E+01	  0.040641282	9.080600E+01
105	  0.040841684	-3.939000E+00	  0.040841684	4.203600E+01	  0.040841684	6.483400E+01	  0.040841684	9.250400E+01
106	  0.041042086	-4.000000E+00	  0.041042086	3.997500E+01	  0.041042086	6.981500E+01	  0.041042086	9.403100E+01
107	  0.041242484	-4.064000E+00	  0.041242484	3.789600E+01	  0.041242484	7.525500E+01	  0.041242484	9.526800E+01
108	  0.041442886	-4.121000E+00	  0.041442886	3.580100E+01	  0.041442886	8.109400E+01	  0.041442886	9.633000E+01
109	  0.041643288	-4.180000E+00	  0.041643288	3.373500E+01	  0.041643288	8.728400E+01	  0.041643288	9.693900E+01
110	  0.041843686	-4.234000E+00	  0.041843686	3.166700E+01	  0.041843686	9.386300E+01	  0.041843686	9.718800E+01
111	  0.042044088	-4.288000E+00	  0.042044088	2.963200E+01	  0.042044088	1.007250E+02	  0.042044088	9.688400E+01
112	  0.042244490	-4.342000E+00	  0.042244490	2.760100E+01	  0.042244490	1.079160E+02	  0.042244490	9.596400E+01
113	  0.042444889	-4.394000E+00	  0.042444889	2.558200E+01	  0.042444889	1.153520E+02	  0.042444889	9.437600E+01
114	  0.042645290	-4.448000E+00	  0.042645290	2.358700E+01	  0.042645290	1.228970E+02	  0.042645290	9.194300E+01
115	  0.042845692	-4.500000E+00	  0.042845692	2.158800E+01	  0.042845692	1.305650E+02	  0.042845692	8.868800E+01
116	  0.043046094	-4.552000E+00	  0.043046094	1.959600E+01	  0.043046094	1.381840E+02	  0.043046094	8.449800E+01
117	  0.043246493	-4.603000E+00	  0.043246493	1.761400E+01	  0.043246493	1.455900E+02	  0.043246493	7.935200E+01
118	  0.043446895	-4.655000E+00	  0.043446895	1.561700E+01	  0.043446895	1.527020E+02	  0.043446895	7.315400E+01
119	  0.043647297	-4.706000E+00	  0.043647297	1.364300E+01	  0.043647297	1.591880E+02	  0.043647297	6.602100E+01
120	  0.043847695	-4.758000E+00	  0.043847695	1.167800E+01	  0.043847695	1.648930E+02	  0.043847695	5.798200E+01
121	  0.044048097	-4.809000E+00	  0.044048097	9.703000E+00	  0.044048097	1.697430E+02	  0.044048097	4.912000E+01
122	  0.044248499	-4.858000E+00	  0.044248499	7.751000E+00	  0.044248499	1.735280E+02	  0.044248499	3.973400E+01
123	  0.044448901	-4.908000E+00	  0.044448901	5.801000E+00	  0.044448901	1.761290E+02	  0.044448901	2.988600E+01
124	  0.044649299	-4.957000E+00	  0.044649299	3.865000E+00	  0.044649299	1.775170E+02	  0.044649299	1.987000E+01
125	  0.044849701	-5.002000E+00	  0.044849701	1.920000E+00	  0.044849701	1.778320E+02	  0.044849701	9.798000E+00
126	  0.045050103	-5.045000E+00	  0.045050103	-1.600000E-02	  0.045050103	1.769550E+02	  0.045050103	-8.400000E-02
127	  0.045250501	-5.086000E+00	  0.045250501	-1.912000E+00	  0.045250501	1.750610E+02	  0.045250501	-9.426000E+00
128	  0.045450903	-5.128000E+00	  0.045450903	-3.800000E+00	  0.045450903	1.721320E+02	  0.045450903	-1.824200E+01
129	  0.045651305	-5.173000E+00	  0.045651305	-5.700000E+00	  0.045651305	1.682710E+02	  0.045651305	-2.646700E+01
130	  0.045851704	-5.217000E+00	  0.045851704	-7.561000E+00	  0.045851704	1.637770E+02	  0.045851704	-3.380700E+01
131	  0.046052106	-5.261000E+00	  0.046052106	-9.441000E+00	  0.046052106	1.587290E+02	  0.046052106	-4.046100E+01
132	  0.046252504	-5.300000E+00	  0.046252504	-1.130800E+01	  0.046252504	1.534050E+02	  0.046252504	-4.635700E+01
133	  0.046452906	-5.338000E+00	  0.046452906	-1.317100E+01	  0.046452906	1.478290E+02	  0.046452906	-5.149700E+01
134	  0.046653304	-5.375000E+00	  0.046653304	-1.504200E+01	  0.046653304	1.420810E+02	  0.046653304	-5.594400E+01
135	  0.046853706	-5.410000E+00	  0.046853706	-1.688300E+01	  0.046853706	1.363650E+02	  0.046853706	-5.965100E+01
136	  0.047054108	-5.444000E+00	  0.047054108	-1.872700E+01	  0.047054108	1.306420E+02	  0.047054108	-6.272600E+01
137	  0.047254506	-5.474000E+00	  0.047254506	-2.056300E+01	  0.047254506	1.250580E+02	  0.047254506	-6.527900E+01
138	  0.047454908	-5.505000E+00	  0.047454908	-2.236300E+01	  0.047454908	1.196770E+02	  0.047454908	-6.724400E+01
139	  0.047655310	-5.535000E+00	  0.047655310	-2.415900E+01	  0.047655310	1.144540E+02	  0.047655310	-6.874900E+01
140	  0.047855709	-5.566000E+00	  0.047855709	-2.591200E+01	  0.047855709	1.095200E+02	  0.047855709	-6.980400E+01
141	  0.048056111	-5.599000E+00	  0.048056111	-2.768200E+01	  0.048056111	1.047240E+02	  0.048056111	-7.047900E+01
142	  0.048256513	-5.628000E+00	  0.048256513	-2.944500E+01	  0.048256513	1.001650E+02	  0.048256513	-7.092400E+01
143	  0.048456915	-5.659000E+00	  0.048456915	-3.118300E+01	  0.048456915	9.587100E+01	  0.048456915	-7.105700E+01
144	  0.048657313	-5.682000E+00	  0.048657313	-3.293400E+01	  0.048657313	9.176300E+01	  0.048657313	-7.107800E+01
145	  0.048857715	-5.710000E+00	  0.048857715	-3.467300E+01	  0.048857715	8.787600E+01	  0.048857715	-7.082800E+01
146	  0.049058117	-5.733000E+00	  0.049058117	-3.640700E+01	  0.049058117	8.420000E+01	  0.049058117	-7.047900E+01
147	  0.049258515	-5.757000E+00	  0.049258515	-3.811400E+01	  0.049258515	8.076500E+01	  0.049258515	-6.996600E+01
148	  0.049458917	-5.780000E+00	  0.049458917	-3.983900E+01	  0.049458917	7.747600E+01	  0.049458917	-6.935000E+01
149	  0.049659319	-5.805000E+00	  0.049659319	-4.150600E+01	  0.049659319	7.446900E+01	  0.049659319	-6.861100E+01
150	  0.049859721	-5.824000E+00	  0.049859721	-4.320300E+01	  0.049859721	7.155900E+01	  0.049859721	-6.785000E+01
151	  0.050060119	-5.847000E+00	  0.050060119	-4.488600E+01	  0.050060119	6.883500E+01	  0.050060119	-6.697900E+01
152	  0.050260521	-5.865000E+00	  0.050260521	-4.657300E+01	  0.050260521	6.623600E+01	  0.050260521	-6.610000E+01
153	  0.050460923	-5.881000E+00	  0.050460923	-4.826100E+01	  0.050460923	6.377200E+01	  0.050460923	-6.517800E+01
154	  0.050661322	-5.891000E+00	  0.050661322	-4.990100E+01	  0.050661322	6.148200E+01	  0.050661322	-6.429100E+01
155	  0.050861724	-5.909000E+00	  0.050861724	-5.155500E+01	  0.050861724	5.932000E+01	  0.050861724	-6.328600E+01
156	  0.051062126	-5.920000E+00	  0.051062126	-5.316900E+01	  0.051062126	5.729500E+01	  0.051062126	-6.233400E+01
157	  0.051262524	-5.933000E+00	  0.051262524	-5.473300E+01	  0.051262524	5.543700E+01	  0.051262524	-6.137500E+01
158	  0.051462926	-5.946000E+00	  0.051462926	-5.631300E+01	  0.051462926	5.365400E+01	  0.051462926	-6.038300E+01
159	  0.051663328	-5.958000E+00	  0.051663328	-5.786700E+01	  0.051663328	5.198400E+01	  0.051663328	-5.940200E+01
160	  0.051863730	-5.976000E+00	  0.051863730	-5.940700E+01	  0.051863730	5.043300E+01	  0.051863730	-5.837600E+01
161	  0.052064128	-5.990000E+00	  0.052064128	-6.097900E+01	  0.052064128	4.890900E+01	  0.052064128	-5.735800E+01
162	  0.052264530	-6.002000E+00	  0.052264530	-6.253700E+01	  0.052264530	4.746600E+01	  0.052264530	-5.635500E+01
163	  0.052464932	-6.016000E+00	  0.052464932	-6.410700E+01	  0.052464932	4.609200E+01	  0.052464932	-5.532900E+01
164	  0.052665330	-6.032000E+00	  0.052665330	-6.566000E+01	  0.052665330	4.480200E+01	  0.052665330	-5.430700E+01
165	  0.052865732	-6.047000E+00	  0.052865732	-6.720500E+01	  0.052865732	4.358000E+01	  0.052865732	-5.329500E+01
166	  0.053066134	-6.055000E+00	  0.053066134	-6.874500E+01	  0.053066134	4.239300E+01	  0.053066134	-5.232700E+01
167	  0.053266536	-6.065000E+00	  0.053266536	-7.031100E+01	  0.053266536	4.124700E+01	  0.053266536	-5.133800E+01
168	  0.053466935	-6.070000E+00	  0.053466935	-7.186200E+01	  0.053466935	4.014700E+01	  0.053466935	-5.038500E+01
169	  0.053667337	-6.075000E+00	  0.053667337	-7.339700E+01	  0.053667337	3.910600E+01	  0.053667337	-4.944600E+01
170	  0.053867739	-6.077000E+00	  0.053867739	-7.493200E+01	  0.053867739	3.810000E+01	  0.053867739	-4.852500E+01
171	  0.054068137	-6.081000E+00	  0.054068137	-7.642900E+01	  0.054068137	3.717300E+01	  0.054068137	-4.761800E+01
172	  0.054268539	-6.085000E+00	  0.054268539	-7.789200E+01	  0.054268539	3.630000E+01	  0.054268539	-4.674400E+01
173	  0.054468941	-6.085000E+00	  0.054468941	-7.935900E+01	  0.054468941	3.545100E+01	  0.054468941	-4.588300E+01
174	  0.054669339	-6.090000E+00	  0.054669339	-8.077400E+01	  0.054669339	3.468200E+01	  0.054669339	-4.504100E+01
175	  0.054869737	-6.098000E+00	  0.054869737	-8.221700E+01	  0.054869737	3.394400E+01	  0.054869737	-4.417600E+01
176	  0.055070139	-6.100000E+00	  0.055070139	-8.363700E+01	  0.055070139	3.322000E+01	  0.055070139	-4.335700E+01
177	  0.055270538	-6.106000E+00	  0.055270538	-8.505800E+01	  0.055270538	3.254300E+01	  0.055270538	-4.252700E+01
178	  0.055470940	-6.112000E+00	  0.055470940	-8.647600E+01	  0.055470940	3.189600E+01	  0.055470940	-4.170700E+01
179	  0.055671342	-6.115000E+00	  0.055671342	-8.788900E+01	  0.055671342	3.126300E+01	  0.055671342	-4.090600E+01
180	  0.055871744	-6.119000E+00	  0.055871744	-8.932300E+01	  0.055871744	3.065000E+01	  0.055871744	-4.009800E+01
181	  0.056072142	-6.127000E+00	  0.056072142	-9.071500E+01	  0.056072142	3.009100E+01	  0.056072142	-3.931100E+01
182	  0.056272544	-6.130000E+00	  0.056272544	-9.211800E+01	  0.056272544	2.953400E+01	  0.056272544	-3.853700E+01
183	  0.056472946	-6.134000E+00	  0.056472946	-9.353800E+01	  0.056472946	2.899500E+01	  0.056472946	-3.775900E+01
184	  0.056673344	-6.132000E+00	  0.056673344	-9.491800E+01	  0.056673344	2.847200E+01	  0.056673344	-3.702200E+01
185	  0.056873746	-6.137000E+00	  0.056873746	-9.631000E+01	  0.056873746	2.798500E+01	  0.056873746	-3.627200E+01
186	  0.057074148	-6.133000E+00	  0.057074148	-9.769700E+01	  0.057074148	2.749100E+01	  0.057074148	-3.554900E+01
187	  0.057274550	-6.132000E+00	  0.057274550	-9.907300E+01	  0.057274550	2.702400E+01	  0.057274550	-3.483300E+01
188	  0.057474948	-6.135000E+00	  0.057474948	-1.004260E+02	  0.057474948	2.660000E+01	  0.057474948	-3.412400E+01
189	  0.057675350	-6.133000E+00	  0.057675350	-1.017620E+02	  0.057675350	2.617700E+01	  0.057675350	-3.344200E+01
190	  0.057875752	-6.132000E+00	  0.057875752	-1.030730E+02	  0.057875752	2.578100E+01	  0.057875752	-3.277500E+01
191	  0.058076151	-6.134000E+00	  0.058076151	-1.043880E+02	  0.058076151	2.540500E+01	  0.058076151	-3.210700E+01
192	  0.058276553	-6.133000E+00	  0.058276553	-1.056640E+02	  0.058276553	2.504500E+01	  0.058276553	-3.146800E+01
193	  0.058476955	-6.133000E+00	  0.058476955	-1.069570E+02	  0.058476955	2.469400E+01	  0.058476955	-3.082500E+01
194	  0.058677353	-6.138000E+00	  0.058677353	-1.082370E+02	  0.058677353	2.437800E+01	  0.058677353	-3.018400E+01
195	  0.058877755	-6.136000E+00	  0.058877755	-1.095390E+02	  0.058877755	2.404200E+01	  0.058877755	-2.955000E+01
196	  0.059078157	-6.140000E+00	  0.059078157	-1.108210E+02	  0.059078157	2.374300E+01	  0.059078157	-2.892000E+01
197	  0.059278559	-6.147000E+00	  0.059278559	-1.120870E+02	  0.059278559	2.346500E+01	  0.059278559	-2.830100E+01
198	  0.059478957	-6.151000E+00	  0.059478957	-1.133880E+02	  0.059478957	2.318100E+01	  0.059478957	-2.767200E+01
199	  0.059679359	-6.152000E+00	  0.059679359	-1.146680E+02	  0.059679359	2.290300E+01	  0.059679359	-2.706400E+01
200	  0.059879761	-6.152000E+00	  0.059879761	-1.159290E+02	  0.059879761	2.263400E+01	  0.059879761	-2.647000E+01
201	  0.060080159	-6.153000E+00	  0.060080159	-1.172060E+02	  0.060080159	2.237600E+01	  0.060080159	-2.587000E+01
202	  0.060280561	-6.155000E+00	  0.060280561	-1.184490E+02	  0.060280561	2.213500E+01	  0.060280561	-2.529100E+01
203	  0.060480963	-6.153000E+00	  0.060480963	-1.197120E+02	  0.060480963	2.188600E+01	  0.060480963	-2.471200E+01
204	  0.060681365	-6.154000E+00	  0.060681365	-1.209370E+02	  0.060681365	2.166200E+01	  0.060681365	-2.415000E+01
205	  0.060881764	-6.152000E+00	  0.060881764	-1.221760E+02	  0.060881764	2.143200E+01	  0.060881764	-2.358900E+01
206	  0.061082166	-6.150000E+00	  0.061082166	-1.234190E+02	  0.061082166	2.121300E+01	  0.061082166	-2.302900E+01
207	  0.061282568	-6.150000E+00	  0.061282568	-1.246110E+02	  0.061282568	2.101300E+01	  0.061282568	-2.249400E+01
208	  0.061482966	-6.147000E+00	  0.061482966	-1.257920E+02	  0.061482966	2.081100E+01	  0.061482966	-2.197000E+01
209	  0.061683368	-6.146000E+00	  0.061683368	-1.269750E+02	  0.061683368	2.062300E+01	  0.061683368	-2.144600E+01
210	  0.061883770	-6.148000E+00	  0.061883770	-1.281330E+02	  0.061883770	2.045100E+01	  0.061883770	-2.093400E+01
211	  0.062084168	-6.148000E+00	  0.062084168	-1.292950E+02	  0.062084168	2.028200E+01	  0.062084168	-2.042400E+01
212	  0.062284570	-6.150000E+00	  0.062284570	-1.304630E+02	  0.062284570	2.012200E+01	  0.062284570	-1.991300E+01
213	  0.062484972	-6.147000E+00	  0.062484972	-1.315810E+02	  0.062484972	1.995700E+01	  0.062484972	-1.943100E+01
214	  0.062685370	-6.151000E+00	  0.062685370	-1.327650E+02	  0.062685370	1.981300E+01	  0.062685370	-1.891600E+01
215	  0.062885776	-6.152000E+00	  0.062885776	-1.339310E+02	  0.062885776	1.966500E+01	  0.062885776	-1.841500E+01
216	  0.063086174	-6.159000E+00	  0.063086174	-1.350610E+02	  0.063086174	1.954500E+01	  0.063086174	-1.792700E+01
217	  0.063286573	-6.157000E+00	  0.063286573	-1.362520E+02	  0.063286573	1.939700E+01	  0.063286573	-1.742200E+01
218	  0.063486971	-6.159000E+00	  0.063486971	-1.373760E+02	  0.063486971	1.927000E+01	  0.063486971	-1.694600E+01
219	  0.063687377	-6.155000E+00	  0.063687377	-1.385420E+02	  0.063687377	1.912800E+01	  0.063687377	-1.645900E+01
220	  0.063887775	-6.154000E+00	  0.063887775	-1.396890E+02	  0.063887775	1.900400E+01	  0.063887775	-1.597900E+01
221	  0.064088173	-6.156000E+00	  0.064088173	-1.408330E+02	  0.064088173	1.888800E+01	  0.064088173	-1.550100E+01
222	  0.064288579	-6.157000E+00	  0.064288579	-1.419580E+02	  0.064288579	1.878000E+01	  0.064288579	-1.503300E+01
223	  0.064488977	-6.154000E+00	  0.064488977	-1.430700E+02	  0.064488977	1.866400E+01	  0.064488977	-1.457500E+01
224	  0.064689375	-6.156000E+00	  0.064689375	-1.441610E+02	  0.064689375	1.856600E+01	  0.064689375	-1.412500E+01
225	  0.064889781	-6.155000E+00	  0.064889781	-1.452580E+02	  0.064889781	1.846600E+01	  0.064889781	-1.367500E+01
226	  0.065090179	-6.159000E+00	  0.065090179	-1.463620E+02	  0.065090179	1.838000E+01	  0.065090179	-1.322200E+01
227	  0.065290578	-6.160000E+00	  0.065290578	-1.474160E+02	  0.065290578	1.829600E+01	  0.065290578	-1.279200E+01
228	  0.065490983	-6.158000E+00	  0.065490983	-1.485090E+02	  0.065490983	1.820200E+01	  0.065490983	-1.235000E+01
229	  0.065691382	-6.162000E+00	  0.065691382	-1.496240E+02	  0.065691382	1.812800E+01	  0.065691382	-1.189700E+01
230	  0.065891780	-6.166000E+00	  0.065891780	-1.506600E+02	  0.065891780	1.806100E+01	  0.065891780	-1.147700E+01
231	  0.066092186	-6.169000E+00	  0.066092186	-1.517460E+02	  0.066092186	1.799300E+01	  0.066092186	-1.103900E+01
232	  0.066292584	-6.171000E+00	  0.066292584	-1.528210E+02	  0.066292584	1.792600E+01	  0.066292584	-1.060800E+01
233	  0.066492982	-6.173000E+00	  0.066492982	-1.538800E+02	  0.066492982	1.786200E+01	  0.066492982	-1.018400E+01
234	  0.066693388	-6.174000E+00	  0.066693388	-1.549430E+02	  0.066693388	1.779800E+01	  0.066693388	-9.761000E+00
235	  0.066893786	-6.176000E+00	  0.066893786	-1.560000E+02	  0.066893786	1.774000E+01	  0.066893786	-9.340000E+00
236	  0.067094192	-6.178000E+00	  0.067094192	-1.570500E+02	  0.067094192	1.768800E+01	  0.067094192	-8.923000E+00
237	  0.067294590	-6.182000E+00	  0.067294590	-1.580990E+02	  0.067294590	1.764200E+01	  0.067294590	-8.507000E+00
238	  0.067494988	-6.179000E+00	  0.067494988	-1.591500E+02	  0.067494988	1.758000E+01	  0.067494988	-8.094000E+00
239	  0.067695394	-6.187000E+00	  0.067695394	-1.601740E+02	  0.067695394	1.755100E+01	  0.067695394	-7.689000E+00
240	  0.067895792	-6.187000E+00	  0.067895792	-1.612000E+02	  0.067895792	1.750500E+01	  0.067895792	-7.286000E+00
241	  0.068096191	-6.191000E+00	  0.068096191	-1.622360E+02	  0.068096191	1.746900E+01	  0.068096191	-6.879000E+00
242	  0.068296596	-6.195000E+00	  0.068296596	-1.632520E+02	  0.068296596	1.743800E+01	  0.068296596	-6.481000E+00
243	  0.068496995	-6.197000E+00	  0.068496995	-1.642710E+02	  0.068496995	1.740600E+01	  0.068496995	-6.083000E+00
244	  0.068697393	-6.199000E+00	  0.068697393	-1.652750E+02	  0.068697393	1.737400E+01	  0.068697393	-5.691000E+00
245	  0.068897791	-6.201000E+00	  0.068897791	-1.662480E+02	  0.068897791	1.734800E+01	  0.068897791	-5.312000E+00
246	  0.069098189	-6.204000E+00	  0.069098189	-1.672560E+02	  0.069098189	1.732300E+01	  0.069098189	-4.920000E+00
247	  0.069298595	-6.203000E+00	  0.069298595	-1.682670E+02	  0.069298595	1.729300E+01	  0.069298595	-4.528000E+00
248	  0.069498993	-6.214000E+00	  0.069498993	-1.692480E+02	  0.069498993	1.729300E+01	  0.069498993	-4.146000E+00
249	  0.069699399	-6.220000E+00	  0.069699399	-1.702320E+02	  0.069699399	1.728700E+01	  0.069699399	-3.764000E+00
250	  0.069899797	-6.224000E+00	  0.069899797	-1.712250E+02	  0.069899797	1.727400E+01	  0.069899797	-3.380000E+00
251	  0.070100196	-6.230000E+00	  0.070100196	-1.722030E+02	  0.070100196	1.727100E+01	  0.070100196	-3.002000E+00
252	  0.070300601	-6.232000E+00	  0.070300601	-1.731950E+02	  0.070300601	1.726100E+01	  0.070300601	-2.619000E+00
253	  0.070501000	-6.235000E+00	  0.070501000	-1.741580E+02	  0.070501000	1.725400E+01	  0.070501000	-2.247000E+00
254	  0.070701398	-6.239000E+00	  0.070701398	-1.751340E+02	  0.070701398	1.725100E+01	  0.070701398	-1.871000E+00
255	  0.070901804	-6.246000E+00	  0.070901804	-1.761060E+02	  0.070901804	1.725900E+01	  0.070901804	-1.497000E+00
256	  0.071102202	-6.254000E+00	  0.071102202	-1.771130E+02	  0.071102202	1.727300E+01	  0.071102202	-1.109000E+00
257	  0.071302600	-6.259000E+00	  0.071302600	-1.780500E+02	  0.071302600	1.727800E+01	  0.071302600	-7.490000E-01
258	  0.071503006	-6.267000E+00	  0.071503006	-1.790040E+02	  0.071503006	1.729500E+01	  0.071503006	-3.820000E-01
259	  0.071703404	-6.275000E+00	  0.071703404	-1.799370E+02	  0.071703404	1.731500E+01	  0.071703404	-2.300000E-02
260	  0.071903802	-6.282000E+00	  0.071903802	1.790880E+02	  0.071903802	1.733500E+01	  0.071903802	3.490000E-01
261	  0.072104208	-6.286000E+00	  0.072104208	1.781410E+02	  0.072104208	1.734700E+01	  0.072104208	7.130000E-01
262	  0.072304606	-6.297000E+00	  0.072304606	1.772110E+02	  0.072304606	1.738000E+01	  0.072304606	1.070000E+00
263	  0.072505005	-6.302000E+00	  0.072505005	1.762730E+02	  0.072505005	1.740000E+01	  0.072505005	1.429000E+00
264	  0.072705410	-6.308000E+00	  0.072705410	1.753100E+02	  0.072705410	1.742500E+01	  0.072705410	1.799000E+00
265	  0.072905809	-6.316000E+00	  0.072905809	1.743770E+02	  0.072905809	1.745600E+01	  0.072905809	2.156000E+00
266	  0.073106214	-6.322000E+00	  0.073106214	1.734740E+02	  0.073106214	1.748500E+01	  0.073106214	2.502000E+00
267	  0.073306613	-6.330000E+00	  0.073306613	1.725550E+02	  0.073306613	1.751800E+01	  0.073306613	2.854000E+00
268	  0.073507011	-6.335000E+00	  0.073507011	1.716160E+02	  0.073507011	1.755000E+01	  0.073507011	3.215000E+00
269	  0.073707417	-6.342000E+00	  0.073707417	1.707130E+02	  0.073707417	1.758500E+01	  0.073707417	3.561000E+00
270	  0.073907815	-6.351000E+00	  0.073907815	1.698250E+02	  0.073907815	1.762900E+01	  0.073907815	3.901000E+00
271	  0.074108213	-6.358000E+00	  0.074108213	1.688870E+02	  0.074108213	1.767100E+01	  0.074108213	4.261000E+00
272	  0.074308619	-6.365000E+00	  0.074308619	1.679900E+02	  0.074308619	1.771200E+01	  0.074308619	4.605000E+00
273	  0.074509017	-6.374000E+00	  0.074509017	1.670950E+02	  0.074509017	1.776200E+01	  0.074509017	4.948000E+00
274	  0.074709415	-6.382000E+00	  0.074709415	1.662030E+02	  0.074709415	1.781000E+01	  0.074709415	5.291000E+00
275	  0.074909821	-6.396000E+00	  0.074909821	1.653230E+02	  0.074909821	1.787700E+01	  0.074909821	5.627000E+00
276	  0.075110219	-6.404000E+00	  0.075110219	1.644590E+02	  0.075110219	1.792700E+01	  0.075110219	5.959000E+00
277	  0.075310618	-6.414000E+00	  0.075310618	1.635590E+02	  0.075310618	1.798800E+01	  0.075310618	6.304000E+00
278	  0.075511023	-6.423000E+00	  0.075511023	1.627040E+02	  0.075511023	1.804500E+01	  0.075511023	6.633000E+00
279	  0.075711422	-6.434000E+00	  0.075711422	1.618230E+02	  0.075711422	1.811300E+01	  0.075711422	6.971000E+00
280	  0.075911827	-6.446000E+00	  0.075911827	1.609320E+02	  0.075911827	1.818200E+01	  0.075911827	7.313000E+00
281	  0.076112226	-6.456000E+00	  0.076112226	1.600840E+02	  0.076112226	1.824800E+01	  0.076112226	7.639000E+00
282	  0.076312624	-6.466000E+00	  0.076312624	1.591820E+02	  0.076312624	1.831900E+01	  0.076312624	7.986000E+00
283	  0.076513030	-6.478000E+00	  0.076513030	1.583010E+02	  0.076513030	1.839700E+01	  0.076513030	8.325000E+00
284	  0.076713428	-6.488000E+00	  0.076713428	1.574490E+02	  0.076713428	1.846900E+01	  0.076713428	8.653000E+00
285	  0.076913826	-6.500000E+00	  0.076913826	1.565730E+02	  0.076913826	1.854900E+01	  0.076913826	8.990000E+00
286	  0.077114232	-6.510000E+00	  0.077114232	1.557420E+02	  0.077114232	1.862400E+01	  0.077114232	9.311000E+00
287	  0.077314630	-6.520000E+00	  0.077314630	1.548950E+02	  0.077314630	1.870100E+01	  0.077314630	9.639000E+00
288	  0.077515028	-6.535000E+00	  0.077515028	1.540430E+02	  0.077515028	1.879700E+01	  0.077515028	9.966000E+00
289	  0.077715434	-6.546000E+00	  0.077715434	1.531760E+02	  0.077715434	1.888200E+01	  0.077715434	1.030100E+01
290	  0.077915832	-6.557000E+00	  0.077915832	1.523410E+02	  0.077915832	1.896900E+01	  0.077915832	1.062400E+01
291	  0.078116231	-6.572000E+00	  0.078116231	1.514920E+02	  0.078116231	1.906800E+01	  0.078116231	1.095200E+01
292	  0.078316636	-6.586000E+00	  0.078316636	1.506310E+02	  0.078316636	1.916800E+01	  0.078316636	1.128400E+01
293	  0.078517035	-6.598000E+00	  0.078517035	1.498310E+02	  0.078517035	1.926000E+01	  0.078517035	1.159400E+01
294	  0.078717433	-6.616000E+00	  0.078717433	1.489620E+02	  0.078717433	1.937800E+01	  0.078717433	1.192700E+01
295	  0.078917839	-6.628000E+00	  0.078917839	1.481650E+02	  0.078917839	1.947400E+01	  0.078917839	1.223700E+01
296	  0.079118237	-6.645000E+00	  0.079118237	1.473110E+02	  0.079118237	1.958900E+01	  0.079118237	1.256600E+01
297	  0.079318643	-6.660000E+00	  0.079318643	1.464870E+02	  0.079318643	1.970200E+01	  0.079318643	1.288400E+01
298	  0.079519041	-6.675000E+00	  0.079519041	1.456440E+02	  0.079519041	1.981700E+01	  0.079519041	1.321100E+01
299	  0.079719439	-6.691000E+00	  0.079719439	1.448150E+02	  0.079719439	1.993500E+01	  0.079719439	1.353200E+01
300	  0.079919845	-6.705000E+00	  0.079919845	1.440150E+02	  0.079919845	2.004800E+01	  0.079919845	1.384300E+01
301	  0.080120243	-6.719000E+00	  0.080120243	1.431660E+02	  0.080120243	2.016800E+01	  0.080120243	1.417300E+01
302	  0.080320641	-6.735000E+00	  0.080320641	1.423630E+02	  0.080320641	2.029200E+01	  0.080320641	1.448400E+01
303	  0.080521047	-6.752000E+00	  0.080521047	1.415250E+02	  0.080521047	2.042600E+01	  0.080521047	1.480800E+01
304	  0.080721445	-6.771000E+00	  0.080721445	1.407580E+02	  0.080721445	2.055800E+01	  0.080721445	1.510400E+01
305	  0.080921844	-6.787000E+00	  0.080921844	1.399660E+02	  0.080921844	2.068700E+01	  0.080921844	1.541100E+01
306	  0.081122249	-6.803000E+00	  0.081122249	1.391640E+02	  0.081122249	2.081900E+01	  0.081122249	1.572300E+01
307	  0.081322648	-6.823000E+00	  0.081322648	1.383890E+02	  0.081322648	2.096300E+01	  0.081322648	1.602100E+01
308	  0.081523046	-6.840000E+00	  0.081523046	1.376060E+02	  0.081523046	2.110100E+01	  0.081523046	1.632400E+01
309	  0.081723452	-6.857000E+00	  0.081723452	1.368140E+02	  0.081723452	2.124300E+01	  0.081723452	1.663200E+01
310	  0.081923850	-6.879000E+00	  0.081923850	1.360670E+02	  0.081923850	2.139600E+01	  0.081923850	1.691700E+01
311	  0.082124248	-6.902000E+00	  0.082124248	1.353190E+02	  0.082124248	2.155300E+01	  0.082124248	1.720200E+01
312	  0.082324654	-6.918000E+00	  0.082324654	1.345570E+02	  0.082324654	2.169600E+01	  0.082324654	1.749800E+01
313	  0.082525052	-6.944000E+00	  0.082525052	1.338330E+02	  0.082525052	2.186200E+01	  0.082525052	1.777100E+01
314	  0.082725458	-6.970000E+00	  0.082725458	1.330670E+02	  0.082725458	2.203800E+01	  0.082725458	1.806000E+01
315	  0.082925856	-6.994000E+00	  0.082925856	1.322900E+02	  0.082925856	2.221100E+01	  0.082925856	1.835500E+01
316	  0.083126254	-7.014000E+00	  0.083126254	1.315260E+02	  0.083126254	2.237700E+01	  0.083126254	1.864800E+01
317	  0.083326660	-7.037000E+00	  0.083326660	1.307710E+02	  0.083326660	2.255000E+01	  0.083326660	1.893600E+01
318	  0.083527058	-7.060000E+00	  0.083527058	1.300300E+02	  0.083527058	2.272300E+01	  0.083527058	1.921700E+01
319	  0.083727457	-7.079000E+00	  0.083727457	1.292770E+02	  0.083727457	2.289100E+01	  0.083727457	1.950700E+01
320	  0.083927862	-7.102000E+00	  0.083927862	1.285500E+02	  0.083927862	2.306700E+01	  0.083927862	1.978300E+01
321	  0.084128261	-7.123000E+00	  0.084128261	1.278440E+02	  0.084128261	2.323900E+01	  0.084128261	2.005100E+01
322	  0.084328659	-7.144000E+00	  0.084328659	1.271230E+02	  0.084328659	2.341300E+01	  0.084328659	2.032600E+01
323	  0.084529065	-7.169000E+00	  0.084529065	1.264030E+02	  0.084529065	2.360200E+01	  0.084529065	2.059600E+01
324	  0.084729463	-7.190000E+00	  0.084729463	1.256610E+02	  0.084729463	2.378800E+01	  0.084729463	2.087900E+01
325	  0.084929861	-7.214000E+00	  0.084929861	1.249500E+02	  0.084929861	2.397900E+01	  0.084929861	2.114500E+01
326	  0.085130267	-7.237000E+00	  0.085130267	1.242810E+02	  0.085130267	2.416000E+01	  0.085130267	2.139500E+01
327	  0.085330658	-7.261000E+00	  0.085330658	1.235810E+02	  0.085330658	2.435500E+01	  0.085330658	2.165600E+01
328	  0.085531056	-7.285000E+00	  0.085531056	1.228710E+02	  0.085531056	2.455200E+01	  0.085531056	2.192100E+01
329	  0.085731462	-7.308000E+00	  0.085731462	1.221970E+02	  0.085731462	2.474200E+01	  0.085731462	2.217300E+01
330	  0.085931860	-7.336000E+00	  0.085931860	1.215130E+02	  0.085931860	2.495000E+01	  0.085931860	2.242100E+01
331	  0.086132258	-7.362000E+00	  0.086132258	1.208450E+02	  0.086132258	2.515300E+01	  0.086132258	2.266500E+01
332	  0.086332664	-7.388000E+00	  0.086332664	1.201100E+02	  0.086332664	2.537300E+01	  0.086332664	2.293600E+01
333	  0.086533062	-7.409000E+00	  0.086533062	1.194230E+02	  0.086533062	2.557200E+01	  0.086533062	2.319200E+01
334	  0.086733460	-7.432000E+00	  0.086733460	1.187460E+02	  0.086733460	2.577600E+01	  0.086733460	2.344300E+01
335	  0.086933866	-7.452000E+00	  0.086933866	1.180660E+02	  0.086933866	2.597700E+01	  0.086933866	2.369700E+01
336	  0.087134264	-7.478000E+00	  0.087134264	1.173820E+02	  0.087134264	2.619500E+01	  0.087134264	2.394600E+01
337	  0.087334670	-7.499000E+00	  0.087334670	1.166940E+02	  0.087334670	2.640500E+01	  0.087334670	2.420200E+01
338	  0.087535068	-7.528000E+00	  0.087535068	1.160570E+02	  0.087535068	2.662800E+01	  0.087535068	2.442500E+01
339	  0.087735467	-7.550000E+00	  0.087735467	1.154020E+02	  0.087735467	2.683800E+01	  0.087735467	2.466500E+01
340	  0.087935872	-7.575000E+00	  0.087935872	1.147530E+02	  0.087935872	2.706000E+01	  0.087935872	2.489600E+01
341	  0.088136271	-7.599000E+00	  0.088136271	1.141030E+02	  0.088136271	2.728000E+01	  0.088136271	2.512900E+01
342	  0.088336669	-7.619000E+00	  0.088336669	1.134550E+02	  0.088336669	2.749000E+01	  0.088336669	2.536800E+01
343	  0.088537075	-7.645000E+00	  0.088537075	1.128440E+02	  0.088537075	2.771300E+01	  0.088537075	2.558000E+01
344	  0.088737473	-7.665000E+00	  0.088737473	1.122270E+02	  0.088737473	2.792000E+01	  0.088737473	2.580500E+01
345	  0.088937871	-7.700000E+00	  0.088937871	1.116030E+02	  0.088937871	2.817400E+01	  0.088937871	2.600600E+01
346	  0.089138277	-7.718000E+00	  0.089138277	1.110190E+02	  0.089138277	2.837400E+01	  0.089138277	2.621800E+01
347	  0.089338675	-7.758000E+00	  0.089338675	1.104510E+02	  0.089338675	2.863200E+01	  0.089338675	2.638500E+01
348	  0.089539073	-7.776000E+00	  0.089539073	1.098000E+02	  0.089539073	2.885600E+01	  0.089539073	2.662200E+01
349	  0.089739479	-7.806000E+00	  0.089739479	1.092050E+02	  0.089739479	2.910000E+01	  0.089739479	2.681500E+01
350	  0.089939877	-7.831000E+00	  0.089939877	1.085900E+02	  0.089939877	2.933600E+01	  0.089939877	2.702500E+01
351	  0.090140276	-7.864000E+00	  0.090140276	1.079690E+02	  0.090140276	2.959800E+01	  0.090140276	2.722100E+01
352	  0.090340681	-7.885000E+00	  0.090340681	1.073580E+02	  0.090340681	2.982900E+01	  0.090340681	2.743400E+01
353	  0.090541080	-7.919000E+00	  0.090541080	1.067800E+02	  0.090541080	3.008700E+01	  0.090541080	2.760800E+01
354	  0.090741485	-7.944000E+00	  0.090741485	1.061750E+02	  0.090741485	3.033300E+01	  0.090741485	2.780700E+01
355	  0.090941884	-7.974000E+00	  0.090941884	1.056060E+02	  0.090941884	3.058300E+01	  0.090941884	2.798200E+01
356	  0.091142282	-7.999000E+00	  0.091142282	1.050310E+02	  0.091142282	3.082300E+01	  0.091142282	2.816900E+01
357	  0.091342688	-8.024000E+00	  0.091342688	1.044530E+02	  0.091342688	3.106600E+01	  0.091342688	2.835400E+01
358	  0.091543086	-8.050000E+00	  0.091543086	1.038770E+02	  0.091543086	3.131400E+01	  0.091543086	2.853600E+01
359	  0.091743484	-8.074000E+00	  0.091743484	1.033150E+02	  0.091743484	3.155600E+01	  0.091743484	2.871500E+01
360	  0.091943890	-8.102000E+00	  0.091943890	1.027660E+02	  0.091943890	3.180500E+01	  0.091943890	2.888000E+01
361	  0.092144288	-8.127000E+00	  0.092144288	1.022350E+02	  0.092144288	3.204500E+01	  0.092144288	2.904000E+01
362	  0.092344686	-8.154000E+00	  0.092344686	1.017150E+02	  0.092344686	3.228700E+01	  0.092344686	2.919100E+01
363	  0.092545092	-8.179000E+00	  0.092545092	1.012100E+02	  0.092545092	3.252000E+01	  0.092545092	2.934000E+01
364	  0.092745490	-8.209000E+00	  0.092745490	1.006950E+02	  0.092745490	3.277300E+01	  0.092745490	2.948000E+01
365	  0.092945889	-8.233000E+00	  0.092945889	1.001330E+02	  0.092945889	3.302600E+01	  0.092945889	2.965200E+01
366	  0.093146294	-8.269000E+00	  0.093146294	9.962700E+01	  0.093146294	3.329400E+01	  0.093146294	2.977300E+01
367	  0.093346693	-8.289000E+00	  0.093346693	9.911700E+01	  0.093346693	3.352300E+01	  0.093346693	2.993000E+01
368	  0.093547091	-8.315000E+00	  0.093547091	9.858400E+01	  0.093547091	3.377900E+01	  0.093547091	3.008000E+01
369	  0.093747497	-8.338000E+00	  0.093747497	9.806100E+01	  0.093747497	3.402700E+01	  0.093747497	3.023100E+01
370	  0.093947895	-8.365000E+00	  0.093947895	9.757000E+01	  0.093947895	3.427300E+01	  0.093947895	3.036100E+01
371	  0.094148301	-8.391000E+00	  0.094148301	9.706100E+01	  0.094148301	3.452600E+01	  0.094148301	3.049700E+01
372	  0.094348699	-8.414000E+00	  0.094348699	9.657700E+01	  0.094348699	3.476600E+01	  0.094348699	3.062800E+01
373	  0.094549097	-8.438000E+00	  0.094549097	9.611800E+01	  0.094549097	3.499800E+01	  0.094549097	3.074800E+01
374	  0.094749503	-8.461000E+00	  0.094749503	9.565400E+01	  0.094749503	3.523100E+01	  0.094749503	3.087100E+01
375	  0.094949901	-8.482000E+00	  0.094949901	9.515400E+01	  0.094949901	3.547700E+01	  0.094949901	3.100900E+01
376	  0.095150299	-8.500000E+00	  0.095150299	9.473600E+01	  0.095150299	3.568300E+01	  0.095150299	3.112500E+01
377	  0.095350705	-8.519000E+00	  0.095350705	9.426300E+01	  0.095350705	3.591500E+01	  0.095350705	3.125700E+01
378	  0.095551103	-8.539000E+00	  0.095551103	9.383200E+01	  0.095551103	3.613600E+01	  0.095551103	3.136900E+01
379	  0.095751502	-8.562000E+00	  0.095751502	9.339500E+01	  0.095751502	3.636800E+01	  0.095751502	3.147400E+01
380	  0.095951907	-8.582000E+00	  0.095951907	9.294200E+01	  0.095951907	3.659900E+01	  0.095951907	3.159300E+01
381	  0.096152306	-8.602000E+00	  0.096152306	9.253500E+01	  0.096152306	3.681200E+01	  0.096152306	3.169300E+01
382	  0.096352704	-8.620000E+00	  0.096352704	9.212000E+01	  0.096352704	3.702700E+01	  0.096352704	3.180000E+01
383	  0.096553110	-8.638000E+00	  0.096553110	9.168900E+01	  0.096553110	3.724900E+01	  0.096553110	3.191200E+01
384	  0.096753508	-8.655000E+00	  0.096753508	9.124400E+01	  0.096753508	3.747700E+01	  0.096753508	3.202800E+01
385	  0.096953906	-8.669000E+00	  0.096953906	9.081400E+01	  0.096953906	3.769100E+01	  0.096953906	3.215000E+01
386	  0.097154312	-8.685000E+00	  0.097154312	9.039700E+01	  0.097154312	3.790700E+01	  0.097154312	3.225800E+01
387	  0.097354710	-8.700000E+00	  0.097354710	8.998800E+01	  0.097354710	3.812000E+01	  0.097354710	3.236500E+01
388	  0.097555116	-8.720000E+00	  0.097555116	8.956200E+01	  0.097555116	3.835100E+01	  0.097555116	3.246400E+01
389	  0.097755514	-8.729000E+00	  0.097755514	8.919100E+01	  0.097755514	3.853400E+01	  0.097755514	3.257300E+01
390	  0.097955912	-8.738000E+00	  0.097955912	8.875000E+01	  0.097955912	3.875000E+01	  0.097955912	3.270600E+01
391	  0.098156318	-8.746000E+00	  0.098156318	8.833500E+01	  0.098156318	3.895300E+01	  0.098156318	3.283200E+01
392	  0.098356716	-8.752000E+00	  0.098356716	8.792700E+01	  0.098356716	3.915100E+01	  0.098356716	3.296100E+01
393	  0.098557115	-8.756000E+00	  0.098557115	8.752100E+01	  0.098557115	3.934500E+01	  0.098557115	3.309300E+01
394	  0.098757520	-8.762000E+00	  0.098757520	8.709400E+01	  0.098757520	3.955300E+01	  0.098757520	3.322800E+01
395	  0.098957919	-8.770000E+00	  0.098957919	8.670800E+01	  0.098957919	3.975100E+01	  0.098957919	3.334000E+01
396	  0.099158317	-8.773000E+00	  0.099158317	8.629200E+01	  0.099158317	3.995000E+01	  0.099158317	3.347900E+01
397	  0.099358723	-8.773000E+00	  0.099358723	8.590600E+01	  0.099358723	4.013200E+01	  0.099358723	3.361400E+01
398	  0.099559121	-8.779000E+00	  0.099559121	8.551900E+01	  0.099559121	4.033000E+01	  0.099559121	3.373100E+01
399	  0.099759519	-8.777000E+00	  0.099759519	8.512400E+01	  0.099759519	4.051300E+01	  0.099759519	3.387500E+01
400	  0.099959925	-8.768000E+00	  0.099959925	8.475200E+01	  0.099959925	4.067100E+01	  0.099959925	3.403600E+01
401	  0.100160323	-8.776000E+00	  0.100160323	8.434800E+01	  0.100160323	4.088400E+01	  0.100160323	3.415200E+01
402	  0.100360721	-8.763000E+00	  0.100360721	8.396600E+01	  0.100360721	4.104300E+01	  0.100360721	3.432500E+01
403	  0.100561127	-8.770000E+00	  0.100561127	8.352000E+01	  0.100561127	4.127800E+01	  0.100561127	3.445800E+01
404	  0.100761525	-8.762000E+00	  0.100761525	8.313400E+01	  0.100761525	4.145300E+01	  0.100761525	3.461700E+01
405	  0.100961931	-8.760000E+00	  0.100961931	8.271800E+01	  0.100961931	4.165800E+01	  0.100961931	3.476700E+01
406	  0.101162329	-8.753000E+00	  0.101162329	8.231200E+01	  0.101162329	4.184900E+01	  0.101162329	3.493000E+01
407	  0.101362728	-8.756000E+00	  0.101362728	8.190900E+01	  0.101362728	4.206100E+01	  0.101362728	3.506000E+01
408	  0.101563133	-8.742000E+00	  0.101563133	8.150000E+01	  0.101563133	4.224100E+01	  0.101563133	3.524700E+01
409	  0.101763532	-8.737000E+00	  0.101763532	8.104500E+01	  0.101763532	4.246700E+01	  0.101763532	3.542000E+01
410	  0.101963930	-8.726000E+00	  0.101963930	8.058600E+01	  0.101963930	4.268500E+01	  0.101963930	3.561500E+01
411	  0.102164336	-8.716000E+00	  0.102164336	8.016600E+01	  0.102164336	4.288800E+01	  0.102164336	3.579000E+01
412	  0.102364734	-8.717000E+00	  0.102364734	7.972500E+01	  0.102364734	4.312600E+01	  0.102364734	3.593700E+01
413	  0.102565132	-8.707000E+00	  0.102565132	7.928700E+01	  0.102565132	4.334200E+01	  0.102565132	3.612100E+01
414	  0.102765530	-8.686000E+00	  0.102765530	7.889000E+01	  0.102765530	4.351500E+01	  0.102765530	3.632900E+01
415	  0.102965929	-8.673000E+00	  0.102965929	7.840300E+01	  0.102965929	4.375600E+01	  0.102965929	3.654100E+01
416	  0.103166327	-8.657000E+00	  0.103166327	7.797600E+01	  0.103166327	4.396100E+01	  0.103166327	3.674100E+01
417	  0.103366733	-8.643000E+00	  0.103366733	7.749200E+01	  0.103366733	4.420300E+01	  0.103366733	3.695800E+01
418	  0.103567131	-8.634000E+00	  0.103567131	7.704300E+01	  0.103567131	4.444100E+01	  0.103567131	3.714100E+01
419	  0.103767529	-8.626000E+00	  0.103767529	7.653500E+01	  0.103767529	4.471800E+01	  0.103767529	3.733900E+01
420	  0.103967935	-8.609000E+00	  0.103967935	7.604900E+01	  0.103967935	4.496700E+01	  0.103967935	3.756400E+01
421	  0.104168333	-8.590000E+00	  0.104168333	7.555500E+01	  0.104168333	4.521800E+01	  0.104168333	3.780300E+01
422	  0.104368731	-8.584000E+00	  0.104368731	7.501600E+01	  0.104368731	4.552800E+01	  0.104368731	3.800300E+01
423	  0.104569137	-8.564000E+00	  0.104569137	7.454200E+01	  0.104569137	4.577200E+01	  0.104569137	3.823900E+01
424	  0.104769535	-8.552000E+00	  0.104769535	7.407600E+01	  0.104769535	4.603500E+01	  0.104769535	3.843700E+01
425	  0.104969934	-8.529000E+00	  0.104969934	7.349800E+01	  0.104969934	4.634300E+01	  0.104969934	3.872100E+01
426	  0.105170339	-8.521000E+00	  0.105170339	7.295400E+01	  0.105170339	4.666900E+01	  0.105170339	3.893000E+01
427	  0.105370738	-8.493000E+00	  0.105370738	7.244400E+01	  0.105370738	4.693600E+01	  0.105370738	3.921000E+01
428	  0.105571143	-8.474000E+00	  0.105571143	7.190300E+01	  0.105571143	4.724500E+01	  0.105571143	3.946500E+01
429	  0.105771542	-8.463000E+00	  0.105771542	7.130800E+01	  0.105771542	4.761200E+01	  0.105771542	3.970200E+01
430	  0.105971940	-8.442000E+00	  0.105971940	7.076500E+01	  0.105971940	4.792900E+01	  0.105971940	3.996400E+01
431	  0.106172346	-8.431000E+00	  0.106172346	7.019700E+01	  0.106172346	4.828900E+01	  0.106172346	4.019000E+01
432	  0.106372744	-8.407000E+00	  0.106372744	6.963700E+01	  0.106372744	4.862100E+01	  0.106372744	4.047300E+01
433	  0.106573142	-8.391000E+00	  0.106573142	6.907400E+01	  0.106573142	4.897800E+01	  0.106573142	4.071900E+01
434	  0.106773548	-8.374000E+00	  0.106773548	6.851500E+01	  0.106773548	4.933700E+01	  0.106773548	4.096700E+01
435	  0.106973946	-8.352000E+00	  0.106973946	6.791100E+01	  0.106973946	4.972300E+01	  0.106973946	4.125100E+01
436	  0.107174344	-8.344000E+00	  0.107174344	6.730600E+01	  0.107174344	5.014200E+01	  0.107174344	4.147400E+01
437	  0.107374750	-8.312000E+00	  0.107374750	6.672400E+01	  0.107374750	5.050400E+01	  0.107374750	4.180100E+01
438	  0.107575148	-8.300000E+00	  0.107575148	6.612600E+01	  0.107575148	5.092500E+01	  0.107575148	4.203600E+01
439	  0.107775547	-8.282000E+00	  0.107775547	6.547100E+01	  0.107775547	5.138600E+01	  0.107775547	4.231100E+01
440	  0.107975952	-8.274000E+00	  0.107975952	6.491200E+01	  0.107975952	5.179600E+01	  0.107975952	4.251500E+01
441	  0.108176351	-8.252000E+00	  0.108176351	6.424300E+01	  0.108176351	5.227500E+01	  0.108176351	4.281200E+01
442	  0.108376749	-8.235000E+00	  0.108376749	6.363600E+01	  0.108376749	5.272000E+01	  0.108376749	4.307300E+01
443	  0.108577155	-8.218000E+00	  0.108577155	6.295500E+01	  0.108577155	5.323500E+01	  0.108577155	4.334400E+01
444	  0.108777553	-8.203000E+00	  0.108777553	6.228400E+01	  0.108777553	5.375300E+01	  0.108777553	4.360400E+01
445	  0.108977959	-8.191000E+00	  0.108977959	6.159400E+01	  0.108977959	5.430000E+01	  0.108977959	4.385300E+01
446	  0.109178357	-8.170000E+00	  0.109178357	6.093600E+01	  0.109178357	5.481700E+01	  0.109178357	4.413500E+01
447	  0.109378755	-8.149000E+00	  0.109378755	6.028900E+01	  0.109378755	5.533400E+01	  0.109378755	4.441200E+01
448	  0.109579161	-8.150000E+00	  0.109579161	5.960400E+01	  0.109579161	5.592800E+01	  0.109579161	4.457000E+01
449	  0.109779559	-8.132000E+00	  0.109779559	5.882200E+01	  0.109779559	5.658500E+01	  0.109779559	4.485900E+01
450	  0.109979957	-8.117000E+00	  0.109979957	5.817800E+01	  0.109979957	5.713800E+01	  0.109979957	4.509300E+01
451	  0.110180363	-8.103000E+00	  0.110180363	5.745500E+01	  0.110180363	5.777400E+01	  0.110180363	4.533100E+01
452	  0.110380761	-8.088000E+00	  0.110380761	5.673800E+01	  0.110380761	5.841400E+01	  0.110380761	4.557100E+01
453	  0.110581160	-8.081000E+00	  0.110581160	5.594300E+01	  0.110581160	5.915100E+01	  0.110581160	4.577200E+01
454	  0.110781565	-8.076000E+00	  0.110781565	5.522400E+01	  0.110781565	5.982900E+01	  0.110781565	4.593600E+01
455	  0.110981964	-8.071000E+00	  0.110981964	5.447600E+01	  0.110981964	6.054600E+01	  0.110981964	4.610100E+01
456	  0.111182362	-8.057000E+00	  0.111182362	5.372400E+01	  0.111182362	6.127000E+01	  0.111182362	4.631000E+01
457	  0.111382768	-8.048000E+00	  0.111382768	5.291100E+01	  0.111382768	6.207400E+01	  0.111382768	4.649000E+01
458	  0.111583166	-8.044000E+00	  0.111583166	5.211400E+01	  0.111583166	6.287900E+01	  0.111583166	4.662500E+01
459	  0.111783572	-8.040000E+00	  0.111783572	5.130200E+01	  0.111783572	6.371400E+01	  0.111783572	4.674800E+01
460	  0.111983970	-8.037000E+00	  0.111983970	5.048300E+01	  0.111983970	6.457000E+01	  0.111983970	4.685000E+01
461	  0.112184368	-8.034000E+00	  0.112184368	4.968700E+01	  0.112184368	6.541500E+01	  0.112184368	4.693800E+01
462	  0.112384774	-8.036000E+00	  0.112384774	4.888700E+01	  0.112384774	6.628000E+01	  0.112384774	4.697700E+01
463	  0.112585172	-8.029000E+00	  0.112585172	4.805400E+01	  0.112585172	6.719000E+01	  0.112585172	4.706300E+01
464	  0.112785570	-8.034000E+00	  0.112785570	4.721800E+01	  0.112785570	6.812000E+01	  0.112785570	4.704700E+01
465	  0.112985976	-8.030000E+00	  0.112985976	4.639200E+01	  0.112985976	6.905100E+01	  0.112985976	4.707800E+01
466	  0.113186374	-8.036000E+00	  0.113186374	4.551700E+01	  0.113186374	7.004900E+01	  0.113186374	4.701300E+01
467	  0.113386773	-8.041000E+00	  0.113386773	4.466500E+01	  0.113386773	7.103300E+01	  0.113386773	4.693700E+01
468	  0.113587178	-8.043000E+00	  0.113587178	4.379900E+01	  0.113587178	7.204600E+01	  0.113587178	4.685500E+01
469	  0.113787577	-8.048000E+00	  0.113787577	4.291200E+01	  0.113787577	7.309400E+01	  0.113787577	4.673200E+01
470	  0.113987975	-8.063000E+00	  0.113987975	4.204800E+01	  0.113987975	7.411600E+01	  0.113987975	4.649500E+01
471	  0.114188381	-8.070000E+00	  0.114188381	4.113400E+01	  0.114188381	7.521400E+01	  0.114188381	4.629400E+01
472	  0.114388779	-8.078000E+00	  0.114388779	4.028900E+01	  0.114388779	7.623500E+01	  0.114388779	4.606700E+01
473	  0.114589177	-8.089000E+00	  0.114589177	3.936800E+01	  0.114589177	7.735300E+01	  0.114589177	4.577200E+01
474	  0.114789583	-8.108000E+00	  0.114789583	3.842300E+01	  0.114789583	7.849200E+01	  0.114789583	4.537400E+01
475	  0.114989981	-8.119000E+00	  0.114989981	3.747500E+01	  0.114989981	7.965400E+01	  0.114989981	4.500000E+01
476	  0.115190387	-8.139000E+00	  0.115190387	3.651500E+01	  0.115190387	8.081100E+01	  0.115190387	4.450300E+01
477	  0.115390785	-8.165000E+00	  0.115390785	3.561300E+01	  0.115390785	8.188000E+01	  0.115390785	4.395200E+01
478	  0.115591183	-8.180000E+00	  0.115591183	3.461300E+01	  0.115591183	8.309500E+01	  0.115591183	4.340800E+01
479	  0.115791589	-8.207000E+00	  0.115791589	3.366600E+01	  0.115791589	8.420700E+01	  0.115791589	4.275200E+01
480	  0.115991987	-8.232000E+00	  0.115991987	3.268500E+01	  0.115991987	8.535400E+01	  0.115991987	4.204900E+01
481	  0.116192386	-8.257000E+00	  0.116192386	3.168500E+01	  0.116192386	8.651100E+01	  0.116192386	4.128900E+01
482	  0.116392791	-8.289000E+00	  0.116392791	3.067700E+01	  0.116392791	8.764100E+01	  0.116392791	4.043200E+01
483	  0.116593190	-8.314000E+00	  0.116593190	2.966500E+01	  0.116593190	8.878000E+01	  0.116593190	3.957800E+01
484	  0.116793588	-8.349000E+00	  0.116793588	2.866000E+01	  0.116793588	8.984400E+01	  0.116793588	3.859900E+01
485	  0.116993994	-8.386000E+00	  0.116993994	2.759400E+01	  0.116993994	9.094400E+01	  0.116993994	3.751900E+01
486	  0.117194392	-8.426000E+00	  0.117194392	2.657800E+01	  0.117194392	9.194000E+01	  0.117194392	3.641800E+01
487	  0.117394790	-8.464000E+00	  0.117394790	2.553600E+01	  0.117394790	9.293200E+01	  0.117394790	3.525600E+01
488	  0.117595196	-8.507000E+00	  0.117595196	2.442500E+01	  0.117595196	9.394000E+01	  0.117595196	3.396200E+01
489	  0.117795594	-8.553000E+00	  0.117795594	2.335900E+01	  0.117795594	9.482900E+01	  0.117795594	3.264200E+01
490	  0.117995992	-8.596000E+00	  0.117995992	2.230100E+01	  0.117995992	9.568100E+01	  0.117995992	3.131900E+01
491	  0.118196398	-8.648000E+00	  0.118196398	2.118600E+01	  0.118196398	9.647600E+01	  0.118196398	2.983800E+01
492	  0.118396796	-8.696000E+00	  0.118396796	2.004200E+01	  0.118396796	9.726800E+01	  0.118396796	2.832100E+01
493	  0.118597202	-8.756000E+00	  0.118597202	1.893200E+01	  0.118597202	9.787700E+01	  0.118597202	2.673700E+01
494	  0.118797600	-8.814000E+00	  0.118797600	1.780200E+01	  0.118797600	9.844700E+01	  0.118797600	2.512000E+01
495	  0.118997999	-8.876000E+00	  0.118997999	1.662300E+01	  0.118997999	9.895600E+01	  0.118997999	2.340700E+01
496	  0.119198404	-8.934000E+00	  0.119198404	1.546000E+01	  0.119198404	9.941300E+01	  0.119198404	2.172500E+01
497	  0.119398803	-9.002000E+00	  0.119398803	1.428000E+01	  0.119398803	9.972000E+01	  0.119398803	1.996200E+01
498	  0.119599201	-9.075000E+00	  0.119599201	1.305100E+01	  0.119599201	9.993700E+01	  0.119599201	1.811800E+01
499	  0.119799607	-9.147000E+00	  0.119799607	1.181100E+01	  0.119799607	1.000810E+02	  0.119799607	1.627100E+01
500	  0.120000005	-9.222000E+00	  0.120000005	1.064300E+01	  0.120000005	1.000880E+02	  0.120000005	1.452400E+01
