! Anritsu VNA Master:             	Model: MS2036C/10/77
! SN:             	1601066
! /bd0/18may09/252.ew.m7.txt
! Existing Calibration Information:
! TYPE:             	Current Settings	Active Cal Settings
! TIME:             	05/09/2018 08:22:10 AM	05/09/2018 08:17:55 AM
! INTERNAL TEMP:    	41.0 C	41.3 C
! # POINTS:         	500	500
! START FREQ:       	20.000 MHz	20.000 MHz
! STOP FREQ:        	120.000 MHz	120.000 MHz
! SOURCE POWER:     	High	High
! IFBW:             	50 Hz	50 Hz
! AVG FACTOR:       	  1 	  1 
! REF PLANE 1:      	0 mm	0 mm
! REF PLANE 2:      	0 mm	0 mm
! CAL TYPE:         	Full S11	Full S11
! CAL METHOD:       	SOLT	SOLT
! CAL LINE TYPE:    	Coax	Coax
! DUT PORT 1:       	K-Conn(F)	K-Conn(F)
! DUT PORT 2:       	K-Conn(F)	K-Conn(F)
! CAL STATUS:       	OK: Accuracy High	--
! PROP-V:       	0.700
! CABLE LOSS:       	0.000 dB/m
! REF IMPEDANCE:       	50.0
! Trace Specific Parameters:	TR1	TR2	TR3	TR4
! TRACE.#.Y (GRAPH TYPE)	LOG MAG	PHASE	REAL IMPEDANCE	IMAGINARY IMPEDANCE
! TRACE.#.X 	FREQ.GHZ	FREQ.GHZ	FREQ.GHZ	FREQ.GHZ
! S-PARAMETER	S11	S11	S11	S11
! SMOOTH/APERTURE %	0	0	0	0
! WINDOW	NSL	NSL	NSL	NSL
! GATING	OFF	OFF	OFF	OFF
! FGTD	OFF	OFF	OFF	OFF
Marker Information per Trace:	TR1	TR2	TR3	TR4
!MK1	--	"MK1 TR2:  20.000 MHz,PH:-124.33°"	--	--
!MK2	--	--	"MK2 TR3:  70.100 200 MHz,Z:(17.296 ohm, -3.005 ohm)"	--
!MK3	--	--	--	--
!MK4	--	--	--	--
!MK5	--	--	--	--
!MK6	--	--	--	--
!MK7	--	--	--	--
!MK8	--	--	--	--
PNT	TR1.FREQ.GHZ	TR1.LOG MAG.dB	TR2.FREQ.GHZ	TR2.PHASE.deg	TR3.FREQ.GHZ	TR3.REAL IMPEDANCE.ohm	TR4.FREQ.GHZ	TR4.IMAGINARY IMPEDANCE.ohm
1	  0.020000000	-5.980000E-01	  0.020000000	-1.243250E+02	  0.020000000	2.202000E+00	  0.020000000	-2.636300E+01
2	  0.020200402	-5.980000E-01	  0.020200402	-1.257680E+02	  0.020200402	2.172000E+00	  0.020200402	-2.556500E+01
3	  0.020400802	-5.990000E-01	  0.020400802	-1.272150E+02	  0.020400802	2.148000E+00	  0.020400802	-2.477500E+01
4	  0.020601204	-6.000000E-01	  0.020601204	-1.286580E+02	  0.020601204	2.127000E+00	  0.020601204	-2.399600E+01
5	  0.020801604	-6.060000E-01	  0.020801604	-1.301460E+02	  0.020801604	2.121000E+00	  0.020801604	-2.320300E+01
6	  0.021002004	-6.120000E-01	  0.021002004	-1.316570E+02	  0.021002004	2.116000E+00	  0.021002004	-2.240700E+01
7	  0.021202406	-6.180000E-01	  0.021202406	-1.331650E+02	  0.021202406	2.112000E+00	  0.021202406	-2.162200E+01
8	  0.021402806	-6.210000E-01	  0.021402806	-1.346790E+02	  0.021402806	2.100000E+00	  0.021402806	-2.084300E+01
9	  0.021603208	-6.240000E-01	  0.021603208	-1.361910E+02	  0.021603208	2.088000E+00	  0.021603208	-2.007300E+01
10	  0.021803608	-6.280000E-01	  0.021803608	-1.377160E+02	  0.021803608	2.078000E+00	  0.021803608	-1.930600E+01
11	  0.022004008	-6.340000E-01	  0.022004008	-1.392330E+02	  0.022004008	2.078000E+00	  0.022004008	-1.855000E+01
12	  0.022204408	-6.390000E-01	  0.022204408	-1.407690E+02	  0.022204408	2.073000E+00	  0.022204408	-1.779200E+01
13	  0.022404809	-6.440000E-01	  0.022404809	-1.423360E+02	  0.022404809	2.069000E+00	  0.022404809	-1.702600E+01
14	  0.022605211	-6.470000E-01	  0.022605211	-1.439090E+02	  0.022605211	2.058000E+00	  0.022605211	-1.626400E+01
15	  0.022805611	-6.480000E-01	  0.022805611	-1.454870E+02	  0.022805611	2.045000E+00	  0.022805611	-1.550700E+01
16	  0.023006011	-6.520000E-01	  0.023006011	-1.470660E+02	  0.023006011	2.041000E+00	  0.023006011	-1.475600E+01
17	  0.023206413	-6.520000E-01	  0.023206413	-1.486350E+02	  0.023206413	2.026000E+00	  0.023206413	-1.401600E+01
18	  0.023406813	-6.580000E-01	  0.023406813	-1.502030E+02	  0.023406813	2.026000E+00	  0.023406813	-1.328100E+01
19	  0.023607215	-6.620000E-01	  0.023607215	-1.517790E+02	  0.023607215	2.025000E+00	  0.023607215	-1.254900E+01
20	  0.023807615	-6.690000E-01	  0.023807615	-1.533750E+02	  0.023807615	2.034000E+00	  0.023807615	-1.181200E+01
21	  0.024008015	-6.790000E-01	  0.024008015	-1.549990E+02	  0.024008015	2.049000E+00	  0.024008015	-1.106700E+01
22	  0.024208417	-6.880000E-01	  0.024208417	-1.566280E+02	  0.024208417	2.065000E+00	  0.024208417	-1.032400E+01
23	  0.024408817	-6.980000E-01	  0.024408817	-1.582570E+02	  0.024408817	2.082000E+00	  0.024408817	-9.586000E+00
24	  0.024609219	-7.060000E-01	  0.024609219	-1.598870E+02	  0.024609219	2.095000E+00	  0.024609219	-8.851000E+00
25	  0.024809619	-7.150000E-01	  0.024809619	-1.615310E+02	  0.024809619	2.111000E+00	  0.024809619	-8.114000E+00
26	  0.025010020	-7.260000E-01	  0.025010020	-1.631780E+02	  0.025010020	2.136000E+00	  0.025010020	-7.379000E+00
27	  0.025210422	-7.390000E-01	  0.025210422	-1.648320E+02	  0.025210422	2.165000E+00	  0.025210422	-6.644000E+00
28	  0.025410822	-7.530000E-01	  0.025410822	-1.665070E+02	  0.025410822	2.197000E+00	  0.025410822	-5.903000E+00
29	  0.025611224	-7.670000E-01	  0.025611224	-1.682030E+02	  0.025611224	2.231000E+00	  0.025611224	-5.155000E+00
30	  0.025811624	-7.780000E-01	  0.025811624	-1.699120E+02	  0.025811624	2.257000E+00	  0.025811624	-4.404000E+00
31	  0.026012026	-7.860000E-01	  0.026012026	-1.716240E+02	  0.026012026	2.274000E+00	  0.026012026	-3.653000E+00
32	  0.026212426	-7.990000E-01	  0.026212426	-1.733350E+02	  0.026212426	2.307000E+00	  0.026212426	-2.905000E+00
33	  0.026412826	-8.130000E-01	  0.026412826	-1.750560E+02	  0.026412826	2.344000E+00	  0.026412826	-2.153000E+00
34	  0.026613226	-8.270000E-01	  0.026613226	-1.767850E+02	  0.026613226	2.381000E+00	  0.026613226	-1.399000E+00
35	  0.026813626	-8.430000E-01	  0.026813626	-1.785350E+02	  0.026813626	2.425000E+00	  0.026813626	-6.370000E-01
36	  0.027014028	-8.600000E-01	  0.027014028	1.797070E+02	  0.027014028	2.475000E+00	  0.027014028	1.270000E-01
37	  0.027214428	-8.750000E-01	  0.027214428	1.779410E+02	  0.027214428	2.517000E+00	  0.027214428	8.960000E-01
38	  0.027414829	-8.910000E-01	  0.027414829	1.761590E+02	  0.027414829	2.567000E+00	  0.027414829	1.671000E+00
39	  0.027615231	-9.080000E-01	  0.027615231	1.743610E+02	  0.027615231	2.618000E+00	  0.027615231	2.455000E+00
40	  0.027815631	-9.290000E-01	  0.027815631	1.725710E+02	  0.027815631	2.682000E+00	  0.027815631	3.236000E+00
41	  0.028016033	-9.510000E-01	  0.028016033	1.707540E+02	  0.028016033	2.753000E+00	  0.028016033	4.030000E+00
42	  0.028216433	-9.720000E-01	  0.028216433	1.689460E+02	  0.028216433	2.823000E+00	  0.028216433	4.822000E+00
43	  0.028416833	-9.940000E-01	  0.028416833	1.671200E+02	  0.028416833	2.894000E+00	  0.028416833	5.624000E+00
44	  0.028617235	-1.013000E+00	  0.028617235	1.652980E+02	  0.028617235	2.962000E+00	  0.028617235	6.427000E+00
45	  0.028817635	-1.032000E+00	  0.028817635	1.634770E+02	  0.028817635	3.031000E+00	  0.028817635	7.233000E+00
46	  0.029018037	-1.054000E+00	  0.029018037	1.616740E+02	  0.029018037	3.109000E+00	  0.029018037	8.034000E+00
47	  0.029218437	-1.075000E+00	  0.029218437	1.598490E+02	  0.029218437	3.189000E+00	  0.029218437	8.849000E+00
48	  0.029418837	-1.099000E+00	  0.029418837	1.580170E+02	  0.029418837	3.280000E+00	  0.029418837	9.670000E+00
49	  0.029619239	-1.128000E+00	  0.029619239	1.561720E+02	  0.029619239	3.387000E+00	  0.029619239	1.050200E+01
50	  0.029819639	-1.158000E+00	  0.029819639	1.542890E+02	  0.029819639	3.501000E+00	  0.029819639	1.135700E+01
51	  0.030020041	-1.189000E+00	  0.030020041	1.523840E+02	  0.030020041	3.623000E+00	  0.030020041	1.222700E+01
52	  0.030220442	-1.218000E+00	  0.030220442	1.504600E+02	  0.030220442	3.744000E+00	  0.030220442	1.311200E+01
53	  0.030420844	-1.249000E+00	  0.030420844	1.485440E+02	  0.030420844	3.873000E+00	  0.030420844	1.400200E+01
54	  0.030621244	-1.282000E+00	  0.030621244	1.466390E+02	  0.030621244	4.013000E+00	  0.030621244	1.489300E+01
55	  0.030821644	-1.316000E+00	  0.030821644	1.447210E+02	  0.030821644	4.160000E+00	  0.030821644	1.579800E+01
56	  0.031022044	-1.351000E+00	  0.031022044	1.427900E+02	  0.031022044	4.319000E+00	  0.031022044	1.671800E+01
57	  0.031222444	-1.387000E+00	  0.031222444	1.408700E+02	  0.031222444	4.484000E+00	  0.031222444	1.764200E+01
58	  0.031422846	-1.424000E+00	  0.031422846	1.388720E+02	  0.031422846	4.662000E+00	  0.031422846	1.861400E+01
59	  0.031623244	-1.462000E+00	  0.031623244	1.368750E+02	  0.031623244	4.848000E+00	  0.031623244	1.959700E+01
60	  0.031823646	-1.495000E+00	  0.031823646	1.348710E+02	  0.031823646	5.029000E+00	  0.031823646	2.059700E+01
61	  0.032024048	-1.532000E+00	  0.032024048	1.328870E+02	  0.032024048	5.228000E+00	  0.032024048	2.159800E+01
62	  0.032224450	-1.566000E+00	  0.032224450	1.309040E+02	  0.032224450	5.424000E+00	  0.032224450	2.261300E+01
63	  0.032424849	-1.604000E+00	  0.032424849	1.289400E+02	  0.032424849	5.644000E+00	  0.032424849	2.363200E+01
64	  0.032625251	-1.643000E+00	  0.032625251	1.269650E+02	  0.032625251	5.877000E+00	  0.032625251	2.467100E+01
65	  0.032825653	-1.686000E+00	  0.032825653	1.249780E+02	  0.032825653	6.135000E+00	  0.032825653	2.573100E+01
66	  0.033026051	-1.733000E+00	  0.033026051	1.230100E+02	  0.033026051	6.419000E+00	  0.033026051	2.679500E+01
67	  0.033226453	-1.782000E+00	  0.033226453	1.210000E+02	  0.033226453	6.725000E+00	  0.033226453	2.789900E+01
68	  0.033426855	-1.839000E+00	  0.033426855	1.190060E+02	  0.033426855	7.076000E+00	  0.033426855	2.900800E+01
69	  0.033627257	-1.894000E+00	  0.033627257	1.169830E+02	  0.033627257	7.439000E+00	  0.033627257	3.015400E+01
70	  0.033827655	-1.948000E+00	  0.033827655	1.148970E+02	  0.033827655	7.820000E+00	  0.033827655	3.135900E+01
71	  0.034028057	-2.001000E+00	  0.034028057	1.127880E+02	  0.034028057	8.220000E+00	  0.034028057	3.260000E+01
72	  0.034228459	-2.052000E+00	  0.034228459	1.106800E+02	  0.034228459	8.634000E+00	  0.034228459	3.386700E+01
73	  0.034428857	-2.102000E+00	  0.034428857	1.085290E+02	  0.034428857	9.070000E+00	  0.034428857	3.518900E+01
74	  0.034629259	-2.148000E+00	  0.034629259	1.064290E+02	  0.034629259	9.511000E+00	  0.034629259	3.650900E+01
75	  0.034829661	-2.195000E+00	  0.034829661	1.043210E+02	  0.034829661	9.983000E+00	  0.034829661	3.786400E+01
76	  0.035030060	-2.238000E+00	  0.035030060	1.022280E+02	  0.035030060	1.046100E+01	  0.035030060	3.924200E+01
77	  0.035230462	-2.283000E+00	  0.035230462	1.001310E+02	  0.035230462	1.098200E+01	  0.035230462	4.065500E+01
78	  0.035430863	-2.330000E+00	  0.035430863	9.806600E+01	  0.035430863	1.154000E+01	  0.035430863	4.207700E+01
79	  0.035631265	-2.376000E+00	  0.035631265	9.597800E+01	  0.035631265	1.213300E+01	  0.035631265	4.355000E+01
80	  0.035831664	-2.423000E+00	  0.035831664	9.392600E+01	  0.035831664	1.276000E+01	  0.035831664	4.503300E+01
81	  0.036032066	-2.474000E+00	  0.036032066	9.189400E+01	  0.036032066	1.344200E+01	  0.036032066	4.653300E+01
82	  0.036232468	-2.523000E+00	  0.036232468	8.986700E+01	  0.036232468	1.416400E+01	  0.036232468	4.806700E+01
83	  0.036432866	-2.577000E+00	  0.036432866	8.784200E+01	  0.036432866	1.495800E+01	  0.036432866	4.963000E+01
84	  0.036633268	-2.637000E+00	  0.036633268	8.583200E+01	  0.036633268	1.583400E+01	  0.036633268	5.120900E+01
85	  0.036833670	-2.701000E+00	  0.036833670	8.379800E+01	  0.036833670	1.680100E+01	  0.036833670	5.283800E+01
86	  0.037034072	-2.766000E+00	  0.037034072	8.171600E+01	  0.037034072	1.785700E+01	  0.037034072	5.454500E+01
87	  0.037234470	-2.829000E+00	  0.037234470	7.962600E+01	  0.037234470	1.898000E+01	  0.037234470	5.630600E+01
88	  0.037434869	-2.896000E+00	  0.037434869	7.754100E+01	  0.037434869	2.020800E+01	  0.037434869	5.809600E+01
89	  0.037635271	-2.957000E+00	  0.037635271	7.544000E+01	  0.037635271	2.150200E+01	  0.037635271	5.995700E+01
90	  0.037835669	-3.019000E+00	  0.037835669	7.330800E+01	  0.037835669	2.292000E+01	  0.037835669	6.189000E+01
91	  0.038036071	-3.076000E+00	  0.038036071	7.114100E+01	  0.038036071	2.442800E+01	  0.038036071	6.392800E+01
92	  0.038236473	-3.136000E+00	  0.038236473	6.893900E+01	  0.038236473	2.610900E+01	  0.038236473	6.604100E+01
93	  0.038436871	-3.196000E+00	  0.038436871	6.677100E+01	  0.038436871	2.791500E+01	  0.038436871	6.816200E+01
94	  0.038637273	-3.253000E+00	  0.038637273	6.466000E+01	  0.038637273	2.981300E+01	  0.038637273	7.027800E+01
95	  0.038837675	-3.307000E+00	  0.038837675	6.258500E+01	  0.038837675	3.181900E+01	  0.038837675	7.241000E+01
96	  0.039038073	-3.359000E+00	  0.039038073	6.051400E+01	  0.039038073	3.397600E+01	  0.039038073	7.458500E+01
97	  0.039238475	-3.414000E+00	  0.039238475	5.849100E+01	  0.039238475	3.629400E+01	  0.039238475	7.671600E+01
98	  0.039438877	-3.476000E+00	  0.039438877	5.647300E+01	  0.039438877	3.886100E+01	  0.039438877	7.881300E+01
99	  0.039639279	-3.540000E+00	  0.039639279	5.444400E+01	  0.039639279	4.167100E+01	  0.039639279	8.091200E+01
100	  0.039839678	-3.604000E+00	  0.039839678	5.239500E+01	  0.039839678	4.474700E+01	  0.039839678	8.301700E+01
101	  0.040040080	-3.674000E+00	  0.040040080	5.033400E+01	  0.040040080	4.814700E+01	  0.040040080	8.505700E+01
102	  0.040240481	-3.740000E+00	  0.040240481	4.825400E+01	  0.040240481	5.183700E+01	  0.040240481	8.709100E+01
103	  0.040440880	-3.808000E+00	  0.040440880	4.618300E+01	  0.040440880	5.584000E+01	  0.040440880	8.900500E+01
104	  0.040641282	-3.875000E+00	  0.040641282	4.411400E+01	  0.040641282	6.015900E+01	  0.040641282	9.081700E+01
105	  0.040841684	-3.935000E+00	  0.040841684	4.203400E+01	  0.040841684	6.480600E+01	  0.040841684	9.256400E+01
106	  0.041042086	-3.997000E+00	  0.041042086	3.996600E+01	  0.041042086	6.981800E+01	  0.041042086	9.407700E+01
107	  0.041242484	-4.059000E+00	  0.041242484	3.790000E+01	  0.041242484	7.521100E+01	  0.041242484	9.534200E+01
108	  0.041442886	-4.121000E+00	  0.041442886	3.582000E+01	  0.041442886	8.104400E+01	  0.041442886	9.631000E+01
109	  0.041643288	-4.178000E+00	  0.041643288	3.374500E+01	  0.041643288	8.724800E+01	  0.041643288	9.696500E+01
110	  0.041843686	-4.232000E+00	  0.041843686	3.167700E+01	  0.041843686	9.382300E+01	  0.041843686	9.722900E+01
111	  0.042044088	-4.285000E+00	  0.042044088	2.964600E+01	  0.042044088	1.006710E+02	  0.042044088	9.693900E+01
112	  0.042244490	-4.339000E+00	  0.042244490	2.761800E+01	  0.042244490	1.078540E+02	  0.042244490	9.602200E+01
113	  0.042444889	-4.391000E+00	  0.042444889	2.560500E+01	  0.042444889	1.152710E+02	  0.042444889	9.446400E+01
114	  0.042645290	-4.446000E+00	  0.042645290	2.359900E+01	  0.042645290	1.228630E+02	  0.042645290	9.201700E+01
115	  0.042845692	-4.498000E+00	  0.042845692	2.160500E+01	  0.042845692	1.305160E+02	  0.042845692	8.877600E+01
116	  0.043046094	-4.551000E+00	  0.043046094	1.961500E+01	  0.043046094	1.381210E+02	  0.043046094	8.457100E+01
117	  0.043246493	-4.600000E+00	  0.043246493	1.761900E+01	  0.043246493	1.456150E+02	  0.043246493	7.944700E+01
118	  0.043446895	-4.652000E+00	  0.043446895	1.563500E+01	  0.043446895	1.526830E+02	  0.043446895	7.327700E+01
119	  0.043647297	-4.702000E+00	  0.043647297	1.367700E+01	  0.043647297	1.591410E+02	  0.043647297	6.621700E+01
120	  0.043847695	-4.757000E+00	  0.043847695	1.169500E+01	  0.043847695	1.648650E+02	  0.043847695	5.807500E+01
121	  0.044048097	-4.807000E+00	  0.044048097	9.723000E+00	  0.044048097	1.697280E+02	  0.044048097	4.923600E+01
122	  0.044248499	-4.855000E+00	  0.044248499	7.762000E+00	  0.044248499	1.736010E+02	  0.044248499	3.983700E+01
123	  0.044448901	-4.907000E+00	  0.044448901	5.828000E+00	  0.044448901	1.761090E+02	  0.044448901	3.002900E+01
124	  0.044649299	-4.953000E+00	  0.044649299	3.885000E+00	  0.044649299	1.776450E+02	  0.044649299	2.000700E+01
125	  0.044849701	-4.999000E+00	  0.044849701	1.938000E+00	  0.044849701	1.778930E+02	  0.044849701	9.899000E+00
126	  0.045050103	-5.041000E+00	  0.045050103	3.000000E-03	  0.045050103	1.771110E+02	  0.045050103	1.900000E-02
127	  0.045250501	-5.082000E+00	  0.045250501	-1.901000E+00	  0.045250501	1.751870E+02	  0.045250501	-9.386000E+00
128	  0.045450903	-5.127000E+00	  0.045450903	-3.787000E+00	  0.045450903	1.721770E+02	  0.045450903	-1.818700E+01
129	  0.045651305	-5.171000E+00	  0.045651305	-5.669000E+00	  0.045651305	1.683820E+02	  0.045651305	-2.635300E+01
130	  0.045851704	-5.214000E+00	  0.045851704	-7.537000E+00	  0.045851704	1.639110E+02	  0.045851704	-3.374800E+01
131	  0.046052106	-5.257000E+00	  0.046052106	-9.417000E+00	  0.046052106	1.588890E+02	  0.046052106	-4.043800E+01
132	  0.046252504	-5.298000E+00	  0.046252504	-1.129800E+01	  0.046252504	1.534920E+02	  0.046252504	-4.637400E+01
133	  0.046452906	-5.334000E+00	  0.046452906	-1.315000E+01	  0.046452906	1.479790E+02	  0.046452906	-5.152100E+01
134	  0.046653304	-5.370000E+00	  0.046653304	-1.501100E+01	  0.046653304	1.422570E+02	  0.046653304	-5.596300E+01
135	  0.046853706	-5.404000E+00	  0.046853706	-1.685500E+01	  0.046853706	1.365230E+02	  0.046853706	-5.969300E+01
136	  0.047054108	-5.439000E+00	  0.047054108	-1.869900E+01	  0.047054108	1.307900E+02	  0.047054108	-6.277800E+01
137	  0.047254506	-5.469000E+00	  0.047254506	-2.053700E+01	  0.047254506	1.251880E+02	  0.047254506	-6.534000E+01
138	  0.047454908	-5.500000E+00	  0.047454908	-2.234400E+01	  0.047454908	1.197720E+02	  0.047454908	-6.731700E+01
139	  0.047655310	-5.532000E+00	  0.047655310	-2.412400E+01	  0.047655310	1.145760E+02	  0.047655310	-6.878300E+01
140	  0.047855709	-5.563000E+00	  0.047855709	-2.587300E+01	  0.047855709	1.096410E+02	  0.047855709	-6.982000E+01
141	  0.048056111	-5.596000E+00	  0.048056111	-2.765300E+01	  0.048056111	1.048120E+02	  0.048056111	-7.051800E+01
142	  0.048256513	-5.624000E+00	  0.048256513	-2.940700E+01	  0.048256513	1.002720E+02	  0.048256513	-7.096700E+01
143	  0.048456915	-5.655000E+00	  0.048456915	-3.115500E+01	  0.048456915	9.594400E+01	  0.048456915	-7.109600E+01
144	  0.048657313	-5.679000E+00	  0.048657313	-3.292000E+01	  0.048657313	9.179700E+01	  0.048657313	-7.111600E+01
145	  0.048857715	-5.706000E+00	  0.048857715	-3.463900E+01	  0.048857715	8.795200E+01	  0.048857715	-7.088400E+01
146	  0.049058117	-5.730000E+00	  0.049058117	-3.636500E+01	  0.049058117	8.428600E+01	  0.049058117	-7.052400E+01
147	  0.049258515	-5.753000E+00	  0.049258515	-3.807500E+01	  0.049258515	8.083700E+01	  0.049258515	-7.003100E+01
148	  0.049458917	-5.778000E+00	  0.049458917	-3.980100E+01	  0.049458917	7.754400E+01	  0.049458917	-6.937800E+01
149	  0.049659319	-5.802000E+00	  0.049659319	-4.146400E+01	  0.049659319	7.453900E+01	  0.049659319	-6.865700E+01
150	  0.049859721	-5.823000E+00	  0.049859721	-4.316000E+01	  0.049859721	7.163000E+01	  0.049859721	-6.787400E+01
151	  0.050060119	-5.845000E+00	  0.050060119	-4.486000E+01	  0.050060119	6.887100E+01	  0.050060119	-6.701000E+01
152	  0.050260521	-5.863000E+00	  0.050260521	-4.653700E+01	  0.050260521	6.628800E+01	  0.050260521	-6.612900E+01
153	  0.050460923	-5.880000E+00	  0.050460923	-4.822400E+01	  0.050460923	6.382100E+01	  0.050460923	-6.520900E+01
154	  0.050661322	-5.890000E+00	  0.050661322	-4.986500E+01	  0.050661322	6.153000E+01	  0.050661322	-6.431600E+01
155	  0.050861724	-5.905000E+00	  0.050861724	-5.152600E+01	  0.050861724	5.934200E+01	  0.050861724	-6.333800E+01
156	  0.051062126	-5.918000E+00	  0.051062126	-5.312000E+01	  0.051062126	5.734800E+01	  0.051062126	-6.238100E+01
157	  0.051262524	-5.931000E+00	  0.051262524	-5.470800E+01	  0.051262524	5.545800E+01	  0.051262524	-6.140600E+01
158	  0.051462926	-5.944000E+00	  0.051462926	-5.626800E+01	  0.051462926	5.369600E+01	  0.051462926	-6.042600E+01
159	  0.051663328	-5.956000E+00	  0.051663328	-5.782500E+01	  0.051663328	5.202200E+01	  0.051663328	-5.944000E+01
160	  0.051863730	-5.972000E+00	  0.051863730	-5.939100E+01	  0.051863730	5.043300E+01	  0.051863730	-5.841500E+01
161	  0.052064128	-5.987000E+00	  0.052064128	-6.094600E+01	  0.052064128	4.892900E+01	  0.052064128	-5.739700E+01
162	  0.052264530	-5.999000E+00	  0.052264530	-6.250600E+01	  0.052264530	4.748500E+01	  0.052264530	-5.638900E+01
163	  0.052464932	-6.014000E+00	  0.052464932	-6.406700E+01	  0.052464932	4.611800E+01	  0.052464932	-5.536600E+01
164	  0.052665330	-6.028000E+00	  0.052665330	-6.563100E+01	  0.052665330	4.481200E+01	  0.052665330	-5.434600E+01
165	  0.052865732	-6.045000E+00	  0.052865732	-6.718400E+01	  0.052865732	4.358900E+01	  0.052865732	-5.332100E+01
166	  0.053066134	-6.053000E+00	  0.053066134	-6.873400E+01	  0.053066134	4.239100E+01	  0.053066134	-5.234700E+01
167	  0.053266536	-6.063000E+00	  0.053266536	-7.028300E+01	  0.053266536	4.125800E+01	  0.053266536	-5.136700E+01
168	  0.053466935	-6.068000E+00	  0.053466935	-7.182100E+01	  0.053466935	4.016800E+01	  0.053466935	-5.041800E+01
169	  0.053667337	-6.072000E+00	  0.053667337	-7.336100E+01	  0.053667337	3.911800E+01	  0.053667337	-4.948100E+01
170	  0.053867739	-6.074000E+00	  0.053867739	-7.488100E+01	  0.053867739	3.812400E+01	  0.053867739	-4.856500E+01
171	  0.054068137	-6.081000E+00	  0.054068137	-7.638100E+01	  0.054068137	3.720100E+01	  0.054068137	-4.764900E+01
172	  0.054268539	-6.084000E+00	  0.054268539	-7.785600E+01	  0.054268539	3.631700E+01	  0.054268539	-4.676900E+01
173	  0.054468941	-6.084000E+00	  0.054468941	-7.931000E+01	  0.054468941	3.547400E+01	  0.054468941	-4.591500E+01
174	  0.054669339	-6.087000E+00	  0.054669339	-8.073700E+01	  0.054669339	3.469200E+01	  0.054669339	-4.507100E+01
175	  0.054869737	-6.096000E+00	  0.054869737	-8.217300E+01	  0.054869737	3.395800E+01	  0.054869737	-4.420900E+01
176	  0.055070139	-6.097000E+00	  0.055070139	-8.359100E+01	  0.055070139	3.323500E+01	  0.055070139	-4.339000E+01
177	  0.055270538	-6.103000E+00	  0.055270538	-8.501600E+01	  0.055270538	3.255300E+01	  0.055270538	-4.256100E+01
178	  0.055470940	-6.110000E+00	  0.055470940	-8.644200E+01	  0.055470940	3.190300E+01	  0.055470940	-4.173200E+01
179	  0.055671342	-6.117000E+00	  0.055671342	-8.785600E+01	  0.055671342	3.128300E+01	  0.055671342	-4.092100E+01
180	  0.055871744	-6.118000E+00	  0.055871744	-8.926500E+01	  0.055871744	3.067200E+01	  0.055871744	-4.013200E+01
181	  0.056072142	-6.126000E+00	  0.056072142	-9.067700E+01	  0.056072142	3.010500E+01	  0.056072142	-3.933400E+01
182	  0.056272544	-6.131000E+00	  0.056272544	-9.208300E+01	  0.056272544	2.955100E+01	  0.056272544	-3.855400E+01
183	  0.056472946	-6.135000E+00	  0.056472946	-9.351000E+01	  0.056472946	2.901000E+01	  0.056472946	-3.777000E+01
184	  0.056673344	-6.132000E+00	  0.056673344	-9.487000E+01	  0.056673344	2.848700E+01	  0.056673344	-3.705000E+01
185	  0.056873746	-6.137000E+00	  0.056873746	-9.626100E+01	  0.056873746	2.800300E+01	  0.056873746	-3.629700E+01
186	  0.057074148	-6.135000E+00	  0.057074148	-9.765900E+01	  0.057074148	2.750800E+01	  0.057074148	-3.556600E+01
187	  0.057274550	-6.133000E+00	  0.057274550	-9.903100E+01	  0.057274550	2.704400E+01	  0.057274550	-3.485100E+01
188	  0.057474948	-6.136000E+00	  0.057474948	-1.003850E+02	  0.057474948	2.661500E+01	  0.057474948	-3.414300E+01
189	  0.057675350	-6.136000E+00	  0.057675350	-1.017180E+02	  0.057675350	2.620000E+01	  0.057675350	-3.345900E+01
190	  0.057875752	-6.134000E+00	  0.057875752	-1.030400E+02	  0.057875752	2.579500E+01	  0.057875752	-3.278900E+01
191	  0.058076151	-6.134000E+00	  0.058076151	-1.043340E+02	  0.058076151	2.542100E+01	  0.058076151	-3.213300E+01
192	  0.058276553	-6.135000E+00	  0.058276553	-1.056140E+02	  0.058276553	2.506600E+01	  0.058276553	-3.148900E+01
193	  0.058476955	-6.136000E+00	  0.058476955	-1.069130E+02	  0.058476955	2.471500E+01	  0.058476955	-3.084200E+01
194	  0.058677353	-6.139000E+00	  0.058677353	-1.082080E+02	  0.058677353	2.438900E+01	  0.058677353	-3.019600E+01
195	  0.058877755	-6.137000E+00	  0.058877755	-1.094880E+02	  0.058877755	2.405700E+01	  0.058877755	-2.957400E+01
196	  0.059078157	-6.142000E+00	  0.059078157	-1.107790E+02	  0.059078157	2.375800E+01	  0.059078157	-2.893800E+01
197	  0.059278559	-6.148000E+00	  0.059278559	-1.120490E+02	  0.059278559	2.347800E+01	  0.059278559	-2.831600E+01
198	  0.059478957	-6.151000E+00	  0.059478957	-1.133460E+02	  0.059478957	2.319300E+01	  0.059478957	-2.769100E+01
199	  0.059679359	-6.154000E+00	  0.059679359	-1.146270E+02	  0.059679359	2.291800E+01	  0.059679359	-2.708000E+01
200	  0.059879761	-6.154000E+00	  0.059879761	-1.158750E+02	  0.059879761	2.265200E+01	  0.059879761	-2.649200E+01
201	  0.060080159	-6.155000E+00	  0.060080159	-1.171620E+02	  0.060080159	2.239200E+01	  0.060080159	-2.588800E+01
202	  0.060280561	-6.157000E+00	  0.060280561	-1.184000E+02	  0.060280561	2.214900E+01	  0.060280561	-2.531200E+01
203	  0.060480963	-6.158000E+00	  0.060480963	-1.196590E+02	  0.060480963	2.191000E+01	  0.060480963	-2.473000E+01
204	  0.060681365	-6.157000E+00	  0.060681365	-1.208820E+02	  0.060681365	2.168100E+01	  0.060681365	-2.417100E+01
205	  0.060881764	-6.155000E+00	  0.060881764	-1.221230E+02	  0.060881764	2.145100E+01	  0.060881764	-2.360900E+01
206	  0.061082166	-6.155000E+00	  0.061082166	-1.233650E+02	  0.061082166	2.123600E+01	  0.061082166	-2.304800E+01
207	  0.061282568	-6.153000E+00	  0.061282568	-1.245650E+02	  0.061282568	2.102900E+01	  0.061282568	-2.251100E+01
208	  0.061482966	-6.150000E+00	  0.061482966	-1.257290E+02	  0.061482966	2.083100E+01	  0.061482966	-2.199500E+01
209	  0.061683368	-6.150000E+00	  0.061683368	-1.269220E+02	  0.061683368	2.064400E+01	  0.061683368	-2.146600E+01
210	  0.061883770	-6.151000E+00	  0.061883770	-1.280930E+02	  0.061883770	2.046800E+01	  0.061883770	-2.094800E+01
211	  0.062084168	-6.152000E+00	  0.062084168	-1.292530E+02	  0.062084168	2.029800E+01	  0.062084168	-2.043900E+01
212	  0.062284570	-6.154000E+00	  0.062284570	-1.304220E+02	  0.062284570	2.014000E+01	  0.062284570	-1.992700E+01
213	  0.062484972	-6.150000E+00	  0.062484972	-1.315390E+02	  0.062484972	1.997300E+01	  0.062484972	-1.944600E+01
214	  0.062685370	-6.156000E+00	  0.062685370	-1.327320E+02	  0.062685370	1.983100E+01	  0.062685370	-1.892600E+01
215	  0.062885776	-6.158000E+00	  0.062885776	-1.338790E+02	  0.062885776	1.968900E+01	  0.062885776	-1.843200E+01
216	  0.063086174	-6.163000E+00	  0.063086174	-1.350270E+02	  0.063086174	1.956100E+01	  0.063086174	-1.793800E+01
217	  0.063286573	-6.164000E+00	  0.063286573	-1.361870E+02	  0.063286573	1.942300E+01	  0.063286573	-1.744500E+01
218	  0.063486971	-6.165000E+00	  0.063486971	-1.373520E+02	  0.063486971	1.928900E+01	  0.063486971	-1.695200E+01
219	  0.063687377	-6.159000E+00	  0.063687377	-1.385010E+02	  0.063687377	1.914600E+01	  0.063687377	-1.647200E+01
220	  0.063887775	-6.159000E+00	  0.063887775	-1.396400E+02	  0.063887775	1.902300E+01	  0.063887775	-1.599600E+01
221	  0.064088173	-6.163000E+00	  0.064088173	-1.407900E+02	  0.064088173	1.891300E+01	  0.064088173	-1.551400E+01
222	  0.064288579	-6.162000E+00	  0.064288579	-1.419110E+02	  0.064288579	1.879900E+01	  0.064288579	-1.504900E+01
223	  0.064488977	-6.158000E+00	  0.064488977	-1.430270E+02	  0.064488977	1.867900E+01	  0.064488977	-1.459000E+01
224	  0.064689375	-6.165000E+00	  0.064689375	-1.441170E+02	  0.064689375	1.859500E+01	  0.064689375	-1.413700E+01
225	  0.064889781	-6.161000E+00	  0.064889781	-1.452170E+02	  0.064889781	1.848500E+01	  0.064889781	-1.368900E+01
226	  0.065090179	-6.162000E+00	  0.065090179	-1.463040E+02	  0.065090179	1.839500E+01	  0.065090179	-1.324400E+01
227	  0.065290578	-6.166000E+00	  0.065290578	-1.473750E+02	  0.065290578	1.831400E+01	  0.065290578	-1.280600E+01
228	  0.065490983	-6.163000E+00	  0.065490983	-1.484690E+02	  0.065490983	1.822100E+01	  0.065490983	-1.236300E+01
229	  0.065691382	-6.166000E+00	  0.065691382	-1.495680E+02	  0.065691382	1.814300E+01	  0.065691382	-1.191700E+01
230	  0.065891780	-6.171000E+00	  0.065891780	-1.506340E+02	  0.065891780	1.807800E+01	  0.065891780	-1.148500E+01
231	  0.066092186	-6.175000E+00	  0.066092186	-1.517040E+02	  0.066092186	1.801100E+01	  0.066092186	-1.105400E+01
232	  0.066292584	-6.176000E+00	  0.066292584	-1.527710E+02	  0.066292584	1.794300E+01	  0.066292584	-1.062600E+01
233	  0.066492982	-6.178000E+00	  0.066492982	-1.538390E+02	  0.066492982	1.787700E+01	  0.066492982	-1.019900E+01
234	  0.066693388	-6.180000E+00	  0.066693388	-1.549050E+02	  0.066693388	1.781700E+01	  0.066693388	-9.773000E+00
235	  0.066893786	-6.183000E+00	  0.066893786	-1.559420E+02	  0.066893786	1.776300E+01	  0.066893786	-9.360000E+00
236	  0.067094192	-6.186000E+00	  0.067094192	-1.570070E+02	  0.067094192	1.770900E+01	  0.067094192	-8.938000E+00
237	  0.067294590	-6.191000E+00	  0.067294590	-1.580370E+02	  0.067294590	1.766700E+01	  0.067294590	-8.529000E+00
238	  0.067494988	-6.186000E+00	  0.067494988	-1.590980E+02	  0.067494988	1.760000E+01	  0.067494988	-8.112000E+00
239	  0.067695394	-6.194000E+00	  0.067695394	-1.601210E+02	  0.067695394	1.757100E+01	  0.067695394	-7.708000E+00
240	  0.067895792	-6.196000E+00	  0.067895792	-1.611570E+02	  0.067895792	1.753000E+01	  0.067895792	-7.300000E+00
241	  0.068096191	-6.200000E+00	  0.068096191	-1.621800E+02	  0.068096191	1.749500E+01	  0.068096191	-6.899000E+00
242	  0.068296596	-6.201000E+00	  0.068296596	-1.632190E+02	  0.068296596	1.745500E+01	  0.068296596	-6.492000E+00
243	  0.068496995	-6.206000E+00	  0.068496995	-1.642190E+02	  0.068496995	1.742900E+01	  0.068496995	-6.101000E+00
244	  0.068697393	-6.208000E+00	  0.068697393	-1.652480E+02	  0.068697393	1.739900E+01	  0.068697393	-5.700000E+00
245	  0.068897791	-6.208000E+00	  0.068897791	-1.662190E+02	  0.068897791	1.736700E+01	  0.068897791	-5.322000E+00
246	  0.069098189	-6.214000E+00	  0.069098189	-1.672340E+02	  0.069098189	1.734900E+01	  0.069098189	-4.926000E+00
247	  0.069298595	-6.215000E+00	  0.069298595	-1.682150E+02	  0.069298595	1.732400E+01	  0.069298595	-4.546000E+00
248	  0.069498993	-6.219000E+00	  0.069498993	-1.692090E+02	  0.069498993	1.730800E+01	  0.069498993	-4.160000E+00
249	  0.069699399	-6.230000E+00	  0.069699399	-1.701960E+02	  0.069699399	1.731300E+01	  0.069699399	-3.777000E+00
250	  0.069899797	-6.234000E+00	  0.069899797	-1.712030E+02	  0.069899797	1.730000E+01	  0.069899797	-3.387000E+00
251	  0.070100196	-6.239000E+00	  0.070100196	-1.721940E+02	  0.070100196	1.729500E+01	  0.070100196	-3.004000E+00
252	  0.070300601	-6.241000E+00	  0.070300601	-1.731570E+02	  0.070300601	1.728300E+01	  0.070300601	-2.632000E+00
253	  0.070501000	-6.244000E+00	  0.070501000	-1.741290E+02	  0.070501000	1.727700E+01	  0.070501000	-2.258000E+00
254	  0.070701398	-6.249000E+00	  0.070701398	-1.751100E+02	  0.070701398	1.727600E+01	  0.070701398	-1.880000E+00
255	  0.070901804	-6.255000E+00	  0.070901804	-1.760930E+02	  0.070901804	1.728200E+01	  0.070901804	-1.501000E+00
256	  0.071102202	-6.261000E+00	  0.071102202	-1.770850E+02	  0.071102202	1.728900E+01	  0.071102202	-1.119000E+00
257	  0.071302600	-6.268000E+00	  0.071302600	-1.780300E+02	  0.071302600	1.730100E+01	  0.071302600	-7.560000E-01
258	  0.071503006	-6.275000E+00	  0.071503006	-1.789810E+02	  0.071503006	1.731600E+01	  0.071503006	-3.900000E-01
259	  0.071703404	-6.284000E+00	  0.071703404	-1.799150E+02	  0.071703404	1.733700E+01	  0.071703404	-3.200000E-02
260	  0.071903802	-6.292000E+00	  0.071903802	1.791050E+02	  0.071903802	1.735900E+01	  0.071903802	3.430000E-01
261	  0.072104208	-6.295000E+00	  0.072104208	1.781640E+02	  0.072104208	1.737000E+01	  0.072104208	7.040000E-01
262	  0.072304606	-6.305000E+00	  0.072304606	1.772310E+02	  0.072304606	1.740000E+01	  0.072304606	1.062000E+00
263	  0.072505005	-6.311000E+00	  0.072505005	1.763100E+02	  0.072505005	1.742300E+01	  0.072505005	1.415000E+00
264	  0.072705410	-6.316000E+00	  0.072705410	1.753570E+02	  0.072705410	1.744500E+01	  0.072705410	1.780000E+00
265	  0.072905809	-6.325000E+00	  0.072905809	1.744260E+02	  0.072905809	1.747700E+01	  0.072905809	2.136000E+00
266	  0.073106214	-6.329000E+00	  0.073106214	1.734960E+02	  0.073106214	1.750100E+01	  0.073106214	2.493000E+00
267	  0.073306613	-6.340000E+00	  0.073306613	1.725830E+02	  0.073306613	1.754500E+01	  0.073306613	2.842000E+00
268	  0.073507011	-6.346000E+00	  0.073507011	1.716550E+02	  0.073507011	1.757700E+01	  0.073507011	3.198000E+00
269	  0.073707417	-6.351000E+00	  0.073707417	1.707540E+02	  0.073707417	1.760900E+01	  0.073707417	3.544000E+00
270	  0.073907815	-6.362000E+00	  0.073907815	1.698330E+02	  0.073907815	1.765600E+01	  0.073907815	3.896000E+00
271	  0.074108213	-6.370000E+00	  0.074108213	1.689130E+02	  0.074108213	1.770000E+01	  0.074108213	4.249000E+00
272	  0.074308619	-6.375000E+00	  0.074308619	1.680200E+02	  0.074308619	1.773700E+01	  0.074308619	4.592000E+00
273	  0.074509017	-6.385000E+00	  0.074509017	1.671250E+02	  0.074509017	1.779000E+01	  0.074509017	4.935000E+00
274	  0.074709415	-6.394000E+00	  0.074709415	1.662270E+02	  0.074709415	1.784200E+01	  0.074709415	5.279000E+00
275	  0.074909821	-6.407000E+00	  0.074909821	1.653380E+02	  0.074909821	1.790400E+01	  0.074909821	5.619000E+00
276	  0.075110219	-6.415000E+00	  0.075110219	1.644660E+02	  0.075110219	1.795700E+01	  0.075110219	5.954000E+00
277	  0.075310618	-6.423000E+00	  0.075310618	1.635910E+02	  0.075310618	1.801100E+01	  0.075310618	6.289000E+00
278	  0.075511023	-6.435000E+00	  0.075511023	1.627250E+02	  0.075511023	1.807500E+01	  0.075511023	6.622000E+00
279	  0.075711422	-6.445000E+00	  0.075711422	1.618190E+02	  0.075711422	1.813900E+01	  0.075711422	6.969000E+00
280	  0.075911827	-6.459000E+00	  0.075911827	1.609440E+02	  0.075911827	1.821500E+01	  0.075911827	7.304000E+00
281	  0.076112226	-6.464000E+00	  0.076112226	1.600880E+02	  0.076112226	1.826900E+01	  0.076112226	7.635000E+00
282	  0.076312624	-6.475000E+00	  0.076312624	1.591910E+02	  0.076312624	1.834300E+01	  0.076312624	7.980000E+00
283	  0.076513030	-6.492000E+00	  0.076513030	1.583290E+02	  0.076513030	1.843000E+01	  0.076513030	8.309000E+00
284	  0.076713428	-6.498000E+00	  0.076713428	1.574600E+02	  0.076713428	1.849300E+01	  0.076713428	8.645000E+00
285	  0.076913826	-6.508000E+00	  0.076913826	1.566130E+02	  0.076913826	1.856700E+01	  0.076913826	8.972000E+00
286	  0.077114232	-6.519000E+00	  0.077114232	1.557680E+02	  0.077114232	1.864500E+01	  0.077114232	9.298000E+00
287	  0.077314630	-6.531000E+00	  0.077314630	1.549120E+02	  0.077314630	1.873000E+01	  0.077314630	9.627000E+00
288	  0.077515028	-6.541000E+00	  0.077515028	1.540510E+02	  0.077515028	1.881200E+01	  0.077515028	9.960000E+00
289	  0.077715434	-6.554000E+00	  0.077715434	1.532010E+02	  0.077715434	1.890200E+01	  0.077715434	1.028800E+01
290	  0.077915832	-6.566000E+00	  0.077915832	1.523450E+02	  0.077915832	1.899200E+01	  0.077915832	1.061800E+01
291	  0.078116231	-6.582000E+00	  0.078116231	1.515090E+02	  0.078116231	1.909200E+01	  0.078116231	1.094000E+01
292	  0.078316636	-6.594000E+00	  0.078316636	1.506500E+02	  0.078316636	1.918700E+01	  0.078316636	1.127300E+01
293	  0.078517035	-6.611000E+00	  0.078517035	1.498400E+02	  0.078517035	1.929300E+01	  0.078517035	1.158300E+01
294	  0.078717433	-6.628000E+00	  0.078717433	1.489840E+02	  0.078717433	1.940700E+01	  0.078717433	1.191200E+01
295	  0.078917839	-6.639000E+00	  0.078917839	1.481750E+02	  0.078917839	1.950200E+01	  0.078917839	1.222700E+01
296	  0.079118237	-6.658000E+00	  0.079118237	1.473270E+02	  0.079118237	1.962200E+01	  0.079118237	1.255200E+01
297	  0.079318643	-6.673000E+00	  0.079318643	1.465020E+02	  0.079318643	1.973300E+01	  0.079318643	1.287100E+01
298	  0.079519041	-6.686000E+00	  0.079519041	1.456760E+02	  0.079519041	1.984300E+01	  0.079519041	1.319200E+01
299	  0.079719439	-6.702000E+00	  0.079719439	1.448490E+02	  0.079719439	1.996200E+01	  0.079719439	1.351100E+01
300	  0.079919845	-6.717000E+00	  0.079919845	1.440290E+02	  0.079919845	2.007900E+01	  0.079919845	1.382900E+01
301	  0.080120243	-6.733000E+00	  0.080120243	1.431930E+02	  0.080120243	2.020400E+01	  0.080120243	1.415300E+01
302	  0.080320641	-6.748000E+00	  0.080320641	1.423790E+02	  0.080320641	2.032700E+01	  0.080320641	1.446800E+01
303	  0.080521047	-6.766000E+00	  0.080521047	1.415710E+02	  0.080521047	2.045700E+01	  0.080521047	1.478100E+01
304	  0.080721445	-6.784000E+00	  0.080721445	1.407820E+02	  0.080721445	2.058900E+01	  0.080721445	1.508500E+01
305	  0.080921844	-6.799000E+00	  0.080921844	1.399750E+02	  0.080921844	2.071900E+01	  0.080921844	1.539800E+01
306	  0.081122249	-6.818000E+00	  0.081122249	1.391940E+02	  0.081122249	2.085500E+01	  0.081122249	1.570000E+01
307	  0.081322648	-6.838000E+00	  0.081322648	1.384080E+02	  0.081322648	2.100100E+01	  0.081322648	1.600200E+01
308	  0.081523046	-6.853000E+00	  0.081523046	1.376350E+02	  0.081523046	2.113300E+01	  0.081523046	1.630200E+01
309	  0.081723452	-6.871000E+00	  0.081723452	1.368440E+02	  0.081723452	2.127700E+01	  0.081723452	1.660800E+01
310	  0.081923850	-6.889000E+00	  0.081923850	1.360660E+02	  0.081923850	2.142200E+01	  0.081923850	1.690900E+01
311	  0.082124248	-6.915000E+00	  0.082124248	1.353260E+02	  0.082124248	2.158600E+01	  0.082124248	1.718800E+01
312	  0.082324654	-6.931000E+00	  0.082324654	1.345830E+02	  0.082324654	2.172700E+01	  0.082324654	1.747700E+01
313	  0.082525052	-6.956000E+00	  0.082525052	1.338390E+02	  0.082525052	2.189400E+01	  0.082525052	1.775700E+01
314	  0.082725458	-6.984000E+00	  0.082725458	1.330790E+02	  0.082725458	2.207500E+01	  0.082725458	1.804200E+01
315	  0.082925856	-7.006000E+00	  0.082925856	1.323120E+02	  0.082925856	2.224000E+01	  0.082925856	1.833500E+01
316	  0.083126254	-7.030000E+00	  0.083126254	1.315300E+02	  0.083126254	2.241900E+01	  0.083126254	1.863200E+01
317	  0.083326660	-7.051000E+00	  0.083326660	1.307950E+02	  0.083326660	2.258200E+01	  0.083326660	1.891300E+01
318	  0.083527058	-7.071000E+00	  0.083527058	1.300500E+02	  0.083527058	2.275000E+01	  0.083527058	1.919800E+01
319	  0.083727457	-7.091000E+00	  0.083727457	1.293000E+02	  0.083727457	2.291900E+01	  0.083727457	1.948600E+01
320	  0.083927862	-7.112000E+00	  0.083927862	1.285680E+02	  0.083927862	2.309300E+01	  0.083927862	1.976500E+01
321	  0.084128261	-7.135000E+00	  0.084128261	1.278570E+02	  0.084128261	2.326900E+01	  0.084128261	2.003300E+01
322	  0.084328659	-7.155000E+00	  0.084328659	1.271400E+02	  0.084328659	2.344000E+01	  0.084328659	2.030700E+01
323	  0.084529065	-7.183000E+00	  0.084529065	1.264130E+02	  0.084529065	2.364000E+01	  0.084529065	2.057600E+01
324	  0.084729463	-7.204000E+00	  0.084729463	1.256930E+02	  0.084729463	2.382100E+01	  0.084729463	2.084900E+01
325	  0.084929861	-7.226000E+00	  0.084929861	1.249780E+02	  0.084929861	2.400500E+01	  0.084929861	2.112000E+01
326	  0.085130267	-7.250000E+00	  0.085130267	1.242920E+02	  0.085130267	2.419400E+01	  0.085130267	2.137500E+01
327	  0.085330658	-7.273000E+00	  0.085330658	1.236100E+02	  0.085330658	2.438200E+01	  0.085330658	2.162900E+01
328	  0.085531056	-7.297000E+00	  0.085531056	1.228930E+02	  0.085531056	2.457900E+01	  0.085531056	2.189800E+01
329	  0.085731462	-7.325000E+00	  0.085731462	1.222240E+02	  0.085731462	2.478300E+01	  0.085731462	2.214000E+01
330	  0.085931860	-7.349000E+00	  0.085931860	1.215260E+02	  0.085931860	2.498400E+01	  0.085931860	2.239800E+01
331	  0.086132258	-7.373000E+00	  0.086132258	1.208620E+02	  0.086132258	2.518100E+01	  0.086132258	2.264300E+01
332	  0.086332664	-7.401000E+00	  0.086332664	1.201490E+02	  0.086332664	2.540100E+01	  0.086332664	2.290200E+01
333	  0.086533062	-7.421000E+00	  0.086533062	1.194580E+02	  0.086533062	2.559700E+01	  0.086533062	2.316200E+01
334	  0.086733460	-7.445000E+00	  0.086733460	1.187680E+02	  0.086733460	2.580700E+01	  0.086733460	2.341600E+01
335	  0.086933866	-7.466000E+00	  0.086933866	1.180810E+02	  0.086933866	2.601200E+01	  0.086933866	2.367200E+01
336	  0.087134264	-7.492000E+00	  0.087134264	1.174010E+02	  0.087134264	2.622900E+01	  0.087134264	2.391800E+01
337	  0.087334670	-7.515000E+00	  0.087334670	1.167070E+02	  0.087334670	2.644700E+01	  0.087334670	2.417300E+01
338	  0.087535068	-7.541000E+00	  0.087535068	1.161030E+02	  0.087535068	2.665400E+01	  0.087535068	2.438500E+01
339	  0.087735467	-7.565000E+00	  0.087735467	1.154370E+02	  0.087735467	2.687200E+01	  0.087735467	2.462700E+01
340	  0.087935872	-7.592000E+00	  0.087935872	1.147660E+02	  0.087935872	2.710300E+01	  0.087935872	2.486400E+01
341	  0.088136271	-7.613000E+00	  0.088136271	1.140970E+02	  0.088136271	2.731900E+01	  0.088136271	2.511000E+01
342	  0.088336669	-7.635000E+00	  0.088336669	1.134620E+02	  0.088336669	2.753300E+01	  0.088336669	2.533900E+01
343	  0.088537075	-7.658000E+00	  0.088537075	1.128350E+02	  0.088537075	2.775100E+01	  0.088537075	2.556200E+01
344	  0.088737473	-7.682000E+00	  0.088737473	1.122400E+02	  0.088737473	2.796400E+01	  0.088737473	2.577100E+01
345	  0.088937871	-7.709000E+00	  0.088937871	1.116150E+02	  0.088937871	2.819600E+01	  0.088937871	2.598500E+01
346	  0.089138277	-7.732000E+00	  0.089138277	1.110250E+02	  0.089138277	2.841100E+01	  0.089138277	2.619200E+01
347	  0.089338675	-7.770000E+00	  0.089338675	1.104340E+02	  0.089338675	2.867000E+01	  0.089338675	2.637100E+01
348	  0.089539073	-7.793000E+00	  0.089539073	1.098080E+02	  0.089539073	2.890000E+01	  0.089539073	2.658900E+01
349	  0.089739479	-7.823000E+00	  0.089739479	1.091900E+02	  0.089739479	2.914900E+01	  0.089739479	2.679200E+01
350	  0.089939877	-7.844000E+00	  0.089939877	1.085920E+02	  0.089939877	2.937100E+01	  0.089939877	2.700000E+01
351	  0.090140276	-7.876000E+00	  0.090140276	1.079730E+02	  0.090140276	2.962900E+01	  0.090140276	2.719800E+01
352	  0.090340681	-7.898000E+00	  0.090340681	1.073620E+02	  0.090340681	2.986500E+01	  0.090340681	2.740700E+01
353	  0.090541080	-7.929000E+00	  0.090541080	1.067520E+02	  0.090541080	3.012500E+01	  0.090541080	2.759900E+01
354	  0.090741485	-7.957000E+00	  0.090741485	1.061680E+02	  0.090741485	3.037100E+01	  0.090741485	2.778500E+01
355	  0.090941884	-7.984000E+00	  0.090941884	1.055970E+02	  0.090941884	3.061300E+01	  0.090941884	2.796500E+01
356	  0.091142282	-8.010000E+00	  0.091142282	1.050080E+02	  0.091142282	3.086000E+01	  0.091142282	2.815500E+01
357	  0.091342688	-8.035000E+00	  0.091342688	1.044600E+02	  0.091342688	3.109500E+01	  0.091342688	2.832800E+01
358	  0.091543086	-8.062000E+00	  0.091543086	1.038690E+02	  0.091543086	3.135000E+01	  0.091543086	2.851400E+01
359	  0.091743484	-8.085000E+00	  0.091743484	1.033170E+02	  0.091743484	3.158600E+01	  0.091743484	2.869000E+01
360	  0.091943890	-8.114000E+00	  0.091943890	1.027710E+02	  0.091943890	3.183700E+01	  0.091943890	2.885100E+01
361	  0.092144288	-8.139000E+00	  0.092144288	1.022300E+02	  0.092144288	3.207700E+01	  0.092144288	2.901800E+01
362	  0.092344686	-8.167000E+00	  0.092344686	1.017220E+02	  0.092344686	3.231800E+01	  0.092344686	2.916100E+01
363	  0.092545092	-8.193000E+00	  0.092545092	1.011950E+02	  0.092545092	3.256300E+01	  0.092545092	2.931500E+01
364	  0.092745490	-8.221000E+00	  0.092745490	1.006820E+02	  0.092745490	3.280800E+01	  0.092745490	2.945900E+01
365	  0.092945889	-8.250000E+00	  0.092945889	1.001370E+02	  0.092945889	3.307000E+01	  0.092945889	2.961200E+01
366	  0.093146294	-8.280000E+00	  0.093146294	9.962900E+01	  0.093146294	3.332200E+01	  0.093146294	2.974700E+01
367	  0.093346693	-8.307000E+00	  0.093346693	9.912100E+01	  0.093346693	3.356900E+01	  0.093346693	2.988700E+01
368	  0.093547091	-8.327000E+00	  0.093547091	9.859600E+01	  0.093547091	3.380600E+01	  0.093547091	3.004700E+01
369	  0.093747497	-8.354000E+00	  0.093747497	9.804500E+01	  0.093747497	3.407400E+01	  0.093747497	3.019900E+01
370	  0.093947895	-8.380000E+00	  0.093947895	9.756900E+01	  0.093947895	3.431300E+01	  0.093947895	3.032500E+01
371	  0.094148301	-8.406000E+00	  0.094148301	9.703700E+01	  0.094148301	3.457400E+01	  0.094148301	3.047000E+01
372	  0.094348699	-8.429000E+00	  0.094348699	9.658300E+01	  0.094348699	3.480200E+01	  0.094348699	3.059000E+01
373	  0.094549097	-8.454000E+00	  0.094549097	9.609700E+01	  0.094549097	3.504600E+01	  0.094549097	3.071800E+01
374	  0.094749503	-8.474000E+00	  0.094749503	9.564200E+01	  0.094749503	3.527100E+01	  0.094749503	3.084100E+01
375	  0.094949901	-8.494000E+00	  0.094949901	9.517000E+01	  0.094949901	3.550000E+01	  0.094949901	3.097500E+01
376	  0.095150299	-8.514000E+00	  0.095150299	9.471700E+01	  0.095150299	3.572700E+01	  0.095150299	3.109600E+01
377	  0.095350705	-8.535000E+00	  0.095350705	9.425500E+01	  0.095350705	3.595700E+01	  0.095350705	3.122000E+01
378	  0.095551103	-8.553000E+00	  0.095551103	9.381000E+01	  0.095551103	3.618000E+01	  0.095551103	3.134000E+01
379	  0.095751502	-8.576000E+00	  0.095751502	9.337300E+01	  0.095751502	3.641100E+01	  0.095751502	3.144500E+01
380	  0.095951907	-8.597000E+00	  0.095951907	9.293700E+01	  0.095951907	3.663800E+01	  0.095951907	3.155300E+01
381	  0.096152306	-8.615000E+00	  0.096152306	9.251700E+01	  0.096152306	3.685200E+01	  0.096152306	3.166500E+01
382	  0.096352704	-8.636000E+00	  0.096352704	9.209500E+01	  0.096352704	3.707700E+01	  0.096352704	3.176500E+01
383	  0.096553110	-8.650000E+00	  0.096553110	9.167800E+01	  0.096553110	3.728200E+01	  0.096553110	3.188300E+01
384	  0.096753508	-8.666000E+00	  0.096753508	9.123300E+01	  0.096753508	3.750700E+01	  0.096753508	3.200400E+01
385	  0.096953906	-8.682000E+00	  0.096953906	9.077600E+01	  0.096953906	3.773900E+01	  0.096953906	3.212700E+01
386	  0.097154312	-8.702000E+00	  0.097154312	9.035700E+01	  0.097154312	3.796600E+01	  0.097154312	3.222500E+01
387	  0.097354710	-8.715000E+00	  0.097354710	8.996900E+01	  0.097354710	3.816400E+01	  0.097354710	3.233000E+01
388	  0.097555116	-8.732000E+00	  0.097555116	8.953600E+01	  0.097555116	3.839200E+01	  0.097555116	3.243700E+01
389	  0.097755514	-8.742000E+00	  0.097755514	8.914400E+01	  0.097755514	3.858800E+01	  0.097755514	3.255000E+01
390	  0.097955912	-8.751000E+00	  0.097955912	8.872700E+01	  0.097955912	3.879200E+01	  0.097955912	3.267600E+01
391	  0.098156318	-8.760000E+00	  0.098156318	8.833300E+01	  0.098156318	3.898900E+01	  0.098156318	3.278900E+01
392	  0.098356716	-8.763000E+00	  0.098356716	8.790300E+01	  0.098356716	3.918900E+01	  0.098356716	3.293600E+01
393	  0.098557115	-8.772000E+00	  0.098557115	8.749100E+01	  0.098557115	3.939500E+01	  0.098557115	3.305700E+01
394	  0.098757520	-8.772000E+00	  0.098757520	8.708100E+01	  0.098757520	3.958200E+01	  0.098757520	3.320300E+01
395	  0.098957919	-8.783000E+00	  0.098957919	8.667700E+01	  0.098957919	3.979600E+01	  0.098957919	3.331100E+01
396	  0.099158317	-8.787000E+00	  0.099158317	8.629500E+01	  0.099158317	3.998200E+01	  0.099158317	3.343400E+01
397	  0.099358723	-8.790000E+00	  0.099358723	8.590400E+01	  0.099358723	4.017100E+01	  0.099358723	3.356300E+01
398	  0.099559121	-8.796000E+00	  0.099559121	8.548700E+01	  0.099559121	4.038200E+01	  0.099559121	3.369100E+01
399	  0.099759519	-8.793000E+00	  0.099759519	8.511200E+01	  0.099759519	4.055500E+01	  0.099759519	3.383000E+01
400	  0.099959925	-8.786000E+00	  0.099959925	8.472400E+01	  0.099959925	4.072600E+01	  0.099959925	3.398800E+01
401	  0.100160323	-8.792000E+00	  0.100160323	8.433300E+01	  0.100160323	4.092800E+01	  0.100160323	3.410600E+01
402	  0.100360721	-8.782000E+00	  0.100360721	8.392800E+01	  0.100360721	4.110500E+01	  0.100360721	3.427600E+01
403	  0.100561127	-8.796000E+00	  0.100561127	8.351800E+01	  0.100561127	4.133800E+01	  0.100561127	3.437500E+01
404	  0.100761525	-8.775000E+00	  0.100761525	8.314800E+01	  0.100761525	4.147500E+01	  0.100761525	3.457000E+01
405	  0.100961931	-8.780000E+00	  0.100961931	8.266300E+01	  0.100961931	4.173200E+01	  0.100961931	3.471900E+01
406	  0.101162329	-8.773000E+00	  0.101162329	8.228100E+01	  0.101162329	4.190800E+01	  0.101162329	3.487600E+01
407	  0.101362728	-8.769000E+00	  0.101362728	8.188100E+01	  0.101362728	4.210600E+01	  0.101362728	3.502300E+01
408	  0.101563133	-8.759000E+00	  0.101563133	8.144200E+01	  0.101563133	4.230900E+01	  0.101563133	3.521000E+01
409	  0.101763532	-8.760000E+00	  0.101763532	8.099000E+01	  0.101763532	4.254700E+01	  0.101763532	3.536000E+01
410	  0.101963930	-8.745000E+00	  0.101963930	8.054700E+01	  0.101963930	4.274900E+01	  0.101963930	3.555900E+01
411	  0.102164336	-8.737000E+00	  0.102164336	8.015900E+01	  0.102164336	4.293700E+01	  0.102164336	3.571900E+01
412	  0.102364734	-8.731000E+00	  0.102364734	7.970800E+01	  0.102364734	4.316700E+01	  0.102364734	3.589300E+01
413	  0.102565132	-8.716000E+00	  0.102565132	7.927400E+01	  0.102565132	4.336900E+01	  0.102565132	3.609300E+01
414	  0.102765530	-8.698000E+00	  0.102765530	7.886700E+01	  0.102765530	4.355400E+01	  0.102765530	3.629400E+01
415	  0.102965929	-8.699000E+00	  0.102965929	7.835900E+01	  0.102965929	4.383700E+01	  0.102965929	3.646000E+01
416	  0.103166327	-8.677000E+00	  0.103166327	7.793300E+01	  0.103166327	4.402800E+01	  0.103166327	3.668300E+01
417	  0.103366733	-8.662000E+00	  0.103366733	7.745900E+01	  0.103366733	4.426400E+01	  0.103366733	3.689700E+01
418	  0.103567131	-8.647000E+00	  0.103567131	7.698800E+01	  0.103567131	4.450100E+01	  0.103567131	3.710900E+01
419	  0.103767529	-8.643000E+00	  0.103767529	7.650700E+01	  0.103767529	4.477200E+01	  0.103767529	3.728200E+01
420	  0.103967935	-8.627000E+00	  0.103967935	7.600900E+01	  0.103967935	4.502800E+01	  0.103967935	3.751000E+01
421	  0.104168333	-8.615000E+00	  0.104168333	7.553200E+01	  0.104168333	4.528500E+01	  0.104168333	3.771300E+01
422	  0.104368731	-8.600000E+00	  0.104368731	7.498800E+01	  0.104368731	4.557900E+01	  0.104368731	3.795000E+01
423	  0.104569137	-8.583000E+00	  0.104569137	7.450500E+01	  0.104569137	4.583600E+01	  0.104569137	3.817400E+01
424	  0.104769535	-8.569000E+00	  0.104769535	7.403400E+01	  0.104769535	4.609600E+01	  0.104769535	3.838200E+01
425	  0.104969934	-8.547000E+00	  0.104969934	7.347800E+01	  0.104969934	4.639500E+01	  0.104969934	3.865100E+01
426	  0.105170339	-8.530000E+00	  0.105170339	7.295500E+01	  0.105170339	4.668800E+01	  0.105170339	3.889100E+01
427	  0.105370738	-8.519000E+00	  0.105370738	7.238300E+01	  0.105370738	4.703000E+01	  0.105370738	3.912000E+01
428	  0.105571143	-8.494000E+00	  0.105571143	7.187100E+01	  0.105571143	4.730800E+01	  0.105571143	3.938900E+01
429	  0.105771542	-8.481000E+00	  0.105771542	7.127100E+01	  0.105771542	4.767400E+01	  0.105771542	3.963400E+01
430	  0.105971940	-8.462000E+00	  0.105971940	7.074100E+01	  0.105971940	4.798800E+01	  0.105971940	3.988100E+01
431	  0.106172346	-8.446000E+00	  0.106172346	7.016600E+01	  0.106172346	4.834100E+01	  0.106172346	4.013300E+01
432	  0.106372744	-8.423000E+00	  0.106372744	6.960300E+01	  0.106372744	4.867900E+01	  0.106372744	4.040700E+01
433	  0.106573142	-8.407000E+00	  0.106573142	6.904800E+01	  0.106573142	4.903000E+01	  0.106573142	4.065100E+01
434	  0.106773548	-8.391000E+00	  0.106773548	6.846700E+01	  0.106773548	4.940400E+01	  0.106773548	4.090400E+01
435	  0.106973946	-8.371000E+00	  0.106973946	6.787300E+01	  0.106973946	4.978700E+01	  0.106973946	4.117500E+01
436	  0.107174344	-8.355000E+00	  0.107174344	6.726800E+01	  0.107174344	5.019200E+01	  0.107174344	4.142900E+01
437	  0.107374750	-8.334000E+00	  0.107374750	6.669100E+01	  0.107374750	5.057300E+01	  0.107374750	4.170100E+01
438	  0.107575148	-8.320000E+00	  0.107575148	6.609900E+01	  0.107575148	5.098400E+01	  0.107575148	4.194400E+01
439	  0.107775547	-8.303000E+00	  0.107775547	6.544100E+01	  0.107775547	5.144600E+01	  0.107775547	4.221800E+01
440	  0.107975952	-8.285000E+00	  0.107975952	6.484700E+01	  0.107975952	5.186800E+01	  0.107975952	4.247400E+01
441	  0.108176351	-8.267000E+00	  0.108176351	6.420400E+01	  0.108176351	5.233200E+01	  0.108176351	4.274900E+01
442	  0.108376749	-8.250000E+00	  0.108376749	6.356500E+01	  0.108376749	5.280400E+01	  0.108376749	4.301200E+01
443	  0.108577155	-8.241000E+00	  0.108577155	6.288900E+01	  0.108577155	5.332900E+01	  0.108577155	4.324100E+01
444	  0.108777553	-8.221000E+00	  0.108777553	6.224700E+01	  0.108777553	5.381300E+01	  0.108777553	4.351900E+01
445	  0.108977959	-8.209000E+00	  0.108977959	6.156400E+01	  0.108977959	5.435600E+01	  0.108977959	4.376200E+01
446	  0.109178357	-8.191000E+00	  0.109178357	6.092100E+01	  0.109178357	5.486500E+01	  0.109178357	4.402000E+01
447	  0.109378755	-8.172000E+00	  0.109378755	6.023900E+01	  0.109378755	5.541400E+01	  0.109378755	4.429500E+01
448	  0.109579161	-8.169000E+00	  0.109579161	5.956500E+01	  0.109579161	5.599100E+01	  0.109579161	4.447100E+01
449	  0.109779559	-8.149000E+00	  0.109779559	5.878800E+01	  0.109779559	5.664100E+01	  0.109779559	4.476700E+01
450	  0.109979957	-8.134000E+00	  0.109979957	5.815000E+01	  0.109979957	5.718800E+01	  0.109979957	4.499800E+01
451	  0.110180363	-8.123000E+00	  0.110180363	5.741300E+01	  0.110180363	5.784100E+01	  0.110180363	4.522000E+01
452	  0.110380761	-8.115000E+00	  0.110380761	5.667300E+01	  0.110380761	5.851000E+01	  0.110380761	4.542000E+01
453	  0.110581160	-8.104000E+00	  0.110581160	5.590400E+01	  0.110581160	5.921500E+01	  0.110581160	4.564100E+01
454	  0.110781565	-8.095000E+00	  0.110781565	5.516500E+01	  0.110781565	5.990800E+01	  0.110781565	4.583200E+01
455	  0.110981964	-8.084000E+00	  0.110981964	5.442500E+01	  0.110981964	6.061000E+01	  0.110981964	4.602700E+01
456	  0.111182362	-8.076000E+00	  0.111182362	5.365500E+01	  0.111182362	6.135800E+01	  0.111182362	4.619600E+01
457	  0.111382768	-8.070000E+00	  0.111382768	5.285200E+01	  0.111382768	6.215300E+01	  0.111382768	4.635700E+01
458	  0.111583166	-8.064000E+00	  0.111583166	5.202700E+01	  0.111583166	6.298400E+01	  0.111583166	4.650100E+01
459	  0.111783572	-8.060000E+00	  0.111783572	5.125900E+01	  0.111783572	6.377200E+01	  0.111783572	4.661700E+01
460	  0.111983970	-8.057000E+00	  0.111983970	5.044600E+01	  0.111983970	6.462100E+01	  0.111983970	4.671300E+01
461	  0.112184368	-8.056000E+00	  0.112184368	4.964700E+01	  0.112184368	6.546900E+01	  0.112184368	4.678500E+01
462	  0.112384774	-8.054000E+00	  0.112384774	4.883500E+01	  0.112384774	6.634200E+01	  0.112384774	4.685100E+01
463	  0.112585172	-8.046000E+00	  0.112585172	4.797400E+01	  0.112585172	6.728200E+01	  0.112585172	4.694500E+01
464	  0.112785570	-8.053000E+00	  0.112785570	4.717000E+01	  0.112785570	6.817400E+01	  0.112785570	4.691000E+01
465	  0.112985976	-8.055000E+00	  0.112985976	4.630600E+01	  0.112985976	6.914600E+01	  0.112985976	4.689200E+01
466	  0.113186374	-8.059000E+00	  0.113186374	4.547500E+01	  0.113186374	7.009200E+01	  0.113186374	4.684300E+01
467	  0.113386773	-8.060000E+00	  0.113386773	4.461500E+01	  0.113386773	7.108300E+01	  0.113386773	4.679100E+01
468	  0.113587178	-8.064000E+00	  0.113587178	4.374400E+01	  0.113587178	7.209800E+01	  0.113587178	4.669300E+01
469	  0.113787577	-8.068000E+00	  0.113787577	4.286700E+01	  0.113787577	7.313200E+01	  0.113787577	4.656600E+01
470	  0.113987975	-8.081000E+00	  0.113987975	4.197600E+01	  0.113987975	7.418500E+01	  0.113987975	4.634200E+01
471	  0.114188381	-8.092000E+00	  0.114188381	4.105900E+01	  0.114188381	7.528000E+01	  0.114188381	4.610800E+01
472	  0.114388779	-8.099000E+00	  0.114388779	4.020500E+01	  0.114388779	7.630900E+01	  0.114388779	4.587800E+01
473	  0.114589177	-8.110000E+00	  0.114589177	3.930000E+01	  0.114589177	7.740300E+01	  0.114589177	4.558400E+01
474	  0.114789583	-8.128000E+00	  0.114789583	3.835400E+01	  0.114789583	7.854000E+01	  0.114789583	4.519000E+01
475	  0.114989981	-8.142000E+00	  0.114989981	3.739600E+01	  0.114989981	7.970300E+01	  0.114989981	4.478500E+01
476	  0.115190387	-8.161000E+00	  0.115190387	3.645500E+01	  0.115190387	8.083500E+01	  0.115190387	4.430600E+01
477	  0.115390785	-8.185000E+00	  0.115390785	3.553600E+01	  0.115390785	8.192200E+01	  0.115390785	4.375200E+01
478	  0.115591183	-8.203000E+00	  0.115591183	3.454500E+01	  0.115591183	8.311500E+01	  0.115591183	4.318900E+01
479	  0.115791589	-8.229000E+00	  0.115791589	3.360900E+01	  0.115791589	8.420600E+01	  0.115791589	4.254000E+01
480	  0.115991987	-8.253000E+00	  0.115991987	3.259000E+01	  0.115991987	8.539700E+01	  0.115991987	4.182200E+01
481	  0.116192386	-8.276000E+00	  0.116192386	3.160300E+01	  0.116192386	8.654100E+01	  0.116192386	4.108400E+01
482	  0.116392791	-8.309000E+00	  0.116392791	3.059600E+01	  0.116392791	8.765700E+01	  0.116392791	4.021600E+01
483	  0.116593190	-8.334000E+00	  0.116593190	2.957800E+01	  0.116593190	8.879700E+01	  0.116593190	3.935300E+01
484	  0.116793588	-8.368000E+00	  0.116793588	2.857200E+01	  0.116793588	8.986000E+01	  0.116793588	3.838300E+01
485	  0.116993994	-8.409000E+00	  0.116993994	2.753300E+01	  0.116993994	9.090400E+01	  0.116993994	3.729700E+01
486	  0.117194392	-8.449000E+00	  0.117194392	2.650400E+01	  0.117194392	9.190400E+01	  0.117194392	3.618100E+01
487	  0.117394790	-8.485000E+00	  0.117394790	2.542900E+01	  0.117394790	9.293700E+01	  0.117394790	3.500800E+01
488	  0.117595196	-8.527000E+00	  0.117595196	2.437500E+01	  0.117595196	9.387700E+01	  0.117595196	3.377100E+01
489	  0.117795594	-8.576000E+00	  0.117795594	2.328100E+01	  0.117795594	9.477000E+01	  0.117795594	3.240600E+01
490	  0.117995992	-8.617000E+00	  0.117995992	2.220300E+01	  0.117995992	9.564700E+01	  0.117995992	3.107800E+01
491	  0.118196398	-8.670000E+00	  0.118196398	2.109700E+01	  0.118196398	9.641700E+01	  0.118196398	2.960100E+01
492	  0.118396796	-8.722000E+00	  0.118396796	1.993700E+01	  0.118396796	9.718100E+01	  0.118396796	2.804100E+01
493	  0.118597202	-8.778000E+00	  0.118597202	1.884100E+01	  0.118597202	9.779400E+01	  0.118597202	2.650100E+01
494	  0.118797600	-8.834000E+00	  0.118797600	1.770100E+01	  0.118797600	9.838000E+01	  0.118797600	2.488900E+01
495	  0.118997999	-8.897000E+00	  0.118997999	1.655300E+01	  0.118997999	9.885000E+01	  0.118997999	2.321400E+01
496	  0.119198404	-8.956000E+00	  0.119198404	1.536200E+01	  0.119198404	9.930700E+01	  0.119198404	2.149600E+01
497	  0.119398803	-9.027000E+00	  0.119398803	1.419600E+01	  0.119398803	9.957700E+01	  0.119398803	1.974600E+01
498	  0.119599201	-9.096000E+00	  0.119599201	1.297500E+01	  0.119599201	9.981400E+01	  0.119599201	1.793700E+01
499	  0.119799607	-9.172000E+00	  0.119799607	1.172300E+01	  0.119799607	9.992300E+01	  0.119799607	1.606700E+01
500	  0.120000005	-9.242000E+00	  0.120000005	1.049700E+01	  0.120000005	9.999000E+01	  0.120000005	1.427000E+01
