! Anritsu VNA Master:             	Model: MS2036C/10/77
! SN:             	1601066
! /bd0/18may09/b252.ew.m2.txt
! Existing Calibration Information:
! TYPE:             	Current Settings	Active Cal Settings
! TIME:             	05/09/2018 09:25:57 PM	05/09/2018 09:20:00 PM
! INTERNAL TEMP:    	50.5 C	51.0 C
! # POINTS:         	494	494
! START FREQ:       	20.000 MHz	20.000 MHz
! STOP FREQ:        	118.797 594 MHz	118.797 594 MHz
! SOURCE POWER:     	High	High
! IFBW:             	50 Hz	50 Hz
! AVG FACTOR:       	  1 	  1 
! REF PLANE 1:      	0 mm	0 mm
! REF PLANE 2:      	0 mm	0 mm
! CAL TYPE:         	Full S22	Full S22
! CAL METHOD:       	SOLT	SOLT
! CAL LINE TYPE:    	Coax	Coax
! DUT PORT 1:       	K-Conn(M)	K-Conn(M)
! DUT PORT 2:       	K-Conn(M)	K-Conn(M)
! CAL STATUS:       	OK: Accuracy High	--
! PROP-V:       	0.700
! CABLE LOSS:       	0.000 dB/m
! REF IMPEDANCE:       	50.0
! Trace Specific Parameters:	TR1	TR2	TR3	TR4
! TRACE.#.Y (GRAPH TYPE)	LOG MAG	PHASE	REAL IMPEDANCE	IMAGINARY IMPEDANCE
! TRACE.#.X 	FREQ.GHZ	FREQ.GHZ	FREQ.GHZ	FREQ.GHZ
! S-PARAMETER	S22	S22	S22	S22
! SMOOTH/APERTURE %	0	0	0	0
! WINDOW	NSL	NSL	NSL	NSL
! GATING	OFF	OFF	OFF	OFF
! FGTD	OFF	OFF	OFF	OFF
Marker Information per Trace:	TR1	TR2	TR3	TR4
!MK1	--	"MK1 TR2:  20.000 MHz,PH:-125.58°"	--	--
!MK2	--	--	"MK2 TR3:  70.100 200 MHz,Z:(17.519 ohm, -1.171 ohm)"	--
!MK3	--	--	--	--
!MK4	--	--	--	--
!MK5	--	--	--	--
!MK6	--	--	--	--
!MK7	--	--	--	--
!MK8	--	--	--	--
PNT	TR1.FREQ.GHZ	TR1.LOG MAG.dB	TR2.FREQ.GHZ	TR2.PHASE.deg	TR3.FREQ.GHZ	TR3.REAL IMPEDANCE.ohm	TR4.FREQ.GHZ	TR4.IMAGINARY IMPEDANCE.ohm
1	  0.020000000	-6.160000E-01	  0.020000000	-1.255820E+02	  0.020000000	2.242000E+00	  0.020000000	-2.566500E+01
2	  0.020200402	-6.180000E-01	  0.020200402	-1.270300E+02	  0.020200402	2.221000E+00	  0.020200402	-2.487300E+01
3	  0.020400802	-6.210000E-01	  0.020400802	-1.285070E+02	  0.020400802	2.203000E+00	  0.020400802	-2.407500E+01
4	  0.020601204	-6.230000E-01	  0.020601204	-1.299910E+02	  0.020601204	2.184000E+00	  0.020601204	-2.328300E+01
5	  0.020801604	-6.270000E-01	  0.020801604	-1.315000E+02	  0.020801604	2.170000E+00	  0.020801604	-2.248700E+01
6	  0.021002004	-6.290000E-01	  0.021002004	-1.330270E+02	  0.021002004	2.152000E+00	  0.021002004	-2.169200E+01
7	  0.021202406	-6.330000E-01	  0.021202406	-1.345510E+02	  0.021202406	2.141000E+00	  0.021202406	-2.090700E+01
8	  0.021402806	-6.350000E-01	  0.021402806	-1.360770E+02	  0.021402806	2.126000E+00	  0.021402806	-2.013000E+01
9	  0.021603208	-6.360000E-01	  0.021603208	-1.375950E+02	  0.021603208	2.105000E+00	  0.021603208	-1.936600E+01
10	  0.021803608	-6.400000E-01	  0.021803608	-1.391170E+02	  0.021803608	2.097000E+00	  0.021803608	-1.860600E+01
11	  0.022004008	-6.450000E-01	  0.022004008	-1.406520E+02	  0.022004008	2.094000E+00	  0.022004008	-1.784800E+01
12	  0.022204408	-6.500000E-01	  0.022204408	-1.422110E+02	  0.022204408	2.090000E+00	  0.022204408	-1.708600E+01
13	  0.022404809	-6.570000E-01	  0.022404809	-1.437740E+02	  0.022404809	2.092000E+00	  0.022404809	-1.632900E+01
14	  0.022605211	-6.590000E-01	  0.022605211	-1.453620E+02	  0.022605211	2.082000E+00	  0.022605211	-1.556600E+01
15	  0.022805611	-6.610000E-01	  0.022805611	-1.469690E+02	  0.022805611	2.071000E+00	  0.022805611	-1.480100E+01
16	  0.023006011	-6.640000E-01	  0.023006011	-1.485460E+02	  0.023006011	2.063000E+00	  0.023006011	-1.405700E+01
17	  0.023206413	-6.700000E-01	  0.023206413	-1.501350E+02	  0.023206413	2.064000E+00	  0.023206413	-1.331200E+01
18	  0.023406813	-6.750000E-01	  0.023406813	-1.517210E+02	  0.023406813	2.067000E+00	  0.023406813	-1.257500E+01
19	  0.023607215	-6.830000E-01	  0.023607215	-1.533220E+02	  0.023607215	2.077000E+00	  0.023607215	-1.183600E+01
20	  0.023807615	-6.930000E-01	  0.023807615	-1.549350E+02	  0.023807615	2.092000E+00	  0.023807615	-1.109500E+01
21	  0.024008015	-7.020000E-01	  0.024008015	-1.565880E+02	  0.024008015	2.106000E+00	  0.024008015	-1.034200E+01
22	  0.024208417	-7.080000E-01	  0.024208417	-1.582390E+02	  0.024208417	2.112000E+00	  0.024208417	-9.594000E+00
23	  0.024408817	-7.150000E-01	  0.024408817	-1.599080E+02	  0.024408817	2.122000E+00	  0.024408817	-8.841000E+00
24	  0.024609219	-7.230000E-01	  0.024609219	-1.615600E+02	  0.024609219	2.134000E+00	  0.024609219	-8.101000E+00
25	  0.024809619	-7.330000E-01	  0.024809619	-1.632210E+02	  0.024809619	2.156000E+00	  0.024809619	-7.360000E+00
26	  0.025010020	-7.420000E-01	  0.025010020	-1.648920E+02	  0.025010020	2.173000E+00	  0.025010020	-6.617000E+00
27	  0.025210422	-7.540000E-01	  0.025210422	-1.665790E+02	  0.025210422	2.201000E+00	  0.025210422	-5.871000E+00
28	  0.025410822	-7.670000E-01	  0.025410822	-1.682600E+02	  0.025410822	2.231000E+00	  0.025410822	-5.130000E+00
29	  0.025611224	-7.790000E-01	  0.025611224	-1.699710E+02	  0.025611224	2.259000E+00	  0.025611224	-4.377000E+00
30	  0.025811624	-7.900000E-01	  0.025811624	-1.717010E+02	  0.025811624	2.286000E+00	  0.025811624	-3.619000E+00
31	  0.026012026	-8.020000E-01	  0.026012026	-1.734190E+02	  0.026012026	2.315000E+00	  0.026012026	-2.868000E+00
32	  0.026212426	-8.130000E-01	  0.026212426	-1.751580E+02	  0.026212426	2.344000E+00	  0.026212426	-2.109000E+00
33	  0.026412826	-8.280000E-01	  0.026412826	-1.769060E+02	  0.026412826	2.385000E+00	  0.026412826	-1.347000E+00
34	  0.026613226	-8.430000E-01	  0.026613226	-1.786500E+02	  0.026613226	2.425000E+00	  0.026613226	-5.870000E-01
35	  0.026813626	-8.600000E-01	  0.026813626	1.795860E+02	  0.026813626	2.475000E+00	  0.026813626	1.800000E-01
36	  0.027014028	-8.750000E-01	  0.027014028	1.778210E+02	  0.027014028	2.517000E+00	  0.027014028	9.480000E-01
37	  0.027214428	-8.920000E-01	  0.027214428	1.760470E+02	  0.027214428	2.568000E+00	  0.027214428	1.720000E+00
38	  0.027414829	-9.100000E-01	  0.027414829	1.742640E+02	  0.027414829	2.623000E+00	  0.027414829	2.497000E+00
39	  0.027615231	-9.270000E-01	  0.027615231	1.724560E+02	  0.027615231	2.677000E+00	  0.027615231	3.286000E+00
40	  0.027815631	-9.440000E-01	  0.027815631	1.706530E+02	  0.027815631	2.733000E+00	  0.027815631	4.074000E+00
41	  0.028016033	-9.640000E-01	  0.028016033	1.688360E+02	  0.028016033	2.799000E+00	  0.028016033	4.871000E+00
42	  0.028216433	-9.850000E-01	  0.028216433	1.669960E+02	  0.028216433	2.871000E+00	  0.028216433	5.679000E+00
43	  0.028416833	-1.005000E+00	  0.028416833	1.651630E+02	  0.028416833	2.940000E+00	  0.028416833	6.487000E+00
44	  0.028617235	-1.026000E+00	  0.028617235	1.633180E+02	  0.028617235	3.015000E+00	  0.028617235	7.304000E+00
45	  0.028817635	-1.049000E+00	  0.028817635	1.614760E+02	  0.028817635	3.095000E+00	  0.028817635	8.123000E+00
46	  0.029018037	-1.072000E+00	  0.029018037	1.596220E+02	  0.029018037	3.183000E+00	  0.029018037	8.951000E+00
47	  0.029218437	-1.097000E+00	  0.029218437	1.577530E+02	  0.029218437	3.274000E+00	  0.029218437	9.790000E+00
48	  0.029418837	-1.122000E+00	  0.029418837	1.558630E+02	  0.029418837	3.373000E+00	  0.029418837	1.064300E+01
49	  0.029619239	-1.149000E+00	  0.029619239	1.539640E+02	  0.029619239	3.478000E+00	  0.029619239	1.150600E+01
50	  0.029819639	-1.176000E+00	  0.029819639	1.520600E+02	  0.029819639	3.589000E+00	  0.029819639	1.237700E+01
51	  0.030020041	-1.203000E+00	  0.030020041	1.501510E+02	  0.030020041	3.702000E+00	  0.030020041	1.325800E+01
52	  0.030220442	-1.230000E+00	  0.030220442	1.482300E+02	  0.030220442	3.821000E+00	  0.030220442	1.415100E+01
53	  0.030420844	-1.260000E+00	  0.030420844	1.463080E+02	  0.030420844	3.952000E+00	  0.030420844	1.505200E+01
54	  0.030621244	-1.292000E+00	  0.030621244	1.443940E+02	  0.030621244	4.093000E+00	  0.030621244	1.595800E+01
55	  0.030821642	-1.325000E+00	  0.030821642	1.424600E+02	  0.030821642	4.243000E+00	  0.030821642	1.688200E+01
56	  0.031022044	-1.358000E+00	  0.031022044	1.405010E+02	  0.031022044	4.402000E+00	  0.031022044	1.782700E+01
57	  0.031222444	-1.383000E+00	  0.031222444	1.385700E+02	  0.031222444	4.537000E+00	  0.031222444	1.877100E+01
58	  0.031422846	-1.419000E+00	  0.031422846	1.366040E+02	  0.031422846	4.717000E+00	  0.031422846	1.974200E+01
59	  0.031623244	-1.456000E+00	  0.031623244	1.345970E+02	  0.031623244	4.907000E+00	  0.031623244	2.074400E+01
60	  0.031823646	-1.494000E+00	  0.031823646	1.326130E+02	  0.031823646	5.109000E+00	  0.031823646	2.174800E+01
61	  0.032024048	-1.532000E+00	  0.032024048	1.306210E+02	  0.032024048	5.319000E+00	  0.032024048	2.277000E+01
62	  0.032224450	-1.570000E+00	  0.032224450	1.286200E+02	  0.032224450	5.541000E+00	  0.032224450	2.381100E+01
63	  0.032424849	-1.611000E+00	  0.032424849	1.266240E+02	  0.032424849	5.780000E+00	  0.032424849	2.486500E+01
64	  0.032625251	-1.650000E+00	  0.032625251	1.246050E+02	  0.032625251	6.026000E+00	  0.032625251	2.594700E+01
65	  0.032825653	-1.693000E+00	  0.032825653	1.225740E+02	  0.032825653	6.299000E+00	  0.032825653	2.705300E+01
66	  0.033026051	-1.733000E+00	  0.033026051	1.205200E+02	  0.033026051	6.573000E+00	  0.033026051	2.819100E+01
67	  0.033226453	-1.776000E+00	  0.033226453	1.184900E+02	  0.033226453	6.873000E+00	  0.033226453	2.933600E+01
68	  0.033426855	-1.818000E+00	  0.033426855	1.164400E+02	  0.033426855	7.188000E+00	  0.033426855	3.051200E+01
69	  0.033627257	-1.864000E+00	  0.033627257	1.144240E+02	  0.033627257	7.527000E+00	  0.033627257	3.168900E+01
70	  0.033827655	-1.910000E+00	  0.033827655	1.123840E+02	  0.033827655	7.888000E+00	  0.033827655	3.290300E+01
71	  0.034028057	-1.957000E+00	  0.034028057	1.103340E+02	  0.034028057	8.276000E+00	  0.034028057	3.414600E+01
72	  0.034228459	-2.003000E+00	  0.034228459	1.082720E+02	  0.034228459	8.680000E+00	  0.034228459	3.542500E+01
73	  0.034428857	-2.051000E+00	  0.034428857	1.061990E+02	  0.034428857	9.120000E+00	  0.034428857	3.673600E+01
74	  0.034629259	-2.100000E+00	  0.034629259	1.041340E+02	  0.034629259	9.587000E+00	  0.034629259	3.807000E+01
75	  0.034829661	-2.151000E+00	  0.034829661	1.020570E+02	  0.034829661	1.009300E+01	  0.034829661	3.944100E+01
76	  0.035030060	-2.202000E+00	  0.035030060	9.996900E+01	  0.035030060	1.063100E+01	  0.035030060	4.085200E+01
77	  0.035230462	-2.254000E+00	  0.035230462	9.789400E+01	  0.035230462	1.120600E+01	  0.035230462	4.228500E+01
78	  0.035430863	-2.307000E+00	  0.035430863	9.583300E+01	  0.035430863	1.181900E+01	  0.035430863	4.374200E+01
79	  0.035631265	-2.361000E+00	  0.035631265	9.374400E+01	  0.035631265	1.248200E+01	  0.035631265	4.525400E+01
80	  0.035831664	-2.417000E+00	  0.035831664	9.167300E+01	  0.035831664	1.319600E+01	  0.035831664	4.678800E+01
81	  0.036032066	-2.471000E+00	  0.036032066	8.957000E+01	  0.036032066	1.395400E+01	  0.036032066	4.838900E+01
82	  0.036232468	-2.528000E+00	  0.036232468	8.749900E+01	  0.036232468	1.477300E+01	  0.036232468	5.000100E+01
83	  0.036432866	-2.581000E+00	  0.036432866	8.539400E+01	  0.036432866	1.563700E+01	  0.036432866	5.168900E+01
84	  0.036633268	-2.639000E+00	  0.036633268	8.329600E+01	  0.036633268	1.659200E+01	  0.036633268	5.340800E+01
85	  0.036833670	-2.697000E+00	  0.036833670	8.121600E+01	  0.036833670	1.761400E+01	  0.036833670	5.515300E+01
86	  0.037034072	-2.756000E+00	  0.037034072	7.911100E+01	  0.037034072	1.872100E+01	  0.037034072	5.696800E+01
87	  0.037234470	-2.815000E+00	  0.037234470	7.702000E+01	  0.037234470	1.990700E+01	  0.037234470	5.881500E+01
88	  0.037434869	-2.875000E+00	  0.037434869	7.492200E+01	  0.037434869	2.120000E+01	  0.037434869	6.071300E+01
89	  0.037635271	-2.934000E+00	  0.037635271	7.284300E+01	  0.037635271	2.257200E+01	  0.037635271	6.264500E+01
90	  0.037835669	-2.993000E+00	  0.037835669	7.076000E+01	  0.037835669	2.405900E+01	  0.037835669	6.462700E+01
91	  0.038036071	-3.053000E+00	  0.038036071	6.865800E+01	  0.038036071	2.568200E+01	  0.038036071	6.667500E+01
92	  0.038236473	-3.111000E+00	  0.038236473	6.648900E+01	  0.038236473	2.747300E+01	  0.038236473	6.885000E+01
93	  0.038436871	-3.173000E+00	  0.038436871	6.436000E+01	  0.038436871	2.942600E+01	  0.038436871	7.100800E+01
94	  0.038637273	-3.238000E+00	  0.038637273	6.225000E+01	  0.038637273	3.155100E+01	  0.038637273	7.317200E+01
95	  0.038837675	-3.299000E+00	  0.038837675	6.015600E+01	  0.038837675	3.380600E+01	  0.038837675	7.537500E+01
96	  0.039038073	-3.360000E+00	  0.039038073	5.806500E+01	  0.039038073	3.626800E+01	  0.039038073	7.759300E+01
97	  0.039238475	-3.422000E+00	  0.039238475	5.597100E+01	  0.039238475	3.894500E+01	  0.039238475	7.983900E+01
98	  0.039438877	-3.482000E+00	  0.039438877	5.389100E+01	  0.039438877	4.183000E+01	  0.039438877	8.208200E+01
99	  0.039639279	-3.546000E+00	  0.039639279	5.179000E+01	  0.039639279	4.503900E+01	  0.039639279	8.431100E+01
100	  0.039839678	-3.607000E+00	  0.039839678	4.970800E+01	  0.039839678	4.847300E+01	  0.039839678	8.651800E+01
101	  0.040040080	-3.667000E+00	  0.040040080	4.760600E+01	  0.040040080	5.223500E+01	  0.040040080	8.871400E+01
102	  0.040240481	-3.729000E+00	  0.040240481	4.551000E+01	  0.040240481	5.634900E+01	  0.040240481	9.079500E+01
103	  0.040440880	-3.789000E+00	  0.040440880	4.343100E+01	  0.040440880	6.076800E+01	  0.040440880	9.277300E+01
104	  0.040641282	-3.851000E+00	  0.040641282	4.136900E+01	  0.040641282	6.554200E+01	  0.040641282	9.455700E+01
105	  0.040841684	-3.912000E+00	  0.040841684	3.931700E+01	  0.040841684	7.068500E+01	  0.040841684	9.613200E+01
106	  0.041042086	-3.973000E+00	  0.041042086	3.728300E+01	  0.041042086	7.617800E+01	  0.041042086	9.744800E+01
107	  0.041242484	-4.034000E+00	  0.041242484	3.522200E+01	  0.041242484	8.217000E+01	  0.041242484	9.845200E+01
108	  0.041442886	-4.096000E+00	  0.041442886	3.316000E+01	  0.041442886	8.859500E+01	  0.041442886	9.903600E+01
109	  0.041643288	-4.156000E+00	  0.041643288	3.110100E+01	  0.041643288	9.541300E+01	  0.041643288	9.917800E+01
110	  0.041843686	-4.213000E+00	  0.041843686	2.904700E+01	  0.041843686	1.026070E+02	  0.041843686	9.878200E+01
111	  0.042044088	-4.272000E+00	  0.042044088	2.701300E+01	  0.042044088	1.100820E+02	  0.042044088	9.765300E+01
112	  0.042244490	-4.329000E+00	  0.042244490	2.498800E+01	  0.042244490	1.178030E+02	  0.042244490	9.581200E+01
113	  0.042444889	-4.388000E+00	  0.042444889	2.297800E+01	  0.042444889	1.256450E+02	  0.042444889	9.307300E+01
114	  0.042645290	-4.449000E+00	  0.042645290	2.095600E+01	  0.042645290	1.335770E+02	  0.042645290	8.931300E+01
115	  0.042845692	-4.505000E+00	  0.042845692	1.894600E+01	  0.042845692	1.414030E+02	  0.042845692	8.466900E+01
116	  0.043046094	-4.562000E+00	  0.043046094	1.693800E+01	  0.043046094	1.489510E+02	  0.043046094	7.892600E+01
117	  0.043246493	-4.618000E+00	  0.043246493	1.492700E+01	  0.043246493	1.560810E+02	  0.043246493	7.216400E+01
118	  0.043446895	-4.673000E+00	  0.043446895	1.293700E+01	  0.043446895	1.624890E+02	  0.043446895	6.445100E+01
119	  0.043647297	-4.727000E+00	  0.043647297	1.095000E+01	  0.043647297	1.680920E+02	  0.043647297	5.586900E+01
120	  0.043847695	-4.781000E+00	  0.043847695	8.990000E+00	  0.043847695	1.725810E+02	  0.043847695	4.660500E+01
121	  0.044048097	-4.835000E+00	  0.044048097	7.019000E+00	  0.044048097	1.759520E+02	  0.044048097	3.670000E+01
122	  0.044248499	-4.888000E+00	  0.044248499	5.082000E+00	  0.044248499	1.780260E+02	  0.044248499	2.659300E+01
123	  0.044448901	-4.939000E+00	  0.044448901	3.123000E+00	  0.044448901	1.789480E+02	  0.044448901	1.625700E+01
124	  0.044649299	-4.993000E+00	  0.044649299	1.209000E+00	  0.044649299	1.784690E+02	  0.044649299	6.206000E+00
125	  0.044849701	-5.043000E+00	  0.044849701	-7.240000E-01	  0.044849701	1.769590E+02	  0.044849701	-3.643000E+00
126	  0.045050103	-5.095000E+00	  0.045050103	-2.646000E+00	  0.045050103	1.742650E+02	  0.045050103	-1.295800E+01
127	  0.045250501	-5.137000E+00	  0.045250501	-4.554000E+00	  0.045250501	1.709590E+02	  0.045250501	-2.166400E+01
128	  0.045450903	-5.186000E+00	  0.045450903	-6.456000E+00	  0.045450903	1.666690E+02	  0.045450903	-2.960000E+01
129	  0.045651305	-5.232000E+00	  0.045651305	-8.341000E+00	  0.045651305	1.618420E+02	  0.045651305	-3.671300E+01
130	  0.045851704	-5.278000E+00	  0.045851704	-1.020000E+01	  0.045851704	1.565940E+02	  0.045851704	-4.294200E+01
131	  0.046052102	-5.324000E+00	  0.046052102	-1.206000E+01	  0.046052102	1.510180E+02	  0.046052102	-4.839200E+01
132	  0.046252504	-5.368000E+00	  0.046252504	-1.390000E+01	  0.046252504	1.453320E+02	  0.046252504	-5.304800E+01
133	  0.046452906	-5.412000E+00	  0.046452906	-1.573000E+01	  0.046452906	1.395610E+02	  0.046452906	-5.695500E+01
134	  0.046653304	-5.456000E+00	  0.046653304	-1.757900E+01	  0.046653304	1.337560E+02	  0.046653304	-6.026900E+01
135	  0.046853706	-5.498000E+00	  0.046853706	-1.939200E+01	  0.046853706	1.281200E+02	  0.046853706	-6.291200E+01
136	  0.047054108	-5.538000E+00	  0.047054108	-2.120300E+01	  0.047054108	1.226260E+02	  0.047054108	-6.505400E+01
137	  0.047254506	-5.577000E+00	  0.047254506	-2.302400E+01	  0.047254506	1.172600E+02	  0.047254506	-6.673900E+01
138	  0.047454908	-5.613000E+00	  0.047454908	-2.481200E+01	  0.047454908	1.121790E+02	  0.047454908	-6.800500E+01
139	  0.047655310	-5.648000E+00	  0.047655310	-2.659800E+01	  0.047655310	1.073040E+02	  0.047655310	-6.892300E+01
140	  0.047855709	-5.682000E+00	  0.047855709	-2.835400E+01	  0.047855709	1.027020E+02	  0.047855709	-6.949000E+01
141	  0.048056111	-5.719000E+00	  0.048056111	-3.009200E+01	  0.048056111	9.833700E+01	  0.048056111	-6.972200E+01
142	  0.048256513	-5.754000E+00	  0.048256513	-3.183000E+01	  0.048256513	9.418700E+01	  0.048256513	-6.975700E+01
143	  0.048456915	-5.785000E+00	  0.048456915	-3.357200E+01	  0.048456915	9.023800E+01	  0.048456915	-6.964600E+01
144	  0.048657313	-5.815000E+00	  0.048657313	-3.532200E+01	  0.048657313	8.647100E+01	  0.048657313	-6.936500E+01
145	  0.048857715	-5.842000E+00	  0.048857715	-3.705200E+01	  0.048857715	8.293500E+01	  0.048857715	-6.897500E+01
146	  0.049058117	-5.869000E+00	  0.049058117	-3.876700E+01	  0.049058117	7.961100E+01	  0.049058117	-6.843700E+01
147	  0.049258515	-5.895000E+00	  0.049258515	-4.044000E+01	  0.049258515	7.653800E+01	  0.049258515	-6.781100E+01
148	  0.049458917	-5.919000E+00	  0.049458917	-4.212700E+01	  0.049458917	7.359400E+01	  0.049458917	-6.711900E+01
149	  0.049659319	-5.945000E+00	  0.049659319	-4.381400E+01	  0.049659319	7.080900E+01	  0.049659319	-6.631600E+01
150	  0.049859721	-5.969000E+00	  0.049859721	-4.548400E+01	  0.049859721	6.819600E+01	  0.049859721	-6.547600E+01
151	  0.050060119	-5.991000E+00	  0.050060119	-4.712300E+01	  0.050060119	6.576100E+01	  0.050060119	-6.461200E+01
152	  0.050260521	-6.011000E+00	  0.050260521	-4.879300E+01	  0.050260521	6.340000E+01	  0.050260521	-6.371000E+01
153	  0.050460923	-6.029000E+00	  0.050460923	-5.045000E+01	  0.050460923	6.117800E+01	  0.050460923	-6.278500E+01
154	  0.050661322	-6.045000E+00	  0.050661322	-5.207800E+01	  0.050661322	5.909700E+01	  0.050661322	-6.186700E+01
155	  0.050861724	-6.062000E+00	  0.050861724	-5.369800E+01	  0.050861724	5.713700E+01	  0.050861724	-6.090600E+01
156	  0.051062126	-6.081000E+00	  0.051062126	-5.533200E+01	  0.051062126	5.526800E+01	  0.051062126	-5.990200E+01
157	  0.051262524	-6.096000E+00	  0.051262524	-5.692500E+01	  0.051262524	5.352200E+01	  0.051262524	-5.893800E+01
158	  0.051462926	-6.110000E+00	  0.051462926	-5.850300E+01	  0.051462926	5.187400E+01	  0.051462926	-5.797700E+01
159	  0.051663328	-6.126000E+00	  0.051663328	-6.009100E+01	  0.051663328	5.030800E+01	  0.051663328	-5.697800E+01
160	  0.051863730	-6.136000E+00	  0.051863730	-6.169000E+01	  0.051863730	4.878200E+01	  0.051863730	-5.601200E+01
161	  0.052064128	-6.147000E+00	  0.052064128	-6.327300E+01	  0.052064128	4.734900E+01	  0.052064128	-5.504100E+01
162	  0.052264530	-6.154000E+00	  0.052264530	-6.483800E+01	  0.052264530	4.598500E+01	  0.052264530	-5.409700E+01
163	  0.052464932	-6.164000E+00	  0.052464932	-6.639100E+01	  0.052464932	4.470400E+01	  0.052464932	-5.314400E+01
164	  0.052665330	-6.173000E+00	  0.052665330	-6.793500E+01	  0.052665330	4.348600E+01	  0.052665330	-5.219800E+01
165	  0.052865732	-6.183000E+00	  0.052865732	-6.946700E+01	  0.052865732	4.234000E+01	  0.052865732	-5.125300E+01
166	  0.053066134	-6.195000E+00	  0.053066134	-7.099300E+01	  0.053066134	4.125200E+01	  0.053066134	-5.031000E+01
167	  0.053266536	-6.199000E+00	  0.053266536	-7.250800E+01	  0.053266536	4.019500E+01	  0.053266536	-4.941000E+01
168	  0.053466935	-6.208000E+00	  0.053466935	-7.403900E+01	  0.053466935	3.919400E+01	  0.053466935	-4.848000E+01
169	  0.053667337	-6.215000E+00	  0.053667337	-7.556300E+01	  0.053667337	3.822900E+01	  0.053667337	-4.757300E+01
170	  0.053867739	-6.218000E+00	  0.053867739	-7.706700E+01	  0.053867739	3.730600E+01	  0.053867739	-4.669500E+01
171	  0.054068137	-6.223000E+00	  0.054068137	-7.857900E+01	  0.054068137	3.642500E+01	  0.054068137	-4.581000E+01
172	  0.054268539	-6.230000E+00	  0.054268539	-8.006600E+01	  0.054268539	3.560500E+01	  0.054268539	-4.493500E+01
173	  0.054468941	-6.237000E+00	  0.054468941	-8.155300E+01	  0.054468941	3.481700E+01	  0.054468941	-4.406900E+01
174	  0.054669335	-6.242000E+00	  0.054669335	-8.302400E+01	  0.054669335	3.406400E+01	  0.054669335	-4.322500E+01
175	  0.054869737	-6.245000E+00	  0.054869737	-8.449800E+01	  0.054869737	3.333300E+01	  0.054869737	-4.239300E+01
176	  0.055070139	-6.252000E+00	  0.055070139	-8.594900E+01	  0.055070139	3.265600E+01	  0.055070139	-4.156800E+01
177	  0.055270538	-6.255000E+00	  0.055270538	-8.740400E+01	  0.055270538	3.199200E+01	  0.055270538	-4.075800E+01
178	  0.055470940	-6.259000E+00	  0.055470940	-8.886000E+01	  0.055470940	3.135400E+01	  0.055470940	-3.995400E+01
179	  0.055671342	-6.258000E+00	  0.055671342	-9.031400E+01	  0.055671342	3.072800E+01	  0.055671342	-3.916900E+01
180	  0.055871744	-6.257000E+00	  0.055871744	-9.176100E+01	  0.055871744	3.013100E+01	  0.055871744	-3.839300E+01
181	  0.056072142	-6.261000E+00	  0.056072142	-9.320100E+01	  0.056072142	2.957200E+01	  0.056072142	-3.761600E+01
182	  0.056272544	-6.268000E+00	  0.056272544	-9.461900E+01	  0.056272544	2.905600E+01	  0.056272544	-3.685000E+01
183	  0.056472946	-6.267000E+00	  0.056472946	-9.601200E+01	  0.056472946	2.854100E+01	  0.056472946	-3.612300E+01
184	  0.056673344	-6.269000E+00	  0.056673344	-9.741800E+01	  0.056673344	2.805400E+01	  0.056673344	-3.538600E+01
185	  0.056873746	-6.267000E+00	  0.056873746	-9.880500E+01	  0.056873746	2.757300E+01	  0.056873746	-3.467700E+01
186	  0.057074148	-6.269000E+00	  0.057074148	-1.002240E+02	  0.057074148	2.711600E+01	  0.057074148	-3.394600E+01
187	  0.057274550	-6.268000E+00	  0.057274550	-1.016010E+02	  0.057274550	2.667900E+01	  0.057274550	-3.324900E+01
188	  0.057474948	-6.266000E+00	  0.057474948	-1.029790E+02	  0.057474948	2.625300E+01	  0.057474948	-3.256100E+01
189	  0.057675350	-6.268000E+00	  0.057675350	-1.043690E+02	  0.057675350	2.585400E+01	  0.057675350	-3.186200E+01
190	  0.057875752	-6.269000E+00	  0.057875752	-1.057310E+02	  0.057875752	2.547000E+01	  0.057875752	-3.118800E+01
191	  0.058076151	-6.272000E+00	  0.058076151	-1.071040E+02	  0.058076151	2.510800E+01	  0.058076151	-3.050800E+01
192	  0.058276553	-6.273000E+00	  0.058276553	-1.084480E+02	  0.058276553	2.475700E+01	  0.058276553	-2.985200E+01
193	  0.058476955	-6.272000E+00	  0.058476955	-1.097610E+02	  0.058476955	2.442300E+01	  0.058476955	-2.921900E+01
194	  0.058677353	-6.272000E+00	  0.058677353	-1.111210E+02	  0.058677353	2.408800E+01	  0.058677353	-2.856800E+01
195	  0.058877755	-6.270000E+00	  0.058877755	-1.124660E+02	  0.058877755	2.376500E+01	  0.058877755	-2.793100E+01
196	  0.059078157	-6.267000E+00	  0.059078157	-1.137790E+02	  0.059078157	2.345600E+01	  0.059078157	-2.731600E+01
197	  0.059278559	-6.268000E+00	  0.059278559	-1.150750E+02	  0.059278559	2.317600E+01	  0.059278559	-2.670500E+01
198	  0.059478957	-6.269000E+00	  0.059478957	-1.164010E+02	  0.059478957	2.289500E+01	  0.059478957	-2.608800E+01
199	  0.059679359	-6.269000E+00	  0.059679359	-1.177120E+02	  0.059679359	2.262700E+01	  0.059679359	-2.548200E+01
200	  0.059879761	-6.269000E+00	  0.059879761	-1.190040E+02	  0.059879761	2.237100E+01	  0.059879761	-2.489000E+01
201	  0.060080159	-6.271000E+00	  0.060080159	-1.202620E+02	  0.060080159	2.213800E+01	  0.060080159	-2.431400E+01
202	  0.060280561	-6.273000E+00	  0.060280561	-1.215480E+02	  0.060280561	2.190800E+01	  0.060280561	-2.372900E+01
203	  0.060480963	-6.274000E+00	  0.060480963	-1.228240E+02	  0.060480963	2.168300E+01	  0.060480963	-2.315500E+01
204	  0.060681365	-6.274000E+00	  0.060681365	-1.240740E+02	  0.060681365	2.146600E+01	  0.060681365	-2.259800E+01
205	  0.060881764	-6.273000E+00	  0.060881764	-1.253480E+02	  0.060881764	2.125300E+01	  0.060881764	-2.203200E+01
206	  0.061082166	-6.274000E+00	  0.061082166	-1.266070E+02	  0.061082166	2.105200E+01	  0.061082166	-2.147700E+01
207	  0.061282568	-6.275000E+00	  0.061282568	-1.278490E+02	  0.061282568	2.086400E+01	  0.061282568	-2.093100E+01
208	  0.061482966	-6.276000E+00	  0.061482966	-1.290510E+02	  0.061482966	2.068400E+01	  0.061482966	-2.040700E+01
209	  0.061683368	-6.276000E+00	  0.061683368	-1.303010E+02	  0.061683368	2.050600E+01	  0.061683368	-1.986600E+01
210	  0.061883770	-6.278000E+00	  0.061883770	-1.315380E+02	  0.061883770	2.033800E+01	  0.061883770	-1.933100E+01
211	  0.062084168	-6.280000E+00	  0.062084168	-1.327310E+02	  0.062084168	2.018300E+01	  0.062084168	-1.881800E+01
212	  0.062284570	-6.281000E+00	  0.062284570	-1.339530E+02	  0.062284570	2.002500E+01	  0.062284570	-1.829800E+01
213	  0.062484972	-6.272000E+00	  0.062484972	-1.351160E+02	  0.062484972	1.985400E+01	  0.062484972	-1.781200E+01
214	  0.062685370	-6.273000E+00	  0.062685370	-1.363000E+02	  0.062685370	1.971400E+01	  0.062685370	-1.731100E+01
215	  0.062885776	-6.272000E+00	  0.062885776	-1.375020E+02	  0.062885776	1.956900E+01	  0.062885776	-1.680800E+01
216	  0.063086174	-6.274000E+00	  0.063086174	-1.386910E+02	  0.063086174	1.944100E+01	  0.063086174	-1.631000E+01
217	  0.063286573	-6.274000E+00	  0.063286573	-1.398550E+02	  0.063286573	1.931400E+01	  0.063286573	-1.582600E+01
218	  0.063486971	-6.273000E+00	  0.063486971	-1.410180E+02	  0.063486971	1.919100E+01	  0.063486971	-1.534500E+01
219	  0.063687377	-6.272000E+00	  0.063687377	-1.421800E+02	  0.063687377	1.907000E+01	  0.063687377	-1.486600E+01
220	  0.063887775	-6.274000E+00	  0.063887775	-1.433560E+02	  0.063887775	1.896200E+01	  0.063887775	-1.438200E+01
221	  0.064088173	-6.278000E+00	  0.064088173	-1.445210E+02	  0.064088173	1.886300E+01	  0.064088173	-1.390400E+01
222	  0.064288579	-6.282000E+00	  0.064288579	-1.456750E+02	  0.064288579	1.877100E+01	  0.064288579	-1.343100E+01
223	  0.064488977	-6.281000E+00	  0.064488977	-1.468280E+02	  0.064488977	1.866800E+01	  0.064488977	-1.296500E+01
224	  0.064689375	-6.281000E+00	  0.064689375	-1.480010E+02	  0.064689375	1.857100E+01	  0.064689375	-1.249100E+01
225	  0.064889781	-6.285000E+00	  0.064889781	-1.491330E+02	  0.064889781	1.849400E+01	  0.064889781	-1.203200E+01
226	  0.065090179	-6.287000E+00	  0.065090179	-1.502390E+02	  0.065090179	1.841400E+01	  0.065090179	-1.158700E+01
227	  0.065290578	-6.286000E+00	  0.065290578	-1.513780E+02	  0.065290578	1.832900E+01	  0.065290578	-1.113200E+01
228	  0.065490983	-6.287000E+00	  0.065490983	-1.524910E+02	  0.065490983	1.825400E+01	  0.065490983	-1.068800E+01
229	  0.065691382	-6.290000E+00	  0.065691382	-1.536180E+02	  0.065691382	1.818600E+01	  0.065691382	-1.023900E+01
230	  0.065891780	-6.293000E+00	  0.065891780	-1.547310E+02	  0.065891780	1.812200E+01	  0.065891780	-9.797000E+00
231	  0.066092186	-6.291000E+00	  0.066092186	-1.558410E+02	  0.066092186	1.805000E+01	  0.066092186	-9.359000E+00
232	  0.066292584	-6.296000E+00	  0.066292584	-1.569320E+02	  0.066292584	1.800200E+01	  0.066292584	-8.927000E+00
233	  0.066492982	-6.296000E+00	  0.066492982	-1.580380E+02	  0.066492982	1.794100E+01	  0.066492982	-8.492000E+00
234	  0.066693388	-6.299000E+00	  0.066693388	-1.591080E+02	  0.066693388	1.789300E+01	  0.066693388	-8.071000E+00
235	  0.066893786	-6.297000E+00	  0.066893786	-1.601720E+02	  0.066893786	1.783600E+01	  0.066893786	-7.655000E+00
236	  0.067094192	-6.300000E+00	  0.067094192	-1.612650E+02	  0.067094192	1.779300E+01	  0.067094192	-7.227000E+00
237	  0.067294590	-6.302000E+00	  0.067294590	-1.623400E+02	  0.067294590	1.775100E+01	  0.067294590	-6.808000E+00
238	  0.067494988	-6.303000E+00	  0.067494988	-1.634490E+02	  0.067494988	1.770800E+01	  0.067494988	-6.376000E+00
239	  0.067695394	-6.306000E+00	  0.067695394	-1.645010E+02	  0.067695394	1.767600E+01	  0.067695394	-5.967000E+00
240	  0.067895792	-6.313000E+00	  0.067895792	-1.655720E+02	  0.067895792	1.765600E+01	  0.067895792	-5.550000E+00
241	  0.068096191	-6.315000E+00	  0.068096191	-1.666310E+02	  0.068096191	1.762700E+01	  0.068096191	-5.140000E+00
242	  0.068296596	-6.315000E+00	  0.068296596	-1.676640E+02	  0.068296596	1.759600E+01	  0.068296596	-4.740000E+00
243	  0.068496995	-6.322000E+00	  0.068496995	-1.687320E+02	  0.068496995	1.758400E+01	  0.068496995	-4.327000E+00
244	  0.068697393	-6.327000E+00	  0.068697393	-1.697290E+02	  0.068697393	1.757100E+01	  0.068697393	-3.942000E+00
245	  0.068897791	-6.324000E+00	  0.068897791	-1.707750E+02	  0.068897791	1.753900E+01	  0.068897791	-3.540000E+00
246	  0.069098189	-6.328000E+00	  0.069098189	-1.718220E+02	  0.069098189	1.752800E+01	  0.069098189	-3.136000E+00
247	  0.069298595	-6.334000E+00	  0.069298595	-1.728700E+02	  0.069298595	1.752400E+01	  0.069298595	-2.733000E+00
248	  0.069498993	-6.335000E+00	  0.069498993	-1.738980E+02	  0.069498993	1.751100E+01	  0.069498993	-2.338000E+00
249	  0.069699399	-6.344000E+00	  0.069699399	-1.749080E+02	  0.069699399	1.752000E+01	  0.069699399	-1.950000E+00
250	  0.069899797	-6.346000E+00	  0.069899797	-1.759280E+02	  0.069899797	1.751500E+01	  0.069899797	-1.559000E+00
251	  0.070100196	-6.351000E+00	  0.070100196	-1.769400E+02	  0.070100196	1.751900E+01	  0.070100196	-1.171000E+00
252	  0.070300601	-6.358000E+00	  0.070300601	-1.779300E+02	  0.070300601	1.753100E+01	  0.070300601	-7.920000E-01
253	  0.070501000	-6.363000E+00	  0.070501000	-1.789280E+02	  0.070501000	1.753900E+01	  0.070501000	-4.090000E-01
254	  0.070701398	-6.368000E+00	  0.070701398	-1.798890E+02	  0.070701398	1.754900E+01	  0.070701398	-4.200000E-02
255	  0.070901804	-6.370000E+00	  0.070901804	1.790900E+02	  0.070901804	1.755700E+01	  0.070901804	3.470000E-01
256	  0.071102202	-6.381000E+00	  0.071102202	1.781060E+02	  0.071102202	1.758700E+01	  0.071102202	7.230000E-01
257	  0.071302600	-6.388000E+00	  0.071302600	1.771320E+02	  0.071302600	1.761100E+01	  0.071302600	1.096000E+00
258	  0.071503006	-6.392000E+00	  0.071503006	1.761380E+02	  0.071503006	1.762800E+01	  0.071503006	1.476000E+00
259	  0.071703404	-6.398000E+00	  0.071703404	1.751780E+02	  0.071703404	1.765400E+01	  0.071703404	1.843000E+00
260	  0.071903802	-6.407000E+00	  0.071903802	1.741960E+02	  0.071903802	1.768800E+01	  0.071903802	2.217000E+00
261	  0.072104208	-6.414000E+00	  0.072104208	1.732170E+02	  0.072104208	1.772100E+01	  0.072104208	2.591000E+00
262	  0.072304606	-6.420000E+00	  0.072304606	1.722920E+02	  0.072304606	1.775100E+01	  0.072304606	2.945000E+00
263	  0.072505005	-6.424000E+00	  0.072505005	1.713350E+02	  0.072505005	1.778000E+01	  0.072505005	3.311000E+00
264	  0.072705410	-6.432000E+00	  0.072705410	1.703620E+02	  0.072705410	1.782100E+01	  0.072705410	3.682000E+00
265	  0.072905809	-6.442000E+00	  0.072905809	1.694150E+02	  0.072905809	1.787000E+01	  0.072905809	4.044000E+00
266	  0.073106214	-6.446000E+00	  0.073106214	1.684510E+02	  0.073106214	1.790500E+01	  0.073106214	4.413000E+00
267	  0.073306613	-6.459000E+00	  0.073306613	1.675040E+02	  0.073306613	1.796400E+01	  0.073306613	4.774000E+00
268	  0.073507011	-6.463000E+00	  0.073507011	1.665830E+02	  0.073507011	1.800400E+01	  0.073507011	5.127000E+00
269	  0.073707417	-6.471000E+00	  0.073707417	1.656210E+02	  0.073707417	1.805500E+01	  0.073707417	5.495000E+00
270	  0.073907815	-6.477000E+00	  0.073907815	1.647130E+02	  0.073907815	1.810400E+01	  0.073907815	5.843000E+00
271	  0.074108213	-6.485000E+00	  0.074108213	1.637970E+02	  0.074108213	1.815800E+01	  0.074108213	6.194000E+00
272	  0.074308619	-6.495000E+00	  0.074308619	1.628370E+02	  0.074308619	1.822300E+01	  0.074308619	6.562000E+00
273	  0.074509017	-6.498000E+00	  0.074509017	1.619590E+02	  0.074509017	1.826800E+01	  0.074509017	6.900000E+00
274	  0.074709415	-6.501000E+00	  0.074709415	1.610140E+02	  0.074709415	1.832100E+01	  0.074709415	7.264000E+00
275	  0.074909821	-6.515000E+00	  0.074909821	1.601160E+02	  0.074909821	1.839900E+01	  0.074909821	7.607000E+00
276	  0.075110219	-6.522000E+00	  0.075110219	1.592060E+02	  0.075110219	1.846100E+01	  0.075110219	7.958000E+00
277	  0.075310618	-6.530000E+00	  0.075310618	1.582910E+02	  0.075310618	1.853100E+01	  0.075310618	8.310000E+00
278	  0.075511023	-6.538000E+00	  0.075511023	1.574200E+02	  0.075511023	1.859700E+01	  0.075511023	8.646000E+00
279	  0.075711422	-6.547000E+00	  0.075711422	1.565530E+02	  0.075711422	1.867000E+01	  0.075711422	8.981000E+00
280	  0.075911827	-6.553000E+00	  0.075911827	1.556250E+02	  0.075911827	1.874300E+01	  0.075911827	9.340000E+00
281	  0.076112226	-6.560000E+00	  0.076112226	1.547260E+02	  0.076112226	1.881600E+01	  0.076112226	9.688000E+00
282	  0.076312624	-6.573000E+00	  0.076312624	1.538510E+02	  0.076312624	1.890600E+01	  0.076312624	1.002500E+01
283	  0.076513030	-6.585000E+00	  0.076513030	1.529410E+02	  0.076513030	1.899800E+01	  0.076513030	1.037600E+01
284	  0.076713428	-6.597000E+00	  0.076713428	1.520720E+02	  0.076713428	1.909100E+01	  0.076713428	1.071100E+01
285	  0.076913826	-6.605000E+00	  0.076913826	1.512000E+02	  0.076913826	1.917400E+01	  0.076913826	1.105000E+01
286	  0.077114232	-6.612000E+00	  0.077114232	1.503170E+02	  0.077114232	1.926100E+01	  0.077114232	1.139400E+01
287	  0.077314630	-6.629000E+00	  0.077314630	1.494430E+02	  0.077314630	1.937300E+01	  0.077314630	1.173100E+01
288	  0.077515028	-6.638000E+00	  0.077515028	1.485710E+02	  0.077515028	1.946600E+01	  0.077515028	1.207000E+01
289	  0.077715434	-6.653000E+00	  0.077715434	1.477010E+02	  0.077715434	1.957800E+01	  0.077715434	1.240700E+01
290	  0.077915832	-6.660000E+00	  0.077915832	1.468500E+02	  0.077915832	1.967000E+01	  0.077915832	1.274000E+01
291	  0.078116231	-6.673000E+00	  0.078116231	1.459730E+02	  0.078116231	1.978100E+01	  0.078116231	1.308100E+01
292	  0.078316636	-6.685000E+00	  0.078316636	1.451030E+02	  0.078316636	1.989300E+01	  0.078316636	1.342100E+01
293	  0.078517035	-6.698000E+00	  0.078517035	1.442410E+02	  0.078517035	2.000800E+01	  0.078517035	1.375700E+01
294	  0.078717433	-6.711000E+00	  0.078717433	1.433730E+02	  0.078717433	2.012900E+01	  0.078717433	1.409500E+01
295	  0.078917839	-6.728000E+00	  0.078917839	1.425280E+02	  0.078917839	2.025600E+01	  0.078917839	1.442300E+01
296	  0.079118237	-6.741000E+00	  0.079118237	1.416840E+02	  0.079118237	2.037900E+01	  0.079118237	1.475200E+01
297	  0.079318643	-6.754000E+00	  0.079318643	1.408660E+02	  0.079318643	2.050100E+01	  0.079318643	1.507200E+01
298	  0.079519041	-6.767000E+00	  0.079519041	1.400130E+02	  0.079519041	2.062800E+01	  0.079519041	1.540700E+01
299	  0.079719439	-6.785000E+00	  0.079719439	1.391540E+02	  0.079719439	2.077300E+01	  0.079719439	1.574100E+01
300	  0.079919845	-6.798000E+00	  0.079919845	1.383100E+02	  0.079919845	2.090400E+01	  0.079919845	1.607200E+01
301	  0.080120243	-6.814000E+00	  0.080120243	1.374840E+02	  0.080120243	2.104600E+01	  0.080120243	1.639400E+01
302	  0.080320641	-6.829000E+00	  0.080320641	1.366640E+02	  0.080320641	2.118800E+01	  0.080320641	1.671500E+01
303	  0.080521047	-6.847000E+00	  0.080521047	1.358400E+02	  0.080521047	2.133900E+01	  0.080521047	1.703600E+01
304	  0.080721445	-6.863000E+00	  0.080721445	1.350320E+02	  0.080721445	2.148500E+01	  0.080721445	1.735200E+01
305	  0.080921844	-6.885000E+00	  0.080921844	1.342220E+02	  0.080921844	2.165100E+01	  0.080921844	1.766400E+01
306	  0.081122249	-6.903000E+00	  0.081122249	1.334080E+02	  0.081122249	2.180900E+01	  0.081122249	1.798200E+01
307	  0.081322648	-6.919000E+00	  0.081322648	1.326080E+02	  0.081322648	2.196300E+01	  0.081322648	1.829500E+01
308	  0.081523046	-6.935000E+00	  0.081523046	1.317960E+02	  0.081523046	2.212300E+01	  0.081523046	1.861300E+01
309	  0.081723452	-6.948000E+00	  0.081723452	1.309880E+02	  0.081723452	2.227500E+01	  0.081723452	1.893400E+01
310	  0.081923850	-6.969000E+00	  0.081923850	1.301930E+02	  0.081923850	2.245200E+01	  0.081923850	1.924100E+01
311	  0.082124248	-6.984000E+00	  0.082124248	1.294210E+02	  0.082124248	2.260900E+01	  0.082124248	1.954600E+01
312	  0.082324654	-7.002000E+00	  0.082324654	1.286500E+02	  0.082324654	2.277900E+01	  0.082324654	1.984600E+01
313	  0.082525052	-7.028000E+00	  0.082525052	1.279040E+02	  0.082525052	2.296900E+01	  0.082525052	2.012800E+01
314	  0.082725458	-7.047000E+00	  0.082725458	1.271320E+02	  0.082725458	2.314900E+01	  0.082725458	2.042800E+01
315	  0.082925856	-7.068000E+00	  0.082925856	1.263820E+02	  0.082925856	2.333000E+01	  0.082925856	2.071700E+01
316	  0.083126254	-7.090000E+00	  0.083126254	1.255900E+02	  0.083126254	2.352600E+01	  0.083126254	2.102200E+01
317	  0.083326660	-7.107000E+00	  0.083326660	1.248450E+02	  0.083326660	2.370200E+01	  0.083326660	2.131400E+01
318	  0.083527058	-7.130000E+00	  0.083527058	1.241290E+02	  0.083527058	2.389300E+01	  0.083527058	2.158600E+01
319	  0.083727457	-7.156000E+00	  0.083727457	1.233540E+02	  0.083727457	2.410700E+01	  0.083727457	2.187800E+01
320	  0.083927862	-7.176000E+00	  0.083927862	1.226200E+02	  0.083927862	2.429900E+01	  0.083927862	2.216100E+01
321	  0.084128261	-7.198000E+00	  0.084128261	1.218900E+02	  0.084128261	2.449900E+01	  0.084128261	2.243900E+01
322	  0.084328659	-7.217000E+00	  0.084328659	1.211660E+02	  0.084328659	2.469200E+01	  0.084328659	2.271900E+01
323	  0.084529065	-7.239000E+00	  0.084529065	1.204360E+02	  0.084529065	2.489700E+01	  0.084529065	2.299700E+01
324	  0.084729463	-7.266000E+00	  0.084729463	1.197260E+02	  0.084729463	2.511600E+01	  0.084729463	2.326000E+01
325	  0.084929854	-7.285000E+00	  0.084929854	1.189660E+02	  0.084929854	2.532500E+01	  0.084929854	2.355300E+01
326	  0.085130259	-7.308000E+00	  0.085130259	1.182500E+02	  0.085130259	2.553700E+01	  0.085130259	2.382500E+01
327	  0.085330658	-7.324000E+00	  0.085330658	1.175400E+02	  0.085330658	2.573500E+01	  0.085330658	2.410100E+01
328	  0.085531056	-7.348000E+00	  0.085531056	1.168200E+02	  0.085531056	2.596100E+01	  0.085531056	2.437000E+01
329	  0.085731462	-7.374000E+00	  0.085731462	1.161120E+02	  0.085731462	2.618900E+01	  0.085731462	2.463200E+01
330	  0.085931860	-7.392000E+00	  0.085931860	1.154050E+02	  0.085931860	2.640000E+01	  0.085931860	2.490300E+01
331	  0.086132258	-7.417000E+00	  0.086132258	1.147390E+02	  0.086132258	2.662600E+01	  0.086132258	2.514600E+01
332	  0.086332664	-7.438000E+00	  0.086332664	1.140140E+02	  0.086332664	2.685500E+01	  0.086332664	2.542000E+01
333	  0.086533062	-7.461000E+00	  0.086533062	1.133230E+02	  0.086533062	2.708600E+01	  0.086533062	2.567600E+01
334	  0.086733460	-7.476000E+00	  0.086733460	1.126270E+02	  0.086733460	2.729700E+01	  0.086733460	2.594700E+01
335	  0.086933866	-7.503000E+00	  0.086933866	1.119360E+02	  0.086933866	2.754700E+01	  0.086933866	2.619400E+01
336	  0.087134264	-7.523000E+00	  0.087134264	1.112640E+02	  0.087134264	2.777300E+01	  0.087134264	2.644600E+01
337	  0.087334670	-7.545000E+00	  0.087334670	1.105680E+02	  0.087334670	2.801400E+01	  0.087334670	2.670400E+01
338	  0.087535068	-7.567000E+00	  0.087535068	1.099070E+02	  0.087535068	2.824900E+01	  0.087535068	2.694600E+01
339	  0.087735467	-7.591000E+00	  0.087735467	1.092450E+02	  0.087735467	2.849400E+01	  0.087735467	2.718300E+01
340	  0.087935872	-7.613000E+00	  0.087935872	1.085930E+02	  0.087935872	2.873300E+01	  0.087935872	2.742100E+01
341	  0.088136271	-7.638000E+00	  0.088136271	1.079060E+02	  0.088136271	2.899500E+01	  0.088136271	2.766500E+01
342	  0.088336669	-7.658000E+00	  0.088336669	1.072790E+02	  0.088336669	2.922600E+01	  0.088336669	2.789400E+01
343	  0.088537075	-7.680000E+00	  0.088537075	1.066370E+02	  0.088537075	2.947200E+01	  0.088537075	2.812400E+01
344	  0.088737473	-7.701000E+00	  0.088737473	1.059490E+02	  0.088737473	2.973000E+01	  0.088737473	2.837500E+01
345	  0.088937871	-7.720000E+00	  0.088937871	1.053160E+02	  0.088937871	2.997200E+01	  0.088937871	2.860400E+01
346	  0.089138277	-7.754000E+00	  0.089138277	1.047000E+02	  0.089138277	3.025300E+01	  0.089138277	2.879500E+01
347	  0.089338675	-7.769000E+00	  0.089338675	1.041000E+02	  0.089338675	3.047700E+01	  0.089338675	2.901900E+01
348	  0.089539073	-7.800000E+00	  0.089539073	1.034390E+02	  0.089539073	3.077000E+01	  0.089539073	2.923300E+01
349	  0.089739479	-7.820000E+00	  0.089739479	1.028280E+02	  0.089739479	3.101900E+01	  0.089739479	2.944800E+01
350	  0.089939877	-7.847000E+00	  0.089939877	1.022250E+02	  0.089939877	3.128600E+01	  0.089939877	2.964400E+01
351	  0.090140276	-7.869000E+00	  0.090140276	1.016240E+02	  0.090140276	3.154500E+01	  0.090140276	2.984700E+01
352	  0.090340681	-7.896000E+00	  0.090340681	1.009920E+02	  0.090340681	3.182800E+01	  0.090340681	3.005300E+01
353	  0.090541080	-7.919000E+00	  0.090541080	1.004140E+02	  0.090541080	3.208500E+01	  0.090541080	3.024200E+01
354	  0.090741485	-7.948000E+00	  0.090741485	9.982600E+01	  0.090741485	3.236500E+01	  0.090741485	3.042300E+01
355	  0.090941884	-7.981000E+00	  0.090941884	9.924800E+01	  0.090941884	3.265600E+01	  0.090941884	3.058600E+01
356	  0.091142282	-8.007000E+00	  0.091142282	9.866900E+01	  0.091142282	3.293000E+01	  0.091142282	3.076400E+01
357	  0.091342688	-8.037000E+00	  0.091342688	9.806100E+01	  0.091342688	3.322700E+01	  0.091342688	3.094500E+01
358	  0.091543086	-8.061000E+00	  0.091543086	9.749000E+01	  0.091543086	3.350000E+01	  0.091543086	3.112100E+01
359	  0.091743484	-8.088000E+00	  0.091743484	9.692700E+01	  0.091743484	3.377700E+01	  0.091743484	3.128800E+01
360	  0.091943890	-8.113000E+00	  0.091943890	9.633000E+01	  0.091943890	3.406600E+01	  0.091943890	3.146900E+01
361	  0.092144288	-8.135000E+00	  0.092144288	9.574100E+01	  0.092144288	3.434800E+01	  0.092144288	3.165300E+01
362	  0.092344686	-8.159000E+00	  0.092344686	9.518700E+01	  0.092344686	3.462500E+01	  0.092344686	3.181500E+01
363	  0.092545092	-8.185000E+00	  0.092545092	9.463200E+01	  0.092545092	3.490800E+01	  0.092545092	3.197400E+01
364	  0.092745490	-8.218000E+00	  0.092745490	9.409800E+01	  0.092745490	3.520400E+01	  0.092745490	3.210300E+01
365	  0.092945889	-8.242000E+00	  0.092945889	9.353300E+01	  0.092945889	3.549200E+01	  0.092945889	3.226500E+01
366	  0.093146294	-8.270000E+00	  0.093146294	9.301800E+01	  0.093146294	3.577200E+01	  0.093146294	3.239600E+01
367	  0.093346693	-8.287000E+00	  0.093346693	9.249500E+01	  0.093346693	3.603000E+01	  0.093346693	3.255500E+01
368	  0.093547091	-8.310000E+00	  0.093547091	9.199800E+01	  0.093547091	3.629400E+01	  0.093547091	3.269000E+01
369	  0.093747497	-8.334000E+00	  0.093747497	9.141700E+01	  0.093747497	3.659700E+01	  0.093747497	3.285200E+01
370	  0.093947895	-8.359000E+00	  0.093947895	9.092300E+01	  0.093947895	3.687200E+01	  0.093947895	3.297400E+01
371	  0.094148301	-8.382000E+00	  0.094148301	9.041500E+01	  0.094148301	3.714600E+01	  0.094148301	3.310700E+01
372	  0.094348699	-8.409000E+00	  0.094348699	8.993100E+01	  0.094348699	3.742500E+01	  0.094348699	3.321500E+01
373	  0.094549097	-8.426000E+00	  0.094549097	8.945400E+01	  0.094549097	3.767600E+01	  0.094549097	3.335000E+01
374	  0.094749503	-8.452000E+00	  0.094749503	8.898000E+01	  0.094749503	3.795000E+01	  0.094749503	3.345400E+01
375	  0.094949901	-8.470000E+00	  0.094949901	8.846500E+01	  0.094949901	3.822600E+01	  0.094949901	3.359700E+01
376	  0.095150299	-8.487000E+00	  0.095150299	8.802100E+01	  0.095150299	3.846600E+01	  0.095150299	3.371600E+01
377	  0.095350705	-8.508000E+00	  0.095350705	8.752900E+01	  0.095350705	3.874400E+01	  0.095350705	3.383500E+01
378	  0.095551103	-8.526000E+00	  0.095551103	8.707800E+01	  0.095551103	3.899500E+01	  0.095551103	3.394900E+01
379	  0.095751502	-8.547000E+00	  0.095751502	8.660900E+01	  0.095751502	3.926400E+01	  0.095751502	3.406000E+01
380	  0.095951907	-8.562000E+00	  0.095951907	8.617300E+01	  0.095951907	3.950300E+01	  0.095951907	3.417600E+01
381	  0.096152306	-8.583000E+00	  0.096152306	8.571100E+01	  0.096152306	3.977500E+01	  0.096152306	3.427700E+01
382	  0.096352704	-8.597000E+00	  0.096352704	8.527000E+01	  0.096352704	4.001900E+01	  0.096352704	3.439400E+01
383	  0.096553110	-8.611000E+00	  0.096553110	8.483800E+01	  0.096553110	4.026100E+01	  0.096553110	3.450700E+01
384	  0.096753508	-8.628000E+00	  0.096753508	8.440600E+01	  0.096753508	4.051100E+01	  0.096753508	3.460900E+01
385	  0.096953906	-8.639000E+00	  0.096953906	8.398500E+01	  0.096953906	4.074600E+01	  0.096953906	3.472100E+01
386	  0.097154312	-8.656000E+00	  0.097154312	8.353600E+01	  0.097154312	4.100800E+01	  0.097154312	3.482600E+01
387	  0.097354710	-8.667000E+00	  0.097354710	8.309300E+01	  0.097354710	4.125500E+01	  0.097354710	3.494700E+01
388	  0.097555116	-8.683000E+00	  0.097555116	8.269300E+01	  0.097555116	4.149300E+01	  0.097555116	3.503500E+01
389	  0.097755514	-8.696000E+00	  0.097755514	8.230400E+01	  0.097755514	4.172200E+01	  0.097755514	3.512600E+01
390	  0.097955912	-8.704000E+00	  0.097955912	8.186700E+01	  0.097955912	4.196400E+01	  0.097955912	3.525200E+01
391	  0.098156318	-8.710000E+00	  0.098156318	8.144800E+01	  0.098156318	4.219700E+01	  0.098156318	3.537300E+01
392	  0.098356716	-8.723000E+00	  0.098356716	8.104800E+01	  0.098356716	4.243400E+01	  0.098356716	3.546700E+01
393	  0.098557115	-8.732000E+00	  0.098557115	8.060800E+01	  0.098557115	4.268700E+01	  0.098557115	3.558500E+01
394	  0.098757520	-8.734000E+00	  0.098757520	8.018400E+01	  0.098757520	4.291700E+01	  0.098757520	3.572200E+01
395	  0.098957919	-8.743000E+00	  0.098957919	7.975500E+01	  0.098957919	4.316800E+01	  0.098957919	3.583300E+01
396	  0.099158317	-8.748000E+00	  0.099158317	7.934700E+01	  0.099158317	4.339900E+01	  0.099158317	3.595300E+01
397	  0.099358723	-8.752000E+00	  0.099358723	7.894500E+01	  0.099358723	4.362800E+01	  0.099358723	3.607200E+01
398	  0.099559121	-8.753000E+00	  0.099559121	7.854800E+01	  0.099559121	4.385000E+01	  0.099559121	3.619900E+01
399	  0.099759519	-8.757000E+00	  0.099759519	7.811300E+01	  0.099759519	4.410200E+01	  0.099759519	3.632500E+01
400	  0.099959925	-8.748000E+00	  0.099959925	7.767900E+01	  0.099959925	4.432500E+01	  0.099959925	3.650300E+01
401	  0.100160323	-8.742000E+00	  0.100160323	7.727600E+01	  0.100160323	4.454100E+01	  0.100160323	3.665700E+01
402	  0.100360721	-8.750000E+00	  0.100360721	7.687200E+01	  0.100360721	4.479000E+01	  0.100360721	3.675600E+01
403	  0.100561127	-8.744000E+00	  0.100561127	7.642700E+01	  0.100561127	4.503500E+01	  0.100561127	3.692100E+01
404	  0.100761525	-8.731000E+00	  0.100761525	7.600800E+01	  0.100761525	4.525000E+01	  0.100761525	3.710700E+01
405	  0.100961931	-8.731000E+00	  0.100961931	7.562600E+01	  0.100961931	4.547600E+01	  0.100961931	3.722700E+01
406	  0.101162329	-8.726000E+00	  0.101162329	7.517000E+01	  0.101162329	4.573700E+01	  0.101162329	3.739000E+01
407	  0.101362728	-8.719000E+00	  0.101362728	7.476600E+01	  0.101362728	4.596400E+01	  0.101362728	3.754500E+01
408	  0.101563133	-8.718000E+00	  0.101563133	7.433600E+01	  0.101563133	4.622100E+01	  0.101563133	3.768600E+01
409	  0.101763532	-8.708000E+00	  0.101763532	7.392200E+01	  0.101763532	4.645400E+01	  0.101763532	3.785400E+01
410	  0.101963930	-8.702000E+00	  0.101963930	7.342200E+01	  0.101963930	4.675200E+01	  0.101963930	3.803000E+01
411	  0.102164328	-8.685000E+00	  0.102164328	7.297000E+01	  0.102164328	4.699800E+01	  0.102164328	3.824100E+01
412	  0.102364726	-8.681000E+00	  0.102364726	7.255500E+01	  0.102364726	4.725200E+01	  0.102364726	3.838500E+01
413	  0.102565125	-8.659000E+00	  0.102565125	7.209000E+01	  0.102565125	4.750400E+01	  0.102565125	3.861700E+01
414	  0.102765530	-8.654000E+00	  0.102765530	7.167100E+01	  0.102765530	4.776400E+01	  0.102765530	3.876300E+01
415	  0.102965929	-8.644000E+00	  0.102965929	7.121800E+01	  0.102965929	4.803700E+01	  0.102965929	3.894500E+01
416	  0.103166327	-8.627000E+00	  0.103166327	7.078200E+01	  0.103166327	4.829100E+01	  0.103166327	3.914800E+01
417	  0.103366733	-8.613000E+00	  0.103366733	7.031900E+01	  0.103366733	4.857100E+01	  0.103366733	3.934500E+01
418	  0.103567131	-8.607000E+00	  0.103567131	6.975000E+01	  0.103567131	4.894100E+01	  0.103567131	3.953700E+01
419	  0.103767529	-8.588000E+00	  0.103767529	6.929600E+01	  0.103767529	4.921400E+01	  0.103767529	3.975500E+01
420	  0.103967935	-8.577000E+00	  0.103967935	6.880100E+01	  0.103967935	4.953300E+01	  0.103967935	3.994600E+01
421	  0.104168333	-8.565000E+00	  0.104168333	6.830400E+01	  0.104168333	4.985600E+01	  0.104168333	4.014300E+01
422	  0.104368731	-8.545000E+00	  0.104368731	6.781700E+01	  0.104368731	5.016000E+01	  0.104368731	4.037400E+01
423	  0.104569137	-8.532000E+00	  0.104569137	6.733200E+01	  0.104569137	5.048000E+01	  0.104569137	4.057300E+01
424	  0.104769535	-8.506000E+00	  0.104769535	6.674800E+01	  0.104769535	5.085300E+01	  0.104769535	4.085900E+01
425	  0.104969934	-8.498000E+00	  0.104969934	6.623100E+01	  0.104969934	5.121600E+01	  0.104969934	4.103800E+01
426	  0.105170339	-8.476000E+00	  0.105170339	6.570400E+01	  0.105170339	5.156600E+01	  0.105170339	4.128800E+01
427	  0.105370738	-8.468000E+00	  0.105370738	6.517500E+01	  0.105370738	5.194700E+01	  0.105370738	4.146900E+01
428	  0.105571143	-8.446000E+00	  0.105571143	6.460100E+01	  0.105571143	5.234300E+01	  0.105571143	4.173200E+01
429	  0.105771542	-8.432000E+00	  0.105771542	6.405200E+01	  0.105771542	5.274100E+01	  0.105771542	4.194400E+01
430	  0.105971940	-8.418000E+00	  0.105971940	6.346400E+01	  0.105971940	5.317500E+01	  0.105971940	4.216400E+01
431	  0.106172346	-8.398000E+00	  0.106172346	6.291300E+01	  0.106172346	5.357700E+01	  0.106172346	4.240600E+01
432	  0.106372744	-8.382000E+00	  0.106372744	6.234200E+01	  0.106372744	5.400600E+01	  0.106372744	4.263300E+01
433	  0.106573142	-8.361000E+00	  0.106573142	6.174800E+01	  0.106573142	5.445300E+01	  0.106573142	4.288700E+01
434	  0.106773548	-8.347000E+00	  0.106773548	6.115800E+01	  0.106773548	5.491500E+01	  0.106773548	4.310600E+01
435	  0.106973946	-8.327000E+00	  0.106973946	6.057400E+01	  0.106973946	5.537100E+01	  0.106973946	4.334900E+01
436	  0.107174344	-8.310000E+00	  0.107174344	5.993500E+01	  0.107174344	5.588500E+01	  0.107174344	4.359000E+01
437	  0.107374750	-8.294000E+00	  0.107374750	5.930900E+01	  0.107374750	5.639800E+01	  0.107374750	4.381400E+01
438	  0.107575148	-8.275000E+00	  0.107575148	5.873200E+01	  0.107575148	5.687100E+01	  0.107575148	4.405200E+01
439	  0.107775547	-8.260000E+00	  0.107775547	5.812200E+01	  0.107775547	5.738800E+01	  0.107775547	4.426400E+01
440	  0.107975952	-8.238000E+00	  0.107975952	5.750900E+01	  0.107975952	5.790700E+01	  0.107975952	4.451300E+01
441	  0.108176351	-8.224000E+00	  0.108176351	5.686600E+01	  0.108176351	5.847300E+01	  0.108176351	4.472200E+01
442	  0.108376749	-8.209000E+00	  0.108376749	5.624200E+01	  0.108376749	5.902700E+01	  0.108376749	4.493100E+01
443	  0.108577155	-8.188000E+00	  0.108577155	5.557300E+01	  0.108577155	5.962700E+01	  0.108577155	4.517800E+01
444	  0.108777553	-8.176000E+00	  0.108777553	5.490800E+01	  0.108777553	6.024400E+01	  0.108777553	4.536000E+01
445	  0.108977959	-8.155000E+00	  0.108977959	5.425800E+01	  0.108977959	6.084700E+01	  0.108977959	4.559500E+01
446	  0.109178357	-8.147000E+00	  0.109178357	5.356600E+01	  0.109178357	6.151400E+01	  0.109178357	4.574800E+01
447	  0.109378755	-8.136000E+00	  0.109378755	5.285500E+01	  0.109378755	6.220800E+01	  0.109378755	4.592200E+01
448	  0.109579161	-8.114000E+00	  0.109579161	5.222000E+01	  0.109579161	6.282800E+01	  0.109579161	4.614200E+01
449	  0.109779559	-8.102000E+00	  0.109779559	5.150600E+01	  0.109779559	6.354700E+01	  0.109779559	4.630100E+01
450	  0.109979957	-8.088000E+00	  0.109979957	5.084600E+01	  0.109979957	6.422000E+01	  0.109979957	4.646700E+01
451	  0.110180363	-8.073000E+00	  0.110180363	5.009900E+01	  0.110180363	6.499600E+01	  0.110180363	4.663300E+01
452	  0.110380761	-8.071000E+00	  0.110380761	4.936600E+01	  0.110380761	6.577600E+01	  0.110380761	4.669600E+01
453	  0.110581160	-8.060000E+00	  0.110581160	4.864300E+01	  0.110581160	6.655300E+01	  0.110581160	4.681300E+01
454	  0.110781565	-8.047000E+00	  0.110781565	4.786900E+01	  0.110781565	6.739700E+01	  0.110781565	4.694000E+01
455	  0.110981964	-8.039000E+00	  0.110981964	4.718000E+01	  0.110981964	6.816200E+01	  0.110981964	4.700900E+01
456	  0.111182362	-8.040000E+00	  0.111182362	4.640700E+01	  0.111182362	6.903300E+01	  0.111182362	4.700500E+01
457	  0.111382768	-8.026000E+00	  0.111382768	4.565300E+01	  0.111382768	6.989400E+01	  0.111382768	4.709300E+01
458	  0.111583166	-8.028000E+00	  0.111583166	4.488100E+01	  0.111583166	7.078600E+01	  0.111583166	4.704900E+01
459	  0.111783572	-8.021000E+00	  0.111783572	4.405700E+01	  0.111783572	7.175400E+01	  0.111783572	4.704800E+01
460	  0.111983970	-8.018000E+00	  0.111983970	4.325700E+01	  0.111983970	7.270400E+01	  0.111983970	4.700400E+01
461	  0.112184368	-8.019000E+00	  0.112184368	4.244400E+01	  0.112184368	7.367800E+01	  0.112184368	4.689800E+01
462	  0.112384774	-8.013000E+00	  0.112384774	4.160500E+01	  0.112384774	7.470300E+01	  0.112384774	4.683300E+01
463	  0.112585172	-8.009000E+00	  0.112585172	4.080900E+01	  0.112585172	7.568400E+01	  0.112585172	4.672700E+01
464	  0.112785570	-8.018000E+00	  0.112785570	4.000500E+01	  0.112785570	7.666900E+01	  0.112785570	4.649500E+01
465	  0.112985976	-8.010000E+00	  0.112985976	3.916700E+01	  0.112985976	7.773000E+01	  0.112985976	4.637100E+01
466	  0.113186374	-8.014000E+00	  0.113186374	3.829600E+01	  0.113186374	7.882400E+01	  0.113186374	4.611500E+01
467	  0.113386773	-8.022000E+00	  0.113386773	3.744600E+01	  0.113386773	7.989100E+01	  0.113386773	4.580000E+01
468	  0.113587178	-8.019000E+00	  0.113587178	3.651600E+01	  0.113587178	8.108900E+01	  0.113587178	4.551100E+01
469	  0.113787577	-8.029000E+00	  0.113787577	3.568300E+01	  0.113787577	8.214100E+01	  0.113787577	4.512000E+01
470	  0.113987975	-8.040000E+00	  0.113987975	3.484200E+01	  0.113987975	8.320200E+01	  0.113987975	4.469100E+01
471	  0.114188381	-8.050000E+00	  0.114188381	3.388800E+01	  0.114188381	8.441300E+01	  0.114188381	4.418200E+01
472	  0.114388779	-8.057000E+00	  0.114388779	3.305900E+01	  0.114388779	8.546900E+01	  0.114388779	4.371200E+01
473	  0.114589177	-8.068000E+00	  0.114589177	3.208900E+01	  0.114589177	8.669600E+01	  0.114589177	4.310600E+01
474	  0.114789583	-8.080000E+00	  0.114789583	3.120000E+01	  0.114789583	8.781100E+01	  0.114789583	4.249300E+01
475	  0.114989981	-8.093000E+00	  0.114989981	3.027700E+01	  0.114989981	8.896000E+01	  0.114989981	4.181700E+01
476	  0.115190387	-8.112000E+00	  0.115190387	2.932500E+01	  0.115190387	9.010900E+01	  0.115190387	4.102400E+01
477	  0.115390785	-8.129000E+00	  0.115390785	2.838700E+01	  0.115390785	9.123300E+01	  0.115390785	4.020700E+01
478	  0.115591183	-8.148000E+00	  0.115591183	2.743100E+01	  0.115591183	9.236000E+01	  0.115591183	3.932900E+01
479	  0.115791589	-8.169000E+00	  0.115791589	2.651400E+01	  0.115791589	9.340200E+01	  0.115791589	3.841200E+01
480	  0.115991987	-8.196000E+00	  0.115991987	2.552400E+01	  0.115991987	9.448300E+01	  0.115991987	3.735000E+01
481	  0.116192386	-8.211000E+00	  0.116192386	2.454300E+01	  0.116192386	9.558700E+01	  0.116192386	3.633800E+01
482	  0.116392791	-8.243000E+00	  0.116392791	2.355900E+01	  0.116392791	9.656600E+01	  0.116392791	3.514700E+01
483	  0.116593190	-8.272000E+00	  0.116593190	2.250500E+01	  0.116593190	9.761000E+01	  0.116593190	3.387200E+01
484	  0.116793588	-8.304000E+00	  0.116793588	2.152700E+01	  0.116793588	9.850300E+01	  0.116793588	3.260700E+01
485	  0.116993994	-8.334000E+00	  0.116993994	2.048600E+01	  0.116993994	9.943400E+01	  0.116993994	3.124800E+01
486	  0.117194392	-8.375000E+00	  0.117194392	1.944800E+01	  0.117194392	1.002270E+02	  0.117194392	2.977400E+01
487	  0.117394790	-8.413000E+00	  0.117394790	1.840500E+01	  0.117394790	1.009930E+02	  0.117394790	2.828300E+01
488	  0.117595196	-8.453000E+00	  0.117595196	1.736200E+01	  0.117595196	1.016870E+02	  0.117595196	2.675000E+01
489	  0.117795594	-8.500000E+00	  0.117795594	1.624600E+01	  0.117795594	1.023230E+02	  0.117795594	2.505300E+01
490	  0.117995992	-8.549000E+00	  0.117995992	1.517600E+01	  0.117995992	1.028360E+02	  0.117995992	2.338700E+01
491	  0.118196398	-8.595000E+00	  0.118196398	1.404300E+01	  0.118196398	1.033500E+02	  0.118196398	2.163500E+01
492	  0.118396796	-8.647000E+00	  0.118396796	1.293700E+01	  0.118396796	1.037120E+02	  0.118396796	1.987400E+01
493	  0.118597202	-8.701000E+00	  0.118597202	1.179500E+01	  0.118597202	1.040070E+02	  0.118597202	1.805000E+01
494	  0.118797600	-8.755000E+00	  0.118797600	1.070500E+01	  0.118797600	1.041820E+02	  0.118797600	1.629600E+01
