! Anritsu VNA Master:             	Model: MS2036C/10/77
! SN:             	1601066
! /bd0/18may09/b256.ns.m2.txt
! Existing Calibration Information:
! TYPE:             	Current Settings	Active Cal Settings
! TIME:             	05/09/2018 07:39:52 PM	05/09/2018 07:34:34 PM
! INTERNAL TEMP:    	53.0 C	52.0 C
! # POINTS:         	494	494
! START FREQ:       	20.000 MHz	20.000 MHz
! STOP FREQ:        	118.797 594 MHz	118.797 594 MHz
! SOURCE POWER:     	High	High
! IFBW:             	50 Hz	50 Hz
! AVG FACTOR:       	  1 	  1 
! REF PLANE 1:      	0 mm	0 mm
! REF PLANE 2:      	0 mm	0 mm
! CAL TYPE:         	Full S22	Full S22
! CAL METHOD:       	SOLT	SOLT
! CAL LINE TYPE:    	Coax	Coax
! DUT PORT 1:       	K-Conn(M)	K-Conn(M)
! DUT PORT 2:       	K-Conn(M)	K-Conn(M)
! CAL STATUS:       	OK: Accuracy High	--
! PROP-V:       	0.700
! CABLE LOSS:       	0.000 dB/m
! REF IMPEDANCE:       	50.0
! Trace Specific Parameters:	TR1	TR2	TR3	TR4
! TRACE.#.Y (GRAPH TYPE)	LOG MAG	PHASE	REAL IMPEDANCE	IMAGINARY IMPEDANCE
! TRACE.#.X 	FREQ.GHZ	FREQ.GHZ	FREQ.GHZ	FREQ.GHZ
! S-PARAMETER	S22	S22	S22	S22
! SMOOTH/APERTURE %	0	0	0	0
! WINDOW	NSL	NSL	NSL	NSL
! GATING	OFF	OFF	OFF	OFF
! FGTD	OFF	OFF	OFF	OFF
Marker Information per Trace:	TR1	TR2	TR3	TR4
!MK1	--	"MK1 TR2:  20.000 MHz,PH:-126.92°"	--	--
!MK2	--	--	"MK2 TR3:  70.100 200 MHz,Z:(16.933 ohm, -1.429 ohm)"	--
!MK3	--	--	--	--
!MK4	--	--	--	--
!MK5	--	--	--	--
!MK6	--	--	--	--
!MK7	--	--	--	--
!MK8	--	--	--	--
PNT	TR1.FREQ.GHZ	TR1.LOG MAG.dB	TR2.FREQ.GHZ	TR2.PHASE.deg	TR3.FREQ.GHZ	TR3.REAL IMPEDANCE.ohm	TR4.FREQ.GHZ	TR4.IMAGINARY IMPEDANCE.ohm
1	  0.020000000	-6.260000E-01	  0.020000000	-1.269240E+02	  0.020000000	2.250000E+00	  0.020000000	-2.492900E+01
2	  0.020200402	-6.280000E-01	  0.020200402	-1.284020E+02	  0.020200402	2.230000E+00	  0.020200402	-2.413000E+01
3	  0.020400802	-6.330000E-01	  0.020400802	-1.298980E+02	  0.020400802	2.218000E+00	  0.020400802	-2.333100E+01
4	  0.020601204	-6.380000E-01	  0.020601204	-1.313950E+02	  0.020601204	2.209000E+00	  0.020601204	-2.254100E+01
5	  0.020801604	-6.410000E-01	  0.020801604	-1.329450E+02	  0.020801604	2.196000E+00	  0.020801604	-2.173300E+01
6	  0.021002004	-6.430000E-01	  0.021002004	-1.344830E+02	  0.021002004	2.176000E+00	  0.021002004	-2.094100E+01
7	  0.021202406	-6.480000E-01	  0.021202406	-1.360430E+02	  0.021202406	2.169000E+00	  0.021202406	-2.014600E+01
8	  0.021402806	-6.510000E-01	  0.021402806	-1.375840E+02	  0.021402806	2.156000E+00	  0.021402806	-1.936900E+01
9	  0.021603208	-6.570000E-01	  0.021603208	-1.391180E+02	  0.021603208	2.152000E+00	  0.021603208	-1.860400E+01
10	  0.021803608	-6.600000E-01	  0.021803608	-1.406580E+02	  0.021803608	2.143000E+00	  0.021803608	-1.784400E+01
11	  0.022004008	-6.660000E-01	  0.022004008	-1.422150E+02	  0.022004008	2.142000E+00	  0.022004008	-1.708200E+01
12	  0.022204408	-6.720000E-01	  0.022204408	-1.437960E+02	  0.022204408	2.141000E+00	  0.022204408	-1.631700E+01
13	  0.022404809	-6.810000E-01	  0.022404809	-1.453860E+02	  0.022404809	2.150000E+00	  0.022404809	-1.555300E+01
14	  0.022605211	-6.850000E-01	  0.022605211	-1.469880E+02	  0.022605211	2.146000E+00	  0.022605211	-1.479100E+01
15	  0.022805611	-6.880000E-01	  0.022805611	-1.486040E+02	  0.022805611	2.137000E+00	  0.022805611	-1.402800E+01
16	  0.023006011	-6.930000E-01	  0.023006011	-1.502060E+02	  0.023006011	2.136000E+00	  0.023006011	-1.327800E+01
17	  0.023206413	-6.980000E-01	  0.023206413	-1.518130E+02	  0.023206413	2.135000E+00	  0.023206413	-1.253100E+01
18	  0.023406813	-7.080000E-01	  0.023406813	-1.534070E+02	  0.023406813	2.150000E+00	  0.023406813	-1.179500E+01
19	  0.023607215	-7.160000E-01	  0.023607215	-1.550090E+02	  0.023607215	2.162000E+00	  0.023607215	-1.106000E+01
20	  0.023807615	-7.270000E-01	  0.023807615	-1.566480E+02	  0.023807615	2.181000E+00	  0.023807615	-1.031300E+01
21	  0.024008015	-7.360000E-01	  0.024008015	-1.583070E+02	  0.024008015	2.196000E+00	  0.024008015	-9.562000E+00
22	  0.024208417	-7.450000E-01	  0.024208417	-1.599710E+02	  0.024208417	2.210000E+00	  0.024208417	-8.812000E+00
23	  0.024408817	-7.540000E-01	  0.024408817	-1.616540E+02	  0.024408817	2.226000E+00	  0.024408817	-8.058000E+00
24	  0.024609219	-7.630000E-01	  0.024609219	-1.633330E+02	  0.024609219	2.241000E+00	  0.024609219	-7.309000E+00
25	  0.024809619	-7.740000E-01	  0.024809619	-1.650040E+02	  0.024809619	2.266000E+00	  0.024809619	-6.567000E+00
26	  0.025010020	-7.860000E-01	  0.025010020	-1.666940E+02	  0.025010020	2.292000E+00	  0.025010020	-5.819000E+00
27	  0.025210422	-7.990000E-01	  0.025210422	-1.684010E+02	  0.025210422	2.322000E+00	  0.025210422	-5.067000E+00
28	  0.025410822	-8.120000E-01	  0.025410822	-1.701080E+02	  0.025410822	2.354000E+00	  0.025410822	-4.317000E+00
29	  0.025611224	-8.250000E-01	  0.025611224	-1.718410E+02	  0.025611224	2.385000E+00	  0.025611224	-3.557000E+00
30	  0.025811624	-8.380000E-01	  0.025811624	-1.735930E+02	  0.025811624	2.418000E+00	  0.025811624	-2.791000E+00
31	  0.026012026	-8.510000E-01	  0.026012026	-1.753330E+02	  0.026012026	2.453000E+00	  0.026012026	-2.032000E+00
32	  0.026212426	-8.670000E-01	  0.026212426	-1.770930E+02	  0.026212426	2.495000E+00	  0.026212426	-1.265000E+00
33	  0.026412826	-8.820000E-01	  0.026412826	-1.788710E+02	  0.026412826	2.539000E+00	  0.026412826	-4.910000E-01
34	  0.026613226	-8.990000E-01	  0.026613226	1.793460E+02	  0.026613226	2.587000E+00	  0.026613226	2.840000E-01
35	  0.026813626	-9.160000E-01	  0.026813626	1.775560E+02	  0.026813626	2.636000E+00	  0.026813626	1.063000E+00
36	  0.027014028	-9.350000E-01	  0.027014028	1.757630E+02	  0.027014028	2.692000E+00	  0.027014028	1.843000E+00
37	  0.027214428	-9.530000E-01	  0.027214428	1.739630E+02	  0.027214428	2.749000E+00	  0.027214428	2.628000E+00
38	  0.027414829	-9.730000E-01	  0.027414829	1.721500E+02	  0.027414829	2.811000E+00	  0.027414829	3.419000E+00
39	  0.027615231	-9.920000E-01	  0.027615231	1.703300E+02	  0.027615231	2.874000E+00	  0.027615231	4.215000E+00
40	  0.027815631	-1.014000E+00	  0.027815631	1.685020E+02	  0.027815631	2.946000E+00	  0.027815631	5.016000E+00
41	  0.028016033	-1.035000E+00	  0.028016033	1.666510E+02	  0.028016033	3.018000E+00	  0.028016033	5.829000E+00
42	  0.028216433	-1.057000E+00	  0.028216433	1.648050E+02	  0.028216433	3.094000E+00	  0.028216433	6.644000E+00
43	  0.028416833	-1.081000E+00	  0.028416833	1.629490E+02	  0.028416833	3.178000E+00	  0.028416833	7.465000E+00
44	  0.028617235	-1.105000E+00	  0.028617235	1.610950E+02	  0.028617235	3.265000E+00	  0.028617235	8.289000E+00
45	  0.028817635	-1.129000E+00	  0.028817635	1.592450E+02	  0.028817635	3.353000E+00	  0.028817635	9.116000E+00
46	  0.029018037	-1.156000E+00	  0.029018037	1.573880E+02	  0.029018037	3.454000E+00	  0.029018037	9.950000E+00
47	  0.029218437	-1.183000E+00	  0.029218437	1.555230E+02	  0.029218437	3.559000E+00	  0.029218437	1.079200E+01
48	  0.029418837	-1.212000E+00	  0.029418837	1.536400E+02	  0.029418837	3.674000E+00	  0.029418837	1.164800E+01
49	  0.029619239	-1.240000E+00	  0.029619239	1.517530E+02	  0.029619239	3.789000E+00	  0.029619239	1.251200E+01
50	  0.029819639	-1.269000E+00	  0.029819639	1.498670E+02	  0.029819639	3.911000E+00	  0.029819639	1.338200E+01
51	  0.030020041	-1.300000E+00	  0.030020041	1.479780E+02	  0.030020041	4.041000E+00	  0.030020041	1.426000E+01
52	  0.030220442	-1.327000E+00	  0.030220442	1.460810E+02	  0.030220442	4.166000E+00	  0.030220442	1.515000E+01
53	  0.030420844	-1.357000E+00	  0.030420844	1.442010E+02	  0.030420844	4.303000E+00	  0.030420844	1.604000E+01
54	  0.030621244	-1.390000E+00	  0.030621244	1.423190E+02	  0.030621244	4.455000E+00	  0.030621244	1.693800E+01
55	  0.030821642	-1.421000E+00	  0.030821642	1.404160E+02	  0.030821642	4.608000E+00	  0.030821642	1.785700E+01
56	  0.031022044	-1.453000E+00	  0.031022044	1.384820E+02	  0.031022044	4.767000E+00	  0.031022044	1.880100E+01
57	  0.031222444	-1.480000E+00	  0.031222444	1.365590E+02	  0.031222444	4.920000E+00	  0.031222444	1.975100E+01
58	  0.031422846	-1.514000E+00	  0.031422846	1.345910E+02	  0.031422846	5.102000E+00	  0.031422846	2.073400E+01
59	  0.031623244	-1.546000E+00	  0.031623244	1.326120E+02	  0.031623244	5.285000E+00	  0.031623244	2.173600E+01
60	  0.031823646	-1.581000E+00	  0.031823646	1.306270E+02	  0.031823646	5.489000E+00	  0.031823646	2.275400E+01
61	  0.032024048	-1.617000E+00	  0.032024048	1.286410E+02	  0.032024048	5.705000E+00	  0.032024048	2.378600E+01
62	  0.032224450	-1.653000E+00	  0.032224450	1.266580E+02	  0.032224450	5.927000E+00	  0.032224450	2.483200E+01
63	  0.032424849	-1.691000E+00	  0.032424849	1.246400E+02	  0.032424849	6.172000E+00	  0.032424849	2.591300E+01
64	  0.032625251	-1.727000E+00	  0.032625251	1.226120E+02	  0.032625251	6.420000E+00	  0.032625251	2.701800E+01
65	  0.032825653	-1.765000E+00	  0.032825653	1.205690E+02	  0.032825653	6.690000E+00	  0.032825653	2.815000E+01
66	  0.033026051	-1.804000E+00	  0.033026051	1.185210E+02	  0.033026051	6.977000E+00	  0.033026051	2.930400E+01
67	  0.033226453	-1.845000E+00	  0.033226453	1.164670E+02	  0.033226453	7.289000E+00	  0.033226453	3.048200E+01
68	  0.033426855	-1.885000E+00	  0.033426855	1.144100E+02	  0.033426855	7.612000E+00	  0.033426855	3.168600E+01
69	  0.033627257	-1.927000E+00	  0.033627257	1.123570E+02	  0.033627257	7.963000E+00	  0.033627257	3.290900E+01
70	  0.033827655	-1.969000E+00	  0.033827655	1.103180E+02	  0.033827655	8.329000E+00	  0.033827655	3.414800E+01
71	  0.034028057	-2.010000E+00	  0.034028057	1.082480E+02	  0.034028057	8.715000E+00	  0.034028057	3.543500E+01
72	  0.034228459	-2.056000E+00	  0.034228459	1.061830E+02	  0.034228459	9.142000E+00	  0.034228459	3.674300E+01
73	  0.034428857	-2.102000E+00	  0.034428857	1.040900E+02	  0.034428857	9.602000E+00	  0.034428857	3.809800E+01
74	  0.034629259	-2.146000E+00	  0.034629259	1.020070E+02	  0.034629259	1.007500E+01	  0.034629259	3.948100E+01
75	  0.034829661	-2.194000E+00	  0.034829661	9.992500E+01	  0.034829661	1.060200E+01	  0.034829661	4.089000E+01
76	  0.035030060	-2.243000E+00	  0.035030060	9.783200E+01	  0.035030060	1.116100E+01	  0.035030060	4.234300E+01
77	  0.035230462	-2.289000E+00	  0.035230462	9.575600E+01	  0.035230462	1.174500E+01	  0.035230462	4.382000E+01
78	  0.035430863	-2.341000E+00	  0.035430863	9.368600E+01	  0.035430863	1.239000E+01	  0.035430863	4.532600E+01
79	  0.035631265	-2.392000E+00	  0.035631265	9.159200E+01	  0.035631265	1.308300E+01	  0.035631265	4.688700E+01
80	  0.035831664	-2.439000E+00	  0.035831664	8.950500E+01	  0.035831664	1.380200E+01	  0.035831664	4.849000E+01
81	  0.036032066	-2.491000E+00	  0.036032066	8.742000E+01	  0.036032066	1.459000E+01	  0.036032066	5.012900E+01
82	  0.036232468	-2.540000E+00	  0.036232468	8.534900E+01	  0.036232468	1.542200E+01	  0.036232468	5.180300E+01
83	  0.036432866	-2.594000E+00	  0.036432866	8.322100E+01	  0.036432866	1.635500E+01	  0.036432866	5.356400E+01
84	  0.036633268	-2.648000E+00	  0.036633268	8.113600E+01	  0.036633268	1.734300E+01	  0.036633268	5.533600E+01
85	  0.036833670	-2.701000E+00	  0.036833670	7.904900E+01	  0.036833670	1.840300E+01	  0.036833670	5.716000E+01
86	  0.037034072	-2.756000E+00	  0.037034072	7.692700E+01	  0.037034072	1.956400E+01	  0.037034072	5.906500E+01
87	  0.037234470	-2.812000E+00	  0.037234470	7.483000E+01	  0.037234470	2.082300E+01	  0.037234470	6.099200E+01
88	  0.037434869	-2.873000E+00	  0.037434869	7.270500E+01	  0.037434869	2.222600E+01	  0.037434869	6.298400E+01
89	  0.037635271	-2.936000E+00	  0.037635271	7.059800E+01	  0.037635271	2.374500E+01	  0.037635271	6.500300E+01
90	  0.037835669	-3.008000E+00	  0.037835669	6.854000E+01	  0.037835669	2.542900E+01	  0.037835669	6.698000E+01
91	  0.038036071	-3.068000E+00	  0.038036071	6.654700E+01	  0.038036071	2.711800E+01	  0.038036071	6.896800E+01
92	  0.038236473	-3.119000E+00	  0.038236473	6.449700E+01	  0.038236473	2.890400E+01	  0.038236473	7.111000E+01
93	  0.038436871	-3.173000E+00	  0.038436871	6.239200E+01	  0.038436871	3.091400E+01	  0.038436871	7.334800E+01
94	  0.038637273	-3.225000E+00	  0.038637273	6.029300E+01	  0.038637273	3.308500E+01	  0.038637273	7.563500E+01
95	  0.038837675	-3.277000E+00	  0.038837675	5.816200E+01	  0.038837675	3.547900E+01	  0.038837675	7.800500E+01
96	  0.039038073	-3.330000E+00	  0.039038073	5.607600E+01	  0.039038073	3.804600E+01	  0.039038073	8.035500E+01
97	  0.039238475	-3.386000E+00	  0.039238475	5.399300E+01	  0.039238475	4.087400E+01	  0.039238475	8.269800E+01
98	  0.039438877	-3.439000E+00	  0.039438877	5.188800E+01	  0.039438877	4.395700E+01	  0.039438877	8.511100E+01
99	  0.039639279	-3.494000E+00	  0.039639279	4.979400E+01	  0.039639279	4.733800E+01	  0.039639279	8.748400E+01
100	  0.039839678	-3.548000E+00	  0.039839678	4.768300E+01	  0.039839678	5.104900E+01	  0.039839678	8.986400E+01
101	  0.040040080	-3.603000E+00	  0.040040080	4.557800E+01	  0.040040080	5.509700E+01	  0.040040080	9.219000E+01
102	  0.040240481	-3.658000E+00	  0.040240481	4.348700E+01	  0.040240481	5.950300E+01	  0.040240481	9.440100E+01
103	  0.040440880	-3.710000E+00	  0.040440880	4.140400E+01	  0.040440880	6.426200E+01	  0.040440880	9.652700E+01
104	  0.040641282	-3.764000E+00	  0.040641282	3.931600E+01	  0.040641282	6.948200E+01	  0.040641282	9.846100E+01
105	  0.040841684	-3.818000E+00	  0.040841684	3.726200E+01	  0.040841684	7.507000E+01	  0.040841684	1.001300E+02
106	  0.041042086	-3.875000E+00	  0.041042086	3.520700E+01	  0.041042086	8.114700E+01	  0.041042086	1.014610E+02
107	  0.041242484	-3.930000E+00	  0.041242484	3.313900E+01	  0.041242484	8.772800E+01	  0.041242484	1.024460E+02
108	  0.041442886	-3.986000E+00	  0.041442886	3.107100E+01	  0.041442886	9.480000E+01	  0.041442886	1.029410E+02
109	  0.041643288	-4.038000E+00	  0.041643288	2.899800E+01	  0.041643288	1.023480E+02	  0.041643288	1.029610E+02
110	  0.041843686	-4.092000E+00	  0.041843686	2.692500E+01	  0.041843686	1.103520E+02	  0.041843686	1.022220E+02
111	  0.042044088	-4.146000E+00	  0.042044088	2.488300E+01	  0.042044088	1.186140E+02	  0.042044088	1.006850E+02
112	  0.042244490	-4.200000E+00	  0.042244490	2.284800E+01	  0.042244490	1.271320E+02	  0.042244490	9.820200E+01
113	  0.042444889	-4.253000E+00	  0.042444889	2.081900E+01	  0.042444889	1.357900E+02	  0.042444889	9.473500E+01
114	  0.042645290	-4.310000E+00	  0.042645290	1.879600E+01	  0.042645290	1.443730E+02	  0.042645290	9.000300E+01
115	  0.042845692	-4.363000E+00	  0.042845692	1.677700E+01	  0.042845692	1.527640E+02	  0.042845692	8.419300E+01
116	  0.043046094	-4.415000E+00	  0.043046094	1.477000E+01	  0.043046094	1.606980E+02	  0.043046094	7.722000E+01
117	  0.043246493	-4.468000E+00	  0.043246493	1.275800E+01	  0.043246493	1.679770E+02	  0.043246493	6.901700E+01
118	  0.043446895	-4.520000E+00	  0.043446895	1.077600E+01	  0.043446895	1.742800E+02	  0.043446895	5.988100E+01
119	  0.043647297	-4.571000E+00	  0.043647297	8.783000E+00	  0.043647297	1.795080E+02	  0.043647297	4.975400E+01
120	  0.043847695	-4.624000E+00	  0.043847695	6.836000E+00	  0.043847695	1.832690E+02	  0.043847695	3.910300E+01
121	  0.044048097	-4.673000E+00	  0.044048097	4.877000E+00	  0.044048097	1.857630E+02	  0.044048097	2.798100E+01
122	  0.044248499	-4.725000E+00	  0.044248499	2.943000E+00	  0.044248499	1.866820E+02	  0.044248499	1.677600E+01
123	  0.044448901	-4.772000E+00	  0.044448901	1.022000E+00	  0.044448901	1.863700E+02	  0.044448901	5.760000E+00
124	  0.044649299	-4.821000E+00	  0.044649299	-8.920000E-01	  0.044649299	1.846000E+02	  0.044649299	-4.924000E+00
125	  0.044849701	-4.866000E+00	  0.044849701	-2.778000E+00	  0.044849701	1.818080E+02	  0.044849701	-1.493700E+01
126	  0.045050103	-4.910000E+00	  0.045050103	-4.654000E+00	  0.045050103	1.779780E+02	  0.045050103	-2.423000E+01
127	  0.045250501	-4.950000E+00	  0.045250501	-6.529000E+00	  0.045250501	1.734440E+02	  0.045250501	-3.280400E+01
128	  0.045450903	-4.987000E+00	  0.045450903	-8.399000E+00	  0.045450903	1.682550E+02	  0.045450903	-4.053500E+01
129	  0.045651305	-5.029000E+00	  0.045651305	-1.024000E+01	  0.045651305	1.624720E+02	  0.045651305	-4.719300E+01
130	  0.045851704	-5.068000E+00	  0.045851704	-1.207500E+01	  0.045851704	1.564470E+02	  0.045851704	-5.303000E+01
131	  0.046052102	-5.101000E+00	  0.046052102	-1.388200E+01	  0.046052102	1.503840E+02	  0.046052102	-5.804400E+01
132	  0.046252504	-5.137000E+00	  0.046252504	-1.567500E+01	  0.046252504	1.441930E+02	  0.046252504	-6.217900E+01
133	  0.046452906	-5.170000E+00	  0.046452906	-1.748900E+01	  0.046452906	1.379740E+02	  0.046452906	-6.571100E+01
134	  0.046653304	-5.201000E+00	  0.046653304	-1.929500E+01	  0.046653304	1.318560E+02	  0.046653304	-6.858300E+01
135	  0.046853706	-5.234000E+00	  0.046853706	-2.111600E+01	  0.046853706	1.257870E+02	  0.046853706	-7.082700E+01
136	  0.047054108	-5.265000E+00	  0.047054108	-2.293500E+01	  0.047054108	1.199320E+02	  0.047054108	-7.256600E+01
137	  0.047254506	-5.299000E+00	  0.047254506	-2.473700E+01	  0.047254506	1.143140E+02	  0.047254506	-7.374700E+01
138	  0.047454908	-5.328000E+00	  0.047454908	-2.655300E+01	  0.047454908	1.089140E+02	  0.047454908	-7.460200E+01
139	  0.047655310	-5.359000E+00	  0.047655310	-2.831400E+01	  0.047655310	1.039050E+02	  0.047655310	-7.501900E+01
140	  0.047855709	-5.394000E+00	  0.047855709	-3.007300E+01	  0.047855709	9.913900E+01	  0.047855709	-7.506300E+01
141	  0.048056111	-5.422000E+00	  0.048056111	-3.182800E+01	  0.048056111	9.464500E+01	  0.048056111	-7.498500E+01
142	  0.048256513	-5.457000E+00	  0.048256513	-3.357500E+01	  0.048256513	9.040600E+01	  0.048256513	-7.457400E+01
143	  0.048456915	-5.486000E+00	  0.048456915	-3.530400E+01	  0.048456915	8.644800E+01	  0.048456915	-7.407200E+01
144	  0.048657313	-5.514000E+00	  0.048657313	-3.706800E+01	  0.048657313	8.263400E+01	  0.048657313	-7.342600E+01
145	  0.048857715	-5.541000E+00	  0.048857715	-3.880400E+01	  0.048857715	7.909400E+01	  0.048857715	-7.266200E+01
146	  0.049058117	-5.567000E+00	  0.049058117	-4.054200E+01	  0.049058117	7.575300E+01	  0.049058117	-7.180800E+01
147	  0.049258515	-5.591000E+00	  0.049258515	-4.226700E+01	  0.049258515	7.262700E+01	  0.049258515	-7.087800E+01
148	  0.049458917	-5.614000E+00	  0.049458917	-4.398700E+01	  0.049458917	6.968100E+01	  0.049458917	-6.989700E+01
149	  0.049659319	-5.639000E+00	  0.049659319	-4.569200E+01	  0.049659319	6.693900E+01	  0.049659319	-6.883400E+01
150	  0.049859721	-5.667000E+00	  0.049859721	-4.738200E+01	  0.049859721	6.438700E+01	  0.049859721	-6.770400E+01
151	  0.050060119	-5.686000E+00	  0.050060119	-4.907100E+01	  0.050060119	6.195200E+01	  0.050060119	-6.662700E+01
152	  0.050260521	-5.707000E+00	  0.050260521	-5.075400E+01	  0.050260521	5.966700E+01	  0.050260521	-6.550700E+01
153	  0.050460923	-5.726000E+00	  0.050460923	-5.242000E+01	  0.050460923	5.752600E+01	  0.050460923	-6.438400E+01
154	  0.050661322	-5.740000E+00	  0.050661322	-5.410800E+01	  0.050661322	5.545600E+01	  0.050661322	-6.326900E+01
155	  0.050861724	-5.756000E+00	  0.050861724	-5.575600E+01	  0.050861724	5.355400E+01	  0.050861724	-6.214800E+01
156	  0.051062126	-5.774000E+00	  0.051062126	-5.740800E+01	  0.051062126	5.175900E+01	  0.051062126	-6.099800E+01
157	  0.051262524	-5.789000E+00	  0.051262524	-5.901500E+01	  0.051262524	5.009400E+01	  0.051262524	-5.989100E+01
158	  0.051462926	-5.808000E+00	  0.051462926	-6.060800E+01	  0.051462926	4.854200E+01	  0.051462926	-5.877100E+01
159	  0.051663328	-5.820000E+00	  0.051663328	-6.223500E+01	  0.051663328	4.701300E+01	  0.051663328	-5.766800E+01
160	  0.051863730	-5.834000E+00	  0.051863730	-6.382600E+01	  0.051863730	4.560200E+01	  0.051863730	-5.657800E+01
161	  0.052064128	-5.845000E+00	  0.052064128	-6.540400E+01	  0.052064128	4.426300E+01	  0.052064128	-5.551400E+01
162	  0.052264530	-5.856000E+00	  0.052264530	-6.696800E+01	  0.052264530	4.299800E+01	  0.052264530	-5.446600E+01
163	  0.052464932	-5.866000E+00	  0.052464932	-6.849700E+01	  0.052464932	4.181700E+01	  0.052464932	-5.345100E+01
164	  0.052665330	-5.876000E+00	  0.052665330	-7.003100E+01	  0.052665330	4.069000E+01	  0.052665330	-5.243500E+01
165	  0.052865732	-5.891000E+00	  0.052865732	-7.156300E+01	  0.052865732	3.963500E+01	  0.052865732	-5.140700E+01
166	  0.053066134	-5.901000E+00	  0.053066134	-7.305900E+01	  0.053066134	3.863700E+01	  0.053066134	-5.043000E+01
167	  0.053266536	-5.915000E+00	  0.053266536	-7.452300E+01	  0.053266536	3.772000E+01	  0.053266536	-4.946400E+01
168	  0.053466935	-5.927000E+00	  0.053466935	-7.602400E+01	  0.053466935	3.681100E+01	  0.053466935	-4.849500E+01
169	  0.053667337	-5.935000E+00	  0.053667337	-7.752500E+01	  0.053667337	3.593100E+01	  0.053667337	-4.754800E+01
170	  0.053867739	-5.951000E+00	  0.053867739	-7.897000E+01	  0.053867739	3.514800E+01	  0.053867739	-4.661800E+01
171	  0.054068137	-5.958000E+00	  0.054068137	-8.046100E+01	  0.054068137	3.434300E+01	  0.054068137	-4.569900E+01
172	  0.054268539	-5.971000E+00	  0.054268539	-8.189700E+01	  0.054268539	3.362000E+01	  0.054268539	-4.480500E+01
173	  0.054468941	-5.984000E+00	  0.054468941	-8.335200E+01	  0.054468941	3.292300E+01	  0.054468941	-4.390500E+01
174	  0.054669335	-5.999000E+00	  0.054669335	-8.478200E+01	  0.054669335	3.227100E+01	  0.054669335	-4.302800E+01
175	  0.054869737	-6.011000E+00	  0.054869737	-8.622700E+01	  0.054869737	3.163300E+01	  0.054869737	-4.215700E+01
176	  0.055070139	-6.025000E+00	  0.055070139	-8.765300E+01	  0.055070139	3.103500E+01	  0.055070139	-4.130400E+01
177	  0.055270538	-6.032000E+00	  0.055270538	-8.906900E+01	  0.055270538	3.043700E+01	  0.055270538	-4.048800E+01
178	  0.055470940	-6.044000E+00	  0.055470940	-9.049800E+01	  0.055470940	2.987800E+01	  0.055470940	-3.965700E+01
179	  0.055671342	-6.053000E+00	  0.055671342	-9.192800E+01	  0.055671342	2.933300E+01	  0.055671342	-3.884200E+01
180	  0.055871744	-6.062000E+00	  0.055871744	-9.333400E+01	  0.055871744	2.881600E+01	  0.055871744	-3.805100E+01
181	  0.056072142	-6.073000E+00	  0.056072142	-9.478000E+01	  0.056072142	2.831200E+01	  0.056072142	-3.724100E+01
182	  0.056272544	-6.080000E+00	  0.056272544	-9.618000E+01	  0.056272544	2.783100E+01	  0.056272544	-3.647400E+01
183	  0.056472946	-6.088000E+00	  0.056472946	-9.758300E+01	  0.056472946	2.737200E+01	  0.056472946	-3.571100E+01
184	  0.056673344	-6.092000E+00	  0.056673344	-9.895900E+01	  0.056673344	2.692600E+01	  0.056673344	-3.497800E+01
185	  0.056873746	-6.098000E+00	  0.056873746	-1.003390E+02	  0.056873746	2.649900E+01	  0.056873746	-3.424800E+01
186	  0.057074148	-6.106000E+00	  0.057074148	-1.017260E+02	  0.057074148	2.609600E+01	  0.057074148	-3.351500E+01
187	  0.057274550	-6.106000E+00	  0.057274550	-1.030940E+02	  0.057274550	2.568700E+01	  0.057274550	-3.281400E+01
188	  0.057474948	-6.106000E+00	  0.057474948	-1.044660E+02	  0.057474948	2.529000E+01	  0.057474948	-3.212000E+01
189	  0.057675350	-6.112000E+00	  0.057675350	-1.058080E+02	  0.057675350	2.493600E+01	  0.057675350	-3.143500E+01
190	  0.057875752	-6.114000E+00	  0.057875752	-1.071460E+02	  0.057875752	2.458200E+01	  0.057875752	-3.076500E+01
191	  0.058076151	-6.118000E+00	  0.058076151	-1.084720E+02	  0.058076151	2.425100E+01	  0.058076151	-3.010300E+01
192	  0.058276553	-6.118000E+00	  0.058276553	-1.097860E+02	  0.058276553	2.392400E+01	  0.058276553	-2.945800E+01
193	  0.058476955	-6.118000E+00	  0.058476955	-1.110980E+02	  0.058476955	2.360500E+01	  0.058476955	-2.882200E+01
194	  0.058677353	-6.117000E+00	  0.058677353	-1.123680E+02	  0.058677353	2.330700E+01	  0.058677353	-2.821000E+01
195	  0.058877755	-6.115000E+00	  0.058877755	-1.136520E+02	  0.058877755	2.301100E+01	  0.058877755	-2.759800E+01
196	  0.059078157	-6.115000E+00	  0.059078157	-1.149100E+02	  0.059078157	2.273600E+01	  0.059078157	-2.700100E+01
197	  0.059278559	-6.114000E+00	  0.059278559	-1.161640E+02	  0.059278559	2.246800E+01	  0.059278559	-2.641100E+01
198	  0.059478957	-6.115000E+00	  0.059478957	-1.174120E+02	  0.059478957	2.221700E+01	  0.059478957	-2.582600E+01
199	  0.059679359	-6.114000E+00	  0.059679359	-1.186660E+02	  0.059679359	2.196900E+01	  0.059679359	-2.524300E+01
200	  0.059879761	-6.115000E+00	  0.059879761	-1.198620E+02	  0.059879761	2.174300E+01	  0.059879761	-2.469000E+01
201	  0.060080159	-6.118000E+00	  0.060080159	-1.210600E+02	  0.060080159	2.153000E+01	  0.060080159	-2.413700E+01
202	  0.060280561	-6.119000E+00	  0.060280561	-1.222630E+02	  0.060280561	2.132000E+01	  0.060280561	-2.358700E+01
203	  0.060480963	-6.123000E+00	  0.060480963	-1.234580E+02	  0.060480963	2.112400E+01	  0.060480963	-2.304300E+01
204	  0.060681365	-6.122000E+00	  0.060681365	-1.246420E+02	  0.060681365	2.092400E+01	  0.060681365	-2.251100E+01
205	  0.060881764	-6.124000E+00	  0.060881764	-1.258330E+02	  0.060881764	2.073800E+01	  0.060881764	-2.197600E+01
206	  0.061082166	-6.129000E+00	  0.061082166	-1.270440E+02	  0.061082166	2.056100E+01	  0.061082166	-2.143400E+01
207	  0.061282568	-6.130000E+00	  0.061282568	-1.282250E+02	  0.061282568	2.038600E+01	  0.061282568	-2.091100E+01
208	  0.061482966	-6.130000E+00	  0.061482966	-1.293910E+02	  0.061482966	2.021500E+01	  0.061482966	-2.039900E+01
209	  0.061683368	-6.136000E+00	  0.061683368	-1.305820E+02	  0.061683368	2.006300E+01	  0.061683368	-1.987400E+01
210	  0.061883770	-6.136000E+00	  0.061883770	-1.317610E+02	  0.061883770	1.990300E+01	  0.061883770	-1.936300E+01
211	  0.062084168	-6.140000E+00	  0.062084168	-1.329260E+02	  0.062084168	1.976100E+01	  0.062084168	-1.885600E+01
212	  0.062284570	-6.142000E+00	  0.062284570	-1.341060E+02	  0.062284570	1.961600E+01	  0.062284570	-1.834800E+01
213	  0.062484972	-6.136000E+00	  0.062484972	-1.352490E+02	  0.062484972	1.945800E+01	  0.062484972	-1.786500E+01
214	  0.062685370	-6.141000E+00	  0.062685370	-1.364520E+02	  0.062685370	1.932800E+01	  0.062685370	-1.735000E+01
215	  0.062885776	-6.136000E+00	  0.062885776	-1.376290E+02	  0.062885776	1.917800E+01	  0.062885776	-1.685700E+01
216	  0.063086174	-6.135000E+00	  0.063086174	-1.387430E+02	  0.063086174	1.905200E+01	  0.063086174	-1.638800E+01
217	  0.063286573	-6.135000E+00	  0.063286573	-1.399230E+02	  0.063286573	1.892500E+01	  0.063286573	-1.589400E+01
218	  0.063486971	-6.134000E+00	  0.063486971	-1.410920E+02	  0.063486971	1.880100E+01	  0.063486971	-1.540800E+01
219	  0.063687377	-6.129000E+00	  0.063687377	-1.422140E+02	  0.063687377	1.867700E+01	  0.063687377	-1.494500E+01
220	  0.063887775	-6.126000E+00	  0.063887775	-1.433700E+02	  0.063887775	1.855900E+01	  0.063887775	-1.446900E+01
221	  0.064088173	-6.124000E+00	  0.064088173	-1.445430E+02	  0.064088173	1.844600E+01	  0.064088173	-1.398700E+01
222	  0.064288579	-6.119000E+00	  0.064288579	-1.456480E+02	  0.064288579	1.833500E+01	  0.064288579	-1.353600E+01
223	  0.064488977	-6.119000E+00	  0.064488977	-1.467990E+02	  0.064488977	1.823700E+01	  0.064488977	-1.306600E+01
224	  0.064689375	-6.118000E+00	  0.064689375	-1.479080E+02	  0.064689375	1.814400E+01	  0.064689375	-1.261400E+01
225	  0.064889781	-6.109000E+00	  0.064889781	-1.490390E+02	  0.064889781	1.803200E+01	  0.064889781	-1.216000E+01
226	  0.065090179	-6.104000E+00	  0.065090179	-1.501260E+02	  0.065090179	1.793700E+01	  0.065090179	-1.172200E+01
227	  0.065290578	-6.102000E+00	  0.065290578	-1.511980E+02	  0.065290578	1.785300E+01	  0.065290578	-1.129100E+01
228	  0.065490983	-6.095000E+00	  0.065490983	-1.522710E+02	  0.065490983	1.776100E+01	  0.065490983	-1.086200E+01
229	  0.065691382	-6.094000E+00	  0.065691382	-1.533590E+02	  0.065691382	1.768800E+01	  0.065691382	-1.042600E+01
230	  0.065891780	-6.091000E+00	  0.065891780	-1.544290E+02	  0.065891780	1.761300E+01	  0.065891780	-9.999000E+00
231	  0.066092186	-6.085000E+00	  0.066092186	-1.554670E+02	  0.066092186	1.753500E+01	  0.066092186	-9.587000E+00
232	  0.066292584	-6.086000E+00	  0.066292584	-1.565290E+02	  0.066292584	1.747500E+01	  0.066292584	-9.164000E+00
233	  0.066492982	-6.081000E+00	  0.066492982	-1.575850E+02	  0.066492982	1.740500E+01	  0.066492982	-8.746000E+00
234	  0.066693388	-6.080000E+00	  0.066693388	-1.586300E+02	  0.066693388	1.734800E+01	  0.066693388	-8.332000E+00
235	  0.066893786	-6.081000E+00	  0.066893786	-1.596380E+02	  0.066893786	1.730000E+01	  0.066893786	-7.933000E+00
236	  0.067094192	-6.079000E+00	  0.067094192	-1.606730E+02	  0.067094192	1.724700E+01	  0.067094192	-7.525000E+00
237	  0.067294590	-6.083000E+00	  0.067294590	-1.617010E+02	  0.067294590	1.721200E+01	  0.067294590	-7.120000E+00
238	  0.067494988	-6.088000E+00	  0.067494988	-1.627560E+02	  0.067494988	1.718200E+01	  0.067494988	-6.703000E+00
239	  0.067695394	-6.084000E+00	  0.067695394	-1.637720E+02	  0.067695394	1.713200E+01	  0.067695394	-6.306000E+00
240	  0.067895792	-6.087000E+00	  0.067895792	-1.648320E+02	  0.067895792	1.710100E+01	  0.067895792	-5.890000E+00
241	  0.068096191	-6.092000E+00	  0.068096191	-1.658510E+02	  0.068096191	1.708100E+01	  0.068096191	-5.490000E+00
242	  0.068296596	-6.098000E+00	  0.068296596	-1.669250E+02	  0.068296596	1.706200E+01	  0.068296596	-5.070000E+00
243	  0.068496995	-6.101000E+00	  0.068496995	-1.679390E+02	  0.068496995	1.703900E+01	  0.068496995	-4.674000E+00
244	  0.068697393	-6.107000E+00	  0.068697393	-1.689960E+02	  0.068697393	1.702800E+01	  0.068697393	-4.262000E+00
245	  0.068897791	-6.104000E+00	  0.068897791	-1.700230E+02	  0.068897791	1.699400E+01	  0.068897791	-3.863000E+00
246	  0.069098189	-6.107000E+00	  0.069098189	-1.710770E+02	  0.069098189	1.697800E+01	  0.069098189	-3.453000E+00
247	  0.069298595	-6.111000E+00	  0.069298595	-1.721080E+02	  0.069298595	1.697000E+01	  0.069298595	-3.053000E+00
248	  0.069498993	-6.110000E+00	  0.069498993	-1.731850E+02	  0.069498993	1.695000E+01	  0.069498993	-2.635000E+00
249	  0.069699399	-6.118000E+00	  0.069699399	-1.742440E+02	  0.069699399	1.695300E+01	  0.069699399	-2.225000E+00
250	  0.069899797	-6.114000E+00	  0.069899797	-1.752600E+02	  0.069899797	1.693200E+01	  0.069899797	-1.832000E+00
251	  0.070100196	-6.118000E+00	  0.070100196	-1.763020E+02	  0.070100196	1.693200E+01	  0.070100196	-1.428000E+00
252	  0.070300601	-6.120000E+00	  0.070300601	-1.773550E+02	  0.070300601	1.692900E+01	  0.070300601	-1.021000E+00
253	  0.070501000	-6.120000E+00	  0.070501000	-1.784040E+02	  0.070501000	1.692300E+01	  0.070501000	-6.160000E-01
254	  0.070701398	-6.116000E+00	  0.070701398	-1.794300E+02	  0.070701398	1.691300E+01	  0.070701398	-2.190000E-01
255	  0.070901804	-6.116000E+00	  0.070901804	1.795330E+02	  0.070901804	1.691100E+01	  0.070901804	1.800000E-01
256	  0.071102202	-6.116000E+00	  0.071102202	1.785050E+02	  0.071102202	1.691400E+01	  0.071102202	5.770000E-01
257	  0.071302600	-6.116000E+00	  0.071302600	1.774930E+02	  0.071302600	1.691800E+01	  0.071302600	9.680000E-01
258	  0.071503006	-6.117000E+00	  0.071503006	1.764660E+02	  0.071503006	1.692700E+01	  0.071503006	1.365000E+00
259	  0.071703404	-6.119000E+00	  0.071703404	1.754790E+02	  0.071703404	1.694100E+01	  0.071703404	1.747000E+00
260	  0.071903802	-6.118000E+00	  0.071903802	1.744560E+02	  0.071903802	1.695000E+01	  0.071903802	2.143000E+00
261	  0.072104208	-6.119000E+00	  0.072104208	1.734700E+02	  0.072104208	1.696700E+01	  0.072104208	2.524000E+00
262	  0.072304606	-6.115000E+00	  0.072304606	1.724910E+02	  0.072304606	1.697300E+01	  0.072304606	2.904000E+00
263	  0.072505005	-6.114000E+00	  0.072505005	1.715290E+02	  0.072505005	1.698800E+01	  0.072505005	3.277000E+00
264	  0.072705410	-6.118000E+00	  0.072705410	1.705340E+02	  0.072705410	1.702000E+01	  0.072705410	3.662000E+00
265	  0.072905809	-6.120000E+00	  0.072905809	1.695900E+02	  0.072905809	1.704500E+01	  0.072905809	4.028000E+00
266	  0.073106214	-6.122000E+00	  0.073106214	1.686190E+02	  0.073106214	1.707600E+01	  0.073106214	4.406000E+00
267	  0.073306613	-6.126000E+00	  0.073306613	1.676620E+02	  0.073306613	1.711100E+01	  0.073306613	4.777000E+00
268	  0.073507011	-6.136000E+00	  0.073507011	1.667020E+02	  0.073507011	1.716500E+01	  0.073507011	5.149000E+00
269	  0.073707417	-6.137000E+00	  0.073707417	1.657480E+02	  0.073707417	1.719900E+01	  0.073707417	5.520000E+00
270	  0.073907815	-6.143000E+00	  0.073907815	1.648260E+02	  0.073907815	1.724500E+01	  0.073907815	5.879000E+00
271	  0.074108213	-6.146000E+00	  0.074108213	1.638900E+02	  0.074108213	1.728800E+01	  0.074108213	6.244000E+00
272	  0.074308619	-6.153000E+00	  0.074308619	1.629550E+02	  0.074308619	1.734200E+01	  0.074308619	6.608000E+00
273	  0.074509017	-6.160000E+00	  0.074509017	1.619890E+02	  0.074509017	1.740100E+01	  0.074509017	6.984000E+00
274	  0.074709415	-6.168000E+00	  0.074709415	1.610370E+02	  0.074709415	1.746100E+01	  0.074709415	7.356000E+00
275	  0.074909821	-6.179000E+00	  0.074909821	1.600860E+02	  0.074909821	1.753400E+01	  0.074909821	7.726000E+00
276	  0.075110219	-6.190000E+00	  0.075110219	1.591310E+02	  0.075110219	1.760800E+01	  0.075110219	8.098000E+00
277	  0.075310618	-6.198000E+00	  0.075310618	1.582010E+02	  0.075310618	1.767700E+01	  0.075310618	8.462000E+00
278	  0.075511023	-6.205000E+00	  0.075511023	1.572730E+02	  0.075511023	1.774600E+01	  0.075511023	8.826000E+00
279	  0.075711422	-6.215000E+00	  0.075711422	1.563530E+02	  0.075711422	1.782200E+01	  0.075711422	9.186000E+00
280	  0.075911827	-6.224000E+00	  0.075911827	1.553950E+02	  0.075911827	1.790300E+01	  0.075911827	9.561000E+00
281	  0.076112226	-6.235000E+00	  0.076112226	1.544690E+02	  0.076112226	1.798700E+01	  0.076112226	9.924000E+00
282	  0.076312624	-6.245000E+00	  0.076312624	1.535080E+02	  0.076312624	1.807600E+01	  0.076312624	1.030200E+01
283	  0.076513030	-6.253000E+00	  0.076513030	1.525670E+02	  0.076513030	1.816000E+01	  0.076513030	1.067300E+01
284	  0.076713428	-6.267000E+00	  0.076713428	1.516280E+02	  0.076713428	1.826100E+01	  0.076713428	1.104100E+01
285	  0.076913826	-6.275000E+00	  0.076913826	1.506840E+02	  0.076913826	1.835000E+01	  0.076913826	1.141500E+01
286	  0.077114232	-6.284000E+00	  0.077114232	1.497960E+02	  0.077114232	1.843800E+01	  0.077114232	1.176700E+01
287	  0.077314630	-6.297000E+00	  0.077314630	1.489030E+02	  0.077314630	1.854300E+01	  0.077314630	1.211800E+01
288	  0.077515028	-6.303000E+00	  0.077515028	1.479730E+02	  0.077515028	1.863200E+01	  0.077515028	1.249000E+01
289	  0.077715434	-6.315000E+00	  0.077715434	1.470980E+02	  0.077715434	1.873700E+01	  0.077715434	1.283600E+01
290	  0.077915832	-6.326000E+00	  0.077915832	1.461870E+02	  0.077915832	1.884400E+01	  0.077915832	1.319800E+01
291	  0.078116231	-6.338000E+00	  0.078116231	1.452860E+02	  0.078116231	1.895600E+01	  0.078116231	1.355600E+01
292	  0.078316636	-6.347000E+00	  0.078316636	1.444060E+02	  0.078316636	1.905800E+01	  0.078316636	1.390900E+01
293	  0.078517035	-6.356000E+00	  0.078517035	1.435030E+02	  0.078517035	1.916900E+01	  0.078517035	1.427100E+01
294	  0.078717433	-6.365000E+00	  0.078717433	1.426530E+02	  0.078717433	1.927600E+01	  0.078717433	1.461200E+01
295	  0.078917839	-6.382000E+00	  0.078917839	1.418090E+02	  0.078917839	1.940400E+01	  0.078917839	1.494600E+01
296	  0.079118237	-6.392000E+00	  0.079118237	1.409600E+02	  0.079118237	1.951900E+01	  0.079118237	1.528800E+01
297	  0.079318643	-6.407000E+00	  0.079318643	1.401360E+02	  0.079318643	1.964700E+01	  0.079318643	1.561600E+01
298	  0.079519041	-6.424000E+00	  0.079519041	1.392990E+02	  0.079519041	1.978400E+01	  0.079519041	1.594800E+01
299	  0.079719439	-6.438000E+00	  0.079719439	1.384570E+02	  0.079719439	1.991600E+01	  0.079719439	1.628600E+01
300	  0.079919845	-6.452000E+00	  0.079919845	1.376360E+02	  0.079919845	2.004900E+01	  0.079919845	1.661500E+01
301	  0.080120243	-6.471000E+00	  0.080120243	1.368070E+02	  0.080120243	2.019800E+01	  0.080120243	1.694400E+01
302	  0.080320641	-6.486000E+00	  0.080320641	1.359560E+02	  0.080320641	2.034400E+01	  0.080320641	1.728500E+01
303	  0.080521047	-6.507000E+00	  0.080521047	1.351650E+02	  0.080521047	2.049800E+01	  0.080521047	1.759800E+01
304	  0.080721445	-6.524000E+00	  0.080721445	1.343450E+02	  0.080721445	2.065100E+01	  0.080721445	1.792600E+01
305	  0.080921844	-6.543000E+00	  0.080921844	1.335470E+02	  0.080921844	2.080700E+01	  0.080921844	1.824400E+01
306	  0.081122249	-6.567000E+00	  0.081122249	1.327440E+02	  0.081122249	2.098100E+01	  0.081122249	1.855900E+01
307	  0.081322648	-6.584000E+00	  0.081322648	1.319360E+02	  0.081322648	2.114100E+01	  0.081322648	1.888300E+01
308	  0.081523046	-6.607000E+00	  0.081523046	1.310790E+02	  0.081523046	2.132300E+01	  0.081523046	1.922300E+01
309	  0.081723452	-6.624000E+00	  0.081723452	1.302780E+02	  0.081723452	2.148800E+01	  0.081723452	1.954400E+01
310	  0.081923850	-6.642000E+00	  0.081923850	1.294470E+02	  0.081923850	2.166300E+01	  0.081923850	1.987800E+01
311	  0.082124248	-6.663000E+00	  0.082124248	1.286560E+02	  0.082124248	2.184100E+01	  0.082124248	2.019200E+01
312	  0.082324654	-6.689000E+00	  0.082324654	1.278400E+02	  0.082324654	2.204100E+01	  0.082324654	2.051200E+01
313	  0.082525052	-6.713000E+00	  0.082525052	1.270440E+02	  0.082525052	2.223600E+01	  0.082525052	2.082500E+01
314	  0.082725458	-6.733000E+00	  0.082725458	1.262380E+02	  0.082725458	2.242200E+01	  0.082725458	2.114800E+01
315	  0.082925856	-6.756000E+00	  0.082925856	1.254250E+02	  0.082925856	2.262500E+01	  0.082925856	2.146900E+01
316	  0.083126254	-6.776000E+00	  0.083126254	1.246150E+02	  0.083126254	2.282000E+01	  0.083126254	2.179300E+01
317	  0.083326660	-6.796000E+00	  0.083326660	1.237740E+02	  0.083326660	2.302400E+01	  0.083326660	2.213000E+01
318	  0.083527058	-6.820000E+00	  0.083527058	1.229920E+02	  0.083527058	2.323400E+01	  0.083527058	2.243800E+01
319	  0.083727457	-6.842000E+00	  0.083727457	1.221760E+02	  0.083727457	2.344500E+01	  0.083727457	2.276200E+01
320	  0.083927862	-6.863000E+00	  0.083927862	1.213780E+02	  0.083927862	2.365600E+01	  0.083927862	2.308000E+01
321	  0.084128261	-6.884000E+00	  0.084128261	1.205660E+02	  0.084128261	2.387200E+01	  0.084128261	2.340400E+01
322	  0.084328659	-6.905000E+00	  0.084328659	1.197690E+02	  0.084328659	2.408900E+01	  0.084328659	2.372200E+01
323	  0.084529065	-6.930000E+00	  0.084529065	1.189890E+02	  0.084529065	2.431800E+01	  0.084529065	2.402700E+01
324	  0.084729463	-6.950000E+00	  0.084729463	1.182120E+02	  0.084729463	2.453500E+01	  0.084729463	2.433700E+01
325	  0.084929854	-6.966000E+00	  0.084929854	1.173890E+02	  0.084929854	2.475600E+01	  0.084929854	2.467200E+01
326	  0.085130259	-6.985000E+00	  0.085130259	1.166300E+02	  0.085130259	2.497200E+01	  0.085130259	2.497800E+01
327	  0.085330658	-7.010000E+00	  0.085330658	1.158490E+02	  0.085330658	2.521600E+01	  0.085330658	2.528200E+01
328	  0.085531056	-7.034000E+00	  0.085531056	1.150970E+02	  0.085531056	2.545500E+01	  0.085531056	2.557500E+01
329	  0.085731462	-7.052000E+00	  0.085731462	1.142940E+02	  0.085731462	2.569100E+01	  0.085731462	2.589900E+01
330	  0.085931860	-7.074000E+00	  0.085931860	1.135890E+02	  0.085931860	2.592100E+01	  0.085931860	2.617500E+01
331	  0.086132258	-7.096000E+00	  0.086132258	1.128570E+02	  0.086132258	2.616000E+01	  0.086132258	2.646100E+01
332	  0.086332664	-7.119000E+00	  0.086332664	1.121300E+02	  0.086332664	2.640300E+01	  0.086332664	2.674400E+01
333	  0.086533062	-7.143000E+00	  0.086533062	1.113820E+02	  0.086533062	2.665900E+01	  0.086533062	2.703200E+01
334	  0.086733460	-7.167000E+00	  0.086733460	1.106420E+02	  0.086733460	2.691600E+01	  0.086733460	2.731800E+01
335	  0.086933866	-7.190000E+00	  0.086933866	1.099430E+02	  0.086933866	2.716400E+01	  0.086933866	2.758700E+01
336	  0.087134264	-7.216000E+00	  0.087134264	1.092050E+02	  0.087134264	2.743400E+01	  0.087134264	2.786700E+01
337	  0.087334670	-7.243000E+00	  0.087334670	1.084750E+02	  0.087334670	2.771100E+01	  0.087334670	2.814000E+01
338	  0.087535068	-7.267000E+00	  0.087535068	1.077730E+02	  0.087535068	2.797500E+01	  0.087535068	2.840400E+01
339	  0.087735467	-7.298000E+00	  0.087735467	1.070730E+02	  0.087735467	2.826000E+01	  0.087735467	2.865600E+01
340	  0.087935872	-7.327000E+00	  0.087935872	1.063900E+02	  0.087935872	2.853800E+01	  0.087935872	2.890300E+01
341	  0.088136271	-7.358000E+00	  0.088136271	1.056580E+02	  0.088136271	2.884200E+01	  0.088136271	2.916500E+01
342	  0.088336669	-7.387000E+00	  0.088336669	1.049520E+02	  0.088336669	2.913400E+01	  0.088336669	2.941900E+01
343	  0.088537075	-7.415000E+00	  0.088537075	1.042420E+02	  0.088537075	2.943000E+01	  0.088537075	2.967400E+01
344	  0.088737473	-7.444000E+00	  0.088737473	1.035540E+02	  0.088737473	2.972700E+01	  0.088737473	2.991700E+01
345	  0.088937871	-7.475000E+00	  0.088937871	1.028460E+02	  0.088937871	3.003700E+01	  0.088937871	3.016300E+01
346	  0.089138277	-7.506000E+00	  0.089138277	1.021470E+02	  0.089138277	3.035000E+01	  0.089138277	3.040400E+01
347	  0.089338675	-7.535000E+00	  0.089338675	1.014770E+02	  0.089338675	3.065100E+01	  0.089338675	3.063300E+01
348	  0.089539073	-7.574000E+00	  0.089539073	1.008190E+02	  0.089539073	3.098100E+01	  0.089539073	3.083500E+01
349	  0.089739479	-7.600000E+00	  0.089739479	1.001450E+02	  0.089739479	3.128200E+01	  0.089739479	3.107100E+01
350	  0.089939877	-7.632000E+00	  0.089939877	9.948400E+01	  0.089939877	3.160000E+01	  0.089939877	3.128500E+01
351	  0.090140276	-7.662000E+00	  0.090140276	9.885500E+01	  0.090140276	3.190400E+01	  0.090140276	3.148800E+01
352	  0.090340681	-7.694000E+00	  0.090340681	9.820800E+01	  0.090340681	3.222400E+01	  0.090340681	3.169200E+01
353	  0.090541080	-7.724000E+00	  0.090541080	9.757100E+01	  0.090541080	3.253700E+01	  0.090541080	3.189600E+01
354	  0.090741485	-7.755000E+00	  0.090741485	9.692000E+01	  0.090741485	3.286200E+01	  0.090741485	3.209900E+01
355	  0.090941884	-7.789000E+00	  0.090941884	9.632000E+01	  0.090941884	3.318200E+01	  0.090941884	3.227100E+01
356	  0.091142282	-7.819000E+00	  0.091142282	9.570800E+01	  0.091142282	3.349700E+01	  0.091142282	3.245700E+01
357	  0.091342688	-7.851000E+00	  0.091342688	9.506900E+01	  0.091342688	3.383100E+01	  0.091342688	3.264600E+01
358	  0.091543086	-7.885000E+00	  0.091543086	9.443200E+01	  0.091543086	3.417300E+01	  0.091543086	3.282800E+01
359	  0.091743484	-7.914000E+00	  0.091743484	9.386000E+01	  0.091743484	3.447800E+01	  0.091743484	3.299300E+01
360	  0.091943890	-7.949000E+00	  0.091943890	9.327900E+01	  0.091943890	3.480800E+01	  0.091943890	3.314300E+01
361	  0.092144288	-7.978000E+00	  0.092144288	9.266000E+01	  0.092144288	3.513800E+01	  0.092144288	3.332300E+01
362	  0.092344686	-8.011000E+00	  0.092344686	9.211700E+01	  0.092344686	3.545000E+01	  0.092344686	3.345900E+01
363	  0.092545092	-8.039000E+00	  0.092545092	9.152000E+01	  0.092545092	3.577500E+01	  0.092545092	3.362800E+01
364	  0.092745490	-8.076000E+00	  0.092745490	9.097400E+01	  0.092745490	3.610600E+01	  0.092745490	3.374700E+01
365	  0.092945889	-8.109000E+00	  0.092945889	9.040900E+01	  0.092945889	3.643700E+01	  0.092945889	3.388300E+01
366	  0.093146294	-8.144000E+00	  0.093146294	8.988000E+01	  0.093146294	3.675900E+01	  0.093146294	3.399800E+01
367	  0.093346693	-8.178000E+00	  0.093346693	8.933400E+01	  0.093346693	3.708800E+01	  0.093346693	3.411900E+01
368	  0.093547091	-8.211000E+00	  0.093547091	8.881100E+01	  0.093547091	3.740700E+01	  0.093547091	3.423000E+01
369	  0.093747497	-8.245000E+00	  0.093747497	8.823100E+01	  0.093747497	3.775700E+01	  0.093747497	3.435700E+01
370	  0.093947895	-8.283000E+00	  0.093947895	8.772900E+01	  0.093947895	3.808400E+01	  0.093947895	3.443900E+01
371	  0.094148301	-8.317000E+00	  0.094148301	8.719400E+01	  0.094148301	3.841700E+01	  0.094148301	3.454500E+01
372	  0.094348699	-8.355000E+00	  0.094348699	8.669000E+01	  0.094348699	3.875000E+01	  0.094348699	3.462100E+01
373	  0.094549097	-8.391000E+00	  0.094549097	8.615700E+01	  0.094549097	3.909100E+01	  0.094549097	3.471200E+01
374	  0.094749503	-8.431000E+00	  0.094749503	8.568000E+01	  0.094749503	3.941700E+01	  0.094749503	3.476800E+01
375	  0.094949901	-8.464000E+00	  0.094949901	8.516500E+01	  0.094949901	3.974600E+01	  0.094949901	3.485700E+01
376	  0.095150299	-8.495000E+00	  0.095150299	8.462500E+01	  0.095150299	4.008400E+01	  0.095150299	3.495800E+01
377	  0.095350705	-8.527000E+00	  0.095350705	8.413700E+01	  0.095350705	4.040300E+01	  0.095350705	3.503200E+01
378	  0.095551103	-8.562000E+00	  0.095551103	8.360300E+01	  0.095551103	4.075300E+01	  0.095551103	3.511100E+01
379	  0.095751502	-8.596000E+00	  0.095751502	8.308800E+01	  0.095751502	4.109000E+01	  0.095751502	3.518500E+01
380	  0.095951907	-8.626000E+00	  0.095951907	8.258100E+01	  0.095951907	4.141800E+01	  0.095951907	3.526500E+01
381	  0.096152306	-8.664000E+00	  0.096152306	8.210900E+01	  0.096152306	4.174800E+01	  0.096152306	3.530300E+01
382	  0.096352704	-8.689000E+00	  0.096352704	8.159900E+01	  0.096352704	4.206900E+01	  0.096352704	3.539400E+01
383	  0.096553110	-8.716000E+00	  0.096553110	8.113300E+01	  0.096553110	4.237300E+01	  0.096553110	3.546300E+01
384	  0.096753508	-8.747000E+00	  0.096753508	8.064300E+01	  0.096753508	4.270200E+01	  0.096753508	3.552200E+01
385	  0.096953906	-8.774000E+00	  0.096953906	8.017900E+01	  0.096953906	4.300900E+01	  0.096953906	3.558200E+01
386	  0.097154312	-8.801000E+00	  0.097154312	7.969100E+01	  0.097154312	4.332900E+01	  0.097154312	3.564900E+01
387	  0.097354710	-8.824000E+00	  0.097354710	7.920500E+01	  0.097354710	4.364300E+01	  0.097354710	3.572700E+01
388	  0.097555116	-8.847000E+00	  0.097555116	7.874700E+01	  0.097555116	4.394300E+01	  0.097555116	3.579200E+01
389	  0.097755514	-8.869000E+00	  0.097755514	7.828600E+01	  0.097755514	4.424400E+01	  0.097755514	3.586000E+01
390	  0.097955912	-8.892000E+00	  0.097955912	7.786300E+01	  0.097955912	4.452600E+01	  0.097955912	3.591100E+01
391	  0.098156318	-8.912000E+00	  0.098156318	7.740700E+01	  0.098156318	4.482300E+01	  0.098156318	3.598000E+01
392	  0.098356716	-8.928000E+00	  0.098356716	7.698900E+01	  0.098356716	4.509200E+01	  0.098356716	3.605000E+01
393	  0.098557115	-8.943000E+00	  0.098557115	7.658400E+01	  0.098557115	4.535400E+01	  0.098557115	3.611600E+01
394	  0.098757520	-8.965000E+00	  0.098757520	7.615500E+01	  0.098757520	4.564300E+01	  0.098757520	3.616500E+01
395	  0.098957919	-8.980000E+00	  0.098957919	7.573800E+01	  0.098957919	4.591600E+01	  0.098957919	3.622900E+01
396	  0.099158317	-8.991000E+00	  0.099158317	7.534200E+01	  0.099158317	4.616700E+01	  0.099158317	3.630600E+01
397	  0.099358723	-9.007000E+00	  0.099358723	7.498700E+01	  0.099358723	4.640600E+01	  0.099358723	3.635000E+01
398	  0.099559121	-9.024000E+00	  0.099559121	7.457600E+01	  0.099559121	4.668100E+01	  0.099559121	3.640100E+01
399	  0.099759519	-9.031000E+00	  0.099759519	7.423300E+01	  0.099759519	4.689900E+01	  0.099759519	3.647200E+01
400	  0.099959925	-9.044000E+00	  0.099959925	7.385400E+01	  0.099959925	4.715100E+01	  0.099959925	3.652500E+01
401	  0.100160323	-9.046000E+00	  0.100160323	7.351600E+01	  0.100160323	4.735800E+01	  0.100160323	3.661400E+01
402	  0.100360721	-9.066000E+00	  0.100360721	7.320200E+01	  0.100360721	4.758500E+01	  0.100360721	3.662000E+01
403	  0.100561127	-9.070000E+00	  0.100561127	7.285700E+01	  0.100561127	4.780200E+01	  0.100561127	3.670000E+01
404	  0.100761525	-9.078000E+00	  0.100761525	7.249700E+01	  0.100761525	4.803900E+01	  0.100761525	3.676300E+01
405	  0.100961931	-9.089000E+00	  0.100961931	7.211000E+01	  0.100961931	4.829700E+01	  0.100961931	3.682400E+01
406	  0.101162329	-9.092000E+00	  0.101162329	7.178900E+01	  0.101162329	4.850300E+01	  0.101162329	3.689400E+01
407	  0.101362728	-9.106000E+00	  0.101362728	7.147700E+01	  0.101362728	4.872200E+01	  0.101362728	3.691800E+01
408	  0.101563133	-9.116000E+00	  0.101563133	7.108700E+01	  0.101563133	4.898500E+01	  0.101563133	3.697800E+01
409	  0.101763532	-9.125000E+00	  0.101763532	7.077300E+01	  0.101763532	4.919800E+01	  0.101763532	3.702200E+01
410	  0.101963930	-9.124000E+00	  0.101963930	7.044500E+01	  0.101963930	4.940600E+01	  0.101963930	3.710900E+01
411	  0.102164328	-9.120000E+00	  0.102164328	7.009700E+01	  0.102164328	4.962300E+01	  0.102164328	3.721100E+01
412	  0.102364726	-9.131000E+00	  0.102364726	6.968800E+01	  0.102364726	4.990500E+01	  0.102364726	3.726700E+01
413	  0.102565125	-9.133000E+00	  0.102565125	6.937400E+01	  0.102565125	5.011300E+01	  0.102565125	3.733200E+01
414	  0.102765530	-9.125000E+00	  0.102765530	6.905000E+01	  0.102765530	5.031400E+01	  0.102765530	3.744400E+01
415	  0.102965929	-9.127000E+00	  0.102965929	6.861600E+01	  0.102965929	5.060300E+01	  0.102965929	3.753700E+01
416	  0.103166327	-9.123000E+00	  0.103166327	6.825200E+01	  0.103166327	5.083800E+01	  0.103166327	3.764300E+01
417	  0.103366733	-9.113000E+00	  0.103366733	6.786600E+01	  0.103366733	5.108300E+01	  0.103366733	3.777400E+01
418	  0.103567131	-9.115000E+00	  0.103567131	6.749600E+01	  0.103567131	5.133500E+01	  0.103567131	3.785200E+01
419	  0.103767529	-9.108000E+00	  0.103767529	6.710700E+01	  0.103767529	5.159000E+01	  0.103767529	3.797100E+01
420	  0.103967935	-9.095000E+00	  0.103967935	6.666800E+01	  0.103967935	5.187300E+01	  0.103967935	3.812700E+01
421	  0.104168333	-9.087000E+00	  0.104168333	6.625200E+01	  0.104168333	5.214900E+01	  0.104168333	3.825600E+01
422	  0.104368731	-9.068000E+00	  0.104368731	6.586600E+01	  0.104368731	5.239200E+01	  0.104368731	3.842600E+01
423	  0.104569137	-9.054000E+00	  0.104569137	6.541100E+01	  0.104569137	5.269400E+01	  0.104569137	3.858800E+01
424	  0.104769535	-9.034000E+00	  0.104769535	6.495400E+01	  0.104769535	5.299300E+01	  0.104769535	3.877500E+01
425	  0.104969934	-9.019000E+00	  0.104969934	6.456200E+01	  0.104969934	5.325500E+01	  0.104969934	3.892800E+01
426	  0.105170339	-9.002000E+00	  0.105170339	6.411400E+01	  0.105170339	5.355800E+01	  0.105170339	3.910100E+01
427	  0.105370738	-8.983000E+00	  0.105370738	6.369600E+01	  0.105370738	5.384000E+01	  0.105370738	3.927900E+01
428	  0.105571143	-8.959000E+00	  0.105571143	6.319500E+01	  0.105571143	5.418000E+01	  0.105571143	3.949500E+01
429	  0.105771542	-8.940000E+00	  0.105771542	6.273900E+01	  0.105771542	5.449900E+01	  0.105771542	3.967800E+01
430	  0.105971940	-8.917000E+00	  0.105971940	6.224600E+01	  0.105971940	5.484400E+01	  0.105971940	3.988600E+01
431	  0.106172346	-8.889000E+00	  0.106172346	6.177200E+01	  0.106172346	5.517300E+01	  0.106172346	4.011700E+01
432	  0.106372744	-8.866000E+00	  0.106372744	6.129400E+01	  0.106372744	5.551700E+01	  0.106372744	4.032300E+01
433	  0.106573142	-8.848000E+00	  0.106573142	6.077700E+01	  0.106573142	5.590100E+01	  0.106573142	4.051000E+01
434	  0.106773548	-8.826000E+00	  0.106773548	6.028300E+01	  0.106773548	5.626900E+01	  0.106773548	4.071200E+01
435	  0.106973946	-8.806000E+00	  0.106973946	5.983500E+01	  0.106973946	5.660600E+01	  0.106973946	4.089700E+01
436	  0.107174344	-8.781000E+00	  0.107174344	5.930600E+01	  0.107174344	5.700900E+01	  0.107174344	4.111800E+01
437	  0.107374750	-8.753000E+00	  0.107374750	5.874400E+01	  0.107374750	5.744300E+01	  0.107374750	4.135900E+01
438	  0.107575148	-8.725000E+00	  0.107575148	5.822000E+01	  0.107575148	5.785100E+01	  0.107575148	4.159900E+01
439	  0.107775547	-8.705000E+00	  0.107775547	5.766100E+01	  0.107775547	5.830300E+01	  0.107775547	4.179400E+01
440	  0.107975952	-8.683000E+00	  0.107975952	5.713200E+01	  0.107975952	5.873500E+01	  0.107975952	4.199500E+01
441	  0.108176351	-8.664000E+00	  0.108176351	5.656400E+01	  0.108176351	5.921000E+01	  0.108176351	4.217900E+01
442	  0.108376749	-8.643000E+00	  0.108376749	5.598700E+01	  0.108376749	5.969700E+01	  0.108376749	4.237700E+01
443	  0.108577155	-8.632000E+00	  0.108577155	5.542600E+01	  0.108577155	6.018700E+01	  0.108577155	4.251300E+01
444	  0.108777553	-8.610000E+00	  0.108777553	5.481300E+01	  0.108777553	6.072100E+01	  0.108777553	4.271400E+01
445	  0.108977959	-8.587000E+00	  0.108977959	5.417800E+01	  0.108977959	6.128400E+01	  0.108977959	4.292100E+01
446	  0.109178357	-8.574000E+00	  0.109178357	5.356700E+01	  0.109178357	6.184100E+01	  0.109178357	4.305700E+01
447	  0.109378755	-8.560000E+00	  0.109378755	5.288700E+01	  0.109378755	6.246900E+01	  0.109378755	4.320300E+01
448	  0.109579161	-8.545000E+00	  0.109579161	5.222600E+01	  0.109579161	6.308800E+01	  0.109579161	4.334800E+01
449	  0.109779559	-8.527000E+00	  0.109779559	5.160300E+01	  0.109779559	6.367900E+01	  0.109779559	4.350200E+01
450	  0.109979957	-8.514000E+00	  0.109979957	5.087900E+01	  0.109979957	6.438000E+01	  0.109979957	4.362100E+01
451	  0.110180363	-8.491000E+00	  0.110180363	5.022800E+01	  0.110180363	6.501600E+01	  0.110180363	4.380000E+01
452	  0.110380761	-8.483000E+00	  0.110380761	4.947100E+01	  0.110380761	6.577200E+01	  0.110380761	4.387000E+01
453	  0.110581160	-8.466000E+00	  0.110581160	4.875200E+01	  0.110581160	6.650000E+01	  0.110581160	4.398800E+01
454	  0.110781565	-8.455000E+00	  0.110781565	4.803400E+01	  0.110781565	6.723800E+01	  0.110781565	4.405800E+01
455	  0.110981964	-8.454000E+00	  0.110981964	4.731000E+01	  0.110981964	6.799200E+01	  0.110981964	4.405400E+01
456	  0.111182362	-8.442000E+00	  0.111182362	4.658900E+01	  0.111182362	6.875300E+01	  0.111182362	4.410700E+01
457	  0.111382768	-8.422000E+00	  0.111382768	4.582200E+01	  0.111382768	6.957900E+01	  0.111382768	4.420000E+01
458	  0.111583166	-8.414000E+00	  0.111583166	4.502700E+01	  0.111583166	7.044200E+01	  0.111583166	4.419900E+01
459	  0.111783572	-8.397000E+00	  0.111783572	4.427700E+01	  0.111783572	7.127300E+01	  0.111783572	4.424700E+01
460	  0.111983970	-8.393000E+00	  0.111983970	4.351500E+01	  0.111983970	7.212000E+01	  0.111983970	4.418300E+01
461	  0.112184368	-8.383000E+00	  0.112184368	4.271400E+01	  0.112184368	7.302500E+01	  0.112184368	4.414500E+01
462	  0.112384774	-8.369000E+00	  0.112384774	4.189300E+01	  0.112384774	7.397000E+01	  0.112384774	4.411200E+01
463	  0.112585172	-8.363000E+00	  0.112585172	4.108500E+01	  0.112585172	7.490100E+01	  0.112585172	4.399700E+01
464	  0.112785570	-8.351000E+00	  0.112785570	4.024300E+01	  0.112785570	7.589400E+01	  0.112785570	4.390900E+01
465	  0.112985976	-8.344000E+00	  0.112985976	3.945700E+01	  0.112985976	7.682400E+01	  0.112985976	4.377000E+01
466	  0.113186374	-8.336000E+00	  0.113186374	3.861900E+01	  0.113186374	7.782700E+01	  0.113186374	4.360200E+01
467	  0.113386773	-8.326000E+00	  0.113386773	3.778700E+01	  0.113386773	7.883500E+01	  0.113386773	4.342500E+01
468	  0.113587178	-8.321000E+00	  0.113587178	3.693200E+01	  0.113587178	7.987200E+01	  0.113587178	4.317700E+01
469	  0.113787577	-8.317000E+00	  0.113787577	3.604500E+01	  0.113787577	8.095500E+01	  0.113787577	4.288500E+01
470	  0.113987975	-8.311000E+00	  0.113987975	3.517600E+01	  0.113987975	8.202600E+01	  0.113987975	4.257900E+01
471	  0.114188381	-8.310000E+00	  0.114188381	3.430300E+01	  0.114188381	8.309500E+01	  0.114188381	4.220200E+01
472	  0.114388779	-8.304000E+00	  0.114388779	3.340000E+01	  0.114388779	8.422300E+01	  0.114388779	4.182200E+01
473	  0.114589177	-8.307000E+00	  0.114589177	3.249700E+01	  0.114589177	8.532400E+01	  0.114589177	4.133400E+01
474	  0.114789583	-8.308000E+00	  0.114789583	3.157700E+01	  0.114789583	8.645200E+01	  0.114789583	4.081200E+01
475	  0.114989981	-8.317000E+00	  0.114989981	3.066300E+01	  0.114989981	8.754100E+01	  0.114989981	4.019000E+01
476	  0.115190387	-8.316000E+00	  0.115190387	2.966800E+01	  0.115190387	8.876500E+01	  0.115190387	3.955700E+01
477	  0.115390785	-8.328000E+00	  0.115390785	2.869400E+01	  0.115390785	8.990500E+01	  0.115390785	3.879600E+01
478	  0.115591183	-8.336000E+00	  0.115591183	2.775500E+01	  0.115591183	9.100100E+01	  0.115591183	3.803900E+01
479	  0.115791589	-8.351000E+00	  0.115791589	2.677900E+01	  0.115791589	9.209600E+01	  0.115791589	3.715800E+01
480	  0.115991987	-8.368000E+00	  0.115991987	2.574100E+01	  0.115991987	9.323600E+01	  0.115991987	3.616700E+01
481	  0.116192386	-8.386000E+00	  0.116192386	2.474300E+01	  0.116192386	9.430000E+01	  0.116192386	3.515900E+01
482	  0.116392791	-8.407000E+00	  0.116392791	2.365400E+01	  0.116392791	9.541700E+01	  0.116392791	3.398900E+01
483	  0.116593190	-8.426000E+00	  0.116593190	2.258900E+01	  0.116593190	9.648400E+01	  0.116593190	3.280800E+01
484	  0.116793588	-8.459000E+00	  0.116793588	2.152000E+01	  0.116793588	9.742800E+01	  0.116793588	3.147900E+01
485	  0.116993994	-8.489000E+00	  0.116993994	2.042600E+01	  0.116993994	9.836200E+01	  0.116993994	3.009500E+01
486	  0.117194392	-8.525000E+00	  0.117194392	1.932000E+01	  0.117194392	9.922100E+01	  0.117194392	2.862300E+01
487	  0.117394790	-8.558000E+00	  0.117394790	1.818400E+01	  0.117394790	1.000660E+02	  0.117394790	2.709100E+01
488	  0.117595196	-8.594000E+00	  0.117595196	1.703600E+01	  0.117595196	1.008370E+02	  0.117595196	2.548800E+01
489	  0.117795594	-8.640000E+00	  0.117795594	1.589900E+01	  0.117795594	1.014500E+02	  0.117795594	2.381100E+01
490	  0.117995992	-8.686000E+00	  0.117995992	1.467300E+01	  0.117995992	1.020610E+02	  0.117995992	2.199600E+01
491	  0.118196398	-8.734000E+00	  0.118196398	1.347500E+01	  0.118196398	1.025540E+02	  0.118196398	2.018700E+01
492	  0.118396796	-8.791000E+00	  0.118396796	1.221900E+01	  0.118396796	1.029130E+02	  0.118396796	1.824200E+01
493	  0.118597202	-8.846000E+00	  0.118597202	1.102000E+01	  0.118597202	1.031570E+02	  0.118597202	1.637800E+01
494	  0.118797600	-8.906000E+00	  0.118797600	9.744000E+00	  0.118797600	1.033180E+02	  0.118797600	1.439400E+01
