! Anritsu VNA Master:             	Model: MS2036C/10/77
! SN:             	1601066
! /bd0/18may07/256.ew.m3.txt
! Existing Calibration Information:
! TYPE:             	Current Settings	Active Cal Settings
! TIME:             	05/07/2018 11:54:43 AM	05/07/2018 11:47:21 AM
! INTERNAL TEMP:    	52.8 C	52.0 C
! # POINTS:         	500	500
! START FREQ:       	20.000 MHz	20.000 MHz
! STOP FREQ:        	120.000 MHz	120.000 MHz
! SOURCE POWER:     	High	High
! IFBW:             	50 Hz	50 Hz
! AVG FACTOR:       	  1 	  1 
! REF PLANE 1:      	0 mm	0 mm
! REF PLANE 2:      	0 mm	0 mm
! CAL TYPE:         	Full S11	Full S11
! CAL METHOD:       	SOLT	SOLT
! CAL LINE TYPE:    	Coax	Coax
! DUT PORT 1:       	K-Conn(F)	K-Conn(F)
! DUT PORT 2:       	K-Conn(F)	K-Conn(F)
! CAL STATUS:       	OK: Accuracy High	--
! PROP-V:       	0.700
! CABLE LOSS:       	0.000 dB/m
! REF IMPEDANCE:       	50.0
! Trace Specific Parameters:	TR1	TR2	TR3	TR4
! TRACE.#.Y (GRAPH TYPE)	LOG MAG	PHASE	REAL IMPEDANCE	IMAGINARY IMPEDANCE
! TRACE.#.X 	FREQ.GHZ	FREQ.GHZ	FREQ.GHZ	FREQ.GHZ
! S-PARAMETER	S11	S11	S11	S11
! SMOOTH/APERTURE %	0	0	0	0
! WINDOW	NSL	NSL	NSL	NSL
! GATING	OFF	OFF	OFF	OFF
! FGTD	OFF	OFF	OFF	OFF
Marker Information per Trace:	TR1	TR2	TR3	TR4
!MK1	--	"MK1 TR2:  20.000 MHz,PH:-125.78°"	--	--
!MK2	--	--	"MK2 TR3:  70.100 200 MHz,Z:(16.609 ohm, -3.229 ohm)"	--
!MK3	--	--	--	--
!MK4	--	--	--	--
!MK5	--	--	--	--
!MK6	--	--	--	--
!MK7	--	--	--	--
!MK8	--	--	--	--
PNT	TR1.FREQ.GHZ	TR1.LOG MAG.dB	TR2.FREQ.GHZ	TR2.PHASE.deg	TR3.FREQ.GHZ	TR3.REAL IMPEDANCE.ohm	TR4.FREQ.GHZ	TR4.IMAGINARY IMPEDANCE.ohm
1	  0.020000000	-6.340000E-01	  0.020000000	-1.257820E+02	  0.020000000	2.301000E+00	  0.020000000	-2.555300E+01
2	  0.020200402	-6.310000E-01	  0.020200402	-1.272510E+02	  0.020200402	2.261000E+00	  0.020200402	-2.475100E+01
3	  0.020400802	-6.300000E-01	  0.020400802	-1.286960E+02	  0.020400802	2.232000E+00	  0.020400802	-2.397200E+01
4	  0.020601204	-6.320000E-01	  0.020601204	-1.301590E+02	  0.020601204	2.211000E+00	  0.020601204	-2.319300E+01
5	  0.020801604	-6.350000E-01	  0.020801604	-1.316450E+02	  0.020801604	2.195000E+00	  0.020801604	-2.241100E+01
6	  0.021002004	-6.430000E-01	  0.021002004	-1.331610E+02	  0.021002004	2.197000E+00	  0.021002004	-2.162100E+01
7	  0.021202406	-6.510000E-01	  0.021202406	-1.346970E+02	  0.021202406	2.199000E+00	  0.021202406	-2.083100E+01
8	  0.021402806	-6.540000E-01	  0.021402806	-1.362280E+02	  0.021402806	2.186000E+00	  0.021402806	-2.005200E+01
9	  0.021603208	-6.600000E-01	  0.021603208	-1.377620E+02	  0.021603208	2.183000E+00	  0.021603208	-1.928000E+01
10	  0.021803608	-6.650000E-01	  0.021803608	-1.392920E+02	  0.021803608	2.177000E+00	  0.021803608	-1.851800E+01
11	  0.022004008	-6.730000E-01	  0.022004008	-1.408320E+02	  0.022004008	2.180000E+00	  0.022004008	-1.775800E+01
12	  0.022204408	-6.790000E-01	  0.022204408	-1.423870E+02	  0.022204408	2.179000E+00	  0.022204408	-1.699800E+01
13	  0.022404809	-6.840000E-01	  0.022404809	-1.439570E+02	  0.022404809	2.175000E+00	  0.022404809	-1.623800E+01
14	  0.022605211	-6.860000E-01	  0.022605211	-1.455510E+02	  0.022605211	2.164000E+00	  0.022605211	-1.547400E+01
15	  0.022805611	-6.890000E-01	  0.022805611	-1.471600E+02	  0.022805611	2.156000E+00	  0.022805611	-1.470900E+01
16	  0.023006011	-6.940000E-01	  0.023006011	-1.487490E+02	  0.023006011	2.152000E+00	  0.023006011	-1.395900E+01
17	  0.023206413	-6.970000E-01	  0.023206413	-1.503390E+02	  0.023206413	2.147000E+00	  0.023206413	-1.321500E+01
18	  0.023406813	-7.010000E-01	  0.023406813	-1.519170E+02	  0.023406813	2.142000E+00	  0.023406813	-1.248200E+01
19	  0.023607215	-7.060000E-01	  0.023607215	-1.535000E+02	  0.023607215	2.145000E+00	  0.023607215	-1.175200E+01
20	  0.023807615	-7.120000E-01	  0.023807615	-1.551080E+02	  0.023807615	2.149000E+00	  0.023807615	-1.101500E+01
21	  0.024008015	-7.230000E-01	  0.024008015	-1.567220E+02	  0.024008015	2.168000E+00	  0.024008015	-1.028000E+01
22	  0.024208417	-7.320000E-01	  0.024208417	-1.583640E+02	  0.024208417	2.183000E+00	  0.024208417	-9.536000E+00
23	  0.024408817	-7.410000E-01	  0.024408817	-1.600100E+02	  0.024408817	2.200000E+00	  0.024408817	-8.794000E+00
24	  0.024609219	-7.520000E-01	  0.024609219	-1.616600E+02	  0.024609219	2.219000E+00	  0.024609219	-8.055000E+00
25	  0.024809619	-7.600000E-01	  0.024809619	-1.633230E+02	  0.024809619	2.235000E+00	  0.024809619	-7.314000E+00
26	  0.025010020	-7.720000E-01	  0.025010020	-1.649620E+02	  0.025010020	2.260000E+00	  0.025010020	-6.585000E+00
27	  0.025210422	-7.850000E-01	  0.025210422	-1.666310E+02	  0.025210422	2.290000E+00	  0.025210422	-5.847000E+00
28	  0.025410822	-7.980000E-01	  0.025410822	-1.683020E+02	  0.025410822	2.319000E+00	  0.025410822	-5.110000E+00
29	  0.025611224	-8.130000E-01	  0.025611224	-1.700020E+02	  0.025611224	2.356000E+00	  0.025611224	-4.363000E+00
30	  0.025811624	-8.250000E-01	  0.025811624	-1.717240E+02	  0.025811624	2.386000E+00	  0.025811624	-3.608000E+00
31	  0.026012026	-8.370000E-01	  0.026012026	-1.734490E+02	  0.026012026	2.415000E+00	  0.026012026	-2.854000E+00
32	  0.026212426	-8.480000E-01	  0.026212426	-1.751670E+02	  0.026212426	2.443000E+00	  0.026212426	-2.104000E+00
33	  0.026412826	-8.620000E-01	  0.026412826	-1.769010E+02	  0.026412826	2.481000E+00	  0.026412826	-1.349000E+00
34	  0.026613226	-8.770000E-01	  0.026613226	-1.786440E+02	  0.026613226	2.522000E+00	  0.026613226	-5.890000E-01
35	  0.026813626	-8.930000E-01	  0.026813626	1.796000E+02	  0.026813626	2.569000E+00	  0.026813626	1.730000E-01
36	  0.027014028	-9.100000E-01	  0.027014028	1.778300E+02	  0.027014028	2.619000E+00	  0.027014028	9.440000E-01
37	  0.027214428	-9.270000E-01	  0.027214428	1.760440E+02	  0.027214428	2.670000E+00	  0.027214428	1.721000E+00
38	  0.027414829	-9.430000E-01	  0.027414829	1.742540E+02	  0.027414829	2.718000E+00	  0.027414829	2.501000E+00
39	  0.027615231	-9.610000E-01	  0.027615231	1.724490E+02	  0.027615231	2.775000E+00	  0.027615231	3.288000E+00
40	  0.027815631	-9.810000E-01	  0.027815631	1.706400E+02	  0.027815631	2.840000E+00	  0.027815631	4.079000E+00
41	  0.028016033	-1.001000E+00	  0.028016033	1.688030E+02	  0.028016033	2.907000E+00	  0.028016033	4.884000E+00
42	  0.028216433	-1.023000E+00	  0.028216433	1.669750E+02	  0.028216433	2.982000E+00	  0.028216433	5.687000E+00
43	  0.028416833	-1.045000E+00	  0.028416833	1.651420E+02	  0.028416833	3.057000E+00	  0.028416833	6.495000E+00
44	  0.028617235	-1.066000E+00	  0.028617235	1.633080E+02	  0.028617235	3.132000E+00	  0.028617235	7.307000E+00
45	  0.028817635	-1.086000E+00	  0.028817635	1.614770E+02	  0.028817635	3.206000E+00	  0.028817635	8.120000E+00
46	  0.029018037	-1.107000E+00	  0.029018037	1.596590E+02	  0.029018037	3.284000E+00	  0.029018037	8.932000E+00
47	  0.029218437	-1.129000E+00	  0.029218437	1.578370E+02	  0.029218437	3.369000E+00	  0.029218437	9.749000E+00
48	  0.029418837	-1.152000E+00	  0.029418837	1.560270E+02	  0.029418837	3.462000E+00	  0.029418837	1.056600E+01
49	  0.029619239	-1.178000E+00	  0.029619239	1.541880E+02	  0.029619239	3.565000E+00	  0.029619239	1.140100E+01
50	  0.029819639	-1.208000E+00	  0.029819639	1.523230E+02	  0.029819639	3.681000E+00	  0.029819639	1.225300E+01
51	  0.030020041	-1.240000E+00	  0.030020041	1.504370E+02	  0.030020041	3.810000E+00	  0.030020041	1.312100E+01
52	  0.030220442	-1.270000E+00	  0.030220442	1.485310E+02	  0.030220442	3.938000E+00	  0.030220442	1.400500E+01
53	  0.030420844	-1.300000E+00	  0.030420844	1.466140E+02	  0.030420844	4.070000E+00	  0.030420844	1.490200E+01
54	  0.030621244	-1.332000E+00	  0.030621244	1.447160E+02	  0.030621244	4.212000E+00	  0.030621244	1.579800E+01
55	  0.030821644	-1.362000E+00	  0.030821644	1.428100E+02	  0.030821644	4.354000E+00	  0.030821644	1.670700E+01
56	  0.031022044	-1.398000E+00	  0.031022044	1.408970E+02	  0.031022044	4.519000E+00	  0.031022044	1.762700E+01
57	  0.031222444	-1.430000E+00	  0.031222444	1.389980E+02	  0.031222444	4.678000E+00	  0.031222444	1.855100E+01
58	  0.031422846	-1.468000E+00	  0.031422846	1.370290E+02	  0.031422846	4.864000E+00	  0.031422846	1.951900E+01
59	  0.031623244	-1.505000E+00	  0.031623244	1.350330E+02	  0.031623244	5.056000E+00	  0.031623244	2.051200E+01
60	  0.031823646	-1.539000E+00	  0.031823646	1.330330E+02	  0.031823646	5.245000E+00	  0.031823646	2.152100E+01
61	  0.032024048	-1.575000E+00	  0.032024048	1.310450E+02	  0.032024048	5.451000E+00	  0.032024048	2.253700E+01
62	  0.032224450	-1.611000E+00	  0.032224450	1.290410E+02	  0.032224450	5.665000E+00	  0.032224450	2.357600E+01
63	  0.032424849	-1.646000E+00	  0.032424849	1.270540E+02	  0.032424849	5.883000E+00	  0.032424849	2.462200E+01
64	  0.032625251	-1.681000E+00	  0.032625251	1.250620E+02	  0.032625251	6.112000E+00	  0.032625251	2.568700E+01
65	  0.032825653	-1.719000E+00	  0.032825653	1.230630E+02	  0.032825653	6.364000E+00	  0.032825653	2.677100E+01
66	  0.033026051	-1.758000E+00	  0.033026051	1.210930E+02	  0.033026051	6.631000E+00	  0.033026051	2.785600E+01
67	  0.033226453	-1.804000E+00	  0.033226453	1.190920E+02	  0.033226453	6.938000E+00	  0.033226453	2.897500E+01
68	  0.033426855	-1.847000E+00	  0.033426855	1.171070E+02	  0.033426855	7.249000E+00	  0.033426855	3.010500E+01
69	  0.033627257	-1.903000E+00	  0.033627257	1.150970E+02	  0.033627257	7.626000E+00	  0.033627257	3.126400E+01
70	  0.033827655	-1.955000E+00	  0.033827655	1.130700E+02	  0.033827655	8.010000E+00	  0.033827655	3.245600E+01
71	  0.034028057	-2.007000E+00	  0.034028057	1.109780E+02	  0.034028057	8.418000E+00	  0.034028057	3.371200E+01
72	  0.034228459	-2.060000E+00	  0.034228459	1.088780E+02	  0.034228459	8.855000E+00	  0.034228459	3.499700E+01
73	  0.034428857	-2.107000E+00	  0.034428857	1.067290E+02	  0.034428857	9.298000E+00	  0.034428857	3.634600E+01
74	  0.034629259	-2.155000E+00	  0.034629259	1.046040E+02	  0.034629259	9.770000E+00	  0.034629259	3.770900E+01
75	  0.034829661	-2.202000E+00	  0.034829661	1.024700E+02	  0.034829661	1.026700E+01	  0.034829661	3.911000E+01
76	  0.035030060	-2.245000E+00	  0.035030060	1.003520E+02	  0.035030060	1.077100E+01	  0.035030060	4.053900E+01
77	  0.035230462	-2.288000E+00	  0.035230462	9.824800E+01	  0.035230462	1.130700E+01	  0.035230462	4.199200E+01
78	  0.035430863	-2.331000E+00	  0.035430863	9.614200E+01	  0.035430863	1.187800E+01	  0.035430863	4.348400E+01
79	  0.035631265	-2.374000E+00	  0.035631265	9.403900E+01	  0.035631265	1.248800E+01	  0.035631265	4.501200E+01
80	  0.035831664	-2.416000E+00	  0.035831664	9.197100E+01	  0.035831664	1.312700E+01	  0.035831664	4.655500E+01
81	  0.036032066	-2.462000E+00	  0.036032066	8.990500E+01	  0.036032066	1.383100E+01	  0.036032066	4.813100E+01
82	  0.036232468	-2.508000E+00	  0.036232468	8.783500E+01	  0.036232468	1.457900E+01	  0.036232468	4.975400E+01
83	  0.036432866	-2.555000E+00	  0.036432866	8.580400E+01	  0.036432866	1.537900E+01	  0.036432866	5.138500E+01
84	  0.036633268	-2.607000E+00	  0.036633268	8.377200E+01	  0.036633268	1.625900E+01	  0.036633268	5.305100E+01
85	  0.036833670	-2.662000E+00	  0.036833670	8.173200E+01	  0.036833670	1.722700E+01	  0.036833670	5.476200E+01
86	  0.037034072	-2.721000E+00	  0.037034072	7.968300E+01	  0.037034072	1.829300E+01	  0.037034072	5.651500E+01
87	  0.037234470	-2.778000E+00	  0.037234470	7.760200E+01	  0.037234470	1.944100E+01	  0.037234470	5.834900E+01
88	  0.037434869	-2.840000E+00	  0.037434869	7.552400E+01	  0.037434869	2.070000E+01	  0.037434869	6.021600E+01
89	  0.037635271	-2.897000E+00	  0.037635271	7.342300E+01	  0.037635271	2.204200E+01	  0.037635271	6.216600E+01
90	  0.037835669	-2.961000E+00	  0.037835669	7.127600E+01	  0.037835669	2.355800E+01	  0.037835669	6.419300E+01
91	  0.038036071	-3.020000E+00	  0.038036071	6.910700E+01	  0.038036071	2.518400E+01	  0.038036071	6.630700E+01
92	  0.038236473	-3.081000E+00	  0.038236473	6.696600E+01	  0.038236473	2.694400E+01	  0.038236473	6.843700E+01
93	  0.038436871	-3.137000E+00	  0.038436871	6.479200E+01	  0.038436871	2.883700E+01	  0.038436871	7.067700E+01
94	  0.038637273	-3.194000E+00	  0.038637273	6.267000E+01	  0.038637273	3.086300E+01	  0.038637273	7.290500E+01
95	  0.038837675	-3.239000E+00	  0.038837675	6.053300E+01	  0.038837675	3.299400E+01	  0.038837675	7.525400E+01
96	  0.039038073	-3.289000E+00	  0.039038073	5.844100E+01	  0.039038073	3.530900E+01	  0.039038073	7.757500E+01
97	  0.039238475	-3.334000E+00	  0.039238475	5.636300E+01	  0.039238475	3.778100E+01	  0.039238475	7.994700E+01
98	  0.039438877	-3.385000E+00	  0.039438877	5.432000E+01	  0.039438877	4.048200E+01	  0.039438877	8.226900E+01
99	  0.039639279	-3.441000E+00	  0.039639279	5.229100E+01	  0.039639279	4.345800E+01	  0.039639279	8.454400E+01
100	  0.039839678	-3.496000E+00	  0.039839678	5.023200E+01	  0.039839678	4.673000E+01	  0.039839678	8.686100E+01
101	  0.040040080	-3.558000E+00	  0.040040080	4.817200E+01	  0.040040080	5.035900E+01	  0.040040080	8.909000E+01
102	  0.040240481	-3.620000E+00	  0.040240481	4.610600E+01	  0.040240481	5.432900E+01	  0.040240481	9.126100E+01
103	  0.040440880	-3.680000E+00	  0.040440880	4.400900E+01	  0.040440880	5.869200E+01	  0.040440880	9.340300E+01
104	  0.040641282	-3.741000E+00	  0.040641282	4.194100E+01	  0.040641282	6.338300E+01	  0.040641282	9.537700E+01
105	  0.040841684	-3.800000E+00	  0.040841684	3.985200E+01	  0.040841684	6.852000E+01	  0.040841684	9.722100E+01
106	  0.041042086	-3.858000E+00	  0.041042086	3.778100E+01	  0.041042086	7.404100E+01	  0.041042086	9.883100E+01
107	  0.041242484	-3.916000E+00	  0.041242484	3.570900E+01	  0.041242484	8.001500E+01	  0.041242484	1.001490E+02
108	  0.041442886	-3.970000E+00	  0.041442886	3.363400E+01	  0.041442886	8.643700E+01	  0.041442886	1.011840E+02
109	  0.041643288	-4.026000E+00	  0.041643288	3.153100E+01	  0.041643288	9.344100E+01	  0.041643288	1.017260E+02
110	  0.041843686	-4.077000E+00	  0.041843686	2.945400E+01	  0.041843686	1.008100E+02	  0.041843686	1.018180E+02
111	  0.042044088	-4.129000E+00	  0.042044088	2.738200E+01	  0.042044088	1.086110E+02	  0.042044088	1.012050E+02
112	  0.042244490	-4.181000E+00	  0.042244490	2.534400E+01	  0.042244490	1.166630E+02	  0.042244490	9.983600E+01
113	  0.042444889	-4.231000E+00	  0.042444889	2.331700E+01	  0.042444889	1.249770E+02	  0.042444889	9.763700E+01
114	  0.042645290	-4.283000E+00	  0.042645290	2.128600E+01	  0.042645290	1.334790E+02	  0.042645290	9.438700E+01
115	  0.042845692	-4.332000E+00	  0.042845692	1.928500E+01	  0.042845692	1.419150E+02	  0.042845692	9.017800E+01
116	  0.043046094	-4.383000E+00	  0.043046094	1.725800E+01	  0.043046094	1.503120E+02	  0.043046094	8.472800E+01
117	  0.043246493	-4.433000E+00	  0.043246493	1.523900E+01	  0.043246493	1.583230E+02	  0.043246493	7.809600E+01
118	  0.043446895	-4.481000E+00	  0.043446895	1.325500E+01	  0.043446895	1.656550E+02	  0.043446895	7.044900E+01
119	  0.043647297	-4.529000E+00	  0.043647297	1.124200E+01	  0.043647297	1.723040E+02	  0.043647297	6.158000E+01
120	  0.043847695	-4.576000E+00	  0.043847695	9.263000E+00	  0.043847695	1.778260E+02	  0.043847695	5.189300E+01
121	  0.044048097	-4.625000E+00	  0.044048097	7.283000E+00	  0.044048097	1.820710E+02	  0.044048097	4.136100E+01
122	  0.044248499	-4.674000E+00	  0.044248499	5.315000E+00	  0.044248499	1.849090E+02	  0.044248499	3.034400E+01
123	  0.044448901	-4.719000E+00	  0.044448901	3.334000E+00	  0.044448901	1.864600E+02	  0.044448901	1.901300E+01
124	  0.044649299	-4.764000E+00	  0.044649299	1.396000E+00	  0.044649299	1.864820E+02	  0.044649299	7.883000E+00
125	  0.044849701	-4.807000E+00	  0.044849701	-5.510000E-01	  0.044849701	1.851940E+02	  0.044849701	-3.059000E+00
126	  0.045050103	-4.845000E+00	  0.045050103	-2.503000E+00	  0.045050103	1.828050E+02	  0.045050103	-1.359800E+01
127	  0.045250501	-4.882000E+00	  0.045250501	-4.445000E+00	  0.045250501	1.792210E+02	  0.045250501	-2.345500E+01
128	  0.045450903	-4.917000E+00	  0.045450903	-6.367000E+00	  0.045450903	1.747840E+02	  0.045450903	-3.247700E+01
129	  0.045651305	-4.956000E+00	  0.045651305	-8.281000E+00	  0.045651305	1.694150E+02	  0.045651305	-4.053000E+01
130	  0.045851704	-4.995000E+00	  0.045851704	-1.017300E+01	  0.045851704	1.635100E+02	  0.045851704	-4.754700E+01
131	  0.046052106	-5.036000E+00	  0.046052106	-1.205500E+01	  0.046052106	1.572140E+02	  0.046052106	-5.357800E+01
132	  0.046252504	-5.073000E+00	  0.046252504	-1.393300E+01	  0.046252504	1.507630E+02	  0.046252504	-5.875400E+01
133	  0.046452906	-5.110000E+00	  0.046452906	-1.579500E+01	  0.046452906	1.442610E+02	  0.046452906	-6.304600E+01
134	  0.046653304	-5.145000E+00	  0.046653304	-1.765700E+01	  0.046653304	1.377830E+02	  0.046653304	-6.658300E+01
135	  0.046853706	-5.176000E+00	  0.046853706	-1.953300E+01	  0.046853706	1.313910E+02	  0.046853706	-6.952700E+01
136	  0.047054108	-5.206000E+00	  0.047054108	-2.134400E+01	  0.047054108	1.253400E+02	  0.047054108	-7.172700E+01
137	  0.047254506	-5.235000E+00	  0.047254506	-2.318600E+01	  0.047254506	1.193900E+02	  0.047254506	-7.345700E+01
138	  0.047454908	-5.262000E+00	  0.047454908	-2.498200E+01	  0.047454908	1.138000E+02	  0.047454908	-7.467200E+01
139	  0.047655310	-5.289000E+00	  0.047655310	-2.678900E+01	  0.047655310	1.084060E+02	  0.047655310	-7.547800E+01
140	  0.047855709	-5.317000E+00	  0.047855709	-2.855600E+01	  0.047855709	1.033660E+02	  0.047855709	-7.587900E+01
141	  0.048056111	-5.348000E+00	  0.048056111	-3.028500E+01	  0.048056111	9.867100E+01	  0.048056111	-7.592300E+01
142	  0.048256513	-5.373000E+00	  0.048256513	-3.205900E+01	  0.048256513	9.411200E+01	  0.048256513	-7.581600E+01
143	  0.048456915	-5.403000E+00	  0.048456915	-3.378600E+01	  0.048456915	8.990900E+01	  0.048456915	-7.541000E+01
144	  0.048657313	-5.433000E+00	  0.048657313	-3.553200E+01	  0.048657313	8.589900E+01	  0.048657313	-7.482900E+01
145	  0.048857715	-5.459000E+00	  0.048857715	-3.727300E+01	  0.048857715	8.212600E+01	  0.048857715	-7.414500E+01
146	  0.049058117	-5.486000E+00	  0.049058117	-3.901900E+01	  0.049058117	7.856100E+01	  0.049058117	-7.333600E+01
147	  0.049258515	-5.505000E+00	  0.049258515	-4.073400E+01	  0.049258515	7.524600E+01	  0.049258515	-7.251900E+01
148	  0.049458917	-5.531000E+00	  0.049458917	-4.244900E+01	  0.049458917	7.213600E+01	  0.049458917	-7.152200E+01
149	  0.049659319	-5.558000E+00	  0.049659319	-4.415600E+01	  0.049659319	6.922700E+01	  0.049659319	-7.044600E+01
150	  0.049859721	-5.586000E+00	  0.049859721	-4.586500E+01	  0.049859721	6.648900E+01	  0.049859721	-6.931100E+01
151	  0.050060119	-5.609000E+00	  0.050060119	-4.754600E+01	  0.050060119	6.393400E+01	  0.050060119	-6.820800E+01
152	  0.050260521	-5.629000E+00	  0.050260521	-4.924800E+01	  0.050260521	6.148900E+01	  0.050260521	-6.706900E+01
153	  0.050460923	-5.649000E+00	  0.050460923	-5.094700E+01	  0.050460923	5.918400E+01	  0.050460923	-6.591800E+01
154	  0.050661322	-5.666000E+00	  0.050661322	-5.261800E+01	  0.050661322	5.703800E+01	  0.050661322	-6.477400E+01
155	  0.050861724	-5.680000E+00	  0.050861724	-5.429300E+01	  0.050861724	5.499100E+01	  0.050861724	-6.364000E+01
156	  0.051062126	-5.698000E+00	  0.051062126	-5.593800E+01	  0.051062126	5.310700E+01	  0.051062126	-6.247800E+01
157	  0.051262524	-5.712000E+00	  0.051262524	-5.754700E+01	  0.051262524	5.134900E+01	  0.051262524	-6.136100E+01
158	  0.051462926	-5.726000E+00	  0.051462926	-5.911500E+01	  0.051462926	4.972500E+01	  0.051462926	-6.026500E+01
159	  0.051663328	-5.740000E+00	  0.051663328	-6.068200E+01	  0.051663328	4.818600E+01	  0.051663328	-5.916700E+01
160	  0.051863730	-5.755000E+00	  0.051863730	-6.224600E+01	  0.051863730	4.673000E+01	  0.051863730	-5.806500E+01
161	  0.052064128	-5.766000E+00	  0.052064128	-6.378700E+01	  0.052064128	4.535300E+01	  0.052064128	-5.700500E+01
162	  0.052264530	-5.782000E+00	  0.052264530	-6.533400E+01	  0.052264530	4.405600E+01	  0.052264530	-5.591800E+01
163	  0.052464932	-5.797000E+00	  0.052464932	-6.685800E+01	  0.052464932	4.283900E+01	  0.052464932	-5.485600E+01
164	  0.052665330	-5.812000E+00	  0.052665330	-6.841900E+01	  0.052665330	4.165300E+01	  0.052665330	-5.377900E+01
165	  0.052865732	-5.830000E+00	  0.052865732	-6.995400E+01	  0.052865732	4.055500E+01	  0.052865732	-5.271200E+01
166	  0.053066134	-5.843000E+00	  0.053066134	-7.146200E+01	  0.053066134	3.951000E+01	  0.053066134	-5.169500E+01
167	  0.053266536	-5.855000E+00	  0.053266536	-7.297800E+01	  0.053266536	3.850400E+01	  0.053266536	-5.068600E+01
168	  0.053466935	-5.865000E+00	  0.053466935	-7.448800E+01	  0.053466935	3.754000E+01	  0.053466935	-4.969900E+01
169	  0.053667337	-5.874000E+00	  0.053667337	-7.598400E+01	  0.053667337	3.662500E+01	  0.053667337	-4.873400E+01
170	  0.053867739	-5.882000E+00	  0.053867739	-7.748400E+01	  0.053867739	3.574100E+01	  0.053867739	-4.778300E+01
171	  0.054068137	-5.885000E+00	  0.054068137	-7.897500E+01	  0.054068137	3.488400E+01	  0.054068137	-4.686200E+01
172	  0.054268539	-5.888000E+00	  0.054268539	-8.042700E+01	  0.054268539	3.408500E+01	  0.054268539	-4.597300E+01
173	  0.054468941	-5.896000E+00	  0.054468941	-8.183700E+01	  0.054468941	3.336200E+01	  0.054468941	-4.509800E+01
174	  0.054669339	-5.901000E+00	  0.054669339	-8.325100E+01	  0.054669339	3.265000E+01	  0.054669339	-4.424200E+01
175	  0.054869737	-5.908000E+00	  0.054869737	-8.464600E+01	  0.054869737	3.199000E+01	  0.054869737	-4.339600E+01
176	  0.055070139	-5.913000E+00	  0.055070139	-8.602500E+01	  0.055070139	3.135200E+01	  0.055070139	-4.257700E+01
177	  0.055270538	-5.921000E+00	  0.055270538	-8.738800E+01	  0.055270538	3.076100E+01	  0.055270538	-4.176400E+01
178	  0.055470940	-5.932000E+00	  0.055470940	-8.878100E+01	  0.055470940	3.019000E+01	  0.055470940	-4.093400E+01
179	  0.055671342	-5.936000E+00	  0.055671342	-9.015300E+01	  0.055671342	2.962600E+01	  0.055671342	-4.014300E+01
180	  0.055871744	-5.943000E+00	  0.055871744	-9.153700E+01	  0.055871744	2.908800E+01	  0.055871744	-3.934800E+01
181	  0.056072142	-5.947000E+00	  0.056072142	-9.287700E+01	  0.056072142	2.857500E+01	  0.056072142	-3.859300E+01
182	  0.056272544	-5.954000E+00	  0.056272544	-9.426700E+01	  0.056272544	2.807700E+01	  0.056272544	-3.780800E+01
183	  0.056472946	-5.964000E+00	  0.056472946	-9.567000E+01	  0.056472946	2.760200E+01	  0.056472946	-3.702000E+01
184	  0.056673344	-5.966000E+00	  0.056673344	-9.702000E+01	  0.056673344	2.713600E+01	  0.056673344	-3.628600E+01
185	  0.056873746	-5.969000E+00	  0.056873746	-9.835700E+01	  0.056873746	2.669500E+01	  0.056873746	-3.556400E+01
186	  0.057074148	-5.968000E+00	  0.057074148	-9.972100E+01	  0.057074148	2.624900E+01	  0.057074148	-3.484300E+01
187	  0.057274550	-5.971000E+00	  0.057274550	-1.010980E+02	  0.057274550	2.582800E+01	  0.057274550	-3.411300E+01
188	  0.057474948	-5.966000E+00	  0.057474948	-1.024220E+02	  0.057474948	2.540900E+01	  0.057474948	-3.343400E+01
189	  0.057675350	-5.963000E+00	  0.057675350	-1.037230E+02	  0.057675350	2.502100E+01	  0.057675350	-3.276700E+01
190	  0.057875752	-5.961000E+00	  0.057875752	-1.050390E+02	  0.057875752	2.464400E+01	  0.057875752	-3.209700E+01
191	  0.058076151	-5.892000E+00	  0.058076151	-1.068500E+02	  0.058076151	2.392600E+01	  0.058076151	-3.129800E+01
192	  0.058276553	-5.891000E+00	  0.058276553	-1.081360E+02	  0.058276553	2.359100E+01	  0.058276553	-3.065000E+01
193	  0.058476955	-5.895000E+00	  0.058476955	-1.094030E+02	  0.058476955	2.329100E+01	  0.058476955	-3.000800E+01
194	  0.058677353	-5.897000E+00	  0.058677353	-1.106630E+02	  0.058677353	2.299600E+01	  0.058677353	-2.937900E+01
195	  0.058877755	-5.900000E+00	  0.058877755	-1.119310E+02	  0.058877755	2.271000E+01	  0.058877755	-2.875000E+01
196	  0.059078157	-5.902000E+00	  0.059078157	-1.131970E+02	  0.059078157	2.243200E+01	  0.059078157	-2.812900E+01
197	  0.059278559	-5.908000E+00	  0.059278559	-1.144500E+02	  0.059278559	2.218100E+01	  0.059278559	-2.751300E+01
198	  0.059478957	-5.911000E+00	  0.059478957	-1.157040E+02	  0.059478957	2.192900E+01	  0.059478957	-2.690600E+01
199	  0.059679359	-5.917000E+00	  0.059679359	-1.169740E+02	  0.059679359	2.169000E+01	  0.059679359	-2.629200E+01
200	  0.059879761	-5.924000E+00	  0.059879761	-1.182200E+02	  0.059879761	2.146900E+01	  0.059879761	-2.569400E+01
201	  0.060080159	-5.926000E+00	  0.060080159	-1.194510E+02	  0.060080159	2.124200E+01	  0.060080159	-2.511300E+01
202	  0.060280561	-5.933000E+00	  0.060280561	-1.206850E+02	  0.060280561	2.103700E+01	  0.060280561	-2.453000E+01
203	  0.060480963	-5.939000E+00	  0.060480963	-1.218910E+02	  0.060480963	2.084200E+01	  0.060480963	-2.396500E+01
204	  0.060681365	-5.946000E+00	  0.060681365	-1.231230E+02	  0.060681365	2.065100E+01	  0.060681365	-2.339200E+01
205	  0.060881764	-5.947000E+00	  0.060881764	-1.243300E+02	  0.060881764	2.045300E+01	  0.060881764	-2.284100E+01
206	  0.061082166	-5.955000E+00	  0.061082166	-1.255380E+02	  0.061082166	2.028400E+01	  0.061082166	-2.228500E+01
207	  0.061282568	-5.961000E+00	  0.061282568	-1.267240E+02	  0.061282568	2.011600E+01	  0.061282568	-2.174600E+01
208	  0.061482966	-5.964000E+00	  0.061482966	-1.278910E+02	  0.061482966	1.995300E+01	  0.061482966	-2.122100E+01
209	  0.061683368	-5.967000E+00	  0.061683368	-1.290690E+02	  0.061683368	1.979000E+01	  0.061683368	-2.069500E+01
210	  0.061883770	-5.976000E+00	  0.061883770	-1.302420E+02	  0.061883770	1.965000E+01	  0.061883770	-2.016900E+01
211	  0.062084168	-5.984000E+00	  0.062084168	-1.313800E+02	  0.062084168	1.951800E+01	  0.062084168	-1.966300E+01
212	  0.062284570	-5.991000E+00	  0.062284570	-1.325230E+02	  0.062284570	1.938700E+01	  0.062284570	-1.915800E+01
213	  0.062484972	-5.991000E+00	  0.062484972	-1.336190E+02	  0.062484972	1.924700E+01	  0.062484972	-1.868300E+01
214	  0.062685370	-6.005000E+00	  0.062685370	-1.347690E+02	  0.062685370	1.914600E+01	  0.062685370	-1.817600E+01
215	  0.062885776	-6.012000E+00	  0.062885776	-1.358860E+02	  0.062885776	1.903300E+01	  0.062885776	-1.769100E+01
216	  0.063086174	-6.024000E+00	  0.063086174	-1.370240E+02	  0.063086174	1.893500E+01	  0.063086174	-1.719600E+01
217	  0.063286573	-6.030000E+00	  0.063286573	-1.381560E+02	  0.063286573	1.882400E+01	  0.063286573	-1.671200E+01
218	  0.063486971	-6.037000E+00	  0.063486971	-1.392820E+02	  0.063486971	1.872300E+01	  0.063486971	-1.623200E+01
219	  0.063687377	-6.044000E+00	  0.063687377	-1.403840E+02	  0.063687377	1.862600E+01	  0.063687377	-1.576400E+01
220	  0.063887775	-6.051000E+00	  0.063887775	-1.414830E+02	  0.063887775	1.853400E+01	  0.063887775	-1.530000E+01
221	  0.064088173	-6.055000E+00	  0.064088173	-1.425560E+02	  0.064088173	1.844100E+01	  0.064088173	-1.485000E+01
222	  0.064288579	-6.058000E+00	  0.064288579	-1.436730E+02	  0.064288579	1.834500E+01	  0.064288579	-1.438500E+01
223	  0.064488977	-6.059000E+00	  0.064488977	-1.447320E+02	  0.064488977	1.825300E+01	  0.064488977	-1.394700E+01
224	  0.064689375	-6.067000E+00	  0.064689375	-1.457780E+02	  0.064689375	1.818200E+01	  0.064689375	-1.351300E+01
225	  0.064889781	-6.071000E+00	  0.064889781	-1.467950E+02	  0.064889781	1.810900E+01	  0.064889781	-1.309300E+01
226	  0.065090179	-6.073000E+00	  0.065090179	-1.477920E+02	  0.065090179	1.803100E+01	  0.065090179	-1.268600E+01
227	  0.065290578	-6.075000E+00	  0.065290578	-1.488130E+02	  0.065290578	1.795900E+01	  0.065290578	-1.226900E+01
228	  0.065490983	-6.078000E+00	  0.065490983	-1.498100E+02	  0.065490983	1.789000E+01	  0.065490983	-1.186300E+01
229	  0.065691382	-6.079000E+00	  0.065691382	-1.507850E+02	  0.065691382	1.782300E+01	  0.065691382	-1.146800E+01
230	  0.065891780	-6.079000E+00	  0.065891780	-1.517680E+02	  0.065891780	1.775500E+01	  0.065891780	-1.107100E+01
231	  0.066092186	-6.084000E+00	  0.066092186	-1.527160E+02	  0.066092186	1.770100E+01	  0.066092186	-1.068800E+01
232	  0.066292584	-6.085000E+00	  0.066292584	-1.536730E+02	  0.066292584	1.764400E+01	  0.066292584	-1.030400E+01
233	  0.066492982	-6.086000E+00	  0.066492982	-1.546340E+02	  0.066492982	1.758600E+01	  0.066492982	-9.919000E+00
234	  0.066693388	-6.083000E+00	  0.066693388	-1.555960E+02	  0.066693388	1.752000E+01	  0.066693388	-9.536000E+00
235	  0.066893786	-6.082000E+00	  0.066893786	-1.565250E+02	  0.066893786	1.746600E+01	  0.066893786	-9.167000E+00
236	  0.067094192	-6.075000E+00	  0.067094192	-1.574720E+02	  0.067094192	1.739600E+01	  0.067094192	-8.793000E+00
237	  0.067294590	-6.073000E+00	  0.067294590	-1.584310E+02	  0.067294590	1.734100E+01	  0.067294590	-8.413000E+00
238	  0.067494988	-6.070000E+00	  0.067494988	-1.593890E+02	  0.067494988	1.728400E+01	  0.067494988	-8.035000E+00
239	  0.067695394	-6.069000E+00	  0.067695394	-1.603390E+02	  0.067695394	1.723600E+01	  0.067695394	-7.660000E+00
240	  0.067895792	-6.063000E+00	  0.067895792	-1.612720E+02	  0.067895792	1.717900E+01	  0.067895792	-7.294000E+00
241	  0.068096191	-6.056000E+00	  0.068096191	-1.622140E+02	  0.068096191	1.712200E+01	  0.068096191	-6.925000E+00
242	  0.068296596	-6.049000E+00	  0.068296596	-1.631950E+02	  0.068296596	1.706300E+01	  0.068296596	-6.541000E+00
243	  0.068496995	-6.040000E+00	  0.068496995	-1.641130E+02	  0.068496995	1.700500E+01	  0.068496995	-6.183000E+00
244	  0.068697393	-6.036000E+00	  0.068697393	-1.650390E+02	  0.068697393	1.696300E+01	  0.068697393	-5.820000E+00
245	  0.068897791	-6.025000E+00	  0.068897791	-1.660090E+02	  0.068897791	1.690200E+01	  0.068897791	-5.442000E+00
246	  0.069098189	-6.016000E+00	  0.069098189	-1.669250E+02	  0.069098189	1.685000E+01	  0.069098189	-5.086000E+00
247	  0.069298595	-6.004000E+00	  0.069298595	-1.678900E+02	  0.069298595	1.679100E+01	  0.069298595	-4.711000E+00
248	  0.069498993	-5.995000E+00	  0.069498993	-1.688230E+02	  0.069498993	1.674300E+01	  0.069498993	-4.348000E+00
249	  0.069699399	-5.989000E+00	  0.069699399	-1.697820E+02	  0.069699399	1.670500E+01	  0.069699399	-3.974000E+00
250	  0.069899797	-5.984000E+00	  0.069899797	-1.707450E+02	  0.069899797	1.667000E+01	  0.069899797	-3.599000E+00
251	  0.070100196	-5.967000E+00	  0.070100196	-1.717000E+02	  0.070100196	1.660800E+01	  0.070100196	-3.229000E+00
252	  0.070300601	-5.955000E+00	  0.070300601	-1.726700E+02	  0.070300601	1.655900E+01	  0.070300601	-2.852000E+00
253	  0.070501000	-5.942000E+00	  0.070501000	-1.735970E+02	  0.070501000	1.651100E+01	  0.070501000	-2.492000E+00
254	  0.070701398	-5.920000E+00	  0.070701398	-1.746010E+02	  0.070701398	1.644200E+01	  0.070701398	-2.103000E+00
255	  0.070901804	-5.903000E+00	  0.070901804	-1.755590E+02	  0.070901804	1.638800E+01	  0.070901804	-1.730000E+00
256	  0.071102202	-5.889000E+00	  0.071102202	-1.765340E+02	  0.071102202	1.634300E+01	  0.071102202	-1.351000E+00
257	  0.071302600	-5.867000E+00	  0.071302600	-1.775630E+02	  0.071302600	1.628100E+01	  0.071302600	-9.500000E-01
258	  0.071503006	-5.852000E+00	  0.071503006	-1.786150E+02	  0.071503006	1.623600E+01	  0.071503006	-5.400000E-01
259	  0.071703404	-5.844000E+00	  0.071703404	-1.796060E+02	  0.071703404	1.621500E+01	  0.071703404	-1.530000E-01
260	  0.071903802	-5.839000E+00	  0.071903802	1.794190E+02	  0.071903802	1.620300E+01	  0.071903802	2.260000E-01
261	  0.072104208	-5.835000E+00	  0.072104208	1.784480E+02	  0.072104208	1.619400E+01	  0.072104208	6.050000E-01
262	  0.072304606	-5.823000E+00	  0.072304606	1.774710E+02	  0.072304606	1.616800E+01	  0.072304606	9.880000E-01
263	  0.072505005	-5.818000E+00	  0.072505005	1.765170E+02	  0.072505005	1.616000E+01	  0.072505005	1.361000E+00
264	  0.072705410	-5.810000E+00	  0.072705410	1.755780E+02	  0.072705410	1.614800E+01	  0.072705410	1.728000E+00
265	  0.072905809	-5.803000E+00	  0.072905809	1.745960E+02	  0.072905809	1.614200E+01	  0.072905809	2.113000E+00
266	  0.073106214	-5.798000E+00	  0.073106214	1.736120E+02	  0.073106214	1.613900E+01	  0.073106214	2.500000E+00
267	  0.073306613	-5.799000E+00	  0.073306613	1.726330E+02	  0.073306613	1.615800E+01	  0.073306613	2.883000E+00
268	  0.073507011	-5.802000E+00	  0.073507011	1.716460E+02	  0.073507011	1.618300E+01	  0.073507011	3.270000E+00
269	  0.073707417	-5.800000E+00	  0.073707417	1.706610E+02	  0.073707417	1.619700E+01	  0.073707417	3.657000E+00
270	  0.073907815	-5.800000E+00	  0.073907815	1.696850E+02	  0.073907815	1.621900E+01	  0.073907815	4.041000E+00
271	  0.074108213	-5.801000E+00	  0.074108213	1.687200E+02	  0.074108213	1.624400E+01	  0.074108213	4.420000E+00
272	  0.074308619	-5.806000E+00	  0.074308619	1.677240E+02	  0.074308619	1.628200E+01	  0.074308619	4.812000E+00
273	  0.074509017	-5.810000E+00	  0.074509017	1.667210E+02	  0.074509017	1.632200E+01	  0.074509017	5.206000E+00
274	  0.074709415	-5.820000E+00	  0.074709415	1.657370E+02	  0.074709415	1.637900E+01	  0.074709415	5.593000E+00
275	  0.074909821	-5.832000E+00	  0.074909821	1.647300E+02	  0.074909821	1.644300E+01	  0.074909821	5.988000E+00
276	  0.075110219	-5.846000E+00	  0.075110219	1.637780E+02	  0.075110219	1.651300E+01	  0.075110219	6.362000E+00
277	  0.075310618	-5.862000E+00	  0.075310618	1.627520E+02	  0.075310618	1.659300E+01	  0.075310618	6.764000E+00
278	  0.075511023	-5.878000E+00	  0.075511023	1.618480E+02	  0.075511023	1.667300E+01	  0.075511023	7.118000E+00
279	  0.075711422	-5.895000E+00	  0.075711422	1.609100E+02	  0.075711422	1.675700E+01	  0.075711422	7.486000E+00
280	  0.075911827	-5.914000E+00	  0.075911827	1.599510E+02	  0.075911827	1.685100E+01	  0.075911827	7.861000E+00
281	  0.076112226	-5.930000E+00	  0.076112226	1.590140E+02	  0.076112226	1.693600E+01	  0.076112226	8.229000E+00
282	  0.076312624	-5.949000E+00	  0.076312624	1.580850E+02	  0.076312624	1.703300E+01	  0.076312624	8.593000E+00
283	  0.076513030	-5.970000E+00	  0.076513030	1.572050E+02	  0.076513030	1.713400E+01	  0.076513030	8.936000E+00
284	  0.076713428	-5.989000E+00	  0.076713428	1.562940E+02	  0.076713428	1.723400E+01	  0.076713428	9.293000E+00
285	  0.076913826	-5.998000E+00	  0.076913826	1.553910E+02	  0.076913826	1.731000E+01	  0.076913826	9.651000E+00
286	  0.077114232	-6.013000E+00	  0.077114232	1.545010E+02	  0.077114232	1.740100E+01	  0.077114232	1.000100E+01
287	  0.077314630	-6.026000E+00	  0.077314630	1.536320E+02	  0.077314630	1.748900E+01	  0.077314630	1.034500E+01
288	  0.077515028	-6.037000E+00	  0.077515028	1.527960E+02	  0.077515028	1.757200E+01	  0.077515028	1.067700E+01
289	  0.077715434	-6.046000E+00	  0.077715434	1.519300E+02	  0.077715434	1.765500E+01	  0.077715434	1.102100E+01
290	  0.077915832	-6.063000E+00	  0.077915832	1.511210E+02	  0.077915832	1.775600E+01	  0.077915832	1.134000E+01
291	  0.078116231	-6.074000E+00	  0.078116231	1.502990E+02	  0.078116231	1.784400E+01	  0.078116231	1.166700E+01
292	  0.078316636	-6.088000E+00	  0.078316636	1.494790E+02	  0.078316636	1.794100E+01	  0.078316636	1.199200E+01
293	  0.078517035	-6.096000E+00	  0.078517035	1.486970E+02	  0.078517035	1.802300E+01	  0.078517035	1.230500E+01
294	  0.078717433	-6.102000E+00	  0.078717433	1.478760E+02	  0.078717433	1.810400E+01	  0.078717433	1.263600E+01
295	  0.078917839	-6.115000E+00	  0.078917839	1.470620E+02	  0.078917839	1.820400E+01	  0.078917839	1.296000E+01
296	  0.079118237	-6.119000E+00	  0.079118237	1.462730E+02	  0.079118237	1.828100E+01	  0.079118237	1.328000E+01
297	  0.079318643	-6.126000E+00	  0.079318643	1.454480E+02	  0.079318643	1.837100E+01	  0.079318643	1.361400E+01
298	  0.079519041	-6.136000E+00	  0.079519041	1.446610E+02	  0.079519041	1.846800E+01	  0.079519041	1.393100E+01
299	  0.079719439	-6.144000E+00	  0.079719439	1.437890E+02	  0.079719439	1.856800E+01	  0.079719439	1.428500E+01
300	  0.079919845	-6.147000E+00	  0.079919845	1.429450E+02	  0.079919845	1.865600E+01	  0.079919845	1.463100E+01
301	  0.080120243	-6.160000E+00	  0.080120243	1.420850E+02	  0.080120243	1.877500E+01	  0.080120243	1.497800E+01
302	  0.080320641	-6.170000E+00	  0.080320641	1.412330E+02	  0.080320641	1.888700E+01	  0.080320641	1.532500E+01
303	  0.080521047	-6.179000E+00	  0.080521047	1.403490E+02	  0.080521047	1.900300E+01	  0.080521047	1.568600E+01
304	  0.080721445	-6.195000E+00	  0.080721445	1.395340E+02	  0.080721445	1.913200E+01	  0.080721445	1.601500E+01
305	  0.080921844	-6.210000E+00	  0.080921844	1.386410E+02	  0.080921844	1.927000E+01	  0.080921844	1.637700E+01
306	  0.081122249	-6.227000E+00	  0.081122249	1.377980E+02	  0.081122249	1.941200E+01	  0.081122249	1.671800E+01
307	  0.081322648	-6.243000E+00	  0.081322648	1.369590E+02	  0.081322648	1.955300E+01	  0.081322648	1.705800E+01
308	  0.081523046	-6.266000E+00	  0.081523046	1.360840E+02	  0.081523046	1.971800E+01	  0.081523046	1.740800E+01
309	  0.081723452	-6.285000E+00	  0.081723452	1.352280E+02	  0.081723452	1.987600E+01	  0.081723452	1.775400E+01
310	  0.081923850	-6.306000E+00	  0.081923850	1.344000E+02	  0.081923850	2.003700E+01	  0.081923850	1.808700E+01
311	  0.082124248	-6.328000E+00	  0.082124248	1.335520E+02	  0.082124248	2.021000E+01	  0.082124248	1.842700E+01
312	  0.082324654	-6.357000E+00	  0.082324654	1.327380E+02	  0.082324654	2.039700E+01	  0.082324654	1.874800E+01
313	  0.082525052	-6.384000E+00	  0.082525052	1.319560E+02	  0.082525052	2.057900E+01	  0.082525052	1.905600E+01
314	  0.082725458	-6.411000E+00	  0.082725458	1.311810E+02	  0.082725458	2.076300E+01	  0.082725458	1.936200E+01
315	  0.082925856	-6.443000E+00	  0.082925856	1.303890E+02	  0.082925856	2.096400E+01	  0.082925856	1.967100E+01
316	  0.083126254	-6.472000E+00	  0.083126254	1.295980E+02	  0.083126254	2.116300E+01	  0.083126254	1.998000E+01
317	  0.083326660	-6.500000E+00	  0.083326660	1.288040E+02	  0.083326660	2.136100E+01	  0.083326660	2.029300E+01
318	  0.083527058	-6.528000E+00	  0.083527058	1.280350E+02	  0.083527058	2.155600E+01	  0.083527058	2.059500E+01
319	  0.083727457	-6.551000E+00	  0.083727457	1.272760E+02	  0.083727457	2.174100E+01	  0.083727457	2.089700E+01
320	  0.083927862	-6.578000E+00	  0.083927862	1.265160E+02	  0.083927862	2.193900E+01	  0.083927862	2.119600E+01
321	  0.084128261	-6.598000E+00	  0.084128261	1.257560E+02	  0.084128261	2.212200E+01	  0.084128261	2.150100E+01
322	  0.084328659	-6.621000E+00	  0.084328659	1.250360E+02	  0.084328659	2.230600E+01	  0.084328659	2.178800E+01
323	  0.084529065	-6.641000E+00	  0.084529065	1.243470E+02	  0.084529065	2.248300E+01	  0.084529065	2.206200E+01
324	  0.084729463	-6.663000E+00	  0.084729463	1.236260E+02	  0.084729463	2.267100E+01	  0.084729463	2.235000E+01
325	  0.084929861	-6.685000E+00	  0.084929861	1.228790E+02	  0.084929861	2.286700E+01	  0.084929861	2.264900E+01
326	  0.085130267	-6.708000E+00	  0.085130267	1.221660E+02	  0.085130267	2.306500E+01	  0.085130267	2.293100E+01
327	  0.085330658	-6.735000E+00	  0.085330658	1.214470E+02	  0.085330658	2.327600E+01	  0.085330658	2.321100E+01
328	  0.085531056	-6.756000E+00	  0.085531056	1.207510E+02	  0.085531056	2.347100E+01	  0.085531056	2.348700E+01
329	  0.085731462	-6.785000E+00	  0.085731462	1.200180E+02	  0.085731462	2.369600E+01	  0.085731462	2.377000E+01
330	  0.085931860	-6.810000E+00	  0.085931860	1.193140E+02	  0.085931860	2.390800E+01	  0.085931860	2.404500E+01
331	  0.086132258	-6.841000E+00	  0.086132258	1.186390E+02	  0.086132258	2.413300E+01	  0.086132258	2.430000E+01
332	  0.086332664	-6.867000E+00	  0.086332664	1.179700E+02	  0.086332664	2.434800E+01	  0.086332664	2.455700E+01
333	  0.086533062	-6.901000E+00	  0.086533062	1.172940E+02	  0.086533062	2.458900E+01	  0.086533062	2.480500E+01
334	  0.086733460	-6.933000E+00	  0.086733460	1.166040E+02	  0.086733460	2.482900E+01	  0.086733460	2.506300E+01
335	  0.086933866	-6.960000E+00	  0.086933866	1.159260E+02	  0.086933866	2.505600E+01	  0.086933866	2.532100E+01
336	  0.087134264	-6.990000E+00	  0.087134264	1.152770E+02	  0.087134264	2.528800E+01	  0.087134264	2.556200E+01
337	  0.087334670	-7.014000E+00	  0.087334670	1.146300E+02	  0.087334670	2.550300E+01	  0.087334670	2.581000E+01
338	  0.087535068	-7.041000E+00	  0.087535068	1.139820E+02	  0.087535068	2.573400E+01	  0.087535068	2.605200E+01
339	  0.087735467	-7.065000E+00	  0.087735467	1.133590E+02	  0.087735467	2.595100E+01	  0.087735467	2.628800E+01
340	  0.087935872	-7.085000E+00	  0.087935872	1.127260E+02	  0.087935872	2.616100E+01	  0.087935872	2.653500E+01
341	  0.088136271	-7.109000E+00	  0.088136271	1.120890E+02	  0.088136271	2.638400E+01	  0.088136271	2.677700E+01
342	  0.088336669	-7.122000E+00	  0.088336669	1.114440E+02	  0.088336669	2.658200E+01	  0.088336669	2.704100E+01
343	  0.088537075	-7.139000E+00	  0.088537075	1.107960E+02	  0.088537075	2.679700E+01	  0.088537075	2.729600E+01
344	  0.088737473	-7.153000E+00	  0.088737473	1.101580E+02	  0.088737473	2.700200E+01	  0.088737473	2.755400E+01
345	  0.088937871	-7.168000E+00	  0.088937871	1.094990E+02	  0.088937871	2.721700E+01	  0.088937871	2.782100E+01
346	  0.089138277	-7.183000E+00	  0.089138277	1.088330E+02	  0.089138277	2.743800E+01	  0.089138277	2.808900E+01
347	  0.089338675	-7.202000E+00	  0.089338675	1.081760E+02	  0.089338675	2.767300E+01	  0.089338675	2.834600E+01
348	  0.089539073	-7.224000E+00	  0.089539073	1.075190E+02	  0.089539073	2.791900E+01	  0.089539073	2.859600E+01
349	  0.089739479	-7.247000E+00	  0.089739479	1.068140E+02	  0.089739479	2.818400E+01	  0.089739479	2.886600E+01
350	  0.089939877	-7.266000E+00	  0.089939877	1.061680E+02	  0.089939877	2.842400E+01	  0.089939877	2.911700E+01
351	  0.090140276	-7.286000E+00	  0.090140276	1.054360E+02	  0.090140276	2.869800E+01	  0.090140276	2.940200E+01
352	  0.090340681	-7.311000E+00	  0.090340681	1.047590E+02	  0.090340681	2.897200E+01	  0.090340681	2.965300E+01
353	  0.090541080	-7.334000E+00	  0.090541080	1.040620E+02	  0.090541080	2.925000E+01	  0.090541080	2.991700E+01
354	  0.090741485	-7.360000E+00	  0.090741485	1.033840E+02	  0.090741485	2.953400E+01	  0.090741485	3.016500E+01
355	  0.090941884	-7.385000E+00	  0.090941884	1.026810E+02	  0.090941884	2.982700E+01	  0.090941884	3.042400E+01
356	  0.091142282	-7.409000E+00	  0.091142282	1.020500E+02	  0.091142282	3.010100E+01	  0.091142282	3.065200E+01
357	  0.091342688	-7.442000E+00	  0.091342688	1.013460E+02	  0.091342688	3.042500E+01	  0.091342688	3.089200E+01
358	  0.091543086	-7.465000E+00	  0.091543086	1.007270E+02	  0.091543086	3.069500E+01	  0.091543086	3.111600E+01
359	  0.091743484	-7.497000E+00	  0.091743484	1.000660E+02	  0.091743484	3.101200E+01	  0.091743484	3.133600E+01
360	  0.091943890	-7.525000E+00	  0.091943890	9.944100E+01	  0.091943890	3.130600E+01	  0.091943890	3.154700E+01
361	  0.092144288	-7.554000E+00	  0.092144288	9.882900E+01	  0.092144288	3.160200E+01	  0.092144288	3.175000E+01
362	  0.092344686	-7.587000E+00	  0.092344686	9.822400E+01	  0.092344686	3.191200E+01	  0.092344686	3.193600E+01
363	  0.092545092	-7.618000E+00	  0.092545092	9.762300E+01	  0.092545092	3.221600E+01	  0.092545092	3.212500E+01
364	  0.092745490	-7.658000E+00	  0.092745490	9.705800E+01	  0.092745490	3.253700E+01	  0.092745490	3.227400E+01
365	  0.092945889	-7.686000E+00	  0.092945889	9.649000E+01	  0.092945889	3.282800E+01	  0.092945889	3.245100E+01
366	  0.093146294	-7.729000E+00	  0.093146294	9.592000E+01	  0.093146294	3.316100E+01	  0.093146294	3.259300E+01
367	  0.093346693	-7.764000E+00	  0.093346693	9.535300E+01	  0.093346693	3.347700E+01	  0.093346693	3.274700E+01
368	  0.093547091	-7.803000E+00	  0.093547091	9.478000E+01	  0.093547091	3.380700E+01	  0.093547091	3.289300E+01
369	  0.093747497	-7.833000E+00	  0.093747497	9.423200E+01	  0.093747497	3.410500E+01	  0.093747497	3.304800E+01
370	  0.093947895	-7.875000E+00	  0.093947895	9.364300E+01	  0.093947895	3.445600E+01	  0.093947895	3.318700E+01
371	  0.094148301	-7.909000E+00	  0.094148301	9.305300E+01	  0.094148301	3.478800E+01	  0.094148301	3.334500E+01
372	  0.094348699	-7.949000E+00	  0.094348699	9.250100E+01	  0.094348699	3.512200E+01	  0.094348699	3.346800E+01
373	  0.094549097	-7.983000E+00	  0.094549097	9.196400E+01	  0.094549097	3.543900E+01	  0.094549097	3.359700E+01
374	  0.094749503	-8.023000E+00	  0.094749503	9.141800E+01	  0.094749503	3.577500E+01	  0.094749503	3.371400E+01
375	  0.094949901	-8.056000E+00	  0.094949901	9.087400E+01	  0.094949901	3.609600E+01	  0.094949901	3.384300E+01
376	  0.095150299	-8.088000E+00	  0.095150299	9.034900E+01	  0.095150299	3.640500E+01	  0.095150299	3.396900E+01
377	  0.095350705	-8.123000E+00	  0.095350705	8.979800E+01	  0.095350705	3.673900E+01	  0.095350705	3.409100E+01
378	  0.095551103	-8.156000E+00	  0.095551103	8.927400E+01	  0.095551103	3.705600E+01	  0.095551103	3.420600E+01
379	  0.095751502	-8.192000E+00	  0.095751502	8.876000E+01	  0.095751502	3.738100E+01	  0.095751502	3.430400E+01
380	  0.095951907	-8.226000E+00	  0.095951907	8.826700E+01	  0.095951907	3.769100E+01	  0.095951907	3.440000E+01
381	  0.096152306	-8.261000E+00	  0.096152306	8.777600E+01	  0.096152306	3.800600E+01	  0.096152306	3.448700E+01
382	  0.096352704	-8.293000E+00	  0.096352704	8.726800E+01	  0.096352704	3.832100E+01	  0.096352704	3.459000E+01
383	  0.096553110	-8.329000E+00	  0.096553110	8.679000E+01	  0.096553110	3.863500E+01	  0.096553110	3.466500E+01
384	  0.096753508	-8.358000E+00	  0.096753508	8.634200E+01	  0.096753508	3.891900E+01	  0.096753508	3.474700E+01
385	  0.096953906	-8.391000E+00	  0.096953906	8.583300E+01	  0.096953906	3.924500E+01	  0.096953906	3.483500E+01
386	  0.097154312	-8.426000E+00	  0.097154312	8.537000E+01	  0.097154312	3.955400E+01	  0.097154312	3.490000E+01
387	  0.097354710	-8.454000E+00	  0.097354710	8.490000E+01	  0.097354710	3.985000E+01	  0.097354710	3.498700E+01
388	  0.097555116	-8.489000E+00	  0.097555116	8.441600E+01	  0.097555116	4.017300E+01	  0.097555116	3.505400E+01
389	  0.097755514	-8.514000E+00	  0.097755514	8.395500E+01	  0.097755514	4.046200E+01	  0.097755514	3.514100E+01
390	  0.097955912	-8.552000E+00	  0.097955912	8.355300E+01	  0.097955912	4.075300E+01	  0.097955912	3.516200E+01
391	  0.098156318	-8.572000E+00	  0.098156318	8.309700E+01	  0.098156318	4.102900E+01	  0.098156318	3.526100E+01
392	  0.098356716	-8.601000E+00	  0.098356716	8.269500E+01	  0.098356716	4.130200E+01	  0.098356716	3.530700E+01
393	  0.098557115	-8.627000E+00	  0.098557115	8.230900E+01	  0.098557115	4.155900E+01	  0.098557115	3.535900E+01
394	  0.098757520	-8.652000E+00	  0.098757520	8.187000E+01	  0.098757520	4.184400E+01	  0.098757520	3.542700E+01
395	  0.098957919	-8.676000E+00	  0.098957919	8.147900E+01	  0.098957919	4.210300E+01	  0.098957919	3.548100E+01
396	  0.099158317	-8.700000E+00	  0.099158317	8.107500E+01	  0.099158317	4.236800E+01	  0.099158317	3.553700E+01
397	  0.099358723	-8.725000E+00	  0.099358723	8.068200E+01	  0.099358723	4.263300E+01	  0.099358723	3.558400E+01
398	  0.099559121	-8.748000E+00	  0.099559121	8.032200E+01	  0.099559121	4.287600E+01	  0.099559121	3.562400E+01
399	  0.099759519	-8.773000E+00	  0.099759519	7.998800E+01	  0.099759519	4.311000E+01	  0.099759519	3.564800E+01
400	  0.099959925	-8.803000E+00	  0.099959925	7.964500E+01	  0.099959925	4.335800E+01	  0.099959925	3.565800E+01
401	  0.100160323	-8.820000E+00	  0.100160323	7.926500E+01	  0.100160323	4.360300E+01	  0.100160323	3.572000E+01
402	  0.100360721	-8.842000E+00	  0.100360721	7.894500E+01	  0.100360721	4.382300E+01	  0.100360721	3.574600E+01
403	  0.100561127	-8.866000E+00	  0.100561127	7.855300E+01	  0.100561127	4.409100E+01	  0.100561127	3.578400E+01
404	  0.100761525	-8.889000E+00	  0.100761525	7.817200E+01	  0.100761525	4.434800E+01	  0.100761525	3.582400E+01
405	  0.100961931	-8.903000E+00	  0.100961931	7.776400E+01	  0.100961931	4.460500E+01	  0.100961931	3.590000E+01
406	  0.101162329	-8.932000E+00	  0.101162329	7.744200E+01	  0.101162329	4.484600E+01	  0.101162329	3.589400E+01
407	  0.101362728	-8.947000E+00	  0.101362728	7.708100E+01	  0.101362728	4.508000E+01	  0.101362728	3.594800E+01
408	  0.101563133	-8.969000E+00	  0.101563133	7.672800E+01	  0.101563133	4.532300E+01	  0.101563133	3.597600E+01
409	  0.101763532	-8.978000E+00	  0.101763532	7.636000E+01	  0.101763532	4.555100E+01	  0.101763532	3.605300E+01
410	  0.101963930	-8.992000E+00	  0.101963930	7.600000E+01	  0.101963930	4.578800E+01	  0.101963930	3.610500E+01
411	  0.102164336	-9.003000E+00	  0.102164336	7.563000E+01	  0.102164336	4.602300E+01	  0.102164336	3.617400E+01
412	  0.102364734	-9.019000E+00	  0.102364734	7.528200E+01	  0.102364734	4.625700E+01	  0.102364734	3.621400E+01
413	  0.102565132	-9.028000E+00	  0.102565132	7.488200E+01	  0.102565132	4.650900E+01	  0.102565132	3.629700E+01
414	  0.102765530	-9.037000E+00	  0.102765530	7.451200E+01	  0.102765530	4.674400E+01	  0.102765530	3.637000E+01
415	  0.102965929	-9.031000E+00	  0.102965929	7.418400E+01	  0.102965929	4.692900E+01	  0.102965929	3.648400E+01
416	  0.103166327	-9.050000E+00	  0.103166327	7.381900E+01	  0.103166327	4.718300E+01	  0.103166327	3.651200E+01
417	  0.103366733	-9.043000E+00	  0.103366733	7.344700E+01	  0.103366733	4.739500E+01	  0.103366733	3.664300E+01
418	  0.103567131	-9.049000E+00	  0.103567131	7.307300E+01	  0.103567131	4.763200E+01	  0.103567131	3.672500E+01
419	  0.103767529	-9.054000E+00	  0.103767529	7.268700E+01	  0.103767529	4.787900E+01	  0.103767529	3.681000E+01
420	  0.103967935	-9.060000E+00	  0.103967935	7.233100E+01	  0.103967935	4.810900E+01	  0.103967935	3.688100E+01
421	  0.104168333	-9.050000E+00	  0.104168333	7.190300E+01	  0.104168333	4.835800E+01	  0.104168333	3.703900E+01
422	  0.104368731	-9.048000E+00	  0.104368731	7.156000E+01	  0.104368731	4.857000E+01	  0.104368731	3.713600E+01
423	  0.104569137	-9.050000E+00	  0.104569137	7.117600E+01	  0.104569137	4.881600E+01	  0.104569137	3.722900E+01
424	  0.104769535	-9.045000E+00	  0.104769535	7.081100E+01	  0.104769535	4.904000E+01	  0.104769535	3.734500E+01
425	  0.104969934	-9.045000E+00	  0.104969934	7.048000E+01	  0.104969934	4.925100E+01	  0.104969934	3.743300E+01
426	  0.105170339	-9.032000E+00	  0.105170339	7.006600E+01	  0.105170339	4.949600E+01	  0.105170339	3.759600E+01
427	  0.105370738	-9.021000E+00	  0.105370738	6.963700E+01	  0.105370738	4.975800E+01	  0.105370738	3.775100E+01
428	  0.105571143	-9.006000E+00	  0.105571143	6.928900E+01	  0.105571143	4.996300E+01	  0.105571143	3.790400E+01
429	  0.105771542	-8.997000E+00	  0.105771542	6.889600E+01	  0.105771542	5.021000E+01	  0.105771542	3.804000E+01
430	  0.105971940	-8.983000E+00	  0.105971940	6.850600E+01	  0.105971940	5.044800E+01	  0.105971940	3.819900E+01
431	  0.106172346	-8.966000E+00	  0.106172346	6.810800E+01	  0.106172346	5.068900E+01	  0.106172346	3.837300E+01
432	  0.106372744	-8.959000E+00	  0.106372744	6.764100E+01	  0.106372744	5.099700E+01	  0.106372744	3.851800E+01
433	  0.106573142	-8.936000E+00	  0.106573142	6.724600E+01	  0.106573142	5.123200E+01	  0.106573142	3.871700E+01
434	  0.106773548	-8.923000E+00	  0.106773548	6.683300E+01	  0.106773548	5.149800E+01	  0.106773548	3.887600E+01
435	  0.106973946	-8.911000E+00	  0.106973946	6.641400E+01	  0.106973946	5.177400E+01	  0.106973946	3.903200E+01
436	  0.107174344	-8.893000E+00	  0.107174344	6.594400E+01	  0.107174344	5.207900E+01	  0.107174344	3.922500E+01
437	  0.107374750	-8.882000E+00	  0.107374750	6.550000E+01	  0.107374750	5.238200E+01	  0.107374750	3.937600E+01
438	  0.107575148	-8.867000E+00	  0.107575148	6.498800E+01	  0.107575148	5.272900E+01	  0.107575148	3.956700E+01
439	  0.107775547	-8.848000E+00	  0.107775547	6.455100E+01	  0.107775547	5.302200E+01	  0.107775547	3.975400E+01
440	  0.107975952	-8.830000E+00	  0.107975952	6.402500E+01	  0.107975952	5.338400E+01	  0.107975952	3.996100E+01
441	  0.108176351	-8.818000E+00	  0.108176351	6.358700E+01	  0.108176351	5.369600E+01	  0.108176351	4.011200E+01
442	  0.108376749	-8.800000E+00	  0.108376749	6.312400E+01	  0.108376749	5.402000E+01	  0.108376749	4.030200E+01
443	  0.108577155	-8.782000E+00	  0.108577155	6.252300E+01	  0.108577155	5.445500E+01	  0.108577155	4.051800E+01
444	  0.108777553	-8.779000E+00	  0.108777553	6.200700E+01	  0.108777553	5.485100E+01	  0.108777553	4.063500E+01
445	  0.108977959	-8.756000E+00	  0.108977959	6.142100E+01	  0.108977959	5.528000E+01	  0.108977959	4.086900E+01
446	  0.109178357	-8.740000E+00	  0.109178357	6.086800E+01	  0.109178357	5.569900E+01	  0.109178357	4.106000E+01
447	  0.109378755	-8.716000E+00	  0.109378755	6.028700E+01	  0.109378755	5.613600E+01	  0.109378755	4.129800E+01
448	  0.109579161	-8.708000E+00	  0.109579161	5.973000E+01	  0.109579161	5.658000E+01	  0.109579161	4.144000E+01
449	  0.109779559	-8.681000E+00	  0.109779559	5.910100E+01	  0.109779559	5.706700E+01	  0.109779559	4.169500E+01
450	  0.109979957	-8.676000E+00	  0.109979957	5.852200E+01	  0.109979957	5.754600E+01	  0.109979957	4.181800E+01
451	  0.110180363	-8.652000E+00	  0.110180363	5.782600E+01	  0.110180363	5.811000E+01	  0.110180363	4.206500E+01
452	  0.110380761	-8.633000E+00	  0.110380761	5.722000E+01	  0.110380761	5.861100E+01	  0.110380761	4.226800E+01
453	  0.110581160	-8.613000E+00	  0.110581160	5.655200E+01	  0.110581160	5.917500E+01	  0.110581160	4.247400E+01
454	  0.110781565	-8.603000E+00	  0.110781565	5.592800E+01	  0.110781565	5.971600E+01	  0.110781565	4.262200E+01
455	  0.110981964	-8.580000E+00	  0.110981964	5.527900E+01	  0.110981964	6.027800E+01	  0.110981964	4.283500E+01
456	  0.111182362	-8.564000E+00	  0.111182362	5.458600E+01	  0.111182362	6.089400E+01	  0.111182362	4.301200E+01
457	  0.111382768	-8.548000E+00	  0.111382768	5.390400E+01	  0.111382768	6.151100E+01	  0.111382768	4.318300E+01
458	  0.111583166	-8.536000E+00	  0.111583166	5.321100E+01	  0.111583166	6.215100E+01	  0.111583166	4.332500E+01
459	  0.111783572	-8.523000E+00	  0.111783572	5.249100E+01	  0.111783572	6.282500E+01	  0.111783572	4.346500E+01
460	  0.111983970	-8.507000E+00	  0.111983970	5.176100E+01	  0.111983970	6.351800E+01	  0.111983970	4.361800E+01
461	  0.112184368	-8.498000E+00	  0.112184368	5.102300E+01	  0.112184368	6.423300E+01	  0.112184368	4.371800E+01
462	  0.112384774	-8.479000E+00	  0.112384774	5.027500E+01	  0.112384774	6.496700E+01	  0.112384774	4.387200E+01
463	  0.112585172	-8.476000E+00	  0.112585172	4.954200E+01	  0.112585172	6.569900E+01	  0.112585172	4.391700E+01
464	  0.112785570	-8.466000E+00	  0.112785570	4.878500E+01	  0.112785570	6.646600E+01	  0.112785570	4.399300E+01
465	  0.112985976	-8.458000E+00	  0.112985976	4.799000E+01	  0.112985976	6.728300E+01	  0.112985976	4.404000E+01
466	  0.113186374	-8.453000E+00	  0.113186374	4.718700E+01	  0.113186374	6.812100E+01	  0.113186374	4.405600E+01
467	  0.113386773	-8.448000E+00	  0.113386773	4.645300E+01	  0.113386773	6.889500E+01	  0.113386773	4.406000E+01
468	  0.113587178	-8.446000E+00	  0.113587178	4.563600E+01	  0.113587178	6.976700E+01	  0.113587178	4.401900E+01
469	  0.113787577	-8.442000E+00	  0.113787577	4.485100E+01	  0.113787577	7.061500E+01	  0.113787577	4.398100E+01
470	  0.113987975	-8.446000E+00	  0.113987975	4.398300E+01	  0.113987975	7.155800E+01	  0.113987975	4.385400E+01
471	  0.114188381	-8.441000E+00	  0.114188381	4.314800E+01	  0.114188381	7.248300E+01	  0.114188381	4.378200E+01
472	  0.114388779	-8.448000E+00	  0.114388779	4.231500E+01	  0.114388779	7.340100E+01	  0.114388779	4.359400E+01
473	  0.114589177	-8.452000E+00	  0.114589177	4.143000E+01	  0.114589177	7.439000E+01	  0.114589177	4.340200E+01
474	  0.114789583	-8.461000E+00	  0.114789583	4.061100E+01	  0.114789583	7.530200E+01	  0.114789583	4.315600E+01
475	  0.114989981	-8.466000E+00	  0.114989981	3.970200E+01	  0.114989981	7.633100E+01	  0.114989981	4.290400E+01
476	  0.115190387	-8.479000E+00	  0.115190387	3.879100E+01	  0.115190387	7.735000E+01	  0.115190387	4.254800E+01
477	  0.115390785	-8.490000E+00	  0.115390785	3.790200E+01	  0.115390785	7.835200E+01	  0.115390785	4.219100E+01
478	  0.115591183	-8.499000E+00	  0.115591183	3.694400E+01	  0.115591183	7.944000E+01	  0.115591183	4.179700E+01
479	  0.115791589	-8.516000E+00	  0.115791589	3.601200E+01	  0.115791589	8.047900E+01	  0.115791589	4.131300E+01
480	  0.115991987	-8.528000E+00	  0.115991987	3.504700E+01	  0.115991987	8.156800E+01	  0.115991987	4.082500E+01
481	  0.116192386	-8.548000E+00	  0.116192386	3.411900E+01	  0.116192386	8.258500E+01	  0.116192386	4.024800E+01
482	  0.116392791	-8.565000E+00	  0.116392791	3.317200E+01	  0.116392791	8.362800E+01	  0.116392791	3.965400E+01
483	  0.116593190	-8.587000E+00	  0.116593190	3.210900E+01	  0.116593190	8.478000E+01	  0.116593190	3.892300E+01
484	  0.116793588	-8.610000E+00	  0.116793588	3.112900E+01	  0.116793588	8.581500E+01	  0.116793588	3.818100E+01
485	  0.116993994	-8.633000E+00	  0.116993994	3.012900E+01	  0.116993994	8.686300E+01	  0.116993994	3.739900E+01
486	  0.117194392	-8.657000E+00	  0.117194392	2.901400E+01	  0.117194392	8.801300E+01	  0.117194392	3.648000E+01
487	  0.117394790	-8.685000E+00	  0.117394790	2.799800E+01	  0.117394790	8.901700E+01	  0.117394790	3.556200E+01
488	  0.117595196	-8.716000E+00	  0.117595196	2.691200E+01	  0.117595196	9.005400E+01	  0.117595196	3.452600E+01
489	  0.117795594	-8.744000E+00	  0.117795594	2.585800E+01	  0.117795594	9.103900E+01	  0.117795594	3.349100E+01
490	  0.117995992	-8.781000E+00	  0.117995992	2.475000E+01	  0.117995992	9.199800E+01	  0.117995992	3.230300E+01
491	  0.118196398	-8.808000E+00	  0.118196398	2.363800E+01	  0.118196398	9.297900E+01	  0.118196398	3.114100E+01
492	  0.118396796	-8.854000E+00	  0.118396796	2.250700E+01	  0.118396796	9.382100E+01	  0.118396796	2.979300E+01
493	  0.118597202	-8.898000E+00	  0.118597202	2.133300E+01	  0.118597202	9.466600E+01	  0.118597202	2.838300E+01
494	  0.118797600	-8.945000E+00	  0.118797600	2.013500E+01	  0.118797600	9.545600E+01	  0.118797600	2.689500E+01
495	  0.118997999	-8.990000E+00	  0.118997999	1.891900E+01	  0.118997999	9.620700E+01	  0.118997999	2.536000E+01
496	  0.119198404	-9.046000E+00	  0.119198404	1.772700E+01	  0.119198404	9.679100E+01	  0.119198404	2.376100E+01
497	  0.119398803	-9.105000E+00	  0.119398803	1.649700E+01	  0.119398803	9.731600E+01	  0.119398803	2.208900E+01
498	  0.119599201	-9.168000E+00	  0.119599201	1.524100E+01	  0.119599201	9.774100E+01	  0.119599201	2.034600E+01
499	  0.119799607	-9.232000E+00	  0.119799607	1.398800E+01	  0.119799607	9.808000E+01	  0.119799607	1.859800E+01
500	  0.120000005	-9.307000E+00	  0.120000005	1.270100E+01	  0.120000005	9.827100E+01	  0.120000005	1.676400E+01
