! Anritsu VNA Master:             	Model: MS2036C/10/77
! SN:             	1601066
! /card0/usr/255.ew.sma.r50.1_1.txt
! Existing Calibration Information:
! TYPE:             	Current Settings	Active Cal Settings
! TIME:             	12/17/2017 05:55:14 PM	12/17/2017 05:44:58 PM
! INTERNAL TEMP:    	44.0 C	43.8 C
! # POINTS:         	501	501
! START FREQ:       	10.000 MHz	10.000 MHz
! STOP FREQ:        	107.903 125 MHz	107.903 125 MHz
! SOURCE POWER:     	High	High
! IFBW:             	100 Hz	100 Hz
! AVG FACTOR:       	  1 	  1 
! REF PLANE 1:      	0 mm	0 mm
! REF PLANE 2:      	0 mm	0 mm
! CAL TYPE:         	Full S11	Full S11
! CAL METHOD:       	SOLT	SOLT
! CAL LINE TYPE:    	Coax	Coax
! DUT PORT 1:       	K-Conn(F)	K-Conn(F)
! DUT PORT 2:       	K-Conn(F)	K-Conn(F)
! CAL STATUS:       	OK: Accuracy High	--
! PROP-V:       	0.700
! CABLE LOSS:       	0.000 dB/m
! REF IMPEDANCE:       	50.0
! Trace Specific Parameters:	TR1	TR2	TR3	TR4
! TRACE.#.Y (GRAPH TYPE)	LOG MAG	PHASE	REAL IMPEDANCE	IMAGINARY IMPEDANCE
! TRACE.#.X 	FREQ.GHZ	FREQ.GHZ	FREQ.GHZ	FREQ.GHZ
! S-PARAMETER	S11	S11	S22	S22
! SMOOTH/APERTURE %	0	0	0	0
! WINDOW	NSL	NSL	NSL	NSL
! GATING	OFF	OFF	OFF	OFF
! FGTD	OFF	OFF	OFF	OFF
Marker Information per Trace:	TR1	TR2	TR3	TR4
!MK1	--	--	--	--
!MK2	--	--	--	--
!MK3	--	--	--	--
!MK4	--	--	--	--
!MK5	--	--	--	--
!MK6	--	--	--	--
!MK7	--	--	--	--
!MK8	--	--	--	--
PNT	TR1.FREQ.GHZ	TR1.LOG MAG.dB	TR2.FREQ.GHZ	TR2.PHASE.deg	TR3.FREQ.GHZ	TR3.REAL IMPEDANCE.ohm	TR4.FREQ.GHZ	TR4.IMAGINARY IMPEDANCE.ohm
1	  0.010000000	-4.519200E+01	  0.010000000	6.896200E+01	  0.010000000	1.699000E+00	  0.010000000	3.369000E+00
2	  0.010195807	-4.521200E+01	  0.010195807	6.880800E+01	  0.010195807	1.776000E+00	  0.010195807	3.598000E+00
3	  0.010391613	-4.495100E+01	  0.010391613	6.817700E+01	  0.010391613	1.781000E+00	  0.010391613	3.664000E+00
4	  0.010587418	-4.503600E+01	  0.010587418	6.903500E+01	  0.010587418	1.763000E+00	  0.010587418	3.726000E+00
5	  0.010783225	-4.480600E+01	  0.010783225	6.921800E+01	  0.010783225	1.747000E+00	  0.010783225	3.792000E+00
6	  0.010979031	-4.498600E+01	  0.010979031	6.762100E+01	  0.010979031	1.744000E+00	  0.010979031	3.850000E+00
7	  0.011174837	-4.442200E+01	  0.011174837	6.881400E+01	  0.011174837	1.858000E+00	  0.011174837	4.089000E+00
8	  0.011370643	-4.472200E+01	  0.011370643	6.845800E+01	  0.011370643	1.881000E+00	  0.011370643	4.142000E+00
9	  0.011566450	-4.434500E+01	  0.011566450	7.031800E+01	  0.011566450	1.880000E+00	  0.011566450	4.193000E+00
10	  0.011762256	-4.432600E+01	  0.011762256	6.840100E+01	  0.011762256	1.895000E+00	  0.011762256	4.234000E+00
11	  0.011958062	-4.448100E+01	  0.011958062	7.082800E+01	  0.011958062	1.912000E+00	  0.011958062	4.280000E+00
12	  0.012153869	-4.413500E+01	  0.012153869	6.835400E+01	  0.012153869	2.038000E+00	  0.012153869	4.507000E+00
13	  0.012349674	-4.385200E+01	  0.012349674	6.603700E+01	  0.012349674	2.045000E+00	  0.012349674	4.549000E+00
14	  0.012545481	-4.398800E+01	  0.012545481	6.801700E+01	  0.012545481	2.053000E+00	  0.012545481	4.590000E+00
15	  0.012741288	-4.366200E+01	  0.012741288	6.823700E+01	  0.012741288	2.066000E+00	  0.012741288	4.631000E+00
16	  0.012937094	-4.399300E+01	  0.012937094	6.702700E+01	  0.012937094	2.072000E+00	  0.012937094	4.664000E+00
17	  0.013132900	-4.373000E+01	  0.013132900	6.859300E+01	  0.013132900	2.193000E+00	  0.013132900	4.884000E+00
18	  0.013328707	-4.349000E+01	  0.013328707	6.844600E+01	  0.013328707	2.171000E+00	  0.013328707	4.921000E+00
19	  0.013524513	-4.354700E+01	  0.013524513	6.814500E+01	  0.013524513	2.176000E+00	  0.013524513	4.962000E+00
20	  0.013720319	-4.356200E+01	  0.013720319	6.600500E+01	  0.013720319	2.180000E+00	  0.013720319	4.998000E+00
21	  0.013916126	-4.347500E+01	  0.013916126	6.705200E+01	  0.013916126	2.195000E+00	  0.013916126	5.036000E+00
22	  0.014111931	-4.349100E+01	  0.014111931	6.892400E+01	  0.014111931	2.317000E+00	  0.014111931	5.252000E+00
23	  0.014307737	-4.325300E+01	  0.014307737	6.624000E+01	  0.014307737	2.326000E+00	  0.014307737	5.289000E+00
24	  0.014503544	-4.324800E+01	  0.014503544	6.757500E+01	  0.014503544	2.329000E+00	  0.014503544	5.325000E+00
25	  0.014699350	-4.334600E+01	  0.014699350	6.677600E+01	  0.014699350	2.332000E+00	  0.014699350	5.363000E+00
26	  0.014895156	-4.303600E+01	  0.014895156	6.677200E+01	  0.014895156	2.333000E+00	  0.014895156	5.396000E+00
27	  0.015090963	-4.304300E+01	  0.015090963	6.733100E+01	  0.015090963	2.457000E+00	  0.015090963	5.613000E+00
28	  0.015286769	-4.292900E+01	  0.015286769	6.528300E+01	  0.015286769	2.456000E+00	  0.015286769	5.650000E+00
29	  0.015482575	-4.304600E+01	  0.015482575	6.624600E+01	  0.015482575	2.487000E+00	  0.015482575	5.663000E+00
30	  0.015678382	-4.293700E+01	  0.015678382	6.691200E+01	  0.015678382	2.482000E+00	  0.015678382	5.698000E+00
31	  0.015874187	-4.295000E+01	  0.015874187	6.562800E+01	  0.015874187	2.484000E+00	  0.015874187	5.734000E+00
32	  0.016069993	-4.288500E+01	  0.016069993	6.476600E+01	  0.016069993	2.601000E+00	  0.016069993	5.948000E+00
33	  0.016265800	-4.261700E+01	  0.016265800	6.432100E+01	  0.016265800	2.592000E+00	  0.016265800	5.988000E+00
34	  0.016461605	-4.276500E+01	  0.016461605	6.376800E+01	  0.016461605	2.584000E+00	  0.016461605	6.025000E+00
35	  0.016657412	-4.253300E+01	  0.016657412	6.370600E+01	  0.016657412	2.577000E+00	  0.016657412	6.067000E+00
36	  0.016853219	-4.247200E+01	  0.016853219	6.371200E+01	  0.016853219	2.557000E+00	  0.016853219	6.104000E+00
37	  0.017049024	-4.229500E+01	  0.017049024	6.364600E+01	  0.017049024	2.539000E+00	  0.017049024	6.141000E+00
38	  0.017244833	-4.229800E+01	  0.017244833	6.445700E+01	  0.017244833	2.631000E+00	  0.017244833	6.366000E+00
39	  0.017440638	-4.226800E+01	  0.017440638	6.278500E+01	  0.017440638	2.605000E+00	  0.017440638	6.403000E+00
40	  0.017636444	-4.225200E+01	  0.017636444	6.234200E+01	  0.017636444	2.571000E+00	  0.017636444	6.449000E+00
41	  0.017832249	-4.205400E+01	  0.017832249	6.241500E+01	  0.017832249	2.540000E+00	  0.017832249	6.487000E+00
42	  0.018028056	-4.210600E+01	  0.018028056	6.186700E+01	  0.018028056	2.504000E+00	  0.018028056	6.531000E+00
43	  0.018223861	-4.189300E+01	  0.018223861	6.226500E+01	  0.018223861	2.592000E+00	  0.018223861	6.757000E+00
44	  0.018419670	-4.164100E+01	  0.018419670	6.253500E+01	  0.018419670	2.551000E+00	  0.018419670	6.801000E+00
45	  0.018615475	-4.152100E+01	  0.018615475	6.225000E+01	  0.018615475	2.511000E+00	  0.018615475	6.848000E+00
46	  0.018811282	-4.164500E+01	  0.018811282	6.273200E+01	  0.018811282	2.485000E+00	  0.018811282	6.886000E+00
47	  0.019007087	-4.143000E+01	  0.019007087	6.212100E+01	  0.019007087	2.446000E+00	  0.019007087	6.921000E+00
48	  0.019202894	-4.147300E+01	  0.019202894	6.299500E+01	  0.019202894	2.535000E+00	  0.019202894	7.144000E+00
49	  0.019398699	-4.122300E+01	  0.019398699	6.253000E+01	  0.019398699	2.511000E+00	  0.019398699	7.182000E+00
50	  0.019594505	-4.141900E+01	  0.019594505	6.230100E+01	  0.019594505	2.490000E+00	  0.019594505	7.220000E+00
51	  0.019790314	-4.122100E+01	  0.019790314	6.208800E+01	  0.019790314	2.471000E+00	  0.019790314	7.257000E+00
52	  0.019986119	-4.106600E+01	  0.019986119	6.148600E+01	  0.019986119	2.455000E+00	  0.019986119	7.292000E+00
53	  0.020181926	-4.113800E+01	  0.020181926	6.235800E+01	  0.020181926	2.564000E+00	  0.020181926	7.508000E+00
54	  0.020377731	-4.121400E+01	  0.020377731	6.300600E+01	  0.020377731	2.551000E+00	  0.020377731	7.541000E+00
55	  0.020573538	-4.095100E+01	  0.020573538	6.247100E+01	  0.020573538	2.537000E+00	  0.020573538	7.575000E+00
56	  0.020769343	-4.096900E+01	  0.020769343	6.279500E+01	  0.020769343	2.519000E+00	  0.020769343	7.609000E+00
57	  0.020965151	-4.097400E+01	  0.020965151	6.244700E+01	  0.020965151	2.508000E+00	  0.020965151	7.641000E+00
58	  0.021160956	-4.080000E+01	  0.021160956	6.203900E+01	  0.021160956	2.620000E+00	  0.021160956	7.853000E+00
59	  0.021356763	-4.081300E+01	  0.021356763	6.149400E+01	  0.021356763	2.605000E+00	  0.021356763	7.887000E+00
60	  0.021552568	-4.055100E+01	  0.021552568	6.189900E+01	  0.021552568	2.595000E+00	  0.021552568	7.917000E+00
61	  0.021748375	-4.075800E+01	  0.021748375	6.082200E+01	  0.021748375	2.584000E+00	  0.021748375	7.948000E+00
62	  0.021944180	-4.076600E+01	  0.021944180	6.169900E+01	  0.021944180	2.568000E+00	  0.021944180	7.974000E+00
63	  0.022139989	-4.065200E+01	  0.022139989	6.043100E+01	  0.022139989	2.675000E+00	  0.022139989	8.188000E+00
64	  0.022335794	-4.076300E+01	  0.022335794	6.081400E+01	  0.022335794	2.665000E+00	  0.022335794	8.215000E+00
65	  0.022531601	-4.045500E+01	  0.022531601	6.070900E+01	  0.022531601	2.654000E+00	  0.022531601	8.245000E+00
66	  0.022727406	-4.055100E+01	  0.022727406	6.038700E+01	  0.022727406	2.645000E+00	  0.022727406	8.273000E+00
67	  0.022923212	-4.044100E+01	  0.022923212	6.101900E+01	  0.022923212	2.640000E+00	  0.022923212	8.302000E+00
68	  0.023119017	-4.042700E+01	  0.023119017	5.794800E+01	  0.023119017	2.627000E+00	  0.023119017	8.326000E+00
69	  0.023314826	-4.043300E+01	  0.023314826	5.880100E+01	  0.023314826	2.740000E+00	  0.023314826	8.539000E+00
70	  0.023510631	-4.046400E+01	  0.023510631	5.976700E+01	  0.023510631	2.730000E+00	  0.023510631	8.565000E+00
71	  0.023706438	-4.030700E+01	  0.023706438	5.883300E+01	  0.023706438	2.711000E+00	  0.023706438	8.591000E+00
72	  0.023902243	-4.016600E+01	  0.023902243	5.854900E+01	  0.023902243	2.699000E+00	  0.023902243	8.617000E+00
73	  0.024098050	-4.009700E+01	  0.024098050	5.874500E+01	  0.024098050	2.696000E+00	  0.024098050	8.637000E+00
74	  0.024293855	-3.998100E+01	  0.024293855	5.770800E+01	  0.024293855	2.811000E+00	  0.024293855	8.846000E+00
75	  0.024489662	-4.002900E+01	  0.024489662	5.773900E+01	  0.024489662	2.802000E+00	  0.024489662	8.869000E+00
76	  0.024685470	-3.971200E+01	  0.024685470	5.805600E+01	  0.024685470	2.796000E+00	  0.024685470	8.892000E+00
77	  0.024881275	-3.982200E+01	  0.024881275	5.750500E+01	  0.024881275	2.787000E+00	  0.024881275	8.914000E+00
78	  0.025077082	-3.974500E+01	  0.025077082	5.742600E+01	  0.025077082	2.776000E+00	  0.025077082	8.934000E+00
79	  0.025272887	-3.978600E+01	  0.025272887	5.779800E+01	  0.025272887	2.880000E+00	  0.025272887	9.139000E+00
80	  0.025468694	-3.965000E+01	  0.025468694	5.749100E+01	  0.025468694	2.872000E+00	  0.025468694	9.162000E+00
81	  0.025664499	-3.955700E+01	  0.025664499	5.716300E+01	  0.025664499	2.862000E+00	  0.025664499	9.183000E+00
82	  0.025860308	-3.953300E+01	  0.025860308	5.763400E+01	  0.025860308	2.851000E+00	  0.025860308	9.199000E+00
83	  0.026056113	-3.946800E+01	  0.026056113	5.714000E+01	  0.026056113	2.840000E+00	  0.026056113	9.217000E+00
84	  0.026251920	-3.945900E+01	  0.026251920	5.709300E+01	  0.026251920	2.947000E+00	  0.026251920	9.414000E+00
85	  0.026447725	-3.918900E+01	  0.026447725	5.622100E+01	  0.026447725	2.931000E+00	  0.026447725	9.437000E+00
86	  0.026643531	-3.937100E+01	  0.026643531	5.629200E+01	  0.026643531	2.913000E+00	  0.026643531	9.459000E+00
87	  0.026839336	-3.927100E+01	  0.026839336	5.714000E+01	  0.026839336	2.897000E+00	  0.026839336	9.478000E+00
88	  0.027035145	-3.919900E+01	  0.027035145	5.635200E+01	  0.027035145	2.879000E+00	  0.027035145	9.495000E+00
89	  0.027230950	-3.909400E+01	  0.027230950	5.632100E+01	  0.027230950	2.983000E+00	  0.027230950	9.694000E+00
90	  0.027426757	-3.897700E+01	  0.027426757	5.647400E+01	  0.027426757	2.958000E+00	  0.027426757	9.712000E+00
91	  0.027622562	-3.891300E+01	  0.027622562	5.595200E+01	  0.027622562	2.940000E+00	  0.027622562	9.731000E+00
92	  0.027818369	-3.886100E+01	  0.027818369	5.647700E+01	  0.027818369	2.918000E+00	  0.027818369	9.749000E+00
93	  0.028014174	-3.882100E+01	  0.028014174	5.684900E+01	  0.028014174	2.899000E+00	  0.028014174	9.762000E+00
94	  0.028209982	-3.886200E+01	  0.028209982	5.714000E+01	  0.028209982	3.006000E+00	  0.028209982	9.959000E+00
95	  0.028405787	-3.880200E+01	  0.028405787	5.692300E+01	  0.028405787	2.986000E+00	  0.028405787	9.972000E+00
96	  0.028601594	-3.868000E+01	  0.028601594	5.652100E+01	  0.028601594	2.968000E+00	  0.028601594	9.986000E+00
97	  0.028797399	-3.870500E+01	  0.028797399	5.638800E+01	  0.028797399	2.947000E+00	  0.028797399	9.999000E+00
98	  0.028993206	-3.867600E+01	  0.028993206	5.658600E+01	  0.028993206	2.921000E+00	  0.028993206	1.001200E+01
99	  0.029189013	-3.866600E+01	  0.029189013	5.666000E+01	  0.029189013	2.902000E+00	  0.029189013	1.002700E+01
100	  0.029384818	-3.860900E+01	  0.029384818	5.643000E+01	  0.029384818	3.002000E+00	  0.029384818	1.022800E+01
101	  0.029580627	-3.852900E+01	  0.029580627	5.572000E+01	  0.029580627	2.984000E+00	  0.029580627	1.024500E+01
102	  0.029776432	-3.860600E+01	  0.029776432	5.652800E+01	  0.029776432	2.963000E+00	  0.029776432	1.026300E+01
103	  0.029972238	-3.850800E+01	  0.029972238	5.634700E+01	  0.029972238	2.942000E+00	  0.029972238	1.028000E+01
104	  0.030168043	-3.839200E+01	  0.030168043	5.593800E+01	  0.030168043	2.923000E+00	  0.030168043	1.030300E+01
105	  0.030363850	-3.847000E+01	  0.030363850	5.577400E+01	  0.030363850	3.026000E+00	  0.030363850	1.051200E+01
106	  0.030559655	-3.843700E+01	  0.030559655	5.582700E+01	  0.030559655	3.008000E+00	  0.030559655	1.054100E+01
107	  0.030755464	-3.840200E+01	  0.030755464	5.545500E+01	  0.030755464	2.983000E+00	  0.030755464	1.056800E+01
108	  0.030951269	-3.827800E+01	  0.030951269	5.608400E+01	  0.030951269	2.958000E+00	  0.030951269	1.059800E+01
109	  0.031147076	-3.828700E+01	  0.031147076	5.578200E+01	  0.031147076	2.634000E+00	  0.031147076	1.060600E+01
110	  0.031342883	-3.825100E+01	  0.031342883	5.461900E+01	  0.031342883	2.744000E+00	  0.031342883	1.081500E+01
111	  0.031538688	-3.831500E+01	  0.031538688	5.480600E+01	  0.031538688	2.732000E+00	  0.031538688	1.084300E+01
112	  0.031734493	-3.810200E+01	  0.031734493	5.548400E+01	  0.031734493	2.718000E+00	  0.031734493	1.086500E+01
113	  0.031930301	-3.830200E+01	  0.031930301	5.458300E+01	  0.031930301	2.704000E+00	  0.031930301	1.088500E+01
114	  0.032126106	-3.810300E+01	  0.032126106	5.425000E+01	  0.032126106	2.692000E+00	  0.032126106	1.091300E+01
115	  0.032321911	-3.819200E+01	  0.032321911	5.444600E+01	  0.032321911	2.803000E+00	  0.032321911	1.112100E+01
116	  0.032517716	-3.801200E+01	  0.032517716	5.452200E+01	  0.032517716	2.789000E+00	  0.032517716	1.115100E+01
117	  0.032713525	-3.799500E+01	  0.032713525	5.430000E+01	  0.032713525	2.772000E+00	  0.032713525	1.117800E+01
118	  0.032909330	-3.801100E+01	  0.032909330	5.402000E+01	  0.032909330	2.760000E+00	  0.032909330	1.120000E+01
119	  0.033105139	-3.789300E+01	  0.033105139	5.395100E+01	  0.033105139	2.745000E+00	  0.033105139	1.123000E+01
120	  0.033300944	-3.794800E+01	  0.033300944	5.319900E+01	  0.033300944	2.854000E+00	  0.033300944	1.144000E+01
121	  0.033496749	-3.792700E+01	  0.033496749	5.381100E+01	  0.033496749	2.831000E+00	  0.033496749	1.146600E+01
122	  0.033692554	-3.791200E+01	  0.033692554	5.356500E+01	  0.033692554	2.814000E+00	  0.033692554	1.149400E+01
123	  0.033888362	-3.787900E+01	  0.033888362	5.277100E+01	  0.033888362	2.791000E+00	  0.033888362	1.152100E+01
124	  0.034084171	-3.774300E+01	  0.034084171	5.241100E+01	  0.034084171	2.771000E+00	  0.034084171	1.154500E+01
125	  0.034279976	-3.768000E+01	  0.034279976	5.255100E+01	  0.034279976	2.877000E+00	  0.034279976	1.175300E+01
126	  0.034475781	-3.753300E+01	  0.034475781	5.233000E+01	  0.034475781	2.853000E+00	  0.034475781	1.177800E+01
127	  0.034671586	-3.758100E+01	  0.034671586	5.187200E+01	  0.034671586	2.828000E+00	  0.034671586	1.180400E+01
128	  0.034867391	-3.751300E+01	  0.034867391	5.198100E+01	  0.034867391	2.805000E+00	  0.034867391	1.182600E+01
129	  0.035063203	-3.747800E+01	  0.035063203	5.159500E+01	  0.035063203	2.784000E+00	  0.035063203	1.185300E+01
130	  0.035259008	-3.745500E+01	  0.035259008	5.188700E+01	  0.035259008	2.757000E+00	  0.035259008	1.187600E+01
131	  0.035454813	-3.742000E+01	  0.035454813	5.122200E+01	  0.035454813	2.857000E+00	  0.035454813	1.209300E+01
132	  0.035650618	-3.734000E+01	  0.035650618	5.145500E+01	  0.035650618	2.828000E+00	  0.035650618	1.211900E+01
133	  0.035846427	-3.728000E+01	  0.035846427	5.111400E+01	  0.035846427	2.803000E+00	  0.035846427	1.214300E+01
134	  0.036042232	-3.716900E+01	  0.036042232	5.077200E+01	  0.036042232	2.777000E+00	  0.036042232	1.217800E+01
135	  0.036238037	-3.721400E+01	  0.036238037	5.121000E+01	  0.036238037	2.749000E+00	  0.036238037	1.220100E+01
136	  0.036433842	-3.705800E+01	  0.036433842	5.115800E+01	  0.036433842	2.847000E+00	  0.036433842	1.242300E+01
137	  0.036629651	-3.704700E+01	  0.036629651	5.079800E+01	  0.036629651	2.822000E+00	  0.036629651	1.245400E+01
138	  0.036825456	-3.701500E+01	  0.036825456	5.088700E+01	  0.036825456	2.792000E+00	  0.036825456	1.248100E+01
139	  0.037021261	-3.692200E+01	  0.037021261	5.002000E+01	  0.037021261	2.762000E+00	  0.037021261	1.251500E+01
140	  0.037217066	-3.692100E+01	  0.037217066	5.178300E+01	  0.037217066	2.726000E+00	  0.037217066	1.254400E+01
141	  0.037412878	-3.677800E+01	  0.037412878	5.097100E+01	  0.037412878	2.824000E+00	  0.037412878	1.276000E+01
142	  0.037608683	-3.687500E+01	  0.037608683	5.086700E+01	  0.037608683	2.798000E+00	  0.037608683	1.279100E+01
143	  0.037804488	-3.675300E+01	  0.037804488	4.998600E+01	  0.037804488	2.773000E+00	  0.037804488	1.281700E+01
144	  0.038000293	-3.666800E+01	  0.038000293	5.104400E+01	  0.038000293	2.746000E+00	  0.038000293	1.284400E+01
145	  0.038196102	-3.662400E+01	  0.038196102	5.086800E+01	  0.038196102	2.716000E+00	  0.038196102	1.286800E+01
146	  0.038391907	-3.670700E+01	  0.038391907	5.093800E+01	  0.038391907	2.816000E+00	  0.038391907	1.308600E+01
147	  0.038587712	-3.658900E+01	  0.038587712	5.061300E+01	  0.038587712	2.787000E+00	  0.038587712	1.311400E+01
148	  0.038783520	-3.653800E+01	  0.038783520	5.034900E+01	  0.038783520	2.761000E+00	  0.038783520	1.314800E+01
149	  0.038979325	-3.641300E+01	  0.038979325	5.095900E+01	  0.038979325	2.735000E+00	  0.038979325	1.318100E+01
150	  0.039175130	-3.652200E+01	  0.039175130	5.077000E+01	  0.039175130	2.713000E+00	  0.039175130	1.321000E+01
151	  0.039370935	-3.649500E+01	  0.039370935	5.096900E+01	  0.039370935	2.818000E+00	  0.039370935	1.343200E+01
152	  0.039566744	-3.638600E+01	  0.039566744	5.104600E+01	  0.039566744	2.795000E+00	  0.039566744	1.346500E+01
153	  0.039762549	-3.635900E+01	  0.039762549	5.139100E+01	  0.039762549	2.774000E+00	  0.039762549	1.349500E+01
154	  0.039958358	-3.643500E+01	  0.039958358	5.120600E+01	  0.039958358	2.747000E+00	  0.039958358	1.352500E+01
155	  0.040154163	-3.629300E+01	  0.040154163	5.215800E+01	  0.040154163	2.727000E+00	  0.040154163	1.355700E+01
156	  0.040349972	-3.630200E+01	  0.040349972	5.061200E+01	  0.040349972	2.835000E+00	  0.040349972	1.377600E+01
157	  0.040545776	-3.645200E+01	  0.040545776	5.140900E+01	  0.040545776	2.815000E+00	  0.040545776	1.380200E+01
158	  0.040741581	-3.630800E+01	  0.040741581	5.083800E+01	  0.040741581	2.795000E+00	  0.040741581	1.383500E+01
159	  0.040937386	-3.621800E+01	  0.040937386	5.153500E+01	  0.040937386	2.761000E+00	  0.040937386	1.385800E+01
160	  0.041133195	-3.623400E+01	  0.041133195	5.112700E+01	  0.041133195	2.741000E+00	  0.041133195	1.389100E+01
161	  0.041329000	-3.626500E+01	  0.041329000	5.107600E+01	  0.041329000	2.853000E+00	  0.041329000	1.410600E+01
162	  0.041524805	-3.618100E+01	  0.041524805	5.092200E+01	  0.041524805	2.833000E+00	  0.041524805	1.414000E+01
163	  0.041720610	-3.620800E+01	  0.041720610	5.078200E+01	  0.041720610	2.807000E+00	  0.041720610	1.417100E+01
164	  0.041916419	-3.626000E+01	  0.041916419	5.120400E+01	  0.041916419	2.785000E+00	  0.041916419	1.420200E+01
165	  0.042112224	-3.613000E+01	  0.042112224	5.097400E+01	  0.042112224	2.766000E+00	  0.042112224	1.422800E+01
166	  0.042308029	-3.617400E+01	  0.042308029	5.066800E+01	  0.042308029	2.748000E+00	  0.042308029	1.425400E+01
167	  0.042503837	-3.615000E+01	  0.042503837	5.062000E+01	  0.042503837	2.858000E+00	  0.042503837	1.447300E+01
168	  0.042699646	-3.616700E+01	  0.042699646	5.129400E+01	  0.042699646	2.837000E+00	  0.042699646	1.450200E+01
169	  0.042895451	-3.607100E+01	  0.042895451	5.081600E+01	  0.042895451	2.819000E+00	  0.042895451	1.452700E+01
170	  0.043091256	-3.611500E+01	  0.043091256	5.007300E+01	  0.043091256	2.796000E+00	  0.043091256	1.455400E+01
171	  0.043287061	-3.613300E+01	  0.043287061	5.057200E+01	  0.043287061	2.777000E+00	  0.043287061	1.457500E+01
172	  0.043482870	-3.617700E+01	  0.043482870	5.013000E+01	  0.043482870	2.894000E+00	  0.043482870	1.479800E+01
173	  0.043678675	-3.609600E+01	  0.043678675	4.998500E+01	  0.043678675	2.871000E+00	  0.043678675	1.481900E+01
174	  0.043874480	-3.608100E+01	  0.043874480	4.958300E+01	  0.043874480	2.852000E+00	  0.043874480	1.484500E+01
175	  0.044070289	-3.607100E+01	  0.044070289	4.988300E+01	  0.044070289	2.834000E+00	  0.044070289	1.486800E+01
176	  0.044266094	-3.598000E+01	  0.044266094	4.947100E+01	  0.044266094	2.811000E+00	  0.044266094	1.489100E+01
177	  0.044461899	-3.609600E+01	  0.044461899	4.948000E+01	  0.044461899	2.912000E+00	  0.044461899	1.511000E+01
178	  0.044657703	-3.605100E+01	  0.044657703	4.881200E+01	  0.044657703	2.890000E+00	  0.044657703	1.513600E+01
179	  0.044853516	-3.606400E+01	  0.044853516	4.875800E+01	  0.044853516	2.874000E+00	  0.044853516	1.516300E+01
180	  0.045049321	-3.600500E+01	  0.045049321	4.853100E+01	  0.045049321	2.853000E+00	  0.045049321	1.518800E+01
181	  0.045245126	-3.589100E+01	  0.045245126	4.856800E+01	  0.045245126	2.834000E+00	  0.045245126	1.521300E+01
182	  0.045440931	-3.593500E+01	  0.045440931	4.865200E+01	  0.045440931	2.948000E+00	  0.045440931	1.542900E+01
183	  0.045636740	-3.584700E+01	  0.045636740	4.743700E+01	  0.045636740	2.928000E+00	  0.045636740	1.545500E+01
184	  0.045832545	-3.590300E+01	  0.045832545	4.824400E+01	  0.045832545	2.914000E+00	  0.045832545	1.548300E+01
185	  0.046028350	-3.590500E+01	  0.046028350	4.768600E+01	  0.046028350	2.897000E+00	  0.046028350	1.550900E+01
186	  0.046224155	-3.590100E+01	  0.046224155	4.717500E+01	  0.046224155	2.877000E+00	  0.046224155	1.553300E+01
187	  0.046419963	-3.582900E+01	  0.046419963	4.725100E+01	  0.046419963	2.989000E+00	  0.046419963	1.574800E+01
188	  0.046615768	-3.577500E+01	  0.046615768	4.722200E+01	  0.046615768	2.967000E+00	  0.046615768	1.577800E+01
189	  0.046811573	-3.582800E+01	  0.046811573	4.656300E+01	  0.046811573	2.948000E+00	  0.046811573	1.580200E+01
190	  0.047007378	-3.566400E+01	  0.047007378	4.694600E+01	  0.047007378	2.945000E+00	  0.047007378	1.581800E+01
191	  0.047203191	-3.565900E+01	  0.047203191	4.726100E+01	  0.047203191	2.925000E+00	  0.047203191	1.584200E+01
192	  0.047398996	-3.572600E+01	  0.047398996	4.641800E+01	  0.047398996	3.043000E+00	  0.047398996	1.605500E+01
193	  0.047594801	-3.556200E+01	  0.047594801	4.618900E+01	  0.047594801	3.024000E+00	  0.047594801	1.608300E+01
194	  0.047790606	-3.558400E+01	  0.047790606	4.615900E+01	  0.047790606	3.005000E+00	  0.047790606	1.610600E+01
195	  0.047986414	-3.546700E+01	  0.047986414	4.627600E+01	  0.047986414	2.989000E+00	  0.047986414	1.612800E+01
196	  0.048182219	-3.542400E+01	  0.048182219	4.611600E+01	  0.048182219	2.974000E+00	  0.048182219	1.614900E+01
197	  0.048378024	-3.542900E+01	  0.048378024	4.544200E+01	  0.048378024	2.960000E+00	  0.048378024	1.616700E+01
198	  0.048573833	-3.531300E+01	  0.048573833	4.601600E+01	  0.048573833	3.075000E+00	  0.048573833	1.638200E+01
199	  0.048769638	-3.528200E+01	  0.048769638	4.580300E+01	  0.048769638	3.062000E+00	  0.048769638	1.639900E+01
200	  0.048965443	-3.540500E+01	  0.048965443	4.592300E+01	  0.048965443	3.045000E+00	  0.048965443	1.642400E+01
201	  0.049161248	-3.533400E+01	  0.049161248	4.546500E+01	  0.049161248	3.032000E+00	  0.049161248	1.644400E+01
202	  0.049357057	-3.525200E+01	  0.049357057	4.607700E+01	  0.049357057	3.015000E+00	  0.049357057	1.646200E+01
203	  0.049552862	-3.511700E+01	  0.049552862	4.592500E+01	  0.049552862	3.136000E+00	  0.049552862	1.667900E+01
204	  0.049748670	-3.522000E+01	  0.049748670	4.613500E+01	  0.049748670	3.117000E+00	  0.049748670	1.670000E+01
205	  0.049944475	-3.512400E+01	  0.049944475	4.589400E+01	  0.049944475	3.101000E+00	  0.049944475	1.672300E+01
206	  0.050140284	-3.521900E+01	  0.050140284	4.607300E+01	  0.050140284	3.083000E+00	  0.050140284	1.674700E+01
207	  0.050336089	-3.512600E+01	  0.050336089	4.550900E+01	  0.050336089	3.057000E+00	  0.050336089	1.676100E+01
208	  0.050531894	-3.508100E+01	  0.050531894	4.613600E+01	  0.050531894	3.174000E+00	  0.050531894	1.697800E+01
209	  0.050727699	-3.522500E+01	  0.050727699	4.577100E+01	  0.050727699	3.157000E+00	  0.050727699	1.700100E+01
210	  0.050923508	-3.507300E+01	  0.050923508	4.648600E+01	  0.050923508	3.144000E+00	  0.050923508	1.701800E+01
211	  0.051119313	-3.505500E+01	  0.051119313	4.687700E+01	  0.051119313	3.128000E+00	  0.051119313	1.703700E+01
212	  0.051315118	-3.507500E+01	  0.051315118	4.659400E+01	  0.051315118	3.113000E+00	  0.051315118	1.705700E+01
213	  0.051510923	-3.499900E+01	  0.051510923	4.630300E+01	  0.051510923	3.235000E+00	  0.051510923	1.727000E+01
214	  0.051706731	-3.502800E+01	  0.051706731	4.617300E+01	  0.051706731	3.218000E+00	  0.051706731	1.728600E+01
215	  0.051902536	-3.501300E+01	  0.051902536	4.619500E+01	  0.051902536	3.207000E+00	  0.051902536	1.730200E+01
216	  0.052098341	-3.501800E+01	  0.052098341	4.602500E+01	  0.052098341	3.193000E+00	  0.052098341	1.731400E+01
217	  0.052294150	-3.500200E+01	  0.052294150	4.596800E+01	  0.052294150	3.180000E+00	  0.052294150	1.732800E+01
218	  0.052489959	-3.501000E+01	  0.052489959	4.595300E+01	  0.052489959	3.301000E+00	  0.052489959	1.753800E+01
219	  0.052685764	-3.501700E+01	  0.052685764	4.576000E+01	  0.052685764	3.288000E+00	  0.052685764	1.755200E+01
220	  0.052881569	-3.502800E+01	  0.052881569	4.598400E+01	  0.052881569	3.275000E+00	  0.052881569	1.756300E+01
221	  0.053077377	-3.509500E+01	  0.053077377	4.592700E+01	  0.053077377	3.260000E+00	  0.053077377	1.757600E+01
222	  0.053273182	-3.490100E+01	  0.053273182	4.566900E+01	  0.053273182	3.249000E+00	  0.053273182	1.759100E+01
223	  0.053468987	-3.499400E+01	  0.053468987	4.549000E+01	  0.053468987	3.373000E+00	  0.053468987	1.779300E+01
224	  0.053664792	-3.495100E+01	  0.053664792	4.571300E+01	  0.053664792	3.355000E+00	  0.053664792	1.780500E+01
225	  0.053860601	-3.503500E+01	  0.053860601	4.567100E+01	  0.053860601	3.341000E+00	  0.053860601	1.782000E+01
226	  0.054056406	-3.493300E+01	  0.054056406	4.579200E+01	  0.054056406	3.325000E+00	  0.054056406	1.782800E+01
227	  0.054252211	-3.505400E+01	  0.054252211	4.580200E+01	  0.054252211	3.314000E+00	  0.054252211	1.784400E+01
228	  0.054448016	-3.506200E+01	  0.054448016	4.574200E+01	  0.054448016	3.301000E+00	  0.054448016	1.785200E+01
229	  0.054643828	-3.513000E+01	  0.054643828	4.519800E+01	  0.054643828	3.418000E+00	  0.054643828	1.806100E+01
230	  0.054839633	-3.507900E+01	  0.054839633	4.466800E+01	  0.054839633	3.406000E+00	  0.054839633	1.807100E+01
231	  0.055035438	-3.503500E+01	  0.055035438	4.466000E+01	  0.055035438	3.391000E+00	  0.055035438	1.808100E+01
232	  0.055231243	-3.508800E+01	  0.055231243	4.437900E+01	  0.055231243	3.377000E+00	  0.055231243	1.809200E+01
233	  0.055427052	-3.509400E+01	  0.055427052	4.380900E+01	  0.055427052	3.363000E+00	  0.055427052	1.809800E+01
234	  0.055622857	-3.514900E+01	  0.055622857	4.406000E+01	  0.055622857	3.486000E+00	  0.055622857	1.830400E+01
235	  0.055818662	-3.510300E+01	  0.055818662	4.344500E+01	  0.055818662	3.469000E+00	  0.055818662	1.831700E+01
236	  0.056014467	-3.516200E+01	  0.056014467	4.331200E+01	  0.056014467	3.455000E+00	  0.056014467	1.832700E+01
237	  0.056210276	-3.510700E+01	  0.056210276	4.325400E+01	  0.056210276	3.446000E+00	  0.056210276	1.833600E+01
238	  0.056406081	-3.507400E+01	  0.056406081	4.261500E+01	  0.056406081	3.429000E+00	  0.056406081	1.833700E+01
239	  0.056601886	-3.503000E+01	  0.056601886	4.223300E+01	  0.056601886	3.556000E+00	  0.056601886	1.854100E+01
240	  0.056797691	-3.502000E+01	  0.056797691	4.237200E+01	  0.056797691	3.545000E+00	  0.056797691	1.854800E+01
241	  0.056993503	-3.508800E+01	  0.056993503	4.244500E+01	  0.056993503	3.528000E+00	  0.056993503	1.855700E+01
242	  0.057189308	-3.496800E+01	  0.057189308	4.198600E+01	  0.057189308	3.516000E+00	  0.057189308	1.856000E+01
243	  0.057385113	-3.510100E+01	  0.057385113	4.128100E+01	  0.057385113	3.503000E+00	  0.057385113	1.856400E+01
244	  0.057580918	-3.500800E+01	  0.057580918	4.066700E+01	  0.057580918	3.631000E+00	  0.057580918	1.876700E+01
245	  0.057776727	-3.496600E+01	  0.057776727	4.058600E+01	  0.057776727	3.614000E+00	  0.057776727	1.877700E+01
246	  0.057972532	-3.492300E+01	  0.057972532	4.026500E+01	  0.057972532	3.602000E+00	  0.057972532	1.877900E+01
247	  0.058168337	-3.492200E+01	  0.058168337	3.932500E+01	  0.058168337	3.586000E+00	  0.058168337	1.878600E+01
248	  0.058364145	-3.489000E+01	  0.058364145	3.967500E+01	  0.058364145	3.574000E+00	  0.058364145	1.879700E+01
249	  0.058559950	-3.476400E+01	  0.058559950	3.957600E+01	  0.058559950	3.699000E+00	  0.058559950	1.900000E+01
250	  0.058755755	-3.485200E+01	  0.058755755	3.913400E+01	  0.058755755	3.685000E+00	  0.058755755	1.901100E+01
251	  0.058951560	-3.483000E+01	  0.058951560	3.855300E+01	  0.058951560	3.665000E+00	  0.058951560	1.901900E+01
252	  0.059147369	-3.485600E+01	  0.059147369	3.858400E+01	  0.059147369	3.651000E+00	  0.059147369	1.903200E+01
253	  0.059343174	-3.480300E+01	  0.059343174	3.813600E+01	  0.059343174	3.629000E+00	  0.059343174	1.904400E+01
254	  0.059538983	-3.475500E+01	  0.059538983	3.765400E+01	  0.059538983	3.758000E+00	  0.059538983	1.925000E+01
255	  0.059734788	-3.475700E+01	  0.059734788	3.712100E+01	  0.059734788	3.737000E+00	  0.059734788	1.926400E+01
256	  0.059930597	-3.467200E+01	  0.059930597	3.721500E+01	  0.059930597	3.717000E+00	  0.059930597	1.927600E+01
257	  0.060126401	-3.461100E+01	  0.060126401	3.677300E+01	  0.060126401	3.696000E+00	  0.060126401	1.929200E+01
258	  0.060322206	-3.463300E+01	  0.060322206	3.691800E+01	  0.060322206	3.677000E+00	  0.060322206	1.931100E+01
259	  0.060518011	-3.454200E+01	  0.060518011	3.675900E+01	  0.060518011	3.656000E+00	  0.060518011	1.932800E+01
260	  0.060713820	-3.444600E+01	  0.060713820	3.719900E+01	  0.060713820	3.774000E+00	  0.060713820	1.955100E+01
261	  0.060909625	-3.446000E+01	  0.060909625	3.646100E+01	  0.060909625	3.750000E+00	  0.060909625	1.957400E+01
262	  0.061105430	-3.447000E+01	  0.061105430	3.672200E+01	  0.061105430	3.728000E+00	  0.061105430	1.959600E+01
263	  0.061301235	-3.437700E+01	  0.061301235	3.686500E+01	  0.061301235	3.701000E+00	  0.061301235	1.962100E+01
264	  0.061497044	-3.442800E+01	  0.061497044	3.573700E+01	  0.061497044	3.691000E+00	  0.061497044	1.964100E+01
265	  0.061692849	-3.426800E+01	  0.061692849	3.635800E+01	  0.061692849	3.809000E+00	  0.061692849	1.986600E+01
266	  0.061888654	-3.420700E+01	  0.061888654	3.630900E+01	  0.061888654	3.785000E+00	  0.061888654	1.988700E+01
267	  0.062084462	-3.422900E+01	  0.062084462	3.554000E+01	  0.062084462	3.757000E+00	  0.062084462	1.991300E+01
268	  0.062280271	-3.407600E+01	  0.062280271	3.648400E+01	  0.062280271	3.737000E+00	  0.062280271	1.993800E+01
269	  0.062476076	-3.417300E+01	  0.062476076	3.594600E+01	  0.062476076	3.623000E+00	  0.062476076	1.986300E+01
270	  0.062671877	-3.403200E+01	  0.062671877	3.539500E+01	  0.062671877	3.746000E+00	  0.062671877	2.009400E+01
271	  0.062867686	-3.408900E+01	  0.062867686	3.572300E+01	  0.062867686	3.730000E+00	  0.062867686	2.011600E+01
272	  0.063063495	-3.403100E+01	  0.063063495	3.461700E+01	  0.063063495	3.709000E+00	  0.063063495	2.014600E+01
273	  0.063259304	-3.405500E+01	  0.063259304	3.485400E+01	  0.063259304	3.692000E+00	  0.063259304	2.016600E+01
274	  0.063455105	-3.406300E+01	  0.063455105	3.575400E+01	  0.063455105	3.676000E+00	  0.063455105	2.019500E+01
275	  0.063650914	-3.397000E+01	  0.063650914	3.570800E+01	  0.063650914	3.791000E+00	  0.063650914	2.041400E+01
276	  0.063846722	-3.398100E+01	  0.063846722	3.638600E+01	  0.063846722	3.768000E+00	  0.063846722	2.044200E+01
277	  0.064042524	-3.386800E+01	  0.064042524	3.571700E+01	  0.064042524	3.751000E+00	  0.064042524	2.046700E+01
278	  0.064238332	-3.379200E+01	  0.064238332	3.634300E+01	  0.064238332	3.727000E+00	  0.064238332	2.049400E+01
279	  0.064434141	-3.380300E+01	  0.064434141	3.614600E+01	  0.064434141	3.708000E+00	  0.064434141	2.052300E+01
280	  0.064629942	-3.378700E+01	  0.064629942	3.632900E+01	  0.064629942	3.831000E+00	  0.064629942	2.075700E+01
281	  0.064825751	-3.378700E+01	  0.064825751	3.584800E+01	  0.064825751	3.804000E+00	  0.064825751	2.078700E+01
282	  0.065021552	-3.382600E+01	  0.065021552	3.539700E+01	  0.065021552	3.786000E+00	  0.065021552	2.081500E+01
283	  0.065217361	-3.386900E+01	  0.065217361	3.504400E+01	  0.065217361	3.761000E+00	  0.065217361	2.084200E+01
284	  0.065413170	-3.390300E+01	  0.065413170	3.566700E+01	  0.065413170	3.742000E+00	  0.065413170	2.087600E+01
285	  0.065608978	-3.390500E+01	  0.065608978	3.530000E+01	  0.065608978	3.862000E+00	  0.065608978	2.110300E+01
286	  0.065804780	-3.387100E+01	  0.065804780	3.486900E+01	  0.065804780	3.841000E+00	  0.065804780	2.113500E+01
287	  0.066000588	-3.388700E+01	  0.066000588	3.440800E+01	  0.066000588	3.817000E+00	  0.066000588	2.116800E+01
288	  0.066196397	-3.377400E+01	  0.066196397	3.561700E+01	  0.066196397	3.798000E+00	  0.066196397	2.119900E+01
289	  0.066392198	-3.381200E+01	  0.066392198	3.456100E+01	  0.066392198	3.780000E+00	  0.066392198	2.122900E+01
290	  0.066588007	-3.372900E+01	  0.066588007	3.490100E+01	  0.066588007	3.898000E+00	  0.066588007	2.146400E+01
291	  0.066783816	-3.390500E+01	  0.066783816	3.433200E+01	  0.066783816	3.873000E+00	  0.066783816	2.149300E+01
292	  0.066979617	-3.390700E+01	  0.066979617	3.448500E+01	  0.066979617	3.859000E+00	  0.066979617	2.152100E+01
293	  0.067175426	-3.384300E+01	  0.067175426	3.431600E+01	  0.067175426	3.832000E+00	  0.067175426	2.155000E+01
294	  0.067371234	-3.378500E+01	  0.067371234	3.406900E+01	  0.067371234	3.811000E+00	  0.067371234	2.158600E+01
295	  0.067567036	-3.376000E+01	  0.067567036	3.359400E+01	  0.067567036	3.792000E+00	  0.067567036	2.160700E+01
296	  0.067762844	-3.375300E+01	  0.067762844	3.354100E+01	  0.067762844	3.912000E+00	  0.067762844	2.183900E+01
297	  0.067958646	-3.377700E+01	  0.067958646	3.314300E+01	  0.067958646	3.891000E+00	  0.067958646	2.187600E+01
298	  0.068154462	-3.370300E+01	  0.068154462	3.292400E+01	  0.068154462	3.873000E+00	  0.068154462	2.190100E+01
299	  0.068350263	-3.368500E+01	  0.068350263	3.228700E+01	  0.068350263	3.848000E+00	  0.068350263	2.192700E+01
300	  0.068546072	-3.366200E+01	  0.068546072	3.227900E+01	  0.068546072	3.828000E+00	  0.068546072	2.195400E+01
301	  0.068741873	-3.362400E+01	  0.068741873	3.204700E+01	  0.068741873	3.956000E+00	  0.068741873	2.218900E+01
302	  0.068937682	-3.351900E+01	  0.068937682	3.157700E+01	  0.068937682	3.929000E+00	  0.068937682	2.222100E+01
303	  0.069133483	-3.351900E+01	  0.069133483	3.172300E+01	  0.069133483	3.911000E+00	  0.069133483	2.224600E+01
304	  0.069329299	-3.357200E+01	  0.069329299	3.162900E+01	  0.069329299	3.891000E+00	  0.069329299	2.226900E+01
305	  0.069525100	-3.354300E+01	  0.069525100	3.206600E+01	  0.069525100	3.866000E+00	  0.069525100	2.230000E+01
306	  0.069720909	-3.350100E+01	  0.069720909	3.133500E+01	  0.069720909	3.994000E+00	  0.069720909	2.253300E+01
307	  0.069916710	-3.342600E+01	  0.069916710	3.096100E+01	  0.069916710	3.966000E+00	  0.069916710	2.256500E+01
308	  0.070112519	-3.336700E+01	  0.070112519	3.061500E+01	  0.070112519	3.939000E+00	  0.070112519	2.259000E+01
309	  0.070308320	-3.340800E+01	  0.070308320	3.033200E+01	  0.070308320	3.920000E+00	  0.070308320	2.262200E+01
310	  0.070504129	-3.326800E+01	  0.070504129	2.945600E+01	  0.070504129	3.895000E+00	  0.070504129	2.264900E+01
311	  0.070699938	-3.346300E+01	  0.070699938	3.001400E+01	  0.070699938	4.021000E+00	  0.070699938	2.289000E+01
312	  0.070895746	-3.331500E+01	  0.070895746	3.046100E+01	  0.070895746	3.997000E+00	  0.070895746	2.292300E+01
313	  0.071091555	-3.330100E+01	  0.071091555	2.996000E+01	  0.071091555	3.966000E+00	  0.071091555	2.295200E+01
314	  0.071287356	-3.323800E+01	  0.071287356	2.988600E+01	  0.071287356	3.951000E+00	  0.071287356	2.298200E+01
315	  0.071483165	-3.317200E+01	  0.071483165	2.919100E+01	  0.071483165	3.923000E+00	  0.071483165	2.301500E+01
316	  0.071678966	-3.311900E+01	  0.071678966	3.000100E+01	  0.071678966	4.048000E+00	  0.071678966	2.325900E+01
317	  0.071874775	-3.308800E+01	  0.071874775	2.876300E+01	  0.071874775	4.018000E+00	  0.071874775	2.328900E+01
318	  0.072070576	-3.300200E+01	  0.072070576	2.927600E+01	  0.072070576	3.996000E+00	  0.072070576	2.332300E+01
319	  0.072266392	-3.305000E+01	  0.072266392	3.017800E+01	  0.072266392	3.964000E+00	  0.072266392	2.335900E+01
320	  0.072462194	-3.294500E+01	  0.072462194	2.847900E+01	  0.072462194	3.899000E+00	  0.072462194	2.339600E+01
321	  0.072658002	-3.303000E+01	  0.072658002	2.944600E+01	  0.072658002	4.023000E+00	  0.072658002	2.363800E+01
322	  0.072853811	-3.291700E+01	  0.072853811	2.925300E+01	  0.072853811	3.991000E+00	  0.072853811	2.367800E+01
323	  0.073049612	-3.284600E+01	  0.073049612	2.900900E+01	  0.073049612	3.959000E+00	  0.073049612	2.371700E+01
324	  0.073245421	-3.279100E+01	  0.073245421	2.904700E+01	  0.073245421	3.931000E+00	  0.073245421	2.374800E+01
325	  0.073441222	-3.281600E+01	  0.073441222	2.873900E+01	  0.073441222	3.904000E+00	  0.073441222	2.377900E+01
326	  0.073637031	-3.281500E+01	  0.073637031	2.883000E+01	  0.073637031	3.872000E+00	  0.073637031	2.381700E+01
327	  0.073832840	-3.284900E+01	  0.073832840	2.936900E+01	  0.073832840	3.998000E+00	  0.073832840	2.406200E+01
328	  0.074028648	-3.284600E+01	  0.074028648	2.924800E+01	  0.074028648	3.964000E+00	  0.074028648	2.410300E+01
329	  0.074224450	-3.281700E+01	  0.074224450	2.914800E+01	  0.074224450	3.939000E+00	  0.074224450	2.414100E+01
330	  0.074420258	-3.275600E+01	  0.074420258	2.817500E+01	  0.074420258	3.902000E+00	  0.074420258	2.417300E+01
331	  0.074616060	-3.282300E+01	  0.074616060	2.843800E+01	  0.074616060	3.869000E+00	  0.074616060	2.420800E+01
332	  0.074811868	-3.274300E+01	  0.074811868	2.873600E+01	  0.074811868	3.987000E+00	  0.074811868	2.445700E+01
333	  0.075007670	-3.271300E+01	  0.075007670	2.898600E+01	  0.075007670	3.958000E+00	  0.075007670	2.449800E+01
334	  0.075203478	-3.280300E+01	  0.075203478	2.832700E+01	  0.075203478	3.929000E+00	  0.075203478	2.453100E+01
335	  0.075399294	-3.278400E+01	  0.075399294	2.798100E+01	  0.075399294	3.898000E+00	  0.075399294	2.455900E+01
336	  0.075595096	-3.271500E+01	  0.075595096	2.812800E+01	  0.075595096	3.871000E+00	  0.075595096	2.459600E+01
337	  0.075790904	-3.273800E+01	  0.075790904	2.762300E+01	  0.075790904	4.002000E+00	  0.075790904	2.484100E+01
338	  0.075986706	-3.267700E+01	  0.075986706	2.796400E+01	  0.075986706	3.977000E+00	  0.075986706	2.487300E+01
339	  0.076182514	-3.264500E+01	  0.076182514	2.780000E+01	  0.076182514	3.948000E+00	  0.076182514	2.490400E+01
340	  0.076378316	-3.270700E+01	  0.076378316	2.828900E+01	  0.076378316	3.921000E+00	  0.076378316	2.493600E+01
341	  0.076574124	-3.258900E+01	  0.076574124	2.771700E+01	  0.076574124	3.890000E+00	  0.076574124	2.497400E+01
342	  0.076769926	-3.252000E+01	  0.076769926	2.783900E+01	  0.076769926	4.017000E+00	  0.076769926	2.522100E+01
343	  0.076965742	-3.256000E+01	  0.076965742	2.736900E+01	  0.076965742	3.987000E+00	  0.076965742	2.525900E+01
344	  0.077161543	-3.259200E+01	  0.077161543	2.764100E+01	  0.077161543	3.952000E+00	  0.077161543	2.529500E+01
345	  0.077357352	-3.253100E+01	  0.077357352	2.785900E+01	  0.077357352	3.907000E+00	  0.077357352	2.533100E+01
346	  0.077553153	-3.253600E+01	  0.077553153	2.770900E+01	  0.077553153	3.873000E+00	  0.077553153	2.537100E+01
347	  0.077748962	-3.254900E+01	  0.077748962	2.710800E+01	  0.077748962	4.000000E+00	  0.077748962	2.562200E+01
348	  0.077944770	-3.254100E+01	  0.077944770	2.709400E+01	  0.077944770	3.960000E+00	  0.077944770	2.566000E+01
349	  0.078140572	-3.250900E+01	  0.078140572	2.686500E+01	  0.078140572	3.930000E+00	  0.078140572	2.569900E+01
350	  0.078336388	-3.243300E+01	  0.078336388	2.713100E+01	  0.078336388	3.887000E+00	  0.078336388	2.573300E+01
351	  0.078532189	-3.240600E+01	  0.078532189	2.666800E+01	  0.078532189	3.856000E+00	  0.078532189	2.576900E+01
352	  0.078727998	-3.242500E+01	  0.078727998	2.655300E+01	  0.078727998	3.976000E+00	  0.078727998	2.602100E+01
353	  0.078923799	-3.241100E+01	  0.078923799	2.635300E+01	  0.078923799	3.946000E+00	  0.078923799	2.606200E+01
354	  0.079119608	-3.245800E+01	  0.079119608	2.644900E+01	  0.079119608	3.909000E+00	  0.079119608	2.609500E+01
355	  0.079315409	-3.242200E+01	  0.079315409	2.631600E+01	  0.079315409	3.873000E+00	  0.079315409	2.613400E+01
356	  0.079511218	-3.228400E+01	  0.079511218	2.585900E+01	  0.079511218	3.841000E+00	  0.079511218	2.616600E+01
357	  0.079707019	-3.235400E+01	  0.079707019	2.587200E+01	  0.079707019	3.806000E+00	  0.079707019	2.620000E+01
358	  0.079902835	-3.231100E+01	  0.079902835	2.625000E+01	  0.079902835	3.930000E+00	  0.079902835	2.646100E+01
359	  0.080098644	-3.227200E+01	  0.080098644	2.610100E+01	  0.080098644	3.894000E+00	  0.080098644	2.648900E+01
360	  0.080294445	-3.221700E+01	  0.080294445	2.613200E+01	  0.080294445	3.860000E+00	  0.080294445	2.652700E+01
361	  0.080490254	-3.219600E+01	  0.080490254	2.650000E+01	  0.080490254	3.826000E+00	  0.080490254	2.655800E+01
362	  0.080686055	-3.213200E+01	  0.080686055	2.563800E+01	  0.080686055	3.796000E+00	  0.080686055	2.659300E+01
363	  0.080881864	-3.214100E+01	  0.080881864	2.615000E+01	  0.080881864	3.927000E+00	  0.080881864	2.684800E+01
364	  0.081077665	-3.215100E+01	  0.081077665	2.594700E+01	  0.081077665	3.893000E+00	  0.081077665	2.688100E+01
365	  0.081273474	-3.210400E+01	  0.081273474	2.651400E+01	  0.081273474	3.856000E+00	  0.081273474	2.691600E+01
366	  0.081469283	-3.212300E+01	  0.081469283	2.575800E+01	  0.081469283	3.829000E+00	  0.081469283	2.694900E+01
367	  0.081665091	-3.218300E+01	  0.081665091	2.591600E+01	  0.081665091	3.794000E+00	  0.081665091	2.697700E+01
368	  0.081860892	-3.210000E+01	  0.081860892	2.607700E+01	  0.081860892	3.925000E+00	  0.081860892	2.723200E+01
369	  0.082056701	-3.216700E+01	  0.082056701	2.613200E+01	  0.082056701	3.890000E+00	  0.082056701	2.726700E+01
370	  0.082252502	-3.207200E+01	  0.082252502	2.617600E+01	  0.082252502	3.858000E+00	  0.082252502	2.729700E+01
371	  0.082448311	-3.206500E+01	  0.082448311	2.632700E+01	  0.082448311	3.812000E+00	  0.082448311	2.733200E+01
372	  0.082644112	-3.200200E+01	  0.082644112	2.661800E+01	  0.082644112	3.778000E+00	  0.082644112	2.736200E+01
373	  0.082839929	-3.200800E+01	  0.082839929	2.639800E+01	  0.082839929	3.912000E+00	  0.082839929	2.762100E+01
374	  0.083035737	-3.210300E+01	  0.083035737	2.668800E+01	  0.083035737	3.877000E+00	  0.083035737	2.765200E+01
375	  0.083231539	-3.199000E+01	  0.083231539	2.630700E+01	  0.083231539	3.839000E+00	  0.083231539	2.769200E+01
376	  0.083427347	-3.198700E+01	  0.083427347	2.655700E+01	  0.083427347	3.806000E+00	  0.083427347	2.772400E+01
377	  0.083623149	-3.205900E+01	  0.083623149	2.700500E+01	  0.083623149	3.769000E+00	  0.083623149	2.775300E+01
378	  0.083818957	-3.202200E+01	  0.083818957	2.661900E+01	  0.083818957	3.900000E+00	  0.083818957	2.800900E+01
379	  0.084014758	-3.204600E+01	  0.084014758	2.677300E+01	  0.084014758	3.864000E+00	  0.084014758	2.804500E+01
380	  0.084210567	-3.199200E+01	  0.084210567	2.627800E+01	  0.084210567	3.832000E+00	  0.084210567	2.807700E+01
381	  0.084406376	-3.210100E+01	  0.084406376	2.627200E+01	  0.084406376	3.798000E+00	  0.084406376	2.811000E+01
382	  0.084602185	-3.205100E+01	  0.084602185	2.668500E+01	  0.084602185	3.767000E+00	  0.084602185	2.814000E+01
383	  0.084797986	-3.205100E+01	  0.084797986	2.659600E+01	  0.084797986	3.903000E+00	  0.084797986	2.839600E+01
384	  0.084993795	-3.208700E+01	  0.084993795	2.702100E+01	  0.084993795	3.870000E+00	  0.084993795	2.842600E+01
385	  0.085189603	-3.202000E+01	  0.085189603	2.670300E+01	  0.085189603	3.840000E+00	  0.085189603	2.845800E+01
386	  0.085385405	-3.205200E+01	  0.085385405	2.719800E+01	  0.085385405	3.809000E+00	  0.085385405	2.849100E+01
387	  0.085581213	-3.207600E+01	  0.085581213	2.658100E+01	  0.085581213	3.777000E+00	  0.085581213	2.851700E+01
388	  0.085777014	-3.207400E+01	  0.085777014	2.662900E+01	  0.085777014	3.914000E+00	  0.085777014	2.877500E+01
389	  0.085972831	-3.209500E+01	  0.085972831	2.674400E+01	  0.085972831	3.889000E+00	  0.085972831	2.880600E+01
390	  0.086168632	-3.197900E+01	  0.086168632	2.705700E+01	  0.086168632	3.850000E+00	  0.086168632	2.883900E+01
391	  0.086364441	-3.206800E+01	  0.086364441	2.669700E+01	  0.086364441	3.823000E+00	  0.086364441	2.886900E+01
392	  0.086560242	-3.204000E+01	  0.086560242	2.697100E+01	  0.086560242	3.802000E+00	  0.086560242	2.889600E+01
393	  0.086756051	-3.208600E+01	  0.086756051	2.679300E+01	  0.086756051	3.770000E+00	  0.086756051	2.892800E+01
394	  0.086951852	-3.202800E+01	  0.086951852	2.685900E+01	  0.086951852	3.909000E+00	  0.086951852	2.918500E+01
395	  0.087147661	-3.216500E+01	  0.087147661	2.681600E+01	  0.087147661	3.871000E+00	  0.087147661	2.921600E+01
396	  0.087343477	-3.207700E+01	  0.087343477	2.637400E+01	  0.087343477	3.843000E+00	  0.087343477	2.924500E+01
397	  0.087539278	-3.213100E+01	  0.087539278	2.676200E+01	  0.087539278	3.809000E+00	  0.087539278	2.927400E+01
398	  0.087735087	-3.212800E+01	  0.087735087	2.615300E+01	  0.087735087	3.785000E+00	  0.087735087	2.930700E+01
399	  0.087930888	-3.219100E+01	  0.087930888	2.651100E+01	  0.087930888	3.931000E+00	  0.087930888	2.956600E+01
400	  0.088126697	-3.218400E+01	  0.088126697	2.686700E+01	  0.088126697	3.896000E+00	  0.088126697	2.959800E+01
401	  0.088322498	-3.218900E+01	  0.088322498	2.661700E+01	  0.088322498	3.867000E+00	  0.088322498	2.962500E+01
402	  0.088518307	-3.217300E+01	  0.088518307	2.641300E+01	  0.088518307	3.837000E+00	  0.088518307	2.965800E+01
403	  0.088714108	-3.217800E+01	  0.088714108	2.687500E+01	  0.088714108	3.809000E+00	  0.088714108	2.968000E+01
404	  0.088909924	-3.224400E+01	  0.088909924	2.667000E+01	  0.088909924	3.951000E+00	  0.088909924	2.994500E+01
405	  0.089105725	-3.218100E+01	  0.089105725	2.628800E+01	  0.089105725	3.919000E+00	  0.089105725	2.997700E+01
406	  0.089301534	-3.224100E+01	  0.089301534	2.601500E+01	  0.089301534	3.892000E+00	  0.089301534	3.000600E+01
407	  0.089497335	-3.225700E+01	  0.089497335	2.602500E+01	  0.089497335	3.857000E+00	  0.089497335	3.003500E+01
408	  0.089693144	-3.233500E+01	  0.089693144	2.597100E+01	  0.089693144	3.838000E+00	  0.089693144	3.006200E+01
409	  0.089888945	-3.223500E+01	  0.089888945	2.597400E+01	  0.089888945	3.969000E+00	  0.089888945	3.033000E+01
410	  0.090084754	-3.232400E+01	  0.090084754	2.633700E+01	  0.090084754	3.955000E+00	  0.090084754	3.035700E+01
411	  0.090280563	-3.229300E+01	  0.090280563	2.591200E+01	  0.090280563	3.911000E+00	  0.090280563	3.039100E+01
412	  0.090476371	-3.241600E+01	  0.090476371	2.578900E+01	  0.090476371	3.889000E+00	  0.090476371	3.041500E+01
413	  0.090672180	-3.233300E+01	  0.090672180	2.617600E+01	  0.090672180	3.850000E+00	  0.090672180	3.044900E+01
414	  0.090867981	-3.235000E+01	  0.090867981	2.594500E+01	  0.090867981	4.001000E+00	  0.090867981	3.070700E+01
415	  0.091063790	-3.243000E+01	  0.091063790	2.620500E+01	  0.091063790	3.966000E+00	  0.091063790	3.074300E+01
416	  0.091259591	-3.240900E+01	  0.091259591	2.604200E+01	  0.091259591	3.935000E+00	  0.091259591	3.077000E+01
417	  0.091455400	-3.243600E+01	  0.091455400	2.573700E+01	  0.091455400	3.904000E+00	  0.091455400	3.080300E+01
418	  0.091651201	-3.246600E+01	  0.091651201	2.572800E+01	  0.091651201	3.862000E+00	  0.091651201	3.083500E+01
419	  0.091847017	-3.254400E+01	  0.091847017	2.561100E+01	  0.091847017	4.018000E+00	  0.091847017	3.109800E+01
420	  0.092042819	-3.257400E+01	  0.092042819	2.563400E+01	  0.092042819	3.975000E+00	  0.092042819	3.113600E+01
421	  0.092238627	-3.263600E+01	  0.092238627	2.525100E+01	  0.092238627	3.951000E+00	  0.092238627	3.115800E+01
422	  0.092434436	-3.264100E+01	  0.092434436	2.599800E+01	  0.092434436	3.906000E+00	  0.092434436	3.119300E+01
423	  0.092630237	-3.256900E+01	  0.092630237	2.530200E+01	  0.092630237	3.892000E+00	  0.092630237	3.121400E+01
424	  0.092826046	-3.255400E+01	  0.092826046	2.478100E+01	  0.092826046	3.848000E+00	  0.092826046	3.125200E+01
425	  0.093021847	-3.266000E+01	  0.093021847	2.525900E+01	  0.093021847	4.005000E+00	  0.093021847	3.151600E+01
426	  0.093217656	-3.259000E+01	  0.093217656	2.452600E+01	  0.093217656	3.963000E+00	  0.093217656	3.155200E+01
427	  0.093413465	-3.274500E+01	  0.093413465	2.467100E+01	  0.093413465	3.947000E+00	  0.093413465	3.157700E+01
428	  0.093609273	-3.270600E+01	  0.093609273	2.432400E+01	  0.093609273	3.909000E+00	  0.093609273	3.161300E+01
429	  0.093805075	-3.272900E+01	  0.093805075	2.393600E+01	  0.093805075	3.890000E+00	  0.093805075	3.163600E+01
430	  0.094000883	-3.270100E+01	  0.094000883	2.358600E+01	  0.094000883	4.030000E+00	  0.094000883	3.190700E+01
431	  0.094196685	-3.279100E+01	  0.094196685	2.315100E+01	  0.094196685	4.009000E+00	  0.094196685	3.193200E+01
432	  0.094392493	-3.286700E+01	  0.094392493	2.263900E+01	  0.094392493	3.975000E+00	  0.094392493	3.196800E+01
433	  0.094588295	-3.278100E+01	  0.094588295	2.277500E+01	  0.094588295	3.952000E+00	  0.094588295	3.198900E+01
434	  0.094784103	-3.282600E+01	  0.094784103	2.264800E+01	  0.094784103	3.928000E+00	  0.094784103	3.201900E+01
435	  0.094979919	-3.280000E+01	  0.094979919	2.186300E+01	  0.094979919	4.078000E+00	  0.094979919	3.229100E+01
436	  0.095175721	-3.279300E+01	  0.095175721	2.222700E+01	  0.095175721	4.053000E+00	  0.095175721	3.232000E+01
437	  0.095371529	-3.276700E+01	  0.095371529	2.190200E+01	  0.095371529	4.026000E+00	  0.095371529	3.235000E+01
438	  0.095567331	-3.276200E+01	  0.095567331	2.156900E+01	  0.095567331	4.001000E+00	  0.095567331	3.237600E+01
439	  0.095763139	-3.280600E+01	  0.095763139	2.183000E+01	  0.095763139	3.972000E+00	  0.095763139	3.240100E+01
440	  0.095958941	-3.276700E+01	  0.095958941	2.108700E+01	  0.095958941	4.127000E+00	  0.095958941	3.267000E+01
441	  0.096154749	-3.277700E+01	  0.096154749	2.030100E+01	  0.096154749	4.103000E+00	  0.096154749	3.270300E+01
442	  0.096350558	-3.279700E+01	  0.096350558	2.033000E+01	  0.096350558	4.077000E+00	  0.096350558	3.273200E+01
443	  0.096546367	-3.274300E+01	  0.096546367	2.013300E+01	  0.096546367	4.048000E+00	  0.096546367	3.276500E+01
444	  0.096742168	-3.265300E+01	  0.096742168	2.022200E+01	  0.096742168	4.026000E+00	  0.096742168	3.278700E+01
445	  0.096937977	-3.273000E+01	  0.096937977	1.957900E+01	  0.096937977	4.181000E+00	  0.096937977	3.306100E+01
446	  0.097133778	-3.278100E+01	  0.097133778	1.997200E+01	  0.097133778	4.157000E+00	  0.097133778	3.309200E+01
447	  0.097329587	-3.267500E+01	  0.097329587	1.934600E+01	  0.097329587	4.131000E+00	  0.097329587	3.311800E+01
448	  0.097525395	-3.259000E+01	  0.097525395	1.931700E+01	  0.097525395	4.109000E+00	  0.097525395	3.314200E+01
449	  0.097721197	-3.270400E+01	  0.097721197	1.935200E+01	  0.097721197	4.081000E+00	  0.097721197	3.317100E+01
450	  0.097917013	-3.267100E+01	  0.097917013	1.903600E+01	  0.097917013	4.239000E+00	  0.097917013	3.344400E+01
451	  0.098112814	-3.266500E+01	  0.098112814	1.926200E+01	  0.098112814	4.220000E+00	  0.098112814	3.347200E+01
452	  0.098308623	-3.263300E+01	  0.098308623	1.864600E+01	  0.098308623	4.188000E+00	  0.098308623	3.351000E+01
453	  0.098504424	-3.265300E+01	  0.098504424	1.855900E+01	  0.098504424	4.163000E+00	  0.098504424	3.353600E+01
454	  0.098700233	-3.274700E+01	  0.098700233	1.884700E+01	  0.098700233	4.147000E+00	  0.098700233	3.356500E+01
455	  0.098896034	-3.269300E+01	  0.098896034	1.871900E+01	  0.098896034	4.124000E+00	  0.098896034	3.359100E+01
456	  0.099091843	-3.267500E+01	  0.099091843	1.827600E+01	  0.099091843	4.280000E+00	  0.099091843	3.386700E+01
457	  0.099287644	-3.266200E+01	  0.099287644	1.753800E+01	  0.099287644	4.254000E+00	  0.099287644	3.389700E+01
458	  0.099483460	-3.268900E+01	  0.099483460	1.754000E+01	  0.099483460	4.230000E+00	  0.099483460	3.392700E+01
459	  0.099679269	-3.267300E+01	  0.099679269	1.740700E+01	  0.099679269	4.206000E+00	  0.099679269	3.395400E+01
460	  0.099875070	-3.273800E+01	  0.099875070	1.703700E+01	  0.099875070	5.916000E+00	  0.099875070	3.371400E+01
461	  0.100070879	-3.259800E+01	  0.100070879	1.727400E+01	  0.100070879	6.077000E+00	  0.100070879	3.398400E+01
462	  0.100266680	-3.268000E+01	  0.100266680	1.703600E+01	  0.100266680	6.004000E+00	  0.100266680	3.400900E+01
463	  0.100462489	-3.265500E+01	  0.100462489	1.725400E+01	  0.100462489	6.035000E+00	  0.100462489	3.411400E+01
464	  0.100658290	-3.284900E+01	  0.100658290	1.742900E+01	  0.100658290	5.959000E+00	  0.100658290	3.413100E+01
465	  0.100854106	-3.269200E+01	  0.100854106	1.726900E+01	  0.100854106	5.904000E+00	  0.100854106	3.413300E+01
466	  0.101049908	-3.291000E+01	  0.101049908	1.792400E+01	  0.101049908	6.061000E+00	  0.101049908	3.442100E+01
467	  0.101245716	-3.280400E+01	  0.101245716	1.787300E+01	  0.101245716	6.076000E+00	  0.101245716	3.451700E+01
468	  0.101441517	-3.280800E+01	  0.101441517	1.576300E+01	  0.101441517	6.019000E+00	  0.101441517	3.453600E+01
469	  0.101637326	-3.275100E+01	  0.101637326	1.591100E+01	  0.101637326	5.954000E+00	  0.101637326	3.455000E+01
470	  0.101833127	-3.278500E+01	  0.101833127	1.608800E+01	  0.101833127	5.978000E+00	  0.101833127	3.464900E+01
471	  0.102028936	-3.281000E+01	  0.102028936	1.590500E+01	  0.102028936	6.131000E+00	  0.102028936	3.493400E+01
472	  0.102224737	-3.290500E+01	  0.102224737	1.678300E+01	  0.102224737	6.079000E+00	  0.102224737	3.495000E+01
473	  0.102420554	-3.286100E+01	  0.102420554	1.557200E+01	  0.102420554	6.016000E+00	  0.102420554	3.496900E+01
474	  0.102616362	-3.268400E+01	  0.102616362	1.553600E+01	  0.102616362	6.028000E+00	  0.102616362	3.505600E+01
475	  0.102812164	-3.270400E+01	  0.102812164	1.511400E+01	  0.102812164	5.978000E+00	  0.102812164	3.507000E+01
476	  0.103007972	-3.285000E+01	  0.103007972	1.559300E+01	  0.103007972	6.138000E+00	  0.103007972	3.536500E+01
477	  0.103203773	-3.293000E+01	  0.103203773	1.551400E+01	  0.103203773	6.087000E+00	  0.103203773	3.537300E+01
478	  0.103399582	-3.281000E+01	  0.103399582	1.444100E+01	  0.103399582	6.093000E+00	  0.103399582	3.548400E+01
479	  0.103595383	-3.281100E+01	  0.103595383	1.383700E+01	  0.103595383	6.037000E+00	  0.103595383	3.549000E+01
480	  0.103791192	-3.288100E+01	  0.103791192	1.313400E+01	  0.103791192	5.975000E+00	  0.103791192	3.551400E+01
481	  0.103987001	-3.287400E+01	  0.103987001	1.498100E+01	  0.103987001	6.143000E+00	  0.103987001	3.579300E+01
482	  0.104182810	-3.282100E+01	  0.104182810	1.488700E+01	  0.104182810	6.161000E+00	  0.104182810	3.590100E+01
483	  0.104378611	-3.293300E+01	  0.104378611	1.353700E+01	  0.104378611	6.093000E+00	  0.104378611	3.591000E+01
484	  0.104574420	-3.290000E+01	  0.104574420	1.375800E+01	  0.104574420	6.050000E+00	  0.104574420	3.591600E+01
485	  0.104770228	-3.285200E+01	  0.104770228	1.282000E+01	  0.104770228	6.053000E+00	  0.104770228	3.602600E+01
486	  0.104966030	-3.290600E+01	  0.104966030	1.307600E+01	  0.104966030	6.001000E+00	  0.104966030	3.603400E+01
487	  0.105161838	-3.280600E+01	  0.105161838	1.311000E+01	  0.105161838	6.163000E+00	  0.105161838	3.632900E+01
488	  0.105357639	-3.290900E+01	  0.105357639	1.215600E+01	  0.105357639	6.109000E+00	  0.105357639	3.633500E+01
489	  0.105553456	-3.292100E+01	  0.105553456	1.224200E+01	  0.105553456	6.128000E+00	  0.105553456	3.645500E+01
490	  0.105749257	-3.291100E+01	  0.105749257	1.198300E+01	  0.105749257	6.064000E+00	  0.105749257	3.646400E+01
491	  0.105945066	-3.284400E+01	  0.105945066	1.152900E+01	  0.105945066	5.996000E+00	  0.105945066	3.646100E+01
492	  0.106140867	-3.285300E+01	  0.106140867	1.259700E+01	  0.106140867	6.161000E+00	  0.106140867	3.676400E+01
493	  0.106336676	-3.291500E+01	  0.106336676	1.093400E+01	  0.106336676	6.177000E+00	  0.106336676	3.687400E+01
494	  0.106532477	-3.292700E+01	  0.106532477	1.059100E+01	  0.106532477	6.115000E+00	  0.106532477	3.688000E+01
495	  0.106728286	-3.282100E+01	  0.106728286	1.102300E+01	  0.106728286	6.045000E+00	  0.106728286	3.690200E+01
496	  0.106924094	-3.279600E+01	  0.106924094	1.033900E+01	  0.106924094	6.059000E+00	  0.106924094	3.700100E+01
497	  0.107119903	-3.277800E+01	  0.107119903	9.861000E+00	  0.107119903	6.216000E+00	  0.107119903	3.729800E+01
498	  0.107315712	-3.275200E+01	  0.107315712	9.491000E+00	  0.107315712	6.157000E+00	  0.107315712	3.731000E+01
499	  0.107511513	-3.280900E+01	  0.107511513	1.002400E+01	  0.107511513	6.078000E+00	  0.107511513	3.732100E+01
500	  0.107707322	-3.274200E+01	  0.107707322	1.028400E+01	  0.107707322	6.093000E+00	  0.107707322	3.742900E+01
501	  0.107903123	-3.277800E+01	  0.107903123	9.232000E+00	  0.107903123	6.033000E+00	  0.107903123	3.744300E+01
