! Anritsu VNA Master:             	Model: MS2036C/10/77
! SN:             	1601066
! /card0/usr/255.ew.sma_1.txt
! Existing Calibration Information:
! TYPE:             	Current Settings	Active Cal Settings
! TIME:             	12/17/2017 06:00:10 PM	12/17/2017 05:44:58 PM
! INTERNAL TEMP:    	44.0 C	43.8 C
! # POINTS:         	501	501
! START FREQ:       	10.000 MHz	10.000 MHz
! STOP FREQ:        	107.903 125 MHz	107.903 125 MHz
! SOURCE POWER:     	High	High
! IFBW:             	100 Hz	100 Hz
! AVG FACTOR:       	  1 	  1 
! REF PLANE 1:      	0 mm	0 mm
! REF PLANE 2:      	0 mm	0 mm
! CAL TYPE:         	Full S11	Full S11
! CAL METHOD:       	SOLT	SOLT
! CAL LINE TYPE:    	Coax	Coax
! DUT PORT 1:       	K-Conn(F)	K-Conn(F)
! DUT PORT 2:       	K-Conn(F)	K-Conn(F)
! CAL STATUS:       	OK: Accuracy High	--
! PROP-V:       	0.700
! CABLE LOSS:       	0.000 dB/m
! REF IMPEDANCE:       	50.0
! Trace Specific Parameters:	TR1	TR2	TR3	TR4
! TRACE.#.Y (GRAPH TYPE)	LOG MAG	PHASE	REAL IMPEDANCE	IMAGINARY IMPEDANCE
! TRACE.#.X 	FREQ.GHZ	FREQ.GHZ	FREQ.GHZ	FREQ.GHZ
! S-PARAMETER	S11	S11	S22	S22
! SMOOTH/APERTURE %	0	0	0	0
! WINDOW	NSL	NSL	NSL	NSL
! GATING	OFF	OFF	OFF	OFF
! FGTD	OFF	OFF	OFF	OFF
Marker Information per Trace:	TR1	TR2	TR3	TR4
!MK1	--	--	--	--
!MK2	--	--	--	--
!MK3	--	--	--	--
!MK4	--	--	--	--
!MK5	--	--	--	--
!MK6	--	--	--	--
!MK7	--	--	--	--
!MK8	--	--	--	--
PNT	TR1.FREQ.GHZ	TR1.LOG MAG.dB	TR2.FREQ.GHZ	TR2.PHASE.deg	TR3.FREQ.GHZ	TR3.REAL IMPEDANCE.ohm	TR4.FREQ.GHZ	TR4.IMAGINARY IMPEDANCE.ohm
1	  0.010000000	-7.340000E-01	  0.010000000	-5.835400E+01	  0.010000000	1.697000E+00	  0.010000000	3.369000E+00
2	  0.010195807	-7.230000E-01	  0.010195807	-5.951200E+01	  0.010195807	1.775000E+00	  0.010195807	3.593000E+00
3	  0.010391613	-7.310000E-01	  0.010391613	-6.071700E+01	  0.010391613	1.775000E+00	  0.010391613	3.658000E+00
4	  0.010587418	-7.420000E-01	  0.010587418	-6.195100E+01	  0.010587418	1.762000E+00	  0.010587418	3.731000E+00
5	  0.010783225	-7.510000E-01	  0.010783225	-6.319000E+01	  0.010783225	1.747000E+00	  0.010783225	3.793000E+00
6	  0.010979031	-7.570000E-01	  0.010979031	-6.442200E+01	  0.010979031	1.743000E+00	  0.010979031	3.850000E+00
7	  0.011174837	-7.620000E-01	  0.011174837	-6.564200E+01	  0.011174837	1.858000E+00	  0.011174837	4.090000E+00
8	  0.011370643	-7.680000E-01	  0.011370643	-6.689100E+01	  0.011370643	1.874000E+00	  0.011370643	4.136000E+00
9	  0.011566450	-7.790000E-01	  0.011566450	-6.807900E+01	  0.011566450	1.874000E+00	  0.011566450	4.192000E+00
10	  0.011762256	-7.870000E-01	  0.011762256	-6.930400E+01	  0.011762256	1.895000E+00	  0.011762256	4.237000E+00
11	  0.011958062	-7.970000E-01	  0.011958062	-7.052500E+01	  0.011958062	1.909000E+00	  0.011958062	4.278000E+00
12	  0.012153869	-8.060000E-01	  0.012153869	-7.177700E+01	  0.012153869	2.032000E+00	  0.012153869	4.502000E+00
13	  0.012349674	-8.090000E-01	  0.012349674	-7.300100E+01	  0.012349674	2.043000E+00	  0.012349674	4.548000E+00
14	  0.012545481	-8.180000E-01	  0.012545481	-7.427400E+01	  0.012545481	2.051000E+00	  0.012545481	4.588000E+00
15	  0.012741288	-8.270000E-01	  0.012741288	-7.550000E+01	  0.012741288	2.061000E+00	  0.012741288	4.634000E+00
16	  0.012937094	-8.330000E-01	  0.012937094	-7.673200E+01	  0.012937094	2.072000E+00	  0.012937094	4.665000E+00
17	  0.013132900	-8.430000E-01	  0.013132900	-7.799700E+01	  0.013132900	2.190000E+00	  0.013132900	4.883000E+00
18	  0.013328707	-8.530000E-01	  0.013328707	-7.922700E+01	  0.013328707	2.167000E+00	  0.013328707	4.922000E+00
19	  0.013524513	-8.580000E-01	  0.013524513	-8.047200E+01	  0.013524513	2.175000E+00	  0.013524513	4.964000E+00
20	  0.013720319	-8.650000E-01	  0.013720319	-8.168500E+01	  0.013720319	2.183000E+00	  0.013720319	4.997000E+00
21	  0.013916126	-8.760000E-01	  0.013916126	-8.294300E+01	  0.013916126	2.190000E+00	  0.013916126	5.032000E+00
22	  0.014111931	-8.900000E-01	  0.014111931	-8.422200E+01	  0.014111931	2.315000E+00	  0.014111931	5.256000E+00
23	  0.014307737	-9.020000E-01	  0.014307737	-8.544000E+01	  0.014307737	2.322000E+00	  0.014307737	5.290000E+00
24	  0.014503544	-9.130000E-01	  0.014503544	-8.672600E+01	  0.014503544	2.327000E+00	  0.014503544	5.327000E+00
25	  0.014699350	-9.250000E-01	  0.014699350	-8.798300E+01	  0.014699350	2.331000E+00	  0.014699350	5.363000E+00
26	  0.014895156	-9.400000E-01	  0.014895156	-8.925500E+01	  0.014895156	2.332000E+00	  0.014895156	5.395000E+00
27	  0.015090963	-9.510000E-01	  0.015090963	-9.055500E+01	  0.015090963	2.456000E+00	  0.015090963	5.609000E+00
28	  0.015286769	-9.590000E-01	  0.015286769	-9.179900E+01	  0.015286769	2.454000E+00	  0.015286769	5.648000E+00
29	  0.015482575	-9.640000E-01	  0.015482575	-9.306800E+01	  0.015482575	2.482000E+00	  0.015482575	5.662000E+00
30	  0.015678382	-9.720000E-01	  0.015678382	-9.434000E+01	  0.015678382	2.479000E+00	  0.015678382	5.699000E+00
31	  0.015874187	-9.810000E-01	  0.015874187	-9.559800E+01	  0.015874187	2.482000E+00	  0.015874187	5.731000E+00
32	  0.016069993	-9.900000E-01	  0.016069993	-9.687000E+01	  0.016069993	2.596000E+00	  0.016069993	5.949000E+00
33	  0.016265800	-9.980000E-01	  0.016265800	-9.815700E+01	  0.016265800	2.593000E+00	  0.016265800	5.987000E+00
34	  0.016461605	-1.010000E+00	  0.016461605	-9.946200E+01	  0.016461605	2.582000E+00	  0.016461605	6.027000E+00
35	  0.016657412	-1.016000E+00	  0.016657412	-1.007690E+02	  0.016657412	2.573000E+00	  0.016657412	6.065000E+00
36	  0.016853219	-1.021000E+00	  0.016853219	-1.020860E+02	  0.016853219	2.556000E+00	  0.016853219	6.105000E+00
37	  0.017049024	-1.033000E+00	  0.017049024	-1.034090E+02	  0.017049024	2.535000E+00	  0.017049024	6.145000E+00
38	  0.017244833	-1.043000E+00	  0.017244833	-1.047050E+02	  0.017244833	2.629000E+00	  0.017244833	6.362000E+00
39	  0.017440638	-1.057000E+00	  0.017440638	-1.059860E+02	  0.017440638	2.603000E+00	  0.017440638	6.404000E+00
40	  0.017636444	-1.072000E+00	  0.017636444	-1.072830E+02	  0.017636444	2.570000E+00	  0.017636444	6.450000E+00
41	  0.017832249	-1.090000E+00	  0.017832249	-1.085940E+02	  0.017832249	2.536000E+00	  0.017832249	6.487000E+00
42	  0.018028056	-1.099000E+00	  0.018028056	-1.099210E+02	  0.018028056	2.501000E+00	  0.018028056	6.534000E+00
43	  0.018223861	-1.114000E+00	  0.018223861	-1.112550E+02	  0.018223861	2.589000E+00	  0.018223861	6.758000E+00
44	  0.018419670	-1.127000E+00	  0.018419670	-1.125860E+02	  0.018419670	2.549000E+00	  0.018419670	6.799000E+00
45	  0.018615475	-1.136000E+00	  0.018615475	-1.139170E+02	  0.018615475	2.506000E+00	  0.018615475	6.849000E+00
46	  0.018811282	-1.147000E+00	  0.018811282	-1.152740E+02	  0.018811282	2.481000E+00	  0.018811282	6.885000E+00
47	  0.019007087	-1.158000E+00	  0.019007087	-1.166140E+02	  0.019007087	2.446000E+00	  0.019007087	6.921000E+00
48	  0.019202894	-1.173000E+00	  0.019202894	-1.179900E+02	  0.019202894	2.535000E+00	  0.019202894	7.142000E+00
49	  0.019398699	-1.187000E+00	  0.019398699	-1.193330E+02	  0.019398699	2.503000E+00	  0.019398699	7.184000E+00
50	  0.019594505	-1.198000E+00	  0.019594505	-1.207140E+02	  0.019594505	2.489000E+00	  0.019594505	7.220000E+00
51	  0.019790314	-1.210000E+00	  0.019790314	-1.221200E+02	  0.019790314	2.468000E+00	  0.019790314	7.256000E+00
52	  0.019986119	-1.220000E+00	  0.019986119	-1.234800E+02	  0.019986119	2.454000E+00	  0.019986119	7.295000E+00
53	  0.020181926	-1.228000E+00	  0.020181926	-1.248600E+02	  0.020181926	2.560000E+00	  0.020181926	7.507000E+00
54	  0.020377731	-1.240000E+00	  0.020377731	-1.262200E+02	  0.020377731	2.549000E+00	  0.020377731	7.542000E+00
55	  0.020573538	-1.251000E+00	  0.020573538	-1.275920E+02	  0.020573538	2.538000E+00	  0.020573538	7.578000E+00
56	  0.020769343	-1.265000E+00	  0.020769343	-1.290170E+02	  0.020769343	2.515000E+00	  0.020769343	7.608000E+00
57	  0.020965151	-1.282000E+00	  0.020965151	-1.304210E+02	  0.020965151	2.505000E+00	  0.020965151	7.641000E+00
58	  0.021160956	-1.301000E+00	  0.021160956	-1.318540E+02	  0.021160956	2.617000E+00	  0.021160956	7.857000E+00
59	  0.021356763	-1.317000E+00	  0.021356763	-1.332910E+02	  0.021356763	2.603000E+00	  0.021356763	7.888000E+00
60	  0.021552568	-1.330000E+00	  0.021552568	-1.347170E+02	  0.021552568	2.592000E+00	  0.021552568	7.917000E+00
61	  0.021748375	-1.345000E+00	  0.021748375	-1.361590E+02	  0.021748375	2.584000E+00	  0.021748375	7.947000E+00
62	  0.021944180	-1.359000E+00	  0.021944180	-1.376010E+02	  0.021944180	2.570000E+00	  0.021944180	7.976000E+00
63	  0.022139989	-1.375000E+00	  0.022139989	-1.390470E+02	  0.022139989	2.670000E+00	  0.022139989	8.185000E+00
64	  0.022335794	-1.391000E+00	  0.022335794	-1.405060E+02	  0.022335794	2.664000E+00	  0.022335794	8.218000E+00
65	  0.022531601	-1.409000E+00	  0.022531601	-1.419970E+02	  0.022531601	2.651000E+00	  0.022531601	8.247000E+00
66	  0.022727406	-1.422000E+00	  0.022727406	-1.434960E+02	  0.022727406	2.647000E+00	  0.022727406	8.272000E+00
67	  0.022923212	-1.436000E+00	  0.022923212	-1.449950E+02	  0.022923212	2.639000E+00	  0.022923212	8.298000E+00
68	  0.023119017	-1.449000E+00	  0.023119017	-1.464700E+02	  0.023119017	2.623000E+00	  0.023119017	8.327000E+00
69	  0.023314826	-1.461000E+00	  0.023314826	-1.479510E+02	  0.023314826	2.736000E+00	  0.023314826	8.540000E+00
70	  0.023510631	-1.475000E+00	  0.023510631	-1.494530E+02	  0.023510631	2.727000E+00	  0.023510631	8.565000E+00
71	  0.023706438	-1.492000E+00	  0.023706438	-1.509550E+02	  0.023706438	2.708000E+00	  0.023706438	8.591000E+00
72	  0.023902243	-1.512000E+00	  0.023902243	-1.524620E+02	  0.023902243	2.697000E+00	  0.023902243	8.614000E+00
73	  0.024098050	-1.532000E+00	  0.024098050	-1.539960E+02	  0.024098050	2.696000E+00	  0.024098050	8.641000E+00
74	  0.024293855	-1.551000E+00	  0.024293855	-1.555400E+02	  0.024293855	2.805000E+00	  0.024293855	8.845000E+00
75	  0.024489662	-1.572000E+00	  0.024489662	-1.570930E+02	  0.024489662	2.802000E+00	  0.024489662	8.867000E+00
76	  0.024685470	-1.593000E+00	  0.024685470	-1.586590E+02	  0.024685470	2.792000E+00	  0.024685470	8.889000E+00
77	  0.024881275	-1.614000E+00	  0.024881275	-1.602130E+02	  0.024881275	2.784000E+00	  0.024881275	8.912000E+00
78	  0.025077082	-1.634000E+00	  0.025077082	-1.617780E+02	  0.025077082	2.776000E+00	  0.025077082	8.935000E+00
79	  0.025272887	-1.655000E+00	  0.025272887	-1.633810E+02	  0.025272887	2.878000E+00	  0.025272887	9.140000E+00
80	  0.025468694	-1.681000E+00	  0.025468694	-1.649730E+02	  0.025468694	2.868000E+00	  0.025468694	9.161000E+00
81	  0.025664499	-1.706000E+00	  0.025664499	-1.665880E+02	  0.025664499	2.858000E+00	  0.025664499	9.183000E+00
82	  0.025860308	-1.730000E+00	  0.025860308	-1.682300E+02	  0.025860308	2.850000E+00	  0.025860308	9.198000E+00
83	  0.026056113	-1.750000E+00	  0.026056113	-1.698610E+02	  0.026056113	2.836000E+00	  0.026056113	9.219000E+00
84	  0.026251920	-1.774000E+00	  0.026251920	-1.715090E+02	  0.026251920	2.941000E+00	  0.026251920	9.422000E+00
85	  0.026447725	-1.798000E+00	  0.026447725	-1.731400E+02	  0.026447725	2.930000E+00	  0.026447725	9.438000E+00
86	  0.026643531	-1.822000E+00	  0.026643531	-1.747980E+02	  0.026643531	2.914000E+00	  0.026643531	9.459000E+00
87	  0.026839336	-1.847000E+00	  0.026839336	-1.764750E+02	  0.026839336	2.892000E+00	  0.026839336	9.477000E+00
88	  0.027035145	-1.874000E+00	  0.027035145	-1.781460E+02	  0.027035145	2.877000E+00	  0.027035145	9.495000E+00
89	  0.027230950	-1.902000E+00	  0.027230950	-1.798320E+02	  0.027230950	2.982000E+00	  0.027230950	9.693000E+00
90	  0.027426757	-1.929000E+00	  0.027426757	1.784670E+02	  0.027426757	2.960000E+00	  0.027426757	9.713000E+00
91	  0.027622562	-1.958000E+00	  0.027622562	1.767650E+02	  0.027622562	2.937000E+00	  0.027622562	9.732000E+00
92	  0.027818369	-1.986000E+00	  0.027818369	1.750390E+02	  0.027818369	2.914000E+00	  0.027818369	9.751000E+00
93	  0.028014174	-2.020000E+00	  0.028014174	1.733190E+02	  0.028014174	2.897000E+00	  0.028014174	9.763000E+00
94	  0.028209982	-2.051000E+00	  0.028209982	1.715830E+02	  0.028209982	3.005000E+00	  0.028209982	9.959000E+00
95	  0.028405787	-2.084000E+00	  0.028405787	1.698420E+02	  0.028405787	2.984000E+00	  0.028405787	9.975000E+00
96	  0.028601594	-2.115000E+00	  0.028601594	1.680950E+02	  0.028601594	2.966000E+00	  0.028601594	9.986000E+00
97	  0.028797399	-2.146000E+00	  0.028797399	1.663440E+02	  0.028797399	2.946000E+00	  0.028797399	1.000000E+01
98	  0.028993206	-2.177000E+00	  0.028993206	1.646190E+02	  0.028993206	2.919000E+00	  0.028993206	1.001300E+01
99	  0.029189013	-2.206000E+00	  0.029189013	1.628890E+02	  0.029189013	2.899000E+00	  0.029189013	1.002900E+01
100	  0.029384818	-2.241000E+00	  0.029384818	1.611470E+02	  0.029384818	3.000000E+00	  0.029384818	1.022300E+01
101	  0.029580627	-2.276000E+00	  0.029580627	1.593730E+02	  0.029580627	2.979000E+00	  0.029580627	1.024400E+01
102	  0.029776432	-2.315000E+00	  0.029776432	1.576150E+02	  0.029776432	2.962000E+00	  0.029776432	1.026300E+01
103	  0.029972238	-2.354000E+00	  0.029972238	1.558160E+02	  0.029972238	2.943000E+00	  0.029972238	1.028100E+01
104	  0.030168043	-2.392000E+00	  0.030168043	1.540050E+02	  0.030168043	2.922000E+00	  0.030168043	1.030700E+01
105	  0.030363850	-2.431000E+00	  0.030363850	1.521810E+02	  0.030363850	3.027000E+00	  0.030363850	1.051400E+01
106	  0.030559655	-2.472000E+00	  0.030559655	1.503690E+02	  0.030559655	3.002000E+00	  0.030559655	1.054300E+01
107	  0.030755464	-2.512000E+00	  0.030755464	1.485550E+02	  0.030755464	2.982000E+00	  0.030755464	1.056900E+01
108	  0.030951269	-2.554000E+00	  0.030951269	1.467220E+02	  0.030951269	2.958000E+00	  0.030951269	1.059700E+01
109	  0.031147076	-2.593000E+00	  0.031147076	1.449080E+02	  0.031147076	2.632000E+00	  0.031147076	1.060800E+01
110	  0.031342883	-2.639000E+00	  0.031342883	1.430500E+02	  0.031342883	2.740000E+00	  0.031342883	1.081600E+01
111	  0.031538688	-2.682000E+00	  0.031538688	1.411590E+02	  0.031538688	2.726000E+00	  0.031538688	1.084100E+01
112	  0.031734493	-2.722000E+00	  0.031734493	1.392740E+02	  0.031734493	2.717000E+00	  0.031734493	1.086400E+01
113	  0.031930301	-2.763000E+00	  0.031930301	1.373810E+02	  0.031930301	2.700000E+00	  0.031930301	1.088900E+01
114	  0.032126106	-2.800000E+00	  0.032126106	1.354770E+02	  0.032126106	2.693000E+00	  0.032126106	1.091300E+01
115	  0.032321911	-2.841000E+00	  0.032321911	1.336190E+02	  0.032321911	2.802000E+00	  0.032321911	1.112500E+01
116	  0.032517716	-2.877000E+00	  0.032517716	1.317440E+02	  0.032517716	2.789000E+00	  0.032517716	1.115200E+01
117	  0.032713525	-2.917000E+00	  0.032713525	1.298600E+02	  0.032713525	2.775000E+00	  0.032713525	1.117700E+01
118	  0.032909330	-2.955000E+00	  0.032909330	1.279880E+02	  0.032909330	2.757000E+00	  0.032909330	1.120400E+01
119	  0.033105139	-3.001000E+00	  0.033105139	1.261240E+02	  0.033105139	2.743000E+00	  0.033105139	1.122800E+01
120	  0.033300944	-3.046000E+00	  0.033300944	1.242250E+02	  0.033300944	2.847000E+00	  0.033300944	1.144300E+01
121	  0.033496749	-3.094000E+00	  0.033496749	1.223390E+02	  0.033496749	2.829000E+00	  0.033496749	1.146800E+01
122	  0.033692554	-3.144000E+00	  0.033692554	1.204130E+02	  0.033692554	2.807000E+00	  0.033692554	1.149500E+01
123	  0.033888362	-3.193000E+00	  0.033888362	1.184440E+02	  0.033888362	2.788000E+00	  0.033888362	1.152000E+01
124	  0.034084171	-3.233000E+00	  0.034084171	1.164470E+02	  0.034084171	2.767000E+00	  0.034084171	1.154300E+01
125	  0.034279976	-3.272000E+00	  0.034279976	1.144440E+02	  0.034279976	2.872000E+00	  0.034279976	1.175200E+01
126	  0.034475781	-3.311000E+00	  0.034475781	1.123920E+02	  0.034475781	2.846000E+00	  0.034475781	1.178100E+01
127	  0.034671586	-3.349000E+00	  0.034671586	1.103800E+02	  0.034671586	2.826000E+00	  0.034671586	1.180700E+01
128	  0.034867391	-3.376000E+00	  0.034867391	1.083560E+02	  0.034867391	2.806000E+00	  0.034867391	1.182900E+01
129	  0.035063203	-3.404000E+00	  0.035063203	1.063160E+02	  0.035063203	2.784000E+00	  0.035063203	1.185100E+01
130	  0.035259008	-3.428000E+00	  0.035259008	1.043230E+02	  0.035259008	2.753000E+00	  0.035259008	1.187900E+01
131	  0.035454813	-3.449000E+00	  0.035454813	1.023120E+02	  0.035454813	2.853000E+00	  0.035454813	1.209300E+01
132	  0.035650618	-3.468000E+00	  0.035650618	1.003250E+02	  0.035650618	2.830000E+00	  0.035650618	1.212100E+01
133	  0.035846427	-3.484000E+00	  0.035846427	9.831300E+01	  0.035846427	2.804000E+00	  0.035846427	1.214400E+01
134	  0.036042232	-3.493000E+00	  0.036042232	9.630600E+01	  0.036042232	2.774000E+00	  0.036042232	1.217800E+01
135	  0.036238037	-3.502000E+00	  0.036238037	9.432700E+01	  0.036238037	2.748000E+00	  0.036238037	1.220600E+01
136	  0.036433842	-3.505000E+00	  0.036433842	9.231600E+01	  0.036433842	2.845000E+00	  0.036433842	1.242300E+01
137	  0.036629651	-3.511000E+00	  0.036629651	9.026500E+01	  0.036629651	2.818000E+00	  0.036629651	1.245500E+01
138	  0.036825456	-3.511000E+00	  0.036825456	8.818900E+01	  0.036825456	2.790000E+00	  0.036825456	1.248500E+01
139	  0.037021261	-3.507000E+00	  0.037021261	8.599600E+01	  0.037021261	2.756000E+00	  0.037021261	1.251400E+01
140	  0.037217066	-3.496000E+00	  0.037217066	8.374000E+01	  0.037217066	2.728000E+00	  0.037217066	1.254600E+01
141	  0.037412878	-3.479000E+00	  0.037412878	8.130900E+01	  0.037412878	2.820000E+00	  0.037412878	1.276600E+01
142	  0.037608683	-3.468000E+00	  0.037608683	7.871200E+01	  0.037608683	2.795000E+00	  0.037608683	1.279100E+01
143	  0.037804488	-3.460000E+00	  0.037804488	7.592200E+01	  0.037804488	2.770000E+00	  0.037804488	1.281600E+01
144	  0.038000293	-3.475000E+00	  0.038000293	7.293600E+01	  0.038000293	2.741000E+00	  0.038000293	1.283900E+01
145	  0.038196102	-3.524000E+00	  0.038196102	6.983700E+01	  0.038196102	2.717000E+00	  0.038196102	1.286900E+01
146	  0.038391907	-3.614000E+00	  0.038391907	6.675100E+01	  0.038391907	2.814000E+00	  0.038391907	1.308500E+01
147	  0.038587712	-3.742000E+00	  0.038587712	6.378300E+01	  0.038587712	2.785000E+00	  0.038587712	1.311700E+01
148	  0.038783520	-3.892000E+00	  0.038783520	6.106100E+01	  0.038783520	2.761000E+00	  0.038783520	1.314500E+01
149	  0.038979325	-4.044000E+00	  0.038979325	5.864600E+01	  0.038979325	2.735000E+00	  0.038979325	1.318300E+01
150	  0.039175130	-4.202000E+00	  0.039175130	5.649700E+01	  0.039175130	2.710000E+00	  0.039175130	1.321200E+01
151	  0.039370935	-4.344000E+00	  0.039370935	5.449800E+01	  0.039370935	2.819000E+00	  0.039370935	1.343400E+01
152	  0.039566744	-4.474000E+00	  0.039566744	5.262400E+01	  0.039566744	2.793000E+00	  0.039566744	1.346300E+01
153	  0.039762549	-4.589000E+00	  0.039762549	5.077800E+01	  0.039762549	2.768000E+00	  0.039762549	1.349700E+01
154	  0.039958358	-4.697000E+00	  0.039958358	4.894200E+01	  0.039958358	2.746000E+00	  0.039958358	1.352800E+01
155	  0.040154163	-4.784000E+00	  0.040154163	4.708100E+01	  0.040154163	2.724000E+00	  0.040154163	1.355700E+01
156	  0.040349972	-4.871000E+00	  0.040349972	4.519900E+01	  0.040349972	2.835000E+00	  0.040349972	1.377500E+01
157	  0.040545776	-4.947000E+00	  0.040545776	4.333100E+01	  0.040545776	2.815000E+00	  0.040545776	1.380500E+01
158	  0.040741581	-5.011000E+00	  0.040741581	4.140600E+01	  0.040741581	2.788000E+00	  0.040741581	1.383300E+01
159	  0.040937386	-5.073000E+00	  0.040937386	3.949100E+01	  0.040937386	2.761000E+00	  0.040937386	1.386200E+01
160	  0.041133195	-5.131000E+00	  0.041133195	3.754700E+01	  0.041133195	2.740000E+00	  0.041133195	1.389000E+01
161	  0.041329000	-5.183000E+00	  0.041329000	3.560600E+01	  0.041329000	2.852000E+00	  0.041329000	1.411200E+01
162	  0.041524805	-5.232000E+00	  0.041524805	3.363300E+01	  0.041524805	2.828000E+00	  0.041524805	1.414300E+01
163	  0.041720610	-5.275000E+00	  0.041720610	3.164100E+01	  0.041720610	2.806000E+00	  0.041720610	1.417200E+01
164	  0.041916419	-5.319000E+00	  0.041916419	2.968700E+01	  0.041916419	2.785000E+00	  0.041916419	1.420000E+01
165	  0.042112224	-5.354000E+00	  0.042112224	2.771300E+01	  0.042112224	2.763000E+00	  0.042112224	1.422800E+01
166	  0.042308029	-5.393000E+00	  0.042308029	2.572000E+01	  0.042308029	2.742000E+00	  0.042308029	1.425700E+01
167	  0.042503837	-5.426000E+00	  0.042503837	2.379100E+01	  0.042503837	2.856000E+00	  0.042503837	1.447400E+01
168	  0.042699646	-5.464000E+00	  0.042699646	2.184500E+01	  0.042699646	2.833000E+00	  0.042699646	1.450200E+01
169	  0.042895451	-5.498000E+00	  0.042895451	1.987800E+01	  0.042895451	2.818000E+00	  0.042895451	1.452900E+01
170	  0.043091256	-5.530000E+00	  0.043091256	1.790800E+01	  0.043091256	2.797000E+00	  0.043091256	1.455400E+01
171	  0.043287061	-5.558000E+00	  0.043287061	1.593200E+01	  0.043287061	2.776000E+00	  0.043287061	1.458000E+01
172	  0.043482870	-5.589000E+00	  0.043482870	1.397500E+01	  0.043482870	2.888000E+00	  0.043482870	1.479400E+01
173	  0.043678675	-5.621000E+00	  0.043678675	1.202600E+01	  0.043678675	2.870000E+00	  0.043678675	1.482100E+01
174	  0.043874480	-5.652000E+00	  0.043874480	1.005800E+01	  0.043874480	2.852000E+00	  0.043874480	1.484600E+01
175	  0.044070289	-5.678000E+00	  0.044070289	8.107000E+00	  0.044070289	2.833000E+00	  0.044070289	1.486900E+01
176	  0.044266094	-5.705000E+00	  0.044266094	6.163000E+00	  0.044266094	2.809000E+00	  0.044266094	1.489200E+01
177	  0.044461899	-5.731000E+00	  0.044461899	4.212000E+00	  0.044461899	2.907000E+00	  0.044461899	1.511100E+01
178	  0.044657703	-5.754000E+00	  0.044657703	2.270000E+00	  0.044657703	2.887000E+00	  0.044657703	1.513900E+01
179	  0.044853516	-5.773000E+00	  0.044853516	3.570000E-01	  0.044853516	2.872000E+00	  0.044853516	1.516500E+01
180	  0.045049321	-5.791000E+00	  0.045049321	-1.583000E+00	  0.045049321	2.852000E+00	  0.045049321	1.519000E+01
181	  0.045245126	-5.809000E+00	  0.045245126	-3.498000E+00	  0.045245126	2.832000E+00	  0.045245126	1.521300E+01
182	  0.045440931	-5.830000E+00	  0.045440931	-5.395000E+00	  0.045440931	2.944000E+00	  0.045440931	1.542900E+01
183	  0.045636740	-5.843000E+00	  0.045636740	-7.261000E+00	  0.045636740	2.925000E+00	  0.045636740	1.545800E+01
184	  0.045832545	-5.861000E+00	  0.045832545	-9.117000E+00	  0.045832545	2.908000E+00	  0.045832545	1.548500E+01
185	  0.046028350	-5.876000E+00	  0.046028350	-1.098000E+01	  0.046028350	2.894000E+00	  0.046028350	1.550800E+01
186	  0.046224155	-5.894000E+00	  0.046224155	-1.286000E+01	  0.046224155	2.874000E+00	  0.046224155	1.553500E+01
187	  0.046419963	-5.910000E+00	  0.046419963	-1.473100E+01	  0.046419963	2.985000E+00	  0.046419963	1.575300E+01
188	  0.046615768	-5.917000E+00	  0.046615768	-1.655900E+01	  0.046615768	2.964000E+00	  0.046615768	1.577900E+01
189	  0.046811573	-5.931000E+00	  0.046811573	-1.841500E+01	  0.046811573	2.944000E+00	  0.046811573	1.580200E+01
190	  0.047007378	-5.942000E+00	  0.047007378	-2.025000E+01	  0.047007378	2.945000E+00	  0.047007378	1.582000E+01
191	  0.047203191	-5.954000E+00	  0.047203191	-2.206700E+01	  0.047203191	2.924000E+00	  0.047203191	1.584100E+01
192	  0.047398996	-5.957000E+00	  0.047398996	-2.387000E+01	  0.047398996	3.038000E+00	  0.047398996	1.606000E+01
193	  0.047594801	-5.969000E+00	  0.047594801	-2.564200E+01	  0.047594801	3.027000E+00	  0.047594801	1.608000E+01
194	  0.047790606	-5.976000E+00	  0.047790606	-2.740500E+01	  0.047790606	3.005000E+00	  0.047790606	1.610600E+01
195	  0.047986414	-5.983000E+00	  0.047986414	-2.914100E+01	  0.047986414	2.988000E+00	  0.047986414	1.613000E+01
196	  0.048182219	-5.993000E+00	  0.048182219	-3.089000E+01	  0.048182219	2.972000E+00	  0.048182219	1.614700E+01
197	  0.048378024	-6.000000E+00	  0.048378024	-3.262800E+01	  0.048378024	2.957000E+00	  0.048378024	1.616800E+01
198	  0.048573833	-6.011000E+00	  0.048573833	-3.436300E+01	  0.048573833	3.075000E+00	  0.048573833	1.638200E+01
199	  0.048769638	-6.013000E+00	  0.048769638	-3.605500E+01	  0.048769638	3.058000E+00	  0.048769638	1.640200E+01
200	  0.048965443	-6.022000E+00	  0.048965443	-3.780400E+01	  0.048965443	3.045000E+00	  0.048965443	1.642400E+01
201	  0.049161248	-6.024000E+00	  0.049161248	-3.949000E+01	  0.049161248	3.029000E+00	  0.049161248	1.644900E+01
202	  0.049357057	-6.031000E+00	  0.049357057	-4.115500E+01	  0.049357057	3.013000E+00	  0.049357057	1.646300E+01
203	  0.049552862	-6.037000E+00	  0.049552862	-4.284300E+01	  0.049552862	3.134000E+00	  0.049552862	1.667900E+01
204	  0.049748670	-6.042000E+00	  0.049748670	-4.452200E+01	  0.049748670	3.115000E+00	  0.049748670	1.670000E+01
205	  0.049944475	-6.048000E+00	  0.049944475	-4.617700E+01	  0.049944475	3.099000E+00	  0.049944475	1.672500E+01
206	  0.050140284	-6.052000E+00	  0.050140284	-4.786100E+01	  0.050140284	3.081000E+00	  0.050140284	1.674500E+01
207	  0.050336089	-6.049000E+00	  0.050336089	-4.952200E+01	  0.050336089	3.051000E+00	  0.050336089	1.676200E+01
208	  0.050531894	-6.053000E+00	  0.050531894	-5.116600E+01	  0.050531894	3.172000E+00	  0.050531894	1.697700E+01
209	  0.050727699	-6.045000E+00	  0.050727699	-5.280500E+01	  0.050727699	3.157000E+00	  0.050727699	1.699900E+01
210	  0.050923508	-6.047000E+00	  0.050923508	-5.437900E+01	  0.050923508	3.139000E+00	  0.050923508	1.702100E+01
211	  0.051119313	-6.043000E+00	  0.051119313	-5.601400E+01	  0.051119313	3.123000E+00	  0.051119313	1.703600E+01
212	  0.051315118	-6.040000E+00	  0.051315118	-5.755900E+01	  0.051315118	3.110000E+00	  0.051315118	1.705600E+01
213	  0.051510923	-6.041000E+00	  0.051510923	-5.907200E+01	  0.051510923	3.233000E+00	  0.051510923	1.726900E+01
214	  0.051706731	-6.037000E+00	  0.051706731	-6.059300E+01	  0.051706731	3.218000E+00	  0.051706731	1.728900E+01
215	  0.051902536	-6.041000E+00	  0.051902536	-6.212100E+01	  0.051902536	3.205000E+00	  0.051902536	1.730300E+01
216	  0.052098341	-6.039000E+00	  0.052098341	-6.363800E+01	  0.052098341	3.191000E+00	  0.052098341	1.731500E+01
217	  0.052294150	-6.039000E+00	  0.052294150	-6.517800E+01	  0.052294150	3.179000E+00	  0.052294150	1.732800E+01
218	  0.052489959	-6.045000E+00	  0.052489959	-6.670500E+01	  0.052489959	3.302000E+00	  0.052489959	1.753800E+01
219	  0.052685764	-6.045000E+00	  0.052685764	-6.820700E+01	  0.052685764	3.289000E+00	  0.052685764	1.755000E+01
220	  0.052881569	-6.046000E+00	  0.052881569	-6.971900E+01	  0.052881569	3.274000E+00	  0.052881569	1.756300E+01
221	  0.053077377	-6.046000E+00	  0.053077377	-7.124300E+01	  0.053077377	3.259000E+00	  0.053077377	1.757700E+01
222	  0.053273182	-6.045000E+00	  0.053273182	-7.271300E+01	  0.053273182	3.247000E+00	  0.053273182	1.758600E+01
223	  0.053468987	-6.038000E+00	  0.053468987	-7.424100E+01	  0.053468987	3.370000E+00	  0.053468987	1.779300E+01
224	  0.053664792	-6.035000E+00	  0.053664792	-7.572000E+01	  0.053664792	3.351000E+00	  0.053664792	1.780500E+01
225	  0.053860601	-6.024000E+00	  0.053860601	-7.721400E+01	  0.053860601	3.341000E+00	  0.053860601	1.781900E+01
226	  0.054056406	-6.018000E+00	  0.054056406	-7.863000E+01	  0.054056406	3.324000E+00	  0.054056406	1.783000E+01
227	  0.054252211	-6.008000E+00	  0.054252211	-8.009200E+01	  0.054252211	3.311000E+00	  0.054252211	1.784200E+01
228	  0.054448016	-6.004000E+00	  0.054448016	-8.147100E+01	  0.054448016	3.299000E+00	  0.054448016	1.785100E+01
229	  0.054643828	-5.994000E+00	  0.054643828	-8.287200E+01	  0.054643828	3.420000E+00	  0.054643828	1.805700E+01
230	  0.054839633	-5.992000E+00	  0.054839633	-8.422900E+01	  0.054839633	3.403000E+00	  0.054839633	1.807200E+01
231	  0.055035438	-5.986000E+00	  0.055035438	-8.559200E+01	  0.055035438	3.390000E+00	  0.055035438	1.808500E+01
232	  0.055231243	-5.982000E+00	  0.055231243	-8.692200E+01	  0.055231243	3.374000E+00	  0.055231243	1.809400E+01
233	  0.055427052	-5.977000E+00	  0.055427052	-8.826900E+01	  0.055427052	3.360000E+00	  0.055427052	1.810000E+01
234	  0.055622857	-5.972000E+00	  0.055622857	-8.963500E+01	  0.055622857	3.484000E+00	  0.055622857	1.831000E+01
235	  0.055818662	-5.967000E+00	  0.055818662	-9.095500E+01	  0.055818662	3.470000E+00	  0.055818662	1.831800E+01
236	  0.056014467	-5.966000E+00	  0.056014467	-9.227000E+01	  0.056014467	3.453000E+00	  0.056014467	1.833000E+01
237	  0.056210276	-5.963000E+00	  0.056210276	-9.361300E+01	  0.056210276	3.443000E+00	  0.056210276	1.833200E+01
238	  0.056406081	-5.959000E+00	  0.056406081	-9.492900E+01	  0.056406081	3.431000E+00	  0.056406081	1.833900E+01
239	  0.056601886	-5.952000E+00	  0.056601886	-9.623200E+01	  0.056601886	3.556000E+00	  0.056601886	1.853800E+01
240	  0.056797691	-5.946000E+00	  0.056797691	-9.755200E+01	  0.056797691	3.544000E+00	  0.056797691	1.855000E+01
241	  0.056993503	-5.942000E+00	  0.056993503	-9.888700E+01	  0.056993503	3.528000E+00	  0.056993503	1.855800E+01
242	  0.057189308	-5.936000E+00	  0.057189308	-1.001400E+02	  0.057189308	3.515000E+00	  0.057189308	1.856100E+01
243	  0.057385113	-5.919000E+00	  0.057385113	-1.014430E+02	  0.057385113	3.502000E+00	  0.057385113	1.856400E+01
244	  0.057580918	-5.914000E+00	  0.057580918	-1.026680E+02	  0.057580918	3.628000E+00	  0.057580918	1.876700E+01
245	  0.057776727	-5.909000E+00	  0.057776727	-1.039070E+02	  0.057776727	3.618000E+00	  0.057776727	1.877700E+01
246	  0.057972532	-5.901000E+00	  0.057972532	-1.051220E+02	  0.057972532	3.601000E+00	  0.057972532	1.877900E+01
247	  0.058168337	-5.893000E+00	  0.058168337	-1.063030E+02	  0.058168337	3.587000E+00	  0.058168337	1.879000E+01
248	  0.058364145	-5.889000E+00	  0.058364145	-1.075170E+02	  0.058364145	3.573000E+00	  0.058364145	1.879500E+01
249	  0.058559950	-5.883000E+00	  0.058559950	-1.086780E+02	  0.058559950	3.698000E+00	  0.058559950	1.900200E+01
250	  0.058755755	-5.881000E+00	  0.058755755	-1.098800E+02	  0.058755755	3.680000E+00	  0.058755755	1.900700E+01
251	  0.058951560	-5.880000E+00	  0.058951560	-1.110610E+02	  0.058951560	3.663000E+00	  0.058951560	1.902000E+01
252	  0.059147369	-5.877000E+00	  0.059147369	-1.122310E+02	  0.059147369	3.647000E+00	  0.059147369	1.903100E+01
253	  0.059343174	-5.874000E+00	  0.059343174	-1.134240E+02	  0.059343174	3.634000E+00	  0.059343174	1.904200E+01
254	  0.059538983	-5.873000E+00	  0.059538983	-1.146190E+02	  0.059538983	3.756000E+00	  0.059538983	1.925000E+01
255	  0.059734788	-5.865000E+00	  0.059734788	-1.157820E+02	  0.059734788	3.733000E+00	  0.059734788	1.926300E+01
256	  0.059930597	-5.865000E+00	  0.059930597	-1.169550E+02	  0.059930597	3.713000E+00	  0.059930597	1.927600E+01
257	  0.060126401	-5.860000E+00	  0.060126401	-1.181030E+02	  0.060126401	3.699000E+00	  0.060126401	1.929500E+01
258	  0.060322206	-5.855000E+00	  0.060322206	-1.192850E+02	  0.060322206	3.678000E+00	  0.060322206	1.931200E+01
259	  0.060518011	-5.853000E+00	  0.060518011	-1.204470E+02	  0.060518011	3.653000E+00	  0.060518011	1.933200E+01
260	  0.060713820	-5.851000E+00	  0.060713820	-1.215920E+02	  0.060713820	3.771000E+00	  0.060713820	1.955100E+01
261	  0.060909625	-5.843000E+00	  0.060909625	-1.227330E+02	  0.060909625	3.748000E+00	  0.060909625	1.957500E+01
262	  0.061105430	-5.839000E+00	  0.061105430	-1.238920E+02	  0.061105430	3.722000E+00	  0.061105430	1.959500E+01
263	  0.061301235	-5.835000E+00	  0.061301235	-1.250150E+02	  0.061301235	3.699000E+00	  0.061301235	1.962100E+01
264	  0.061497044	-5.826000E+00	  0.061497044	-1.261090E+02	  0.061497044	3.688000E+00	  0.061497044	1.964500E+01
265	  0.061692849	-5.826000E+00	  0.061692849	-1.272200E+02	  0.061692849	3.806000E+00	  0.061692849	1.986700E+01
266	  0.061888654	-5.818000E+00	  0.061888654	-1.282960E+02	  0.061888654	3.782000E+00	  0.061888654	1.988600E+01
267	  0.062084462	-5.814000E+00	  0.062084462	-1.293690E+02	  0.062084462	3.756000E+00	  0.062084462	1.991500E+01
268	  0.062280271	-5.811000E+00	  0.062280271	-1.304560E+02	  0.062280271	3.733000E+00	  0.062280271	1.993700E+01
269	  0.062476076	-5.803000E+00	  0.062476076	-1.315090E+02	  0.062476076	3.623000E+00	  0.062476076	1.986300E+01
270	  0.062671877	-5.804000E+00	  0.062671877	-1.325590E+02	  0.062671877	3.746000E+00	  0.062671877	2.009100E+01
271	  0.062867686	-5.802000E+00	  0.062867686	-1.336450E+02	  0.062867686	3.724000E+00	  0.062867686	2.011700E+01
272	  0.063063495	-5.797000E+00	  0.063063495	-1.347090E+02	  0.063063495	3.710000E+00	  0.063063495	2.014700E+01
273	  0.063259304	-5.794000E+00	  0.063259304	-1.358270E+02	  0.063259304	3.689000E+00	  0.063259304	2.016600E+01
274	  0.063455105	-5.791000E+00	  0.063455105	-1.369140E+02	  0.063455105	3.670000E+00	  0.063455105	2.019700E+01
275	  0.063650914	-5.789000E+00	  0.063650914	-1.379730E+02	  0.063650914	3.787000E+00	  0.063650914	2.041400E+01
276	  0.063846722	-5.785000E+00	  0.063846722	-1.390550E+02	  0.063846722	3.767000E+00	  0.063846722	2.044100E+01
277	  0.064042524	-5.787000E+00	  0.064042524	-1.401100E+02	  0.064042524	3.749000E+00	  0.064042524	2.046700E+01
278	  0.064238332	-5.783000E+00	  0.064238332	-1.411760E+02	  0.064238332	3.726000E+00	  0.064238332	2.049900E+01
279	  0.064434141	-5.780000E+00	  0.064434141	-1.422320E+02	  0.064434141	3.705000E+00	  0.064434141	2.052300E+01
280	  0.064629942	-5.774000E+00	  0.064629942	-1.432700E+02	  0.064629942	3.830000E+00	  0.064629942	2.075700E+01
281	  0.064825751	-5.775000E+00	  0.064825751	-1.443140E+02	  0.064825751	3.797000E+00	  0.064825751	2.078500E+01
282	  0.065021552	-5.771000E+00	  0.065021552	-1.453160E+02	  0.065021552	3.778000E+00	  0.065021552	2.081500E+01
283	  0.065217361	-5.764000E+00	  0.065217361	-1.462880E+02	  0.065217361	3.760000E+00	  0.065217361	2.084900E+01
284	  0.065413170	-5.760000E+00	  0.065413170	-1.472930E+02	  0.065413170	3.739000E+00	  0.065413170	2.087500E+01
285	  0.065608978	-5.763000E+00	  0.065608978	-1.483290E+02	  0.065608978	3.858000E+00	  0.065608978	2.111100E+01
286	  0.065804780	-5.762000E+00	  0.065804780	-1.493190E+02	  0.065804780	3.837000E+00	  0.065804780	2.114100E+01
287	  0.066000588	-5.760000E+00	  0.066000588	-1.503050E+02	  0.066000588	3.815000E+00	  0.066000588	2.116900E+01
288	  0.066196397	-5.763000E+00	  0.066196397	-1.513350E+02	  0.066196397	3.793000E+00	  0.066196397	2.120000E+01
289	  0.066392198	-5.759000E+00	  0.066392198	-1.523130E+02	  0.066392198	3.774000E+00	  0.066392198	2.122700E+01
290	  0.066588007	-5.763000E+00	  0.066588007	-1.532840E+02	  0.066588007	3.896000E+00	  0.066588007	2.146600E+01
291	  0.066783816	-5.763000E+00	  0.066783816	-1.542730E+02	  0.066783816	3.871000E+00	  0.066783816	2.149200E+01
292	  0.066979617	-5.760000E+00	  0.066979617	-1.552420E+02	  0.066979617	3.855000E+00	  0.066979617	2.152100E+01
293	  0.067175426	-5.763000E+00	  0.067175426	-1.562210E+02	  0.067175426	3.827000E+00	  0.067175426	2.155200E+01
294	  0.067371234	-5.766000E+00	  0.067371234	-1.572290E+02	  0.067371234	3.811000E+00	  0.067371234	2.158300E+01
295	  0.067567036	-5.764000E+00	  0.067567036	-1.581720E+02	  0.067567036	3.787000E+00	  0.067567036	2.160600E+01
296	  0.067762844	-5.766000E+00	  0.067762844	-1.591110E+02	  0.067762844	3.909000E+00	  0.067762844	2.184400E+01
297	  0.067958646	-5.768000E+00	  0.067958646	-1.600840E+02	  0.067958646	3.888000E+00	  0.067958646	2.187600E+01
298	  0.068154462	-5.768000E+00	  0.068154462	-1.610520E+02	  0.068154462	3.870000E+00	  0.068154462	2.189900E+01
299	  0.068350263	-5.772000E+00	  0.068350263	-1.619770E+02	  0.068350263	3.842000E+00	  0.068350263	2.192900E+01
300	  0.068546072	-5.771000E+00	  0.068546072	-1.628910E+02	  0.068546072	3.827000E+00	  0.068546072	2.195600E+01
301	  0.068741873	-5.775000E+00	  0.068741873	-1.638270E+02	  0.068741873	3.951000E+00	  0.068741873	2.218800E+01
302	  0.068937682	-5.775000E+00	  0.068937682	-1.647600E+02	  0.068937682	3.927000E+00	  0.068937682	2.222300E+01
303	  0.069133483	-5.779000E+00	  0.069133483	-1.657020E+02	  0.069133483	3.907000E+00	  0.069133483	2.225000E+01
304	  0.069329299	-5.782000E+00	  0.069329299	-1.666170E+02	  0.069329299	3.883000E+00	  0.069329299	2.227200E+01
305	  0.069525100	-5.786000E+00	  0.069525100	-1.675320E+02	  0.069525100	3.859000E+00	  0.069525100	2.230500E+01
306	  0.069720909	-5.786000E+00	  0.069720909	-1.684540E+02	  0.069720909	3.993000E+00	  0.069720909	2.253500E+01
307	  0.069916710	-5.793000E+00	  0.069916710	-1.693720E+02	  0.069916710	3.967000E+00	  0.069916710	2.256900E+01
308	  0.070112519	-5.800000E+00	  0.070112519	-1.702570E+02	  0.070112519	3.937000E+00	  0.070112519	2.259400E+01
309	  0.070308320	-5.798000E+00	  0.070308320	-1.711910E+02	  0.070308320	3.917000E+00	  0.070308320	2.262000E+01
310	  0.070504129	-5.807000E+00	  0.070504129	-1.720870E+02	  0.070504129	3.894000E+00	  0.070504129	2.265100E+01
311	  0.070699938	-5.805000E+00	  0.070699938	-1.730260E+02	  0.070699938	4.019000E+00	  0.070699938	2.289000E+01
312	  0.070895746	-5.814000E+00	  0.070895746	-1.739450E+02	  0.070895746	3.998000E+00	  0.070895746	2.292400E+01
313	  0.071091555	-5.821000E+00	  0.071091555	-1.748470E+02	  0.071091555	3.970000E+00	  0.071091555	2.295200E+01
314	  0.071287356	-5.827000E+00	  0.071287356	-1.757240E+02	  0.071287356	3.948000E+00	  0.071287356	2.298400E+01
315	  0.071483165	-5.833000E+00	  0.071483165	-1.766580E+02	  0.071483165	3.920000E+00	  0.071483165	2.301700E+01
316	  0.071678966	-5.842000E+00	  0.071678966	-1.775160E+02	  0.071678966	4.048000E+00	  0.071678966	2.325700E+01
317	  0.071874775	-5.845000E+00	  0.071874775	-1.784200E+02	  0.071874775	4.015000E+00	  0.071874775	2.328500E+01
318	  0.072070576	-5.856000E+00	  0.072070576	-1.793170E+02	  0.072070576	3.989000E+00	  0.072070576	2.332700E+01
319	  0.072266392	-5.859000E+00	  0.072266392	1.797880E+02	  0.072266392	3.964000E+00	  0.072266392	2.335600E+01
320	  0.072462194	-5.869000E+00	  0.072462194	1.789070E+02	  0.072462194	3.900000E+00	  0.072462194	2.339700E+01
321	  0.072658002	-5.872000E+00	  0.072658002	1.780190E+02	  0.072658002	4.020000E+00	  0.072658002	2.364200E+01
322	  0.072853811	-5.879000E+00	  0.072853811	1.771320E+02	  0.072853811	3.988000E+00	  0.072853811	2.367900E+01
323	  0.073049612	-5.890000E+00	  0.073049612	1.762670E+02	  0.073049612	3.956000E+00	  0.073049612	2.371400E+01
324	  0.073245421	-5.897000E+00	  0.073245421	1.753760E+02	  0.073245421	3.930000E+00	  0.073245421	2.374700E+01
325	  0.073441222	-5.902000E+00	  0.073441222	1.745330E+02	  0.073441222	3.902000E+00	  0.073441222	2.378300E+01
326	  0.073637031	-5.909000E+00	  0.073637031	1.736800E+02	  0.073637031	3.870000E+00	  0.073637031	2.382000E+01
327	  0.073832840	-5.916000E+00	  0.073832840	1.727890E+02	  0.073832840	3.995000E+00	  0.073832840	2.406200E+01
328	  0.074028648	-5.923000E+00	  0.074028648	1.719360E+02	  0.074028648	3.961000E+00	  0.074028648	2.410700E+01
329	  0.074224450	-5.932000E+00	  0.074224450	1.710850E+02	  0.074224450	3.930000E+00	  0.074224450	2.414300E+01
330	  0.074420258	-5.939000E+00	  0.074420258	1.702310E+02	  0.074420258	3.898000E+00	  0.074420258	2.417000E+01
331	  0.074616060	-5.949000E+00	  0.074616060	1.693660E+02	  0.074616060	3.866000E+00	  0.074616060	2.421000E+01
332	  0.074811868	-5.955000E+00	  0.074811868	1.685100E+02	  0.074811868	3.986000E+00	  0.074811868	2.446100E+01
333	  0.075007670	-5.967000E+00	  0.075007670	1.677000E+02	  0.075007670	3.957000E+00	  0.075007670	2.449800E+01
334	  0.075203478	-5.978000E+00	  0.075203478	1.668500E+02	  0.075203478	3.922000E+00	  0.075203478	2.453300E+01
335	  0.075399294	-5.986000E+00	  0.075399294	1.660340E+02	  0.075399294	3.897000E+00	  0.075399294	2.456300E+01
336	  0.075595096	-5.999000E+00	  0.075595096	1.652500E+02	  0.075595096	3.872000E+00	  0.075595096	2.459600E+01
337	  0.075790904	-6.008000E+00	  0.075790904	1.644370E+02	  0.075790904	3.996000E+00	  0.075790904	2.484300E+01
338	  0.075986706	-6.018000E+00	  0.075986706	1.635910E+02	  0.075986706	3.969000E+00	  0.075986706	2.487300E+01
339	  0.076182514	-6.030000E+00	  0.076182514	1.627710E+02	  0.076182514	3.943000E+00	  0.076182514	2.490600E+01
340	  0.076378316	-6.038000E+00	  0.076378316	1.619550E+02	  0.076378316	3.915000E+00	  0.076378316	2.493900E+01
341	  0.076574124	-6.052000E+00	  0.076574124	1.611300E+02	  0.076574124	3.884000E+00	  0.076574124	2.497600E+01
342	  0.076769926	-6.060000E+00	  0.076769926	1.603080E+02	  0.076769926	4.010000E+00	  0.076769926	2.522300E+01
343	  0.076965742	-6.072000E+00	  0.076965742	1.595050E+02	  0.076965742	3.981000E+00	  0.076965742	2.526200E+01
344	  0.077161543	-6.078000E+00	  0.077161543	1.587040E+02	  0.077161543	3.947000E+00	  0.077161543	2.529300E+01
345	  0.077357352	-6.086000E+00	  0.077357352	1.579370E+02	  0.077357352	3.909000E+00	  0.077357352	2.533300E+01
346	  0.077553153	-6.099000E+00	  0.077553153	1.571070E+02	  0.077553153	3.872000E+00	  0.077553153	2.536900E+01
347	  0.077748962	-6.116000E+00	  0.077748962	1.563440E+02	  0.077748962	3.995000E+00	  0.077748962	2.562200E+01
348	  0.077944770	-6.130000E+00	  0.077944770	1.555450E+02	  0.077944770	3.958000E+00	  0.077944770	2.566100E+01
349	  0.078140572	-6.142000E+00	  0.078140572	1.547670E+02	  0.078140572	3.921000E+00	  0.078140572	2.570100E+01
350	  0.078336388	-6.156000E+00	  0.078336388	1.539580E+02	  0.078336388	3.888000E+00	  0.078336388	2.573600E+01
351	  0.078532189	-6.172000E+00	  0.078532189	1.531590E+02	  0.078532189	3.854000E+00	  0.078532189	2.577100E+01
352	  0.078727998	-6.185000E+00	  0.078727998	1.523860E+02	  0.078727998	3.980000E+00	  0.078727998	2.602800E+01
353	  0.078923799	-6.200000E+00	  0.078923799	1.516020E+02	  0.078923799	3.944000E+00	  0.078923799	2.605800E+01
354	  0.079119608	-6.214000E+00	  0.079119608	1.508200E+02	  0.079119608	3.910000E+00	  0.079119608	2.609900E+01
355	  0.079315409	-6.234000E+00	  0.079315409	1.500250E+02	  0.079315409	3.871000E+00	  0.079315409	2.613600E+01
356	  0.079511218	-6.248000E+00	  0.079511218	1.492660E+02	  0.079511218	3.837000E+00	  0.079511218	2.616900E+01
357	  0.079707019	-6.261000E+00	  0.079707019	1.484470E+02	  0.079707019	3.800000E+00	  0.079707019	2.620300E+01
358	  0.079902835	-6.273000E+00	  0.079902835	1.476420E+02	  0.079902835	3.924000E+00	  0.079902835	2.646000E+01
359	  0.080098644	-6.291000E+00	  0.080098644	1.468680E+02	  0.080098644	3.893000E+00	  0.080098644	2.649200E+01
360	  0.080294445	-6.299000E+00	  0.080294445	1.460850E+02	  0.080294445	3.854000E+00	  0.080294445	2.652600E+01
361	  0.080490254	-6.317000E+00	  0.080490254	1.453050E+02	  0.080490254	3.822000E+00	  0.080490254	2.655900E+01
362	  0.080686055	-6.340000E+00	  0.080686055	1.444990E+02	  0.080686055	3.792000E+00	  0.080686055	2.659100E+01
363	  0.080881864	-6.351000E+00	  0.080881864	1.437230E+02	  0.080881864	3.920000E+00	  0.080881864	2.684600E+01
364	  0.081077665	-6.362000E+00	  0.081077665	1.429630E+02	  0.081077665	3.887000E+00	  0.081077665	2.688100E+01
365	  0.081273474	-6.380000E+00	  0.081273474	1.421600E+02	  0.081273474	3.855000E+00	  0.081273474	2.691700E+01
366	  0.081469283	-6.394000E+00	  0.081469283	1.414070E+02	  0.081469283	3.823000E+00	  0.081469283	2.694800E+01
367	  0.081665091	-6.414000E+00	  0.081665091	1.406340E+02	  0.081665091	3.791000E+00	  0.081665091	2.698000E+01
368	  0.081860892	-6.424000E+00	  0.081860892	1.398910E+02	  0.081860892	3.919000E+00	  0.081860892	2.723200E+01
369	  0.082056701	-6.441000E+00	  0.082056701	1.391820E+02	  0.082056701	3.888000E+00	  0.082056701	2.726700E+01
370	  0.082252502	-6.457000E+00	  0.082252502	1.384140E+02	  0.082252502	3.857000E+00	  0.082252502	2.730200E+01
371	  0.082448311	-6.475000E+00	  0.082448311	1.376780E+02	  0.082448311	3.811000E+00	  0.082448311	2.733400E+01
372	  0.082644112	-6.494000E+00	  0.082644112	1.369030E+02	  0.082644112	3.772000E+00	  0.082644112	2.736500E+01
373	  0.082839929	-6.513000E+00	  0.082839929	1.362230E+02	  0.082839929	3.906000E+00	  0.082839929	2.762200E+01
374	  0.083035737	-6.534000E+00	  0.083035737	1.354550E+02	  0.083035737	3.870000E+00	  0.083035737	2.765600E+01
375	  0.083231539	-6.555000E+00	  0.083231539	1.346730E+02	  0.083231539	3.834000E+00	  0.083231539	2.769400E+01
376	  0.083427347	-6.575000E+00	  0.083427347	1.339280E+02	  0.083427347	3.801000E+00	  0.083427347	2.772200E+01
377	  0.083623149	-6.591000E+00	  0.083623149	1.332320E+02	  0.083623149	3.763000E+00	  0.083623149	2.775200E+01
378	  0.083818957	-6.616000E+00	  0.083818957	1.324540E+02	  0.083818957	3.895000E+00	  0.083818957	2.801100E+01
379	  0.084014758	-6.631000E+00	  0.084014758	1.317380E+02	  0.084014758	3.862000E+00	  0.084014758	2.804600E+01
380	  0.084210567	-6.652000E+00	  0.084210567	1.310370E+02	  0.084210567	3.829000E+00	  0.084210567	2.807800E+01
381	  0.084406376	-6.670000E+00	  0.084406376	1.303470E+02	  0.084406376	3.798000E+00	  0.084406376	2.810600E+01
382	  0.084602185	-6.689000E+00	  0.084602185	1.296150E+02	  0.084602185	3.764000E+00	  0.084602185	2.814100E+01
383	  0.084797986	-6.714000E+00	  0.084797986	1.289420E+02	  0.084797986	3.897000E+00	  0.084797986	2.839700E+01
384	  0.084993795	-6.734000E+00	  0.084993795	1.282090E+02	  0.084993795	3.864000E+00	  0.084993795	2.842900E+01
385	  0.085189603	-6.756000E+00	  0.085189603	1.275510E+02	  0.085189603	3.837000E+00	  0.085189603	2.845600E+01
386	  0.085385405	-6.782000E+00	  0.085385405	1.268850E+02	  0.085385405	3.801000E+00	  0.085385405	2.848700E+01
387	  0.085581213	-6.812000E+00	  0.085581213	1.261970E+02	  0.085581213	3.770000E+00	  0.085581213	2.851600E+01
388	  0.085777014	-6.835000E+00	  0.085777014	1.255110E+02	  0.085777014	3.912000E+00	  0.085777014	2.877600E+01
389	  0.085972831	-6.860000E+00	  0.085972831	1.248730E+02	  0.085972831	3.879000E+00	  0.085972831	2.880900E+01
390	  0.086168632	-6.883000E+00	  0.086168632	1.241740E+02	  0.086168632	3.850000E+00	  0.086168632	2.884200E+01
391	  0.086364441	-6.910000E+00	  0.086364441	1.235430E+02	  0.086364441	3.823000E+00	  0.086364441	2.886600E+01
392	  0.086560242	-6.939000E+00	  0.086560242	1.228180E+02	  0.086560242	3.795000E+00	  0.086560242	2.890000E+01
393	  0.086756051	-6.970000E+00	  0.086756051	1.221900E+02	  0.086756051	3.768000E+00	  0.086756051	2.893000E+01
394	  0.086951852	-6.995000E+00	  0.086951852	1.214850E+02	  0.086951852	3.903000E+00	  0.086951852	2.918600E+01
395	  0.087147661	-7.021000E+00	  0.087147661	1.208610E+02	  0.087147661	3.872000E+00	  0.087147661	2.921800E+01
396	  0.087343477	-7.052000E+00	  0.087343477	1.201710E+02	  0.087343477	3.837000E+00	  0.087343477	2.924500E+01
397	  0.087539278	-7.074000E+00	  0.087539278	1.195340E+02	  0.087539278	3.812000E+00	  0.087539278	2.928000E+01
398	  0.087735087	-7.105000E+00	  0.087735087	1.189050E+02	  0.087735087	3.780000E+00	  0.087735087	2.930200E+01
399	  0.087930888	-7.137000E+00	  0.087930888	1.182640E+02	  0.087930888	3.923000E+00	  0.087930888	2.956700E+01
400	  0.088126697	-7.162000E+00	  0.088126697	1.176630E+02	  0.088126697	3.889000E+00	  0.088126697	2.960200E+01
401	  0.088322498	-7.188000E+00	  0.088322498	1.170440E+02	  0.088322498	3.863000E+00	  0.088322498	2.962900E+01
402	  0.088518307	-7.221000E+00	  0.088518307	1.164020E+02	  0.088518307	3.836000E+00	  0.088518307	2.966400E+01
403	  0.088714108	-7.251000E+00	  0.088714108	1.158030E+02	  0.088714108	3.806000E+00	  0.088714108	2.968200E+01
404	  0.088909924	-7.281000E+00	  0.088909924	1.152570E+02	  0.088909924	3.948000E+00	  0.088909924	2.994200E+01
405	  0.089105725	-7.315000E+00	  0.089105725	1.146400E+02	  0.089105725	3.913000E+00	  0.089105725	2.997900E+01
406	  0.089301534	-7.348000E+00	  0.089301534	1.140930E+02	  0.089301534	3.892000E+00	  0.089301534	3.000400E+01
407	  0.089497335	-7.386000E+00	  0.089497335	1.135310E+02	  0.089497335	3.854000E+00	  0.089497335	3.003700E+01
408	  0.089693144	-7.421000E+00	  0.089693144	1.129800E+02	  0.089693144	3.836000E+00	  0.089693144	3.005900E+01
409	  0.089888945	-7.460000E+00	  0.089888945	1.123560E+02	  0.089888945	3.968000E+00	  0.089888945	3.032900E+01
410	  0.090084754	-7.492000E+00	  0.090084754	1.117980E+02	  0.090084754	3.947000E+00	  0.090084754	3.035600E+01
411	  0.090280563	-7.526000E+00	  0.090280563	1.112290E+02	  0.090280563	3.909000E+00	  0.090280563	3.039300E+01
412	  0.090476371	-7.568000E+00	  0.090476371	1.106860E+02	  0.090476371	3.886000E+00	  0.090476371	3.041200E+01
413	  0.090672180	-7.600000E+00	  0.090672180	1.101100E+02	  0.090672180	3.843000E+00	  0.090672180	3.044500E+01
414	  0.090867981	-7.638000E+00	  0.090867981	1.095990E+02	  0.090867981	3.997000E+00	  0.090867981	3.070900E+01
415	  0.091063790	-7.671000E+00	  0.091063790	1.090810E+02	  0.091063790	3.959000E+00	  0.091063790	3.074200E+01
416	  0.091259591	-7.707000E+00	  0.091259591	1.085530E+02	  0.091259591	3.931000E+00	  0.091259591	3.076900E+01
417	  0.091455400	-7.741000E+00	  0.091455400	1.080160E+02	  0.091455400	3.900000E+00	  0.091455400	3.080200E+01
418	  0.091651201	-7.780000E+00	  0.091651201	1.075360E+02	  0.091651201	3.863000E+00	  0.091651201	3.083500E+01
419	  0.091847017	-7.819000E+00	  0.091847017	1.070800E+02	  0.091847017	4.015000E+00	  0.091847017	3.109500E+01
420	  0.092042819	-7.850000E+00	  0.092042819	1.065860E+02	  0.092042819	3.973000E+00	  0.092042819	3.113900E+01
421	  0.092238627	-7.882000E+00	  0.092238627	1.061000E+02	  0.092238627	3.950000E+00	  0.092238627	3.115500E+01
422	  0.092434436	-7.914000E+00	  0.092434436	1.056340E+02	  0.092434436	3.907000E+00	  0.092434436	3.119300E+01
423	  0.092630237	-7.950000E+00	  0.092630237	1.052060E+02	  0.092630237	3.884000E+00	  0.092630237	3.121700E+01
424	  0.092826046	-7.992000E+00	  0.092826046	1.047250E+02	  0.092826046	3.848000E+00	  0.092826046	3.125400E+01
425	  0.093021847	-8.029000E+00	  0.093021847	1.043460E+02	  0.093021847	4.001000E+00	  0.093021847	3.151800E+01
426	  0.093217656	-8.065000E+00	  0.093217656	1.038730E+02	  0.093217656	3.961000E+00	  0.093217656	3.155100E+01
427	  0.093413465	-8.094000E+00	  0.093413465	1.034640E+02	  0.093413465	3.947000E+00	  0.093413465	3.157700E+01
428	  0.093609273	-8.126000E+00	  0.093609273	1.030220E+02	  0.093609273	3.902000E+00	  0.093609273	3.161200E+01
429	  0.093805075	-8.161000E+00	  0.093805075	1.025740E+02	  0.093805075	3.890000E+00	  0.093805075	3.163400E+01
430	  0.094000883	-8.186000E+00	  0.094000883	1.021110E+02	  0.094000883	4.025000E+00	  0.094000883	3.190600E+01
431	  0.094196685	-8.223000E+00	  0.094196685	1.017110E+02	  0.094196685	4.004000E+00	  0.094196685	3.193100E+01
432	  0.094392493	-8.254000E+00	  0.094392493	1.013120E+02	  0.094392493	3.972000E+00	  0.094392493	3.196700E+01
433	  0.094588295	-8.277000E+00	  0.094588295	1.009320E+02	  0.094588295	3.950000E+00	  0.094588295	3.199300E+01
434	  0.094784103	-8.307000E+00	  0.094784103	1.004930E+02	  0.094784103	3.929000E+00	  0.094784103	3.202300E+01
435	  0.094979919	-8.330000E+00	  0.094979919	1.000940E+02	  0.094979919	4.076000E+00	  0.094979919	3.228700E+01
436	  0.095175721	-8.351000E+00	  0.095175721	9.964000E+01	  0.095175721	4.050000E+00	  0.095175721	3.232200E+01
437	  0.095371529	-8.371000E+00	  0.095371529	9.924700E+01	  0.095371529	4.020000E+00	  0.095371529	3.234600E+01
438	  0.095567331	-8.395000E+00	  0.095567331	9.883000E+01	  0.095567331	3.998000E+00	  0.095567331	3.237900E+01
439	  0.095763139	-8.420000E+00	  0.095763139	9.847800E+01	  0.095763139	3.972000E+00	  0.095763139	3.240600E+01
440	  0.095958941	-8.444000E+00	  0.095958941	9.806400E+01	  0.095958941	4.125000E+00	  0.095958941	3.267200E+01
441	  0.096154749	-8.468000E+00	  0.096154749	9.769100E+01	  0.096154749	4.096000E+00	  0.096154749	3.270300E+01
442	  0.096350558	-8.491000E+00	  0.096350558	9.734400E+01	  0.096350558	4.070000E+00	  0.096350558	3.273000E+01
443	  0.096546367	-8.511000E+00	  0.096546367	9.688400E+01	  0.096546367	4.045000E+00	  0.096546367	3.276100E+01
444	  0.096742168	-8.533000E+00	  0.096742168	9.650200E+01	  0.096742168	4.024000E+00	  0.096742168	3.278700E+01
445	  0.096937977	-8.559000E+00	  0.096937977	9.613600E+01	  0.096937977	4.181000E+00	  0.096937977	3.306500E+01
446	  0.097133778	-8.575000E+00	  0.097133778	9.571100E+01	  0.097133778	4.156000E+00	  0.097133778	3.309200E+01
447	  0.097329587	-8.599000E+00	  0.097329587	9.535100E+01	  0.097329587	4.127000E+00	  0.097329587	3.311800E+01
448	  0.097525395	-8.619000E+00	  0.097525395	9.493100E+01	  0.097525395	4.104000E+00	  0.097525395	3.314500E+01
449	  0.097721197	-8.646000E+00	  0.097721197	9.457600E+01	  0.097721197	4.079000E+00	  0.097721197	3.317200E+01
450	  0.097917013	-8.666000E+00	  0.097917013	9.420200E+01	  0.097917013	4.234000E+00	  0.097917013	3.344700E+01
451	  0.098112814	-8.677000E+00	  0.098112814	9.378500E+01	  0.098112814	4.213000E+00	  0.098112814	3.347900E+01
452	  0.098308623	-8.697000E+00	  0.098308623	9.343400E+01	  0.098308623	4.185000E+00	  0.098308623	3.350900E+01
453	  0.098504424	-8.713000E+00	  0.098504424	9.307000E+01	  0.098504424	4.164000E+00	  0.098504424	3.353300E+01
454	  0.098700233	-8.728000E+00	  0.098700233	9.271700E+01	  0.098700233	4.143000E+00	  0.098700233	3.356800E+01
455	  0.098896034	-8.740000E+00	  0.098896034	9.233700E+01	  0.098896034	4.122000E+00	  0.098896034	3.359100E+01
456	  0.099091843	-8.758000E+00	  0.099091843	9.196600E+01	  0.099091843	4.278000E+00	  0.099091843	3.386400E+01
457	  0.099287644	-8.778000E+00	  0.099287644	9.160700E+01	  0.099287644	4.249000E+00	  0.099287644	3.389900E+01
458	  0.099483460	-8.797000E+00	  0.099483460	9.124700E+01	  0.099483460	4.226000E+00	  0.099483460	3.392600E+01
459	  0.099679269	-8.806000E+00	  0.099679269	9.092900E+01	  0.099679269	4.201000E+00	  0.099679269	3.395100E+01
460	  0.099875070	-8.818000E+00	  0.099875070	9.057600E+01	  0.099875070	5.910000E+00	  0.099875070	3.370700E+01
461	  0.100070879	-8.822000E+00	  0.100070879	9.024000E+01	  0.100070879	6.089000E+00	  0.100070879	3.399500E+01
462	  0.100266680	-8.841000E+00	  0.100266680	8.991400E+01	  0.100266680	6.009000E+00	  0.100266680	3.401100E+01
463	  0.100462489	-8.842000E+00	  0.100462489	8.955000E+01	  0.100462489	6.025000E+00	  0.100462489	3.410500E+01
464	  0.100658290	-8.853000E+00	  0.100658290	8.923500E+01	  0.100658290	5.961000E+00	  0.100658290	3.413100E+01
465	  0.100854106	-8.859000E+00	  0.100854106	8.884500E+01	  0.100854106	5.913000E+00	  0.100854106	3.413100E+01
466	  0.101049908	-8.872000E+00	  0.101049908	8.850500E+01	  0.101049908	6.067000E+00	  0.101049908	3.442300E+01
467	  0.101245716	-8.877000E+00	  0.101245716	8.816900E+01	  0.101245716	6.075000E+00	  0.101245716	3.452000E+01
468	  0.101441517	-8.893000E+00	  0.101441517	8.785100E+01	  0.101441517	6.019000E+00	  0.101441517	3.453200E+01
469	  0.101637326	-8.895000E+00	  0.101637326	8.747600E+01	  0.101637326	5.956000E+00	  0.101637326	3.455600E+01
470	  0.101833127	-8.885000E+00	  0.101833127	8.714900E+01	  0.101833127	5.972000E+00	  0.101833127	3.465500E+01
471	  0.102028936	-8.892000E+00	  0.102028936	8.677800E+01	  0.102028936	6.137000E+00	  0.102028936	3.494000E+01
472	  0.102224737	-8.885000E+00	  0.102224737	8.647800E+01	  0.102224737	6.069000E+00	  0.102224737	3.494900E+01
473	  0.102420554	-8.892000E+00	  0.102420554	8.612000E+01	  0.102420554	6.018000E+00	  0.102420554	3.496300E+01
474	  0.102616362	-8.893000E+00	  0.102616362	8.568800E+01	  0.102616362	6.026000E+00	  0.102616362	3.506700E+01
475	  0.102812164	-8.901000E+00	  0.102812164	8.541100E+01	  0.102812164	5.974000E+00	  0.102812164	3.507500E+01
476	  0.103007972	-8.896000E+00	  0.103007972	8.502000E+01	  0.103007972	6.132000E+00	  0.103007972	3.536900E+01
477	  0.103203773	-8.885000E+00	  0.103203773	8.472700E+01	  0.103203773	6.079000E+00	  0.103203773	3.537200E+01
478	  0.103399582	-8.888000E+00	  0.103399582	8.437800E+01	  0.103399582	6.098000E+00	  0.103399582	3.548400E+01
479	  0.103595383	-8.893000E+00	  0.103595383	8.398800E+01	  0.103595383	6.040000E+00	  0.103595383	3.548900E+01
480	  0.103791192	-8.895000E+00	  0.103791192	8.359800E+01	  0.103791192	5.971000E+00	  0.103791192	3.550700E+01
481	  0.103987001	-8.885000E+00	  0.103987001	8.325100E+01	  0.103987001	6.139000E+00	  0.103987001	3.579400E+01
482	  0.104182810	-8.868000E+00	  0.104182810	8.289900E+01	  0.104182810	6.165000E+00	  0.104182810	3.590200E+01
483	  0.104378611	-8.888000E+00	  0.104378611	8.252800E+01	  0.104378611	6.093000E+00	  0.104378611	3.591500E+01
484	  0.104574420	-8.869000E+00	  0.104574420	8.210400E+01	  0.104574420	6.044000E+00	  0.104574420	3.592300E+01
485	  0.104770228	-8.875000E+00	  0.104770228	8.172500E+01	  0.104770228	6.057000E+00	  0.104770228	3.602800E+01
486	  0.104966030	-8.866000E+00	  0.104966030	8.136700E+01	  0.104966030	6.002000E+00	  0.104966030	3.603200E+01
487	  0.105161838	-8.853000E+00	  0.105161838	8.095700E+01	  0.105161838	6.170000E+00	  0.105161838	3.632900E+01
488	  0.105357639	-8.852000E+00	  0.105357639	8.049500E+01	  0.105357639	6.108000E+00	  0.105357639	3.634100E+01
489	  0.105553456	-8.841000E+00	  0.105553456	8.011600E+01	  0.105553456	6.127000E+00	  0.105553456	3.644000E+01
490	  0.105749257	-8.824000E+00	  0.105749257	7.969000E+01	  0.105749257	6.056000E+00	  0.105749257	3.646300E+01
491	  0.105945066	-8.823000E+00	  0.105945066	7.922700E+01	  0.105945066	5.992000E+00	  0.105945066	3.646300E+01
492	  0.106140867	-8.804000E+00	  0.106140867	7.883600E+01	  0.106140867	6.155000E+00	  0.106140867	3.675900E+01
493	  0.106336676	-8.804000E+00	  0.106336676	7.842500E+01	  0.106336676	6.172000E+00	  0.106336676	3.687000E+01
494	  0.106532477	-8.788000E+00	  0.106532477	7.799000E+01	  0.106532477	6.108000E+00	  0.106532477	3.688100E+01
495	  0.106728286	-8.774000E+00	  0.106728286	7.746500E+01	  0.106728286	6.045000E+00	  0.106728286	3.689800E+01
496	  0.106924094	-8.766000E+00	  0.106924094	7.698100E+01	  0.106924094	6.047000E+00	  0.106924094	3.700300E+01
497	  0.107119903	-8.743000E+00	  0.107119903	7.653500E+01	  0.107119903	6.209000E+00	  0.107119903	3.729700E+01
498	  0.107315712	-8.729000E+00	  0.107315712	7.601900E+01	  0.107315712	6.162000E+00	  0.107315712	3.731600E+01
499	  0.107511513	-8.712000E+00	  0.107511513	7.557400E+01	  0.107511513	6.079000E+00	  0.107511513	3.732300E+01
500	  0.107707322	-8.691000E+00	  0.107707322	7.504200E+01	  0.107707322	6.088000E+00	  0.107707322	3.742300E+01
501	  0.107903123	-8.674000E+00	  0.107903123	7.458800E+01	  0.107903123	6.031000E+00	  0.107903123	3.743700E+01
