! Anritsu VNA Master:             	Model: MS2036C/10/77
! SN:             	1601066
! /card0/usr/255.ew.n.r50.1_1.txt
! Existing Calibration Information:
! TYPE:             	Current Settings	Active Cal Settings
! TIME:             	12/17/2017 06:44:54 PM	12/17/2017 06:38:14 PM
! INTERNAL TEMP:    	43.5 C	43.8 C
! # POINTS:         	501	501
! START FREQ:       	10.000 MHz	10.000 MHz
! STOP FREQ:        	107.903 125 MHz	107.903 125 MHz
! SOURCE POWER:     	High	High
! IFBW:             	100 Hz	100 Hz
! AVG FACTOR:       	  1 	  1 
! REF PLANE 1:      	0 mm	0 mm
! REF PLANE 2:      	0 mm	0 mm
! CAL TYPE:         	Full S11	Full S11
! CAL METHOD:       	SOLT	SOLT
! CAL LINE TYPE:    	Coax	Coax
! DUT PORT 1:       	N-Conn(F)	N-Conn(F)
! DUT PORT 2:       	K-Conn(F)	K-Conn(F)
! CAL STATUS:       	OK: Accuracy High	--
! PROP-V:       	0.700
! CABLE LOSS:       	0.000 dB/m
! REF IMPEDANCE:       	50.0
! Trace Specific Parameters:	TR1	TR2	TR3	TR4
! TRACE.#.Y (GRAPH TYPE)	LOG MAG	PHASE	REAL IMPEDANCE	IMAGINARY IMPEDANCE
! TRACE.#.X 	FREQ.GHZ	FREQ.GHZ	FREQ.GHZ	FREQ.GHZ
! S-PARAMETER	S11	S11	S11	S11
! SMOOTH/APERTURE %	0	0	0	0
! WINDOW	NSL	NSL	NSL	NSL
! GATING	OFF	OFF	OFF	OFF
! FGTD	OFF	OFF	OFF	OFF
Marker Information per Trace:	TR1	TR2	TR3	TR4
!MK1	--	--	--	--
!MK2	--	--	--	--
!MK3	--	--	--	--
!MK4	--	--	--	--
!MK5	--	--	--	--
!MK6	--	--	--	--
!MK7	--	--	--	--
!MK8	--	--	--	--
PNT	TR1.FREQ.GHZ	TR1.LOG MAG.dB	TR2.FREQ.GHZ	TR2.PHASE.deg	TR3.FREQ.GHZ	TR3.REAL IMPEDANCE.ohm	TR4.FREQ.GHZ	TR4.IMAGINARY IMPEDANCE.ohm
1	  0.010000000	-4.471400E+01	  0.010000000	6.203400E+01	  0.010000000	5.027000E+01	  0.010000000	5.160000E-01
2	  0.010195807	-4.437400E+01	  0.010195807	6.099100E+01	  0.010195807	5.029100E+01	  0.010195807	5.310000E-01
3	  0.010391613	-4.406000E+01	  0.010391613	6.044700E+01	  0.010391613	5.030700E+01	  0.010391613	5.480000E-01
4	  0.010587418	-4.406300E+01	  0.010587418	6.220500E+01	  0.010587418	5.028900E+01	  0.010587418	5.570000E-01
5	  0.010783225	-4.412300E+01	  0.010783225	6.224100E+01	  0.010783225	5.028700E+01	  0.010783225	5.530000E-01
6	  0.010979031	-4.399800E+01	  0.010979031	6.132100E+01	  0.010979031	5.030000E+01	  0.010979031	5.560000E-01
7	  0.011174837	-4.379200E+01	  0.011174837	6.146800E+01	  0.011174837	5.030600E+01	  0.011174837	5.710000E-01
8	  0.011370643	-4.380900E+01	  0.011370643	6.314600E+01	  0.011370643	5.028800E+01	  0.011370643	5.780000E-01
9	  0.011566450	-4.350500E+01	  0.011566450	6.237000E+01	  0.011566450	5.030700E+01	  0.011566450	5.950000E-01
10	  0.011762256	-4.348800E+01	  0.011762256	6.109800E+01	  0.011762256	5.032100E+01	  0.011762256	5.890000E-01
11	  0.011958062	-4.328400E+01	  0.011958062	6.346900E+01	  0.011958062	5.030300E+01	  0.011958062	6.160000E-01
12	  0.012153869	-4.312400E+01	  0.012153869	6.232300E+01	  0.012153869	5.032100E+01	  0.012153869	6.220000E-01
13	  0.012349674	-4.297100E+01	  0.012349674	6.308300E+01	  0.012349674	5.031800E+01	  0.012349674	6.370000E-01
14	  0.012545481	-4.313100E+01	  0.012545481	6.309500E+01	  0.012545481	5.031200E+01	  0.012545481	6.250000E-01
15	  0.012741288	-4.286200E+01	  0.012741288	6.286600E+01	  0.012741288	5.032400E+01	  0.012741288	6.440000E-01
16	  0.012937094	-4.300000E+01	  0.012937094	6.352700E+01	  0.012937094	5.031200E+01	  0.012937094	6.370000E-01
17	  0.013132900	-4.291700E+01	  0.013132900	6.203100E+01	  0.013132900	5.033200E+01	  0.013132900	6.350000E-01
18	  0.013328707	-4.287800E+01	  0.013328707	6.251400E+01	  0.013328707	5.032800E+01	  0.013328707	6.410000E-01
19	  0.013524513	-4.287900E+01	  0.013524513	6.315100E+01	  0.013524513	5.032100E+01	  0.013524513	6.440000E-01
20	  0.013720319	-4.295900E+01	  0.013720319	6.184000E+01	  0.013720319	5.033200E+01	  0.013720319	6.310000E-01
21	  0.013916126	-4.288700E+01	  0.013916126	6.198700E+01	  0.013916126	5.033300E+01	  0.013916126	6.370000E-01
22	  0.014111931	-4.278400E+01	  0.014111931	6.094700E+01	  0.014111931	5.034900E+01	  0.014111931	6.380000E-01
23	  0.014307737	-4.276900E+01	  0.014307737	6.020900E+01	  0.014307737	5.035800E+01	  0.014307737	6.350000E-01
24	  0.014503544	-4.270600E+01	  0.014503544	6.040800E+01	  0.014503544	5.035800E+01	  0.014503544	6.410000E-01
25	  0.014699350	-4.246700E+01	  0.014699350	6.010900E+01	  0.014699350	5.037200E+01	  0.014699350	6.570000E-01
26	  0.014895156	-4.249100E+01	  0.014895156	5.951800E+01	  0.014895156	5.037700E+01	  0.014895156	6.510000E-01
27	  0.015090963	-4.245400E+01	  0.015090963	5.990400E+01	  0.015090963	5.037500E+01	  0.015090963	6.570000E-01
28	  0.015286769	-4.221800E+01	  0.015286769	5.871000E+01	  0.015286769	5.039900E+01	  0.015286769	6.670000E-01
29	  0.015482575	-4.239300E+01	  0.015482575	5.755300E+01	  0.015482575	5.040400E+01	  0.015482575	6.450000E-01
30	  0.015678382	-4.225800E+01	  0.015678382	5.669800E+01	  0.015678382	5.042000E+01	  0.015678382	6.490000E-01
31	  0.015874187	-4.208700E+01	  0.015874187	5.711500E+01	  0.015874187	5.042400E+01	  0.015874187	6.660000E-01
32	  0.016069993	-4.202300E+01	  0.016069993	5.551400E+01	  0.016069993	5.044600E+01	  0.016069993	6.580000E-01
33	  0.016265800	-4.197500E+01	  0.016265800	5.542800E+01	  0.016265800	5.044900E+01	  0.016265800	6.610000E-01
34	  0.016461605	-4.176100E+01	  0.016461605	5.520000E+01	  0.016461605	5.046300E+01	  0.016461605	6.760000E-01
35	  0.016657412	-4.170100E+01	  0.016657412	5.560000E+01	  0.016657412	5.046100E+01	  0.016657412	6.840000E-01
36	  0.016853219	-4.142200E+01	  0.016853219	5.564100E+01	  0.016853219	5.047600E+01	  0.016853219	7.070000E-01
37	  0.017049024	-4.120200E+01	  0.017049024	5.522800E+01	  0.017049024	5.049300E+01	  0.017049024	7.220000E-01
38	  0.017244833	-4.120100E+01	  0.017244833	5.493300E+01	  0.017244833	5.049700E+01	  0.017244833	7.190000E-01
39	  0.017440638	-4.098000E+01	  0.017440638	5.478100E+01	  0.017440638	5.051200E+01	  0.017440638	7.370000E-01
40	  0.017636444	-4.089600E+01	  0.017636444	5.490600E+01	  0.017636444	5.051500E+01	  0.017636444	7.450000E-01
41	  0.017832249	-4.091300E+01	  0.017832249	5.446600E+01	  0.017832249	5.052000E+01	  0.017832249	7.400000E-01
42	  0.018028056	-4.063300E+01	  0.018028056	5.509400E+01	  0.018028056	5.052800E+01	  0.018028056	7.700000E-01
43	  0.018223861	-4.054400E+01	  0.018223861	5.462200E+01	  0.018223861	5.054000E+01	  0.018223861	7.740000E-01
44	  0.018419670	-4.055600E+01	  0.018419670	5.553500E+01	  0.018419670	5.052700E+01	  0.018419670	7.810000E-01
45	  0.018615475	-4.052400E+01	  0.018615475	5.560600E+01	  0.018615475	5.052800E+01	  0.018615475	7.850000E-01
46	  0.018811282	-4.031300E+01	  0.018811282	5.489500E+01	  0.018811282	5.055100E+01	  0.018811282	7.970000E-01
47	  0.019007087	-4.028500E+01	  0.019007087	5.618100E+01	  0.019007087	5.053400E+01	  0.019007087	8.120000E-01
48	  0.019202894	-4.009200E+01	  0.019202894	5.665300E+01	  0.019202894	5.053900E+01	  0.019202894	8.350000E-01
49	  0.019398699	-4.015300E+01	  0.019398699	5.658000E+01	  0.019398699	5.053700E+01	  0.019398699	8.280000E-01
50	  0.019594505	-4.013300E+01	  0.019594505	5.618900E+01	  0.019594505	5.054400E+01	  0.019594505	8.270000E-01
51	  0.019790314	-4.010200E+01	  0.019790314	5.626900E+01	  0.019790314	5.054400E+01	  0.019790314	8.300000E-01
52	  0.019986119	-3.999700E+01	  0.019986119	5.711600E+01	  0.019986119	5.053800E+01	  0.019986119	8.490000E-01
53	  0.020181926	-3.993700E+01	  0.020181926	5.681900E+01	  0.020181926	5.054700E+01	  0.020181926	8.520000E-01
54	  0.020377731	-3.986000E+01	  0.020377731	5.714600E+01	  0.020377731	5.054600E+01	  0.020377731	8.630000E-01
55	  0.020573538	-3.990300E+01	  0.020573538	5.641500E+01	  0.020573538	5.055500E+01	  0.020573538	8.510000E-01
56	  0.020769343	-3.978800E+01	  0.020769343	5.743000E+01	  0.020769343	5.054700E+01	  0.020769343	8.730000E-01
57	  0.020965151	-3.988400E+01	  0.020965151	5.692500E+01	  0.020965151	5.054800E+01	  0.020965151	8.580000E-01
58	  0.021160956	-3.976600E+01	  0.021160956	5.640700E+01	  0.021160956	5.056400E+01	  0.021160956	8.650000E-01
59	  0.021356763	-3.975900E+01	  0.021356763	5.596200E+01	  0.021356763	5.057100E+01	  0.021356763	8.610000E-01
60	  0.021552568	-3.985800E+01	  0.021552568	5.614200E+01	  0.021552568	5.056200E+01	  0.021552568	8.530000E-01
61	  0.021748375	-3.980300E+01	  0.021748375	5.618300E+01	  0.021748375	5.056500E+01	  0.021748375	8.590000E-01
62	  0.021944180	-3.974200E+01	  0.021944180	5.657100E+01	  0.021944180	5.056300E+01	  0.021944180	8.690000E-01
63	  0.022139989	-3.967300E+01	  0.022139989	5.603300E+01	  0.022139989	5.057500E+01	  0.022139989	8.710000E-01
64	  0.022335794	-3.955600E+01	  0.022335794	5.592400E+01	  0.022335794	5.058500E+01	  0.022335794	8.820000E-01
65	  0.022531601	-3.971200E+01	  0.022531601	5.484700E+01	  0.022531601	5.059100E+01	  0.022531601	8.550000E-01
66	  0.022727406	-3.952500E+01	  0.022727406	5.529500E+01	  0.022727406	5.059700E+01	  0.022727406	8.780000E-01
67	  0.022923212	-3.957500E+01	  0.022923212	5.406300E+01	  0.022923212	5.061200E+01	  0.022923212	8.600000E-01
68	  0.023119017	-3.945800E+01	  0.023119017	5.427000E+01	  0.023119017	5.061700E+01	  0.023119017	8.740000E-01
69	  0.023314826	-3.943800E+01	  0.023314826	5.439800E+01	  0.023314826	5.061700E+01	  0.023314826	8.780000E-01
70	  0.023510631	-3.942600E+01	  0.023510631	5.368700E+01	  0.023510631	5.062900E+01	  0.023510631	8.710000E-01
71	  0.023706438	-3.917400E+01	  0.023706438	5.326600E+01	  0.023706438	5.065400E+01	  0.023706438	8.920000E-01
72	  0.023902243	-3.912600E+01	  0.023902243	5.361200E+01	  0.023902243	5.065200E+01	  0.023902243	9.010000E-01
73	  0.024098050	-3.901300E+01	  0.024098050	5.358700E+01	  0.024098050	5.066100E+01	  0.024098050	9.130000E-01
74	  0.024293855	-3.907100E+01	  0.024293855	5.441000E+01	  0.024293855	5.064300E+01	  0.024293855	9.160000E-01
75	  0.024489662	-3.897800E+01	  0.024489662	5.254900E+01	  0.024489662	5.068000E+01	  0.024489662	9.050000E-01
76	  0.024685470	-3.883100E+01	  0.024685470	5.283600E+01	  0.024685470	5.068700E+01	  0.024685470	9.240000E-01
77	  0.024881275	-3.874600E+01	  0.024881275	5.209600E+01	  0.024881275	5.070600E+01	  0.024881275	9.240000E-01
78	  0.025077082	-3.877200E+01	  0.025077082	5.310000E+01	  0.025077082	5.068700E+01	  0.025077082	9.330000E-01
79	  0.025272887	-3.859400E+01	  0.025272887	5.297200E+01	  0.025272887	5.070300E+01	  0.025272887	9.510000E-01
80	  0.025468694	-3.867800E+01	  0.025468694	5.322000E+01	  0.025468694	5.069300E+01	  0.025468694	9.450000E-01
81	  0.025664499	-3.847700E+01	  0.025664499	5.297200E+01	  0.025664499	5.071300E+01	  0.025664499	9.640000E-01
82	  0.025860308	-3.841400E+01	  0.025860308	5.287800E+01	  0.025860308	5.072000E+01	  0.025860308	9.710000E-01
83	  0.026056113	-3.838200E+01	  0.026056113	5.292300E+01	  0.026056113	5.072200E+01	  0.026056113	9.750000E-01
84	  0.026251920	-3.834500E+01	  0.026251920	5.243800E+01	  0.026251920	5.073300E+01	  0.026251920	9.730000E-01
85	  0.026447725	-3.835700E+01	  0.026447725	5.244000E+01	  0.026447725	5.073200E+01	  0.026447725	9.710000E-01
86	  0.026643531	-3.836500E+01	  0.026643531	5.298300E+01	  0.026643531	5.072200E+01	  0.026643531	9.770000E-01
87	  0.026839336	-3.842300E+01	  0.026839336	5.299600E+01	  0.026839336	5.071700E+01	  0.026839336	9.710000E-01
88	  0.027035145	-3.827600E+01	  0.027035145	5.196500E+01	  0.027035145	5.074700E+01	  0.027035145	9.740000E-01
89	  0.027230950	-3.823700E+01	  0.027230950	5.207800E+01	  0.027230950	5.074900E+01	  0.027230950	9.800000E-01
90	  0.027426757	-3.831700E+01	  0.027426757	5.328300E+01	  0.027426757	5.072100E+01	  0.027426757	9.870000E-01
91	  0.027622562	-3.826600E+01	  0.027622562	5.204600E+01	  0.027622562	5.074700E+01	  0.027622562	9.770000E-01
92	  0.027818369	-3.823100E+01	  0.027818369	5.243000E+01	  0.027818369	5.074300E+01	  0.027818369	9.860000E-01
93	  0.028014174	-3.820300E+01	  0.028014174	5.205400E+01	  0.028014174	5.075200E+01	  0.028014174	9.840000E-01
94	  0.028209982	-3.816700E+01	  0.028209982	5.107800E+01	  0.028209982	5.077200E+01	  0.028209982	9.750000E-01
95	  0.028405787	-3.806600E+01	  0.028405787	5.137300E+01	  0.028405787	5.077600E+01	  0.028405787	9.910000E-01
96	  0.028601594	-3.810000E+01	  0.028601594	5.111500E+01	  0.028601594	5.077700E+01	  0.028601594	9.830000E-01
97	  0.028797399	-3.806800E+01	  0.028797399	5.017800E+01	  0.028797399	5.079600E+01	  0.028797399	9.740000E-01
98	  0.028993206	-3.801500E+01	  0.028993206	5.077900E+01	  0.028993206	5.079100E+01	  0.028993206	9.890000E-01
99	  0.029189013	-3.793500E+01	  0.029189013	5.006400E+01	  0.029189013	5.081100E+01	  0.029189013	9.880000E-01
100	  0.029384818	-3.792700E+01	  0.029384818	4.916300E+01	  0.029384818	5.082700E+01	  0.029384818	9.760000E-01
101	  0.029580627	-3.793900E+01	  0.029580627	4.924700E+01	  0.029580627	5.082500E+01	  0.029580627	9.760000E-01
102	  0.029776432	-3.783000E+01	  0.029776432	4.886600E+01	  0.029776432	5.084200E+01	  0.029776432	9.830000E-01
103	  0.029972238	-3.764900E+01	  0.029972238	4.869400E+01	  0.029972238	5.086200E+01	  0.029972238	1.001000E+00
104	  0.030168043	-3.780800E+01	  0.030168043	4.833500E+01	  0.030168043	5.085300E+01	  0.030168043	9.770000E-01
105	  0.030363850	-3.761600E+01	  0.030363850	4.806500E+01	  0.030363850	5.087700E+01	  0.030363850	9.960000E-01
106	  0.030559655	-3.753400E+01	  0.030559655	4.765400E+01	  0.030559655	5.089200E+01	  0.030559655	9.990000E-01
107	  0.030755464	-3.749600E+01	  0.030755464	4.779700E+01	  0.030755464	5.089400E+01	  0.030755464	1.006000E+00
108	  0.030951269	-3.743000E+01	  0.030951269	4.703300E+01	  0.030951269	5.091400E+01	  0.030951269	1.001000E+00
109	  0.031147076	-3.733300E+01	  0.031147076	4.717900E+01	  0.031147076	5.092200E+01	  0.031147076	1.015000E+00
110	  0.031342883	-3.717500E+01	  0.031342883	4.765600E+01	  0.031342883	5.093000E+01	  0.031342883	1.042000E+00
111	  0.031538688	-3.715800E+01	  0.031538688	4.679400E+01	  0.031538688	5.094800E+01	  0.031538688	1.030000E+00
112	  0.031734493	-3.704400E+01	  0.031734493	4.668900E+01	  0.031734493	5.096200E+01	  0.031734493	1.042000E+00
113	  0.031930301	-3.696700E+01	  0.031930301	4.698000E+01	  0.031930301	5.096500E+01	  0.031930301	1.056000E+00
114	  0.032126106	-3.687000E+01	  0.032126106	4.647500E+01	  0.032126106	5.098600E+01	  0.032126106	1.060000E+00
115	  0.032321911	-3.680000E+01	  0.032321911	4.697400E+01	  0.032321911	5.098400E+01	  0.032321911	1.077000E+00
116	  0.032517716	-3.677100E+01	  0.032517716	4.691200E+01	  0.032517716	5.098900E+01	  0.032517716	1.080000E+00
117	  0.032713525	-3.676700E+01	  0.032713525	4.689300E+01	  0.032713525	5.098900E+01	  0.032713525	1.080000E+00
118	  0.032909330	-3.666200E+01	  0.032909330	4.778800E+01	  0.032909330	5.098400E+01	  0.032909330	1.109000E+00
119	  0.033105139	-3.669800E+01	  0.033105139	4.689600E+01	  0.033105139	5.099700E+01	  0.033105139	1.089000E+00
120	  0.033300944	-3.658800E+01	  0.033300944	4.759200E+01	  0.033300944	5.099600E+01	  0.033300944	1.115000E+00
121	  0.033496749	-3.635700E+01	  0.033496749	4.778900E+01	  0.033496749	5.101900E+01	  0.033496749	1.149000E+00
122	  0.033692554	-3.647600E+01	  0.033692554	4.815700E+01	  0.033692554	5.099800E+01	  0.033692554	1.140000E+00
123	  0.033888362	-3.641900E+01	  0.033888362	4.782200E+01	  0.033888362	5.101100E+01	  0.033888362	1.142000E+00
124	  0.034084171	-3.632800E+01	  0.034084171	4.786400E+01	  0.034084171	5.102100E+01	  0.034084171	1.155000E+00
125	  0.034279976	-3.626300E+01	  0.034279976	4.792100E+01	  0.034279976	5.102700E+01	  0.034279976	1.164000E+00
126	  0.034475781	-3.635500E+01	  0.034475781	4.823600E+01	  0.034475781	5.101000E+01	  0.034475781	1.158000E+00
127	  0.034671586	-3.627600E+01	  0.034671586	4.764000E+01	  0.034671586	5.103100E+01	  0.034671586	1.158000E+00
128	  0.034867391	-3.629600E+01	  0.034867391	4.736800E+01	  0.034867391	5.103500E+01	  0.034867391	1.150000E+00
129	  0.035063203	-3.631300E+01	  0.035063203	4.853700E+01	  0.035063203	5.100800E+01	  0.035063203	1.168000E+00
130	  0.035259008	-3.619800E+01	  0.035259008	4.781100E+01	  0.035259008	5.103700E+01	  0.035259008	1.171000E+00
131	  0.035454813	-3.625000E+01	  0.035454813	4.825700E+01	  0.035454813	5.102200E+01	  0.035454813	1.172000E+00
132	  0.035650618	-3.624000E+01	  0.035650618	4.795700E+01	  0.035650618	5.102900E+01	  0.035650618	1.168000E+00
133	  0.035846427	-3.623000E+01	  0.035846427	4.782600E+01	  0.035846427	5.103300E+01	  0.035846427	1.167000E+00
134	  0.036042232	-3.621200E+01	  0.036042232	4.810300E+01	  0.036042232	5.102900E+01	  0.036042232	1.175000E+00
135	  0.036238037	-3.616500E+01	  0.036238037	4.730600E+01	  0.036238037	5.105200E+01	  0.036238037	1.167000E+00
136	  0.036433842	-3.610800E+01	  0.036433842	4.803300E+01	  0.036433842	5.104300E+01	  0.036433842	1.188000E+00
137	  0.036629651	-3.608400E+01	  0.036629651	4.832200E+01	  0.036629651	5.104000E+01	  0.036629651	1.196000E+00
138	  0.036825456	-3.601100E+01	  0.036825456	4.779500E+01	  0.036825456	5.106000E+01	  0.036825456	1.197000E+00
139	  0.037021261	-3.615200E+01	  0.037021261	4.761300E+01	  0.037021261	5.104700E+01	  0.037021261	1.174000E+00
140	  0.037217066	-3.616900E+01	  0.037217066	4.763200E+01	  0.037217066	5.104400E+01	  0.037217066	1.172000E+00
141	  0.037412878	-3.608700E+01	  0.037412878	4.759900E+01	  0.037412878	5.105500E+01	  0.037412878	1.183000E+00
142	  0.037608683	-3.602800E+01	  0.037608683	4.817300E+01	  0.037608683	5.105000E+01	  0.037608683	1.202000E+00
143	  0.037804488	-3.607600E+01	  0.037804488	4.735400E+01	  0.037804488	5.106100E+01	  0.037804488	1.180000E+00
144	  0.038000293	-3.613300E+01	  0.038000293	4.746900E+01	  0.038000293	5.105200E+01	  0.038000293	1.174000E+00
145	  0.038196102	-3.612000E+01	  0.038196102	4.734300E+01	  0.038196102	5.105600E+01	  0.038196102	1.174000E+00
146	  0.038391907	-3.594700E+01	  0.038391907	4.770800E+01	  0.038391907	5.107000E+01	  0.038391907	1.205000E+00
147	  0.038587712	-3.598100E+01	  0.038587712	4.704100E+01	  0.038587712	5.108000E+01	  0.038587712	1.187000E+00
148	  0.038783520	-3.597900E+01	  0.038783520	4.687100E+01	  0.038783520	5.108400E+01	  0.038783520	1.184000E+00
149	  0.038979325	-3.590700E+01	  0.038979325	4.715100E+01	  0.038979325	5.108700E+01	  0.038979325	1.200000E+00
150	  0.039175130	-3.594900E+01	  0.039175130	4.713300E+01	  0.039175130	5.108200E+01	  0.039175130	1.194000E+00
151	  0.039370935	-3.589400E+01	  0.039370935	4.706800E+01	  0.039370935	5.109000E+01	  0.039370935	1.200000E+00
152	  0.039566744	-3.602400E+01	  0.039566744	4.692000E+01	  0.039566744	5.107700E+01	  0.039566744	1.179000E+00
153	  0.039762549	-3.587900E+01	  0.039762549	4.738400E+01	  0.039762549	5.108500E+01	  0.039762549	1.208000E+00
154	  0.039958358	-3.591000E+01	  0.039958358	4.747100E+01	  0.039958358	5.107900E+01	  0.039958358	1.205000E+00
155	  0.040154163	-3.597600E+01	  0.040154163	4.742600E+01	  0.040154163	5.107200E+01	  0.040154163	1.195000E+00
156	  0.040349972	-3.599500E+01	  0.040349972	4.714700E+01	  0.040349972	5.107600E+01	  0.040349972	1.187000E+00
157	  0.040545776	-3.598900E+01	  0.040545776	4.675000E+01	  0.040545776	5.108500E+01	  0.040545776	1.181000E+00
158	  0.040741581	-3.598200E+01	  0.040741581	4.664300E+01	  0.040741581	5.108800E+01	  0.040741581	1.180000E+00
159	  0.040937386	-3.606000E+01	  0.040937386	4.595900E+01	  0.040937386	5.109300E+01	  0.040937386	1.156000E+00
160	  0.041133195	-3.611900E+01	  0.041133195	4.519100E+01	  0.041133195	5.110100E+01	  0.041133195	1.133000E+00
161	  0.041329000	-3.600500E+01	  0.041329000	4.548600E+01	  0.041329000	5.110900E+01	  0.041329000	1.154000E+00
162	  0.041524805	-3.597900E+01	  0.041524805	4.443900E+01	  0.041524805	5.113400E+01	  0.041524805	1.137000E+00
163	  0.041720610	-3.610500E+01	  0.041720610	4.501800E+01	  0.041720610	5.110600E+01	  0.041720610	1.132000E+00
164	  0.041916419	-3.601700E+01	  0.041916419	4.379500E+01	  0.041916419	5.114200E+01	  0.041916419	1.120000E+00
165	  0.042112224	-3.607800E+01	  0.042112224	4.365200E+01	  0.042112224	5.113700E+01	  0.042112224	1.109000E+00
166	  0.042308029	-3.598000E+01	  0.042308029	4.368600E+01	  0.042308029	5.114900E+01	  0.042308029	1.122000E+00
167	  0.042503837	-3.602000E+01	  0.042503837	4.320500E+01	  0.042503837	5.115300E+01	  0.042503837	1.107000E+00
168	  0.042699646	-3.602100E+01	  0.042699646	4.244800E+01	  0.042699646	5.116800E+01	  0.042699646	1.092000E+00
169	  0.042895451	-3.598900E+01	  0.042895451	4.230100E+01	  0.042895451	5.117500E+01	  0.042895451	1.093000E+00
170	  0.043091256	-3.601800E+01	  0.043091256	4.122200E+01	  0.043091256	5.119200E+01	  0.043091256	1.067000E+00
171	  0.043287061	-3.581100E+01	  0.043287061	4.062600E+01	  0.043287061	5.123200E+01	  0.043287061	1.080000E+00
172	  0.043482870	-3.583100E+01	  0.043482870	4.105200E+01	  0.043482870	5.122100E+01	  0.043482870	1.087000E+00
173	  0.043678675	-3.587400E+01	  0.043678675	4.001400E+01	  0.043678675	5.123500E+01	  0.043678675	1.059000E+00
174	  0.043874480	-3.576600E+01	  0.043874480	3.994700E+01	  0.043874480	5.125200E+01	  0.043874480	1.071000E+00
175	  0.044070289	-3.581600E+01	  0.044070289	3.977500E+01	  0.044070289	5.124800E+01	  0.044070289	1.061000E+00
176	  0.044266094	-3.564200E+01	  0.044266094	3.839700E+01	  0.044266094	5.130000E+01	  0.044266094	1.052000E+00
177	  0.044461899	-3.555400E+01	  0.044461899	3.862400E+01	  0.044461899	5.130900E+01	  0.044461899	1.068000E+00
178	  0.044657703	-3.541300E+01	  0.044657703	3.843800E+01	  0.044657703	5.133400E+01	  0.044657703	1.082000E+00
179	  0.044853516	-3.535100E+01	  0.044853516	3.838000E+01	  0.044853516	5.134500E+01	  0.044853516	1.089000E+00
180	  0.045049321	-3.539000E+01	  0.045049321	3.789400E+01	  0.045049321	5.134800E+01	  0.045049321	1.072000E+00
181	  0.045245126	-3.531800E+01	  0.045245126	3.834200E+01	  0.045245126	5.135100E+01	  0.045245126	1.092000E+00
182	  0.045440931	-3.526900E+01	  0.045440931	3.797800E+01	  0.045440931	5.136500E+01	  0.045440931	1.090000E+00
183	  0.045636740	-3.513500E+01	  0.045636740	3.773400E+01	  0.045636740	5.139200E+01	  0.045636740	1.101000E+00
184	  0.045832545	-3.509400E+01	  0.045832545	3.831500E+01	  0.045832545	5.138700E+01	  0.045832545	1.121000E+00
185	  0.046028350	-3.499000E+01	  0.046028350	3.776200E+01	  0.046028350	5.141500E+01	  0.046028350	1.121000E+00
186	  0.046224155	-3.483600E+01	  0.046224155	3.773300E+01	  0.046224155	5.144100E+01	  0.046224155	1.141000E+00
187	  0.046419963	-3.484600E+01	  0.046419963	3.775800E+01	  0.046419963	5.143800E+01	  0.046419963	1.140000E+00
188	  0.046615768	-3.481200E+01	  0.046615768	3.830100E+01	  0.046615768	5.143300E+01	  0.046615768	1.158000E+00
189	  0.046811573	-3.474600E+01	  0.046811573	3.819300E+01	  0.046811573	5.144600E+01	  0.046811573	1.165000E+00
190	  0.047007378	-3.469900E+01	  0.047007378	3.846900E+01	  0.047007378	5.144800E+01	  0.047007378	1.178000E+00
191	  0.047203191	-3.461000E+01	  0.047203191	3.869900E+01	  0.047203191	5.145800E+01	  0.047203191	1.197000E+00
192	  0.047398996	-3.467900E+01	  0.047398996	3.868000E+01	  0.047398996	5.144700E+01	  0.047398996	1.186000E+00
193	  0.047594801	-3.457900E+01	  0.047594801	3.778200E+01	  0.047594801	5.148300E+01	  0.047594801	1.177000E+00
194	  0.047790606	-3.466900E+01	  0.047790606	3.873200E+01	  0.047790606	5.144800E+01	  0.047790606	1.189000E+00
195	  0.047986414	-3.464700E+01	  0.047986414	3.866000E+01	  0.047986414	5.145300E+01	  0.047986414	1.191000E+00
196	  0.048182219	-3.450000E+01	  0.048182219	3.869600E+01	  0.048182219	5.147700E+01	  0.048182219	1.212000E+00
197	  0.048378024	-3.463200E+01	  0.048378024	3.950800E+01	  0.048378024	5.143700E+01	  0.048378024	1.214000E+00
198	  0.048573833	-3.446600E+01	  0.048573833	3.832600E+01	  0.048573833	5.149100E+01	  0.048573833	1.208000E+00
199	  0.048769638	-3.457500E+01	  0.048769638	3.941700E+01	  0.048769638	5.144900E+01	  0.048769638	1.220000E+00
200	  0.048965443	-3.460400E+01	  0.048965443	3.900600E+01	  0.048965443	5.145300E+01	  0.048965443	1.205000E+00
201	  0.049161248	-3.460100E+01	  0.049161248	3.893700E+01	  0.049161248	5.145500E+01	  0.049161248	1.204000E+00
202	  0.049357057	-3.461100E+01	  0.049357057	3.915800E+01	  0.049357057	5.144800E+01	  0.049357057	1.208000E+00
203	  0.049552862	-3.450800E+01	  0.049552862	3.897900E+01	  0.049552862	5.147000E+01	  0.049552862	1.219000E+00
204	  0.049748670	-3.464800E+01	  0.049748670	3.926500E+01	  0.049748670	5.144000E+01	  0.049748670	1.206000E+00
205	  0.049944475	-3.467100E+01	  0.049944475	3.926200E+01	  0.049944475	5.143600E+01	  0.049944475	1.202000E+00
206	  0.050140284	-3.475500E+01	  0.050140284	3.876100E+01	  0.050140284	5.143300E+01	  0.050140284	1.178000E+00
207	  0.050336089	-3.464700E+01	  0.050336089	3.915600E+01	  0.050336089	5.144200E+01	  0.050336089	1.203000E+00
208	  0.050531894	-3.477700E+01	  0.050531894	3.795900E+01	  0.050531894	5.144600E+01	  0.050531894	1.155000E+00
209	  0.050727699	-3.474200E+01	  0.050727699	3.852500E+01	  0.050727699	5.144000E+01	  0.050727699	1.174000E+00
210	  0.050923508	-3.482000E+01	  0.050923508	3.824200E+01	  0.050923508	5.143300E+01	  0.050923508	1.156000E+00
211	  0.051119313	-3.476400E+01	  0.051119313	3.745700E+01	  0.051119313	5.145800E+01	  0.051119313	1.144000E+00
212	  0.051315118	-3.481800E+01	  0.051315118	3.700400E+01	  0.051315118	5.145900E+01	  0.051315118	1.125000E+00
213	  0.051510923	-3.486700E+01	  0.051510923	3.718400E+01	  0.051510923	5.144700E+01	  0.051510923	1.123000E+00
214	  0.051706731	-3.485200E+01	  0.051706731	3.569300E+01	  0.051706731	5.147900E+01	  0.051706731	1.086000E+00
215	  0.051902536	-3.485000E+01	  0.051902536	3.540200E+01	  0.051902536	5.148500E+01	  0.051902536	1.079000E+00
216	  0.052098341	-3.481500E+01	  0.052098341	3.522100E+01	  0.052098341	5.149400E+01	  0.052098341	1.079000E+00
217	  0.052294150	-3.489000E+01	  0.052294150	3.457600E+01	  0.052294150	5.149400E+01	  0.052294150	1.052000E+00
218	  0.052489959	-3.481700E+01	  0.052489959	3.400000E+01	  0.052489959	5.151700E+01	  0.052489959	1.046000E+00
219	  0.052685764	-3.474700E+01	  0.052685764	3.359200E+01	  0.052685764	5.153700E+01	  0.052685764	1.044000E+00
220	  0.052881569	-3.473200E+01	  0.052881569	3.298900E+01	  0.052881569	5.155100E+01	  0.052881569	1.029000E+00
221	  0.053077377	-3.466300E+01	  0.053077377	3.285300E+01	  0.053077377	5.156600E+01	  0.053077377	1.034000E+00
222	  0.053273182	-3.460100E+01	  0.053273182	3.219500E+01	  0.053273182	5.159000E+01	  0.053273182	1.023000E+00
223	  0.053468987	-3.454300E+01	  0.053468987	3.225000E+01	  0.053468987	5.160000E+01	  0.053468987	1.032000E+00
224	  0.053664792	-3.460600E+01	  0.053664792	3.164600E+01	  0.053664792	5.159900E+01	  0.053664792	1.007000E+00
225	  0.053860601	-3.449000E+01	  0.053860601	3.105300E+01	  0.053860601	5.163200E+01	  0.053860601	1.004000E+00
226	  0.054056406	-3.447800E+01	  0.054056406	3.120400E+01	  0.054056406	5.163100E+01	  0.054056406	1.010000E+00
227	  0.054252211	-3.446100E+01	  0.054252211	3.080200E+01	  0.054252211	5.164200E+01	  0.054252211	1.000000E+00
228	  0.054448016	-3.444100E+01	  0.054448016	2.976900E+01	  0.054448016	5.166400E+01	  0.054448016	9.730000E-01
229	  0.054643828	-3.425600E+01	  0.054643828	3.042200E+01	  0.054643828	5.168800E+01	  0.054643828	1.014000E+00
230	  0.054839633	-3.414800E+01	  0.054839633	2.929800E+01	  0.054839633	5.173000E+01	  0.054839633	9.930000E-01
231	  0.055035438	-3.416800E+01	  0.055035438	2.919600E+01	  0.055035438	5.172800E+01	  0.055035438	9.870000E-01
232	  0.055231243	-3.414100E+01	  0.055231243	2.921000E+01	  0.055231243	5.173300E+01	  0.055231243	9.910000E-01
233	  0.055427052	-3.405000E+01	  0.055427052	2.865500E+01	  0.055427052	5.176200E+01	  0.055427052	9.850000E-01
234	  0.055622857	-3.404200E+01	  0.055622857	2.890600E+01	  0.055622857	5.175900E+01	  0.055622857	9.930000E-01
235	  0.055818662	-3.397500E+01	  0.055818662	2.891700E+01	  0.055818662	5.177200E+01	  0.055818662	1.002000E+00
236	  0.056014467	-3.387800E+01	  0.056014467	2.908000E+01	  0.056014467	5.178900E+01	  0.056014467	1.019000E+00
237	  0.056210276	-3.381300E+01	  0.056210276	2.896900E+01	  0.056210276	5.180500E+01	  0.056210276	1.023000E+00
238	  0.056406081	-3.381500E+01	  0.056406081	2.837400E+01	  0.056406081	5.181600E+01	  0.056406081	1.004000E+00
239	  0.056601886	-3.371400E+01	  0.056601886	2.813400E+01	  0.056601886	5.184100E+01	  0.056601886	1.008000E+00
240	  0.056797691	-3.369800E+01	  0.056797691	2.834100E+01	  0.056797691	5.184100E+01	  0.056797691	1.017000E+00
241	  0.056993503	-3.366400E+01	  0.056993503	2.843900E+01	  0.056993503	5.184700E+01	  0.056993503	1.024000E+00
242	  0.057189308	-3.363700E+01	  0.057189308	2.797800E+01	  0.057189308	5.186100E+01	  0.057189308	1.012000E+00
243	  0.057385113	-3.353400E+01	  0.057385113	2.870900E+01	  0.057385113	5.187000E+01	  0.057385113	1.049000E+00
244	  0.057580918	-3.355600E+01	  0.057580918	2.823100E+01	  0.057580918	5.187400E+01	  0.057580918	1.030000E+00
245	  0.057776727	-3.347000E+01	  0.057776727	2.838300E+01	  0.057776727	5.189000E+01	  0.057776727	1.046000E+00
246	  0.057972532	-3.345300E+01	  0.057972532	2.882800E+01	  0.057972532	5.188500E+01	  0.057972532	1.063000E+00
247	  0.058168337	-3.329400E+01	  0.058168337	2.793400E+01	  0.058168337	5.193800E+01	  0.058168337	1.053000E+00
248	  0.058364145	-3.341400E+01	  0.058364145	2.853000E+01	  0.058364145	5.190000E+01	  0.058364145	1.058000E+00
249	  0.058559950	-3.335600E+01	  0.058559950	2.871100E+01	  0.058559950	5.190900E+01	  0.058559950	1.072000E+00
250	  0.058755755	-3.321700E+01	  0.058755755	2.824900E+01	  0.058755755	5.194900E+01	  0.058755755	1.074000E+00
251	  0.058951560	-3.328300E+01	  0.058951560	2.804600E+01	  0.058951560	5.193800E+01	  0.058951560	1.058000E+00
252	  0.059147369	-3.329700E+01	  0.059147369	2.874600E+01	  0.059147369	5.192200E+01	  0.059147369	1.080000E+00
253	  0.059343174	-3.321000E+01	  0.059343174	2.819500E+01	  0.059343174	5.195200E+01	  0.059343174	1.073000E+00
254	  0.059538983	-3.321900E+01	  0.059538983	2.840300E+01	  0.059538983	5.194600E+01	  0.059538983	1.079000E+00
255	  0.059734788	-3.322600E+01	  0.059734788	2.802400E+01	  0.059734788	5.195100E+01	  0.059734788	1.065000E+00
256	  0.059930597	-3.324200E+01	  0.059930597	2.794000E+01	  0.059930597	5.194900E+01	  0.059930597	1.060000E+00
257	  0.060126401	-3.317200E+01	  0.060126401	2.777700E+01	  0.060126401	5.196900E+01	  0.060126401	1.063000E+00
258	  0.060322206	-3.316400E+01	  0.060322206	2.820500E+01	  0.060322206	5.196200E+01	  0.060322206	1.079000E+00
259	  0.060518011	-3.318000E+01	  0.060518011	2.805000E+01	  0.060518011	5.196100E+01	  0.060518011	1.072000E+00
260	  0.060713820	-3.316300E+01	  0.060713820	2.810400E+01	  0.060713820	5.196400E+01	  0.060713820	1.076000E+00
261	  0.060909625	-3.308400E+01	  0.060909625	2.835100E+01	  0.060909625	5.197800E+01	  0.060909625	1.095000E+00
262	  0.061105430	-3.314400E+01	  0.061105430	2.780600E+01	  0.061105430	5.197500E+01	  0.061105430	1.068000E+00
263	  0.061301235	-3.307500E+01	  0.061301235	2.756300E+01	  0.061301235	5.199500E+01	  0.061301235	1.068000E+00
264	  0.061497044	-3.305900E+01	  0.061497044	2.750800E+01	  0.061497044	5.200000E+01	  0.061497044	1.068000E+00
265	  0.061692849	-3.313800E+01	  0.061692849	2.715600E+01	  0.061692849	5.198800E+01	  0.061692849	1.046000E+00
266	  0.061888654	-3.309400E+01	  0.061888654	2.705500E+01	  0.061888654	5.200000E+01	  0.061888654	1.048000E+00
267	  0.062084462	-3.308700E+01	  0.062084462	2.712000E+01	  0.062084462	5.200100E+01	  0.062084462	1.051000E+00
268	  0.062280271	-3.301300E+01	  0.062280271	2.676600E+01	  0.062280271	5.202500E+01	  0.062280271	1.047000E+00
269	  0.062476076	-3.298300E+01	  0.062476076	2.699200E+01	  0.062476076	5.202800E+01	  0.062476076	1.059000E+00
270	  0.062671877	-3.295700E+01	  0.062671877	2.683400E+01	  0.062671877	5.203700E+01	  0.062671877	1.057000E+00
271	  0.062867686	-3.304200E+01	  0.062867686	2.647500E+01	  0.062867686	5.202400E+01	  0.062867686	1.033000E+00
272	  0.063063495	-3.289500E+01	  0.063063495	2.627600E+01	  0.063063495	5.206300E+01	  0.063063495	1.044000E+00
273	  0.063259304	-3.314000E+01	  0.063259304	2.676000E+01	  0.063259304	5.199500E+01	  0.063259304	1.031000E+00
274	  0.063455105	-3.295800E+01	  0.063455105	2.660100E+01	  0.063455105	5.204100E+01	  0.063455105	1.048000E+00
275	  0.063650914	-3.293900E+01	  0.063650914	2.640700E+01	  0.063650914	5.205000E+01	  0.063650914	1.044000E+00
276	  0.063846722	-3.286100E+01	  0.063846722	2.564400E+01	  0.063846722	5.208300E+01	  0.063846722	1.025000E+00
277	  0.064042524	-3.282200E+01	  0.064042524	2.513100E+01	  0.064042524	5.210200E+01	  0.064042524	1.011000E+00
278	  0.064238332	-3.280900E+01	  0.064238332	2.580600E+01	  0.064238332	5.209200E+01	  0.064238332	1.038000E+00
279	  0.064434141	-3.270800E+01	  0.064434141	2.555900E+01	  0.064434141	5.212200E+01	  0.064434141	1.041000E+00
280	  0.064629942	-3.273800E+01	  0.064629942	2.526800E+01	  0.064629942	5.212000E+01	  0.064629942	1.027000E+00
281	  0.064825751	-3.275100E+01	  0.064825751	2.506400E+01	  0.064825751	5.212100E+01	  0.064825751	1.017000E+00
282	  0.065021552	-3.271700E+01	  0.065021552	2.513000E+01	  0.065021552	5.212800E+01	  0.065021552	1.024000E+00
283	  0.065217361	-3.271600E+01	  0.065217361	2.464800E+01	  0.065217361	5.213700E+01	  0.065217361	1.006000E+00
284	  0.065413170	-3.268100E+01	  0.065413170	2.531500E+01	  0.065413170	5.213300E+01	  0.065413170	1.035000E+00
285	  0.065608978	-3.273100E+01	  0.065608978	2.497000E+01	  0.065608978	5.212700E+01	  0.065608978	1.016000E+00
286	  0.065804780	-3.271800E+01	  0.065804780	2.481100E+01	  0.065804780	5.213300E+01	  0.065804780	1.012000E+00
287	  0.066000588	-3.261300E+01	  0.066000588	2.540000E+01	  0.066000588	5.214900E+01	  0.066000588	1.047000E+00
288	  0.066196397	-3.251100E+01	  0.066196397	2.414100E+01	  0.066196397	5.219800E+01	  0.066196397	1.011000E+00
289	  0.066392198	-3.263400E+01	  0.066392198	2.437500E+01	  0.066392198	5.216300E+01	  0.066392198	1.005000E+00
290	  0.066588007	-3.250700E+01	  0.066588007	2.395200E+01	  0.066588007	5.220300E+01	  0.066588007	1.004000E+00
291	  0.066783816	-3.247700E+01	  0.066783816	2.433400E+01	  0.066783816	5.220300E+01	  0.066783816	1.023000E+00
292	  0.066979617	-3.248100E+01	  0.066979617	2.448000E+01	  0.066979617	5.220000E+01	  0.066979617	1.028000E+00
293	  0.067175426	-3.248300E+01	  0.067175426	2.359100E+01	  0.067175426	5.221600E+01	  0.067175426	9.930000E-01
294	  0.067371234	-3.255300E+01	  0.067371234	2.407600E+01	  0.067371234	5.218900E+01	  0.067371234	1.004000E+00
295	  0.067567036	-3.252900E+01	  0.067567036	2.465800E+01	  0.067567036	5.218400E+01	  0.067567036	1.029000E+00
296	  0.067762844	-3.235500E+01	  0.067762844	2.372600E+01	  0.067762844	5.224700E+01	  0.067762844	1.014000E+00
297	  0.067958646	-3.245300E+01	  0.067958646	2.344900E+01	  0.067958646	5.222600E+01	  0.067958646	9.910000E-01
298	  0.068154462	-3.253700E+01	  0.068154462	2.366200E+01	  0.068154462	5.220000E+01	  0.068154462	9.890000E-01
299	  0.068350263	-3.245200E+01	  0.068350263	2.347800E+01	  0.068350263	5.222600E+01	  0.068350263	9.920000E-01
300	  0.068546072	-3.252400E+01	  0.068546072	2.319400E+01	  0.068546072	5.221200E+01	  0.068546072	9.730000E-01
301	  0.068741873	-3.243300E+01	  0.068741873	2.359800E+01	  0.068741873	5.222900E+01	  0.068741873	9.990000E-01
302	  0.068937682	-3.245000E+01	  0.068937682	2.319600E+01	  0.068937682	5.223100E+01	  0.068937682	9.810000E-01
303	  0.069133483	-3.238200E+01	  0.069133483	2.305600E+01	  0.069133483	5.225200E+01	  0.069133483	9.840000E-01
304	  0.069329299	-3.229700E+01	  0.069329299	2.244200E+01	  0.069329299	5.228500E+01	  0.069329299	9.690000E-01
305	  0.069525100	-3.228700E+01	  0.069525100	2.309000E+01	  0.069525100	5.227600E+01	  0.069525100	9.970000E-01
306	  0.069720909	-3.228600E+01	  0.069720909	2.272600E+01	  0.069720909	5.228300E+01	  0.069720909	9.820000E-01
307	  0.069916710	-3.241500E+01	  0.069916710	2.235400E+01	  0.069916710	5.225500E+01	  0.069916710	9.520000E-01
308	  0.070112519	-3.235200E+01	  0.070112519	2.251800E+01	  0.070112519	5.226900E+01	  0.070112519	9.660000E-01
309	  0.070308320	-3.234700E+01	  0.070308320	2.226200E+01	  0.070308320	5.227500E+01	  0.070308320	9.560000E-01
310	  0.070504129	-3.232600E+01	  0.070504129	2.164600E+01	  0.070504129	5.229100E+01	  0.070504129	9.330000E-01
311	  0.070699938	-3.234200E+01	  0.070699938	2.196100E+01	  0.070699938	5.228200E+01	  0.070699938	9.440000E-01
312	  0.070895746	-3.230300E+01	  0.070895746	2.136300E+01	  0.070895746	5.230200E+01	  0.070895746	9.240000E-01
313	  0.071091555	-3.216600E+01	  0.071091555	2.140400E+01	  0.071091555	5.233900E+01	  0.071091555	9.410000E-01
314	  0.071287356	-3.221300E+01	  0.071287356	2.173200E+01	  0.071287356	5.232000E+01	  0.071287356	9.500000E-01
315	  0.071483165	-3.220600E+01	  0.071483165	2.152900E+01	  0.071483165	5.232600E+01	  0.071483165	9.420000E-01
316	  0.071678966	-3.216600E+01	  0.071678966	2.137000E+01	  0.071678966	5.234000E+01	  0.071678966	9.400000E-01
317	  0.071874775	-3.221800E+01	  0.071874775	2.145100E+01	  0.071874775	5.232400E+01	  0.071874775	9.380000E-01
318	  0.072070576	-3.208600E+01	  0.072070576	2.132100E+01	  0.072070576	5.236300E+01	  0.072070576	9.470000E-01
319	  0.072266392	-3.212700E+01	  0.072266392	2.118400E+01	  0.072266392	5.235400E+01	  0.072266392	9.370000E-01
320	  0.072462194	-3.216600E+01	  0.072462194	2.073900E+01	  0.072462194	5.235000E+01	  0.072462194	9.140000E-01
321	  0.072658002	-3.207100E+01	  0.072658002	2.146000E+01	  0.072658002	5.236400E+01	  0.072658002	9.550000E-01
322	  0.072853811	-3.198000E+01	  0.072853811	2.063000E+01	  0.072853811	5.240400E+01	  0.072853811	9.300000E-01
323	  0.073049612	-3.205100E+01	  0.073049612	2.049500E+01	  0.073049612	5.238600E+01	  0.073049612	9.160000E-01
324	  0.073245421	-3.197900E+01	  0.073245421	2.069400E+01	  0.073245421	5.240300E+01	  0.073245421	9.330000E-01
325	  0.073441222	-3.195600E+01	  0.073441222	2.045700E+01	  0.073441222	5.241400E+01	  0.073441222	9.250000E-01
326	  0.073637031	-3.201100E+01	  0.073637031	2.101900E+01	  0.073637031	5.238800E+01	  0.073637031	9.430000E-01
327	  0.073832840	-3.195500E+01	  0.073832840	2.095400E+01	  0.073832840	5.240600E+01	  0.073832840	9.470000E-01
328	  0.074028648	-3.203900E+01	  0.074028648	2.063600E+01	  0.074028648	5.238700E+01	  0.074028648	9.230000E-01
329	  0.074224450	-3.203100E+01	  0.074224450	2.098700E+01	  0.074224450	5.238300E+01	  0.074224450	9.390000E-01
330	  0.074420258	-3.199100E+01	  0.074420258	2.019100E+01	  0.074420258	5.240800E+01	  0.074420258	9.100000E-01
331	  0.074616060	-3.200600E+01	  0.074616060	2.025700E+01	  0.074616060	5.240300E+01	  0.074616060	9.110000E-01
332	  0.074811868	-3.194600E+01	  0.074811868	2.010100E+01	  0.074811868	5.242300E+01	  0.074811868	9.110000E-01
333	  0.075007670	-3.199400E+01	  0.075007670	1.986000E+01	  0.075007670	5.241300E+01	  0.075007670	8.950000E-01
334	  0.075203478	-3.188700E+01	  0.075203478	2.018100E+01	  0.075203478	5.243800E+01	  0.075203478	9.210000E-01
335	  0.075399294	-3.193700E+01	  0.075399294	1.984400E+01	  0.075399294	5.242900E+01	  0.075399294	9.010000E-01
336	  0.075595096	-3.187100E+01	  0.075595096	1.982500E+01	  0.075595096	5.244900E+01	  0.075595096	9.070000E-01
337	  0.075790904	-3.192300E+01	  0.075790904	1.918000E+01	  0.075790904	5.244400E+01	  0.075790904	8.730000E-01
338	  0.075986706	-3.185600E+01	  0.075986706	1.962400E+01	  0.075986706	5.245600E+01	  0.075986706	9.000000E-01
339	  0.076182514	-3.185300E+01	  0.076182514	2.011600E+01	  0.076182514	5.244900E+01	  0.076182514	9.220000E-01
340	  0.076378316	-3.183900E+01	  0.076378316	1.890300E+01	  0.076378316	5.247300E+01	  0.076378316	8.700000E-01
341	  0.076574124	-3.185800E+01	  0.076574124	1.965600E+01	  0.076574124	5.245500E+01	  0.076574124	9.010000E-01
342	  0.076769926	-3.184000E+01	  0.076769926	1.933000E+01	  0.076769926	5.246600E+01	  0.076769926	8.890000E-01
343	  0.076965742	-3.186200E+01	  0.076965742	1.916000E+01	  0.076965742	5.246200E+01	  0.076965742	8.790000E-01
344	  0.077161543	-3.187900E+01	  0.077161543	1.906900E+01	  0.077161543	5.245900E+01	  0.077161543	8.730000E-01
345	  0.077357352	-3.181500E+01	  0.077357352	1.885400E+01	  0.077357352	5.248100E+01	  0.077357352	8.700000E-01
346	  0.077553153	-3.183000E+01	  0.077553153	1.853100E+01	  0.077553153	5.248100E+01	  0.077553153	8.540000E-01
347	  0.077748962	-3.177800E+01	  0.077748962	1.850100E+01	  0.077748962	5.249700E+01	  0.077748962	8.590000E-01
348	  0.077944770	-3.181700E+01	  0.077944770	1.868800E+01	  0.077944770	5.248300E+01	  0.077944770	8.630000E-01
349	  0.078140572	-3.176200E+01	  0.078140572	1.817800E+01	  0.078140572	5.250700E+01	  0.078140572	8.460000E-01
350	  0.078336388	-3.178500E+01	  0.078336388	1.789700E+01	  0.078336388	5.250500E+01	  0.078336388	8.310000E-01
351	  0.078532189	-3.177400E+01	  0.078532189	1.822300E+01	  0.078532189	5.250200E+01	  0.078532189	8.470000E-01
352	  0.078727998	-3.175700E+01	  0.078727998	1.785000E+01	  0.078727998	5.251400E+01	  0.078727998	8.320000E-01
353	  0.078923799	-3.165100E+01	  0.078923799	1.744800E+01	  0.078923799	5.255100E+01	  0.078923799	8.240000E-01
354	  0.079119608	-3.166300E+01	  0.079119608	1.808100E+01	  0.079119608	5.253800E+01	  0.079119608	8.520000E-01
355	  0.079315409	-3.171700E+01	  0.079315409	1.779500E+01	  0.079315409	5.252600E+01	  0.079315409	8.330000E-01
356	  0.079511218	-3.169800E+01	  0.079511218	1.781500E+01	  0.079511218	5.253200E+01	  0.079511218	8.360000E-01
357	  0.079707019	-3.167400E+01	  0.079707019	1.765600E+01	  0.079707019	5.254100E+01	  0.079707019	8.310000E-01
358	  0.079902835	-3.166600E+01	  0.079902835	1.775400E+01	  0.079902835	5.254200E+01	  0.079902835	8.360000E-01
359	  0.080098644	-3.169800E+01	  0.080098644	1.767800E+01	  0.080098644	5.253400E+01	  0.080098644	8.300000E-01
360	  0.080294445	-3.162400E+01	  0.080294445	1.773000E+01	  0.080294445	5.255500E+01	  0.080294445	8.400000E-01
361	  0.080490254	-3.170600E+01	  0.080490254	1.780300E+01	  0.080490254	5.252900E+01	  0.080490254	8.350000E-01
362	  0.080686055	-3.162300E+01	  0.080686055	1.749300E+01	  0.080686055	5.255900E+01	  0.080686055	8.290000E-01
363	  0.080881864	-3.165100E+01	  0.080881864	1.776400E+01	  0.080881864	5.254600E+01	  0.080881864	8.380000E-01
364	  0.081077665	-3.168700E+01	  0.081077665	1.751000E+01	  0.081077665	5.253900E+01	  0.081077665	8.230000E-01
365	  0.081273474	-3.172900E+01	  0.081273474	1.719500E+01	  0.081273474	5.253100E+01	  0.081273474	8.050000E-01
366	  0.081469283	-3.167400E+01	  0.081469283	1.741100E+01	  0.081469283	5.254500E+01	  0.081469283	8.200000E-01
367	  0.081665091	-3.158600E+01	  0.081665091	1.706900E+01	  0.081665091	5.257700E+01	  0.081665091	8.130000E-01
368	  0.081860892	-3.163200E+01	  0.081860892	1.728300E+01	  0.081860892	5.255900E+01	  0.081860892	8.180000E-01
369	  0.082056701	-3.171100E+01	  0.082056701	1.732900E+01	  0.082056701	5.253500E+01	  0.082056701	8.130000E-01
370	  0.082252502	-3.166100E+01	  0.082252502	1.743300E+01	  0.082252502	5.254800E+01	  0.082252502	8.220000E-01
371	  0.082448311	-3.179100E+01	  0.082448311	1.713800E+01	  0.082448311	5.251400E+01	  0.082448311	7.960000E-01
372	  0.082644112	-3.183500E+01	  0.082644112	1.738400E+01	  0.082644112	5.249700E+01	  0.082644112	8.030000E-01
373	  0.082839929	-3.180900E+01	  0.082839929	1.715100E+01	  0.082839929	5.250800E+01	  0.082839929	7.950000E-01
374	  0.083035737	-3.180300E+01	  0.083035737	1.654600E+01	  0.083035737	5.251900E+01	  0.083035737	7.690000E-01
375	  0.083231539	-3.184600E+01	  0.083231539	1.720300E+01	  0.083231539	5.249700E+01	  0.083231539	7.940000E-01
376	  0.083427347	-3.189800E+01	  0.083427347	1.666400E+01	  0.083427347	5.248900E+01	  0.083427347	7.650000E-01
377	  0.083623149	-3.192000E+01	  0.083623149	1.695800E+01	  0.083623149	5.247900E+01	  0.083623149	7.760000E-01
378	  0.083818957	-3.198200E+01	  0.083818957	1.578200E+01	  0.083818957	5.247700E+01	  0.083818957	7.180000E-01
379	  0.084014758	-3.197300E+01	  0.084014758	1.589200E+01	  0.084014758	5.247800E+01	  0.084014758	7.240000E-01
380	  0.084210567	-3.195000E+01	  0.084210567	1.564600E+01	  0.084210567	5.248800E+01	  0.084210567	7.150000E-01
381	  0.084406376	-3.200300E+01	  0.084406376	1.566900E+01	  0.084406376	5.247200E+01	  0.084406376	7.120000E-01
382	  0.084602185	-3.204500E+01	  0.084602185	1.519800E+01	  0.084602185	5.246600E+01	  0.084602185	6.870000E-01
383	  0.084797986	-3.198000E+01	  0.084797986	1.476200E+01	  0.084797986	5.249000E+01	  0.084797986	6.730000E-01
384	  0.084993795	-3.199200E+01	  0.084993795	1.428200E+01	  0.084993795	5.249300E+01	  0.084993795	6.510000E-01
385	  0.085189603	-3.212500E+01	  0.085189603	1.420600E+01	  0.085189603	5.245500E+01	  0.085189603	6.370000E-01
386	  0.085385405	-3.213000E+01	  0.085385405	1.390200E+01	  0.085385405	5.245700E+01	  0.085385405	6.240000E-01
387	  0.085581213	-3.207000E+01	  0.085581213	1.308500E+01	  0.085581213	5.248300E+01	  0.085581213	5.920000E-01
388	  0.085777014	-3.208500E+01	  0.085777014	1.248100E+01	  0.085777014	5.248500E+01	  0.085777014	5.640000E-01
389	  0.085972831	-3.204700E+01	  0.085972831	1.213700E+01	  0.085972831	5.250000E+01	  0.085972831	5.510000E-01
390	  0.086168632	-3.206600E+01	  0.086168632	1.229700E+01	  0.086168632	5.249300E+01	  0.086168632	5.570000E-01
391	  0.086364441	-3.203300E+01	  0.086364441	1.160400E+01	  0.086364441	5.250900E+01	  0.086364441	5.280000E-01
392	  0.086560242	-3.214200E+01	  0.086560242	1.096900E+01	  0.086560242	5.248300E+01	  0.086560242	4.930000E-01
393	  0.086756051	-3.203800E+01	  0.086756051	1.083300E+01	  0.086756051	5.251500E+01	  0.086756051	4.930000E-01
394	  0.086951852	-3.197800E+01	  0.086951852	1.120400E+01	  0.086951852	5.253000E+01	  0.086951852	5.140000E-01
395	  0.087147661	-3.195700E+01	  0.087147661	1.033200E+01	  0.087147661	5.254400E+01	  0.087147661	4.760000E-01
396	  0.087343477	-3.193800E+01	  0.087343477	9.753000E+00	  0.087343477	5.255400E+01	  0.087343477	4.500000E-01
397	  0.087539278	-3.193600E+01	  0.087539278	9.548000E+00	  0.087539278	5.255700E+01	  0.087539278	4.410000E-01
398	  0.087735087	-3.184500E+01	  0.087735087	9.234000E+00	  0.087735087	5.258700E+01	  0.087735087	4.310000E-01
399	  0.087930888	-3.186900E+01	  0.087930888	9.354000E+00	  0.087930888	5.257900E+01	  0.087930888	4.360000E-01
400	  0.088126697	-3.175900E+01	  0.088126697	8.445000E+00	  0.088126697	5.261900E+01	  0.088126697	3.990000E-01
401	  0.088322498	-3.177500E+01	  0.088322498	8.530000E+00	  0.088322498	5.261400E+01	  0.088322498	4.020000E-01
402	  0.088518307	-3.175200E+01	  0.088518307	8.231000E+00	  0.088518307	5.262300E+01	  0.088518307	3.890000E-01
403	  0.088714108	-3.177900E+01	  0.088714108	8.236000E+00	  0.088714108	5.261500E+01	  0.088714108	3.880000E-01
404	  0.088909924	-3.164600E+01	  0.088909924	8.254000E+00	  0.088909924	5.265600E+01	  0.088909924	3.950000E-01
405	  0.089105725	-3.160200E+01	  0.089105725	7.815000E+00	  0.089105725	5.267300E+01	  0.089105725	3.760000E-01
406	  0.089301534	-3.153100E+01	  0.089301534	7.635000E+00	  0.089301534	5.269700E+01	  0.089301534	3.710000E-01
407	  0.089497335	-3.156400E+01	  0.089497335	7.619000E+00	  0.089497335	5.268600E+01	  0.089497335	3.690000E-01
408	  0.089693144	-3.141600E+01	  0.089693144	7.318000E+00	  0.089693144	5.273600E+01	  0.089693144	3.610000E-01
409	  0.089888945	-3.145800E+01	  0.089888945	7.615000E+00	  0.089888945	5.272000E+01	  0.089888945	3.730000E-01
410	  0.090084754	-3.139800E+01	  0.090084754	7.653000E+00	  0.090084754	5.273900E+01	  0.090084754	3.780000E-01
411	  0.090280563	-3.140300E+01	  0.090280563	7.969000E+00	  0.090280563	5.273500E+01	  0.090280563	3.930000E-01
412	  0.090476371	-3.136600E+01	  0.090476371	7.510000E+00	  0.090476371	5.275100E+01	  0.090476371	3.720000E-01
413	  0.090672180	-3.140900E+01	  0.090672180	7.729000E+00	  0.090672180	5.273500E+01	  0.090672180	3.810000E-01
414	  0.090867981	-3.134000E+01	  0.090867981	8.115000E+00	  0.090867981	5.275500E+01	  0.090867981	4.030000E-01
415	  0.091063790	-3.132700E+01	  0.091063790	7.753000E+00	  0.091063790	5.276200E+01	  0.091063790	3.860000E-01
416	  0.091259591	-3.126900E+01	  0.091259591	7.907000E+00	  0.091259591	5.277900E+01	  0.091259591	3.970000E-01
417	  0.091455400	-3.133800E+01	  0.091455400	7.810000E+00	  0.091455400	5.275800E+01	  0.091455400	3.880000E-01
418	  0.091651201	-3.127200E+01	  0.091651201	8.200000E+00	  0.091651201	5.277700E+01	  0.091651201	4.110000E-01
419	  0.091847017	-3.129900E+01	  0.091847017	8.293000E+00	  0.091847017	5.276700E+01	  0.091847017	4.140000E-01
420	  0.092042819	-3.130400E+01	  0.092042819	8.278000E+00	  0.092042819	5.276500E+01	  0.092042819	4.130000E-01
421	  0.092238627	-3.136100E+01	  0.092238627	8.378000E+00	  0.092238627	5.274600E+01	  0.092238627	4.150000E-01
422	  0.092434436	-3.131900E+01	  0.092434436	7.946000E+00	  0.092434436	5.276300E+01	  0.092434436	3.960000E-01
423	  0.092630237	-3.129800E+01	  0.092630237	8.250000E+00	  0.092630237	5.276700E+01	  0.092630237	4.120000E-01
424	  0.092826046	-3.135300E+01	  0.092826046	8.607000E+00	  0.092826046	5.274700E+01	  0.092826046	4.270000E-01
425	  0.093021847	-3.144300E+01	  0.093021847	8.767000E+00	  0.093021847	5.271600E+01	  0.093021847	4.300000E-01
426	  0.093217656	-3.138800E+01	  0.093217656	8.584000E+00	  0.093217656	5.273600E+01	  0.093217656	4.240000E-01
427	  0.093413465	-3.134100E+01	  0.093413465	8.516000E+00	  0.093413465	5.275200E+01	  0.093413465	4.230000E-01
428	  0.093609273	-3.148700E+01	  0.093609273	8.826000E+00	  0.093609273	5.270200E+01	  0.093609273	4.310000E-01
429	  0.093805075	-3.147600E+01	  0.093805075	8.571000E+00	  0.093805075	5.270700E+01	  0.093805075	4.190000E-01
430	  0.094000883	-3.149400E+01	  0.094000883	8.220000E+00	  0.094000883	5.270400E+01	  0.094000883	4.010000E-01
431	  0.094196685	-3.157000E+01	  0.094196685	8.737000E+00	  0.094196685	5.267600E+01	  0.094196685	4.220000E-01
432	  0.094392493	-3.162400E+01	  0.094392493	8.087000E+00	  0.094392493	5.266400E+01	  0.094392493	3.880000E-01
433	  0.094588295	-3.166900E+01	  0.094588295	8.099000E+00	  0.094588295	5.265000E+01	  0.094588295	3.870000E-01
434	  0.094784103	-3.179300E+01	  0.094784103	7.570000E+00	  0.094784103	5.261500E+01	  0.094784103	3.560000E-01
435	  0.094979919	-3.179700E+01	  0.094979919	7.769000E+00	  0.094979919	5.261200E+01	  0.094979919	3.650000E-01
436	  0.095175721	-3.185000E+01	  0.095175721	6.944000E+00	  0.095175721	5.260100E+01	  0.095175721	3.250000E-01
437	  0.095371529	-3.190600E+01	  0.095371529	6.350000E+00	  0.095371529	5.258800E+01	  0.095371529	2.950000E-01
438	  0.095567331	-3.196000E+01	  0.095567331	5.837000E+00	  0.095567331	5.257400E+01	  0.095567331	2.700000E-01
439	  0.095763139	-3.195800E+01	  0.095763139	5.579000E+00	  0.095763139	5.257600E+01	  0.095763139	2.580000E-01
440	  0.095958941	-3.203800E+01	  0.095958941	5.521000E+00	  0.095958941	5.255200E+01	  0.095958941	2.530000E-01
441	  0.096154749	-3.201800E+01	  0.096154749	5.173000E+00	  0.096154749	5.255900E+01	  0.096154749	2.370000E-01
442	  0.096350558	-3.210200E+01	  0.096350558	4.427000E+00	  0.096350558	5.253700E+01	  0.096350558	2.010000E-01
443	  0.096546367	-3.210800E+01	  0.096546367	3.970000E+00	  0.096546367	5.253700E+01	  0.096546367	1.800000E-01
444	  0.096742168	-3.208000E+01	  0.096742168	3.444000E+00	  0.096742168	5.254700E+01	  0.096742168	1.570000E-01
445	  0.096937977	-3.214400E+01	  0.096937977	2.657000E+00	  0.096937977	5.253000E+01	  0.096937977	1.200000E-01
446	  0.097133778	-3.209400E+01	  0.097133778	2.332000E+00	  0.097133778	5.254500E+01	  0.097133778	1.060000E-01
447	  0.097329587	-3.199300E+01	  0.097329587	1.599000E+00	  0.097329587	5.257700E+01	  0.097329587	7.300000E-02
448	  0.097525395	-3.195400E+01	  0.097525395	1.007000E+00	  0.097525395	5.259000E+01	  0.097525395	4.600000E-02
449	  0.097721197	-3.197500E+01	  0.097721197	-1.590000E-01	  0.097721197	5.258400E+01	  0.097721197	-7.000000E-03
450	  0.097917013	-3.200600E+01	  0.097917013	2.720000E-01	  0.097917013	5.257400E+01	  0.097917013	1.200000E-02
451	  0.098112814	-3.188900E+01	  0.098112814	-6.010000E-01	  0.098112814	5.261000E+01	  0.098112814	-2.800000E-02
452	  0.098308623	-3.183600E+01	  0.098308623	-1.133000E+00	  0.098308623	5.262600E+01	  0.098308623	-5.300000E-02
453	  0.098504424	-3.184500E+01	  0.098504424	-1.626000E+00	  0.098504424	5.262300E+01	  0.098504424	-7.600000E-02
454	  0.098700233	-3.173200E+01	  0.098700233	-1.774000E+00	  0.098700233	5.265700E+01	  0.098700233	-8.400000E-02
455	  0.098896034	-3.171900E+01	  0.098896034	-2.334000E+00	  0.098896034	5.266100E+01	  0.098896034	-1.110000E-01
456	  0.099091843	-3.160800E+01	  0.099091843	-2.646000E+00	  0.099091843	5.269500E+01	  0.099091843	-1.270000E-01
457	  0.099287644	-3.153200E+01	  0.099287644	-2.589000E+00	  0.099287644	5.271900E+01	  0.099287644	-1.260000E-01
458	  0.099483460	-3.154100E+01	  0.099483460	-2.748000E+00	  0.099483460	5.271600E+01	  0.099483460	-1.330000E-01
459	  0.099679269	-3.149800E+01	  0.099679269	-3.230000E+00	  0.099679269	5.272900E+01	  0.099679269	-1.580000E-01
460	  0.099875070	-3.153700E+01	  0.099875070	-3.598000E+00	  0.099875070	5.271500E+01	  0.099875070	-1.750000E-01
461	  0.100070879	-3.134800E+01	  0.100070879	-3.253000E+00	  0.100070879	5.277700E+01	  0.100070879	-1.620000E-01
462	  0.100266680	-3.135900E+01	  0.100266680	-3.338000E+00	  0.100266680	5.277400E+01	  0.100266680	-1.660000E-01
463	  0.100462489	-3.118600E+01	  0.100462489	-3.206000E+00	  0.100462489	5.283100E+01	  0.100462489	-1.630000E-01
464	  0.100658290	-3.121700E+01	  0.100658290	-4.965000E+00	  0.100658290	5.281500E+01	  0.100658290	-2.510000E-01
465	  0.100854106	-3.115400E+01	  0.100854106	-4.084000E+00	  0.100854106	5.283900E+01	  0.100854106	-2.080000E-01
466	  0.101049908	-3.104600E+01	  0.101049908	-4.061000E+00	  0.101049908	5.287600E+01	  0.101049908	-2.100000E-01
467	  0.101245716	-3.108500E+01	  0.101245716	-4.279000E+00	  0.101245716	5.286200E+01	  0.101245716	-2.200000E-01
468	  0.101441517	-3.105000E+01	  0.101441517	-3.789000E+00	  0.101441517	5.287500E+01	  0.101441517	-1.950000E-01
469	  0.101637326	-3.103300E+01	  0.101637326	-3.904000E+00	  0.101637326	5.288100E+01	  0.101637326	-2.020000E-01
470	  0.101833127	-3.103900E+01	  0.101833127	-3.663000E+00	  0.101833127	5.288000E+01	  0.101833127	-1.890000E-01
471	  0.102028936	-3.105300E+01	  0.102028936	-3.632000E+00	  0.102028936	5.287500E+01	  0.102028936	-1.870000E-01
472	  0.102224737	-3.103400E+01	  0.102224737	-3.600000E+00	  0.102224737	5.288200E+01	  0.102224737	-1.860000E-01
473	  0.102420554	-3.098200E+01	  0.102420554	-3.819000E+00	  0.102420554	5.289900E+01	  0.102420554	-1.990000E-01
474	  0.102616362	-3.087800E+01	  0.102616362	-3.882000E+00	  0.102616362	5.293400E+01	  0.102616362	-2.050000E-01
475	  0.102812164	-3.111500E+01	  0.102812164	-4.054000E+00	  0.102812164	5.285200E+01	  0.102812164	-2.080000E-01
476	  0.103007972	-3.094800E+01	  0.103007972	-3.702000E+00	  0.103007972	5.291100E+01	  0.103007972	-1.930000E-01
477	  0.103203773	-3.098900E+01	  0.103203773	-4.493000E+00	  0.103203773	5.289400E+01	  0.103203773	-2.340000E-01
478	  0.103399582	-3.092000E+01	  0.103399582	-4.327000E+00	  0.103399582	5.291800E+01	  0.103399582	-2.270000E-01
479	  0.103595383	-3.101900E+01	  0.103595383	-4.451000E+00	  0.103595383	5.288400E+01	  0.103595383	-2.310000E-01
480	  0.103791192	-3.104600E+01	  0.103791192	-4.502000E+00	  0.103791192	5.287400E+01	  0.103791192	-2.320000E-01
481	  0.103987001	-3.110700E+01	  0.103987001	-4.527000E+00	  0.103987001	5.285300E+01	  0.103987001	-2.320000E-01
482	  0.104182810	-3.102600E+01	  0.104182810	-5.375000E+00	  0.104182810	5.287700E+01	  0.104182810	-2.780000E-01
483	  0.104378611	-3.094200E+01	  0.104378611	-5.284000E+00	  0.104378611	5.290600E+01	  0.104378611	-2.760000E-01
484	  0.104574420	-3.095200E+01	  0.104574420	-4.976000E+00	  0.104574420	5.290400E+01	  0.104574420	-2.600000E-01
485	  0.104770228	-3.095000E+01	  0.104770228	-5.377000E+00	  0.104770228	5.290300E+01	  0.104770228	-2.810000E-01
486	  0.104966030	-3.088200E+01	  0.104966030	-5.331000E+00	  0.104966030	5.292600E+01	  0.104966030	-2.810000E-01
487	  0.105161838	-3.080400E+01	  0.105161838	-5.335000E+00	  0.105161838	5.295300E+01	  0.105161838	-2.840000E-01
488	  0.105357639	-3.088000E+01	  0.105357639	-5.687000E+00	  0.105357639	5.292500E+01	  0.105357639	-2.990000E-01
489	  0.105553456	-3.090600E+01	  0.105553456	-5.623000E+00	  0.105553456	5.291700E+01	  0.105553456	-2.950000E-01
490	  0.105749257	-3.084500E+01	  0.105749257	-5.919000E+00	  0.105749257	5.293600E+01	  0.105749257	-3.130000E-01
491	  0.105945066	-3.075600E+01	  0.105945066	-6.172000E+00	  0.105945066	5.296600E+01	  0.105945066	-3.300000E-01
492	  0.106140867	-3.080100E+01	  0.106140867	-6.767000E+00	  0.106140867	5.294600E+01	  0.106140867	-3.600000E-01
493	  0.106336676	-3.082400E+01	  0.106336676	-6.880000E+00	  0.106336676	5.293700E+01	  0.106336676	-3.650000E-01
494	  0.106532477	-3.066700E+01	  0.106532477	-6.199000E+00	  0.106532477	5.299700E+01	  0.106532477	-3.350000E-01
495	  0.106728286	-3.065800E+01	  0.106728286	-6.267000E+00	  0.106728286	5.300000E+01	  0.106728286	-3.390000E-01
496	  0.106924094	-3.067800E+01	  0.106924094	-6.284000E+00	  0.106924094	5.299200E+01	  0.106924094	-3.390000E-01
497	  0.107119903	-3.066200E+01	  0.107119903	-6.545000E+00	  0.107119903	5.299700E+01	  0.107119903	-3.540000E-01
498	  0.107315712	-3.060500E+01	  0.107315712	-6.973000E+00	  0.107315712	5.301400E+01	  0.107315712	-3.800000E-01
499	  0.107511513	-3.060800E+01	  0.107511513	-7.014000E+00	  0.107511513	5.301200E+01	  0.107511513	-3.820000E-01
500	  0.107707322	-3.058800E+01	  0.107707322	-6.150000E+00	  0.107707322	5.302600E+01	  0.107707322	-3.360000E-01
501	  0.107903123	-3.062000E+01	  0.107903123	-6.502000E+00	  0.107903123	5.301200E+01	  0.107903123	-3.530000E-01
