! Anritsu VNA Master:             	Model: MS2036C/10/77
! SN:             	1601066
! /bd0/18may12.cable.cal/bot.200.txt
! Existing Calibration Information:
! TYPE:             	Current Settings	Active Cal Settings
! TIME:             	05/12/2018 01:47:35 PM	05/12/2018 01:41:40 PM
! INTERNAL TEMP:    	49.0 C	49.0 C
! # POINTS:         	500	500
! START FREQ:       	20.000 MHz	20.000 MHz
! STOP FREQ:        	120.000 MHz	120.000 MHz
! SOURCE POWER:     	High	High
! IFBW:             	50 Hz	50 Hz
! AVG FACTOR:       	  1 	  1 
! REF PLANE 1:      	0 mm	0 mm
! REF PLANE 2:      	0 mm	0 mm
! CAL TYPE:         	Full S22	Full S22
! CAL METHOD:       	SOLT	SOLT
! CAL LINE TYPE:    	Coax	Coax
! DUT PORT 1:       	K-Conn(M)	K-Conn(M)
! DUT PORT 2:       	K-Conn(M)	K-Conn(M)
! CAL STATUS:       	OK: Accuracy High	--
! PROP-V:       	0.700
! CABLE LOSS:       	0.000 dB/m
! REF IMPEDANCE:       	50.0
! Trace Specific Parameters:	TR1	TR2	TR3	TR4
! TRACE.#.Y (GRAPH TYPE)	LOG MAG	PHASE	REAL IMPEDANCE	IMAGINARY IMPEDANCE
! TRACE.#.X 	FREQ.GHZ	FREQ.GHZ	FREQ.GHZ	FREQ.GHZ
! S-PARAMETER	S22	S22	S22	S22
! SMOOTH/APERTURE %	0	0	0	0
! WINDOW	NSL	NSL	NSL	NSL
! GATING	OFF	OFF	OFF	OFF
! FGTD	OFF	OFF	OFF	OFF
Marker Information per Trace:	TR1	TR2	TR3	TR4
!MK1	--	"MK1 TR2:  12.184 368 MHz,##.##"	--	--
!MK2	--	--	"MK2 TR3:  12.184 368 MHz,##.##"	--
!MK3	--	--	--	--
!MK4	--	--	--	--
!MK5	--	--	--	--
!MK6	--	--	--	--
!MK7	--	--	--	--
!MK8	--	--	--	--
PNT	TR1.FREQ.GHZ	TR1.LOG MAG.dB	TR2.FREQ.GHZ	TR2.PHASE.deg	TR3.FREQ.GHZ	TR3.REAL IMPEDANCE.ohm	TR4.FREQ.GHZ	TR4.IMAGINARY IMPEDANCE.ohm
1	  0.020000000	-4.539000E+00	  0.020000000	-2.239100E+01	  0.020000000	1.270890E+02	  0.020000000	-8.854000E+01
2	  0.020200402	-4.540000E+00	  0.020200402	-2.261900E+01	  0.020200402	1.261870E+02	  0.020200402	-8.873500E+01
3	  0.020400802	-4.539000E+00	  0.020400802	-2.284100E+01	  0.020400802	1.253250E+02	  0.020400802	-8.897000E+01
4	  0.020601204	-4.541000E+00	  0.020601204	-2.305800E+01	  0.020601204	1.244730E+02	  0.020601204	-8.911400E+01
5	  0.020801604	-4.541000E+00	  0.020801604	-2.330000E+01	  0.020801604	1.235360E+02	  0.020801604	-8.932100E+01
6	  0.021002004	-4.543000E+00	  0.021002004	-2.352600E+01	  0.021002004	1.226600E+02	  0.021002004	-8.946700E+01
7	  0.021202406	-4.543000E+00	  0.021202406	-2.375100E+01	  0.021202406	1.218010E+02	  0.021202406	-8.964700E+01
8	  0.021402806	-4.543000E+00	  0.021402806	-2.397600E+01	  0.021402806	1.209450E+02	  0.021402806	-8.979600E+01
9	  0.021603208	-4.544000E+00	  0.021603208	-2.420500E+01	  0.021603208	1.200750E+02	  0.021603208	-8.993700E+01
10	  0.021803608	-4.544000E+00	  0.021803608	-2.443200E+01	  0.021803608	1.192210E+02	  0.021803608	-9.008600E+01
11	  0.022004008	-4.545000E+00	  0.022004008	-2.465400E+01	  0.022004008	1.183890E+02	  0.022004008	-9.019200E+01
12	  0.022204408	-4.546000E+00	  0.022204408	-2.488400E+01	  0.022204408	1.175300E+02	  0.022204408	-9.030400E+01
13	  0.022404809	-4.545000E+00	  0.022404809	-2.511300E+01	  0.022404809	1.166860E+02	  0.022404809	-9.044000E+01
14	  0.022605211	-4.547000E+00	  0.022605211	-2.532600E+01	  0.022605211	1.158960E+02	  0.022605211	-9.050700E+01
15	  0.022805611	-4.547000E+00	  0.022805611	-2.555100E+01	  0.022805611	1.150770E+02	  0.022805611	-9.060000E+01
16	  0.023006011	-4.548000E+00	  0.023006011	-2.578000E+01	  0.023006011	1.142420E+02	  0.023006011	-9.068600E+01
17	  0.023206413	-4.549000E+00	  0.023206413	-2.600400E+01	  0.023206413	1.134340E+02	  0.023206413	-9.075200E+01
18	  0.023406813	-4.548000E+00	  0.023406813	-2.623700E+01	  0.023406813	1.126010E+02	  0.023406813	-9.085000E+01
19	  0.023607215	-4.549000E+00	  0.023607215	-2.646600E+01	  0.023607215	1.117820E+02	  0.023607215	-9.089400E+01
20	  0.023807615	-4.550000E+00	  0.023807615	-2.669400E+01	  0.023807615	1.109750E+02	  0.023807615	-9.094900E+01
21	  0.024008015	-4.551000E+00	  0.024008015	-2.691500E+01	  0.024008015	1.101980E+02	  0.024008015	-9.096800E+01
22	  0.024208417	-4.551000E+00	  0.024208417	-2.714500E+01	  0.024208417	1.093970E+02	  0.024208417	-9.102200E+01
23	  0.024408817	-4.552000E+00	  0.024408817	-2.735500E+01	  0.024408817	1.086680E+02	  0.024408817	-9.104600E+01
24	  0.024609219	-4.552000E+00	  0.024609219	-2.759800E+01	  0.024609219	1.078320E+02	  0.024609219	-9.107900E+01
25	  0.024809619	-4.553000E+00	  0.024809619	-2.781500E+01	  0.024809619	1.070870E+02	  0.024809619	-9.109800E+01
26	  0.025010020	-4.555000E+00	  0.025010020	-2.803600E+01	  0.025010020	1.063390E+02	  0.025010020	-9.106500E+01
27	  0.025210422	-4.554000E+00	  0.025210422	-2.826600E+01	  0.025210422	1.055630E+02	  0.025210422	-9.109700E+01
28	  0.025410822	-4.556000E+00	  0.025410822	-2.848800E+01	  0.025410822	1.048210E+02	  0.025410822	-9.106200E+01
29	  0.025611224	-4.558000E+00	  0.025611224	-2.871200E+01	  0.025611224	1.040760E+02	  0.025611224	-9.103500E+01
30	  0.025811624	-4.559000E+00	  0.025811624	-2.893300E+01	  0.025811624	1.033470E+02	  0.025811624	-9.101000E+01
31	  0.026012026	-4.559000E+00	  0.026012026	-2.916300E+01	  0.026012026	1.025950E+02	  0.026012026	-9.099300E+01
32	  0.026212426	-4.560000E+00	  0.026212426	-2.939800E+01	  0.026212426	1.018340E+02	  0.026212426	-9.097900E+01
33	  0.026412826	-4.561000E+00	  0.026412826	-2.962100E+01	  0.026412826	1.011150E+02	  0.026412826	-9.093900E+01
34	  0.026613226	-4.562000E+00	  0.026613226	-2.984400E+01	  0.026613226	1.004020E+02	  0.026613226	-9.088600E+01
35	  0.026813626	-4.562000E+00	  0.026813626	-3.008200E+01	  0.026813626	9.964700E+01	  0.026813626	-9.084900E+01
36	  0.027014028	-4.562000E+00	  0.027014028	-3.030700E+01	  0.027014028	9.893900E+01	  0.027014028	-9.082800E+01
37	  0.027214428	-4.563000E+00	  0.027214428	-3.053200E+01	  0.027214428	9.823600E+01	  0.027214428	-9.076300E+01
38	  0.027414829	-4.563000E+00	  0.027414829	-3.075200E+01	  0.027414829	9.755400E+01	  0.027414829	-9.072200E+01
39	  0.027615231	-4.563000E+00	  0.027615231	-3.098400E+01	  0.027615231	9.684200E+01	  0.027615231	-9.066500E+01
40	  0.027815631	-4.564000E+00	  0.027815631	-3.121400E+01	  0.027815631	9.614100E+01	  0.027815631	-9.058000E+01
41	  0.028016033	-4.565000E+00	  0.028016033	-3.144400E+01	  0.028016033	9.544800E+01	  0.028016033	-9.050400E+01
42	  0.028216433	-4.566000E+00	  0.028216433	-3.166100E+01	  0.028216433	9.479800E+01	  0.028216433	-9.041700E+01
43	  0.028416833	-4.567000E+00	  0.028416833	-3.190200E+01	  0.028416833	9.407900E+01	  0.028416833	-9.033500E+01
44	  0.028617235	-4.566000E+00	  0.028617235	-3.211700E+01	  0.028617235	9.344100E+01	  0.028617235	-9.028000E+01
45	  0.028817635	-4.567000E+00	  0.028817635	-3.235100E+01	  0.028817635	9.275900E+01	  0.028817635	-9.017100E+01
46	  0.029018037	-4.568000E+00	  0.029018037	-3.257600E+01	  0.029018037	9.210700E+01	  0.029018037	-9.008400E+01
47	  0.029218437	-4.568000E+00	  0.029218437	-3.280400E+01	  0.029218437	9.145000E+01	  0.029218437	-8.999700E+01
48	  0.029418837	-4.569000E+00	  0.029418837	-3.302900E+01	  0.029418837	9.080900E+01	  0.029418837	-8.987700E+01
49	  0.029619239	-4.568000E+00	  0.029619239	-3.325500E+01	  0.029619239	9.016400E+01	  0.029619239	-8.980100E+01
50	  0.029819639	-4.570000E+00	  0.029819639	-3.349000E+01	  0.029819639	8.950800E+01	  0.029819639	-8.966200E+01
51	  0.030020041	-4.569000E+00	  0.030020041	-3.372600E+01	  0.030020041	8.884700E+01	  0.030020041	-8.957400E+01
52	  0.030220442	-4.571000E+00	  0.030220442	-3.394400E+01	  0.030220442	8.825000E+01	  0.030220442	-8.944400E+01
53	  0.030420844	-4.571000E+00	  0.030420844	-3.417600E+01	  0.030420844	8.761600E+01	  0.030420844	-8.932600E+01
54	  0.030621244	-4.572000E+00	  0.030621244	-3.440800E+01	  0.030621244	8.698600E+01	  0.030621244	-8.920500E+01
55	  0.030821644	-4.572000E+00	  0.030821644	-3.462900E+01	  0.030821644	8.639100E+01	  0.030821644	-8.908300E+01
56	  0.031022044	-4.572000E+00	  0.031022044	-3.486300E+01	  0.031022044	8.576500E+01	  0.031022044	-8.895800E+01
57	  0.031222444	-4.561000E+00	  0.031222444	-3.503100E+01	  0.031222444	8.527700E+01	  0.031222444	-8.906100E+01
58	  0.031422846	-4.562000E+00	  0.031422846	-3.525800E+01	  0.031422846	8.468000E+01	  0.031422846	-8.892600E+01
59	  0.031623244	-4.562000E+00	  0.031623244	-3.549300E+01	  0.031623244	8.406800E+01	  0.031623244	-8.878600E+01
60	  0.031823646	-4.564000E+00	  0.031823646	-3.572300E+01	  0.031823646	8.347900E+01	  0.031823646	-8.861200E+01
61	  0.032024048	-4.564000E+00	  0.032024048	-3.596000E+01	  0.032024048	8.286900E+01	  0.032024048	-8.847500E+01
62	  0.032224450	-4.565000E+00	  0.032224450	-3.618500E+01	  0.032224450	8.230200E+01	  0.032224450	-8.831100E+01
63	  0.032424849	-4.565000E+00	  0.032424849	-3.641100E+01	  0.032424849	8.172900E+01	  0.032424849	-8.817900E+01
64	  0.032625251	-4.566000E+00	  0.032625251	-3.664200E+01	  0.032625251	8.115700E+01	  0.032625251	-8.801000E+01
65	  0.032825653	-4.567000E+00	  0.032825653	-3.686300E+01	  0.032825653	8.060800E+01	  0.032825653	-8.786400E+01
66	  0.033026051	-4.569000E+00	  0.033026051	-3.709800E+01	  0.033026051	8.004100E+01	  0.033026051	-8.767500E+01
67	  0.033226453	-4.569000E+00	  0.033226453	-3.733500E+01	  0.033226453	7.946300E+01	  0.033226453	-8.751300E+01
68	  0.033426855	-4.570000E+00	  0.033426855	-3.755500E+01	  0.033426855	7.893400E+01	  0.033426855	-8.735000E+01
69	  0.033627257	-4.571000E+00	  0.033627257	-3.779200E+01	  0.033627257	7.837000E+01	  0.033627257	-8.717400E+01
70	  0.033827655	-4.570000E+00	  0.033827655	-3.801600E+01	  0.033827655	7.783600E+01	  0.033827655	-8.702700E+01
71	  0.034028057	-4.571000E+00	  0.034028057	-3.824100E+01	  0.034028057	7.730900E+01	  0.034028057	-8.686100E+01
72	  0.034228459	-4.572000E+00	  0.034228459	-3.847100E+01	  0.034228459	7.677800E+01	  0.034228459	-8.668200E+01
73	  0.034428857	-4.571000E+00	  0.034428857	-3.869400E+01	  0.034428857	7.625600E+01	  0.034428857	-8.653700E+01
74	  0.034629259	-4.572000E+00	  0.034629259	-3.892300E+01	  0.034629259	7.573600E+01	  0.034629259	-8.635400E+01
75	  0.034829661	-4.572000E+00	  0.034829661	-3.915500E+01	  0.034829661	7.521000E+01	  0.034829661	-8.618000E+01
76	  0.035030060	-4.573000E+00	  0.035030060	-3.938200E+01	  0.035030060	7.470600E+01	  0.035030060	-8.598700E+01
77	  0.035230462	-4.572000E+00	  0.035230462	-3.960600E+01	  0.035230462	7.419800E+01	  0.035230462	-8.583900E+01
78	  0.035430863	-4.572000E+00	  0.035430863	-3.984200E+01	  0.035430863	7.367500E+01	  0.035430863	-8.565700E+01
79	  0.035631265	-4.573000E+00	  0.035631265	-4.007000E+01	  0.035631265	7.318000E+01	  0.035631265	-8.546800E+01
80	  0.035831664	-4.574000E+00	  0.035831664	-4.028900E+01	  0.035831664	7.271100E+01	  0.035831664	-8.527600E+01
81	  0.036032066	-4.574000E+00	  0.036032066	-4.051100E+01	  0.036032066	7.223100E+01	  0.036032066	-8.510700E+01
82	  0.036232468	-4.576000E+00	  0.036232468	-4.074100E+01	  0.036232468	7.174900E+01	  0.036232468	-8.490000E+01
83	  0.036432866	-4.577000E+00	  0.036432866	-4.096800E+01	  0.036432866	7.127500E+01	  0.036432866	-8.470400E+01
84	  0.036633268	-4.575000E+00	  0.036633268	-4.118800E+01	  0.036633268	7.080500E+01	  0.036633268	-8.454500E+01
85	  0.036833670	-4.577000E+00	  0.036833670	-4.142000E+01	  0.036833670	7.033300E+01	  0.036833670	-8.433100E+01
86	  0.037034072	-4.576000E+00	  0.037034072	-4.164200E+01	  0.037034072	6.986800E+01	  0.037034072	-8.416900E+01
87	  0.037234470	-4.575000E+00	  0.037234470	-4.187000E+01	  0.037234470	6.939800E+01	  0.037234470	-8.398900E+01
88	  0.037434869	-4.577000E+00	  0.037434869	-4.211000E+01	  0.037434869	6.892200E+01	  0.037434869	-8.376800E+01
89	  0.037635271	-4.578000E+00	  0.037635271	-4.232800E+01	  0.037635271	6.849200E+01	  0.037635271	-8.357000E+01
90	  0.037835669	-4.577000E+00	  0.037835669	-4.255600E+01	  0.037835669	6.803300E+01	  0.037835669	-8.338900E+01
91	  0.038036071	-4.576000E+00	  0.038036071	-4.277000E+01	  0.038036071	6.760400E+01	  0.038036071	-8.322700E+01
92	  0.038236473	-4.578000E+00	  0.038236473	-4.299800E+01	  0.038236473	6.717200E+01	  0.038236473	-8.300000E+01
93	  0.038436871	-4.577000E+00	  0.038436871	-4.321700E+01	  0.038436871	6.674100E+01	  0.038436871	-8.282500E+01
94	  0.038637273	-4.580000E+00	  0.038637273	-4.344000E+01	  0.038637273	6.632900E+01	  0.038637273	-8.259800E+01
95	  0.038837675	-4.578000E+00	  0.038837675	-4.367400E+01	  0.038837675	6.587300E+01	  0.038837675	-8.242000E+01
96	  0.039038073	-4.580000E+00	  0.039038073	-4.389800E+01	  0.039038073	6.546100E+01	  0.039038073	-8.220300E+01
97	  0.039238475	-4.581000E+00	  0.039238475	-4.413000E+01	  0.039238475	6.503300E+01	  0.039238475	-8.199200E+01
98	  0.039438877	-4.582000E+00	  0.039438877	-4.434600E+01	  0.039438877	6.463700E+01	  0.039438877	-8.179300E+01
99	  0.039639279	-4.581000E+00	  0.039639279	-4.457400E+01	  0.039639279	6.421100E+01	  0.039639279	-8.160600E+01
100	  0.039839678	-4.584000E+00	  0.039839678	-4.481200E+01	  0.039839678	6.379700E+01	  0.039839678	-8.135900E+01
101	  0.040040080	-4.583000E+00	  0.040040080	-4.503100E+01	  0.040040080	6.339300E+01	  0.040040080	-8.118200E+01
102	  0.040240481	-4.585000E+00	  0.040240481	-4.523900E+01	  0.040240481	6.303300E+01	  0.040240481	-8.097200E+01
103	  0.040440880	-4.584000E+00	  0.040440880	-4.547900E+01	  0.040440880	6.260500E+01	  0.040440880	-8.076400E+01
104	  0.040641282	-4.587000E+00	  0.040641282	-4.571000E+01	  0.040641282	6.221400E+01	  0.040641282	-8.053000E+01
105	  0.040841684	-4.585000E+00	  0.040841684	-4.593200E+01	  0.040841684	6.181700E+01	  0.040841684	-8.035200E+01
106	  0.041042086	-4.586000E+00	  0.041042086	-4.615500E+01	  0.041042086	6.143700E+01	  0.041042086	-8.014200E+01
107	  0.041242484	-4.587000E+00	  0.041242484	-4.638500E+01	  0.041242484	6.105200E+01	  0.041242484	-7.991800E+01
108	  0.041442886	-4.588000E+00	  0.041442886	-4.660800E+01	  0.041442886	6.067800E+01	  0.041442886	-7.970900E+01
109	  0.041643288	-4.587000E+00	  0.041643288	-4.682600E+01	  0.041643288	6.030600E+01	  0.041643288	-7.952100E+01
110	  0.041843686	-4.589000E+00	  0.041843686	-4.706600E+01	  0.041843686	5.991600E+01	  0.041843686	-7.928500E+01
111	  0.042044088	-4.589000E+00	  0.042044088	-4.728800E+01	  0.042044088	5.955000E+01	  0.042044088	-7.908500E+01
112	  0.042244490	-4.591000E+00	  0.042244490	-4.752100E+01	  0.042244490	5.918400E+01	  0.042244490	-7.884500E+01
113	  0.042444889	-4.591000E+00	  0.042444889	-4.774100E+01	  0.042444889	5.882700E+01	  0.042444889	-7.864400E+01
114	  0.042645290	-4.590000E+00	  0.042645290	-4.797900E+01	  0.042645290	5.843800E+01	  0.042645290	-7.843800E+01
115	  0.042845692	-4.593000E+00	  0.042845692	-4.820800E+01	  0.042845692	5.808900E+01	  0.042845692	-7.820300E+01
116	  0.043046094	-4.594000E+00	  0.043046094	-4.843100E+01	  0.043046094	5.774300E+01	  0.043046094	-7.798800E+01
117	  0.043246493	-4.594000E+00	  0.043246493	-4.865200E+01	  0.043246493	5.739900E+01	  0.043246493	-7.778000E+01
118	  0.043446895	-4.595000E+00	  0.043446895	-4.888600E+01	  0.043446895	5.704100E+01	  0.043446895	-7.756000E+01
119	  0.043647297	-4.595000E+00	  0.043647297	-4.912100E+01	  0.043647297	5.667700E+01	  0.043647297	-7.734600E+01
120	  0.043847695	-4.598000E+00	  0.043847695	-4.934300E+01	  0.043847695	5.635700E+01	  0.043847695	-7.711300E+01
121	  0.044048097	-4.597000E+00	  0.044048097	-4.957500E+01	  0.044048097	5.600300E+01	  0.044048097	-7.690500E+01
122	  0.044248499	-4.597000E+00	  0.044248499	-4.980200E+01	  0.044248499	5.566600E+01	  0.044248499	-7.669100E+01
123	  0.044448901	-4.598000E+00	  0.044448901	-5.002400E+01	  0.044448901	5.534200E+01	  0.044448901	-7.647600E+01
124	  0.044649299	-4.600000E+00	  0.044649299	-5.026800E+01	  0.044649299	5.499500E+01	  0.044649299	-7.623600E+01
125	  0.044849701	-4.600000E+00	  0.044849701	-5.049000E+01	  0.044849701	5.467300E+01	  0.044849701	-7.602700E+01
126	  0.045050103	-4.601000E+00	  0.045050103	-5.072400E+01	  0.045050103	5.433900E+01	  0.045050103	-7.580600E+01
127	  0.045250501	-4.604000E+00	  0.045250501	-5.095000E+01	  0.045250501	5.403300E+01	  0.045250501	-7.557000E+01
128	  0.045450903	-4.604000E+00	  0.045450903	-5.117800E+01	  0.045450903	5.371000E+01	  0.045450903	-7.535700E+01
129	  0.045651305	-4.604000E+00	  0.045651305	-5.140700E+01	  0.045651305	5.338700E+01	  0.045651305	-7.514500E+01
130	  0.045851704	-4.605000E+00	  0.045851704	-5.163500E+01	  0.045851704	5.307500E+01	  0.045851704	-7.492600E+01
131	  0.046052106	-4.604000E+00	  0.046052106	-5.187200E+01	  0.046052106	5.274300E+01	  0.046052106	-7.471600E+01
132	  0.046252504	-4.606000E+00	  0.046252504	-5.210400E+01	  0.046252504	5.243400E+01	  0.046252504	-7.448500E+01
133	  0.046452906	-4.605000E+00	  0.046452906	-5.233400E+01	  0.046452906	5.211700E+01	  0.046452906	-7.428000E+01
134	  0.046653304	-4.607000E+00	  0.046653304	-5.256600E+01	  0.046653304	5.182000E+01	  0.046653304	-7.404500E+01
135	  0.046853706	-4.607000E+00	  0.046853706	-5.280200E+01	  0.046853706	5.150200E+01	  0.046853706	-7.383200E+01
136	  0.047054108	-4.609000E+00	  0.047054108	-5.301800E+01	  0.047054108	5.123200E+01	  0.047054108	-7.360900E+01
137	  0.047254506	-4.610000E+00	  0.047254506	-5.326800E+01	  0.047254506	5.090700E+01	  0.047254506	-7.337500E+01
138	  0.047454908	-4.610000E+00	  0.047454908	-5.349600E+01	  0.047454908	5.061600E+01	  0.047454908	-7.315800E+01
139	  0.047655310	-4.611000E+00	  0.047655310	-5.372600E+01	  0.047655310	5.032100E+01	  0.047655310	-7.294300E+01
140	  0.047855709	-4.611000E+00	  0.047855709	-5.395200E+01	  0.047855709	5.003800E+01	  0.047855709	-7.272900E+01
141	  0.048056111	-4.612000E+00	  0.048056111	-5.418900E+01	  0.048056111	4.974100E+01	  0.048056111	-7.250600E+01
142	  0.048256513	-4.613000E+00	  0.048256513	-5.441700E+01	  0.048256513	4.946100E+01	  0.048256513	-7.228700E+01
143	  0.048456915	-4.614000E+00	  0.048456915	-5.464200E+01	  0.048456915	4.918700E+01	  0.048456915	-7.207300E+01
144	  0.048657313	-4.615000E+00	  0.048657313	-5.487500E+01	  0.048657313	4.890500E+01	  0.048657313	-7.185200E+01
145	  0.048857715	-4.615000E+00	  0.048857715	-5.510100E+01	  0.048857715	4.863200E+01	  0.048857715	-7.163900E+01
146	  0.049058117	-4.617000E+00	  0.049058117	-5.533200E+01	  0.049058117	4.836500E+01	  0.049058117	-7.141100E+01
147	  0.049258515	-4.617000E+00	  0.049258515	-5.557400E+01	  0.049258515	4.807200E+01	  0.049258515	-7.119100E+01
148	  0.049458917	-4.618000E+00	  0.049458917	-5.580700E+01	  0.049458917	4.780300E+01	  0.049458917	-7.096700E+01
149	  0.049659319	-4.619000E+00	  0.049659319	-5.601700E+01	  0.049659319	4.755800E+01	  0.049659319	-7.077000E+01
150	  0.049859721	-4.618000E+00	  0.049859721	-5.624500E+01	  0.049859721	4.728800E+01	  0.049859721	-7.056600E+01
151	  0.050060119	-4.620000E+00	  0.050060119	-5.649400E+01	  0.050060119	4.701200E+01	  0.050060119	-7.032500E+01
152	  0.050260521	-4.621000E+00	  0.050260521	-5.670900E+01	  0.050260521	4.676800E+01	  0.050260521	-7.012300E+01
153	  0.050460923	-4.619000E+00	  0.050460923	-5.695600E+01	  0.050460923	4.647500E+01	  0.050460923	-6.991300E+01
154	  0.050661322	-4.623000E+00	  0.050661322	-5.718300E+01	  0.050661322	4.624600E+01	  0.050661322	-6.967200E+01
155	  0.050861724	-4.623000E+00	  0.050861724	-5.740400E+01	  0.050861724	4.599700E+01	  0.050861724	-6.947200E+01
156	  0.051062126	-4.625000E+00	  0.051062126	-5.764800E+01	  0.051062126	4.573700E+01	  0.051062126	-6.923500E+01
157	  0.051262524	-4.625000E+00	  0.051262524	-5.786800E+01	  0.051262524	4.549500E+01	  0.051262524	-6.903700E+01
158	  0.051462926	-4.624000E+00	  0.051462926	-5.808500E+01	  0.051462926	4.525300E+01	  0.051462926	-6.884500E+01
159	  0.051663328	-4.626000E+00	  0.051663328	-5.831600E+01	  0.051663328	4.501600E+01	  0.051663328	-6.862100E+01
160	  0.051863730	-4.627000E+00	  0.051863730	-5.856000E+01	  0.051863730	4.475900E+01	  0.051863730	-6.839500E+01
161	  0.052064128	-4.629000E+00	  0.052064128	-5.879000E+01	  0.052064128	4.452300E+01	  0.052064128	-6.817700E+01
162	  0.052264530	-4.629000E+00	  0.052264530	-5.901200E+01	  0.052264530	4.429100E+01	  0.052264530	-6.797500E+01
163	  0.052464932	-4.628000E+00	  0.052464932	-5.924700E+01	  0.052464932	4.403700E+01	  0.052464932	-6.777200E+01
164	  0.052665330	-4.629000E+00	  0.052665330	-5.947600E+01	  0.052665330	4.380900E+01	  0.052665330	-6.755500E+01
165	  0.052865732	-4.631000E+00	  0.052865732	-5.970700E+01	  0.052865732	4.357900E+01	  0.052865732	-6.734000E+01
166	  0.053066134	-4.632000E+00	  0.053066134	-5.993100E+01	  0.053066134	4.336000E+01	  0.053066134	-6.712800E+01
167	  0.053266536	-4.632000E+00	  0.053266536	-6.015900E+01	  0.053266536	4.312600E+01	  0.053266536	-6.692700E+01
168	  0.053466935	-4.632000E+00	  0.053466935	-6.038600E+01	  0.053466935	4.290200E+01	  0.053466935	-6.672000E+01
169	  0.053667337	-4.632000E+00	  0.053667337	-6.062400E+01	  0.053667337	4.266400E+01	  0.053667337	-6.651000E+01
170	  0.053867739	-4.634000E+00	  0.053867739	-6.085700E+01	  0.053867739	4.244600E+01	  0.053867739	-6.628900E+01
171	  0.054068137	-4.634000E+00	  0.054068137	-6.107400E+01	  0.054068137	4.223200E+01	  0.054068137	-6.609900E+01
172	  0.054268539	-4.636000E+00	  0.054268539	-6.129600E+01	  0.054268539	4.202700E+01	  0.054268539	-6.589000E+01
173	  0.054468941	-4.636000E+00	  0.054468941	-6.154100E+01	  0.054468941	4.179300E+01	  0.054468941	-6.567300E+01
174	  0.054669339	-4.637000E+00	  0.054669339	-6.176900E+01	  0.054669339	4.158500E+01	  0.054669339	-6.546100E+01
175	  0.054869737	-4.636000E+00	  0.054869737	-6.198600E+01	  0.054869737	4.137400E+01	  0.054869737	-6.527600E+01
176	  0.055070139	-4.638000E+00	  0.055070139	-6.222100E+01	  0.055070139	4.115900E+01	  0.055070139	-6.506200E+01
177	  0.055270538	-4.638000E+00	  0.055270538	-6.245500E+01	  0.055270538	4.094300E+01	  0.055270538	-6.485300E+01
178	  0.055470940	-4.639000E+00	  0.055470940	-6.267800E+01	  0.055470940	4.074600E+01	  0.055470940	-6.464900E+01
179	  0.055671342	-4.639000E+00	  0.055671342	-6.290700E+01	  0.055671342	4.053500E+01	  0.055671342	-6.445000E+01
180	  0.055871744	-4.643000E+00	  0.055871744	-6.314100E+01	  0.055871744	4.034500E+01	  0.055871744	-6.422300E+01
181	  0.056072142	-4.642000E+00	  0.056072142	-6.336900E+01	  0.056072142	4.013600E+01	  0.056072142	-6.402800E+01
182	  0.056272544	-4.642000E+00	  0.056272544	-6.359200E+01	  0.056272544	3.993400E+01	  0.056272544	-6.383600E+01
183	  0.056472946	-4.643000E+00	  0.056472946	-6.382600E+01	  0.056472946	3.973100E+01	  0.056472946	-6.363000E+01
184	  0.056673344	-4.644000E+00	  0.056673344	-6.406300E+01	  0.056673344	3.953200E+01	  0.056673344	-6.341400E+01
185	  0.056873746	-4.647000E+00	  0.056873746	-6.427400E+01	  0.056873746	3.936500E+01	  0.056873746	-6.321500E+01
186	  0.057074148	-4.647000E+00	  0.057074148	-6.452700E+01	  0.057074148	3.914300E+01	  0.057074148	-6.300000E+01
187	  0.057274550	-4.648000E+00	  0.057274550	-6.474900E+01	  0.057274550	3.896000E+01	  0.057274550	-6.280200E+01
188	  0.057474948	-4.649000E+00	  0.057474948	-6.496900E+01	  0.057474948	3.877800E+01	  0.057474948	-6.260800E+01
189	  0.057675350	-4.652000E+00	  0.057675350	-6.520000E+01	  0.057675350	3.859900E+01	  0.057675350	-6.239300E+01
190	  0.057875752	-4.651000E+00	  0.057875752	-6.543700E+01	  0.057875752	3.839600E+01	  0.057875752	-6.219600E+01
191	  0.058076151	-4.654000E+00	  0.058076151	-6.567900E+01	  0.058076151	3.821000E+01	  0.058076151	-6.197500E+01
192	  0.058276553	-4.652000E+00	  0.058276553	-6.589300E+01	  0.058276553	3.802400E+01	  0.058276553	-6.180300E+01
193	  0.058476955	-4.654000E+00	  0.058476955	-6.612600E+01	  0.058476955	3.784300E+01	  0.058476955	-6.159500E+01
194	  0.058677353	-4.656000E+00	  0.058677353	-6.635900E+01	  0.058677353	3.766800E+01	  0.058677353	-6.138400E+01
195	  0.058877755	-4.656000E+00	  0.058877755	-6.660000E+01	  0.058877755	3.747300E+01	  0.058877755	-6.118100E+01
196	  0.059078157	-4.655000E+00	  0.059078157	-6.682000E+01	  0.059078157	3.729500E+01	  0.059078157	-6.099800E+01
197	  0.059278559	-4.658000E+00	  0.059278559	-6.705300E+01	  0.059278559	3.712400E+01	  0.059278559	-6.078900E+01
198	  0.059478957	-4.659000E+00	  0.059478957	-6.729700E+01	  0.059478957	3.694300E+01	  0.059478957	-6.057600E+01
199	  0.059679359	-4.660000E+00	  0.059679359	-6.752800E+01	  0.059679359	3.676800E+01	  0.059679359	-6.037700E+01
200	  0.059879761	-4.662000E+00	  0.059879761	-6.775200E+01	  0.059879761	3.660300E+01	  0.059879761	-6.018400E+01
201	  0.060080159	-4.659000E+00	  0.060080159	-6.798600E+01	  0.060080159	3.641000E+01	  0.060080159	-6.000000E+01
202	  0.060280561	-4.662000E+00	  0.060280561	-6.820600E+01	  0.060280561	3.625600E+01	  0.060280561	-5.980600E+01
203	  0.060480963	-4.663000E+00	  0.060480963	-6.844800E+01	  0.060480963	3.607900E+01	  0.060480963	-5.960000E+01
204	  0.060681365	-4.662000E+00	  0.060681365	-6.867900E+01	  0.060681365	3.590400E+01	  0.060681365	-5.941100E+01
205	  0.060881764	-4.666000E+00	  0.060881764	-6.891600E+01	  0.060881764	3.574700E+01	  0.060881764	-5.919700E+01
206	  0.061082166	-4.663000E+00	  0.061082166	-6.914600E+01	  0.061082166	3.556400E+01	  0.061082166	-5.902000E+01
207	  0.061282568	-4.666000E+00	  0.061282568	-6.938000E+01	  0.061282568	3.541100E+01	  0.061282568	-5.881200E+01
208	  0.061482966	-4.668000E+00	  0.061482966	-6.961700E+01	  0.061482966	3.524700E+01	  0.061482966	-5.861100E+01
209	  0.061683368	-4.668000E+00	  0.061683368	-6.984700E+01	  0.061683368	3.508000E+01	  0.061683368	-5.842400E+01
210	  0.061883770	-4.669000E+00	  0.061883770	-7.007500E+01	  0.061883770	3.492400E+01	  0.061883770	-5.823300E+01
211	  0.062084168	-4.670000E+00	  0.062084168	-7.029900E+01	  0.062084168	3.477100E+01	  0.062084168	-5.804500E+01
212	  0.062284570	-4.671000E+00	  0.062284570	-7.054000E+01	  0.062284570	3.461000E+01	  0.062284570	-5.784300E+01
213	  0.062484972	-4.659000E+00	  0.062484972	-7.068400E+01	  0.062484972	3.444400E+01	  0.062484972	-5.778200E+01
214	  0.062685370	-4.663000E+00	  0.062685370	-7.092700E+01	  0.062685370	3.429700E+01	  0.062685370	-5.756700E+01
215	  0.062885776	-4.662000E+00	  0.062885776	-7.114100E+01	  0.062885776	3.414400E+01	  0.062885776	-5.740000E+01
216	  0.063086174	-4.663000E+00	  0.063086174	-7.137300E+01	  0.063086174	3.399000E+01	  0.063086174	-5.720800E+01
217	  0.063286573	-4.664000E+00	  0.063286573	-7.161300E+01	  0.063286573	3.383700E+01	  0.063286573	-5.700800E+01
218	  0.063486971	-4.668000E+00	  0.063486971	-7.184800E+01	  0.063486971	3.369700E+01	  0.063486971	-5.680500E+01
219	  0.063687377	-4.664000E+00	  0.063687377	-7.205200E+01	  0.063687377	3.354000E+01	  0.063687377	-5.665900E+01
220	  0.063887775	-4.664000E+00	  0.063887775	-7.231200E+01	  0.063887775	3.336900E+01	  0.063887775	-5.645000E+01
221	  0.064088173	-4.664000E+00	  0.064088173	-7.254400E+01	  0.064088173	3.321700E+01	  0.064088173	-5.626500E+01
222	  0.064288579	-4.662000E+00	  0.064288579	-7.277500E+01	  0.064288579	3.305800E+01	  0.064288579	-5.608800E+01
223	  0.064488977	-4.665000E+00	  0.064488977	-7.298600E+01	  0.064488977	3.293900E+01	  0.064488977	-5.590800E+01
224	  0.064689375	-4.666000E+00	  0.064689375	-7.322800E+01	  0.064689375	3.278900E+01	  0.064689375	-5.571200E+01
225	  0.064889781	-4.664000E+00	  0.064889781	-7.344900E+01	  0.064889781	3.263400E+01	  0.064889781	-5.554900E+01
226	  0.065090179	-4.667000E+00	  0.065090179	-7.370700E+01	  0.065090179	3.249000E+01	  0.065090179	-5.533100E+01
227	  0.065290578	-4.670000E+00	  0.065290578	-7.393600E+01	  0.065290578	3.236300E+01	  0.065290578	-5.513900E+01
228	  0.065490983	-4.671000E+00	  0.065490983	-7.414600E+01	  0.065490983	3.223500E+01	  0.065490983	-5.497200E+01
229	  0.065691382	-4.671000E+00	  0.065691382	-7.438600E+01	  0.065691382	3.208700E+01	  0.065691382	-5.478400E+01
230	  0.065891780	-4.670000E+00	  0.065891780	-7.464000E+01	  0.065891780	3.193000E+01	  0.065891780	-5.458800E+01
231	  0.066092186	-4.671000E+00	  0.066092186	-7.485800E+01	  0.066092186	3.180100E+01	  0.066092186	-5.441600E+01
232	  0.066292584	-4.673000E+00	  0.066292584	-7.508400E+01	  0.066292584	3.167500E+01	  0.066292584	-5.423300E+01
233	  0.066492982	-4.673000E+00	  0.066492982	-7.532300E+01	  0.066492982	3.153500E+01	  0.066492982	-5.404600E+01
234	  0.066693388	-4.672000E+00	  0.066693388	-7.555000E+01	  0.066693388	3.139400E+01	  0.066693388	-5.387700E+01
235	  0.066893786	-4.674000E+00	  0.066893786	-7.579600E+01	  0.066893786	3.125900E+01	  0.066893786	-5.367900E+01
236	  0.067094192	-4.675000E+00	  0.067094192	-7.602000E+01	  0.067094192	3.113200E+01	  0.067094192	-5.350400E+01
237	  0.067294590	-4.675000E+00	  0.067294590	-7.624700E+01	  0.067294590	3.100400E+01	  0.067294590	-5.332800E+01
238	  0.067494988	-4.675000E+00	  0.067494988	-7.646000E+01	  0.067494988	3.087800E+01	  0.067494988	-5.316700E+01
239	  0.067695394	-4.677000E+00	  0.067695394	-7.671700E+01	  0.067695394	3.074400E+01	  0.067695394	-5.296200E+01
240	  0.067895792	-4.676000E+00	  0.067895792	-7.695800E+01	  0.067895792	3.059900E+01	  0.067895792	-5.278600E+01
241	  0.068096191	-4.679000E+00	  0.068096191	-7.715700E+01	  0.068096191	3.050500E+01	  0.068096191	-5.262200E+01
242	  0.068296596	-4.677000E+00	  0.068296596	-7.742600E+01	  0.068296596	3.034200E+01	  0.068296596	-5.242700E+01
243	  0.068496995	-4.680000E+00	  0.068496995	-7.763400E+01	  0.068496995	3.024300E+01	  0.068496995	-5.225900E+01
244	  0.068697393	-4.680000E+00	  0.068697393	-7.787300E+01	  0.068697393	3.011200E+01	  0.068697393	-5.207800E+01
245	  0.068897791	-4.683000E+00	  0.068897791	-7.811800E+01	  0.068897791	2.999200E+01	  0.068897791	-5.188500E+01
246	  0.069098189	-4.680000E+00	  0.069098189	-7.833600E+01	  0.069098189	2.986200E+01	  0.069098189	-5.173000E+01
247	  0.069298595	-4.684000E+00	  0.069298595	-7.857500E+01	  0.069298595	2.975200E+01	  0.069298595	-5.153900E+01
248	  0.069498993	-4.682000E+00	  0.069498993	-7.879900E+01	  0.069498993	2.962100E+01	  0.069498993	-5.138000E+01
249	  0.069699399	-4.687000E+00	  0.069699399	-7.903200E+01	  0.069699399	2.952500E+01	  0.069699399	-5.118800E+01
250	  0.069899797	-4.686000E+00	  0.069899797	-7.927400E+01	  0.069899797	2.939200E+01	  0.069899797	-5.101300E+01
251	  0.070100196	-4.686000E+00	  0.070100196	-7.948800E+01	  0.070100196	2.928000E+01	  0.070100196	-5.085500E+01
252	  0.070300601	-4.688000E+00	  0.070300601	-7.974200E+01	  0.070300601	2.915900E+01	  0.070300601	-5.066100E+01
253	  0.070501000	-4.691000E+00	  0.070501000	-7.997500E+01	  0.070501000	2.905400E+01	  0.070501000	-5.047800E+01
254	  0.070701398	-4.688000E+00	  0.070701398	-8.021200E+01	  0.070701398	2.891900E+01	  0.070701398	-5.031500E+01
255	  0.070901804	-4.690000E+00	  0.070901804	-8.044200E+01	  0.070901804	2.881200E+01	  0.070901804	-5.014000E+01
256	  0.071102202	-4.692000E+00	  0.071102202	-8.066700E+01	  0.071102202	2.871000E+01	  0.071102202	-4.996800E+01
257	  0.071302600	-4.693000E+00	  0.071302600	-8.090300E+01	  0.071302600	2.859300E+01	  0.071302600	-4.979600E+01
258	  0.071503006	-4.692000E+00	  0.071503006	-8.114000E+01	  0.071503006	2.847100E+01	  0.071503006	-4.962700E+01
259	  0.071703404	-4.693000E+00	  0.071703404	-8.136700E+01	  0.071703404	2.836800E+01	  0.071703404	-4.945700E+01
260	  0.071903802	-4.694000E+00	  0.071903802	-8.159900E+01	  0.071903802	2.826000E+01	  0.071903802	-4.928600E+01
261	  0.072104208	-4.696000E+00	  0.072104208	-8.182200E+01	  0.072104208	2.815800E+01	  0.072104208	-4.912100E+01
262	  0.072304606	-4.698000E+00	  0.072304606	-8.205000E+01	  0.072304606	2.805700E+01	  0.072304606	-4.895200E+01
263	  0.072505005	-4.695000E+00	  0.072505005	-8.229700E+01	  0.072505005	2.792900E+01	  0.072505005	-4.878200E+01
264	  0.072705410	-4.696000E+00	  0.072705410	-8.252900E+01	  0.072705410	2.782200E+01	  0.072705410	-4.861400E+01
265	  0.072905809	-4.698000E+00	  0.072905809	-8.274700E+01	  0.072905809	2.773100E+01	  0.072905809	-4.845100E+01
266	  0.073106214	-4.700000E+00	  0.073106214	-8.297800E+01	  0.073106214	2.763000E+01	  0.073106214	-4.828200E+01
267	  0.073306613	-4.700000E+00	  0.073306613	-8.322400E+01	  0.073306613	2.751400E+01	  0.073306613	-4.810900E+01
268	  0.073507011	-4.701000E+00	  0.073507011	-8.346900E+01	  0.073507011	2.740700E+01	  0.073507011	-4.793300E+01
269	  0.073707417	-4.702000E+00	  0.073707417	-8.369700E+01	  0.073707417	2.730900E+01	  0.073707417	-4.776700E+01
270	  0.073907815	-4.702000E+00	  0.073907815	-8.392100E+01	  0.073907815	2.720700E+01	  0.073907815	-4.761000E+01
271	  0.074108213	-4.700000E+00	  0.074108213	-8.417000E+01	  0.074108213	2.708400E+01	  0.074108213	-4.744200E+01
272	  0.074308619	-4.703000E+00	  0.074308619	-8.438900E+01	  0.074308619	2.700000E+01	  0.074308619	-4.728000E+01
273	  0.074509017	-4.706000E+00	  0.074509017	-8.460500E+01	  0.074509017	2.691800E+01	  0.074509017	-4.712100E+01
274	  0.074709415	-4.704000E+00	  0.074709415	-8.483800E+01	  0.074709415	2.680800E+01	  0.074709415	-4.696200E+01
275	  0.074909821	-4.705000E+00	  0.074909821	-8.508400E+01	  0.074909821	2.670200E+01	  0.074909821	-4.679000E+01
276	  0.075110219	-4.708000E+00	  0.075110219	-8.530900E+01	  0.075110219	2.661800E+01	  0.075110219	-4.662600E+01
277	  0.075310618	-4.706000E+00	  0.075310618	-8.554300E+01	  0.075310618	2.651100E+01	  0.075310618	-4.646800E+01
278	  0.075511023	-4.708000E+00	  0.075511023	-8.578800E+01	  0.075511023	2.641200E+01	  0.075511023	-4.629600E+01
279	  0.075711422	-4.708000E+00	  0.075711422	-8.602600E+01	  0.075711422	2.631100E+01	  0.075711422	-4.613100E+01
280	  0.075911827	-4.706000E+00	  0.075911827	-8.626300E+01	  0.075911827	2.620500E+01	  0.075911827	-4.597300E+01
281	  0.076112226	-4.711000E+00	  0.076112226	-8.647700E+01	  0.076112226	2.613400E+01	  0.076112226	-4.581400E+01
282	  0.076312624	-4.710000E+00	  0.076312624	-8.670400E+01	  0.076312624	2.603900E+01	  0.076312624	-4.566000E+01
283	  0.076513030	-4.711000E+00	  0.076513030	-8.695600E+01	  0.076513030	2.593800E+01	  0.076513030	-4.548700E+01
284	  0.076713428	-4.714000E+00	  0.076713428	-8.716200E+01	  0.076713428	2.586400E+01	  0.076713428	-4.534000E+01
285	  0.076913826	-4.711000E+00	  0.076913826	-8.741500E+01	  0.076913826	2.574800E+01	  0.076913826	-4.517600E+01
286	  0.077114232	-4.710000E+00	  0.077114232	-8.764100E+01	  0.077114232	2.565300E+01	  0.077114232	-4.502600E+01
287	  0.077314630	-4.712000E+00	  0.077314630	-8.787100E+01	  0.077314630	2.556800E+01	  0.077314630	-4.486600E+01
288	  0.077515028	-4.713000E+00	  0.077515028	-8.811000E+01	  0.077515028	2.547800E+01	  0.077515028	-4.470200E+01
289	  0.077715434	-4.713000E+00	  0.077715434	-8.833100E+01	  0.077715434	2.539000E+01	  0.077715434	-4.455400E+01
290	  0.077915832	-4.714000E+00	  0.077915832	-8.857500E+01	  0.077915832	2.530000E+01	  0.077915832	-4.438800E+01
291	  0.078116231	-4.715000E+00	  0.078116231	-8.881100E+01	  0.078116231	2.521300E+01	  0.078116231	-4.422600E+01
292	  0.078316636	-4.715000E+00	  0.078316636	-8.903100E+01	  0.078316636	2.512900E+01	  0.078316636	-4.407900E+01
293	  0.078517035	-4.716000E+00	  0.078517035	-8.927800E+01	  0.078517035	2.503600E+01	  0.078517035	-4.391400E+01
294	  0.078717433	-4.716000E+00	  0.078717433	-8.950700E+01	  0.078717433	2.494900E+01	  0.078717433	-4.376200E+01
295	  0.078917839	-4.716000E+00	  0.078917839	-8.973400E+01	  0.078917839	2.486300E+01	  0.078917839	-4.361100E+01
296	  0.079118237	-4.717000E+00	  0.079118237	-8.998100E+01	  0.079118237	2.477300E+01	  0.079118237	-4.344700E+01
297	  0.079318643	-4.720000E+00	  0.079318643	-9.020700E+01	  0.079318643	2.470100E+01	  0.079318643	-4.329100E+01
298	  0.079519041	-4.719000E+00	  0.079519041	-9.044500E+01	  0.079519041	2.460800E+01	  0.079519041	-4.313700E+01
299	  0.079719439	-4.719000E+00	  0.079719439	-9.066700E+01	  0.079719439	2.452800E+01	  0.079719439	-4.299200E+01
300	  0.079919845	-4.721000E+00	  0.079919845	-9.088900E+01	  0.079919845	2.445300E+01	  0.079919845	-4.284300E+01
301	  0.080120243	-4.718000E+00	  0.080120243	-9.114900E+01	  0.080120243	2.434800E+01	  0.080120243	-4.267900E+01
302	  0.080320641	-4.718000E+00	  0.080320641	-9.136200E+01	  0.080320641	2.427000E+01	  0.080320641	-4.254100E+01
303	  0.080521047	-4.721000E+00	  0.080521047	-9.159900E+01	  0.080521047	2.419700E+01	  0.080521047	-4.238000E+01
304	  0.080721445	-4.721000E+00	  0.080721445	-9.183400E+01	  0.080721445	2.411400E+01	  0.080721445	-4.222800E+01
305	  0.080921844	-4.723000E+00	  0.080921844	-9.208300E+01	  0.080921844	2.403300E+01	  0.080921844	-4.206400E+01
306	  0.081122249	-4.723000E+00	  0.081122249	-9.229700E+01	  0.081122249	2.396100E+01	  0.081122249	-4.192400E+01
307	  0.081322648	-4.725000E+00	  0.081322648	-9.253400E+01	  0.081322648	2.388400E+01	  0.081322648	-4.176800E+01
308	  0.081523046	-4.726000E+00	  0.081523046	-9.276000E+01	  0.081523046	2.380800E+01	  0.081523046	-4.162200E+01
309	  0.081723452	-4.726000E+00	  0.081723452	-9.299700E+01	  0.081723452	2.372800E+01	  0.081723452	-4.147000E+01
310	  0.081923850	-4.728000E+00	  0.081923850	-9.323900E+01	  0.081923850	2.365600E+01	  0.081923850	-4.131000E+01
311	  0.082124248	-4.727000E+00	  0.082124248	-9.347200E+01	  0.082124248	2.356900E+01	  0.082124248	-4.116600E+01
312	  0.082324654	-4.727000E+00	  0.082324654	-9.369700E+01	  0.082324654	2.349400E+01	  0.082324654	-4.102300E+01
313	  0.082525052	-4.727000E+00	  0.082525052	-9.394400E+01	  0.082525052	2.341200E+01	  0.082525052	-4.086600E+01
314	  0.082725458	-4.726000E+00	  0.082725458	-9.415500E+01	  0.082725458	2.333900E+01	  0.082725458	-4.073400E+01
315	  0.082925856	-4.728000E+00	  0.082925856	-9.438800E+01	  0.082925856	2.326900E+01	  0.082925856	-4.058300E+01
316	  0.083126254	-4.731000E+00	  0.083126254	-9.462000E+01	  0.083126254	2.320600E+01	  0.083126254	-4.043100E+01
317	  0.083326660	-4.730000E+00	  0.083326660	-9.485500E+01	  0.083326660	2.312500E+01	  0.083326660	-4.028600E+01
318	  0.083527058	-4.730000E+00	  0.083527058	-9.508000E+01	  0.083527058	2.305300E+01	  0.083527058	-4.014400E+01
319	  0.083727457	-4.733000E+00	  0.083727457	-9.533200E+01	  0.083727457	2.298200E+01	  0.083727457	-3.998200E+01
320	  0.083927862	-4.732000E+00	  0.083927862	-9.556200E+01	  0.083927862	2.290600E+01	  0.083927862	-3.984000E+01
321	  0.084128261	-4.737000E+00	  0.084128261	-9.577400E+01	  0.084128261	2.285700E+01	  0.084128261	-3.969900E+01
322	  0.084328659	-4.736000E+00	  0.084328659	-9.602200E+01	  0.084328659	2.277500E+01	  0.084328659	-3.954800E+01
323	  0.084529065	-4.738000E+00	  0.084529065	-9.625600E+01	  0.084529065	2.271000E+01	  0.084529065	-3.939800E+01
324	  0.084729463	-4.739000E+00	  0.084729463	-9.648800E+01	  0.084729463	2.264100E+01	  0.084729463	-3.925300E+01
325	  0.084929861	-4.739000E+00	  0.084929861	-9.672600E+01	  0.084929861	2.256800E+01	  0.084929861	-3.910700E+01
326	  0.085130267	-4.741000E+00	  0.085130267	-9.694500E+01	  0.085130267	2.250800E+01	  0.085130267	-3.896900E+01
327	  0.085330658	-4.741000E+00	  0.085330658	-9.718500E+01	  0.085330658	2.243600E+01	  0.085330658	-3.882200E+01
328	  0.085531056	-4.741000E+00	  0.085531056	-9.742200E+01	  0.085531056	2.236500E+01	  0.085531056	-3.867700E+01
329	  0.085731462	-4.743000E+00	  0.085731462	-9.765700E+01	  0.085731462	2.230100E+01	  0.085731462	-3.853000E+01
330	  0.085931860	-4.742000E+00	  0.085931860	-9.787100E+01	  0.085931860	2.223400E+01	  0.085931860	-3.840100E+01
331	  0.086132258	-4.745000E+00	  0.086132258	-9.811700E+01	  0.086132258	2.217100E+01	  0.086132258	-3.824700E+01
332	  0.086332664	-4.744000E+00	  0.086332664	-9.836900E+01	  0.086332664	2.209500E+01	  0.086332664	-3.809600E+01
333	  0.086533062	-4.746000E+00	  0.086533062	-9.858900E+01	  0.086533062	2.204000E+01	  0.086533062	-3.795800E+01
334	  0.086733460	-4.749000E+00	  0.086733460	-9.882100E+01	  0.086733460	2.198300E+01	  0.086733460	-3.781300E+01
335	  0.086933866	-4.751000E+00	  0.086933866	-9.906200E+01	  0.086933866	2.192000E+01	  0.086933866	-3.766600E+01
336	  0.087134264	-4.751000E+00	  0.087134264	-9.928900E+01	  0.087134264	2.185500E+01	  0.087134264	-3.752900E+01
337	  0.087334670	-4.751000E+00	  0.087334670	-9.953700E+01	  0.087334670	2.178500E+01	  0.087334670	-3.738000E+01
338	  0.087535068	-4.752000E+00	  0.087535068	-9.975100E+01	  0.087535068	2.172800E+01	  0.087535068	-3.725100E+01
339	  0.087735467	-4.753000E+00	  0.087735467	-9.999400E+01	  0.087735467	2.166400E+01	  0.087735467	-3.710400E+01
340	  0.087935872	-4.755000E+00	  0.087935872	-1.002250E+02	  0.087935872	2.160800E+01	  0.087935872	-3.696300E+01
341	  0.088136271	-4.755000E+00	  0.088136271	-1.004500E+02	  0.088136271	2.154600E+01	  0.088136271	-3.682900E+01
342	  0.088336669	-4.758000E+00	  0.088336669	-1.006840E+02	  0.088336669	2.149300E+01	  0.088336669	-3.668600E+01
343	  0.088537075	-4.760000E+00	  0.088537075	-1.009050E+02	  0.088537075	2.144000E+01	  0.088537075	-3.655200E+01
344	  0.088737473	-4.762000E+00	  0.088737473	-1.011430E+02	  0.088737473	2.138100E+01	  0.088737473	-3.640900E+01
345	  0.088937871	-4.763000E+00	  0.088937871	-1.013800E+02	  0.088937871	2.132000E+01	  0.088937871	-3.626900E+01
346	  0.089138277	-4.764000E+00	  0.089138277	-1.015990E+02	  0.089138277	2.126600E+01	  0.089138277	-3.613800E+01
347	  0.089338675	-4.766000E+00	  0.089338675	-1.018490E+02	  0.089338675	2.120600E+01	  0.089338675	-3.598800E+01
348	  0.089539073	-4.767000E+00	  0.089539073	-1.020880E+02	  0.089539073	2.114600E+01	  0.089539073	-3.584700E+01
349	  0.089739479	-4.768000E+00	  0.089739479	-1.023230E+02	  0.089739479	2.108700E+01	  0.089739479	-3.570900E+01
350	  0.089939877	-4.770000E+00	  0.089939877	-1.025610E+02	  0.089939877	2.103200E+01	  0.089939877	-3.556700E+01
351	  0.090140276	-4.770000E+00	  0.090140276	-1.027870E+02	  0.090140276	2.097700E+01	  0.090140276	-3.543500E+01
352	  0.090340681	-4.773000E+00	  0.090340681	-1.030300E+02	  0.090340681	2.092500E+01	  0.090340681	-3.529000E+01
353	  0.090541080	-4.774000E+00	  0.090541080	-1.032610E+02	  0.090541080	2.086700E+01	  0.090541080	-3.515600E+01
354	  0.090741485	-4.777000E+00	  0.090741485	-1.035000E+02	  0.090741485	2.081800E+01	  0.090741485	-3.501300E+01
355	  0.090941884	-4.776000E+00	  0.090941884	-1.037420E+02	  0.090941884	2.075300E+01	  0.090941884	-3.487600E+01
356	  0.091142282	-4.780000E+00	  0.091142282	-1.039710E+02	  0.091142282	2.070900E+01	  0.091142282	-3.473800E+01
357	  0.091342688	-4.781000E+00	  0.091342688	-1.042020E+02	  0.091342688	2.065600E+01	  0.091342688	-3.460500E+01
358	  0.091543086	-4.779000E+00	  0.091543086	-1.044290E+02	  0.091543086	2.059500E+01	  0.091543086	-3.447700E+01
359	  0.091743484	-4.782000E+00	  0.091743484	-1.046610E+02	  0.091743484	2.054700E+01	  0.091743484	-3.434100E+01
360	  0.091943890	-4.783000E+00	  0.091943890	-1.048830E+02	  0.091943890	2.049600E+01	  0.091943890	-3.421400E+01
361	  0.092144288	-4.783000E+00	  0.092144288	-1.051430E+02	  0.092144288	2.043300E+01	  0.092144288	-3.406600E+01
362	  0.092344686	-4.785000E+00	  0.092344686	-1.053770E+02	  0.092344686	2.038500E+01	  0.092344686	-3.393000E+01
363	  0.092545092	-4.784000E+00	  0.092545092	-1.056080E+02	  0.092545092	2.032400E+01	  0.092545092	-3.380200E+01
364	  0.092745490	-4.786000E+00	  0.092745490	-1.058420E+02	  0.092745490	2.027500E+01	  0.092745490	-3.366700E+01
365	  0.092945889	-4.788000E+00	  0.092945889	-1.060600E+02	  0.092945889	2.023000E+01	  0.092945889	-3.354200E+01
366	  0.093146294	-4.787000E+00	  0.093146294	-1.063260E+02	  0.093146294	2.016500E+01	  0.093146294	-3.339400E+01
367	  0.093346693	-4.790000E+00	  0.093346693	-1.065440E+02	  0.093346693	2.012600E+01	  0.093346693	-3.326700E+01
368	  0.093547091	-4.789000E+00	  0.093547091	-1.067860E+02	  0.093547091	2.006700E+01	  0.093547091	-3.313300E+01
369	  0.093747497	-4.793000E+00	  0.093747497	-1.070200E+02	  0.093747497	2.002600E+01	  0.093747497	-3.299700E+01
370	  0.093947895	-4.790000E+00	  0.093947895	-1.072550E+02	  0.093947895	1.996100E+01	  0.093947895	-3.287100E+01
371	  0.094148301	-4.792000E+00	  0.094148301	-1.074960E+02	  0.094148301	1.991300E+01	  0.094148301	-3.273400E+01
372	  0.094348699	-4.794000E+00	  0.094348699	-1.077320E+02	  0.094348699	1.986600E+01	  0.094348699	-3.260100E+01
373	  0.094549097	-4.793000E+00	  0.094549097	-1.079700E+02	  0.094549097	1.981100E+01	  0.094549097	-3.247000E+01
374	  0.094749503	-4.792000E+00	  0.094749503	-1.081960E+02	  0.094749503	1.975700E+01	  0.094749503	-3.234700E+01
375	  0.094949901	-4.795000E+00	  0.094949901	-1.084350E+02	  0.094949901	1.971200E+01	  0.094949901	-3.221200E+01
376	  0.095150299	-4.796000E+00	  0.095150299	-1.086650E+02	  0.095150299	1.966500E+01	  0.095150299	-3.208400E+01
377	  0.095350705	-4.796000E+00	  0.095350705	-1.089200E+02	  0.095350705	1.960900E+01	  0.095350705	-3.194400E+01
378	  0.095551103	-4.798000E+00	  0.095551103	-1.091430E+02	  0.095551103	1.956900E+01	  0.095551103	-3.181900E+01
379	  0.095751502	-4.799000E+00	  0.095751502	-1.093840E+02	  0.095751502	1.951900E+01	  0.095751502	-3.168600E+01
380	  0.095951907	-4.800000E+00	  0.095951907	-1.096120E+02	  0.095951907	1.947300E+01	  0.095951907	-3.156100E+01
381	  0.096152306	-4.802000E+00	  0.096152306	-1.098510E+02	  0.096152306	1.942900E+01	  0.096152306	-3.142800E+01
382	  0.096352704	-4.803000E+00	  0.096352704	-1.100840E+02	  0.096352704	1.938300E+01	  0.096352704	-3.130100E+01
383	  0.096553110	-4.804000E+00	  0.096553110	-1.103280E+02	  0.096553110	1.933500E+01	  0.096553110	-3.116800E+01
384	  0.096753508	-4.805000E+00	  0.096753508	-1.105720E+02	  0.096753508	1.929000E+01	  0.096753508	-3.103300E+01
385	  0.096953906	-4.804000E+00	  0.096953906	-1.107800E+02	  0.096953906	1.924200E+01	  0.096953906	-3.092300E+01
386	  0.097154312	-4.804000E+00	  0.097154312	-1.110310E+02	  0.097154312	1.919100E+01	  0.097154312	-3.078800E+01
387	  0.097354710	-4.807000E+00	  0.097354710	-1.112590E+02	  0.097354710	1.915300E+01	  0.097354710	-3.066200E+01
388	  0.097555116	-4.806000E+00	  0.097555116	-1.115010E+02	  0.097555116	1.910000E+01	  0.097555116	-3.053300E+01
389	  0.097755514	-4.807000E+00	  0.097755514	-1.117410E+02	  0.097755514	1.905500E+01	  0.097755514	-3.040300E+01
390	  0.097955912	-4.809000E+00	  0.097955912	-1.119860E+02	  0.097955912	1.901300E+01	  0.097955912	-3.027000E+01
391	  0.098156318	-4.808000E+00	  0.098156318	-1.122100E+02	  0.098156318	1.896700E+01	  0.098156318	-3.015200E+01
392	  0.098356716	-4.810000E+00	  0.098356716	-1.124420E+02	  0.098356716	1.892700E+01	  0.098356716	-3.002500E+01
393	  0.098557115	-4.810000E+00	  0.098557115	-1.126730E+02	  0.098557115	1.887800E+01	  0.098557115	-2.990400E+01
394	  0.098757520	-4.809000E+00	  0.098757520	-1.129110E+02	  0.098757520	1.883000E+01	  0.098757520	-2.977900E+01
395	  0.098957919	-4.811000E+00	  0.098957919	-1.131510E+02	  0.098957919	1.879100E+01	  0.098957919	-2.964900E+01
396	  0.099158317	-4.811000E+00	  0.099158317	-1.133940E+02	  0.099158317	1.874500E+01	  0.099158317	-2.952000E+01
397	  0.099358723	-4.813000E+00	  0.099358723	-1.136200E+02	  0.099358723	1.870800E+01	  0.099358723	-2.939900E+01
398	  0.099559121	-4.814000E+00	  0.099559121	-1.138460E+02	  0.099559121	1.866500E+01	  0.099559121	-2.928000E+01
399	  0.099759519	-4.816000E+00	  0.099759519	-1.140830E+02	  0.099759519	1.862700E+01	  0.099759519	-2.915300E+01
400	  0.099959925	-4.805000E+00	  0.099959925	-1.142950E+02	  0.099959925	1.855100E+01	  0.099959925	-2.905500E+01
401	  0.100160323	-4.806000E+00	  0.100160323	-1.145370E+02	  0.100160323	1.850700E+01	  0.100160323	-2.892800E+01
402	  0.100360721	-4.806000E+00	  0.100360721	-1.147490E+02	  0.100360721	1.846800E+01	  0.100360721	-2.881700E+01
403	  0.100561127	-4.810000E+00	  0.100561127	-1.149770E+02	  0.100561127	1.844100E+01	  0.100561127	-2.869300E+01
404	  0.100761525	-4.810000E+00	  0.100761525	-1.152290E+02	  0.100761525	1.839400E+01	  0.100761525	-2.856200E+01
405	  0.100961931	-4.806000E+00	  0.100961931	-1.154710E+02	  0.100961931	1.833500E+01	  0.100961931	-2.844100E+01
406	  0.101162329	-4.813000E+00	  0.101162329	-1.157190E+02	  0.101162329	1.831400E+01	  0.101162329	-2.830400E+01
407	  0.101362728	-4.812000E+00	  0.101362728	-1.159340E+02	  0.101362728	1.827400E+01	  0.101362728	-2.819400E+01
408	  0.101563133	-4.813000E+00	  0.101563133	-1.161770E+02	  0.101563133	1.823300E+01	  0.101563133	-2.806800E+01
409	  0.101763532	-4.812000E+00	  0.101763532	-1.164160E+02	  0.101763532	1.818700E+01	  0.101763532	-2.794500E+01
410	  0.101963930	-4.812000E+00	  0.101963930	-1.166510E+02	  0.101963930	1.814400E+01	  0.101963930	-2.782500E+01
411	  0.102164336	-4.817000E+00	  0.102164336	-1.168750E+02	  0.102164336	1.812300E+01	  0.102164336	-2.770300E+01
412	  0.102364734	-4.818000E+00	  0.102364734	-1.171260E+02	  0.102364734	1.808200E+01	  0.102364734	-2.757400E+01
413	  0.102565132	-4.822000E+00	  0.102565132	-1.173490E+02	  0.102565132	1.805600E+01	  0.102565132	-2.745600E+01
414	  0.102765530	-4.821000E+00	  0.102765530	-1.175880E+02	  0.102765530	1.801100E+01	  0.102765530	-2.733500E+01
415	  0.102965929	-4.821000E+00	  0.102965929	-1.178320E+02	  0.102965929	1.797100E+01	  0.102965929	-2.721000E+01
416	  0.103166327	-4.824000E+00	  0.103166327	-1.180890E+02	  0.103166327	1.793600E+01	  0.103166327	-2.707600E+01
417	  0.103366733	-4.823000E+00	  0.103366733	-1.183170E+02	  0.103366733	1.789600E+01	  0.103366733	-2.696100E+01
418	  0.103567131	-4.824000E+00	  0.103567131	-1.185590E+02	  0.103567131	1.785900E+01	  0.103567131	-2.683800E+01
419	  0.103767529	-4.825000E+00	  0.103767529	-1.187610E+02	  0.103767529	1.782800E+01	  0.103767529	-2.673400E+01
420	  0.103967935	-4.828000E+00	  0.103967935	-1.190300E+02	  0.103967935	1.779200E+01	  0.103967935	-2.659500E+01
421	  0.104168333	-4.830000E+00	  0.104168333	-1.192630E+02	  0.104168333	1.776200E+01	  0.104168333	-2.647500E+01
422	  0.104368731	-4.827000E+00	  0.104368731	-1.194850E+02	  0.104368731	1.771600E+01	  0.104368731	-2.636700E+01
423	  0.104569137	-4.831000E+00	  0.104569137	-1.197570E+02	  0.104569137	1.768300E+01	  0.104569137	-2.622700E+01
424	  0.104769535	-4.830000E+00	  0.104769535	-1.199670E+02	  0.104769535	1.764600E+01	  0.104769535	-2.612200E+01
425	  0.104969934	-4.830000E+00	  0.104969934	-1.202150E+02	  0.104969934	1.760800E+01	  0.104969934	-2.599700E+01
426	  0.105170339	-4.839000E+00	  0.105170339	-1.204440E+02	  0.105170339	1.759900E+01	  0.105170339	-2.587400E+01
427	  0.105370738	-4.833000E+00	  0.105370738	-1.206870E+02	  0.105370738	1.754100E+01	  0.105370738	-2.575900E+01
428	  0.105571143	-4.833000E+00	  0.105571143	-1.209260E+02	  0.105571143	1.750300E+01	  0.105571143	-2.564000E+01
429	  0.105771542	-4.838000E+00	  0.105771542	-1.211460E+02	  0.105771542	1.748600E+01	  0.105771542	-2.552500E+01
430	  0.105971940	-4.841000E+00	  0.105971940	-1.214080E+02	  0.105971940	1.745500E+01	  0.105971940	-2.539200E+01
431	  0.106172346	-4.839000E+00	  0.106172346	-1.216330E+02	  0.106172346	1.741400E+01	  0.106172346	-2.528300E+01
432	  0.106372744	-4.842000E+00	  0.106372744	-1.218840E+02	  0.106372744	1.738400E+01	  0.106372744	-2.515600E+01
433	  0.106573142	-4.842000E+00	  0.106573142	-1.221120E+02	  0.106573142	1.735200E+01	  0.106573142	-2.504300E+01
434	  0.106773548	-4.842000E+00	  0.106773548	-1.223440E+02	  0.106773548	1.731600E+01	  0.106773548	-2.492900E+01
435	  0.106973946	-4.843000E+00	  0.106973946	-1.225860E+02	  0.106973946	1.728300E+01	  0.106973946	-2.480900E+01
436	  0.107174344	-4.843000E+00	  0.107174344	-1.228280E+02	  0.107174344	1.724800E+01	  0.107174344	-2.469000E+01
437	  0.107374750	-4.844000E+00	  0.107374750	-1.230480E+02	  0.107374750	1.721900E+01	  0.107374750	-2.458000E+01
438	  0.107575148	-4.846000E+00	  0.107575148	-1.233050E+02	  0.107575148	1.718500E+01	  0.107575148	-2.445400E+01
439	  0.107775547	-4.850000E+00	  0.107775547	-1.235380E+02	  0.107775547	1.716500E+01	  0.107775547	-2.433600E+01
440	  0.107975952	-4.848000E+00	  0.107975952	-1.237870E+02	  0.107975952	1.712300E+01	  0.107975952	-2.421600E+01
441	  0.108176351	-4.848000E+00	  0.108176351	-1.240190E+02	  0.108176351	1.708700E+01	  0.108176351	-2.410300E+01
442	  0.108376749	-4.847000E+00	  0.108376749	-1.242400E+02	  0.108376749	1.705400E+01	  0.108376749	-2.399700E+01
443	  0.108577155	-4.849000E+00	  0.108577155	-1.244950E+02	  0.108577155	1.702400E+01	  0.108577155	-2.387100E+01
444	  0.108777553	-4.850000E+00	  0.108777553	-1.247340E+02	  0.108777553	1.699300E+01	  0.108777553	-2.375400E+01
445	  0.108977959	-4.851000E+00	  0.108977959	-1.249720E+02	  0.108977959	1.696400E+01	  0.108977959	-2.363700E+01
446	  0.109178357	-4.852000E+00	  0.109178357	-1.252080E+02	  0.109178357	1.693300E+01	  0.109178357	-2.352300E+01
447	  0.109378755	-4.854000E+00	  0.109378755	-1.254410E+02	  0.109378755	1.690800E+01	  0.109378755	-2.340900E+01
448	  0.109579161	-4.853000E+00	  0.109579161	-1.257000E+02	  0.109579161	1.687000E+01	  0.109579161	-2.328400E+01
449	  0.109779559	-4.855000E+00	  0.109779559	-1.259300E+02	  0.109779559	1.684500E+01	  0.109779559	-2.317200E+01
450	  0.109979957	-4.857000E+00	  0.109979957	-1.261510E+02	  0.109979957	1.682000E+01	  0.109979957	-2.306400E+01
451	  0.110180363	-4.854000E+00	  0.110180363	-1.263990E+02	  0.110180363	1.677600E+01	  0.110180363	-2.294800E+01
452	  0.110380761	-4.856000E+00	  0.110380761	-1.266410E+02	  0.110380761	1.675100E+01	  0.110380761	-2.283100E+01
453	  0.110581160	-4.857000E+00	  0.110581160	-1.268570E+02	  0.110581160	1.672500E+01	  0.110581160	-2.272600E+01
454	  0.110781565	-4.860000E+00	  0.110781565	-1.271190E+02	  0.110781565	1.669900E+01	  0.110781565	-2.259900E+01
455	  0.110981964	-4.860000E+00	  0.110981964	-1.273410E+02	  0.110981964	1.666900E+01	  0.110981964	-2.249300E+01
456	  0.111182362	-4.863000E+00	  0.111182362	-1.275740E+02	  0.111182362	1.664800E+01	  0.111182362	-2.238000E+01
457	  0.111382768	-4.859000E+00	  0.111382768	-1.278240E+02	  0.111382768	1.660500E+01	  0.111382768	-2.226400E+01
458	  0.111583166	-4.863000E+00	  0.111583166	-1.280730E+02	  0.111583166	1.658500E+01	  0.111583166	-2.214300E+01
459	  0.111783572	-4.864000E+00	  0.111783572	-1.283090E+02	  0.111783572	1.655700E+01	  0.111783572	-2.203000E+01
460	  0.111983970	-4.863000E+00	  0.111983970	-1.285500E+02	  0.111983970	1.652500E+01	  0.111983970	-2.191700E+01
461	  0.112184368	-4.868000E+00	  0.112184368	-1.287720E+02	  0.112184368	1.651200E+01	  0.112184368	-2.180800E+01
462	  0.112384774	-4.866000E+00	  0.112384774	-1.290270E+02	  0.112384774	1.647400E+01	  0.112384774	-2.168900E+01
463	  0.112585172	-4.867000E+00	  0.112585172	-1.292510E+02	  0.112585172	1.645000E+01	  0.112585172	-2.158300E+01
464	  0.112785570	-4.867000E+00	  0.112785570	-1.295000E+02	  0.112785570	1.641800E+01	  0.112785570	-2.146600E+01
465	  0.112985976	-4.869000E+00	  0.112985976	-1.297350E+02	  0.112985976	1.639600E+01	  0.112985976	-2.135400E+01
466	  0.113186374	-4.871000E+00	  0.113186374	-1.299520E+02	  0.113186374	1.637600E+01	  0.113186374	-2.125100E+01
467	  0.113386773	-4.869000E+00	  0.113386773	-1.302150E+02	  0.113386773	1.633700E+01	  0.113386773	-2.112900E+01
468	  0.113587178	-4.871000E+00	  0.113587178	-1.304350E+02	  0.113587178	1.631800E+01	  0.113587178	-2.102500E+01
469	  0.113787577	-4.870000E+00	  0.113787577	-1.306840E+02	  0.113787577	1.628500E+01	  0.113787577	-2.090900E+01
470	  0.113987975	-4.870000E+00	  0.113987975	-1.309200E+02	  0.113987975	1.625600E+01	  0.113987975	-2.080000E+01
471	  0.114188381	-4.874000E+00	  0.114188381	-1.311610E+02	  0.114188381	1.623900E+01	  0.114188381	-2.068500E+01
472	  0.114388779	-4.875000E+00	  0.114388779	-1.314000E+02	  0.114388779	1.621700E+01	  0.114388779	-2.057200E+01
473	  0.114589177	-4.874000E+00	  0.114589177	-1.316240E+02	  0.114589177	1.618800E+01	  0.114589177	-2.046900E+01
474	  0.114789583	-4.878000E+00	  0.114789583	-1.318500E+02	  0.114789583	1.617300E+01	  0.114789583	-2.036200E+01
475	  0.114989981	-4.878000E+00	  0.114989981	-1.320840E+02	  0.114989981	1.614500E+01	  0.114989981	-2.025400E+01
476	  0.115190387	-4.878000E+00	  0.115190387	-1.323220E+02	  0.115190387	1.611900E+01	  0.115190387	-2.014300E+01
477	  0.115390785	-4.878000E+00	  0.115390785	-1.325750E+02	  0.115390785	1.609200E+01	  0.115390785	-2.002600E+01
478	  0.115591183	-4.879000E+00	  0.115591183	-1.328130E+02	  0.115591183	1.606600E+01	  0.115591183	-1.991700E+01
479	  0.115791589	-4.881000E+00	  0.115791589	-1.330420E+02	  0.115791589	1.604800E+01	  0.115791589	-1.980900E+01
480	  0.115991987	-4.881000E+00	  0.115991987	-1.332760E+02	  0.115991987	1.602000E+01	  0.115991987	-1.970200E+01
481	  0.116192386	-4.884000E+00	  0.116192386	-1.335060E+02	  0.116192386	1.600400E+01	  0.116192386	-1.959400E+01
482	  0.116392791	-4.881000E+00	  0.116392791	-1.337610E+02	  0.116392791	1.597000E+01	  0.116392791	-1.947900E+01
483	  0.116593190	-4.884000E+00	  0.116593190	-1.339840E+02	  0.116593190	1.595400E+01	  0.116593190	-1.937500E+01
484	  0.116793588	-4.887000E+00	  0.116793588	-1.342420E+02	  0.116793588	1.593400E+01	  0.116793588	-1.925500E+01
485	  0.116993994	-4.884000E+00	  0.116993994	-1.344820E+02	  0.116993994	1.590000E+01	  0.116993994	-1.914800E+01
486	  0.117194392	-4.887000E+00	  0.117194392	-1.347000E+02	  0.117194392	1.588700E+01	  0.117194392	-1.904600E+01
487	  0.117394790	-4.887000E+00	  0.117394790	-1.349560E+02	  0.117394790	1.586000E+01	  0.117394790	-1.892900E+01
488	  0.117595196	-4.889000E+00	  0.117595196	-1.351990E+02	  0.117595196	1.584000E+01	  0.117595196	-1.881800E+01
489	  0.117795594	-4.891000E+00	  0.117795594	-1.354200E+02	  0.117795594	1.582200E+01	  0.117795594	-1.871600E+01
490	  0.117995992	-4.891000E+00	  0.117995992	-1.356500E+02	  0.117995992	1.579800E+01	  0.117995992	-1.861200E+01
491	  0.118196398	-4.890000E+00	  0.118196398	-1.358900E+02	  0.118196398	1.577000E+01	  0.118196398	-1.850400E+01
492	  0.118396796	-4.891000E+00	  0.118396796	-1.361120E+02	  0.118396796	1.575200E+01	  0.118396796	-1.840200E+01
493	  0.118597202	-4.892000E+00	  0.118597202	-1.363730E+02	  0.118597202	1.572900E+01	  0.118597202	-1.828400E+01
494	  0.118797600	-4.894000E+00	  0.118797600	-1.366050E+02	  0.118797600	1.571000E+01	  0.118797600	-1.817800E+01
495	  0.118997999	-4.897000E+00	  0.118997999	-1.368530E+02	  0.118997999	1.569400E+01	  0.118997999	-1.806400E+01
496	  0.119198404	-4.894000E+00	  0.119198404	-1.370910E+02	  0.119198404	1.566400E+01	  0.119198404	-1.795900E+01
497	  0.119398803	-4.896000E+00	  0.119398803	-1.373190E+02	  0.119398803	1.564500E+01	  0.119398803	-1.785500E+01
498	  0.119599201	-4.896000E+00	  0.119599201	-1.375650E+02	  0.119599201	1.562200E+01	  0.119599201	-1.774500E+01
499	  0.119799607	-4.896000E+00	  0.119799607	-1.378050E+02	  0.119799607	1.559900E+01	  0.119799607	-1.763800E+01
500	  0.120000005	-4.895000E+00	  0.120000005	-1.380340E+02	  0.120000005	1.557500E+01	  0.120000005	-1.753500E+01
