! Anritsu VNA Master:             	Model: MS2036C/10/77
! SN:             	1601066
! /bd0/18may12.cable.cal/test.bad.sma-f.key.short.via.sma-m.barrel.txt
! Existing Calibration Information:
! TYPE:             	Current Settings	Active Cal Settings
! TIME:             	05/12/2018 01:16:45 PM	05/12/2018 01:02:08 PM
! INTERNAL TEMP:    	49.5 C	50.0 C
! # POINTS:         	485	485
! START FREQ:       	20.801 603 MHz	20.801 603 MHz
! STOP FREQ:        	117.795 590 MHz	117.795 590 MHz
! SOURCE POWER:     	High	High
! IFBW:             	50 Hz	50 Hz
! AVG FACTOR:       	  1 	  1 
! REF PLANE 1:      	0 mm	0 mm
! REF PLANE 2:      	0 mm	0 mm
! CAL TYPE:         	Full S22	Full S22
! CAL METHOD:       	SOLT	SOLT
! CAL LINE TYPE:    	Coax	Coax
! DUT PORT 1:       	K-Conn(M)	K-Conn(M)
! DUT PORT 2:       	K-Conn(M)	K-Conn(M)
! CAL STATUS:       	OK: Accuracy High	--
! PROP-V:       	0.700
! CABLE LOSS:       	0.000 dB/m
! REF IMPEDANCE:       	50.0
! Trace Specific Parameters:	TR1	TR2	TR3	TR4
! TRACE.#.Y (GRAPH TYPE)	LOG MAG	PHASE	REAL IMPEDANCE	IMAGINARY IMPEDANCE
! TRACE.#.X 	FREQ.GHZ	FREQ.GHZ	FREQ.GHZ	FREQ.GHZ
! S-PARAMETER	S22	S22	S22	S22
! SMOOTH/APERTURE %	0	0	0	0
! WINDOW	NSL	NSL	NSL	NSL
! GATING	OFF	OFF	OFF	OFF
! FGTD	OFF	OFF	OFF	OFF
Marker Information per Trace:	TR1	TR2	TR3	TR4
!MK1	--	"MK1 TR2:  20.000 MHz,##.##"	--	--
!MK2	--	--	"MK2 TR3:  70.100 200 MHz,Z:(0.107 ohm, 2.310 ohm)"	--
!MK3	--	--	--	--
!MK4	--	--	--	--
!MK5	--	--	--	--
!MK6	--	--	--	--
!MK7	--	--	--	--
!MK8	--	--	--	--
PNT	TR1.FREQ.GHZ	TR1.LOG MAG.dB	TR2.FREQ.GHZ	TR2.PHASE.deg	TR3.FREQ.GHZ	TR3.REAL IMPEDANCE.ohm	TR4.FREQ.GHZ	TR4.IMAGINARY IMPEDANCE.ohm
1	  0.020801604	-1.100000E-02	  0.020801604	1.783640E+02	  0.020801604	3.200000E-02	  0.020801604	7.130000E-01
2	  0.021002004	-1.100000E-02	  0.021002004	1.783520E+02	  0.021002004	3.100000E-02	  0.021002004	7.180000E-01
3	  0.021202406	-1.200000E-02	  0.021202406	1.783350E+02	  0.021202406	3.500000E-02	  0.021202406	7.260000E-01
4	  0.021402806	-1.100000E-02	  0.021402806	1.783130E+02	  0.021402806	3.200000E-02	  0.021402806	7.360000E-01
5	  0.021603208	-1.100000E-02	  0.021603208	1.783040E+02	  0.021603208	3.300000E-02	  0.021603208	7.390000E-01
6	  0.021803608	-1.200000E-02	  0.021803608	1.782880E+02	  0.021803608	3.600000E-02	  0.021803608	7.460000E-01
7	  0.022004008	-1.200000E-02	  0.022004008	1.782760E+02	  0.022004008	3.500000E-02	  0.022004008	7.510000E-01
8	  0.022204408	-1.200000E-02	  0.022204408	1.782560E+02	  0.022204408	3.500000E-02	  0.022204408	7.600000E-01
9	  0.022404809	-1.300000E-02	  0.022404809	1.782470E+02	  0.022404809	3.700000E-02	  0.022404809	7.640000E-01
10	  0.022605211	-1.300000E-02	  0.022605211	1.782330E+02	  0.022605211	3.900000E-02	  0.022605211	7.700000E-01
11	  0.022805611	-1.200000E-02	  0.022805611	1.782110E+02	  0.022805611	3.600000E-02	  0.022805611	7.800000E-01
12	  0.023006011	-1.200000E-02	  0.023006011	1.781880E+02	  0.023006011	3.400000E-02	  0.023006011	7.900000E-01
13	  0.023206413	-1.200000E-02	  0.023206413	1.781820E+02	  0.023206413	3.700000E-02	  0.023206413	7.930000E-01
14	  0.023406813	-1.300000E-02	  0.023406813	1.781660E+02	  0.023406813	3.700000E-02	  0.023406813	7.990000E-01
15	  0.023607215	-1.300000E-02	  0.023607215	1.781540E+02	  0.023607215	4.000000E-02	  0.023607215	8.050000E-01
16	  0.023807615	-1.400000E-02	  0.023807615	1.781380E+02	  0.023807615	4.200000E-02	  0.023807615	8.120000E-01
17	  0.024008015	-1.300000E-02	  0.024008015	1.781130E+02	  0.024008015	3.900000E-02	  0.024008015	8.230000E-01
18	  0.024208417	-1.400000E-02	  0.024208417	1.781050E+02	  0.024208417	4.000000E-02	  0.024208417	8.260000E-01
19	  0.024408817	-1.400000E-02	  0.024408817	1.780930E+02	  0.024408817	4.200000E-02	  0.024408817	8.310000E-01
20	  0.024609219	-1.400000E-02	  0.024609219	1.780770E+02	  0.024609219	4.100000E-02	  0.024609219	8.390000E-01
21	  0.024809619	-1.500000E-02	  0.024809619	1.780660E+02	  0.024809619	4.400000E-02	  0.024809619	8.430000E-01
22	  0.025010020	-1.400000E-02	  0.025010020	1.780540E+02	  0.025010020	4.200000E-02	  0.025010020	8.480000E-01
23	  0.025210422	-1.500000E-02	  0.025210422	1.780320E+02	  0.025210422	4.500000E-02	  0.025210422	8.580000E-01
24	  0.025410822	-1.500000E-02	  0.025410822	1.780210E+02	  0.025410822	4.300000E-02	  0.025410822	8.630000E-01
25	  0.025611224	-1.500000E-02	  0.025611224	1.780040E+02	  0.025611224	4.400000E-02	  0.025611224	8.700000E-01
26	  0.025811624	-1.500000E-02	  0.025811624	1.779900E+02	  0.025811624	4.400000E-02	  0.025811624	8.760000E-01
27	  0.026012026	-1.500000E-02	  0.026012026	1.779720E+02	  0.026012026	4.500000E-02	  0.026012026	8.840000E-01
28	  0.026212426	-1.600000E-02	  0.026212426	1.779610E+02	  0.026212426	4.600000E-02	  0.026212426	8.890000E-01
29	  0.026412826	-1.500000E-02	  0.026412826	1.779500E+02	  0.026412826	4.400000E-02	  0.026412826	8.940000E-01
30	  0.026613226	-1.600000E-02	  0.026613226	1.779340E+02	  0.026613226	4.800000E-02	  0.026613226	9.010000E-01
31	  0.026813626	-1.600000E-02	  0.026813626	1.779190E+02	  0.026813626	4.700000E-02	  0.026813626	9.070000E-01
32	  0.027014028	-1.600000E-02	  0.027014028	1.779110E+02	  0.027014028	4.800000E-02	  0.027014028	9.110000E-01
33	  0.027214428	-1.600000E-02	  0.027214428	1.778930E+02	  0.027214428	4.700000E-02	  0.027214428	9.190000E-01
34	  0.027414829	-1.700000E-02	  0.027414829	1.778750E+02	  0.027414829	4.900000E-02	  0.027414829	9.270000E-01
35	  0.027615231	-1.700000E-02	  0.027615231	1.778660E+02	  0.027615231	4.800000E-02	  0.027615231	9.300000E-01
36	  0.027815631	-1.600000E-02	  0.027815631	1.778430E+02	  0.027815631	4.800000E-02	  0.027815631	9.400000E-01
37	  0.028016033	-1.800000E-02	  0.028016033	1.778320E+02	  0.028016033	5.200000E-02	  0.028016033	9.450000E-01
38	  0.028216433	-1.700000E-02	  0.028216433	1.778190E+02	  0.028216433	5.100000E-02	  0.028216433	9.510000E-01
39	  0.028416833	-1.700000E-02	  0.028416833	1.777980E+02	  0.028416833	5.100000E-02	  0.028416833	9.600000E-01
40	  0.028617235	-1.800000E-02	  0.028617235	1.777860E+02	  0.028617235	5.200000E-02	  0.028617235	9.650000E-01
41	  0.028817635	-1.800000E-02	  0.028817635	1.777760E+02	  0.028817635	5.300000E-02	  0.028817635	9.700000E-01
42	  0.029018037	-1.800000E-02	  0.029018037	1.777590E+02	  0.029018037	5.300000E-02	  0.029018037	9.770000E-01
43	  0.029218437	-1.700000E-02	  0.029218437	1.777430E+02	  0.029218437	5.100000E-02	  0.029218437	9.840000E-01
44	  0.029418837	-1.800000E-02	  0.029418837	1.777290E+02	  0.029418837	5.200000E-02	  0.029418837	9.900000E-01
45	  0.029619239	-1.800000E-02	  0.029619239	1.777120E+02	  0.029619239	5.400000E-02	  0.029619239	9.980000E-01
46	  0.029819639	-1.900000E-02	  0.029819639	1.777010E+02	  0.029819639	5.600000E-02	  0.029819639	1.003000E+00
47	  0.030020041	-1.800000E-02	  0.030020041	1.776840E+02	  0.030020041	5.400000E-02	  0.030020041	1.010000E+00
48	  0.030220442	-1.800000E-02	  0.030220442	1.776690E+02	  0.030220442	5.300000E-02	  0.030220442	1.016000E+00
49	  0.030420844	-1.900000E-02	  0.030420844	1.776530E+02	  0.030420844	5.700000E-02	  0.030420844	1.023000E+00
50	  0.030621244	-1.900000E-02	  0.030621244	1.776330E+02	  0.030621244	5.500000E-02	  0.030621244	1.032000E+00
51	  0.030821642	-1.900000E-02	  0.030821642	1.776200E+02	  0.030821642	5.600000E-02	  0.030821642	1.038000E+00
52	  0.031022044	-2.000000E-02	  0.031022044	1.776010E+02	  0.031022044	5.800000E-02	  0.031022044	1.046000E+00
53	  0.031222444	-1.700000E-02	  0.031222444	1.775950E+02	  0.031222444	5.100000E-02	  0.031222444	1.049000E+00
54	  0.031422846	-1.800000E-02	  0.031422846	1.775790E+02	  0.031422846	5.400000E-02	  0.031422846	1.056000E+00
55	  0.031623244	-1.800000E-02	  0.031623244	1.775670E+02	  0.031623244	5.300000E-02	  0.031623244	1.061000E+00
56	  0.031823646	-1.900000E-02	  0.031823646	1.775530E+02	  0.031823646	5.600000E-02	  0.031823646	1.067000E+00
57	  0.032024048	-1.900000E-02	  0.032024048	1.775310E+02	  0.032024048	5.600000E-02	  0.032024048	1.077000E+00
58	  0.032224450	-1.800000E-02	  0.032224450	1.775250E+02	  0.032224450	5.300000E-02	  0.032224450	1.079000E+00
59	  0.032424849	-1.800000E-02	  0.032424849	1.775050E+02	  0.032424849	5.300000E-02	  0.032424849	1.088000E+00
60	  0.032625251	-1.800000E-02	  0.032625251	1.774890E+02	  0.032625251	5.400000E-02	  0.032625251	1.095000E+00
61	  0.032825653	-1.900000E-02	  0.032825653	1.774810E+02	  0.032825653	5.600000E-02	  0.032825653	1.099000E+00
62	  0.033026051	-2.000000E-02	  0.033026051	1.774560E+02	  0.033026051	5.800000E-02	  0.033026051	1.110000E+00
63	  0.033226453	-2.000000E-02	  0.033226453	1.774450E+02	  0.033226453	5.800000E-02	  0.033226453	1.114000E+00
64	  0.033426855	-1.900000E-02	  0.033426855	1.774240E+02	  0.033426855	5.600000E-02	  0.033426855	1.123000E+00
65	  0.033627257	-2.000000E-02	  0.033627257	1.774170E+02	  0.033627257	5.800000E-02	  0.033627257	1.127000E+00
66	  0.033827655	-1.900000E-02	  0.033827655	1.774020E+02	  0.033827655	5.700000E-02	  0.033827655	1.133000E+00
67	  0.034028057	-1.900000E-02	  0.034028057	1.773730E+02	  0.034028057	5.600000E-02	  0.034028057	1.146000E+00
68	  0.034228459	-2.000000E-02	  0.034228459	1.773690E+02	  0.034228459	6.000000E-02	  0.034228459	1.147000E+00
69	  0.034428857	-2.000000E-02	  0.034428857	1.773500E+02	  0.034428857	5.900000E-02	  0.034428857	1.156000E+00
70	  0.034629259	-1.900000E-02	  0.034629259	1.773330E+02	  0.034629259	5.600000E-02	  0.034629259	1.163000E+00
71	  0.034829661	-2.000000E-02	  0.034829661	1.773250E+02	  0.034829661	6.000000E-02	  0.034829661	1.167000E+00
72	  0.035030060	-2.000000E-02	  0.035030060	1.773140E+02	  0.035030060	5.800000E-02	  0.035030060	1.172000E+00
73	  0.035230462	-2.000000E-02	  0.035230462	1.772950E+02	  0.035230462	5.900000E-02	  0.035230462	1.180000E+00
74	  0.035430863	-2.100000E-02	  0.035430863	1.772770E+02	  0.035430863	6.100000E-02	  0.035430863	1.188000E+00
75	  0.035631265	-2.000000E-02	  0.035631265	1.772650E+02	  0.035631265	5.900000E-02	  0.035631265	1.193000E+00
76	  0.035831664	-2.000000E-02	  0.035831664	1.772530E+02	  0.035831664	5.900000E-02	  0.035831664	1.198000E+00
77	  0.036032066	-2.100000E-02	  0.036032066	1.772350E+02	  0.036032066	6.000000E-02	  0.036032066	1.206000E+00
78	  0.036232468	-2.100000E-02	  0.036232468	1.772230E+02	  0.036232468	6.200000E-02	  0.036232468	1.211000E+00
79	  0.036432866	-2.100000E-02	  0.036432866	1.772070E+02	  0.036432866	6.000000E-02	  0.036432866	1.218000E+00
80	  0.036633268	-2.000000E-02	  0.036633268	1.771840E+02	  0.036633268	5.900000E-02	  0.036633268	1.228000E+00
81	  0.036833670	-2.000000E-02	  0.036833670	1.771720E+02	  0.036833670	5.900000E-02	  0.036833670	1.234000E+00
82	  0.037034072	-2.000000E-02	  0.037034072	1.771540E+02	  0.037034072	5.900000E-02	  0.037034072	1.241000E+00
83	  0.037234470	-2.000000E-02	  0.037234470	1.771410E+02	  0.037234470	5.900000E-02	  0.037234470	1.247000E+00
84	  0.037434869	-2.000000E-02	  0.037434869	1.771240E+02	  0.037434869	6.000000E-02	  0.037434869	1.254000E+00
85	  0.037635271	-2.000000E-02	  0.037635271	1.771060E+02	  0.037635271	5.900000E-02	  0.037635271	1.262000E+00
86	  0.037835669	-2.100000E-02	  0.037835669	1.770910E+02	  0.037835669	6.200000E-02	  0.037835669	1.269000E+00
87	  0.038036071	-2.200000E-02	  0.038036071	1.770760E+02	  0.038036071	6.300000E-02	  0.038036071	1.275000E+00
88	  0.038236473	-2.100000E-02	  0.038236473	1.770640E+02	  0.038236473	6.100000E-02	  0.038236473	1.281000E+00
89	  0.038436871	-2.100000E-02	  0.038436871	1.770560E+02	  0.038436871	6.100000E-02	  0.038436871	1.284000E+00
90	  0.038637273	-2.200000E-02	  0.038637273	1.770350E+02	  0.038637273	6.300000E-02	  0.038637273	1.293000E+00
91	  0.038837675	-2.100000E-02	  0.038837675	1.770230E+02	  0.038837675	6.200000E-02	  0.038837675	1.298000E+00
92	  0.039038073	-2.100000E-02	  0.039038073	1.770070E+02	  0.039038073	6.200000E-02	  0.039038073	1.306000E+00
93	  0.039238475	-2.100000E-02	  0.039238475	1.769900E+02	  0.039238475	6.100000E-02	  0.039238475	1.313000E+00
94	  0.039438877	-2.100000E-02	  0.039438877	1.769720E+02	  0.039438877	6.200000E-02	  0.039438877	1.321000E+00
95	  0.039639279	-2.200000E-02	  0.039639279	1.769610E+02	  0.039639279	6.300000E-02	  0.039639279	1.326000E+00
96	  0.039839678	-2.200000E-02	  0.039839678	1.769490E+02	  0.039839678	6.500000E-02	  0.039839678	1.331000E+00
97	  0.040040080	-2.200000E-02	  0.040040080	1.769230E+02	  0.040040080	6.300000E-02	  0.040040080	1.342000E+00
98	  0.040240481	-2.200000E-02	  0.040240481	1.769100E+02	  0.040240481	6.300000E-02	  0.040240481	1.348000E+00
99	  0.040440880	-2.100000E-02	  0.040440880	1.768940E+02	  0.040440880	6.100000E-02	  0.040440880	1.355000E+00
100	  0.040641282	-2.200000E-02	  0.040641282	1.768770E+02	  0.040641282	6.500000E-02	  0.040641282	1.362000E+00
101	  0.040841684	-2.100000E-02	  0.040841684	1.768650E+02	  0.040841684	6.200000E-02	  0.040841684	1.367000E+00
102	  0.041042086	-2.200000E-02	  0.041042086	1.768480E+02	  0.041042086	6.300000E-02	  0.041042086	1.375000E+00
103	  0.041242484	-2.200000E-02	  0.041242484	1.768310E+02	  0.041242484	6.600000E-02	  0.041242484	1.383000E+00
104	  0.041442886	-2.200000E-02	  0.041442886	1.768180E+02	  0.041442886	6.500000E-02	  0.041442886	1.388000E+00
105	  0.041643288	-2.300000E-02	  0.041643288	1.768020E+02	  0.041643288	6.700000E-02	  0.041643288	1.395000E+00
106	  0.041843686	-2.200000E-02	  0.041843686	1.767900E+02	  0.041843686	6.400000E-02	  0.041843686	1.400000E+00
107	  0.042044088	-2.300000E-02	  0.042044088	1.767770E+02	  0.042044088	6.800000E-02	  0.042044088	1.406000E+00
108	  0.042244490	-2.300000E-02	  0.042244490	1.767590E+02	  0.042244490	6.600000E-02	  0.042244490	1.414000E+00
109	  0.042444889	-2.300000E-02	  0.042444889	1.767430E+02	  0.042444889	6.700000E-02	  0.042444889	1.421000E+00
110	  0.042645290	-2.300000E-02	  0.042645290	1.767340E+02	  0.042645290	6.700000E-02	  0.042645290	1.425000E+00
111	  0.042845692	-2.400000E-02	  0.042845692	1.767180E+02	  0.042845692	7.000000E-02	  0.042845692	1.432000E+00
112	  0.043046094	-2.200000E-02	  0.043046094	1.767000E+02	  0.043046094	6.400000E-02	  0.043046094	1.440000E+00
113	  0.043246493	-2.400000E-02	  0.043246493	1.766870E+02	  0.043246493	6.900000E-02	  0.043246493	1.445000E+00
114	  0.043446895	-2.200000E-02	  0.043446895	1.766720E+02	  0.043446895	6.600000E-02	  0.043446895	1.452000E+00
115	  0.043647297	-2.300000E-02	  0.043647297	1.766560E+02	  0.043647297	6.700000E-02	  0.043647297	1.459000E+00
116	  0.043847695	-2.400000E-02	  0.043847695	1.766460E+02	  0.043847695	7.000000E-02	  0.043847695	1.463000E+00
117	  0.044048097	-2.400000E-02	  0.044048097	1.766300E+02	  0.044048097	7.100000E-02	  0.044048097	1.470000E+00
118	  0.044248499	-2.500000E-02	  0.044248499	1.766120E+02	  0.044248499	7.200000E-02	  0.044248499	1.478000E+00
119	  0.044448901	-2.600000E-02	  0.044448901	1.765990E+02	  0.044448901	7.500000E-02	  0.044448901	1.483000E+00
120	  0.044649299	-2.500000E-02	  0.044649299	1.765970E+02	  0.044649299	7.400000E-02	  0.044649299	1.484000E+00
121	  0.044849701	-2.500000E-02	  0.044849701	1.765760E+02	  0.044849701	7.300000E-02	  0.044849701	1.494000E+00
122	  0.045050103	-2.600000E-02	  0.045050103	1.765630E+02	  0.045050103	7.500000E-02	  0.045050103	1.499000E+00
123	  0.045250501	-2.500000E-02	  0.045250501	1.765450E+02	  0.045250501	7.400000E-02	  0.045250501	1.507000E+00
124	  0.045450903	-2.300000E-02	  0.045450903	1.765260E+02	  0.045450903	6.700000E-02	  0.045450903	1.516000E+00
125	  0.045651305	-2.400000E-02	  0.045651305	1.765090E+02	  0.045651305	6.900000E-02	  0.045651305	1.523000E+00
126	  0.045851704	-2.400000E-02	  0.045851704	1.764950E+02	  0.045851704	7.100000E-02	  0.045851704	1.529000E+00
127	  0.046052102	-2.500000E-02	  0.046052102	1.764900E+02	  0.046052102	7.400000E-02	  0.046052102	1.531000E+00
128	  0.046252504	-2.600000E-02	  0.046252504	1.764730E+02	  0.046252504	7.700000E-02	  0.046252504	1.539000E+00
129	  0.046452906	-2.600000E-02	  0.046452906	1.764670E+02	  0.046452906	7.700000E-02	  0.046452906	1.541000E+00
130	  0.046653304	-2.700000E-02	  0.046653304	1.764490E+02	  0.046653304	7.900000E-02	  0.046653304	1.549000E+00
131	  0.046853706	-2.600000E-02	  0.046853706	1.764360E+02	  0.046853706	7.600000E-02	  0.046853706	1.555000E+00
132	  0.047054108	-2.600000E-02	  0.047054108	1.764180E+02	  0.047054108	7.700000E-02	  0.047054108	1.563000E+00
133	  0.047254506	-2.700000E-02	  0.047254506	1.764110E+02	  0.047254506	7.700000E-02	  0.047254506	1.566000E+00
134	  0.047454908	-2.800000E-02	  0.047454908	1.763890E+02	  0.047454908	8.100000E-02	  0.047454908	1.575000E+00
135	  0.047655310	-2.700000E-02	  0.047655310	1.763730E+02	  0.047655310	7.700000E-02	  0.047655310	1.582000E+00
136	  0.047855709	-2.600000E-02	  0.047855709	1.763580E+02	  0.047855709	7.700000E-02	  0.047855709	1.589000E+00
137	  0.048056111	-2.600000E-02	  0.048056111	1.763380E+02	  0.048056111	7.600000E-02	  0.048056111	1.598000E+00
138	  0.048256513	-2.700000E-02	  0.048256513	1.763290E+02	  0.048256513	7.800000E-02	  0.048256513	1.601000E+00
139	  0.048456915	-2.700000E-02	  0.048456915	1.763150E+02	  0.048456915	7.900000E-02	  0.048456915	1.608000E+00
140	  0.048657313	-2.700000E-02	  0.048657313	1.762930E+02	  0.048657313	8.000000E-02	  0.048657313	1.617000E+00
141	  0.048857715	-2.700000E-02	  0.048857715	1.762860E+02	  0.048857715	7.900000E-02	  0.048857715	1.620000E+00
142	  0.049058117	-2.700000E-02	  0.049058117	1.762750E+02	  0.049058117	7.800000E-02	  0.049058117	1.625000E+00
143	  0.049258515	-2.800000E-02	  0.049258515	1.762580E+02	  0.049258515	8.000000E-02	  0.049258515	1.633000E+00
144	  0.049458917	-2.700000E-02	  0.049458917	1.762370E+02	  0.049458917	7.900000E-02	  0.049458917	1.642000E+00
145	  0.049659319	-2.800000E-02	  0.049659319	1.762200E+02	  0.049659319	8.300000E-02	  0.049659319	1.649000E+00
146	  0.049859721	-2.800000E-02	  0.049859721	1.762120E+02	  0.049859721	8.100000E-02	  0.049859721	1.653000E+00
147	  0.050060119	-2.800000E-02	  0.050060119	1.761960E+02	  0.050060119	8.200000E-02	  0.050060119	1.660000E+00
148	  0.050260521	-2.700000E-02	  0.050260521	1.761840E+02	  0.050260521	8.000000E-02	  0.050260521	1.665000E+00
149	  0.050460923	-2.900000E-02	  0.050460923	1.761720E+02	  0.050460923	8.400000E-02	  0.050460923	1.670000E+00
150	  0.050661322	-2.800000E-02	  0.050661322	1.761530E+02	  0.050661322	8.200000E-02	  0.050661322	1.679000E+00
151	  0.050861724	-2.800000E-02	  0.050861724	1.761360E+02	  0.050861724	8.300000E-02	  0.050861724	1.686000E+00
152	  0.051062126	-2.900000E-02	  0.051062126	1.761250E+02	  0.051062126	8.500000E-02	  0.051062126	1.691000E+00
153	  0.051262524	-2.900000E-02	  0.051262524	1.761050E+02	  0.051262524	8.500000E-02	  0.051262524	1.700000E+00
154	  0.051462926	-2.900000E-02	  0.051462926	1.760890E+02	  0.051462926	8.400000E-02	  0.051462926	1.706000E+00
155	  0.051663328	-2.800000E-02	  0.051663328	1.760810E+02	  0.051663328	8.200000E-02	  0.051663328	1.710000E+00
156	  0.051863730	-2.800000E-02	  0.051863730	1.760620E+02	  0.051863730	8.200000E-02	  0.051863730	1.718000E+00
157	  0.052064128	-2.900000E-02	  0.052064128	1.760420E+02	  0.052064128	8.500000E-02	  0.052064128	1.727000E+00
158	  0.052264530	-3.000000E-02	  0.052264530	1.760290E+02	  0.052264530	8.800000E-02	  0.052264530	1.732000E+00
159	  0.052464932	-2.900000E-02	  0.052464932	1.760160E+02	  0.052464932	8.400000E-02	  0.052464932	1.738000E+00
160	  0.052665330	-2.900000E-02	  0.052665330	1.760030E+02	  0.052665330	8.400000E-02	  0.052665330	1.744000E+00
161	  0.052865732	-3.000000E-02	  0.052865732	1.759890E+02	  0.052865732	8.700000E-02	  0.052865732	1.750000E+00
162	  0.053066134	-3.000000E-02	  0.053066134	1.759770E+02	  0.053066134	8.800000E-02	  0.053066134	1.755000E+00
163	  0.053266536	-3.000000E-02	  0.053266536	1.759710E+02	  0.053266536	8.800000E-02	  0.053266536	1.758000E+00
164	  0.053466935	-3.000000E-02	  0.053466935	1.759430E+02	  0.053466935	8.900000E-02	  0.053466935	1.770000E+00
165	  0.053667337	-3.100000E-02	  0.053667337	1.759300E+02	  0.053667337	9.100000E-02	  0.053667337	1.776000E+00
166	  0.053867739	-3.100000E-02	  0.053867739	1.759160E+02	  0.053867739	9.100000E-02	  0.053867739	1.782000E+00
167	  0.054068137	-3.100000E-02	  0.054068137	1.759030E+02	  0.054068137	9.100000E-02	  0.054068137	1.788000E+00
168	  0.054268539	-3.100000E-02	  0.054268539	1.758870E+02	  0.054268539	8.900000E-02	  0.054268539	1.795000E+00
169	  0.054468941	-3.100000E-02	  0.054468941	1.758830E+02	  0.054468941	9.000000E-02	  0.054468941	1.796000E+00
170	  0.054669335	-3.100000E-02	  0.054669335	1.758550E+02	  0.054669335	9.100000E-02	  0.054669335	1.809000E+00
171	  0.054869737	-3.200000E-02	  0.054869737	1.758460E+02	  0.054869737	9.300000E-02	  0.054869737	1.812000E+00
172	  0.055070139	-3.100000E-02	  0.055070139	1.758300E+02	  0.055070139	9.000000E-02	  0.055070139	1.820000E+00
173	  0.055270538	-3.200000E-02	  0.055270538	1.758130E+02	  0.055270538	9.300000E-02	  0.055270538	1.827000E+00
174	  0.055470940	-3.100000E-02	  0.055470940	1.758010E+02	  0.055470940	9.100000E-02	  0.055470940	1.832000E+00
175	  0.055671342	-3.200000E-02	  0.055671342	1.757860E+02	  0.055671342	9.200000E-02	  0.055671342	1.839000E+00
176	  0.055871744	-3.100000E-02	  0.055871744	1.757720E+02	  0.055871744	9.100000E-02	  0.055871744	1.845000E+00
177	  0.056072142	-3.100000E-02	  0.056072142	1.757550E+02	  0.056072142	9.000000E-02	  0.056072142	1.853000E+00
178	  0.056272544	-3.200000E-02	  0.056272544	1.757440E+02	  0.056272544	9.300000E-02	  0.056272544	1.857000E+00
179	  0.056472946	-3.200000E-02	  0.056472946	1.757360E+02	  0.056472946	9.300000E-02	  0.056472946	1.860000E+00
180	  0.056673344	-3.300000E-02	  0.056673344	1.757140E+02	  0.056673344	9.600000E-02	  0.056673344	1.870000E+00
181	  0.056873746	-3.300000E-02	  0.056873746	1.757020E+02	  0.056873746	9.500000E-02	  0.056873746	1.875000E+00
182	  0.057074148	-3.200000E-02	  0.057074148	1.756880E+02	  0.057074148	9.400000E-02	  0.057074148	1.881000E+00
183	  0.057274550	-3.300000E-02	  0.057274550	1.756790E+02	  0.057274550	9.500000E-02	  0.057274550	1.886000E+00
184	  0.057474948	-3.200000E-02	  0.057474948	1.756580E+02	  0.057474948	9.400000E-02	  0.057474948	1.895000E+00
185	  0.057675350	-3.400000E-02	  0.057675350	1.756460E+02	  0.057675350	1.000000E-01	  0.057675350	1.900000E+00
186	  0.057875752	-3.500000E-02	  0.057875752	1.756300E+02	  0.057875752	1.000000E-01	  0.057875752	1.907000E+00
187	  0.058076151	-3.500000E-02	  0.058076151	1.756200E+02	  0.058076151	1.010000E-01	  0.058076151	1.911000E+00
188	  0.058276553	-3.300000E-02	  0.058276553	1.756010E+02	  0.058276553	9.700000E-02	  0.058276553	1.920000E+00
189	  0.058476955	-3.400000E-02	  0.058476955	1.755880E+02	  0.058476955	9.900000E-02	  0.058476955	1.925000E+00
190	  0.058677353	-3.300000E-02	  0.058677353	1.755740E+02	  0.058677353	9.600000E-02	  0.058677353	1.932000E+00
191	  0.058877755	-3.500000E-02	  0.058877755	1.755560E+02	  0.058877755	1.020000E-01	  0.058877755	1.939000E+00
192	  0.059078157	-3.500000E-02	  0.059078157	1.755470E+02	  0.059078157	1.000000E-01	  0.059078157	1.943000E+00
193	  0.059278559	-3.400000E-02	  0.059278559	1.755350E+02	  0.059278559	9.800000E-02	  0.059278559	1.948000E+00
194	  0.059478957	-3.500000E-02	  0.059478957	1.755170E+02	  0.059478957	1.020000E-01	  0.059478957	1.956000E+00
195	  0.059679359	-3.500000E-02	  0.059679359	1.755000E+02	  0.059679359	1.000000E-01	  0.059679359	1.964000E+00
196	  0.059879761	-3.500000E-02	  0.059879761	1.754870E+02	  0.059879761	1.020000E-01	  0.059879761	1.970000E+00
197	  0.060080159	-3.400000E-02	  0.060080159	1.754720E+02	  0.060080159	1.000000E-01	  0.060080159	1.976000E+00
198	  0.060280561	-3.500000E-02	  0.060280561	1.754500E+02	  0.060280561	1.020000E-01	  0.060280561	1.986000E+00
199	  0.060480963	-3.600000E-02	  0.060480963	1.754370E+02	  0.060480963	1.040000E-01	  0.060480963	1.991000E+00
200	  0.060681365	-3.600000E-02	  0.060681365	1.754220E+02	  0.060681365	1.030000E-01	  0.060681365	1.998000E+00
201	  0.060881764	-3.400000E-02	  0.060881764	1.754000E+02	  0.060881764	9.900000E-02	  0.060881764	2.008000E+00
202	  0.061082166	-3.400000E-02	  0.061082166	1.753830E+02	  0.061082166	1.000000E-01	  0.061082166	2.015000E+00
203	  0.061282568	-3.500000E-02	  0.061282568	1.753710E+02	  0.061282568	1.030000E-01	  0.061282568	2.020000E+00
204	  0.061482966	-3.600000E-02	  0.061482966	1.753580E+02	  0.061482966	1.060000E-01	  0.061482966	2.026000E+00
205	  0.061683368	-3.500000E-02	  0.061683368	1.753390E+02	  0.061683368	1.020000E-01	  0.061683368	2.034000E+00
206	  0.061883770	-3.400000E-02	  0.061883770	1.753320E+02	  0.061883770	1.000000E-01	  0.061883770	2.037000E+00
207	  0.062084168	-3.500000E-02	  0.062084168	1.753120E+02	  0.062084168	1.030000E-01	  0.062084168	2.046000E+00
208	  0.062284570	-3.500000E-02	  0.062284570	1.752940E+02	  0.062284570	1.020000E-01	  0.062284570	2.054000E+00
209	  0.062484972	-3.400000E-02	  0.062484972	1.753000E+02	  0.062484972	9.900000E-02	  0.062484972	2.051000E+00
210	  0.062685370	-3.500000E-02	  0.062685370	1.752670E+02	  0.062685370	1.020000E-01	  0.062685370	2.066000E+00
211	  0.062885776	-3.400000E-02	  0.062885776	1.752490E+02	  0.062885776	9.900000E-02	  0.062885776	2.074000E+00
212	  0.063086174	-3.400000E-02	  0.063086174	1.752430E+02	  0.063086174	1.000000E-01	  0.063086174	2.076000E+00
213	  0.063286573	-3.200000E-02	  0.063286573	1.752280E+02	  0.063286573	9.400000E-02	  0.063286573	2.083000E+00
214	  0.063486971	-3.200000E-02	  0.063486971	1.752200E+02	  0.063486971	9.300000E-02	  0.063486971	2.086000E+00
215	  0.063687377	-3.500000E-02	  0.063687377	1.751950E+02	  0.063687377	1.010000E-01	  0.063687377	2.097000E+00
216	  0.063887775	-3.500000E-02	  0.063887775	1.751820E+02	  0.063887775	1.020000E-01	  0.063887775	2.103000E+00
217	  0.064088173	-3.400000E-02	  0.064088173	1.751740E+02	  0.064088173	9.800000E-02	  0.064088173	2.106000E+00
218	  0.064288579	-3.500000E-02	  0.064288579	1.751540E+02	  0.064288579	1.030000E-01	  0.064288579	2.115000E+00
219	  0.064488977	-3.600000E-02	  0.064488977	1.751390E+02	  0.064488977	1.040000E-01	  0.064488977	2.121000E+00
220	  0.064689375	-3.500000E-02	  0.064689375	1.751220E+02	  0.064689375	1.020000E-01	  0.064689375	2.129000E+00
221	  0.064889781	-3.600000E-02	  0.064889781	1.751060E+02	  0.064889781	1.060000E-01	  0.064889781	2.136000E+00
222	  0.065090179	-3.600000E-02	  0.065090179	1.750880E+02	  0.065090179	1.060000E-01	  0.065090179	2.144000E+00
223	  0.065290578	-3.600000E-02	  0.065290578	1.750690E+02	  0.065290578	1.050000E-01	  0.065290578	2.152000E+00
224	  0.065490983	-3.600000E-02	  0.065490983	1.750630E+02	  0.065490983	1.050000E-01	  0.065490983	2.155000E+00
225	  0.065691382	-3.700000E-02	  0.065691382	1.750470E+02	  0.065691382	1.070000E-01	  0.065691382	2.162000E+00
226	  0.065891780	-3.500000E-02	  0.065891780	1.750230E+02	  0.065891780	1.030000E-01	  0.065891780	2.172000E+00
227	  0.066092186	-3.700000E-02	  0.066092186	1.750180E+02	  0.066092186	1.060000E-01	  0.066092186	2.175000E+00
228	  0.066292584	-3.600000E-02	  0.066292584	1.749910E+02	  0.066292584	1.050000E-01	  0.066292584	2.186000E+00
229	  0.066492982	-3.400000E-02	  0.066492982	1.749780E+02	  0.066492982	9.900000E-02	  0.066492982	2.192000E+00
230	  0.066693388	-3.400000E-02	  0.066693388	1.749600E+02	  0.066693388	9.900000E-02	  0.066693388	2.200000E+00
231	  0.066893786	-3.700000E-02	  0.066893786	1.749490E+02	  0.066893786	1.080000E-01	  0.066893786	2.204000E+00
232	  0.067094192	-3.600000E-02	  0.067094192	1.749430E+02	  0.067094192	1.040000E-01	  0.067094192	2.207000E+00
233	  0.067294590	-3.600000E-02	  0.067294590	1.749230E+02	  0.067294590	1.050000E-01	  0.067294590	2.216000E+00
234	  0.067494988	-3.700000E-02	  0.067494988	1.749110E+02	  0.067494988	1.090000E-01	  0.067494988	2.221000E+00
235	  0.067695394	-3.500000E-02	  0.067695394	1.748860E+02	  0.067695394	1.030000E-01	  0.067695394	2.232000E+00
236	  0.067895792	-3.600000E-02	  0.067895792	1.748790E+02	  0.067895792	1.060000E-01	  0.067895792	2.235000E+00
237	  0.068096191	-3.600000E-02	  0.068096191	1.748610E+02	  0.068096191	1.050000E-01	  0.068096191	2.243000E+00
238	  0.068296596	-3.500000E-02	  0.068296596	1.748370E+02	  0.068296596	1.030000E-01	  0.068296596	2.254000E+00
239	  0.068496995	-3.500000E-02	  0.068496995	1.748250E+02	  0.068496995	1.020000E-01	  0.068496995	2.259000E+00
240	  0.068697393	-3.600000E-02	  0.068697393	1.748170E+02	  0.068697393	1.060000E-01	  0.068697393	2.262000E+00
241	  0.068897791	-3.600000E-02	  0.068897791	1.748010E+02	  0.068897791	1.060000E-01	  0.068897791	2.269000E+00
242	  0.069098189	-3.500000E-02	  0.069098189	1.747820E+02	  0.069098189	1.030000E-01	  0.069098189	2.278000E+00
243	  0.069298595	-3.800000E-02	  0.069298595	1.747690E+02	  0.069298595	1.110000E-01	  0.069298595	2.283000E+00
244	  0.069498993	-3.700000E-02	  0.069498993	1.747580E+02	  0.069498993	1.070000E-01	  0.069498993	2.288000E+00
245	  0.069699399	-3.500000E-02	  0.069699399	1.747440E+02	  0.069699399	1.020000E-01	  0.069699399	2.294000E+00
246	  0.069899797	-3.700000E-02	  0.069899797	1.747390E+02	  0.069899797	1.080000E-01	  0.069899797	2.296000E+00
247	  0.070100196	-3.700000E-02	  0.070100196	1.747090E+02	  0.070100196	1.070000E-01	  0.070100196	2.309000E+00
248	  0.070300601	-3.700000E-02	  0.070300601	1.746990E+02	  0.070300601	1.060000E-01	  0.070300601	2.314000E+00
249	  0.070501000	-3.900000E-02	  0.070501000	1.746930E+02	  0.070501000	1.130000E-01	  0.070501000	2.317000E+00
250	  0.070701398	-3.700000E-02	  0.070701398	1.746740E+02	  0.070701398	1.090000E-01	  0.070701398	2.325000E+00
251	  0.070901804	-3.700000E-02	  0.070901804	1.746540E+02	  0.070901804	1.070000E-01	  0.070901804	2.334000E+00
252	  0.071102202	-3.900000E-02	  0.071102202	1.746470E+02	  0.071102202	1.130000E-01	  0.071102202	2.337000E+00
253	  0.071302600	-3.800000E-02	  0.071302600	1.746340E+02	  0.071302600	1.090000E-01	  0.071302600	2.342000E+00
254	  0.071503006	-3.700000E-02	  0.071503006	1.746210E+02	  0.071503006	1.080000E-01	  0.071503006	2.348000E+00
255	  0.071703404	-3.700000E-02	  0.071703404	1.745990E+02	  0.071703404	1.080000E-01	  0.071703404	2.358000E+00
256	  0.071903802	-3.600000E-02	  0.071903802	1.745910E+02	  0.071903802	1.040000E-01	  0.071903802	2.361000E+00
257	  0.072104208	-3.800000E-02	  0.072104208	1.745750E+02	  0.072104208	1.120000E-01	  0.072104208	2.368000E+00
258	  0.072304606	-3.900000E-02	  0.072304606	1.745500E+02	  0.072304606	1.140000E-01	  0.072304606	2.379000E+00
259	  0.072505005	-3.900000E-02	  0.072505005	1.745440E+02	  0.072505005	1.130000E-01	  0.072505005	2.382000E+00
260	  0.072705410	-4.000000E-02	  0.072705410	1.745190E+02	  0.072705410	1.150000E-01	  0.072705410	2.392000E+00
261	  0.072905809	-3.900000E-02	  0.072905809	1.745090E+02	  0.072905809	1.130000E-01	  0.072905809	2.397000E+00
262	  0.073106214	-3.900000E-02	  0.073106214	1.744950E+02	  0.073106214	1.130000E-01	  0.073106214	2.403000E+00
263	  0.073306613	-3.900000E-02	  0.073306613	1.744840E+02	  0.073306613	1.140000E-01	  0.073306613	2.408000E+00
264	  0.073507011	-3.900000E-02	  0.073507011	1.744570E+02	  0.073507011	1.140000E-01	  0.073507011	2.420000E+00
265	  0.073707417	-4.000000E-02	  0.073707417	1.744460E+02	  0.073707417	1.150000E-01	  0.073707417	2.424000E+00
266	  0.073907815	-3.900000E-02	  0.073907815	1.744380E+02	  0.073907815	1.150000E-01	  0.073907815	2.428000E+00
267	  0.074108213	-3.800000E-02	  0.074108213	1.744210E+02	  0.074108213	1.110000E-01	  0.074108213	2.436000E+00
268	  0.074308619	-3.900000E-02	  0.074308619	1.744040E+02	  0.074308619	1.150000E-01	  0.074308619	2.443000E+00
269	  0.074509017	-3.800000E-02	  0.074509017	1.743880E+02	  0.074509017	1.110000E-01	  0.074509017	2.450000E+00
270	  0.074709415	-4.000000E-02	  0.074709415	1.743710E+02	  0.074709415	1.150000E-01	  0.074709415	2.458000E+00
271	  0.074909821	-3.800000E-02	  0.074909821	1.743600E+02	  0.074909821	1.120000E-01	  0.074909821	2.462000E+00
272	  0.075110219	-3.800000E-02	  0.075110219	1.743390E+02	  0.075110219	1.100000E-01	  0.075110219	2.471000E+00
273	  0.075310618	-3.900000E-02	  0.075310618	1.743250E+02	  0.075310618	1.130000E-01	  0.075310618	2.477000E+00
274	  0.075511023	-3.800000E-02	  0.075511023	1.743100E+02	  0.075511023	1.120000E-01	  0.075511023	2.484000E+00
275	  0.075711422	-3.800000E-02	  0.075711422	1.742990E+02	  0.075711422	1.120000E-01	  0.075711422	2.489000E+00
276	  0.075911827	-3.900000E-02	  0.075911827	1.742810E+02	  0.075911827	1.130000E-01	  0.075911827	2.497000E+00
277	  0.076112226	-3.900000E-02	  0.076112226	1.742650E+02	  0.076112226	1.130000E-01	  0.076112226	2.504000E+00
278	  0.076312624	-3.900000E-02	  0.076312624	1.742440E+02	  0.076312624	1.130000E-01	  0.076312624	2.513000E+00
279	  0.076513030	-4.000000E-02	  0.076513030	1.742390E+02	  0.076513030	1.150000E-01	  0.076513030	2.515000E+00
280	  0.076713428	-3.900000E-02	  0.076713428	1.742240E+02	  0.076713428	1.130000E-01	  0.076713428	2.522000E+00
281	  0.076913826	-3.900000E-02	  0.076913826	1.742170E+02	  0.076913826	1.140000E-01	  0.076913826	2.525000E+00
282	  0.077114232	-4.000000E-02	  0.077114232	1.741960E+02	  0.077114232	1.170000E-01	  0.077114232	2.534000E+00
283	  0.077314630	-3.900000E-02	  0.077314630	1.741870E+02	  0.077314630	1.140000E-01	  0.077314630	2.538000E+00
284	  0.077515028	-4.100000E-02	  0.077515028	1.741710E+02	  0.077515028	1.200000E-01	  0.077515028	2.545000E+00
285	  0.077715434	-4.100000E-02	  0.077715434	1.741550E+02	  0.077715434	1.190000E-01	  0.077715434	2.552000E+00
286	  0.077915832	-4.000000E-02	  0.077915832	1.741380E+02	  0.077915832	1.170000E-01	  0.077915832	2.559000E+00
287	  0.078116231	-4.100000E-02	  0.078116231	1.741230E+02	  0.078116231	1.190000E-01	  0.078116231	2.566000E+00
288	  0.078316636	-4.000000E-02	  0.078316636	1.741070E+02	  0.078316636	1.170000E-01	  0.078316636	2.573000E+00
289	  0.078517035	-4.000000E-02	  0.078517035	1.740950E+02	  0.078517035	1.170000E-01	  0.078517035	2.578000E+00
290	  0.078717433	-4.000000E-02	  0.078717433	1.740760E+02	  0.078717433	1.160000E-01	  0.078717433	2.586000E+00
291	  0.078917839	-4.000000E-02	  0.078917839	1.740650E+02	  0.078917839	1.170000E-01	  0.078917839	2.591000E+00
292	  0.079118237	-4.100000E-02	  0.079118237	1.740480E+02	  0.079118237	1.190000E-01	  0.079118237	2.599000E+00
293	  0.079318643	-4.000000E-02	  0.079318643	1.740280E+02	  0.079318643	1.160000E-01	  0.079318643	2.608000E+00
294	  0.079519041	-4.000000E-02	  0.079519041	1.740170E+02	  0.079519041	1.170000E-01	  0.079519041	2.612000E+00
295	  0.079719439	-4.200000E-02	  0.079719439	1.740020E+02	  0.079719439	1.210000E-01	  0.079719439	2.619000E+00
296	  0.079919845	-3.900000E-02	  0.079919845	1.739840E+02	  0.079919845	1.140000E-01	  0.079919845	2.627000E+00
297	  0.080120243	-4.000000E-02	  0.080120243	1.739620E+02	  0.080120243	1.180000E-01	  0.080120243	2.636000E+00
298	  0.080320641	-4.000000E-02	  0.080320641	1.739500E+02	  0.080320641	1.160000E-01	  0.080320641	2.641000E+00
299	  0.080521047	-3.900000E-02	  0.080521047	1.739370E+02	  0.080521047	1.140000E-01	  0.080521047	2.647000E+00
300	  0.080721445	-4.000000E-02	  0.080721445	1.739280E+02	  0.080721445	1.160000E-01	  0.080721445	2.651000E+00
301	  0.080921844	-3.800000E-02	  0.080921844	1.739030E+02	  0.080921844	1.120000E-01	  0.080921844	2.662000E+00
302	  0.081122249	-4.100000E-02	  0.081122249	1.738910E+02	  0.081122249	1.180000E-01	  0.081122249	2.667000E+00
303	  0.081322648	-3.900000E-02	  0.081322648	1.738760E+02	  0.081322648	1.130000E-01	  0.081322648	2.674000E+00
304	  0.081523046	-3.900000E-02	  0.081523046	1.738620E+02	  0.081523046	1.140000E-01	  0.081523046	2.680000E+00
305	  0.081723452	-4.000000E-02	  0.081723452	1.738490E+02	  0.081723452	1.160000E-01	  0.081723452	2.686000E+00
306	  0.081923850	-3.900000E-02	  0.081923850	1.738350E+02	  0.081923850	1.140000E-01	  0.081923850	2.692000E+00
307	  0.082124248	-4.000000E-02	  0.082124248	1.738130E+02	  0.082124248	1.160000E-01	  0.082124248	2.702000E+00
308	  0.082324654	-3.800000E-02	  0.082324654	1.737990E+02	  0.082324654	1.120000E-01	  0.082324654	2.708000E+00
309	  0.082525052	-3.800000E-02	  0.082525052	1.737860E+02	  0.082525052	1.120000E-01	  0.082525052	2.713000E+00
310	  0.082725458	-3.900000E-02	  0.082725458	1.737650E+02	  0.082725458	1.130000E-01	  0.082725458	2.723000E+00
311	  0.082925856	-3.900000E-02	  0.082925856	1.737530E+02	  0.082925856	1.140000E-01	  0.082925856	2.728000E+00
312	  0.083126254	-3.900000E-02	  0.083126254	1.737370E+02	  0.083126254	1.120000E-01	  0.083126254	2.735000E+00
313	  0.083326660	-4.000000E-02	  0.083326660	1.737220E+02	  0.083326660	1.170000E-01	  0.083326660	2.741000E+00
314	  0.083527058	-4.000000E-02	  0.083527058	1.737040E+02	  0.083527058	1.170000E-01	  0.083527058	2.749000E+00
315	  0.083727457	-3.900000E-02	  0.083727457	1.736940E+02	  0.083727457	1.140000E-01	  0.083727457	2.754000E+00
316	  0.083927862	-4.000000E-02	  0.083927862	1.736810E+02	  0.083927862	1.160000E-01	  0.083927862	2.759000E+00
317	  0.084128261	-4.100000E-02	  0.084128261	1.736680E+02	  0.084128261	1.190000E-01	  0.084128261	2.765000E+00
318	  0.084328659	-4.200000E-02	  0.084328659	1.736490E+02	  0.084328659	1.210000E-01	  0.084328659	2.773000E+00
319	  0.084529065	-4.000000E-02	  0.084529065	1.736300E+02	  0.084529065	1.170000E-01	  0.084529065	2.782000E+00
320	  0.084729463	-4.000000E-02	  0.084729463	1.736170E+02	  0.084729463	1.170000E-01	  0.084729463	2.787000E+00
321	  0.084929854	-4.200000E-02	  0.084929854	1.735960E+02	  0.084929854	1.210000E-01	  0.084929854	2.796000E+00
322	  0.085130259	-4.100000E-02	  0.085130259	1.735870E+02	  0.085130259	1.190000E-01	  0.085130259	2.801000E+00
323	  0.085330658	-4.200000E-02	  0.085330658	1.735770E+02	  0.085330658	1.210000E-01	  0.085330658	2.805000E+00
324	  0.085531056	-4.000000E-02	  0.085531056	1.735660E+02	  0.085531056	1.170000E-01	  0.085531056	2.809000E+00
325	  0.085731462	-4.100000E-02	  0.085731462	1.735520E+02	  0.085731462	1.210000E-01	  0.085731462	2.816000E+00
326	  0.085931860	-4.000000E-02	  0.085931860	1.735310E+02	  0.085931860	1.170000E-01	  0.085931860	2.825000E+00
327	  0.086132258	-4.100000E-02	  0.086132258	1.735180E+02	  0.086132258	1.200000E-01	  0.086132258	2.830000E+00
328	  0.086332664	-4.100000E-02	  0.086332664	1.735020E+02	  0.086332664	1.190000E-01	  0.086332664	2.838000E+00
329	  0.086533062	-4.100000E-02	  0.086533062	1.734920E+02	  0.086533062	1.200000E-01	  0.086533062	2.842000E+00
330	  0.086733460	-4.100000E-02	  0.086733460	1.734770E+02	  0.086733460	1.180000E-01	  0.086733460	2.848000E+00
331	  0.086933866	-4.200000E-02	  0.086933866	1.734610E+02	  0.086933866	1.210000E-01	  0.086933866	2.855000E+00
332	  0.087134264	-4.200000E-02	  0.087134264	1.734460E+02	  0.087134264	1.220000E-01	  0.087134264	2.862000E+00
333	  0.087334670	-4.200000E-02	  0.087334670	1.734300E+02	  0.087334670	1.220000E-01	  0.087334670	2.869000E+00
334	  0.087535068	-4.200000E-02	  0.087535068	1.734230E+02	  0.087535068	1.210000E-01	  0.087535068	2.872000E+00
335	  0.087735467	-4.300000E-02	  0.087735467	1.734070E+02	  0.087735467	1.250000E-01	  0.087735467	2.879000E+00
336	  0.087935872	-4.000000E-02	  0.087935872	1.733940E+02	  0.087935872	1.170000E-01	  0.087935872	2.885000E+00
337	  0.088136271	-4.200000E-02	  0.088136271	1.733740E+02	  0.088136271	1.210000E-01	  0.088136271	2.893000E+00
338	  0.088336669	-4.200000E-02	  0.088336669	1.733640E+02	  0.088336669	1.220000E-01	  0.088336669	2.898000E+00
339	  0.088537075	-4.200000E-02	  0.088537075	1.733480E+02	  0.088537075	1.210000E-01	  0.088537075	2.905000E+00
340	  0.088737473	-4.300000E-02	  0.088737473	1.733280E+02	  0.088737473	1.260000E-01	  0.088737473	2.914000E+00
341	  0.088937871	-4.200000E-02	  0.088937871	1.733160E+02	  0.088937871	1.240000E-01	  0.088937871	2.919000E+00
342	  0.089138277	-4.500000E-02	  0.089138277	1.733060E+02	  0.089138277	1.300000E-01	  0.089138277	2.923000E+00
343	  0.089338675	-4.200000E-02	  0.089338675	1.732870E+02	  0.089338675	1.210000E-01	  0.089338675	2.932000E+00
344	  0.089539073	-4.600000E-02	  0.089539073	1.732770E+02	  0.089539073	1.330000E-01	  0.089539073	2.936000E+00
345	  0.089739479	-4.300000E-02	  0.089739479	1.732530E+02	  0.089739479	1.260000E-01	  0.089739479	2.947000E+00
346	  0.089939877	-4.500000E-02	  0.089939877	1.732570E+02	  0.089939877	1.310000E-01	  0.089939877	2.945000E+00
347	  0.090140276	-4.500000E-02	  0.090140276	1.732310E+02	  0.090140276	1.300000E-01	  0.090140276	2.956000E+00
348	  0.090340681	-4.500000E-02	  0.090340681	1.732180E+02	  0.090340681	1.310000E-01	  0.090340681	2.962000E+00
349	  0.090541080	-4.500000E-02	  0.090541080	1.732150E+02	  0.090541080	1.320000E-01	  0.090541080	2.963000E+00
350	  0.090741485	-4.400000E-02	  0.090741485	1.731870E+02	  0.090741485	1.280000E-01	  0.090741485	2.976000E+00
351	  0.090941884	-4.800000E-02	  0.090941884	1.731880E+02	  0.090941884	1.390000E-01	  0.090941884	2.975000E+00
352	  0.091142282	-4.400000E-02	  0.091142282	1.731640E+02	  0.091142282	1.290000E-01	  0.091142282	2.986000E+00
353	  0.091342688	-4.700000E-02	  0.091342688	1.731510E+02	  0.091342688	1.380000E-01	  0.091342688	2.991000E+00
354	  0.091543086	-4.700000E-02	  0.091543086	1.731270E+02	  0.091543086	1.360000E-01	  0.091543086	3.002000E+00
355	  0.091743484	-4.600000E-02	  0.091743484	1.731200E+02	  0.091743484	1.350000E-01	  0.091743484	3.005000E+00
356	  0.091943890	-4.800000E-02	  0.091943890	1.731080E+02	  0.091943890	1.410000E-01	  0.091943890	3.010000E+00
357	  0.092144288	-4.600000E-02	  0.092144288	1.730870E+02	  0.092144288	1.350000E-01	  0.092144288	3.019000E+00
358	  0.092344686	-4.900000E-02	  0.092344686	1.730820E+02	  0.092344686	1.420000E-01	  0.092344686	3.021000E+00
359	  0.092545092	-4.700000E-02	  0.092545092	1.730570E+02	  0.092545092	1.360000E-01	  0.092545092	3.032000E+00
360	  0.092745490	-4.900000E-02	  0.092745490	1.730550E+02	  0.092745490	1.420000E-01	  0.092745490	3.033000E+00
361	  0.092945889	-4.700000E-02	  0.092945889	1.730320E+02	  0.092945889	1.370000E-01	  0.092945889	3.043000E+00
362	  0.093146294	-5.000000E-02	  0.093146294	1.730140E+02	  0.093146294	1.440000E-01	  0.093146294	3.051000E+00
363	  0.093346693	-4.800000E-02	  0.093346693	1.729950E+02	  0.093346693	1.400000E-01	  0.093346693	3.059000E+00
364	  0.093547091	-5.000000E-02	  0.093547091	1.729900E+02	  0.093547091	1.450000E-01	  0.093547091	3.062000E+00
365	  0.093747497	-4.800000E-02	  0.093747497	1.729660E+02	  0.093747497	1.410000E-01	  0.093747497	3.072000E+00
366	  0.093947895	-5.100000E-02	  0.093947895	1.729630E+02	  0.093947895	1.470000E-01	  0.093947895	3.074000E+00
367	  0.094148301	-4.900000E-02	  0.094148301	1.729360E+02	  0.094148301	1.420000E-01	  0.094148301	3.086000E+00
368	  0.094348699	-5.000000E-02	  0.094348699	1.729310E+02	  0.094348699	1.470000E-01	  0.094348699	3.088000E+00
369	  0.094549097	-5.000000E-02	  0.094549097	1.729060E+02	  0.094549097	1.440000E-01	  0.094549097	3.099000E+00
370	  0.094749503	-5.100000E-02	  0.094749503	1.728990E+02	  0.094749503	1.470000E-01	  0.094749503	3.102000E+00
371	  0.094949901	-4.900000E-02	  0.094949901	1.728740E+02	  0.094949901	1.430000E-01	  0.094949901	3.112000E+00
372	  0.095150299	-4.900000E-02	  0.095150299	1.728650E+02	  0.095150299	1.440000E-01	  0.095150299	3.116000E+00
373	  0.095350705	-5.000000E-02	  0.095350705	1.728530E+02	  0.095350705	1.460000E-01	  0.095350705	3.122000E+00
374	  0.095551103	-5.000000E-02	  0.095551103	1.728300E+02	  0.095551103	1.460000E-01	  0.095551103	3.132000E+00
375	  0.095751502	-5.100000E-02	  0.095751502	1.728260E+02	  0.095751502	1.470000E-01	  0.095751502	3.134000E+00
376	  0.095951907	-5.000000E-02	  0.095951907	1.728010E+02	  0.095951907	1.450000E-01	  0.095951907	3.144000E+00
377	  0.096152306	-5.100000E-02	  0.096152306	1.727870E+02	  0.096152306	1.490000E-01	  0.096152306	3.151000E+00
378	  0.096352704	-5.100000E-02	  0.096352704	1.727670E+02	  0.096352704	1.490000E-01	  0.096352704	3.160000E+00
379	  0.096553110	-5.100000E-02	  0.096553110	1.727560E+02	  0.096553110	1.490000E-01	  0.096553110	3.164000E+00
380	  0.096753508	-5.200000E-02	  0.096753508	1.727370E+02	  0.096753508	1.500000E-01	  0.096753508	3.172000E+00
381	  0.096953906	-5.100000E-02	  0.096953906	1.727280E+02	  0.096953906	1.490000E-01	  0.096953906	3.177000E+00
382	  0.097154312	-5.200000E-02	  0.097154312	1.727090E+02	  0.097154312	1.510000E-01	  0.097154312	3.185000E+00
383	  0.097354710	-5.100000E-02	  0.097354710	1.726990E+02	  0.097354710	1.500000E-01	  0.097354710	3.189000E+00
384	  0.097555116	-5.200000E-02	  0.097555116	1.726790E+02	  0.097555116	1.510000E-01	  0.097555116	3.198000E+00
385	  0.097755514	-5.200000E-02	  0.097755514	1.726630E+02	  0.097755514	1.520000E-01	  0.097755514	3.205000E+00
386	  0.097955912	-5.200000E-02	  0.097955912	1.726520E+02	  0.097955912	1.500000E-01	  0.097955912	3.210000E+00
387	  0.098156318	-5.300000E-02	  0.098156318	1.726380E+02	  0.098156318	1.540000E-01	  0.098156318	3.216000E+00
388	  0.098356716	-5.300000E-02	  0.098356716	1.726200E+02	  0.098356716	1.550000E-01	  0.098356716	3.224000E+00
389	  0.098557115	-5.300000E-02	  0.098557115	1.726130E+02	  0.098557115	1.550000E-01	  0.098557115	3.227000E+00
390	  0.098757520	-5.300000E-02	  0.098757520	1.725970E+02	  0.098757520	1.530000E-01	  0.098757520	3.234000E+00
391	  0.098957919	-5.300000E-02	  0.098957919	1.725800E+02	  0.098957919	1.550000E-01	  0.098957919	3.241000E+00
392	  0.099158317	-5.400000E-02	  0.099158317	1.725610E+02	  0.099158317	1.560000E-01	  0.099158317	3.250000E+00
393	  0.099358723	-5.400000E-02	  0.099358723	1.725520E+02	  0.099358723	1.560000E-01	  0.099358723	3.254000E+00
394	  0.099559121	-5.300000E-02	  0.099559121	1.725320E+02	  0.099559121	1.540000E-01	  0.099559121	3.262000E+00
395	  0.099759519	-5.300000E-02	  0.099759519	1.725190E+02	  0.099759519	1.550000E-01	  0.099759519	3.268000E+00
396	  0.099959925	-5.300000E-02	  0.099959925	1.725190E+02	  0.099959925	1.550000E-01	  0.099959925	3.268000E+00
397	  0.100160323	-4.900000E-02	  0.100160323	1.725040E+02	  0.100160323	1.420000E-01	  0.100160323	3.275000E+00
398	  0.100360721	-5.300000E-02	  0.100360721	1.724860E+02	  0.100360721	1.530000E-01	  0.100360721	3.282000E+00
399	  0.100561127	-5.100000E-02	  0.100561127	1.724690E+02	  0.100561127	1.480000E-01	  0.100561127	3.290000E+00
400	  0.100761525	-5.100000E-02	  0.100761525	1.724530E+02	  0.100761525	1.500000E-01	  0.100761525	3.297000E+00
401	  0.100961931	-5.000000E-02	  0.100961931	1.724420E+02	  0.100961931	1.450000E-01	  0.100961931	3.302000E+00
402	  0.101162329	-5.300000E-02	  0.101162329	1.724280E+02	  0.101162329	1.540000E-01	  0.101162329	3.308000E+00
403	  0.101362728	-5.000000E-02	  0.101362728	1.724250E+02	  0.101362728	1.470000E-01	  0.101362728	3.309000E+00
404	  0.101563133	-5.200000E-02	  0.101563133	1.723990E+02	  0.101563133	1.510000E-01	  0.101563133	3.321000E+00
405	  0.101763532	-5.000000E-02	  0.101763532	1.723890E+02	  0.101763532	1.450000E-01	  0.101763532	3.325000E+00
406	  0.101963930	-5.000000E-02	  0.101963930	1.723610E+02	  0.101963930	1.450000E-01	  0.101963930	3.338000E+00
407	  0.102164328	-5.100000E-02	  0.102164328	1.723500E+02	  0.102164328	1.480000E-01	  0.102164328	3.342000E+00
408	  0.102364726	-5.100000E-02	  0.102364726	1.723440E+02	  0.102364726	1.490000E-01	  0.102364726	3.345000E+00
409	  0.102565125	-5.100000E-02	  0.102565125	1.723240E+02	  0.102565125	1.480000E-01	  0.102565125	3.353000E+00
410	  0.102765530	-5.000000E-02	  0.102765530	1.723090E+02	  0.102765530	1.470000E-01	  0.102765530	3.360000E+00
411	  0.102965929	-5.100000E-02	  0.102965929	1.723050E+02	  0.102965929	1.480000E-01	  0.102965929	3.362000E+00
412	  0.103166327	-5.200000E-02	  0.103166327	1.722740E+02	  0.103166327	1.520000E-01	  0.103166327	3.375000E+00
413	  0.103366733	-5.000000E-02	  0.103366733	1.722670E+02	  0.103366733	1.470000E-01	  0.103366733	3.379000E+00
414	  0.103567131	-5.100000E-02	  0.103567131	1.722530E+02	  0.103567131	1.480000E-01	  0.103567131	3.385000E+00
415	  0.103767529	-5.300000E-02	  0.103767529	1.722390E+02	  0.103767529	1.530000E-01	  0.103767529	3.391000E+00
416	  0.103967935	-5.400000E-02	  0.103967935	1.722150E+02	  0.103967935	1.560000E-01	  0.103967935	3.401000E+00
417	  0.104168333	-5.100000E-02	  0.104168333	1.722140E+02	  0.104168333	1.500000E-01	  0.104168333	3.402000E+00
418	  0.104368731	-5.100000E-02	  0.104368731	1.722080E+02	  0.104368731	1.490000E-01	  0.104368731	3.404000E+00
419	  0.104569137	-5.200000E-02	  0.104569137	1.721740E+02	  0.104569137	1.510000E-01	  0.104569137	3.419000E+00
420	  0.104769535	-5.300000E-02	  0.104769535	1.721730E+02	  0.104769535	1.530000E-01	  0.104769535	3.420000E+00
421	  0.104969934	-5.500000E-02	  0.104969934	1.721580E+02	  0.104969934	1.610000E-01	  0.104969934	3.426000E+00
422	  0.105170339	-5.300000E-02	  0.105170339	1.721370E+02	  0.105170339	1.540000E-01	  0.105170339	3.436000E+00
423	  0.105370738	-5.400000E-02	  0.105370738	1.721340E+02	  0.105370738	1.560000E-01	  0.105370738	3.437000E+00
424	  0.105571143	-5.300000E-02	  0.105571143	1.721270E+02	  0.105571143	1.540000E-01	  0.105571143	3.440000E+00
425	  0.105771542	-5.500000E-02	  0.105771542	1.721040E+02	  0.105771542	1.610000E-01	  0.105771542	3.450000E+00
426	  0.105971940	-5.500000E-02	  0.105971940	1.720820E+02	  0.105971940	1.610000E-01	  0.105971940	3.459000E+00
427	  0.106172346	-5.600000E-02	  0.106172346	1.720610E+02	  0.106172346	1.640000E-01	  0.106172346	3.469000E+00
428	  0.106372744	-5.400000E-02	  0.106372744	1.720470E+02	  0.106372744	1.560000E-01	  0.106372744	3.475000E+00
429	  0.106573142	-5.500000E-02	  0.106573142	1.720300E+02	  0.106573142	1.610000E-01	  0.106573142	3.482000E+00
430	  0.106773548	-5.800000E-02	  0.106773548	1.720180E+02	  0.106773548	1.680000E-01	  0.106773548	3.488000E+00
431	  0.106973946	-5.700000E-02	  0.106973946	1.719980E+02	  0.106973946	1.650000E-01	  0.106973946	3.496000E+00
432	  0.107174344	-5.700000E-02	  0.107174344	1.719960E+02	  0.107174344	1.660000E-01	  0.107174344	3.497000E+00
433	  0.107374750	-5.600000E-02	  0.107374750	1.719780E+02	  0.107374750	1.640000E-01	  0.107374750	3.505000E+00
434	  0.107575148	-5.600000E-02	  0.107575148	1.719590E+02	  0.107575148	1.630000E-01	  0.107575148	3.514000E+00
435	  0.107775547	-5.800000E-02	  0.107775547	1.719500E+02	  0.107775547	1.670000E-01	  0.107775547	3.517000E+00
436	  0.107975952	-5.900000E-02	  0.107975952	1.719300E+02	  0.107975952	1.710000E-01	  0.107975952	3.526000E+00
437	  0.108176351	-5.800000E-02	  0.108176351	1.719200E+02	  0.108176351	1.680000E-01	  0.108176351	3.531000E+00
438	  0.108376749	-5.800000E-02	  0.108376749	1.718950E+02	  0.108376749	1.680000E-01	  0.108376749	3.542000E+00
439	  0.108577155	-5.600000E-02	  0.108577155	1.718970E+02	  0.108577155	1.640000E-01	  0.108577155	3.541000E+00
440	  0.108777553	-5.700000E-02	  0.108777553	1.718710E+02	  0.108777553	1.660000E-01	  0.108777553	3.552000E+00
441	  0.108977959	-5.700000E-02	  0.108977959	1.718500E+02	  0.108977959	1.660000E-01	  0.108977959	3.561000E+00
442	  0.109178357	-5.700000E-02	  0.109178357	1.718310E+02	  0.109178357	1.670000E-01	  0.109178357	3.569000E+00
443	  0.109378755	-5.800000E-02	  0.109378755	1.718290E+02	  0.109378755	1.680000E-01	  0.109378755	3.571000E+00
444	  0.109579161	-5.900000E-02	  0.109579161	1.718080E+02	  0.109579161	1.700000E-01	  0.109579161	3.580000E+00
445	  0.109779559	-5.800000E-02	  0.109779559	1.717930E+02	  0.109779559	1.680000E-01	  0.109779559	3.587000E+00
446	  0.109979957	-5.800000E-02	  0.109979957	1.717830E+02	  0.109979957	1.680000E-01	  0.109979957	3.591000E+00
447	  0.110180363	-5.700000E-02	  0.110180363	1.717690E+02	  0.110180363	1.660000E-01	  0.110180363	3.597000E+00
448	  0.110380761	-5.700000E-02	  0.110380761	1.717570E+02	  0.110380761	1.670000E-01	  0.110380761	3.602000E+00
449	  0.110581160	-5.700000E-02	  0.110581160	1.717430E+02	  0.110581160	1.670000E-01	  0.110581160	3.608000E+00
450	  0.110781565	-5.800000E-02	  0.110781565	1.717250E+02	  0.110781565	1.700000E-01	  0.110781565	3.616000E+00
451	  0.110981964	-5.700000E-02	  0.110981964	1.717110E+02	  0.110981964	1.650000E-01	  0.110981964	3.623000E+00
452	  0.111182362	-5.700000E-02	  0.111182362	1.717070E+02	  0.111182362	1.660000E-01	  0.111182362	3.624000E+00
453	  0.111382768	-5.900000E-02	  0.111382768	1.716760E+02	  0.111382768	1.710000E-01	  0.111382768	3.638000E+00
454	  0.111583166	-5.700000E-02	  0.111583166	1.716650E+02	  0.111583166	1.660000E-01	  0.111583166	3.642000E+00
455	  0.111783572	-5.800000E-02	  0.111783572	1.716500E+02	  0.111783572	1.700000E-01	  0.111783572	3.649000E+00
456	  0.111983970	-5.700000E-02	  0.111983970	1.716360E+02	  0.111983970	1.660000E-01	  0.111983970	3.655000E+00
457	  0.112184368	-5.700000E-02	  0.112184368	1.716210E+02	  0.112184368	1.660000E-01	  0.112184368	3.662000E+00
458	  0.112384774	-5.800000E-02	  0.112384774	1.716080E+02	  0.112384774	1.680000E-01	  0.112384774	3.667000E+00
459	  0.112585172	-5.700000E-02	  0.112585172	1.715810E+02	  0.112585172	1.660000E-01	  0.112585172	3.679000E+00
460	  0.112785570	-5.800000E-02	  0.112785570	1.715810E+02	  0.112785570	1.690000E-01	  0.112785570	3.679000E+00
461	  0.112985976	-5.900000E-02	  0.112985976	1.715560E+02	  0.112985976	1.720000E-01	  0.112985976	3.690000E+00
462	  0.113186374	-5.800000E-02	  0.113186374	1.715520E+02	  0.113186374	1.680000E-01	  0.113186374	3.692000E+00
463	  0.113386773	-5.700000E-02	  0.113386773	1.715440E+02	  0.113386773	1.650000E-01	  0.113386773	3.696000E+00
464	  0.113587178	-5.800000E-02	  0.113587178	1.715170E+02	  0.113587178	1.690000E-01	  0.113587178	3.707000E+00
465	  0.113787577	-5.800000E-02	  0.113787577	1.715040E+02	  0.113787577	1.700000E-01	  0.113787577	3.713000E+00
466	  0.113987975	-5.700000E-02	  0.113987975	1.714990E+02	  0.113987975	1.660000E-01	  0.113987975	3.715000E+00
467	  0.114188381	-5.800000E-02	  0.114188381	1.714800E+02	  0.114188381	1.690000E-01	  0.114188381	3.724000E+00
468	  0.114388779	-5.800000E-02	  0.114388779	1.714550E+02	  0.114388779	1.700000E-01	  0.114388779	3.735000E+00
469	  0.114589177	-5.900000E-02	  0.114589177	1.714480E+02	  0.114589177	1.710000E-01	  0.114589177	3.737000E+00
470	  0.114789583	-5.900000E-02	  0.114789583	1.714210E+02	  0.114789583	1.710000E-01	  0.114789583	3.750000E+00
471	  0.114989981	-6.000000E-02	  0.114989981	1.714050E+02	  0.114989981	1.740000E-01	  0.114989981	3.757000E+00
472	  0.115190387	-6.100000E-02	  0.115190387	1.713900E+02	  0.115190387	1.770000E-01	  0.115190387	3.763000E+00
473	  0.115390785	-6.000000E-02	  0.115390785	1.713850E+02	  0.115390785	1.740000E-01	  0.115390785	3.765000E+00
474	  0.115591183	-5.900000E-02	  0.115591183	1.713740E+02	  0.115591183	1.710000E-01	  0.115591183	3.770000E+00
475	  0.115791589	-6.100000E-02	  0.115791589	1.713570E+02	  0.115791589	1.780000E-01	  0.115791589	3.778000E+00
476	  0.115991987	-5.900000E-02	  0.115991987	1.713410E+02	  0.115991987	1.710000E-01	  0.115991987	3.785000E+00
477	  0.116192386	-6.000000E-02	  0.116192386	1.713360E+02	  0.116192386	1.750000E-01	  0.116192386	3.787000E+00
478	  0.116392791	-6.000000E-02	  0.116392791	1.713200E+02	  0.116392791	1.750000E-01	  0.116392791	3.794000E+00
479	  0.116593190	-6.100000E-02	  0.116593190	1.712960E+02	  0.116593190	1.760000E-01	  0.116593190	3.804000E+00
480	  0.116793588	-6.100000E-02	  0.116793588	1.712840E+02	  0.116793588	1.780000E-01	  0.116793588	3.809000E+00
481	  0.116993994	-6.100000E-02	  0.116993994	1.712710E+02	  0.116993994	1.790000E-01	  0.116993994	3.816000E+00
482	  0.117194392	-6.100000E-02	  0.117194392	1.712590E+02	  0.117194392	1.780000E-01	  0.117194392	3.821000E+00
483	  0.117394790	-6.000000E-02	  0.117394790	1.712450E+02	  0.117394790	1.750000E-01	  0.117394790	3.827000E+00
484	  0.117595196	-6.200000E-02	  0.117595196	1.712280E+02	  0.117595196	1.810000E-01	  0.117595196	3.834000E+00
485	  0.117795594	-6.000000E-02	  0.117795594	1.712160E+02	  0.117795594	1.740000E-01	  0.117795594	3.840000E+00
