! Anritsu VNA Master:             	Model: MS2036C/10/77
! SN:             	1601066
! /bd0/18may09/b255.ns.m3.txt
! Existing Calibration Information:
! TYPE:             	Current Settings	Active Cal Settings
! TIME:             	05/09/2018 08:47:45 PM	05/09/2018 08:37:50 PM
! INTERNAL TEMP:    	52.3 C	53.0 C
! # POINTS:         	494	494
! START FREQ:       	20.000 MHz	20.000 MHz
! STOP FREQ:        	118.797 594 MHz	118.797 594 MHz
! SOURCE POWER:     	High	High
! IFBW:             	50 Hz	50 Hz
! AVG FACTOR:       	  1 	  1 
! REF PLANE 1:      	0 mm	0 mm
! REF PLANE 2:      	0 mm	0 mm
! CAL TYPE:         	Full S22	Full S22
! CAL METHOD:       	SOLT	SOLT
! CAL LINE TYPE:    	Coax	Coax
! DUT PORT 1:       	K-Conn(M)	K-Conn(M)
! DUT PORT 2:       	K-Conn(M)	K-Conn(M)
! CAL STATUS:       	OK: Accuracy High	--
! PROP-V:       	0.700
! CABLE LOSS:       	0.000 dB/m
! REF IMPEDANCE:       	50.0
! Trace Specific Parameters:	TR1	TR2	TR3	TR4
! TRACE.#.Y (GRAPH TYPE)	LOG MAG	PHASE	REAL IMPEDANCE	IMAGINARY IMPEDANCE
! TRACE.#.X 	FREQ.GHZ	FREQ.GHZ	FREQ.GHZ	FREQ.GHZ
! S-PARAMETER	S22	S22	S22	S22
! SMOOTH/APERTURE %	0	0	0	0
! WINDOW	NSL	NSL	NSL	NSL
! GATING	OFF	OFF	OFF	OFF
! FGTD	OFF	OFF	OFF	OFF
Marker Information per Trace:	TR1	TR2	TR3	TR4
!MK1	--	"MK1 TR2:  20.000 MHz,PH:-125.70°"	--	--
!MK2	--	--	"MK2 TR3:  70.100 200 MHz,Z:(17.219 ohm, -1.270 ohm)"	--
!MK3	--	--	--	--
!MK4	--	--	--	--
!MK5	--	--	--	--
!MK6	--	--	--	--
!MK7	--	--	--	--
!MK8	--	--	--	--
PNT	TR1.FREQ.GHZ	TR1.LOG MAG.dB	TR2.FREQ.GHZ	TR2.PHASE.deg	TR3.FREQ.GHZ	TR3.REAL IMPEDANCE.ohm	TR4.FREQ.GHZ	TR4.IMAGINARY IMPEDANCE.ohm
1	  0.020000000	-6.200000E-01	  0.020000000	-1.256950E+02	  0.020000000	2.253000E+00	  0.020000000	-2.560200E+01
2	  0.020200402	-6.220000E-01	  0.020200402	-1.271430E+02	  0.020200402	2.231000E+00	  0.020200402	-2.481100E+01
3	  0.020400802	-6.260000E-01	  0.020400802	-1.286090E+02	  0.020400802	2.219000E+00	  0.020400802	-2.401900E+01
4	  0.020601204	-6.280000E-01	  0.020601204	-1.300800E+02	  0.020601204	2.199000E+00	  0.020601204	-2.323500E+01
5	  0.020801604	-6.320000E-01	  0.020801604	-1.316000E+02	  0.020801604	2.186000E+00	  0.020801604	-2.243400E+01
6	  0.021002004	-6.330000E-01	  0.021002004	-1.331100E+02	  0.021002004	2.164000E+00	  0.021002004	-2.164900E+01
7	  0.021202406	-6.370000E-01	  0.021202406	-1.346380E+02	  0.021202406	2.152000E+00	  0.021202406	-2.086200E+01
8	  0.021402806	-6.390000E-01	  0.021402806	-1.361460E+02	  0.021402806	2.136000E+00	  0.021402806	-2.009500E+01
9	  0.021603208	-6.410000E-01	  0.021603208	-1.376570E+02	  0.021603208	2.121000E+00	  0.021603208	-1.933400E+01
10	  0.021803608	-6.450000E-01	  0.021803608	-1.391790E+02	  0.021803608	2.112000E+00	  0.021803608	-1.857500E+01
11	  0.022004008	-6.490000E-01	  0.022004008	-1.407000E+02	  0.022004008	2.105000E+00	  0.022004008	-1.782500E+01
12	  0.022204408	-6.560000E-01	  0.022204408	-1.422350E+02	  0.022204408	2.108000E+00	  0.022204408	-1.707400E+01
13	  0.022404809	-6.590000E-01	  0.022404809	-1.437980E+02	  0.022404809	2.098000E+00	  0.022404809	-1.631700E+01
14	  0.022605211	-6.640000E-01	  0.022605211	-1.453830E+02	  0.022605211	2.097000E+00	  0.022605211	-1.555600E+01
15	  0.022805611	-6.690000E-01	  0.022805611	-1.469630E+02	  0.022805611	2.094000E+00	  0.022805611	-1.480400E+01
16	  0.023006011	-6.720000E-01	  0.023006011	-1.485410E+02	  0.023006011	2.089000E+00	  0.023006011	-1.405900E+01
17	  0.023206413	-6.760000E-01	  0.023206413	-1.501090E+02	  0.023206413	2.083000E+00	  0.023206413	-1.332400E+01
18	  0.023406813	-6.810000E-01	  0.023406813	-1.516890E+02	  0.023406813	2.084000E+00	  0.023406813	-1.258900E+01
19	  0.023607215	-6.890000E-01	  0.023607215	-1.532650E+02	  0.023607215	2.095000E+00	  0.023607215	-1.186100E+01
20	  0.023807615	-6.980000E-01	  0.023807615	-1.548790E+02	  0.023807615	2.107000E+00	  0.023807615	-1.112100E+01
21	  0.024008015	-7.070000E-01	  0.024008015	-1.564970E+02	  0.024008015	2.121000E+00	  0.024008015	-1.038300E+01
22	  0.024208417	-7.130000E-01	  0.024208417	-1.581460E+02	  0.024208417	2.128000E+00	  0.024208417	-9.636000E+00
23	  0.024408817	-7.190000E-01	  0.024408817	-1.598050E+02	  0.024408817	2.134000E+00	  0.024408817	-8.888000E+00
24	  0.024609219	-7.260000E-01	  0.024609219	-1.614500E+02	  0.024609219	2.146000E+00	  0.024609219	-8.150000E+00
25	  0.024809619	-7.350000E-01	  0.024809619	-1.630990E+02	  0.024809619	2.160000E+00	  0.024809619	-7.414000E+00
26	  0.025010020	-7.430000E-01	  0.025010020	-1.647570E+02	  0.025010020	2.177000E+00	  0.025010020	-6.677000E+00
27	  0.025210422	-7.540000E-01	  0.025210422	-1.664320E+02	  0.025210422	2.201000E+00	  0.025210422	-5.936000E+00
28	  0.025410822	-7.660000E-01	  0.025410822	-1.681060E+02	  0.025410822	2.227000E+00	  0.025410822	-5.198000E+00
29	  0.025611224	-7.770000E-01	  0.025611224	-1.697980E+02	  0.025611224	2.253000E+00	  0.025611224	-4.453000E+00
30	  0.025811624	-7.870000E-01	  0.025811624	-1.715060E+02	  0.025811624	2.277000E+00	  0.025811624	-3.705000E+00
31	  0.026012026	-7.980000E-01	  0.026012026	-1.732180E+02	  0.026012026	2.305000E+00	  0.026012026	-2.956000E+00
32	  0.026212426	-8.100000E-01	  0.026212426	-1.749460E+02	  0.026212426	2.334000E+00	  0.026212426	-2.201000E+00
33	  0.026412826	-8.230000E-01	  0.026412826	-1.766750E+02	  0.026412826	2.369000E+00	  0.026412826	-1.447000E+00
34	  0.026613226	-8.380000E-01	  0.026613226	-1.784100E+02	  0.026613226	2.410000E+00	  0.026613226	-6.910000E-01
35	  0.026813626	-8.520000E-01	  0.026813626	1.798350E+02	  0.026813626	2.452000E+00	  0.026813626	7.100000E-02
36	  0.027014028	-8.670000E-01	  0.027014028	1.780820E+02	  0.027014028	2.495000E+00	  0.027014028	8.340000E-01
37	  0.027214428	-8.840000E-01	  0.027214428	1.763240E+02	  0.027214428	2.545000E+00	  0.027214428	1.600000E+00
38	  0.027414829	-8.990000E-01	  0.027414829	1.745550E+02	  0.027414829	2.591000E+00	  0.027414829	2.371000E+00
39	  0.027615231	-9.160000E-01	  0.027615231	1.727700E+02	  0.027615231	2.646000E+00	  0.027615231	3.149000E+00
40	  0.027815631	-9.360000E-01	  0.027815631	1.709720E+02	  0.027815631	2.709000E+00	  0.027815631	3.935000E+00
41	  0.028016033	-9.530000E-01	  0.028016033	1.691710E+02	  0.028016033	2.767000E+00	  0.028016033	4.724000E+00
42	  0.028216433	-9.750000E-01	  0.028216433	1.673490E+02	  0.028216433	2.838000E+00	  0.028216433	5.524000E+00
43	  0.028416833	-9.960000E-01	  0.028416833	1.655250E+02	  0.028416833	2.910000E+00	  0.028416833	6.328000E+00
44	  0.028617235	-1.017000E+00	  0.028617235	1.637010E+02	  0.028617235	2.984000E+00	  0.028617235	7.134000E+00
45	  0.028817635	-1.039000E+00	  0.028817635	1.618720E+02	  0.028817635	3.064000E+00	  0.028817635	7.947000E+00
46	  0.029018037	-1.064000E+00	  0.029018037	1.600300E+02	  0.029018037	3.153000E+00	  0.029018037	8.768000E+00
47	  0.029218437	-1.089000E+00	  0.029218437	1.581750E+02	  0.029218437	3.248000E+00	  0.029218437	9.600000E+00
48	  0.029418837	-1.115000E+00	  0.029418837	1.563130E+02	  0.029418837	3.347000E+00	  0.029418837	1.044000E+01
49	  0.029619239	-1.142000E+00	  0.029619239	1.544360E+02	  0.029619239	3.451000E+00	  0.029619239	1.129100E+01
50	  0.029819639	-1.170000E+00	  0.029819639	1.525460E+02	  0.029819639	3.563000E+00	  0.029819639	1.215400E+01
51	  0.030020041	-1.199000E+00	  0.030020041	1.506480E+02	  0.030020041	3.680000E+00	  0.030020041	1.302800E+01
52	  0.030220442	-1.227000E+00	  0.030220442	1.487600E+02	  0.030220442	3.802000E+00	  0.030220442	1.390300E+01
53	  0.030420844	-1.257000E+00	  0.030420844	1.468640E+02	  0.030420844	3.931000E+00	  0.030420844	1.479000E+01
54	  0.030621244	-1.289000E+00	  0.030621244	1.449660E+02	  0.030621244	4.069000E+00	  0.030621244	1.568500E+01
55	  0.030821642	-1.321000E+00	  0.030821642	1.430540E+02	  0.030821642	4.217000E+00	  0.030821642	1.659600E+01
56	  0.031022044	-1.354000E+00	  0.031022044	1.411330E+02	  0.031022044	4.372000E+00	  0.031022044	1.752000E+01
57	  0.031222444	-1.379000E+00	  0.031222444	1.392410E+02	  0.031222444	4.505000E+00	  0.031222444	1.844100E+01
58	  0.031422846	-1.415000E+00	  0.031422846	1.372860E+02	  0.031422846	4.681000E+00	  0.031422846	1.940200E+01
59	  0.031623244	-1.449000E+00	  0.031623244	1.353310E+02	  0.031623244	4.858000E+00	  0.031623244	2.037500E+01
60	  0.031823646	-1.485000E+00	  0.031823646	1.333920E+02	  0.031823646	5.049000E+00	  0.031823646	2.135100E+01
61	  0.032024048	-1.522000E+00	  0.032024048	1.314310E+02	  0.032024048	5.252000E+00	  0.032024048	2.235200E+01
62	  0.032224450	-1.559000E+00	  0.032224450	1.294770E+02	  0.032224450	5.464000E+00	  0.032224450	2.336200E+01
63	  0.032424849	-1.598000E+00	  0.032424849	1.275180E+02	  0.032424849	5.691000E+00	  0.032424849	2.438900E+01
64	  0.032625251	-1.635000E+00	  0.032625251	1.255260E+02	  0.032625251	5.924000E+00	  0.032625251	2.545000E+01
65	  0.032825653	-1.673000E+00	  0.032825653	1.235320E+02	  0.032825653	6.171000E+00	  0.032825653	2.652900E+01
66	  0.033026051	-1.712000E+00	  0.033026051	1.215120E+02	  0.033026051	6.433000E+00	  0.033026051	2.764000E+01
67	  0.033226453	-1.748000E+00	  0.033226453	1.195150E+02	  0.033226453	6.697000E+00	  0.033226453	2.875800E+01
68	  0.033426855	-1.789000E+00	  0.033426855	1.175060E+02	  0.033426855	6.995000E+00	  0.033426855	2.990000E+01
69	  0.033627257	-1.827000E+00	  0.033627257	1.154990E+02	  0.033627257	7.293000E+00	  0.033627257	3.106500E+01
70	  0.033827655	-1.869000E+00	  0.033827655	1.134810E+02	  0.033827655	7.628000E+00	  0.033827655	3.225600E+01
71	  0.034028057	-1.909000E+00	  0.034028057	1.114650E+02	  0.034028057	7.972000E+00	  0.034028057	3.347100E+01
72	  0.034228459	-1.952000E+00	  0.034228459	1.094130E+02	  0.034228459	8.348000E+00	  0.034228459	3.473100E+01
73	  0.034428857	-1.994000E+00	  0.034428857	1.073620E+02	  0.034428857	8.743000E+00	  0.034428857	3.601900E+01
74	  0.034629259	-2.043000E+00	  0.034629259	1.053010E+02	  0.034629259	9.190000E+00	  0.034629259	3.733600E+01
75	  0.034829661	-2.085000E+00	  0.034829661	1.032270E+02	  0.034829661	9.634000E+00	  0.034829661	3.869700E+01
76	  0.035030060	-2.134000E+00	  0.035030060	1.011620E+02	  0.035030060	1.014000E+01	  0.035030060	4.007800E+01
77	  0.035230462	-2.183000E+00	  0.035230462	9.909500E+01	  0.035230462	1.067500E+01	  0.035230462	4.149300E+01
78	  0.035430863	-2.230000E+00	  0.035430863	9.701600E+01	  0.035430863	1.123500E+01	  0.035430863	4.295400E+01
79	  0.035631265	-2.278000E+00	  0.035631265	9.493200E+01	  0.035631265	1.184000E+01	  0.035631265	4.445300E+01
80	  0.035831664	-2.332000E+00	  0.035831664	9.286000E+01	  0.035831664	1.250900E+01	  0.035831664	4.597500E+01
81	  0.036032066	-2.382000E+00	  0.036032066	9.077200E+01	  0.036032066	1.321000E+01	  0.036032066	4.755300E+01
82	  0.036232468	-2.433000E+00	  0.036232468	8.867300E+01	  0.036232468	1.396200E+01	  0.036232468	4.918200E+01
83	  0.036432866	-2.486000E+00	  0.036432866	8.658500E+01	  0.036432866	1.478100E+01	  0.036432866	5.084100E+01
84	  0.036633268	-2.537000E+00	  0.036633268	8.448500E+01	  0.036633268	1.564800E+01	  0.036633268	5.255900E+01
85	  0.036833670	-2.590000E+00	  0.036833670	8.239100E+01	  0.036833670	1.658800E+01	  0.036833670	5.431700E+01
86	  0.037034072	-2.651000E+00	  0.037034072	8.028900E+01	  0.037034072	1.764700E+01	  0.037034072	5.611400E+01
87	  0.037234470	-2.705000E+00	  0.037234470	7.819500E+01	  0.037234470	1.874700E+01	  0.037234470	5.796400E+01
88	  0.037434869	-2.761000E+00	  0.037434869	7.610600E+01	  0.037434869	1.993300E+01	  0.037434869	5.986000E+01
89	  0.037635271	-2.818000E+00	  0.037635271	7.401700E+01	  0.037635271	2.122800E+01	  0.037635271	6.180000E+01
90	  0.037835669	-2.880000E+00	  0.037835669	7.191400E+01	  0.037835669	2.266400E+01	  0.037835669	6.379300E+01
91	  0.038036071	-2.936000E+00	  0.038036071	6.982000E+01	  0.038036071	2.417300E+01	  0.038036071	6.584500E+01
92	  0.038236473	-2.995000E+00	  0.038236473	6.772400E+01	  0.038236473	2.582700E+01	  0.038236473	6.794100E+01
93	  0.038436871	-3.054000E+00	  0.038436871	6.562400E+01	  0.038436871	2.762600E+01	  0.038436871	7.009000E+01
94	  0.038637273	-3.115000E+00	  0.038637273	6.353900E+01	  0.038637273	2.957300E+01	  0.038637273	7.226500E+01
95	  0.038837675	-3.172000E+00	  0.038837675	6.144800E+01	  0.038837675	3.167600E+01	  0.038837675	7.450100E+01
96	  0.039038073	-3.229000E+00	  0.039038073	5.938700E+01	  0.039038073	3.392600E+01	  0.039038073	7.674600E+01
97	  0.039238475	-3.285000E+00	  0.039238475	5.733300E+01	  0.039238475	3.635900E+01	  0.039238475	7.902300E+01
98	  0.039438877	-3.344000E+00	  0.039438877	5.526900E+01	  0.039438877	3.905100E+01	  0.039438877	8.131200E+01
99	  0.039639279	-3.400000E+00	  0.039639279	5.319900E+01	  0.039639279	4.195600E+01	  0.039639279	8.365200E+01
100	  0.039839678	-3.458000E+00	  0.039839678	5.111600E+01	  0.039839678	4.515700E+01	  0.039839678	8.599900E+01
101	  0.040040080	-3.517000E+00	  0.040040080	4.904600E+01	  0.040040080	4.865100E+01	  0.040040080	8.829400E+01
102	  0.040240481	-3.572000E+00	  0.040240481	4.696600E+01	  0.040240481	5.243700E+01	  0.040240481	9.060500E+01
103	  0.040440880	-3.625000E+00	  0.040440880	4.491600E+01	  0.040440880	5.649700E+01	  0.040440880	9.284000E+01
104	  0.040641282	-3.681000E+00	  0.040641282	4.287200E+01	  0.040641282	6.093200E+01	  0.040641282	9.494200E+01
105	  0.040841684	-3.736000E+00	  0.040841684	4.082100E+01	  0.040841684	6.577400E+01	  0.040841684	9.692100E+01
106	  0.041042086	-3.792000E+00	  0.041042086	3.879200E+01	  0.041042086	7.098400E+01	  0.041042086	9.868100E+01
107	  0.041242484	-3.850000E+00	  0.041242484	3.675300E+01	  0.041242484	7.667100E+01	  0.041242484	1.001690E+02
108	  0.041442886	-3.903000E+00	  0.041442886	3.469100E+01	  0.041442886	8.284500E+01	  0.041442886	1.014600E+02
109	  0.041643288	-3.957000E+00	  0.041643288	3.262400E+01	  0.041643288	8.951500E+01	  0.041643288	1.023540E+02
110	  0.041843686	-4.009000E+00	  0.041843686	3.057200E+01	  0.041843686	9.661900E+01	  0.041843686	1.027580E+02
111	  0.042044088	-4.062000E+00	  0.042044088	2.852900E+01	  0.042044088	1.041510E+02	  0.042044088	1.025700E+02
112	  0.042244490	-4.113000E+00	  0.042244490	2.649000E+01	  0.042244490	1.120870E+02	  0.042244490	1.017370E+02
113	  0.042444889	-4.166000E+00	  0.042444889	2.448200E+01	  0.042444889	1.202530E+02	  0.042444889	1.000110E+02
114	  0.042645290	-4.218000E+00	  0.042645290	2.246400E+01	  0.042645290	1.287210E+02	  0.042645290	9.739500E+01
115	  0.042845692	-4.271000E+00	  0.042845692	2.045500E+01	  0.042845692	1.372690E+02	  0.042845692	9.373000E+01
116	  0.043046094	-4.319000E+00	  0.043046094	1.843400E+01	  0.043046094	1.458950E+02	  0.043046094	8.904100E+01
117	  0.043246493	-4.370000E+00	  0.043246493	1.642100E+01	  0.043246493	1.542440E+02	  0.043246493	8.310600E+01
118	  0.043446895	-4.417000E+00	  0.043446895	1.440200E+01	  0.043446895	1.622520E+02	  0.043446895	7.603100E+01
119	  0.043647297	-4.463000E+00	  0.043647297	1.241000E+01	  0.043647297	1.695140E+02	  0.043647297	6.787000E+01
120	  0.043847695	-4.513000E+00	  0.043847695	1.042500E+01	  0.043847695	1.757510E+02	  0.043847695	5.854100E+01
121	  0.044048097	-4.558000E+00	  0.044048097	8.455000E+00	  0.044048097	1.809290E+02	  0.044048097	4.843500E+01
122	  0.044248499	-4.605000E+00	  0.044248499	6.466000E+00	  0.044248499	1.848250E+02	  0.044248499	3.747900E+01
123	  0.044448901	-4.651000E+00	  0.044448901	4.521000E+00	  0.044448901	1.872060E+02	  0.044448901	2.628600E+01
124	  0.044649299	-4.697000E+00	  0.044649299	2.562000E+00	  0.044649299	1.881380E+02	  0.044649299	1.481700E+01
125	  0.044849701	-4.743000E+00	  0.044849701	6.260000E-01	  0.044849701	1.875810E+02	  0.044849701	3.576000E+00
126	  0.045050103	-4.789000E+00	  0.045050103	-1.292000E+00	  0.045050103	1.856040E+02	  0.045050103	-7.219000E+00
127	  0.045250501	-4.834000E+00	  0.045250501	-3.252000E+00	  0.045250501	1.824420E+02	  0.045250501	-1.767000E+01
128	  0.045450903	-4.875000E+00	  0.045450903	-5.163000E+00	  0.045450903	1.783390E+02	  0.045450903	-2.714400E+01
129	  0.045651305	-4.916000E+00	  0.045651305	-7.089000E+00	  0.045651305	1.733040E+02	  0.045651305	-3.584100E+01
130	  0.045851704	-4.958000E+00	  0.045851704	-8.983000E+00	  0.045851704	1.676200E+02	  0.045851704	-4.344800E+01
131	  0.046052102	-5.000000E+00	  0.046052102	-1.086300E+01	  0.046052102	1.614880E+02	  0.046052102	-5.005800E+01
132	  0.046252504	-5.040000E+00	  0.046252504	-1.274200E+01	  0.046252504	1.550790E+02	  0.046252504	-5.576600E+01
133	  0.046452906	-5.079000E+00	  0.046452906	-1.461700E+01	  0.046452906	1.485110E+02	  0.046452906	-6.056800E+01
134	  0.046653304	-5.119000E+00	  0.046653304	-1.649400E+01	  0.046653304	1.418870E+02	  0.046653304	-6.454600E+01
135	  0.046853706	-5.162000E+00	  0.046853706	-1.835000E+01	  0.046853706	1.353420E+02	  0.046853706	-6.764500E+01
136	  0.047054108	-5.198000E+00	  0.047054108	-2.021800E+01	  0.047054108	1.289730E+02	  0.047054108	-7.021100E+01
137	  0.047254506	-5.234000E+00	  0.047254506	-2.207600E+01	  0.047254506	1.228140E+02	  0.047254506	-7.214300E+01
138	  0.047454908	-5.272000E+00	  0.047454908	-2.390900E+01	  0.047454908	1.169410E+02	  0.047454908	-7.347900E+01
139	  0.047655310	-5.307000E+00	  0.047655310	-2.574000E+01	  0.047655310	1.113440E+02	  0.047655310	-7.442300E+01
140	  0.047855709	-5.338000E+00	  0.047855709	-2.756000E+01	  0.047855709	1.060480E+02	  0.047855709	-7.501900E+01
141	  0.048056111	-5.371000E+00	  0.048056111	-2.936000E+01	  0.048056111	1.010590E+02	  0.048056111	-7.523100E+01
142	  0.048256513	-5.406000E+00	  0.048256513	-3.114700E+01	  0.048256513	9.636700E+01	  0.048256513	-7.513000E+01
143	  0.048456915	-5.437000E+00	  0.048456915	-3.294300E+01	  0.048456915	9.191300E+01	  0.048456915	-7.485800E+01
144	  0.048657313	-5.464000E+00	  0.048657313	-3.474300E+01	  0.048657313	8.770200E+01	  0.048657313	-7.443700E+01
145	  0.048857715	-5.490000E+00	  0.048857715	-3.654400E+01	  0.048857715	8.372700E+01	  0.048857715	-7.385900E+01
146	  0.049058117	-5.517000E+00	  0.049058117	-3.832100E+01	  0.049058117	8.003200E+01	  0.049058117	-7.310400E+01
147	  0.049258515	-5.539000E+00	  0.049258515	-4.008400E+01	  0.049258515	7.657100E+01	  0.049258515	-7.230400E+01
148	  0.049458917	-5.569000E+00	  0.049458917	-4.184600E+01	  0.049458917	7.333000E+01	  0.049458917	-7.131400E+01
149	  0.049659319	-5.592000E+00	  0.049659319	-4.355900E+01	  0.049659319	7.035100E+01	  0.049659319	-7.033400E+01
150	  0.049859721	-5.615000E+00	  0.049859721	-4.530500E+01	  0.049859721	6.748900E+01	  0.049859721	-6.927800E+01
151	  0.050060119	-5.639000E+00	  0.050060119	-4.699400E+01	  0.050060119	6.488400E+01	  0.050060119	-6.819200E+01
152	  0.050260521	-5.660000E+00	  0.050260521	-4.873900E+01	  0.050260521	6.233800E+01	  0.050260521	-6.706200E+01
153	  0.050460923	-5.678000E+00	  0.050460923	-5.044200E+01	  0.050460923	5.998700E+01	  0.050460923	-6.594600E+01
154	  0.050661322	-5.698000E+00	  0.050661322	-5.214100E+01	  0.050661322	5.778000E+01	  0.050661322	-6.478600E+01
155	  0.050861724	-5.711000E+00	  0.050861724	-5.380600E+01	  0.050861724	5.571200E+01	  0.050861724	-6.368800E+01
156	  0.051062126	-5.735000E+00	  0.051062126	-5.546800E+01	  0.051062126	5.380500E+01	  0.051062126	-6.248800E+01
157	  0.051262524	-5.755000E+00	  0.051262524	-5.711600E+01	  0.051262524	5.200100E+01	  0.051262524	-6.132100E+01
158	  0.051462926	-5.770000E+00	  0.051462926	-5.877800E+01	  0.051462926	5.026200E+01	  0.051462926	-6.017400E+01
159	  0.051663328	-5.787000E+00	  0.051663328	-6.040400E+01	  0.051663328	4.865900E+01	  0.051663328	-5.903700E+01
160	  0.051863730	-5.805000E+00	  0.051863730	-6.202300E+01	  0.051863730	4.715400E+01	  0.051863730	-5.789300E+01
161	  0.052064128	-5.819000E+00	  0.052064128	-6.363000E+01	  0.052064128	4.571800E+01	  0.052064128	-5.679100E+01
162	  0.052264530	-5.830000E+00	  0.052264530	-6.524600E+01	  0.052264530	4.433700E+01	  0.052264530	-5.569800E+01
163	  0.052464932	-5.843000E+00	  0.052464932	-6.683400E+01	  0.052464932	4.305500E+01	  0.052464932	-5.461900E+01
164	  0.052665330	-5.859000E+00	  0.052665330	-6.841300E+01	  0.052665330	4.185300E+01	  0.052665330	-5.354000E+01
165	  0.052865732	-5.873000E+00	  0.052865732	-6.996200E+01	  0.052865732	4.073000E+01	  0.052865732	-5.249300E+01
166	  0.053066134	-5.887000E+00	  0.053066134	-7.151400E+01	  0.053066134	3.965700E+01	  0.053066134	-5.145200E+01
167	  0.053266536	-5.905000E+00	  0.053266536	-7.306400E+01	  0.053266536	3.865100E+01	  0.053266536	-5.040800E+01
168	  0.053466935	-5.917000E+00	  0.053466935	-7.458100E+01	  0.053466935	3.768900E+01	  0.053466935	-4.942100E+01
169	  0.053667337	-5.927000E+00	  0.053667337	-7.611300E+01	  0.053667337	3.675800E+01	  0.053667337	-4.843800E+01
170	  0.053867739	-5.939000E+00	  0.053867739	-7.765200E+01	  0.053867739	3.587100E+01	  0.053867739	-4.745600E+01
171	  0.054068137	-5.950000E+00	  0.054068137	-7.916900E+01	  0.054068137	3.503300E+01	  0.054068137	-4.650000E+01
172	  0.054268539	-5.961000E+00	  0.054268539	-8.067600E+01	  0.054268539	3.423400E+01	  0.054268539	-4.556300E+01
173	  0.054468941	-5.974000E+00	  0.054468941	-8.215800E+01	  0.054468941	3.349500E+01	  0.054468941	-4.464100E+01
174	  0.054669335	-5.983000E+00	  0.054669335	-8.362700E+01	  0.054669335	3.278200E+01	  0.054669335	-4.374800E+01
175	  0.054869737	-5.997000E+00	  0.054869737	-8.511900E+01	  0.054869737	3.210300E+01	  0.054869737	-4.283800E+01
176	  0.055070139	-6.006000E+00	  0.055070139	-8.658000E+01	  0.055070139	3.145000E+01	  0.055070139	-4.197200E+01
177	  0.055270538	-6.016000E+00	  0.055270538	-8.803400E+01	  0.055270538	3.083200E+01	  0.055270538	-4.111500E+01
178	  0.055470940	-6.025000E+00	  0.055470940	-8.948200E+01	  0.055470940	3.023600E+01	  0.055470940	-4.027500E+01
179	  0.055671342	-6.032000E+00	  0.055671342	-9.093100E+01	  0.055671342	2.965800E+01	  0.055671342	-3.944900E+01
180	  0.055871744	-6.039000E+00	  0.055871744	-9.239000E+01	  0.055871744	2.909900E+01	  0.055871744	-3.862600E+01
181	  0.056072142	-6.046000E+00	  0.056072142	-9.380200E+01	  0.056072142	2.858300E+01	  0.056072142	-3.783600E+01
182	  0.056272544	-6.053000E+00	  0.056272544	-9.523700E+01	  0.056272544	2.807400E+01	  0.056272544	-3.704300E+01
183	  0.056472946	-6.062000E+00	  0.056472946	-9.661800E+01	  0.056472946	2.761600E+01	  0.056472946	-3.628100E+01
184	  0.056673344	-6.070000E+00	  0.056673344	-9.800200E+01	  0.056673344	2.716800E+01	  0.056673344	-3.553000E+01
185	  0.056873746	-6.077000E+00	  0.056873746	-9.938600E+01	  0.056873746	2.673500E+01	  0.056873746	-3.478700E+01
186	  0.057074148	-6.082000E+00	  0.057074148	-1.007890E+02	  0.057074148	2.630600E+01	  0.057074148	-3.404600E+01
187	  0.057274550	-6.084000E+00	  0.057274550	-1.021630E+02	  0.057274550	2.588800E+01	  0.057274550	-3.333500E+01
188	  0.057474948	-6.089000E+00	  0.057474948	-1.035380E+02	  0.057474948	2.549900E+01	  0.057474948	-3.262200E+01
189	  0.057675350	-6.098000E+00	  0.057675350	-1.048870E+02	  0.057675350	2.514500E+01	  0.057675350	-3.192200E+01
190	  0.057875752	-6.102000E+00	  0.057875752	-1.062430E+02	  0.057875752	2.478500E+01	  0.057875752	-3.123500E+01
191	  0.058076151	-6.106000E+00	  0.058076151	-1.075990E+02	  0.058076151	2.443800E+01	  0.058076151	-3.055400E+01
192	  0.058276553	-6.115000E+00	  0.058276553	-1.089060E+02	  0.058276553	2.413100E+01	  0.058276553	-2.989500E+01
193	  0.058476955	-6.117000E+00	  0.058476955	-1.102420E+02	  0.058476955	2.380700E+01	  0.058476955	-2.923900E+01
194	  0.058677353	-6.121000E+00	  0.058677353	-1.115680E+02	  0.058677353	2.350600E+01	  0.058677353	-2.858900E+01
195	  0.058877755	-6.125000E+00	  0.058877755	-1.128920E+02	  0.058877755	2.321000E+01	  0.058877755	-2.794800E+01
196	  0.059078157	-6.121000E+00	  0.059078157	-1.142000E+02	  0.059078157	2.290800E+01	  0.059078157	-2.732900E+01
197	  0.059278559	-6.126000E+00	  0.059278559	-1.155060E+02	  0.059278559	2.264400E+01	  0.059278559	-2.670400E+01
198	  0.059478957	-6.129000E+00	  0.059478957	-1.168090E+02	  0.059478957	2.238400E+01	  0.059478957	-2.608800E+01
199	  0.059679359	-6.133000E+00	  0.059679359	-1.181150E+02	  0.059679359	2.213300E+01	  0.059679359	-2.547400E+01
200	  0.059879761	-6.134000E+00	  0.059879761	-1.193680E+02	  0.059879761	2.189300E+01	  0.059879761	-2.489400E+01
201	  0.060080159	-6.140000E+00	  0.060080159	-1.206390E+02	  0.060080159	2.167400E+01	  0.060080159	-2.430300E+01
202	  0.060280561	-6.141000E+00	  0.060280561	-1.219100E+02	  0.060280561	2.144800E+01	  0.060280561	-2.372200E+01
203	  0.060480963	-6.142000E+00	  0.060480963	-1.231960E+02	  0.060480963	2.122500E+01	  0.060480963	-2.314000E+01
204	  0.060681365	-6.142000E+00	  0.060681365	-1.244370E+02	  0.060681365	2.101800E+01	  0.060681365	-2.258000E+01
205	  0.060881764	-6.143000E+00	  0.060881764	-1.256930E+02	  0.060881764	2.081600E+01	  0.060881764	-2.201800E+01
206	  0.061082166	-6.146000E+00	  0.061082166	-1.269600E+02	  0.061082166	2.062500E+01	  0.061082166	-2.145300E+01
207	  0.061282568	-6.148000E+00	  0.061282568	-1.281960E+02	  0.061282568	2.044300E+01	  0.061282568	-2.090600E+01
208	  0.061482966	-6.148000E+00	  0.061482966	-1.294220E+02	  0.061482966	2.026400E+01	  0.061482966	-2.036800E+01
209	  0.061683368	-6.149000E+00	  0.061683368	-1.306620E+02	  0.061683368	2.009100E+01	  0.061683368	-1.982700E+01
210	  0.061883770	-6.153000E+00	  0.061883770	-1.318570E+02	  0.061883770	1.993900E+01	  0.061883770	-1.930600E+01
211	  0.062084168	-6.154000E+00	  0.062084168	-1.330680E+02	  0.062084168	1.978300E+01	  0.062084168	-1.878300E+01
212	  0.062284570	-6.154000E+00	  0.062284570	-1.342830E+02	  0.062284570	1.962800E+01	  0.062284570	-1.826300E+01
213	  0.062484972	-6.138000E+00	  0.062484972	-1.354300E+02	  0.062484972	1.944100E+01	  0.062484972	-1.778700E+01
214	  0.062685370	-6.144000E+00	  0.062685370	-1.366070E+02	  0.062685370	1.931700E+01	  0.062685370	-1.728300E+01
215	  0.062885776	-6.143000E+00	  0.062885776	-1.378050E+02	  0.062885776	1.917800E+01	  0.062885776	-1.677700E+01
216	  0.063086174	-6.142000E+00	  0.063086174	-1.389770E+02	  0.063086174	1.904700E+01	  0.063086174	-1.628500E+01
217	  0.063286573	-6.143000E+00	  0.063286573	-1.401390E+02	  0.063286573	1.892500E+01	  0.063286573	-1.579900E+01
218	  0.063486971	-6.145000E+00	  0.063486971	-1.412700E+02	  0.063486971	1.881500E+01	  0.063486971	-1.532600E+01
219	  0.063687377	-6.143000E+00	  0.063687377	-1.424250E+02	  0.063687377	1.869500E+01	  0.063687377	-1.484900E+01
220	  0.063887775	-6.141000E+00	  0.063887775	-1.435750E+02	  0.063887775	1.858100E+01	  0.063887775	-1.437500E+01
221	  0.064088173	-6.144000E+00	  0.064088173	-1.447350E+02	  0.064088173	1.848100E+01	  0.064088173	-1.389600E+01
222	  0.064288579	-6.148000E+00	  0.064288579	-1.458760E+02	  0.064288579	1.839200E+01	  0.064288579	-1.342600E+01
223	  0.064488977	-6.147000E+00	  0.064488977	-1.470200E+02	  0.064488977	1.829500E+01	  0.064488977	-1.296000E+01
224	  0.064689375	-6.149000E+00	  0.064689375	-1.481330E+02	  0.064689375	1.820900E+01	  0.064689375	-1.250600E+01
225	  0.064889781	-6.152000E+00	  0.064889781	-1.492470E+02	  0.064889781	1.813100E+01	  0.064889781	-1.205400E+01
226	  0.065090179	-6.154000E+00	  0.065090179	-1.503710E+02	  0.065090179	1.805100E+01	  0.065090179	-1.159900E+01
227	  0.065290578	-6.160000E+00	  0.065290578	-1.514730E+02	  0.065290578	1.798700E+01	  0.065290578	-1.115300E+01
228	  0.065490983	-6.158000E+00	  0.065490983	-1.525730E+02	  0.065490983	1.790700E+01	  0.065490983	-1.071300E+01
229	  0.065691382	-6.158000E+00	  0.065691382	-1.537080E+02	  0.065691382	1.783400E+01	  0.065691382	-1.025900E+01
230	  0.065891780	-6.163000E+00	  0.065891780	-1.547810E+02	  0.065891780	1.778100E+01	  0.065891780	-9.829000E+00
231	  0.066092186	-6.162000E+00	  0.066092186	-1.559020E+02	  0.066092186	1.771100E+01	  0.066092186	-9.384000E+00
232	  0.066292584	-6.169000E+00	  0.066292584	-1.570040E+02	  0.066292584	1.766500E+01	  0.066292584	-8.945000E+00
233	  0.066492982	-6.170000E+00	  0.066492982	-1.580560E+02	  0.066492982	1.761100E+01	  0.066492982	-8.529000E+00
234	  0.066693388	-6.174000E+00	  0.066693388	-1.591330E+02	  0.066693388	1.756700E+01	  0.066693388	-8.103000E+00
235	  0.066893786	-6.177000E+00	  0.066893786	-1.601820E+02	  0.066893786	1.752400E+01	  0.066893786	-7.689000E+00
236	  0.067094192	-6.180000E+00	  0.067094192	-1.612770E+02	  0.067094192	1.748200E+01	  0.067094192	-7.258000E+00
237	  0.067294590	-6.182000E+00	  0.067294590	-1.623270E+02	  0.067294590	1.744400E+01	  0.067294590	-6.846000E+00
238	  0.067494988	-6.183000E+00	  0.067494988	-1.634080E+02	  0.067494988	1.740200E+01	  0.067494988	-6.423000E+00
239	  0.067695394	-6.190000E+00	  0.067695394	-1.644220E+02	  0.067695394	1.738200E+01	  0.067695394	-6.026000E+00
240	  0.067895792	-6.191000E+00	  0.067895792	-1.654790E+02	  0.067895792	1.734700E+01	  0.067895792	-5.613000E+00
241	  0.068096191	-6.193000E+00	  0.068096191	-1.665520E+02	  0.068096191	1.731600E+01	  0.068096191	-5.196000E+00
242	  0.068296596	-6.198000E+00	  0.068296596	-1.675740E+02	  0.068296596	1.729900E+01	  0.068296596	-4.798000E+00
243	  0.068496995	-6.201000E+00	  0.068496995	-1.685950E+02	  0.068496995	1.727800E+01	  0.068496995	-4.401000E+00
244	  0.068697393	-6.206000E+00	  0.068697393	-1.696390E+02	  0.068697393	1.726500E+01	  0.068697393	-3.996000E+00
245	  0.068897791	-6.207000E+00	  0.068897791	-1.706530E+02	  0.068897791	1.724500E+01	  0.068897791	-3.603000E+00
246	  0.069098189	-6.207000E+00	  0.069098189	-1.716810E+02	  0.069098189	1.722200E+01	  0.069098189	-3.206000E+00
247	  0.069298595	-6.213000E+00	  0.069298595	-1.726960E+02	  0.069298595	1.721900E+01	  0.069298595	-2.813000E+00
248	  0.069498993	-6.215000E+00	  0.069498993	-1.737210E+02	  0.069498993	1.720900E+01	  0.069498993	-2.418000E+00
249	  0.069699399	-6.222000E+00	  0.069699399	-1.747200E+02	  0.069699399	1.721400E+01	  0.069699399	-2.032000E+00
250	  0.069899797	-6.228000E+00	  0.069899797	-1.756870E+02	  0.069899797	1.721600E+01	  0.069899797	-1.659000E+00
251	  0.070100196	-6.232000E+00	  0.070100196	-1.766980E+02	  0.070100196	1.721900E+01	  0.070100196	-1.270000E+00
252	  0.070300601	-6.238000E+00	  0.070300601	-1.776850E+02	  0.070300601	1.722700E+01	  0.070300601	-8.890000E-01
253	  0.070501000	-6.237000E+00	  0.070501000	-1.786650E+02	  0.070501000	1.722100E+01	  0.070501000	-5.130000E-01
254	  0.070701398	-6.244000E+00	  0.070701398	-1.796420E+02	  0.070701398	1.723600E+01	  0.070701398	-1.370000E-01
255	  0.070901804	-6.245000E+00	  0.070901804	1.793880E+02	  0.070901804	1.724000E+01	  0.070901804	2.350000E-01
256	  0.071102202	-6.252000E+00	  0.071102202	1.783770E+02	  0.071102202	1.725900E+01	  0.071102202	6.230000E-01
257	  0.071302600	-6.258000E+00	  0.071302600	1.774180E+02	  0.071302600	1.728000E+01	  0.071302600	9.910000E-01
258	  0.071503006	-6.267000E+00	  0.071503006	1.764290E+02	  0.071503006	1.730800E+01	  0.071503006	1.371000E+00
259	  0.071703404	-6.273000E+00	  0.071703404	1.754840E+02	  0.071703404	1.733400E+01	  0.071703404	1.734000E+00
260	  0.071903802	-6.279000E+00	  0.071903802	1.745010E+02	  0.071903802	1.736000E+01	  0.071903802	2.112000E+00
261	  0.072104208	-6.283000E+00	  0.072104208	1.735320E+02	  0.072104208	1.738500E+01	  0.072104208	2.484000E+00
262	  0.072304606	-6.287000E+00	  0.072304606	1.725820E+02	  0.072304606	1.740900E+01	  0.072304606	2.849000E+00
263	  0.072505005	-6.294000E+00	  0.072505005	1.716260E+02	  0.072505005	1.744500E+01	  0.072505005	3.216000E+00
264	  0.072705410	-6.300000E+00	  0.072705410	1.706540E+02	  0.072705410	1.747900E+01	  0.072705410	3.590000E+00
265	  0.072905809	-6.304000E+00	  0.072905809	1.697030E+02	  0.072905809	1.751200E+01	  0.072905809	3.956000E+00
266	  0.073106214	-6.311000E+00	  0.073106214	1.687550E+02	  0.073106214	1.755500E+01	  0.073106214	4.320000E+00
267	  0.073306613	-6.321000E+00	  0.073306613	1.678120E+02	  0.073306613	1.760600E+01	  0.073306613	4.682000E+00
268	  0.073507011	-6.324000E+00	  0.073507011	1.668450E+02	  0.073507011	1.764400E+01	  0.073507011	5.055000E+00
269	  0.073707417	-6.332000E+00	  0.073707417	1.658710E+02	  0.073707417	1.769300E+01	  0.073707417	5.430000E+00
270	  0.073907815	-6.339000E+00	  0.073907815	1.649720E+02	  0.073907815	1.774300E+01	  0.073907815	5.776000E+00
271	  0.074108213	-6.344000E+00	  0.074108213	1.640360E+02	  0.074108213	1.779000E+01	  0.074108213	6.138000E+00
272	  0.074308619	-6.350000E+00	  0.074308619	1.630820E+02	  0.074308619	1.784500E+01	  0.074308619	6.506000E+00
273	  0.074509017	-6.353000E+00	  0.074509017	1.621560E+02	  0.074509017	1.789000E+01	  0.074509017	6.865000E+00
274	  0.074709415	-6.363000E+00	  0.074709415	1.612230E+02	  0.074709415	1.795600E+01	  0.074709415	7.225000E+00
275	  0.074909821	-6.369000E+00	  0.074909821	1.602960E+02	  0.074909821	1.801400E+01	  0.074909821	7.584000E+00
276	  0.075110219	-6.377000E+00	  0.075110219	1.593720E+02	  0.075110219	1.808200E+01	  0.075110219	7.942000E+00
277	  0.075310618	-6.383000E+00	  0.075310618	1.584680E+02	  0.075310618	1.814400E+01	  0.075310618	8.293000E+00
278	  0.075511023	-6.387000E+00	  0.075511023	1.575670E+02	  0.075511023	1.820100E+01	  0.075511023	8.644000E+00
279	  0.075711422	-6.395000E+00	  0.075711422	1.566600E+02	  0.075711422	1.827200E+01	  0.075711422	8.996000E+00
280	  0.075911827	-6.403000E+00	  0.075911827	1.557530E+02	  0.075911827	1.834800E+01	  0.075911827	9.349000E+00
281	  0.076112226	-6.413000E+00	  0.076112226	1.548610E+02	  0.076112226	1.842800E+01	  0.076112226	9.696000E+00
282	  0.076312624	-6.420000E+00	  0.076312624	1.539650E+02	  0.076312624	1.850200E+01	  0.076312624	1.004600E+01
283	  0.076513030	-6.432000E+00	  0.076513030	1.530720E+02	  0.076513030	1.859400E+01	  0.076513030	1.039300E+01
284	  0.076713428	-6.439000E+00	  0.076713428	1.521930E+02	  0.076713428	1.867200E+01	  0.076713428	1.073700E+01
285	  0.076913826	-6.447000E+00	  0.076913826	1.513080E+02	  0.076913826	1.875700E+01	  0.076913826	1.108400E+01
286	  0.077114232	-6.460000E+00	  0.077114232	1.504360E+02	  0.077114232	1.885400E+01	  0.077114232	1.142300E+01
287	  0.077314630	-6.466000E+00	  0.077314630	1.495860E+02	  0.077314630	1.893600E+01	  0.077314630	1.175800E+01
288	  0.077515028	-6.478000E+00	  0.077515028	1.487250E+02	  0.077515028	1.903400E+01	  0.077515028	1.209500E+01
289	  0.077715434	-6.491000E+00	  0.077715434	1.478530E+02	  0.077715434	1.913900E+01	  0.077715434	1.243600E+01
290	  0.077915832	-6.498000E+00	  0.077915832	1.470020E+02	  0.077915832	1.922900E+01	  0.077915832	1.277300E+01
291	  0.078116231	-6.512000E+00	  0.078116231	1.461440E+02	  0.078116231	1.934300E+01	  0.078116231	1.310800E+01
292	  0.078316636	-6.524000E+00	  0.078316636	1.452550E+02	  0.078316636	1.945400E+01	  0.078316636	1.345800E+01
293	  0.078517035	-6.534000E+00	  0.078517035	1.444270E+02	  0.078517035	1.955800E+01	  0.078517035	1.378500E+01
294	  0.078717433	-6.547000E+00	  0.078717433	1.435730E+02	  0.078717433	1.967400E+01	  0.078717433	1.412100E+01
295	  0.078917839	-6.560000E+00	  0.078917839	1.427460E+02	  0.078917839	1.978800E+01	  0.078917839	1.444700E+01
296	  0.079118237	-6.577000E+00	  0.079118237	1.419080E+02	  0.079118237	1.991800E+01	  0.079118237	1.477500E+01
297	  0.079318643	-6.591000E+00	  0.079318643	1.410760E+02	  0.079318643	2.004500E+01	  0.079318643	1.510200E+01
298	  0.079519041	-6.604000E+00	  0.079519041	1.402460E+02	  0.079519041	2.016800E+01	  0.079519041	1.543000E+01
299	  0.079719439	-6.617000E+00	  0.079719439	1.394090E+02	  0.079719439	2.029500E+01	  0.079719439	1.576200E+01
300	  0.079919845	-6.633000E+00	  0.079919845	1.385750E+02	  0.079919845	2.043100E+01	  0.079919845	1.609100E+01
301	  0.080120243	-6.650000E+00	  0.080120243	1.377370E+02	  0.080120243	2.057400E+01	  0.080120243	1.642100E+01
302	  0.080320641	-6.661000E+00	  0.080320641	1.369020E+02	  0.080320641	2.070500E+01	  0.080320641	1.675400E+01
303	  0.080521047	-6.681000E+00	  0.080521047	1.361170E+02	  0.080521047	2.085400E+01	  0.080521047	1.706100E+01
304	  0.080721445	-6.694000E+00	  0.080721445	1.352850E+02	  0.080721445	2.099500E+01	  0.080721445	1.739200E+01
305	  0.080921844	-6.711000E+00	  0.080921844	1.344840E+02	  0.080921844	2.114400E+01	  0.080921844	1.770800E+01
306	  0.081122249	-6.727000E+00	  0.081122249	1.337030E+02	  0.081122249	2.129200E+01	  0.081122249	1.801700E+01
307	  0.081322648	-6.746000E+00	  0.081322648	1.328780E+02	  0.081322648	2.145600E+01	  0.081322648	1.834200E+01
308	  0.081523046	-6.761000E+00	  0.081523046	1.320550E+02	  0.081523046	2.161100E+01	  0.081523046	1.867000E+01
309	  0.081723452	-6.775000E+00	  0.081723452	1.312780E+02	  0.081723452	2.176100E+01	  0.081723452	1.897900E+01
310	  0.081923850	-6.791000E+00	  0.081923850	1.304640E+02	  0.081923850	2.192500E+01	  0.081923850	1.930400E+01
311	  0.082124248	-6.810000E+00	  0.082124248	1.296980E+02	  0.082124248	2.208900E+01	  0.082124248	1.960500E+01
312	  0.082324654	-6.823000E+00	  0.082324654	1.288860E+02	  0.082324654	2.225100E+01	  0.082324654	1.993200E+01
313	  0.082525052	-6.844000E+00	  0.082525052	1.281320E+02	  0.082525052	2.242600E+01	  0.082525052	2.022700E+01
314	  0.082725458	-6.864000E+00	  0.082725458	1.273660E+02	  0.082725458	2.260400E+01	  0.082725458	2.052800E+01
315	  0.082925856	-6.883000E+00	  0.082925856	1.265840E+02	  0.082925856	2.278600E+01	  0.082925856	2.083600E+01
316	  0.083126254	-6.902000E+00	  0.083126254	1.258040E+02	  0.083126254	2.296800E+01	  0.083126254	2.114500E+01
317	  0.083326660	-6.922000E+00	  0.083326660	1.250180E+02	  0.083326660	2.315900E+01	  0.083326660	2.145500E+01
318	  0.083527058	-6.940000E+00	  0.083527058	1.242640E+02	  0.083527058	2.334300E+01	  0.083527058	2.175200E+01
319	  0.083727457	-6.959000E+00	  0.083727457	1.234980E+02	  0.083727457	2.353300E+01	  0.083727457	2.205500E+01
320	  0.083927862	-6.979000E+00	  0.083927862	1.226970E+02	  0.083927862	2.373600E+01	  0.083927862	2.237100E+01
321	  0.084128261	-7.004000E+00	  0.084128261	1.219550E+02	  0.084128261	2.394400E+01	  0.084128261	2.265600E+01
322	  0.084328659	-7.023000E+00	  0.084328659	1.212230E+02	  0.084328659	2.413800E+01	  0.084328659	2.294400E+01
323	  0.084529065	-7.044000E+00	  0.084529065	1.204900E+02	  0.084529065	2.434100E+01	  0.084529065	2.322900E+01
324	  0.084729463	-7.061000E+00	  0.084729463	1.197200E+02	  0.084729463	2.454100E+01	  0.084729463	2.353700E+01
325	  0.084929854	-7.085000E+00	  0.084929854	1.189730E+02	  0.084929854	2.476100E+01	  0.084929854	2.382500E+01
326	  0.085130259	-7.108000E+00	  0.085130259	1.182150E+02	  0.085130259	2.498400E+01	  0.085130259	2.411800E+01
327	  0.085330658	-7.126000E+00	  0.085330658	1.174760E+02	  0.085330658	2.519300E+01	  0.085330658	2.440900E+01
328	  0.085531056	-7.148000E+00	  0.085531056	1.167190E+02	  0.085531056	2.541900E+01	  0.085531056	2.470400E+01
329	  0.085731462	-7.168000E+00	  0.085731462	1.159940E+02	  0.085731462	2.563700E+01	  0.085731462	2.498700E+01
330	  0.085931860	-7.191000E+00	  0.085931860	1.152720E+02	  0.085931860	2.586400E+01	  0.085931860	2.526300E+01
331	  0.086132258	-7.214000E+00	  0.086132258	1.145920E+02	  0.086132258	2.608800E+01	  0.086132258	2.552100E+01
332	  0.086332664	-7.234000E+00	  0.086332664	1.138650E+02	  0.086332664	2.631500E+01	  0.086332664	2.580400E+01
333	  0.086533062	-7.262000E+00	  0.086533062	1.131410E+02	  0.086533062	2.656800E+01	  0.086533062	2.607300E+01
334	  0.086733460	-7.277000E+00	  0.086733460	1.124400E+02	  0.086733460	2.678000E+01	  0.086733460	2.635200E+01
335	  0.086933866	-7.299000E+00	  0.086933866	1.117460E+02	  0.086933866	2.701600E+01	  0.086933866	2.661600E+01
336	  0.087134264	-7.318000E+00	  0.087134264	1.110410E+02	  0.087134264	2.725100E+01	  0.087134264	2.688800E+01
337	  0.087334670	-7.344000E+00	  0.087334670	1.103460E+02	  0.087334670	2.750400E+01	  0.087334670	2.714500E+01
338	  0.087535068	-7.368000E+00	  0.087535068	1.096690E+02	  0.087535068	2.775100E+01	  0.087535068	2.739600E+01
339	  0.087735467	-7.390000E+00	  0.087735467	1.090230E+02	  0.087735467	2.798600E+01	  0.087735467	2.763700E+01
340	  0.087935872	-7.418000E+00	  0.087935872	1.083610E+02	  0.087935872	2.824500E+01	  0.087935872	2.787400E+01
341	  0.088136271	-7.439000E+00	  0.088136271	1.076890E+02	  0.088136271	2.849300E+01	  0.088136271	2.812500E+01
342	  0.088336669	-7.467000E+00	  0.088336669	1.070120E+02	  0.088336669	2.876300E+01	  0.088336669	2.836700E+01
343	  0.088537075	-7.481000E+00	  0.088537075	1.063900E+02	  0.088537075	2.898200E+01	  0.088537075	2.860900E+01
344	  0.088737473	-7.506000E+00	  0.088737473	1.057450E+02	  0.088737473	2.924100E+01	  0.088737473	2.884100E+01
345	  0.088937871	-7.530000E+00	  0.088937871	1.051080E+02	  0.088937871	2.949800E+01	  0.088937871	2.906900E+01
346	  0.089138277	-7.555000E+00	  0.089138277	1.045250E+02	  0.089138277	2.974600E+01	  0.089138277	2.927000E+01
347	  0.089338675	-7.576000E+00	  0.089338675	1.038920E+02	  0.089338675	3.000100E+01	  0.089338675	2.950000E+01
348	  0.089539073	-7.605000E+00	  0.089539073	1.032750E+02	  0.089539073	3.027400E+01	  0.089539073	2.970700E+01
349	  0.089739479	-7.630000E+00	  0.089739479	1.026670E+02	  0.089739479	3.053800E+01	  0.089739479	2.991600E+01
350	  0.089939877	-7.656000E+00	  0.089939877	1.020710E+02	  0.089939877	3.080200E+01	  0.089939877	3.011700E+01
351	  0.090140276	-7.675000E+00	  0.090140276	1.014760E+02	  0.090140276	3.105100E+01	  0.090140276	3.033100E+01
352	  0.090340681	-7.704000E+00	  0.090340681	1.009020E+02	  0.090340681	3.132400E+01	  0.090340681	3.051300E+01
353	  0.090541080	-7.730000E+00	  0.090541080	1.002830E+02	  0.090541080	3.160500E+01	  0.090541080	3.072000E+01
354	  0.090741485	-7.757000E+00	  0.090741485	9.971800E+01	  0.090741485	3.187200E+01	  0.090741485	3.090100E+01
355	  0.090941884	-7.786000E+00	  0.090941884	9.917500E+01	  0.090941884	3.214200E+01	  0.090941884	3.106500E+01
356	  0.091142282	-7.817000E+00	  0.091142282	9.856400E+01	  0.091142282	3.244400E+01	  0.091142282	3.125100E+01
357	  0.091342688	-7.847000E+00	  0.091342688	9.799400E+01	  0.091342688	3.272900E+01	  0.091342688	3.142300E+01
358	  0.091543086	-7.869000E+00	  0.091543086	9.741600E+01	  0.091543086	3.300000E+01	  0.091543086	3.161400E+01
359	  0.091743484	-7.899000E+00	  0.091743484	9.682400E+01	  0.091743484	3.330100E+01	  0.091743484	3.178900E+01
360	  0.091943890	-7.920000E+00	  0.091943890	9.625100E+01	  0.091943890	3.357300E+01	  0.091943890	3.197700E+01
361	  0.092144288	-7.949000E+00	  0.092144288	9.566600E+01	  0.092144288	3.387300E+01	  0.092144288	3.214900E+01
362	  0.092344686	-7.965000E+00	  0.092344686	9.507600E+01	  0.092344686	3.414300E+01	  0.092344686	3.235400E+01
363	  0.092545092	-7.999000E+00	  0.092545092	9.453200E+01	  0.092545092	3.444700E+01	  0.092545092	3.249300E+01
364	  0.092745490	-8.021000E+00	  0.092745490	9.399100E+01	  0.092745490	3.471800E+01	  0.092745490	3.266000E+01
365	  0.092945889	-8.049000E+00	  0.092945889	9.343800E+01	  0.092945889	3.501600E+01	  0.092945889	3.281300E+01
366	  0.093146294	-8.074000E+00	  0.093146294	9.286700E+01	  0.093146294	3.531300E+01	  0.093146294	3.298100E+01
367	  0.093346693	-8.101000E+00	  0.093346693	9.233500E+01	  0.093346693	3.560300E+01	  0.093346693	3.312400E+01
368	  0.093547091	-8.119000E+00	  0.093547091	9.177100E+01	  0.093547091	3.588600E+01	  0.093547091	3.330300E+01
369	  0.093747497	-8.147000E+00	  0.093747497	9.125400E+01	  0.093747497	3.617700E+01	  0.093747497	3.343600E+01
370	  0.093947895	-8.169000E+00	  0.093947895	9.069000E+01	  0.093947895	3.647700E+01	  0.093947895	3.359900E+01
371	  0.094148301	-8.191000E+00	  0.094148301	9.018400E+01	  0.094148301	3.675200E+01	  0.094148301	3.374000E+01
372	  0.094348699	-8.219000E+00	  0.094348699	8.966100E+01	  0.094348699	3.705400E+01	  0.094348699	3.386700E+01
373	  0.094549097	-8.241000E+00	  0.094549097	8.915600E+01	  0.094549097	3.733200E+01	  0.094549097	3.400400E+01
374	  0.094749503	-8.264000E+00	  0.094749503	8.865700E+01	  0.094749503	3.761400E+01	  0.094749503	3.413400E+01
375	  0.094949901	-8.277000E+00	  0.094949901	8.817400E+01	  0.094949901	3.786700E+01	  0.094949901	3.428300E+01
376	  0.095150299	-8.303000E+00	  0.095150299	8.767100E+01	  0.095150299	3.816100E+01	  0.095150299	3.440200E+01
377	  0.095350705	-8.317000E+00	  0.095350705	8.715800E+01	  0.095350705	3.843300E+01	  0.095350705	3.456000E+01
378	  0.095551103	-8.337000E+00	  0.095551103	8.670500E+01	  0.095551103	3.869700E+01	  0.095551103	3.467000E+01
379	  0.095751502	-8.359000E+00	  0.095751502	8.619600E+01	  0.095751502	3.899200E+01	  0.095751502	3.479800E+01
380	  0.095951907	-8.375000E+00	  0.095951907	8.574300E+01	  0.095951907	3.924600E+01	  0.095951907	3.492200E+01
381	  0.096152306	-8.397000E+00	  0.096152306	8.527900E+01	  0.096152306	3.952700E+01	  0.096152306	3.502600E+01
382	  0.096352704	-8.407000E+00	  0.096352704	8.482100E+01	  0.096352704	3.977400E+01	  0.096352704	3.516600E+01
383	  0.096553110	-8.422000E+00	  0.096553110	8.438100E+01	  0.096553110	4.002700E+01	  0.096553110	3.528300E+01
384	  0.096753508	-8.439000E+00	  0.096753508	8.393600E+01	  0.096753508	4.029000E+01	  0.096753508	3.539300E+01
385	  0.096953906	-8.453000E+00	  0.096953906	8.348200E+01	  0.096953906	4.054800E+01	  0.096953906	3.551800E+01
386	  0.097154312	-8.468000E+00	  0.097154312	8.302400E+01	  0.097154312	4.081700E+01	  0.097154312	3.563700E+01
387	  0.097354710	-8.479000E+00	  0.097354710	8.260100E+01	  0.097354710	4.105900E+01	  0.097354710	3.575500E+01
388	  0.097555116	-8.490000E+00	  0.097555116	8.215600E+01	  0.097555116	4.131500E+01	  0.097555116	3.587800E+01
389	  0.097755514	-8.508000E+00	  0.097755514	8.174200E+01	  0.097755514	4.157400E+01	  0.097755514	3.596500E+01
390	  0.097955912	-8.513000E+00	  0.097955912	8.129800E+01	  0.097955912	4.181800E+01	  0.097955912	3.610800E+01
391	  0.098156318	-8.523000E+00	  0.098156318	8.085600E+01	  0.098156318	4.207600E+01	  0.098156318	3.623000E+01
392	  0.098356716	-8.528000E+00	  0.098356716	8.044000E+01	  0.098356716	4.230900E+01	  0.098356716	3.636300E+01
393	  0.098557115	-8.542000E+00	  0.098557115	8.002700E+01	  0.098557115	4.256600E+01	  0.098557115	3.645700E+01
394	  0.098757520	-8.548000E+00	  0.098757520	7.956000E+01	  0.098757520	4.283400E+01	  0.098757520	3.660000E+01
395	  0.098957919	-8.551000E+00	  0.098957919	7.911600E+01	  0.098957919	4.308400E+01	  0.098957919	3.674400E+01
396	  0.099158317	-8.548000E+00	  0.099158317	7.868500E+01	  0.099158317	4.331800E+01	  0.099158317	3.690300E+01
397	  0.099358723	-8.558000E+00	  0.099358723	7.827000E+01	  0.099358723	4.357200E+01	  0.099358723	3.701300E+01
398	  0.099559121	-8.561000E+00	  0.099559121	7.782700E+01	  0.099559121	4.382900E+01	  0.099559121	3.715400E+01
399	  0.099759519	-8.559000E+00	  0.099759519	7.739600E+01	  0.099759519	4.407200E+01	  0.099759519	3.730600E+01
400	  0.099959925	-8.558000E+00	  0.099959925	7.701000E+01	  0.099959925	4.429200E+01	  0.099959925	3.744100E+01
401	  0.100160323	-8.563000E+00	  0.100160323	7.661700E+01	  0.100160323	4.453200E+01	  0.100160323	3.755500E+01
402	  0.100360721	-8.558000E+00	  0.100360721	7.614400E+01	  0.100360721	4.479900E+01	  0.100360721	3.773100E+01
403	  0.100561127	-8.552000E+00	  0.100561127	7.572300E+01	  0.100561127	4.503400E+01	  0.100561127	3.789700E+01
404	  0.100761525	-8.545000E+00	  0.100761525	7.527000E+01	  0.100761525	4.529100E+01	  0.100761525	3.807300E+01
405	  0.100961931	-8.549000E+00	  0.100961931	7.485000E+01	  0.100961931	4.555300E+01	  0.100961931	3.819700E+01
406	  0.101162329	-8.541000E+00	  0.101162329	7.442400E+01	  0.101162329	4.579500E+01	  0.101162329	3.837000E+01
407	  0.101362728	-8.534000E+00	  0.101362728	7.398200E+01	  0.101362728	4.605300E+01	  0.101362728	3.854300E+01
408	  0.101563133	-8.532000E+00	  0.101563133	7.356500E+01	  0.101563133	4.630900E+01	  0.101563133	3.868400E+01
409	  0.101763532	-8.525000E+00	  0.101763532	7.314200E+01	  0.101763532	4.655900E+01	  0.101763532	3.885100E+01
410	  0.101963930	-8.531000E+00	  0.101963930	7.271200E+01	  0.101963930	4.684400E+01	  0.101963930	3.896400E+01
411	  0.102164328	-8.524000E+00	  0.102164328	7.224900E+01	  0.102164328	4.712700E+01	  0.102164328	3.914000E+01
412	  0.102364726	-8.508000E+00	  0.102364726	7.177000E+01	  0.102364726	4.740500E+01	  0.102364726	3.935800E+01
413	  0.102565125	-8.505000E+00	  0.102565125	7.137600E+01	  0.102565125	4.765600E+01	  0.102565125	3.949400E+01
414	  0.102765530	-8.504000E+00	  0.102765530	7.095600E+01	  0.102765530	4.793000E+01	  0.102765530	3.963100E+01
415	  0.102965929	-8.491000E+00	  0.102965929	7.046700E+01	  0.102965929	4.823100E+01	  0.102965929	3.983700E+01
416	  0.103166327	-8.483000E+00	  0.103166327	7.002600E+01	  0.103166327	4.851000E+01	  0.103166327	4.001000E+01
417	  0.103366733	-8.483000E+00	  0.103366733	6.960200E+01	  0.103366733	4.879900E+01	  0.103366733	4.013700E+01
418	  0.103567131	-8.482000E+00	  0.103567131	6.912400E+01	  0.103567131	4.912600E+01	  0.103567131	4.028600E+01
419	  0.103767529	-8.467000E+00	  0.103767529	6.865500E+01	  0.103767529	4.942300E+01	  0.103767529	4.049400E+01
420	  0.103967935	-8.459000E+00	  0.103967935	6.817500E+01	  0.103967935	4.974400E+01	  0.103967935	4.067200E+01
421	  0.104168333	-8.456000E+00	  0.104168333	6.767100E+01	  0.104168333	5.009700E+01	  0.104168333	4.083300E+01
422	  0.104368731	-8.447000E+00	  0.104368731	6.724900E+01	  0.104368731	5.038300E+01	  0.104368731	4.099600E+01
423	  0.104569137	-8.434000E+00	  0.104569137	6.669200E+01	  0.104569137	5.076300E+01	  0.104569137	4.121600E+01
424	  0.104769535	-8.430000E+00	  0.104769535	6.620400E+01	  0.104769535	5.111300E+01	  0.104769535	4.137400E+01
425	  0.104969934	-8.413000E+00	  0.104969934	6.570800E+01	  0.104969934	5.145000E+01	  0.104969934	4.159600E+01
426	  0.105170339	-8.402000E+00	  0.105170339	6.518400E+01	  0.105170339	5.182300E+01	  0.105170339	4.179600E+01
427	  0.105370738	-8.387000E+00	  0.105370738	6.463600E+01	  0.105370738	5.221400E+01	  0.105370738	4.201600E+01
428	  0.105571143	-8.385000E+00	  0.105571143	6.409900E+01	  0.105571143	5.262500E+01	  0.105571143	4.216900E+01
429	  0.105771542	-8.367000E+00	  0.105771542	6.358400E+01	  0.105771542	5.299400E+01	  0.105771542	4.240000E+01
430	  0.105971940	-8.365000E+00	  0.105971940	6.303600E+01	  0.105971940	5.342300E+01	  0.105971940	4.255200E+01
431	  0.106172346	-8.347000E+00	  0.106172346	6.247400E+01	  0.106172346	5.384300E+01	  0.106172346	4.278400E+01
432	  0.106372744	-8.335000E+00	  0.106372744	6.191900E+01	  0.106372744	5.427100E+01	  0.106372744	4.298800E+01
433	  0.106573142	-8.327000E+00	  0.106573142	6.134500E+01	  0.106573142	5.472900E+01	  0.106573142	4.317000E+01
434	  0.106773548	-8.304000E+00	  0.106773548	6.080700E+01	  0.106773548	5.514000E+01	  0.106773548	4.342500E+01
435	  0.106973946	-8.293000E+00	  0.106973946	6.021100E+01	  0.106973946	5.562500E+01	  0.106973946	4.362400E+01
436	  0.107174344	-8.281000E+00	  0.107174344	5.960900E+01	  0.107174344	5.612000E+01	  0.107174344	4.382600E+01
437	  0.107374750	-8.266000E+00	  0.107374750	5.902500E+01	  0.107374750	5.660400E+01	  0.107374750	4.403700E+01
438	  0.107575148	-8.251000E+00	  0.107575148	5.843500E+01	  0.107575148	5.710000E+01	  0.107575148	4.424900E+01
439	  0.107775547	-8.231000E+00	  0.107775547	5.782200E+01	  0.107775547	5.761800E+01	  0.107775547	4.449300E+01
440	  0.107975952	-8.221000E+00	  0.107975952	5.723200E+01	  0.107975952	5.813500E+01	  0.107975952	4.467100E+01
441	  0.108176351	-8.208000E+00	  0.108176351	5.658700E+01	  0.108176351	5.870800E+01	  0.108176351	4.486900E+01
442	  0.108376749	-8.187000E+00	  0.108376749	5.600800E+01	  0.108376749	5.921900E+01	  0.108376749	4.510500E+01
443	  0.108577155	-8.172000E+00	  0.108577155	5.535600E+01	  0.108577155	5.981400E+01	  0.108577155	4.531100E+01
444	  0.108777553	-8.157000E+00	  0.108777553	5.475600E+01	  0.108777553	6.036900E+01	  0.108777553	4.550900E+01
445	  0.108977959	-8.142000E+00	  0.108977959	5.410400E+01	  0.108977959	6.098300E+01	  0.108977959	4.570600E+01
446	  0.109178357	-8.141000E+00	  0.109178357	5.341900E+01	  0.109178357	6.165400E+01	  0.109178357	4.580800E+01
447	  0.109378755	-8.114000E+00	  0.109378755	5.279600E+01	  0.109378755	6.224800E+01	  0.109378755	4.607400E+01
448	  0.109579161	-8.103000E+00	  0.109579161	5.212000E+01	  0.109579161	6.292100E+01	  0.109579161	4.623100E+01
449	  0.109779559	-8.088000E+00	  0.109779559	5.150600E+01	  0.109779559	6.353700E+01	  0.109779559	4.639800E+01
450	  0.109979957	-8.076000E+00	  0.109979957	5.087700E+01	  0.109979957	6.418000E+01	  0.109979957	4.654300E+01
451	  0.110180363	-8.064000E+00	  0.110180363	5.013000E+01	  0.110180363	6.495800E+01	  0.110180363	4.669600E+01
452	  0.110380761	-8.048000E+00	  0.110380761	4.946200E+01	  0.110380761	6.566300E+01	  0.110380761	4.685300E+01
453	  0.110581160	-8.035000E+00	  0.110581160	4.876800E+01	  0.110581160	6.640900E+01	  0.110581160	4.698800E+01
454	  0.110781565	-8.027000E+00	  0.110781565	4.806600E+01	  0.110781565	6.717600E+01	  0.110781565	4.707500E+01
455	  0.110981964	-8.016000E+00	  0.110981964	4.739000E+01	  0.110981964	6.792600E+01	  0.110981964	4.717400E+01
456	  0.111182362	-8.006000E+00	  0.111182362	4.665700E+01	  0.111182362	6.875000E+01	  0.111182362	4.726000E+01
457	  0.111382768	-7.993000E+00	  0.111382768	4.595700E+01	  0.111382768	6.955000E+01	  0.111382768	4.735000E+01
458	  0.111583166	-7.985000E+00	  0.111583166	4.522600E+01	  0.111583166	7.039800E+01	  0.111583166	4.739300E+01
459	  0.111783572	-7.981000E+00	  0.111783572	4.445800E+01	  0.111783572	7.129900E+01	  0.111783572	4.738600E+01
460	  0.111983970	-7.970000E+00	  0.111983970	4.368700E+01	  0.111983970	7.222000E+01	  0.111983970	4.742200E+01
461	  0.112184368	-7.960000E+00	  0.112184368	4.294400E+01	  0.112184368	7.312000E+01	  0.112184368	4.743000E+01
462	  0.112384774	-7.961000E+00	  0.112384774	4.215200E+01	  0.112384774	7.408300E+01	  0.112384774	4.733100E+01
463	  0.112585172	-7.957000E+00	  0.112585172	4.136000E+01	  0.112585172	7.506200E+01	  0.112585172	4.725100E+01
464	  0.112785570	-7.958000E+00	  0.112785570	4.059300E+01	  0.112785570	7.601500E+01	  0.112785570	4.711100E+01
465	  0.112985976	-7.947000E+00	  0.112985976	3.982300E+01	  0.112985976	7.699700E+01	  0.112985976	4.704400E+01
466	  0.113186374	-7.940000E+00	  0.113186374	3.902700E+01	  0.113186374	7.802000E+01	  0.113186374	4.692300E+01
467	  0.113386773	-7.944000E+00	  0.113386773	3.826100E+01	  0.113386773	7.899600E+01	  0.113386773	4.669200E+01
468	  0.113587178	-7.945000E+00	  0.113587178	3.740200E+01	  0.113587178	8.010400E+01	  0.113587178	4.643600E+01
469	  0.113787577	-7.950000E+00	  0.113787577	3.653400E+01	  0.113787577	8.122500E+01	  0.113787577	4.610900E+01
470	  0.113987975	-7.947000E+00	  0.113987975	3.570500E+01	  0.113987975	8.232100E+01	  0.113987975	4.584100E+01
471	  0.114188381	-7.946000E+00	  0.114188381	3.485500E+01	  0.114188381	8.344500E+01	  0.114188381	4.550600E+01
472	  0.114388779	-7.954000E+00	  0.114388779	3.400900E+01	  0.114388779	8.454800E+01	  0.114388779	4.507100E+01
473	  0.114589177	-7.953000E+00	  0.114589177	3.314500E+01	  0.114589177	8.570200E+01	  0.114589177	4.466700E+01
474	  0.114789583	-7.959000E+00	  0.114789583	3.227000E+01	  0.114789583	8.685300E+01	  0.114789583	4.416200E+01
475	  0.114989981	-7.969000E+00	  0.114989981	3.140900E+01	  0.114989981	8.796600E+01	  0.114989981	4.358500E+01
476	  0.115190387	-7.980000E+00	  0.115190387	3.047900E+01	  0.115190387	8.916700E+01	  0.115190387	4.292600E+01
477	  0.115390785	-7.987000E+00	  0.115390785	2.957200E+01	  0.115390785	9.034900E+01	  0.115390785	4.227500E+01
478	  0.115591183	-8.000000E+00	  0.115591183	2.867800E+01	  0.115591183	9.147800E+01	  0.115591183	4.153400E+01
479	  0.115791589	-8.014000E+00	  0.115791589	2.771600E+01	  0.115791589	9.267600E+01	  0.115791589	4.068700E+01
480	  0.115991987	-8.032000E+00	  0.115991987	2.679900E+01	  0.115991987	9.378400E+01	  0.115991987	3.980300E+01
481	  0.116192386	-8.051000E+00	  0.116192386	2.588300E+01	  0.116192386	9.486600E+01	  0.116192386	3.886700E+01
482	  0.116392791	-8.074000E+00	  0.116392791	2.487700E+01	  0.116392791	9.601600E+01	  0.116392791	3.777300E+01
483	  0.116593190	-8.095000E+00	  0.116593190	2.392800E+01	  0.116593190	9.707300E+01	  0.116593190	3.669400E+01
484	  0.116793588	-8.116000E+00	  0.116793588	2.295000E+01	  0.116793588	9.814100E+01	  0.116793588	3.555000E+01
485	  0.116993994	-8.143000E+00	  0.116993994	2.191900E+01	  0.116993994	9.918900E+01	  0.116993994	3.425000E+01
486	  0.117194392	-8.173000E+00	  0.117194392	2.090100E+01	  0.117194392	1.001610E+02	  0.117194392	3.289700E+01
487	  0.117394790	-8.209000E+00	  0.117394790	1.987600E+01	  0.117394790	1.010460E+02	  0.117394790	3.145200E+01
488	  0.117595196	-8.238000E+00	  0.117595196	1.883300E+01	  0.117595196	1.019520E+02	  0.117595196	2.999300E+01
489	  0.117795594	-8.280000E+00	  0.117795594	1.776400E+01	  0.117795594	1.027220E+02	  0.117795594	2.837600E+01
490	  0.117995992	-8.314000E+00	  0.117995992	1.670300E+01	  0.117995992	1.034910E+02	  0.117995992	2.679300E+01
491	  0.118196398	-8.359000E+00	  0.118196398	1.559600E+01	  0.118196398	1.041380E+02	  0.118196398	2.504400E+01
492	  0.118396796	-8.398000E+00	  0.118396796	1.444500E+01	  0.118396796	1.047970E+02	  0.118396796	2.324300E+01
493	  0.118597202	-8.442000E+00	  0.118597202	1.335200E+01	  0.118597202	1.052870E+02	  0.118597202	2.147200E+01
494	  0.118797600	-8.495000E+00	  0.118797600	1.221900E+01	  0.118797600	1.056420E+02	  0.118797600	1.958600E+01
