! Anritsu VNA Master:             	Model: MS2036C/10/77
! SN:             	1601066
! /bd0/18may09/b255.ns.m1.txt
! Existing Calibration Information:
! TYPE:             	Current Settings	Active Cal Settings
! TIME:             	05/09/2018 08:42:55 PM	05/09/2018 08:37:50 PM
! INTERNAL TEMP:    	52.8 C	53.0 C
! # POINTS:         	494	494
! START FREQ:       	20.000 MHz	20.000 MHz
! STOP FREQ:        	118.797 594 MHz	118.797 594 MHz
! SOURCE POWER:     	High	High
! IFBW:             	50 Hz	50 Hz
! AVG FACTOR:       	  1 	  1 
! REF PLANE 1:      	0 mm	0 mm
! REF PLANE 2:      	0 mm	0 mm
! CAL TYPE:         	Full S22	Full S22
! CAL METHOD:       	SOLT	SOLT
! CAL LINE TYPE:    	Coax	Coax
! DUT PORT 1:       	K-Conn(M)	K-Conn(M)
! DUT PORT 2:       	K-Conn(M)	K-Conn(M)
! CAL STATUS:       	OK: Accuracy High	--
! PROP-V:       	0.700
! CABLE LOSS:       	0.000 dB/m
! REF IMPEDANCE:       	50.0
! Trace Specific Parameters:	TR1	TR2	TR3	TR4
! TRACE.#.Y (GRAPH TYPE)	LOG MAG	PHASE	REAL IMPEDANCE	IMAGINARY IMPEDANCE
! TRACE.#.X 	FREQ.GHZ	FREQ.GHZ	FREQ.GHZ	FREQ.GHZ
! S-PARAMETER	S22	S22	S22	S22
! SMOOTH/APERTURE %	0	0	0	0
! WINDOW	NSL	NSL	NSL	NSL
! GATING	OFF	OFF	OFF	OFF
! FGTD	OFF	OFF	OFF	OFF
Marker Information per Trace:	TR1	TR2	TR3	TR4
!MK1	--	"MK1 TR2:  20.000 MHz,PH:-125.62°"	--	--
!MK2	--	--	"MK2 TR3:  70.100 200 MHz,Z:(17.237 ohm, -1.398 ohm)"	--
!MK3	--	--	--	--
!MK4	--	--	--	--
!MK5	--	--	--	--
!MK6	--	--	--	--
!MK7	--	--	--	--
!MK8	--	--	--	--
PNT	TR1.FREQ.GHZ	TR1.LOG MAG.dB	TR2.FREQ.GHZ	TR2.PHASE.deg	TR3.FREQ.GHZ	TR3.REAL IMPEDANCE.ohm	TR4.FREQ.GHZ	TR4.IMAGINARY IMPEDANCE.ohm
1	  0.020000000	-6.280000E-01	  0.020000000	-1.256160E+02	  0.020000000	2.283000E+00	  0.020000000	-2.564400E+01
2	  0.020200402	-6.290000E-01	  0.020200402	-1.270600E+02	  0.020200402	2.259000E+00	  0.020200402	-2.485500E+01
3	  0.020400802	-6.330000E-01	  0.020400802	-1.285270E+02	  0.020400802	2.244000E+00	  0.020400802	-2.406200E+01
4	  0.020601204	-6.350000E-01	  0.020601204	-1.299980E+02	  0.020601204	2.224000E+00	  0.020601204	-2.327800E+01
5	  0.020801604	-6.380000E-01	  0.020801604	-1.315180E+02	  0.020801604	2.208000E+00	  0.020801604	-2.247700E+01
6	  0.021002004	-6.400000E-01	  0.021002004	-1.330250E+02	  0.021002004	2.189000E+00	  0.021002004	-2.169200E+01
7	  0.021202406	-6.420000E-01	  0.021202406	-1.345550E+02	  0.021202406	2.172000E+00	  0.021202406	-2.090400E+01
8	  0.021402806	-6.450000E-01	  0.021402806	-1.360510E+02	  0.021402806	2.158000E+00	  0.021402806	-2.014200E+01
9	  0.021603208	-6.480000E-01	  0.021603208	-1.375720E+02	  0.021603208	2.145000E+00	  0.021603208	-1.937600E+01
10	  0.021803608	-6.510000E-01	  0.021803608	-1.390960E+02	  0.021803608	2.134000E+00	  0.021803608	-1.861600E+01
11	  0.022004008	-6.550000E-01	  0.022004008	-1.406110E+02	  0.022004008	2.127000E+00	  0.022004008	-1.786800E+01
12	  0.022204408	-6.630000E-01	  0.022204408	-1.421530E+02	  0.022204408	2.133000E+00	  0.022204408	-1.711300E+01
13	  0.022404809	-6.680000E-01	  0.022404809	-1.437120E+02	  0.022404809	2.128000E+00	  0.022404809	-1.635700E+01
14	  0.022605211	-6.700000E-01	  0.022605211	-1.453060E+02	  0.022605211	2.115000E+00	  0.022605211	-1.559200E+01
15	  0.022805611	-6.740000E-01	  0.022805611	-1.468770E+02	  0.022805611	2.110000E+00	  0.022805611	-1.484400E+01
16	  0.023006011	-6.780000E-01	  0.023006011	-1.484650E+02	  0.023006011	2.107000E+00	  0.023006011	-1.409400E+01
17	  0.023206413	-6.810000E-01	  0.023206413	-1.500320E+02	  0.023206413	2.101000E+00	  0.023206413	-1.336000E+01
18	  0.023406813	-6.880000E-01	  0.023406813	-1.515970E+02	  0.023406813	2.106000E+00	  0.023406813	-1.263100E+01
19	  0.023607215	-6.950000E-01	  0.023607215	-1.531820E+02	  0.023607215	2.115000E+00	  0.023607215	-1.189900E+01
20	  0.023807615	-7.030000E-01	  0.023807615	-1.547940E+02	  0.023807615	2.126000E+00	  0.023807615	-1.115900E+01
21	  0.024008015	-7.110000E-01	  0.024008015	-1.564160E+02	  0.024008015	2.134000E+00	  0.024008015	-1.041900E+01
22	  0.024208417	-7.180000E-01	  0.024208417	-1.580590E+02	  0.024208417	2.144000E+00	  0.024208417	-9.674000E+00
23	  0.024408817	-7.240000E-01	  0.024408817	-1.597120E+02	  0.024408817	2.150000E+00	  0.024408817	-8.929000E+00
24	  0.024609219	-7.300000E-01	  0.024609219	-1.613600E+02	  0.024609219	2.159000E+00	  0.024609219	-8.190000E+00
25	  0.024809619	-7.390000E-01	  0.024809619	-1.630110E+02	  0.024809619	2.175000E+00	  0.024809619	-7.453000E+00
26	  0.025010020	-7.490000E-01	  0.025010020	-1.646700E+02	  0.025010020	2.195000E+00	  0.025010020	-6.716000E+00
27	  0.025210422	-7.600000E-01	  0.025210422	-1.663430E+02	  0.025210422	2.218000E+00	  0.025210422	-5.975000E+00
28	  0.025410822	-7.710000E-01	  0.025410822	-1.680230E+02	  0.025410822	2.242000E+00	  0.025410822	-5.234000E+00
29	  0.025611224	-7.810000E-01	  0.025611224	-1.697140E+02	  0.025611224	2.266000E+00	  0.025611224	-4.490000E+00
30	  0.025811624	-7.930000E-01	  0.025811624	-1.714220E+02	  0.025811624	2.295000E+00	  0.025811624	-3.741000E+00
31	  0.026012026	-8.040000E-01	  0.026012026	-1.731370E+02	  0.026012026	2.322000E+00	  0.026012026	-2.991000E+00
32	  0.026212426	-8.150000E-01	  0.026212426	-1.748600E+02	  0.026212426	2.351000E+00	  0.026212426	-2.239000E+00
33	  0.026412826	-8.290000E-01	  0.026412826	-1.765940E+02	  0.026412826	2.388000E+00	  0.026412826	-1.483000E+00
34	  0.026613226	-8.430000E-01	  0.026613226	-1.783340E+02	  0.026613226	2.427000E+00	  0.026613226	-7.240000E-01
35	  0.026813626	-8.570000E-01	  0.026813626	1.799130E+02	  0.026813626	2.466000E+00	  0.026813626	3.700000E-02
36	  0.027014028	-8.740000E-01	  0.027014028	1.781570E+02	  0.027014028	2.516000E+00	  0.027014028	8.020000E-01
37	  0.027214428	-8.900000E-01	  0.027214428	1.763970E+02	  0.027214428	2.564000E+00	  0.027214428	1.568000E+00
38	  0.027414829	-9.060000E-01	  0.027414829	1.746280E+02	  0.027414829	2.612000E+00	  0.027414829	2.339000E+00
39	  0.027615231	-9.230000E-01	  0.027615231	1.728380E+02	  0.027615231	2.665000E+00	  0.027615231	3.120000E+00
40	  0.027815631	-9.420000E-01	  0.027815631	1.710360E+02	  0.027815631	2.726000E+00	  0.027815631	3.907000E+00
41	  0.028016033	-9.600000E-01	  0.028016033	1.692340E+02	  0.028016033	2.785000E+00	  0.028016033	4.696000E+00
42	  0.028216433	-9.810000E-01	  0.028216433	1.674050E+02	  0.028216433	2.857000E+00	  0.028216433	5.499000E+00
43	  0.028416833	-1.002000E+00	  0.028416833	1.655880E+02	  0.028416833	2.929000E+00	  0.028416833	6.300000E+00
44	  0.028617235	-1.023000E+00	  0.028617235	1.637580E+02	  0.028617235	3.001000E+00	  0.028617235	7.109000E+00
45	  0.028817635	-1.045000E+00	  0.028817635	1.619270E+02	  0.028817635	3.082000E+00	  0.028817635	7.921000E+00
46	  0.029018037	-1.069000E+00	  0.029018037	1.600810E+02	  0.029018037	3.169000E+00	  0.029018037	8.745000E+00
47	  0.029218437	-1.095000E+00	  0.029218437	1.582270E+02	  0.029218437	3.265000E+00	  0.029218437	9.576000E+00
48	  0.029418837	-1.122000E+00	  0.029418837	1.563660E+02	  0.029418837	3.367000E+00	  0.029418837	1.041500E+01
49	  0.029619239	-1.149000E+00	  0.029619239	1.544840E+02	  0.029619239	3.472000E+00	  0.029619239	1.126900E+01
50	  0.029819639	-1.175000E+00	  0.029819639	1.526060E+02	  0.029819639	3.578000E+00	  0.029819639	1.212600E+01
51	  0.030020041	-1.205000E+00	  0.030020041	1.507060E+02	  0.030020041	3.698000E+00	  0.030020041	1.300000E+01
52	  0.030220442	-1.233000E+00	  0.030220442	1.488120E+02	  0.030220442	3.818000E+00	  0.030220442	1.387800E+01
53	  0.030420844	-1.263000E+00	  0.030420844	1.469230E+02	  0.030420844	3.948000E+00	  0.030420844	1.476100E+01
54	  0.030621244	-1.294000E+00	  0.030621244	1.450320E+02	  0.030621244	4.085000E+00	  0.030621244	1.565300E+01
55	  0.030821642	-1.327000E+00	  0.030821642	1.431230E+02	  0.030821642	4.233000E+00	  0.030821642	1.656200E+01
56	  0.031022044	-1.360000E+00	  0.031022044	1.412040E+02	  0.031022044	4.389000E+00	  0.031022044	1.748400E+01
57	  0.031222444	-1.386000E+00	  0.031222444	1.393090E+02	  0.031222444	4.525000E+00	  0.031222444	1.840600E+01
58	  0.031422846	-1.422000E+00	  0.031422846	1.373580E+02	  0.031422846	4.702000E+00	  0.031422846	1.936500E+01
59	  0.031623244	-1.456000E+00	  0.031623244	1.354050E+02	  0.031623244	4.879000E+00	  0.031623244	2.033600E+01
60	  0.031823646	-1.491000E+00	  0.031823646	1.334690E+02	  0.031823646	5.068000E+00	  0.031823646	2.131000E+01
61	  0.032024048	-1.527000E+00	  0.032024048	1.315060E+02	  0.032024048	5.267000E+00	  0.032024048	2.231100E+01
62	  0.032224450	-1.565000E+00	  0.032224450	1.295580E+02	  0.032224450	5.481000E+00	  0.032224450	2.331800E+01
63	  0.032424849	-1.605000E+00	  0.032424849	1.276000E+02	  0.032424849	5.712000E+00	  0.032424849	2.434300E+01
64	  0.032625251	-1.642000E+00	  0.032625251	1.256140E+02	  0.032625251	5.944000E+00	  0.032625251	2.540000E+01
65	  0.032825653	-1.680000E+00	  0.032825653	1.236210E+02	  0.032825653	6.189000E+00	  0.032825653	2.647700E+01
66	  0.033026051	-1.718000E+00	  0.033026051	1.215990E+02	  0.033026051	6.450000E+00	  0.033026051	2.758800E+01
67	  0.033226453	-1.755000E+00	  0.033226453	1.195940E+02	  0.033226453	6.719000E+00	  0.033226453	2.870900E+01
68	  0.033426855	-1.795000E+00	  0.033426855	1.175910E+02	  0.033426855	7.011000E+00	  0.033426855	2.984800E+01
69	  0.033627257	-1.833000E+00	  0.033627257	1.155840E+02	  0.033627257	7.313000E+00	  0.033627257	3.101100E+01
70	  0.033827655	-1.876000E+00	  0.033827655	1.135640E+02	  0.033827655	7.647000E+00	  0.033827655	3.220200E+01
71	  0.034028057	-1.917000E+00	  0.034028057	1.115480E+02	  0.034028057	7.996000E+00	  0.034028057	3.341400E+01
72	  0.034228459	-1.959000E+00	  0.034228459	1.095000E+02	  0.034228459	8.370000E+00	  0.034228459	3.467100E+01
73	  0.034428857	-2.002000E+00	  0.034428857	1.074580E+02	  0.034428857	8.767000E+00	  0.034428857	3.595000E+01
74	  0.034629259	-2.050000E+00	  0.034629259	1.053930E+02	  0.034629259	9.208000E+00	  0.034629259	3.726900E+01
75	  0.034829661	-2.093000E+00	  0.034829661	1.033200E+02	  0.034829661	9.661000E+00	  0.034829661	3.862700E+01
76	  0.035030060	-2.142000E+00	  0.035030060	1.012660E+02	  0.035030060	1.016100E+01	  0.035030060	3.999900E+01
77	  0.035230462	-2.188000E+00	  0.035230462	9.919400E+01	  0.035230462	1.068600E+01	  0.035230462	4.141700E+01
78	  0.035430863	-2.236000E+00	  0.035430863	9.711800E+01	  0.035430863	1.124900E+01	  0.035430863	4.287200E+01
79	  0.035631265	-2.286000E+00	  0.035631265	9.504400E+01	  0.035631265	1.185700E+01	  0.035631265	4.435900E+01
80	  0.035831664	-2.338000E+00	  0.035831664	9.296800E+01	  0.035831664	1.251900E+01	  0.035831664	4.588300E+01
81	  0.036032066	-2.390000E+00	  0.036032066	9.088200E+01	  0.036032066	1.322700E+01	  0.036032066	4.745500E+01
82	  0.036232468	-2.441000E+00	  0.036232468	8.879200E+01	  0.036232468	1.397600E+01	  0.036232468	4.907200E+01
83	  0.036432866	-2.494000E+00	  0.036432866	8.670500E+01	  0.036432866	1.479000E+01	  0.036432866	5.072600E+01
84	  0.036633268	-2.546000E+00	  0.036633268	8.461300E+01	  0.036633268	1.565900E+01	  0.036633268	5.243200E+01
85	  0.036833670	-2.599000E+00	  0.036833670	8.251400E+01	  0.036833670	1.659900E+01	  0.036833670	5.418900E+01
86	  0.037034072	-2.659000E+00	  0.037034072	8.041600E+01	  0.037034072	1.765200E+01	  0.037034072	5.597800E+01
87	  0.037234470	-2.713000E+00	  0.037234470	7.832900E+01	  0.037234470	1.874200E+01	  0.037234470	5.781800E+01
88	  0.037434869	-2.770000E+00	  0.037434869	7.623800E+01	  0.037434869	1.994200E+01	  0.037434869	5.970300E+01
89	  0.037635271	-2.827000E+00	  0.037635271	7.415500E+01	  0.037635271	2.122900E+01	  0.037635271	6.163100E+01
90	  0.037835669	-2.889000E+00	  0.037835669	7.204900E+01	  0.037835669	2.265900E+01	  0.037835669	6.362000E+01
91	  0.038036071	-2.946000E+00	  0.038036071	6.996000E+01	  0.038036071	2.416200E+01	  0.038036071	6.565800E+01
92	  0.038236473	-3.006000E+00	  0.038236473	6.785800E+01	  0.038236473	2.582500E+01	  0.038236473	6.774700E+01
93	  0.038436871	-3.065000E+00	  0.038436871	6.576600E+01	  0.038436871	2.761100E+01	  0.038436871	6.987800E+01
94	  0.038637273	-3.124000E+00	  0.038637273	6.366600E+01	  0.038637273	2.955600E+01	  0.038637273	7.206400E+01
95	  0.038837675	-3.184000E+00	  0.038837675	6.157700E+01	  0.038837675	3.166100E+01	  0.038837675	7.428100E+01
96	  0.039038073	-3.241000E+00	  0.039038073	5.951600E+01	  0.039038073	3.390500E+01	  0.039038073	7.651400E+01
97	  0.039238475	-3.298000E+00	  0.039238475	5.743900E+01	  0.039238475	3.636000E+01	  0.039238475	7.880200E+01
98	  0.039438877	-3.356000E+00	  0.039438877	5.539000E+01	  0.039438877	3.901500E+01	  0.039438877	8.107000E+01
99	  0.039639279	-3.414000E+00	  0.039639279	5.332300E+01	  0.039639279	4.192200E+01	  0.039639279	8.337800E+01
100	  0.039839678	-3.469000E+00	  0.039839678	5.122400E+01	  0.039839678	4.511600E+01	  0.039839678	8.574700E+01
101	  0.040040080	-3.528000E+00	  0.040040080	4.916400E+01	  0.040040080	4.857600E+01	  0.040040080	8.802000E+01
102	  0.040240481	-3.584000E+00	  0.040240481	4.708700E+01	  0.040240481	5.234500E+01	  0.040240481	9.030700E+01
103	  0.040440880	-3.638000E+00	  0.040440880	4.502000E+01	  0.040440880	5.642400E+01	  0.040440880	9.254100E+01
104	  0.040641282	-3.692000E+00	  0.040641282	4.297300E+01	  0.040641282	6.083000E+01	  0.040641282	9.465500E+01
105	  0.040841684	-3.749000E+00	  0.040841684	4.092800E+01	  0.040841684	6.564300E+01	  0.040841684	9.660100E+01
106	  0.041042086	-3.803000E+00	  0.041042086	3.891000E+01	  0.041042086	7.078700E+01	  0.041042086	9.835900E+01
107	  0.041242484	-3.861000E+00	  0.041242484	3.685000E+01	  0.041242484	7.649400E+01	  0.041242484	9.987000E+01
108	  0.041442886	-3.913000E+00	  0.041442886	3.479800E+01	  0.041442886	8.259700E+01	  0.041442886	1.011580E+02
109	  0.041643288	-3.967000E+00	  0.041643288	3.274300E+01	  0.041643288	8.919600E+01	  0.041643288	1.020370E+02
110	  0.041843686	-4.020000E+00	  0.041843686	3.069500E+01	  0.041843686	9.624000E+01	  0.041843686	1.024300E+02
111	  0.042044088	-4.072000E+00	  0.042044088	2.864100E+01	  0.042044088	1.037580E+02	  0.042044088	1.022810E+02
112	  0.042244490	-4.122000E+00	  0.042244490	2.661800E+01	  0.042244490	1.115800E+02	  0.042244490	1.014830E+02
113	  0.042444889	-4.174000E+00	  0.042444889	2.460200E+01	  0.042444889	1.197310E+02	  0.042444889	9.982300E+01
114	  0.042645290	-4.228000E+00	  0.042645290	2.259200E+01	  0.042645290	1.281090E+02	  0.042645290	9.721200E+01
115	  0.042845692	-4.280000E+00	  0.042845692	2.058100E+01	  0.042845692	1.366330E+02	  0.042845692	9.363600E+01
116	  0.043046094	-4.329000E+00	  0.043046094	1.855300E+01	  0.043046094	1.452410E+02	  0.043046094	8.898700E+01
117	  0.043246493	-4.378000E+00	  0.043246493	1.654900E+01	  0.043246493	1.535360E+02	  0.043246493	8.317900E+01
118	  0.043446895	-4.426000E+00	  0.043446895	1.453600E+01	  0.043446895	1.614920E+02	  0.043446895	7.619700E+01
119	  0.043647297	-4.472000E+00	  0.043647297	1.255000E+01	  0.043647297	1.687170E+02	  0.043647297	6.814300E+01
120	  0.043847695	-4.522000E+00	  0.043847695	1.056600E+01	  0.043847695	1.749680E+02	  0.043847695	5.891600E+01
121	  0.044048097	-4.568000E+00	  0.044048097	8.584000E+00	  0.044048097	1.802230E+02	  0.044048097	4.886000E+01
122	  0.044248499	-4.616000E+00	  0.044248499	6.611000E+00	  0.044248499	1.840870E+02	  0.044248499	3.806100E+01
123	  0.044448901	-4.661000E+00	  0.044448901	4.657000E+00	  0.044448901	1.866090E+02	  0.044448901	2.692300E+01
124	  0.044649299	-4.708000E+00	  0.044649299	2.700000E+00	  0.044649299	1.875920E+02	  0.044649299	1.553500E+01
125	  0.044849701	-4.752000E+00	  0.044849701	7.730000E-01	  0.044849701	1.871930E+02	  0.044849701	4.396000E+00
126	  0.045050103	-4.798000E+00	  0.045050103	-1.160000E+00	  0.045050103	1.853570E+02	  0.045050103	-6.462000E+00
127	  0.045250501	-4.841000E+00	  0.045250501	-3.116000E+00	  0.045250501	1.823180E+02	  0.045250501	-1.689100E+01
128	  0.045450903	-4.882000E+00	  0.045450903	-5.035000E+00	  0.045450903	1.783110E+02	  0.045450903	-2.642900E+01
129	  0.045651305	-4.923000E+00	  0.045651305	-6.945000E+00	  0.045651305	1.734070E+02	  0.045651305	-3.508700E+01
130	  0.045851704	-4.964000E+00	  0.045851704	-8.852000E+00	  0.045851704	1.677780E+02	  0.045851704	-4.279900E+01
131	  0.046052102	-5.006000E+00	  0.046052102	-1.074600E+01	  0.046052102	1.616740E+02	  0.046052102	-4.951600E+01
132	  0.046252504	-5.044000E+00	  0.046252504	-1.260600E+01	  0.046252504	1.553940E+02	  0.046252504	-5.523500E+01
133	  0.046452906	-5.084000E+00	  0.046452906	-1.448800E+01	  0.046452906	1.488260E+02	  0.046452906	-6.011000E+01
134	  0.046653304	-5.124000E+00	  0.046653304	-1.636400E+01	  0.046653304	1.422300E+02	  0.046653304	-6.413900E+01
135	  0.046853706	-5.163000E+00	  0.046853706	-1.820600E+01	  0.046853706	1.357810E+02	  0.046853706	-6.732200E+01
136	  0.047054108	-5.198000E+00	  0.047054108	-2.007700E+01	  0.047054108	1.294160E+02	  0.047054108	-6.997500E+01
137	  0.047254506	-5.235000E+00	  0.047254506	-2.193000E+01	  0.047254506	1.232580E+02	  0.047254506	-7.193400E+01
138	  0.047454908	-5.271000E+00	  0.047454908	-2.375800E+01	  0.047454908	1.174010E+02	  0.047454908	-7.335100E+01
139	  0.047655310	-5.305000E+00	  0.047655310	-2.557600E+01	  0.047655310	1.118250E+02	  0.047655310	-7.432400E+01
140	  0.047855709	-5.338000E+00	  0.047855709	-2.739000E+01	  0.047855709	1.065190E+02	  0.047855709	-7.491800E+01
141	  0.048056111	-5.369000E+00	  0.048056111	-2.918000E+01	  0.048056111	1.015420E+02	  0.048056111	-7.519700E+01
142	  0.048256513	-5.406000E+00	  0.048256513	-3.097500E+01	  0.048256513	9.680300E+01	  0.048256513	-7.510500E+01
143	  0.048456915	-5.436000E+00	  0.048456915	-3.275000E+01	  0.048456915	9.237900E+01	  0.048456915	-7.486700E+01
144	  0.048657313	-5.462000E+00	  0.048657313	-3.454100E+01	  0.048657313	8.816300E+01	  0.048657313	-7.447200E+01
145	  0.048857715	-5.488000E+00	  0.048857715	-3.633300E+01	  0.048857715	8.418100E+01	  0.048857715	-7.392100E+01
146	  0.049058117	-5.517000E+00	  0.049058117	-3.810200E+01	  0.049058117	8.048200E+01	  0.049058117	-7.315400E+01
147	  0.049258515	-5.538000E+00	  0.049258515	-3.985200E+01	  0.049258515	7.701800E+01	  0.049258515	-7.239000E+01
148	  0.049458917	-5.566000E+00	  0.049458917	-4.160600E+01	  0.049458917	7.376400E+01	  0.049458917	-7.143100E+01
149	  0.049659319	-5.590000E+00	  0.049659319	-4.332100E+01	  0.049659319	7.075900E+01	  0.049659319	-7.045800E+01
150	  0.049859721	-5.615000E+00	  0.049859721	-4.505800E+01	  0.049859721	6.789300E+01	  0.049859721	-6.939900E+01
151	  0.050060119	-5.637000E+00	  0.050060119	-4.674200E+01	  0.050060119	6.527100E+01	  0.050060119	-6.833600E+01
152	  0.050260521	-5.659000E+00	  0.050260521	-4.847300E+01	  0.050260521	6.272600E+01	  0.050260521	-6.720700E+01
153	  0.050460923	-5.678000E+00	  0.050460923	-5.017400E+01	  0.050460923	6.035700E+01	  0.050460923	-6.609700E+01
154	  0.050661322	-5.697000E+00	  0.050661322	-5.187000E+01	  0.050661322	5.813400E+01	  0.050661322	-6.495000E+01
155	  0.050861724	-5.713000E+00	  0.050861724	-5.353500E+01	  0.050861724	5.605800E+01	  0.050861724	-6.383300E+01
156	  0.051062126	-5.735000E+00	  0.051062126	-5.521200E+01	  0.051062126	5.410800E+01	  0.051062126	-6.263900E+01
157	  0.051262524	-5.755000E+00	  0.051262524	-5.686300E+01	  0.051262524	5.228700E+01	  0.051262524	-6.147200E+01
158	  0.051462926	-5.773000E+00	  0.051462926	-5.850900E+01	  0.051462926	5.055800E+01	  0.051462926	-6.032400E+01
159	  0.051663328	-5.787000E+00	  0.051663328	-6.012200E+01	  0.051663328	4.894500E+01	  0.051663328	-5.921200E+01
160	  0.051863730	-5.807000E+00	  0.051863730	-6.175900E+01	  0.051863730	4.741500E+01	  0.051863730	-5.804700E+01
161	  0.052064128	-5.821000E+00	  0.052064128	-6.336000E+01	  0.052064128	4.597200E+01	  0.052064128	-5.695000E+01
162	  0.052264530	-5.835000E+00	  0.052264530	-6.496900E+01	  0.052264530	4.459400E+01	  0.052264530	-5.585000E+01
163	  0.052464932	-5.847000E+00	  0.052464932	-6.658100E+01	  0.052464932	4.327900E+01	  0.052464932	-5.476000E+01
164	  0.052665330	-5.862000E+00	  0.052665330	-6.815400E+01	  0.052665330	4.207000E+01	  0.052665330	-5.368700E+01
165	  0.052865732	-5.876000E+00	  0.052865732	-6.970000E+01	  0.052865732	4.093700E+01	  0.052865732	-5.264300E+01
166	  0.053066134	-5.891000E+00	  0.053066134	-7.125500E+01	  0.053066134	3.985600E+01	  0.053066134	-5.159900E+01
167	  0.053266536	-5.909000E+00	  0.053266536	-7.279900E+01	  0.053266536	3.884700E+01	  0.053266536	-5.055500E+01
168	  0.053466935	-5.921000E+00	  0.053466935	-7.432800E+01	  0.053466935	3.787200E+01	  0.053466935	-4.955800E+01
169	  0.053667337	-5.932000E+00	  0.053667337	-7.586000E+01	  0.053667337	3.693400E+01	  0.053667337	-4.857500E+01
170	  0.053867739	-5.941000E+00	  0.053867739	-7.739900E+01	  0.053867739	3.602900E+01	  0.053867739	-4.760100E+01
171	  0.054068137	-5.954000E+00	  0.054068137	-7.890800E+01	  0.054068137	3.519800E+01	  0.054068137	-4.664100E+01
172	  0.054268539	-5.963000E+00	  0.054268539	-8.042500E+01	  0.054268539	3.438300E+01	  0.054268539	-4.570200E+01
173	  0.054468941	-5.979000E+00	  0.054468941	-8.190100E+01	  0.054468941	3.364900E+01	  0.054468941	-4.477400E+01
174	  0.054669335	-5.988000E+00	  0.054669335	-8.337600E+01	  0.054669335	3.292600E+01	  0.054669335	-4.387900E+01
175	  0.054869737	-6.001000E+00	  0.054869737	-8.486000E+01	  0.054869737	3.224200E+01	  0.054869737	-4.297600E+01
176	  0.055070139	-6.010000E+00	  0.055070139	-8.633200E+01	  0.055070139	3.157900E+01	  0.055070139	-4.210200E+01
177	  0.055270538	-6.020000E+00	  0.055270538	-8.777700E+01	  0.055270538	3.096100E+01	  0.055270538	-4.124800E+01
178	  0.055470940	-6.028000E+00	  0.055470940	-8.923100E+01	  0.055470940	3.035600E+01	  0.055470940	-4.040600E+01
179	  0.055671342	-6.034000E+00	  0.055671342	-9.068400E+01	  0.055671342	2.976800E+01	  0.055671342	-3.957900E+01
180	  0.055871744	-6.041000E+00	  0.055871744	-9.212100E+01	  0.055871744	2.921100E+01	  0.055871744	-3.876800E+01
181	  0.056072142	-6.050000E+00	  0.056072142	-9.354700E+01	  0.056072142	2.869100E+01	  0.056072142	-3.796600E+01
182	  0.056272544	-6.057000E+00	  0.056272544	-9.497500E+01	  0.056272544	2.818500E+01	  0.056272544	-3.717500E+01
183	  0.056472946	-6.066000E+00	  0.056472946	-9.635700E+01	  0.056472946	2.771900E+01	  0.056472946	-3.641300E+01
184	  0.056673344	-6.072000E+00	  0.056673344	-9.774700E+01	  0.056673344	2.726100E+01	  0.056673344	-3.566000E+01
185	  0.056873746	-6.079000E+00	  0.056873746	-9.912600E+01	  0.056873746	2.682600E+01	  0.056873746	-3.491900E+01
186	  0.057074148	-6.084000E+00	  0.057074148	-1.005170E+02	  0.057074148	2.639600E+01	  0.057074148	-3.418400E+01
187	  0.057274550	-6.085000E+00	  0.057274550	-1.018900E+02	  0.057274550	2.597600E+01	  0.057274550	-3.347200E+01
188	  0.057474948	-6.092000E+00	  0.057474948	-1.032730E+02	  0.057474948	2.558600E+01	  0.057474948	-3.275200E+01
189	  0.057675350	-6.098000E+00	  0.057675350	-1.046190E+02	  0.057675350	2.522100E+01	  0.057675350	-3.205700E+01
190	  0.057875752	-6.103000E+00	  0.057875752	-1.059670E+02	  0.057875752	2.486100E+01	  0.057875752	-3.137200E+01
191	  0.058076151	-6.107000E+00	  0.058076151	-1.073120E+02	  0.058076151	2.451600E+01	  0.058076151	-3.069400E+01
192	  0.058276553	-6.112000E+00	  0.058276553	-1.086250E+02	  0.058276553	2.419500E+01	  0.058276553	-3.003700E+01
193	  0.058476955	-6.115000E+00	  0.058476955	-1.099520E+02	  0.058476955	2.387200E+01	  0.058476955	-2.938300E+01
194	  0.058677353	-6.122000E+00	  0.058677353	-1.112800E+02	  0.058677353	2.357400E+01	  0.058677353	-2.872700E+01
195	  0.058877755	-6.121000E+00	  0.058877755	-1.125920E+02	  0.058877755	2.326800E+01	  0.058877755	-2.809700E+01
196	  0.059078157	-6.120000E+00	  0.059078157	-1.139080E+02	  0.059078157	2.296800E+01	  0.059078157	-2.747000E+01
197	  0.059278559	-6.125000E+00	  0.059278559	-1.152030E+02	  0.059278559	2.270400E+01	  0.059278559	-2.684800E+01
198	  0.059478957	-6.127000E+00	  0.059478957	-1.165090E+02	  0.059478957	2.243900E+01	  0.059478957	-2.623100E+01
199	  0.059679359	-6.129000E+00	  0.059679359	-1.177840E+02	  0.059679359	2.218800E+01	  0.059679359	-2.563300E+01
200	  0.059879761	-6.132000E+00	  0.059879761	-1.190480E+02	  0.059879761	2.195000E+01	  0.059879761	-2.504300E+01
201	  0.060080159	-6.136000E+00	  0.060080159	-1.203080E+02	  0.060080159	2.172400E+01	  0.060080159	-2.445900E+01
202	  0.060280561	-6.141000E+00	  0.060280561	-1.215800E+02	  0.060280561	2.150600E+01	  0.060280561	-2.387200E+01
203	  0.060480963	-6.143000E+00	  0.060480963	-1.228520E+02	  0.060480963	2.128900E+01	  0.060480963	-2.329300E+01
204	  0.060681365	-6.142000E+00	  0.060681365	-1.240880E+02	  0.060681365	2.107600E+01	  0.060681365	-2.273700E+01
205	  0.060881764	-6.144000E+00	  0.060881764	-1.253400E+02	  0.060881764	2.087600E+01	  0.060881764	-2.217500E+01
206	  0.061082166	-6.146000E+00	  0.061082166	-1.265930E+02	  0.061082166	2.068300E+01	  0.061082166	-2.161500E+01
207	  0.061282568	-6.149000E+00	  0.061282568	-1.278240E+02	  0.061282568	2.050100E+01	  0.061282568	-2.106900E+01
208	  0.061482966	-6.149000E+00	  0.061482966	-1.290540E+02	  0.061482966	2.032000E+01	  0.061482966	-2.052900E+01
209	  0.061683368	-6.153000E+00	  0.061683368	-1.302680E+02	  0.061683368	2.015800E+01	  0.061683368	-1.999500E+01
210	  0.061883770	-6.157000E+00	  0.061883770	-1.314780E+02	  0.061883770	2.000100E+01	  0.061883770	-1.946600E+01
211	  0.062084168	-6.160000E+00	  0.062084168	-1.326920E+02	  0.062084168	1.984800E+01	  0.062084168	-1.894000E+01
212	  0.062284570	-6.159000E+00	  0.062284570	-1.339000E+02	  0.062284570	1.968800E+01	  0.062284570	-1.842300E+01
213	  0.062484972	-6.147000E+00	  0.062484972	-1.350540E+02	  0.062484972	1.951300E+01	  0.062484972	-1.793900E+01
214	  0.062685370	-6.151000E+00	  0.062685370	-1.362460E+02	  0.062685370	1.937900E+01	  0.062685370	-1.743000E+01
215	  0.062885776	-6.151000E+00	  0.062885776	-1.374300E+02	  0.062885776	1.924200E+01	  0.062885776	-1.693000E+01
216	  0.063086174	-6.153000E+00	  0.063086174	-1.386060E+02	  0.063086174	1.911600E+01	  0.063086174	-1.643300E+01
217	  0.063286573	-6.155000E+00	  0.063286573	-1.397820E+02	  0.063286573	1.899600E+01	  0.063286573	-1.593900E+01
218	  0.063486971	-6.153000E+00	  0.063486971	-1.409080E+02	  0.063486971	1.887400E+01	  0.063486971	-1.547100E+01
219	  0.063687377	-6.154000E+00	  0.063687377	-1.420740E+02	  0.063687377	1.875800E+01	  0.063687377	-1.498700E+01
220	  0.063887775	-6.156000E+00	  0.063887775	-1.432360E+02	  0.063887775	1.865200E+01	  0.063887775	-1.450600E+01
221	  0.064088173	-6.157000E+00	  0.064088173	-1.443850E+02	  0.064088173	1.855100E+01	  0.064088173	-1.403200E+01
222	  0.064288579	-6.159000E+00	  0.064288579	-1.455340E+02	  0.064288579	1.845200E+01	  0.064288579	-1.356000E+01
223	  0.064488977	-6.160000E+00	  0.064488977	-1.466830E+02	  0.064488977	1.835700E+01	  0.064488977	-1.309000E+01
224	  0.064689375	-6.163000E+00	  0.064689375	-1.477980E+02	  0.064689375	1.827200E+01	  0.064689375	-1.263600E+01
225	  0.064889781	-6.165000E+00	  0.064889781	-1.489260E+02	  0.064889781	1.818900E+01	  0.064889781	-1.217700E+01
226	  0.065090179	-6.170000E+00	  0.065090179	-1.500620E+02	  0.065090179	1.811700E+01	  0.065090179	-1.171600E+01
227	  0.065290578	-6.171000E+00	  0.065290578	-1.511480E+02	  0.065290578	1.804000E+01	  0.065290578	-1.127900E+01
228	  0.065490983	-6.169000E+00	  0.065490983	-1.522870E+02	  0.065490983	1.795700E+01	  0.065490983	-1.082300E+01
229	  0.065691382	-6.169000E+00	  0.065691382	-1.533910E+02	  0.065691382	1.788200E+01	  0.065691382	-1.038100E+01
230	  0.065891780	-6.174000E+00	  0.065891780	-1.544930E+02	  0.065891780	1.782600E+01	  0.065891780	-9.940000E+00
231	  0.066092186	-6.174000E+00	  0.066092186	-1.555990E+02	  0.066092186	1.776100E+01	  0.066092186	-9.500000E+00
232	  0.066292584	-6.176000E+00	  0.066292584	-1.566790E+02	  0.066292584	1.770200E+01	  0.066292584	-9.071000E+00
233	  0.066492982	-6.181000E+00	  0.066492982	-1.577810E+02	  0.066492982	1.765400E+01	  0.066492982	-8.634000E+00
234	  0.066693388	-6.182000E+00	  0.066693388	-1.588690E+02	  0.066693388	1.760300E+01	  0.066693388	-8.204000E+00
235	  0.066893786	-6.187000E+00	  0.066893786	-1.599160E+02	  0.066893786	1.756300E+01	  0.066893786	-7.790000E+00
236	  0.067094192	-6.192000E+00	  0.067094192	-1.609910E+02	  0.067094192	1.752600E+01	  0.067094192	-7.367000E+00
237	  0.067294590	-6.192000E+00	  0.067294590	-1.620420E+02	  0.067294590	1.748200E+01	  0.067294590	-6.955000E+00
238	  0.067494988	-6.192000E+00	  0.067494988	-1.631220E+02	  0.067494988	1.743600E+01	  0.067494988	-6.533000E+00
239	  0.067695394	-6.198000E+00	  0.067695394	-1.641390E+02	  0.067695394	1.741300E+01	  0.067695394	-6.134000E+00
240	  0.067895792	-6.199000E+00	  0.067895792	-1.651890E+02	  0.067895792	1.737600E+01	  0.067895792	-5.725000E+00
241	  0.068096191	-6.201000E+00	  0.068096191	-1.662400E+02	  0.068096191	1.734800E+01	  0.068096191	-5.315000E+00
242	  0.068296596	-6.206000E+00	  0.068296596	-1.672790E+02	  0.068296596	1.732700E+01	  0.068296596	-4.911000E+00
243	  0.068496995	-6.211000E+00	  0.068496995	-1.682770E+02	  0.068496995	1.731200E+01	  0.068496995	-4.523000E+00
244	  0.068697393	-6.212000E+00	  0.068697393	-1.693200E+02	  0.068697393	1.728600E+01	  0.068697393	-4.119000E+00
245	  0.068897791	-6.212000E+00	  0.068897791	-1.703560E+02	  0.068897791	1.726300E+01	  0.068897791	-3.718000E+00
246	  0.069098189	-6.215000E+00	  0.069098189	-1.713750E+02	  0.069098189	1.724800E+01	  0.069098189	-3.323000E+00
247	  0.069298595	-6.221000E+00	  0.069298595	-1.723780E+02	  0.069298595	1.724600E+01	  0.069298595	-2.935000E+00
248	  0.069498993	-6.223000E+00	  0.069498993	-1.734000E+02	  0.069498993	1.723300E+01	  0.069498993	-2.541000E+00
249	  0.069699399	-6.229000E+00	  0.069699399	-1.744120E+02	  0.069699399	1.723400E+01	  0.069699399	-2.150000E+00
250	  0.069899797	-6.232000E+00	  0.069899797	-1.753810E+02	  0.069899797	1.723100E+01	  0.069899797	-1.777000E+00
251	  0.070100196	-6.238000E+00	  0.070100196	-1.763650E+02	  0.070100196	1.723600E+01	  0.070100196	-1.398000E+00
252	  0.070300601	-6.241000E+00	  0.070300601	-1.773490E+02	  0.070300601	1.723600E+01	  0.070300601	-1.019000E+00
253	  0.070501000	-6.243000E+00	  0.070501000	-1.783370E+02	  0.070501000	1.723700E+01	  0.070501000	-6.390000E-01
254	  0.070701398	-6.247000E+00	  0.070701398	-1.793210E+02	  0.070701398	1.724400E+01	  0.070701398	-2.600000E-01
255	  0.070901804	-6.246000E+00	  0.070901804	1.797210E+02	  0.070901804	1.724200E+01	  0.070901804	1.070000E-01
256	  0.071102202	-6.256000E+00	  0.071102202	1.787420E+02	  0.071102202	1.726900E+01	  0.071102202	4.830000E-01
257	  0.071302600	-6.261000E+00	  0.071302600	1.777580E+02	  0.071302600	1.728600E+01	  0.071302600	8.610000E-01
258	  0.071503006	-6.268000E+00	  0.071503006	1.768030E+02	  0.071503006	1.730900E+01	  0.071503006	1.228000E+00
259	  0.071703404	-6.275000E+00	  0.071703404	1.758380E+02	  0.071703404	1.733600E+01	  0.071703404	1.598000E+00
260	  0.071903802	-6.280000E+00	  0.071903802	1.748300E+02	  0.071903802	1.735800E+01	  0.071903802	1.985000E+00
261	  0.072104208	-6.283000E+00	  0.072104208	1.739000E+02	  0.072104208	1.737900E+01	  0.072104208	2.342000E+00
262	  0.072304606	-6.286000E+00	  0.072304606	1.729380E+02	  0.072304606	1.740200E+01	  0.072304606	2.712000E+00
263	  0.072505005	-6.296000E+00	  0.072505005	1.719990E+02	  0.072505005	1.744400E+01	  0.072505005	3.072000E+00
264	  0.072705410	-6.303000E+00	  0.072705410	1.710430E+02	  0.072705410	1.747900E+01	  0.072705410	3.440000E+00
265	  0.072905809	-6.307000E+00	  0.072905809	1.700960E+02	  0.072905809	1.751000E+01	  0.072905809	3.804000E+00
266	  0.073106214	-6.313000E+00	  0.073106214	1.691490E+02	  0.073106214	1.754900E+01	  0.073106214	4.168000E+00
267	  0.073306613	-6.320000E+00	  0.073306613	1.682210E+02	  0.073306613	1.759100E+01	  0.073306613	4.525000E+00
268	  0.073507011	-6.327000E+00	  0.073507011	1.672570E+02	  0.073507011	1.763800E+01	  0.073507011	4.895000E+00
269	  0.073707417	-6.334000E+00	  0.073707417	1.663190E+02	  0.073707417	1.768500E+01	  0.073707417	5.256000E+00
270	  0.073907815	-6.339000E+00	  0.073907815	1.653870E+02	  0.073907815	1.773000E+01	  0.073907815	5.616000E+00
271	  0.074108213	-6.347000E+00	  0.074108213	1.644670E+02	  0.074108213	1.778100E+01	  0.074108213	5.970000E+00
272	  0.074308619	-6.352000E+00	  0.074308619	1.635300E+02	  0.074308619	1.783000E+01	  0.074308619	6.332000E+00
273	  0.074509017	-6.360000E+00	  0.074509017	1.625960E+02	  0.074509017	1.789000E+01	  0.074509017	6.692000E+00
274	  0.074709415	-6.369000E+00	  0.074709415	1.616920E+02	  0.074709415	1.795000E+01	  0.074709415	7.041000E+00
275	  0.074909821	-6.376000E+00	  0.074909821	1.607430E+02	  0.074909821	1.801300E+01	  0.074909821	7.408000E+00
276	  0.075110219	-6.385000E+00	  0.075110219	1.598230E+02	  0.075110219	1.808000E+01	  0.075110219	7.763000E+00
277	  0.075310618	-6.391000E+00	  0.075310618	1.589160E+02	  0.075310618	1.814100E+01	  0.075310618	8.115000E+00
278	  0.075511023	-6.394000E+00	  0.075511023	1.580360E+02	  0.075511023	1.819300E+01	  0.075511023	8.458000E+00
279	  0.075711422	-6.402000E+00	  0.075711422	1.571360E+02	  0.075711422	1.826400E+01	  0.075711422	8.808000E+00
280	  0.075911827	-6.413000E+00	  0.075911827	1.562260E+02	  0.075911827	1.834400E+01	  0.075911827	9.160000E+00
281	  0.076112226	-6.423000E+00	  0.076112226	1.553360E+02	  0.076112226	1.842500E+01	  0.076112226	9.505000E+00
282	  0.076312624	-6.429000E+00	  0.076312624	1.544260E+02	  0.076312624	1.849700E+01	  0.076312624	9.861000E+00
283	  0.076513030	-6.443000E+00	  0.076513030	1.535400E+02	  0.076513030	1.859100E+01	  0.076513030	1.020400E+01
284	  0.076713428	-6.453000E+00	  0.076713428	1.526620E+02	  0.076713428	1.867600E+01	  0.076713428	1.054600E+01
285	  0.076913826	-6.460000E+00	  0.076913826	1.517750E+02	  0.076913826	1.875600E+01	  0.076913826	1.089300E+01
286	  0.077114232	-6.472000E+00	  0.077114232	1.508980E+02	  0.077114232	1.885000E+01	  0.077114232	1.123400E+01
287	  0.077314630	-6.479000E+00	  0.077314630	1.500500E+02	  0.077314630	1.893200E+01	  0.077314630	1.156800E+01
288	  0.077515028	-6.492000E+00	  0.077515028	1.491760E+02	  0.077515028	1.903600E+01	  0.077515028	1.190800E+01
289	  0.077715434	-6.505000E+00	  0.077715434	1.483090E+02	  0.077715434	1.913800E+01	  0.077715434	1.224700E+01
290	  0.077915832	-6.511000E+00	  0.077915832	1.474570E+02	  0.077915832	1.922600E+01	  0.077915832	1.258300E+01
291	  0.078116231	-6.525000E+00	  0.078116231	1.466090E+02	  0.078116231	1.933600E+01	  0.078116231	1.291400E+01
292	  0.078316636	-6.536000E+00	  0.078316636	1.457010E+02	  0.078316636	1.944600E+01	  0.078316636	1.327200E+01
293	  0.078517035	-6.548000E+00	  0.078517035	1.448740E+02	  0.078517035	1.955200E+01	  0.078517035	1.359600E+01
294	  0.078717433	-6.562000E+00	  0.078717433	1.440290E+02	  0.078717433	1.966900E+01	  0.078717433	1.392800E+01
295	  0.078917839	-6.574000E+00	  0.078917839	1.431920E+02	  0.078917839	1.978300E+01	  0.078917839	1.425700E+01
296	  0.079118237	-6.588000E+00	  0.079118237	1.423520E+02	  0.079118237	1.990400E+01	  0.079118237	1.458700E+01
297	  0.079318643	-6.604000E+00	  0.079318643	1.415220E+02	  0.079318643	2.003200E+01	  0.079318643	1.491200E+01
298	  0.079519041	-6.617000E+00	  0.079519041	1.406760E+02	  0.079519041	2.015400E+01	  0.079519041	1.524700E+01
299	  0.079719439	-6.631000E+00	  0.079719439	1.398600E+02	  0.079719439	2.028200E+01	  0.079719439	1.556800E+01
300	  0.079919845	-6.646000E+00	  0.079919845	1.390280E+02	  0.079919845	2.041500E+01	  0.079919845	1.589600E+01
301	  0.080120243	-6.660000E+00	  0.080120243	1.381750E+02	  0.080120243	2.055100E+01	  0.080120243	1.623300E+01
302	  0.080320641	-6.675000E+00	  0.080320641	1.373570E+02	  0.080320641	2.068700E+01	  0.080320641	1.655700E+01
303	  0.080521047	-6.693000E+00	  0.080521047	1.365570E+02	  0.080521047	2.083300E+01	  0.080521047	1.687000E+01
304	  0.080721445	-6.709000E+00	  0.080721445	1.357150E+02	  0.080721445	2.098100E+01	  0.080721445	1.720300E+01
305	  0.080921844	-6.724000E+00	  0.080921844	1.349280E+02	  0.080921844	2.112400E+01	  0.080921844	1.751300E+01
306	  0.081122249	-6.740000E+00	  0.081122249	1.341450E+02	  0.081122249	2.126800E+01	  0.081122249	1.782300E+01
307	  0.081322648	-6.761000E+00	  0.081322648	1.333280E+02	  0.081322648	2.143600E+01	  0.081322648	1.814200E+01
308	  0.081523046	-6.773000E+00	  0.081523046	1.325100E+02	  0.081523046	2.158200E+01	  0.081523046	1.846900E+01
309	  0.081723452	-6.792000E+00	  0.081723452	1.317100E+02	  0.081723452	2.174400E+01	  0.081723452	1.878400E+01
310	  0.081923850	-6.805000E+00	  0.081923850	1.309150E+02	  0.081923850	2.189400E+01	  0.081923850	1.910300E+01
311	  0.082124248	-6.823000E+00	  0.082124248	1.301360E+02	  0.082124248	2.205900E+01	  0.082124248	1.941000E+01
312	  0.082324654	-6.836000E+00	  0.082324654	1.293410E+02	  0.082324654	2.221700E+01	  0.082324654	1.972800E+01
313	  0.082525052	-6.853000E+00	  0.082525052	1.285790E+02	  0.082525052	2.238200E+01	  0.082525052	2.002900E+01
314	  0.082725458	-6.876000E+00	  0.082725458	1.278170E+02	  0.082725458	2.256600E+01	  0.082725458	2.032500E+01
315	  0.082925856	-6.895000E+00	  0.082925856	1.270310E+02	  0.082925856	2.274600E+01	  0.082925856	2.063500E+01
316	  0.083126254	-6.914000E+00	  0.083126254	1.262380E+02	  0.083126254	2.292900E+01	  0.083126254	2.094900E+01
317	  0.083326660	-6.929000E+00	  0.083326660	1.254680E+02	  0.083326660	2.310300E+01	  0.083326660	2.125600E+01
318	  0.083527058	-6.950000E+00	  0.083527058	1.247100E+02	  0.083527058	2.329300E+01	  0.083527058	2.155200E+01
319	  0.083727457	-6.971000E+00	  0.083727457	1.239580E+02	  0.083727457	2.348200E+01	  0.083727457	2.184600E+01
320	  0.083927862	-6.990000E+00	  0.083927862	1.231820E+02	  0.083927862	2.367700E+01	  0.083927862	2.215200E+01
321	  0.084128261	-7.011000E+00	  0.084128261	1.224500E+02	  0.084128261	2.387000E+01	  0.084128261	2.243800E+01
322	  0.084328659	-7.030000E+00	  0.084328659	1.216910E+02	  0.084328659	2.406800E+01	  0.084328659	2.273600E+01
323	  0.084529065	-7.053000E+00	  0.084529065	1.209560E+02	  0.084529065	2.427600E+01	  0.084529065	2.301900E+01
324	  0.084729463	-7.069000E+00	  0.084729463	1.202090E+02	  0.084729463	2.446600E+01	  0.084729463	2.331700E+01
325	  0.084929854	-7.098000E+00	  0.084929854	1.194700E+02	  0.084929854	2.469700E+01	  0.084929854	2.359400E+01
326	  0.085130259	-7.111000E+00	  0.085130259	1.187160E+02	  0.085130259	2.488800E+01	  0.085130259	2.389900E+01
327	  0.085330658	-7.135000E+00	  0.085330658	1.179850E+02	  0.085330658	2.510900E+01	  0.085330658	2.417900E+01
328	  0.085531056	-7.155000E+00	  0.085531056	1.172270E+02	  0.085531056	2.532900E+01	  0.085531056	2.447500E+01
329	  0.085731462	-7.178000E+00	  0.085731462	1.165020E+02	  0.085731462	2.555200E+01	  0.085731462	2.475300E+01
330	  0.085931860	-7.199000E+00	  0.085931860	1.157810E+02	  0.085931860	2.577200E+01	  0.085931860	2.503200E+01
331	  0.086132258	-7.222000E+00	  0.086132258	1.151040E+02	  0.086132258	2.599200E+01	  0.086132258	2.528800E+01
332	  0.086332664	-7.242000E+00	  0.086332664	1.143760E+02	  0.086332664	2.621600E+01	  0.086332664	2.557200E+01
333	  0.086533062	-7.270000E+00	  0.086533062	1.136750E+02	  0.086533062	2.646200E+01	  0.086533062	2.582900E+01
334	  0.086733460	-7.287000E+00	  0.086733460	1.129600E+02	  0.086733460	2.668300E+01	  0.086733460	2.611000E+01
335	  0.086933866	-7.312000E+00	  0.086933866	1.122860E+02	  0.086933866	2.691900E+01	  0.086933866	2.636100E+01
336	  0.087134264	-7.330000E+00	  0.087134264	1.115770E+02	  0.087134264	2.714900E+01	  0.087134264	2.663600E+01
337	  0.087334670	-7.357000E+00	  0.087334670	1.108890E+02	  0.087334670	2.740100E+01	  0.087334670	2.688800E+01
338	  0.087535068	-7.380000E+00	  0.087535068	1.102250E+02	  0.087535068	2.763700E+01	  0.087535068	2.713600E+01
339	  0.087735467	-7.406000E+00	  0.087735467	1.095590E+02	  0.087735467	2.788800E+01	  0.087735467	2.737700E+01
340	  0.087935872	-7.432000E+00	  0.087935872	1.088990E+02	  0.087935872	2.813900E+01	  0.087935872	2.761600E+01
341	  0.088136271	-7.453000E+00	  0.088136271	1.082260E+02	  0.088136271	2.838400E+01	  0.088136271	2.786800E+01
342	  0.088336669	-7.477000E+00	  0.088336669	1.075590E+02	  0.088336669	2.863800E+01	  0.088336669	2.811100E+01
343	  0.088537075	-7.495000E+00	  0.088537075	1.069090E+02	  0.088537075	2.887400E+01	  0.088537075	2.835800E+01
344	  0.088737473	-7.518000E+00	  0.088737473	1.062630E+02	  0.088737473	2.912500E+01	  0.088737473	2.859300E+01
345	  0.088937871	-7.543000E+00	  0.088937871	1.056070E+02	  0.088937871	2.938600E+01	  0.088937871	2.882800E+01
346	  0.089138277	-7.565000E+00	  0.089138277	1.049970E+02	  0.089138277	2.963100E+01	  0.089138277	2.904700E+01
347	  0.089338675	-7.587000E+00	  0.089338675	1.043660E+02	  0.089338675	2.988600E+01	  0.089338675	2.927400E+01
348	  0.089539073	-7.619000E+00	  0.089539073	1.037610E+02	  0.089539073	3.016200E+01	  0.089539073	2.946900E+01
349	  0.089739479	-7.643000E+00	  0.089739479	1.031540E+02	  0.089739479	3.041900E+01	  0.089739479	2.968000E+01
350	  0.089939877	-7.668000E+00	  0.089939877	1.025330E+02	  0.089939877	3.068700E+01	  0.089939877	2.989400E+01
351	  0.090140276	-7.686000E+00	  0.090140276	1.019170E+02	  0.090140276	3.093900E+01	  0.090140276	3.011800E+01
352	  0.090340681	-7.717000E+00	  0.090340681	1.013360E+02	  0.090340681	3.121500E+01	  0.090340681	3.030000E+01
353	  0.090541080	-7.741000E+00	  0.090541080	1.007020E+02	  0.090541080	3.149400E+01	  0.090541080	3.051700E+01
354	  0.090741485	-7.769000E+00	  0.090741485	1.001660E+02	  0.090741485	3.175400E+01	  0.090741485	3.068200E+01
355	  0.090941884	-7.794000E+00	  0.090941884	9.959300E+01	  0.090941884	3.202000E+01	  0.090941884	3.087000E+01
356	  0.091142282	-7.824000E+00	  0.091142282	9.899400E+01	  0.091142282	3.231300E+01	  0.091142282	3.105300E+01
357	  0.091342688	-7.854000E+00	  0.091342688	9.838800E+01	  0.091342688	3.260900E+01	  0.091342688	3.124000E+01
358	  0.091543086	-7.876000E+00	  0.091543086	9.781200E+01	  0.091543086	3.287600E+01	  0.091543086	3.143000E+01
359	  0.091743484	-7.904000E+00	  0.091743484	9.723600E+01	  0.091743484	3.316200E+01	  0.091743484	3.160500E+01
360	  0.091943890	-7.926000E+00	  0.091943890	9.666100E+01	  0.091943890	3.343500E+01	  0.091943890	3.179200E+01
361	  0.092144288	-7.956000E+00	  0.092144288	9.608700E+01	  0.092144288	3.373200E+01	  0.092144288	3.195800E+01
362	  0.092344686	-7.972000E+00	  0.092344686	9.547800E+01	  0.092344686	3.400700E+01	  0.092344686	3.217000E+01
363	  0.092545092	-8.004000E+00	  0.092545092	9.494200E+01	  0.092545092	3.430000E+01	  0.092545092	3.231100E+01
364	  0.092745490	-8.027000E+00	  0.092745490	9.442000E+01	  0.092745490	3.456700E+01	  0.092745490	3.246600E+01
365	  0.092945889	-8.053000E+00	  0.092945889	9.384700E+01	  0.092945889	3.486300E+01	  0.092945889	3.263500E+01
366	  0.093146294	-8.078000E+00	  0.093146294	9.331000E+01	  0.093146294	3.514400E+01	  0.093146294	3.279000E+01
367	  0.093346693	-8.103000E+00	  0.093346693	9.277300E+01	  0.093346693	3.542900E+01	  0.093346693	3.294200E+01
368	  0.093547091	-8.123000E+00	  0.093547091	9.219800E+01	  0.093547091	3.571800E+01	  0.093547091	3.312100E+01
369	  0.093747497	-8.146000E+00	  0.093747497	9.168900E+01	  0.093747497	3.599200E+01	  0.093747497	3.326200E+01
370	  0.093947895	-8.170000E+00	  0.093947895	9.115900E+01	  0.093947895	3.627900E+01	  0.093947895	3.340800E+01
371	  0.094148301	-8.196000E+00	  0.094148301	9.062700E+01	  0.094148301	3.657400E+01	  0.094148301	3.355000E+01
372	  0.094348699	-8.220000E+00	  0.094348699	9.013000E+01	  0.094348699	3.685000E+01	  0.094348699	3.368000E+01
373	  0.094549097	-8.241000E+00	  0.094549097	8.963600E+01	  0.094549097	3.712000E+01	  0.094549097	3.381600E+01
374	  0.094749503	-8.265000E+00	  0.094749503	8.913100E+01	  0.094749503	3.740700E+01	  0.094749503	3.394300E+01
375	  0.094949901	-8.282000E+00	  0.094949901	8.863000E+01	  0.094949901	3.767300E+01	  0.094949901	3.409100E+01
376	  0.095150299	-8.301000E+00	  0.095150299	8.814400E+01	  0.095150299	3.794100E+01	  0.095150299	3.422400E+01
377	  0.095350705	-8.319000E+00	  0.095350705	8.764200E+01	  0.095350705	3.821600E+01	  0.095350705	3.436500E+01
378	  0.095551103	-8.344000E+00	  0.095551103	8.717400E+01	  0.095551103	3.849500E+01	  0.095551103	3.447000E+01
379	  0.095751502	-8.361000E+00	  0.095751502	8.667000E+01	  0.095751502	3.877300E+01	  0.095751502	3.461200E+01
380	  0.095951907	-8.377000E+00	  0.095951907	8.620200E+01	  0.095951907	3.903300E+01	  0.095951907	3.474100E+01
381	  0.096152306	-8.401000E+00	  0.096152306	8.574200E+01	  0.096152306	3.931200E+01	  0.096152306	3.484000E+01
382	  0.096352704	-8.412000E+00	  0.096352704	8.526600E+01	  0.096352704	3.957000E+01	  0.096352704	3.498300E+01
383	  0.096553110	-8.425000E+00	  0.096553110	8.480900E+01	  0.096553110	3.982400E+01	  0.096553110	3.511400E+01
384	  0.096753508	-8.441000E+00	  0.096753508	8.439200E+01	  0.096753508	4.006800E+01	  0.096753508	3.521800E+01
385	  0.096953906	-8.458000E+00	  0.096953906	8.392200E+01	  0.096953906	4.034300E+01	  0.096953906	3.533600E+01
386	  0.097154312	-8.475000E+00	  0.097154312	8.345200E+01	  0.097154312	4.061800E+01	  0.097154312	3.545500E+01
387	  0.097354710	-8.484000E+00	  0.097354710	8.302900E+01	  0.097354710	4.085300E+01	  0.097354710	3.558000E+01
388	  0.097555116	-8.495000E+00	  0.097555116	8.256900E+01	  0.097555116	4.111400E+01	  0.097555116	3.571100E+01
389	  0.097755514	-8.512000E+00	  0.097755514	8.213900E+01	  0.097755514	4.137800E+01	  0.097755514	3.580800E+01
390	  0.097955912	-8.524000E+00	  0.097955912	8.169800E+01	  0.097955912	4.163500E+01	  0.097955912	3.592500E+01
391	  0.098156318	-8.532000E+00	  0.098156318	8.127300E+01	  0.098156318	4.187700E+01	  0.098156318	3.605000E+01
392	  0.098356716	-8.541000E+00	  0.098356716	8.084200E+01	  0.098356716	4.212600E+01	  0.098356716	3.617300E+01
393	  0.098557115	-8.555000E+00	  0.098557115	8.040400E+01	  0.098557115	4.239200E+01	  0.098557115	3.628000E+01
394	  0.098757520	-8.561000E+00	  0.098757520	7.992000E+01	  0.098757520	4.266700E+01	  0.098757520	3.642800E+01
395	  0.098957919	-8.564000E+00	  0.098957919	7.950400E+01	  0.098957919	4.290100E+01	  0.098957919	3.656200E+01
396	  0.099158317	-8.565000E+00	  0.099158317	7.904100E+01	  0.099158317	4.315800E+01	  0.099158317	3.672000E+01
397	  0.099358723	-8.572000E+00	  0.099358723	7.861200E+01	  0.099358723	4.341300E+01	  0.099358723	3.684100E+01
398	  0.099559121	-8.578000E+00	  0.099559121	7.817600E+01	  0.099559121	4.367100E+01	  0.099559121	3.696800E+01
399	  0.099759519	-8.579000E+00	  0.099759519	7.775100E+01	  0.099759519	4.391300E+01	  0.099759519	3.711100E+01
400	  0.099959925	-8.574000E+00	  0.099959925	7.737500E+01	  0.099959925	4.411700E+01	  0.099959925	3.725700E+01
401	  0.100160323	-8.579000E+00	  0.100160323	7.695300E+01	  0.100160323	4.437200E+01	  0.100160323	3.737900E+01
402	  0.100360721	-8.577000E+00	  0.100360721	7.650400E+01	  0.100360721	4.462900E+01	  0.100360721	3.753900E+01
403	  0.100561127	-8.577000E+00	  0.100561127	7.604800E+01	  0.100561127	4.489700E+01	  0.100561127	3.769000E+01
404	  0.100761525	-8.565000E+00	  0.100761525	7.559100E+01	  0.100761525	4.514100E+01	  0.100761525	3.789100E+01
405	  0.100961931	-8.571000E+00	  0.100961931	7.518800E+01	  0.100961931	4.539700E+01	  0.100961931	3.799800E+01
406	  0.101162329	-8.564000E+00	  0.101162329	7.476300E+01	  0.101162329	4.563900E+01	  0.101162329	3.816400E+01
407	  0.101362728	-8.561000E+00	  0.101362728	7.428900E+01	  0.101362728	4.592200E+01	  0.101362728	3.833200E+01
408	  0.101563133	-8.558000E+00	  0.101563133	7.388800E+01	  0.101563133	4.616200E+01	  0.101563133	3.847600E+01
409	  0.101763532	-8.546000E+00	  0.101763532	7.340800E+01	  0.101763532	4.643600E+01	  0.101763532	3.868000E+01
410	  0.101963930	-8.555000E+00	  0.101963930	7.298900E+01	  0.101963930	4.671800E+01	  0.101963930	3.877700E+01
411	  0.102164328	-8.545000E+00	  0.102164328	7.250200E+01	  0.102164328	4.700800E+01	  0.102164328	3.897200E+01
412	  0.102364726	-8.531000E+00	  0.102364726	7.203400E+01	  0.102364726	4.727900E+01	  0.102364726	3.918000E+01
413	  0.102565125	-8.528000E+00	  0.102565125	7.162000E+01	  0.102565125	4.754200E+01	  0.102565125	3.932100E+01
414	  0.102765530	-8.524000E+00	  0.102765530	7.117700E+01	  0.102765530	4.782500E+01	  0.102765530	3.947500E+01
415	  0.102965929	-8.513000E+00	  0.102965929	7.071600E+01	  0.102965929	4.810900E+01	  0.102965929	3.966300E+01
416	  0.103166327	-8.504000E+00	  0.103166327	7.026100E+01	  0.103166327	4.839500E+01	  0.103166327	3.984400E+01
417	  0.103366733	-8.501000E+00	  0.103366733	6.979600E+01	  0.103366733	4.870300E+01	  0.103366733	3.999900E+01
418	  0.103567131	-8.500000E+00	  0.103567131	6.932800E+01	  0.103567131	4.902100E+01	  0.103567131	4.014500E+01
419	  0.103767529	-8.484000E+00	  0.103767529	6.884700E+01	  0.103767529	4.932200E+01	  0.103767529	4.035900E+01
420	  0.103967935	-8.477000E+00	  0.103967935	6.838400E+01	  0.103967935	4.963200E+01	  0.103967935	4.052600E+01
421	  0.104168333	-8.471000E+00	  0.104168333	6.789600E+01	  0.104168333	4.996500E+01	  0.104168333	4.069600E+01
422	  0.104368731	-8.462000E+00	  0.104368731	6.745600E+01	  0.104368731	5.026100E+01	  0.104368731	4.086700E+01
423	  0.104569137	-8.457000E+00	  0.104569137	6.691100E+01	  0.104569137	5.064500E+01	  0.104569137	4.104600E+01
424	  0.104769535	-8.444000E+00	  0.104769535	6.641000E+01	  0.104769535	5.098700E+01	  0.104769535	4.125000E+01
425	  0.104969934	-8.435000E+00	  0.104969934	6.591500E+01	  0.104969934	5.133600E+01	  0.104969934	4.143000E+01
426	  0.105170339	-8.420000E+00	  0.105170339	6.544600E+01	  0.105170339	5.165900E+01	  0.105170339	4.163300E+01
427	  0.105370738	-8.416000E+00	  0.105370738	6.487700E+01	  0.105370738	5.208200E+01	  0.105370738	4.180700E+01
428	  0.105571143	-8.402000E+00	  0.105571143	6.438500E+01	  0.105571143	5.243300E+01	  0.105571143	4.200900E+01
429	  0.105771542	-8.388000E+00	  0.105771542	6.385100E+01	  0.105771542	5.282100E+01	  0.105771542	4.222300E+01
430	  0.105971940	-8.382000E+00	  0.105971940	6.332500E+01	  0.105971940	5.322300E+01	  0.105971940	4.238900E+01
431	  0.106172346	-8.370000E+00	  0.106172346	6.274900E+01	  0.106172346	5.366100E+01	  0.106172346	4.259400E+01
432	  0.106372744	-8.355000E+00	  0.106372744	6.222300E+01	  0.106372744	5.405800E+01	  0.106372744	4.280400E+01
433	  0.106573142	-8.348000E+00	  0.106573142	6.166800E+01	  0.106573142	5.449800E+01	  0.106573142	4.297800E+01
434	  0.106773548	-8.332000E+00	  0.106773548	6.110100E+01	  0.106773548	5.493900E+01	  0.106773548	4.320000E+01
435	  0.106973946	-8.320000E+00	  0.106973946	6.052000E+01	  0.106973946	5.540500E+01	  0.106973946	4.340100E+01
436	  0.107174344	-8.308000E+00	  0.107174344	5.992400E+01	  0.107174344	5.589200E+01	  0.107174344	4.360000E+01
437	  0.107374750	-8.294000E+00	  0.107374750	5.936000E+01	  0.107374750	5.635400E+01	  0.107374750	4.380600E+01
438	  0.107575148	-8.274000E+00	  0.107575148	5.875900E+01	  0.107575148	5.684800E+01	  0.107575148	4.404800E+01
439	  0.107775547	-8.266000E+00	  0.107775547	5.817600E+01	  0.107775547	5.734900E+01	  0.107775547	4.421500E+01
440	  0.107975952	-8.256000E+00	  0.107975952	5.755400E+01	  0.107975952	5.789000E+01	  0.107975952	4.440200E+01
441	  0.108176351	-8.245000E+00	  0.108176351	5.695200E+01	  0.108176351	5.842000E+01	  0.108176351	4.457800E+01
442	  0.108376749	-8.229000E+00	  0.108376749	5.640200E+01	  0.108376749	5.890300E+01	  0.108376749	4.477800E+01
443	  0.108577155	-8.219000E+00	  0.108577155	5.573100E+01	  0.108577155	5.951400E+01	  0.108577155	4.495900E+01
444	  0.108777553	-8.195000E+00	  0.108777553	5.512600E+01	  0.108777553	6.005700E+01	  0.108777553	4.520600E+01
445	  0.108977959	-8.190000E+00	  0.108977959	5.446700E+01	  0.108977959	6.068000E+01	  0.108977959	4.534500E+01
446	  0.109178357	-8.177000E+00	  0.109178357	5.383500E+01	  0.109178357	6.128000E+01	  0.109178357	4.551700E+01
447	  0.109378755	-8.164000E+00	  0.109378755	5.318100E+01	  0.109378755	6.190900E+01	  0.109378755	4.569100E+01
448	  0.109579161	-8.154000E+00	  0.109579161	5.251200E+01	  0.109579161	6.256500E+01	  0.109579161	4.584500E+01
449	  0.109779559	-8.134000E+00	  0.109779559	5.186900E+01	  0.109779559	6.319900E+01	  0.109779559	4.604800E+01
450	  0.109979957	-8.130000E+00	  0.109979957	5.124000E+01	  0.109979957	6.383900E+01	  0.109979957	4.614400E+01
451	  0.110180363	-8.115000E+00	  0.110180363	5.050900E+01	  0.110180363	6.458800E+01	  0.110180363	4.630700E+01
452	  0.110380761	-8.100000E+00	  0.110380761	4.983000E+01	  0.110380761	6.529400E+01	  0.110380761	4.646700E+01
453	  0.110581160	-8.096000E+00	  0.110581160	4.912200E+01	  0.110581160	6.604700E+01	  0.110581160	4.653400E+01
454	  0.110781565	-8.080000E+00	  0.110781565	4.843900E+01	  0.110781565	6.678100E+01	  0.110781565	4.667800E+01
455	  0.110981964	-8.074000E+00	  0.110981964	4.774200E+01	  0.110981964	6.754300E+01	  0.110981964	4.674200E+01
456	  0.111182362	-8.066000E+00	  0.111182362	4.700500E+01	  0.111182362	6.836000E+01	  0.111182362	4.681500E+01
457	  0.111382768	-8.055000E+00	  0.111382768	4.630900E+01	  0.111382768	6.914200E+01	  0.111382768	4.689200E+01
458	  0.111583166	-8.049000E+00	  0.111583166	4.557700E+01	  0.111583166	6.997700E+01	  0.111583166	4.692000E+01
459	  0.111783572	-8.043000E+00	  0.111783572	4.482400E+01	  0.111783572	7.084800E+01	  0.111783572	4.692700E+01
460	  0.111983970	-8.034000E+00	  0.111983970	4.406200E+01	  0.111983970	7.174100E+01	  0.111983970	4.695200E+01
461	  0.112184368	-8.032000E+00	  0.112184368	4.329600E+01	  0.112184368	7.264900E+01	  0.112184368	4.689900E+01
462	  0.112384774	-8.030000E+00	  0.112384774	4.250900E+01	  0.112384774	7.359100E+01	  0.112384774	4.682300E+01
463	  0.112585172	-8.028000E+00	  0.112585172	4.175300E+01	  0.112585172	7.450700E+01	  0.112585172	4.673100E+01
464	  0.112785570	-8.029000E+00	  0.112785570	4.093500E+01	  0.112785570	7.550700E+01	  0.112785570	4.659400E+01
465	  0.112985976	-8.020000E+00	  0.112985976	4.021600E+01	  0.112985976	7.640500E+01	  0.112985976	4.652900E+01
466	  0.113186374	-8.016000E+00	  0.113186374	3.940500E+01	  0.113186374	7.742200E+01	  0.113186374	4.638100E+01
467	  0.113386773	-8.021000E+00	  0.113386773	3.857400E+01	  0.113386773	7.846000E+01	  0.113386773	4.613500E+01
468	  0.113587178	-8.019000E+00	  0.113587178	3.777000E+01	  0.113587178	7.948200E+01	  0.113587178	4.591800E+01
469	  0.113787577	-8.027000E+00	  0.113787577	3.687600E+01	  0.113787577	8.061000E+01	  0.113787577	4.557000E+01
470	  0.113987975	-8.021000E+00	  0.113987975	3.603700E+01	  0.113987975	8.170300E+01	  0.113987975	4.532400E+01
471	  0.114188381	-8.023000E+00	  0.114188381	3.519200E+01	  0.114188381	8.279600E+01	  0.114188381	4.498400E+01
472	  0.114388779	-8.030000E+00	  0.114388779	3.432600E+01	  0.114388779	8.390300E+01	  0.114388779	4.455400E+01
473	  0.114589177	-8.035000E+00	  0.114589177	3.346300E+01	  0.114589177	8.501600E+01	  0.114589177	4.410600E+01
474	  0.114789583	-8.041000E+00	  0.114789583	3.259600E+01	  0.114789583	8.613100E+01	  0.114789583	4.361700E+01
475	  0.114989981	-8.055000E+00	  0.114989981	3.174000E+01	  0.114989981	8.720400E+01	  0.114989981	4.302900E+01
476	  0.115190387	-8.063000E+00	  0.115190387	3.079100E+01	  0.115190387	8.841400E+01	  0.115190387	4.239500E+01
477	  0.115390785	-8.068000E+00	  0.115390785	2.990300E+01	  0.115390785	8.955100E+01	  0.115390785	4.178300E+01
478	  0.115591183	-8.088000E+00	  0.115591183	2.899700E+01	  0.115591183	9.064100E+01	  0.115591183	4.099600E+01
479	  0.115791589	-8.099000E+00	  0.115791589	2.801700E+01	  0.115791589	9.185900E+01	  0.115791589	4.019400E+01
480	  0.115991987	-8.119000E+00	  0.115991987	2.709600E+01	  0.115991987	9.293700E+01	  0.115991987	3.930800E+01
481	  0.116192386	-8.135000E+00	  0.116192386	2.617700E+01	  0.116192386	9.401300E+01	  0.116192386	3.841100E+01
482	  0.116392791	-8.153000E+00	  0.116392791	2.517900E+01	  0.116392791	9.516200E+01	  0.116392791	3.739300E+01
483	  0.116593190	-8.179000E+00	  0.116593190	2.422800E+01	  0.116593190	9.617200E+01	  0.116593190	3.630300E+01
484	  0.116793588	-8.199000E+00	  0.116793588	2.324600E+01	  0.116793588	9.722900E+01	  0.116793588	3.518800E+01
485	  0.116993994	-8.224000E+00	  0.116993994	2.221000E+01	  0.116993994	9.828100E+01	  0.116993994	3.393300E+01
486	  0.117194392	-8.257000E+00	  0.117194392	2.118200E+01	  0.117194392	9.922600E+01	  0.117194392	3.258000E+01
487	  0.117394790	-8.286000E+00	  0.117394790	2.016700E+01	  0.117394790	1.001360E+02	  0.117394790	3.122900E+01
488	  0.117595196	-8.318000E+00	  0.117595196	1.913700E+01	  0.117595196	1.009970E+02	  0.117595196	2.980400E+01
489	  0.117795594	-8.360000E+00	  0.117795594	1.806900E+01	  0.117795594	1.017570E+02	  0.117795594	2.822500E+01
490	  0.117995992	-8.396000E+00	  0.117995992	1.702900E+01	  0.117995992	1.024770E+02	  0.117995992	2.669100E+01
491	  0.118196398	-8.438000E+00	  0.118196398	1.591300E+01	  0.118196398	1.031520E+02	  0.118196398	2.499000E+01
492	  0.118396796	-8.480000E+00	  0.118396796	1.479500E+01	  0.118396796	1.037640E+02	  0.118396796	2.326500E+01
493	  0.118597202	-8.522000E+00	  0.118597202	1.370300E+01	  0.118597202	1.042690E+02	  0.118597202	2.154700E+01
494	  0.118797600	-8.578000E+00	  0.118797600	1.255000E+01	  0.118797600	1.046210E+02	  0.118797600	1.966100E+01
