! Anritsu VNA Master:             	Model: MS2036C/10/77
! SN:             	1601066
! /bd0/18may09/b255.ns.m2.txt
! Existing Calibration Information:
! TYPE:             	Current Settings	Active Cal Settings
! TIME:             	05/09/2018 08:45:04 PM	05/09/2018 08:37:50 PM
! INTERNAL TEMP:    	52.5 C	53.0 C
! # POINTS:         	494	494
! START FREQ:       	20.000 MHz	20.000 MHz
! STOP FREQ:        	118.797 594 MHz	118.797 594 MHz
! SOURCE POWER:     	High	High
! IFBW:             	50 Hz	50 Hz
! AVG FACTOR:       	  1 	  1 
! REF PLANE 1:      	0 mm	0 mm
! REF PLANE 2:      	0 mm	0 mm
! CAL TYPE:         	Full S22	Full S22
! CAL METHOD:       	SOLT	SOLT
! CAL LINE TYPE:    	Coax	Coax
! DUT PORT 1:       	K-Conn(M)	K-Conn(M)
! DUT PORT 2:       	K-Conn(M)	K-Conn(M)
! CAL STATUS:       	OK: Accuracy High	--
! PROP-V:       	0.700
! CABLE LOSS:       	0.000 dB/m
! REF IMPEDANCE:       	50.0
! Trace Specific Parameters:	TR1	TR2	TR3	TR4
! TRACE.#.Y (GRAPH TYPE)	LOG MAG	PHASE	REAL IMPEDANCE	IMAGINARY IMPEDANCE
! TRACE.#.X 	FREQ.GHZ	FREQ.GHZ	FREQ.GHZ	FREQ.GHZ
! S-PARAMETER	S22	S22	S22	S22
! SMOOTH/APERTURE %	0	0	0	0
! WINDOW	NSL	NSL	NSL	NSL
! GATING	OFF	OFF	OFF	OFF
! FGTD	OFF	OFF	OFF	OFF
Marker Information per Trace:	TR1	TR2	TR3	TR4
!MK1	--	"MK1 TR2:  20.000 MHz,PH:-125.66°"	--	--
!MK2	--	--	"MK2 TR3:  70.100 200 MHz,Z:(17.248 ohm, -1.366 ohm)"	--
!MK3	--	--	--	--
!MK4	--	--	--	--
!MK5	--	--	--	--
!MK6	--	--	--	--
!MK7	--	--	--	--
!MK8	--	--	--	--
PNT	TR1.FREQ.GHZ	TR1.LOG MAG.dB	TR2.FREQ.GHZ	TR2.PHASE.deg	TR3.FREQ.GHZ	TR3.REAL IMPEDANCE.ohm	TR4.FREQ.GHZ	TR4.IMAGINARY IMPEDANCE.ohm
1	  0.020000000	-6.180000E-01	  0.020000000	-1.256620E+02	  0.020000000	2.247000E+00	  0.020000000	-2.562000E+01
2	  0.020200402	-6.210000E-01	  0.020200402	-1.271060E+02	  0.020200402	2.229000E+00	  0.020200402	-2.483100E+01
3	  0.020400802	-6.250000E-01	  0.020400802	-1.285760E+02	  0.020400802	2.215000E+00	  0.020400802	-2.403700E+01
4	  0.020601204	-6.280000E-01	  0.020601204	-1.300440E+02	  0.020601204	2.200000E+00	  0.020601204	-2.325400E+01
5	  0.020801604	-6.320000E-01	  0.020801604	-1.315540E+02	  0.020801604	2.187000E+00	  0.020801604	-2.245800E+01
6	  0.021002004	-6.340000E-01	  0.021002004	-1.330730E+02	  0.021002004	2.168000E+00	  0.021002004	-2.166800E+01
7	  0.021202406	-6.370000E-01	  0.021202406	-1.346000E+02	  0.021202406	2.154000E+00	  0.021202406	-2.088100E+01
8	  0.021402806	-6.380000E-01	  0.021402806	-1.360980E+02	  0.021402806	2.135000E+00	  0.021402806	-2.011900E+01
9	  0.021603208	-6.410000E-01	  0.021603208	-1.376200E+02	  0.021603208	2.124000E+00	  0.021603208	-1.935300E+01
10	  0.021803608	-6.450000E-01	  0.021803608	-1.391420E+02	  0.021803608	2.114000E+00	  0.021803608	-1.859400E+01
11	  0.022004008	-6.490000E-01	  0.022004008	-1.406540E+02	  0.022004008	2.105000E+00	  0.022004008	-1.784700E+01
12	  0.022204408	-6.560000E-01	  0.022204408	-1.421980E+02	  0.022204408	2.110000E+00	  0.022204408	-1.709200E+01
13	  0.022404809	-6.600000E-01	  0.022404809	-1.437590E+02	  0.022404809	2.104000E+00	  0.022404809	-1.633500E+01
14	  0.022605211	-6.650000E-01	  0.022605211	-1.453430E+02	  0.022605211	2.099000E+00	  0.022605211	-1.557500E+01
15	  0.022805611	-6.710000E-01	  0.022805611	-1.469190E+02	  0.022805611	2.101000E+00	  0.022805611	-1.482400E+01
16	  0.023006011	-6.740000E-01	  0.023006011	-1.485020E+02	  0.023006011	2.094000E+00	  0.023006011	-1.407700E+01
17	  0.023206413	-6.760000E-01	  0.023206413	-1.500670E+02	  0.023206413	2.085000E+00	  0.023206413	-1.334400E+01
18	  0.023406813	-6.820000E-01	  0.023406813	-1.516490E+02	  0.023406813	2.086000E+00	  0.023406813	-1.260800E+01
19	  0.023607215	-6.900000E-01	  0.023607215	-1.532280E+02	  0.023607215	2.098000E+00	  0.023607215	-1.187800E+01
20	  0.023807615	-6.990000E-01	  0.023807615	-1.548350E+02	  0.023807615	2.113000E+00	  0.023807615	-1.114000E+01
21	  0.024008015	-7.070000E-01	  0.024008015	-1.564600E+02	  0.024008015	2.123000E+00	  0.024008015	-1.040000E+01
22	  0.024208417	-7.130000E-01	  0.024208417	-1.581050E+02	  0.024208417	2.130000E+00	  0.024208417	-9.654000E+00
23	  0.024408817	-7.190000E-01	  0.024408817	-1.597610E+02	  0.024408817	2.136000E+00	  0.024408817	-8.908000E+00
24	  0.024609219	-7.260000E-01	  0.024609219	-1.614060E+02	  0.024609219	2.146000E+00	  0.024609219	-8.170000E+00
25	  0.024809619	-7.350000E-01	  0.024809619	-1.630550E+02	  0.024809619	2.162000E+00	  0.024809619	-7.433000E+00
26	  0.025010020	-7.440000E-01	  0.025010020	-1.647130E+02	  0.025010020	2.179000E+00	  0.025010020	-6.697000E+00
27	  0.025210422	-7.560000E-01	  0.025210422	-1.663900E+02	  0.025210422	2.207000E+00	  0.025210422	-5.955000E+00
28	  0.025410822	-7.660000E-01	  0.025410822	-1.680670E+02	  0.025410822	2.229000E+00	  0.025410822	-5.215000E+00
29	  0.025611224	-7.780000E-01	  0.025611224	-1.697560E+02	  0.025611224	2.257000E+00	  0.025611224	-4.472000E+00
30	  0.025811624	-7.890000E-01	  0.025811624	-1.714620E+02	  0.025811624	2.283000E+00	  0.025811624	-3.724000E+00
31	  0.026012026	-8.010000E-01	  0.026012026	-1.731770E+02	  0.026012026	2.313000E+00	  0.026012026	-2.973000E+00
32	  0.026212426	-8.110000E-01	  0.026212426	-1.749080E+02	  0.026212426	2.339000E+00	  0.026212426	-2.218000E+00
33	  0.026412826	-8.250000E-01	  0.026412826	-1.766320E+02	  0.026412826	2.375000E+00	  0.026412826	-1.466000E+00
34	  0.026613226	-8.400000E-01	  0.026613226	-1.783810E+02	  0.026613226	2.417000E+00	  0.026613226	-7.040000E-01
35	  0.026813626	-8.540000E-01	  0.026813626	1.798720E+02	  0.026813626	2.457000E+00	  0.026813626	5.500000E-02
36	  0.027014028	-8.700000E-01	  0.027014028	1.781110E+02	  0.027014028	2.504000E+00	  0.027014028	8.220000E-01
37	  0.027214428	-8.860000E-01	  0.027214428	1.763520E+02	  0.027214428	2.551000E+00	  0.027214428	1.587000E+00
38	  0.027414829	-9.030000E-01	  0.027414829	1.745840E+02	  0.027414829	2.603000E+00	  0.027414829	2.358000E+00
39	  0.027615231	-9.190000E-01	  0.027615231	1.727940E+02	  0.027615231	2.655000E+00	  0.027615231	3.139000E+00
40	  0.027815631	-9.390000E-01	  0.027815631	1.709990E+02	  0.027815631	2.717000E+00	  0.027815631	3.923000E+00
41	  0.028016033	-9.570000E-01	  0.028016033	1.691960E+02	  0.028016033	2.778000E+00	  0.028016033	4.713000E+00
42	  0.028216433	-9.780000E-01	  0.028216433	1.673710E+02	  0.028216433	2.848000E+00	  0.028216433	5.515000E+00
43	  0.028416833	-1.000000E+00	  0.028416833	1.655480E+02	  0.028416833	2.922000E+00	  0.028416833	6.318000E+00
44	  0.028617235	-1.020000E+00	  0.028617235	1.637190E+02	  0.028617235	2.994000E+00	  0.028617235	7.126000E+00
45	  0.028817635	-1.043000E+00	  0.028817635	1.618950E+02	  0.028817635	3.076000E+00	  0.028817635	7.936000E+00
46	  0.029018037	-1.067000E+00	  0.029018037	1.600510E+02	  0.029018037	3.163000E+00	  0.029018037	8.758000E+00
47	  0.029218437	-1.093000E+00	  0.029218437	1.581980E+02	  0.029218437	3.258000E+00	  0.029218437	9.589000E+00
48	  0.029418837	-1.119000E+00	  0.029418837	1.563330E+02	  0.029418837	3.358000E+00	  0.029418837	1.043000E+01
49	  0.029619239	-1.146000E+00	  0.029619239	1.544500E+02	  0.029619239	3.463000E+00	  0.029619239	1.128400E+01
50	  0.029819639	-1.174000E+00	  0.029819639	1.525660E+02	  0.029819639	3.575000E+00	  0.029819639	1.214500E+01
51	  0.030020041	-1.202000E+00	  0.030020041	1.506670E+02	  0.030020041	3.691000E+00	  0.030020041	1.301800E+01
52	  0.030220442	-1.230000E+00	  0.030220442	1.487800E+02	  0.030220442	3.810000E+00	  0.030220442	1.389400E+01
53	  0.030420844	-1.260000E+00	  0.030420844	1.468890E+02	  0.030420844	3.940000E+00	  0.030420844	1.477800E+01
54	  0.030621244	-1.292000E+00	  0.030621244	1.449910E+02	  0.030621244	4.080000E+00	  0.030621244	1.567300E+01
55	  0.030821642	-1.325000E+00	  0.030821642	1.430890E+02	  0.030821642	4.228000E+00	  0.030821642	1.657900E+01
56	  0.031022044	-1.358000E+00	  0.031022044	1.411690E+02	  0.031022044	4.383000E+00	  0.031022044	1.750200E+01
57	  0.031222444	-1.383000E+00	  0.031222444	1.392810E+02	  0.031222444	4.518000E+00	  0.031222444	1.842000E+01
58	  0.031422846	-1.418000E+00	  0.031422846	1.373230E+02	  0.031422846	4.692000E+00	  0.031422846	1.938300E+01
59	  0.031623244	-1.454000E+00	  0.031623244	1.353770E+02	  0.031623244	4.872000E+00	  0.031623244	2.035000E+01
60	  0.031823646	-1.488000E+00	  0.031823646	1.334300E+02	  0.031823646	5.058000E+00	  0.031823646	2.133100E+01
61	  0.032024048	-1.525000E+00	  0.032024048	1.314750E+02	  0.032024048	5.260000E+00	  0.032024048	2.232800E+01
62	  0.032224450	-1.562000E+00	  0.032224450	1.295270E+02	  0.032224450	5.473000E+00	  0.032224450	2.333500E+01
63	  0.032424849	-1.602000E+00	  0.032424849	1.275560E+02	  0.032424849	5.703000E+00	  0.032424849	2.436800E+01
64	  0.032625251	-1.640000E+00	  0.032625251	1.255860E+02	  0.032625251	5.938000E+00	  0.032625251	2.541600E+01
65	  0.032825653	-1.677000E+00	  0.032825653	1.235790E+02	  0.032825653	6.183000E+00	  0.032825653	2.650200E+01
66	  0.033026051	-1.716000E+00	  0.033026051	1.215620E+02	  0.033026051	6.445000E+00	  0.033026051	2.761000E+01
67	  0.033226453	-1.752000E+00	  0.033226453	1.195590E+02	  0.033226453	6.710000E+00	  0.033226453	2.873100E+01
68	  0.033426855	-1.793000E+00	  0.033426855	1.175530E+02	  0.033426855	7.005000E+00	  0.033426855	2.987100E+01
69	  0.033627257	-1.832000E+00	  0.033627257	1.155450E+02	  0.033627257	7.310000E+00	  0.033627257	3.103500E+01
70	  0.033827655	-1.873000E+00	  0.033827655	1.135220E+02	  0.033827655	7.642000E+00	  0.033827655	3.222900E+01
71	  0.034028057	-1.914000E+00	  0.034028057	1.115100E+02	  0.034028057	7.988000E+00	  0.034028057	3.343900E+01
72	  0.034228459	-1.956000E+00	  0.034228459	1.094720E+02	  0.034228459	8.359000E+00	  0.034228459	3.469100E+01
73	  0.034428857	-2.002000E+00	  0.034428857	1.074140E+02	  0.034428857	8.768000E+00	  0.034428857	3.598000E+01
74	  0.034629259	-2.048000E+00	  0.034629259	1.053480E+02	  0.034629259	9.205000E+00	  0.034629259	3.730100E+01
75	  0.034829661	-2.090000E+00	  0.034829661	1.032740E+02	  0.034829661	9.654000E+00	  0.034829661	3.866100E+01
76	  0.035030060	-2.140000E+00	  0.035030060	1.012180E+02	  0.035030060	1.016000E+01	  0.035030060	4.003300E+01
77	  0.035230462	-2.187000E+00	  0.035230462	9.914300E+01	  0.035230462	1.068800E+01	  0.035230462	4.145400E+01
78	  0.035430863	-2.236000E+00	  0.035430863	9.706700E+01	  0.035430863	1.125700E+01	  0.035430863	4.291000E+01
79	  0.035631265	-2.285000E+00	  0.035631265	9.499000E+01	  0.035631265	1.186300E+01	  0.035631265	4.440100E+01
80	  0.035831664	-2.337000E+00	  0.035831664	9.291200E+01	  0.035831664	1.252500E+01	  0.035831664	4.592800E+01
81	  0.036032066	-2.389000E+00	  0.036032066	9.082600E+01	  0.036032066	1.323200E+01	  0.036032066	4.750100E+01
82	  0.036232468	-2.439000E+00	  0.036232468	8.873000E+01	  0.036232468	1.398200E+01	  0.036232468	4.912600E+01
83	  0.036432866	-2.492000E+00	  0.036432866	8.664300E+01	  0.036432866	1.479700E+01	  0.036432866	5.078200E+01
84	  0.036633268	-2.544000E+00	  0.036633268	8.454800E+01	  0.036633268	1.567000E+01	  0.036633268	5.249200E+01
85	  0.036833670	-2.598000E+00	  0.036833670	8.245100E+01	  0.036833670	1.661300E+01	  0.036833670	5.424800E+01
86	  0.037034072	-2.658000E+00	  0.037034072	8.035200E+01	  0.037034072	1.767000E+01	  0.037034072	5.603900E+01
87	  0.037234470	-2.711000E+00	  0.037234470	7.827500E+01	  0.037234470	1.875300E+01	  0.037234470	5.787300E+01
88	  0.037434869	-2.767000E+00	  0.037434869	7.617800E+01	  0.037434869	1.994700E+01	  0.037434869	5.977100E+01
89	  0.037635271	-2.825000E+00	  0.037635271	7.409200E+01	  0.037635271	2.124300E+01	  0.037635271	6.170200E+01
90	  0.037835669	-2.887000E+00	  0.037835669	7.199200E+01	  0.037835669	2.267400E+01	  0.037835669	6.368800E+01
91	  0.038036071	-2.944000E+00	  0.038036071	6.989800E+01	  0.038036071	2.418300E+01	  0.038036071	6.573200E+01
92	  0.038236473	-3.002000E+00	  0.038236473	6.780300E+01	  0.038236473	2.583100E+01	  0.038236473	6.782400E+01
93	  0.038436871	-3.062000E+00	  0.038436871	6.570600E+01	  0.038436871	2.763100E+01	  0.038436871	6.995900E+01
94	  0.038637273	-3.122000E+00	  0.038637273	6.361400E+01	  0.038637273	2.957500E+01	  0.038637273	7.213900E+01
95	  0.038837675	-3.179000E+00	  0.038837675	6.152900E+01	  0.038837675	3.166500E+01	  0.038837675	7.436300E+01
96	  0.039038073	-3.237000E+00	  0.039038073	5.946500E+01	  0.039038073	3.392100E+01	  0.039038073	7.660100E+01
97	  0.039238475	-3.293000E+00	  0.039238475	5.740600E+01	  0.039238475	3.635400E+01	  0.039238475	7.887600E+01
98	  0.039438877	-3.352000E+00	  0.039438877	5.533400E+01	  0.039438877	3.904000E+01	  0.039438877	8.117500E+01
99	  0.039639279	-3.408000E+00	  0.039639279	5.328000E+01	  0.039639279	4.192300E+01	  0.039639279	8.348300E+01
100	  0.039839678	-3.466000E+00	  0.039839678	5.119200E+01	  0.039839678	4.513000E+01	  0.039839678	8.582200E+01
101	  0.040040080	-3.524000E+00	  0.040040080	4.912000E+01	  0.040040080	4.860400E+01	  0.040040080	8.812000E+01
102	  0.040240481	-3.580000E+00	  0.040240481	4.705300E+01	  0.040240481	5.236400E+01	  0.040240481	9.040000E+01
103	  0.040440880	-3.634000E+00	  0.040440880	4.499900E+01	  0.040440880	5.642600E+01	  0.040440880	9.261600E+01
104	  0.040641282	-3.690000E+00	  0.040641282	4.295500E+01	  0.040641282	6.085000E+01	  0.040641282	9.470300E+01
105	  0.040841684	-3.745000E+00	  0.040841684	4.090100E+01	  0.040841684	6.566500E+01	  0.040841684	9.669600E+01
106	  0.041042086	-3.799000E+00	  0.041042086	3.887700E+01	  0.041042086	7.083700E+01	  0.041042086	9.845800E+01
107	  0.041242484	-3.857000E+00	  0.041242484	3.683000E+01	  0.041242484	7.651500E+01	  0.041242484	9.996700E+01
108	  0.041442886	-3.911000E+00	  0.041442886	3.477700E+01	  0.041442886	8.264200E+01	  0.041442886	1.012310E+02
109	  0.041643288	-3.963000E+00	  0.041643288	3.271600E+01	  0.041643288	8.926100E+01	  0.041643288	1.021350E+02
110	  0.041843686	-4.017000E+00	  0.041843686	3.066000E+01	  0.041843686	9.634700E+01	  0.041843686	1.025310E+02
111	  0.042044088	-4.070000E+00	  0.042044088	2.862000E+01	  0.042044088	1.038300E+02	  0.042044088	1.023520E+02
112	  0.042244490	-4.119000E+00	  0.042244490	2.658200E+01	  0.042244490	1.117220E+02	  0.042244490	1.015640E+02
113	  0.042444889	-4.171000E+00	  0.042444889	2.457400E+01	  0.042444889	1.198560E+02	  0.042444889	9.989500E+01
114	  0.042645290	-4.225000E+00	  0.042645290	2.254900E+01	  0.042645290	1.283110E+02	  0.042645290	9.725800E+01
115	  0.042845692	-4.276000E+00	  0.042845692	2.054500E+01	  0.042845692	1.368190E+02	  0.042845692	9.368900E+01
116	  0.043046094	-4.326000E+00	  0.043046094	1.851500E+01	  0.043046094	1.454400E+02	  0.043046094	8.899000E+01
117	  0.043246493	-4.377000E+00	  0.043246493	1.650900E+01	  0.043246493	1.537380E+02	  0.043246493	8.312700E+01
118	  0.043446895	-4.424000E+00	  0.043446895	1.448800E+01	  0.043446895	1.617360E+02	  0.043446895	7.610100E+01
119	  0.043647297	-4.469000E+00	  0.043647297	1.250600E+01	  0.043647297	1.689830E+02	  0.043647297	6.806900E+01
120	  0.043847695	-4.518000E+00	  0.043847695	1.052200E+01	  0.043847695	1.752470E+02	  0.043847695	5.883000E+01
121	  0.044048097	-4.566000E+00	  0.044048097	8.545000E+00	  0.044048097	1.804100E+02	  0.044048097	4.871800E+01
122	  0.044248499	-4.611000E+00	  0.044248499	6.587000E+00	  0.044248499	1.843040E+02	  0.044248499	3.800900E+01
123	  0.044448901	-4.657000E+00	  0.044448901	4.625000E+00	  0.044448901	1.868200E+02	  0.044448901	2.679800E+01
124	  0.044649299	-4.705000E+00	  0.044649299	2.673000E+00	  0.044649299	1.877350E+02	  0.044649299	1.539800E+01
125	  0.044849701	-4.749000E+00	  0.044849701	7.330000E-01	  0.044849701	1.873060E+02	  0.044849701	4.172000E+00
126	  0.045050103	-4.796000E+00	  0.045050103	-1.191000E+00	  0.045050103	1.853960E+02	  0.045050103	-6.637000E+00
127	  0.045250501	-4.838000E+00	  0.045250501	-3.128000E+00	  0.045250501	1.824190E+02	  0.045250501	-1.697700E+01
128	  0.045450903	-4.881000E+00	  0.045450903	-5.050000E+00	  0.045450903	1.783240E+02	  0.045450903	-2.651400E+01
129	  0.045651305	-4.921000E+00	  0.045651305	-6.956000E+00	  0.045651305	1.734520E+02	  0.045651305	-3.516900E+01
130	  0.045851704	-4.964000E+00	  0.045851704	-8.857000E+00	  0.045851704	1.677800E+02	  0.045851704	-4.283100E+01
131	  0.046052102	-5.004000E+00	  0.046052102	-1.073500E+01	  0.046052102	1.617510E+02	  0.046052102	-4.951300E+01
132	  0.046252504	-5.043000E+00	  0.046252504	-1.261500E+01	  0.046252504	1.553990E+02	  0.046252504	-5.529700E+01
133	  0.046452906	-5.084000E+00	  0.046452906	-1.448300E+01	  0.046452906	1.488450E+02	  0.046452906	-6.010000E+01
134	  0.046653304	-5.124000E+00	  0.046653304	-1.636200E+01	  0.046653304	1.422310E+02	  0.046653304	-6.412800E+01
135	  0.046853706	-5.163000E+00	  0.046853706	-1.821700E+01	  0.046853706	1.357510E+02	  0.046853706	-6.735800E+01
136	  0.047054108	-5.200000E+00	  0.047054108	-2.008200E+01	  0.047054108	1.293770E+02	  0.047054108	-6.994200E+01
137	  0.047254506	-5.238000E+00	  0.047254506	-2.193600E+01	  0.047254506	1.232100E+02	  0.047254506	-7.187900E+01
138	  0.047454908	-5.273000E+00	  0.047454908	-2.376600E+01	  0.047454908	1.173630E+02	  0.047454908	-7.331800E+01
139	  0.047655310	-5.308000E+00	  0.047655310	-2.559100E+01	  0.047655310	1.117670E+02	  0.047655310	-7.428600E+01
140	  0.047855709	-5.340000E+00	  0.047855709	-2.740600E+01	  0.047855709	1.064690E+02	  0.047855709	-7.490600E+01
141	  0.048056111	-5.372000E+00	  0.048056111	-2.921100E+01	  0.048056111	1.014540E+02	  0.048056111	-7.515700E+01
142	  0.048256513	-5.408000E+00	  0.048256513	-3.099900E+01	  0.048256513	9.673900E+01	  0.048256513	-7.507600E+01
143	  0.048456915	-5.436000E+00	  0.048456915	-3.277200E+01	  0.048456915	9.232700E+01	  0.048456915	-7.486600E+01
144	  0.048657313	-5.464000E+00	  0.048657313	-3.459000E+01	  0.048657313	8.805100E+01	  0.048657313	-7.444500E+01
145	  0.048857715	-5.493000E+00	  0.048857715	-3.636500E+01	  0.048857715	8.411600E+01	  0.048857715	-7.383700E+01
146	  0.049058117	-5.519000E+00	  0.049058117	-3.814000E+01	  0.049058117	8.040600E+01	  0.049058117	-7.312400E+01
147	  0.049258515	-5.542000E+00	  0.049258515	-3.989600E+01	  0.049258515	7.694200E+01	  0.049258515	-7.232700E+01
148	  0.049458917	-5.569000E+00	  0.049458917	-4.165400E+01	  0.049458917	7.368400E+01	  0.049458917	-7.137800E+01
149	  0.049659319	-5.595000E+00	  0.049659319	-4.336900E+01	  0.049659319	7.068700E+01	  0.049659319	-7.038700E+01
150	  0.049859721	-5.618000E+00	  0.049859721	-4.510100E+01	  0.049859721	6.783100E+01	  0.049859721	-6.934800E+01
151	  0.050060119	-5.641000E+00	  0.050060119	-4.680200E+01	  0.050060119	6.518800E+01	  0.050060119	-6.827100E+01
152	  0.050260521	-5.662000E+00	  0.050260521	-4.853500E+01	  0.050260521	6.264600E+01	  0.050260521	-6.714800E+01
153	  0.050460923	-5.681000E+00	  0.050460923	-5.024200E+01	  0.050460923	6.027600E+01	  0.050460923	-6.602800E+01
154	  0.050661322	-5.699000E+00	  0.050661322	-5.194200E+01	  0.050661322	5.804400E+01	  0.050661322	-6.489700E+01
155	  0.050861724	-5.715000E+00	  0.050861724	-5.359500E+01	  0.050861724	5.599100E+01	  0.050861724	-6.378300E+01
156	  0.051062126	-5.736000E+00	  0.051062126	-5.527400E+01	  0.051062126	5.403900E+01	  0.051062126	-6.259600E+01
157	  0.051262524	-5.758000E+00	  0.051262524	-5.692400E+01	  0.051262524	5.223000E+01	  0.051262524	-6.141400E+01
158	  0.051462926	-5.773000E+00	  0.051462926	-5.857500E+01	  0.051462926	5.049200E+01	  0.051462926	-6.027800E+01
159	  0.051663328	-5.790000E+00	  0.051663328	-6.018400E+01	  0.051663328	4.889600E+01	  0.051663328	-5.915100E+01
160	  0.051863730	-5.809000E+00	  0.051863730	-6.181500E+01	  0.051863730	4.736900E+01	  0.051863730	-5.799900E+01
161	  0.052064128	-5.821000E+00	  0.052064128	-6.342600E+01	  0.052064128	4.591100E+01	  0.052064128	-5.690900E+01
162	  0.052264530	-5.834000E+00	  0.052264530	-6.503600E+01	  0.052264530	4.453400E+01	  0.052264530	-5.581100E+01
163	  0.052464932	-5.847000E+00	  0.052464932	-6.661400E+01	  0.052464932	4.325000E+01	  0.052464932	-5.474100E+01
164	  0.052665330	-5.861000E+00	  0.052665330	-6.820200E+01	  0.052665330	4.203100E+01	  0.052665330	-5.365900E+01
165	  0.052865732	-5.877000E+00	  0.052865732	-6.974600E+01	  0.052865732	4.090900E+01	  0.052865732	-5.260800E+01
166	  0.053066134	-5.894000E+00	  0.053066134	-7.130400E+01	  0.053066134	3.983300E+01	  0.053066134	-5.155400E+01
167	  0.053266536	-5.911000E+00	  0.053266536	-7.284500E+01	  0.053266536	3.882300E+01	  0.053266536	-5.051800E+01
168	  0.053466935	-5.922000E+00	  0.053466935	-7.436600E+01	  0.053466935	3.784900E+01	  0.053466935	-4.953200E+01
169	  0.053667337	-5.932000E+00	  0.053667337	-7.591100E+01	  0.053667337	3.690400E+01	  0.053667337	-4.854200E+01
170	  0.053867739	-5.942000E+00	  0.053867739	-7.743800E+01	  0.053867739	3.601100E+01	  0.053867739	-4.757200E+01
171	  0.054068137	-5.955000E+00	  0.054068137	-7.896300E+01	  0.054068137	3.516800E+01	  0.054068137	-4.660700E+01
172	  0.054268539	-5.964000E+00	  0.054268539	-8.045600E+01	  0.054268539	3.437000E+01	  0.054268539	-4.568000E+01
173	  0.054468941	-5.980000E+00	  0.054468941	-8.193500E+01	  0.054468941	3.363800E+01	  0.054468941	-4.474900E+01
174	  0.054669335	-5.988000E+00	  0.054669335	-8.341900E+01	  0.054669335	3.290300E+01	  0.054669335	-4.385400E+01
175	  0.054869737	-6.002000E+00	  0.054869737	-8.490500E+01	  0.054869737	3.222600E+01	  0.054869737	-4.294500E+01
176	  0.055070139	-6.013000E+00	  0.055070139	-8.636800E+01	  0.055070139	3.157300E+01	  0.055070139	-4.207300E+01
177	  0.055270538	-6.022000E+00	  0.055270538	-8.781000E+01	  0.055270538	3.095100E+01	  0.055270538	-4.122600E+01
178	  0.055470940	-6.031000E+00	  0.055470940	-8.926400E+01	  0.055470940	3.035000E+01	  0.055470940	-4.038200E+01
179	  0.055671342	-6.036000E+00	  0.055671342	-9.073100E+01	  0.055671342	2.975300E+01	  0.055671342	-3.955000E+01
180	  0.055871744	-6.042000E+00	  0.055871744	-9.215600E+01	  0.055871744	2.920300E+01	  0.055871744	-3.874600E+01
181	  0.056072142	-6.052000E+00	  0.056072142	-9.358300E+01	  0.056072142	2.868400E+01	  0.056072142	-3.794100E+01
182	  0.056272544	-6.059000E+00	  0.056272544	-9.500800E+01	  0.056272544	2.818000E+01	  0.056272544	-3.715100E+01
183	  0.056472946	-6.065000E+00	  0.056472946	-9.639800E+01	  0.056472946	2.770300E+01	  0.056472946	-3.639200E+01
184	  0.056673344	-6.074000E+00	  0.056673344	-9.778300E+01	  0.056673344	2.725700E+01	  0.056673344	-3.563600E+01
185	  0.056873746	-6.081000E+00	  0.056873746	-9.917000E+01	  0.056873746	2.681800E+01	  0.056873746	-3.489200E+01
186	  0.057074148	-6.089000E+00	  0.057074148	-1.005770E+02	  0.057074148	2.639300E+01	  0.057074148	-3.414300E+01
187	  0.057274550	-6.088000E+00	  0.057274550	-1.019380E+02	  0.057274550	2.597200E+01	  0.057274550	-3.344100E+01
188	  0.057474948	-6.095000E+00	  0.057474948	-1.033010E+02	  0.057474948	2.558700E+01	  0.057474948	-3.273200E+01
189	  0.057675350	-6.102000E+00	  0.057675350	-1.046680E+02	  0.057675350	2.521900E+01	  0.057675350	-3.202600E+01
190	  0.057875752	-6.107000E+00	  0.057875752	-1.060120E+02	  0.057875752	2.486300E+01	  0.057875752	-3.134200E+01
191	  0.058076151	-6.112000E+00	  0.058076151	-1.073580E+02	  0.058076151	2.452200E+01	  0.058076151	-3.066200E+01
192	  0.058276553	-6.118000E+00	  0.058276553	-1.086750E+02	  0.058276553	2.420000E+01	  0.058276553	-3.000300E+01
193	  0.058476955	-6.120000E+00	  0.058476955	-1.100140E+02	  0.058476955	2.387200E+01	  0.058476955	-2.934500E+01
194	  0.058677353	-6.125000E+00	  0.058677353	-1.113340E+02	  0.058677353	2.357200E+01	  0.058677353	-2.869600E+01
195	  0.058877755	-6.127000E+00	  0.058877755	-1.126600E+02	  0.058877755	2.326900E+01	  0.058877755	-2.805600E+01
196	  0.059078157	-6.126000E+00	  0.059078157	-1.139720E+02	  0.059078157	2.297400E+01	  0.059078157	-2.743000E+01
197	  0.059278559	-6.131000E+00	  0.059278559	-1.152610E+02	  0.059278559	2.271000E+01	  0.059278559	-2.681300E+01
198	  0.059478957	-6.136000E+00	  0.059478957	-1.165680E+02	  0.059478957	2.245200E+01	  0.059478957	-2.619200E+01
199	  0.059679359	-6.137000E+00	  0.059679359	-1.178570E+02	  0.059679359	2.219700E+01	  0.059679359	-2.558900E+01
200	  0.059879761	-6.139000E+00	  0.059879761	-1.191290E+02	  0.059879761	2.195400E+01	  0.059879761	-2.499800E+01
201	  0.060080159	-6.144000E+00	  0.060080159	-1.204000E+02	  0.060080159	2.173100E+01	  0.060080159	-2.440700E+01
202	  0.060280561	-6.145000E+00	  0.060280561	-1.216680E+02	  0.060280561	2.150100E+01	  0.060280561	-2.382800E+01
203	  0.060480963	-6.148000E+00	  0.060480963	-1.229420E+02	  0.060480963	2.128700E+01	  0.060480963	-2.324700E+01
204	  0.060681365	-6.149000E+00	  0.060681365	-1.241910E+02	  0.060681365	2.108000E+01	  0.060681365	-2.268300E+01
205	  0.060881764	-6.148000E+00	  0.060881764	-1.254330E+02	  0.060881764	2.087100E+01	  0.060881764	-2.213000E+01
206	  0.061082166	-6.152000E+00	  0.061082166	-1.266930E+02	  0.061082166	2.068200E+01	  0.061082166	-2.156600E+01
207	  0.061282568	-6.153000E+00	  0.061282568	-1.279380E+02	  0.061282568	2.049700E+01	  0.061282568	-2.101400E+01
208	  0.061482966	-6.155000E+00	  0.061482966	-1.291660E+02	  0.061482966	2.032000E+01	  0.061482966	-2.047400E+01
209	  0.061683368	-6.158000E+00	  0.061683368	-1.303910E+02	  0.061683368	2.015600E+01	  0.061683368	-1.993600E+01
210	  0.061883770	-6.160000E+00	  0.061883770	-1.315970E+02	  0.061883770	1.999200E+01	  0.061883770	-1.941300E+01
211	  0.062084168	-6.161000E+00	  0.062084168	-1.328040E+02	  0.062084168	1.983500E+01	  0.062084168	-1.889100E+01
212	  0.062284570	-6.161000E+00	  0.062284570	-1.340190E+02	  0.062284570	1.968100E+01	  0.062284570	-1.837000E+01
213	  0.062484972	-6.148000E+00	  0.062484972	-1.351700E+02	  0.062484972	1.950100E+01	  0.062484972	-1.788900E+01
214	  0.062685370	-6.153000E+00	  0.062685370	-1.363630E+02	  0.062685370	1.937100E+01	  0.062685370	-1.737900E+01
215	  0.062885776	-6.151000E+00	  0.062885776	-1.375480E+02	  0.062885776	1.922900E+01	  0.062885776	-1.688000E+01
216	  0.063086174	-6.153000E+00	  0.063086174	-1.387180E+02	  0.063086174	1.910500E+01	  0.063086174	-1.638600E+01
217	  0.063286573	-6.155000E+00	  0.063286573	-1.398790E+02	  0.063286573	1.898600E+01	  0.063286573	-1.589900E+01
218	  0.063486971	-6.153000E+00	  0.063486971	-1.410380E+02	  0.063486971	1.885900E+01	  0.063486971	-1.541700E+01
219	  0.063687377	-6.152000E+00	  0.063687377	-1.421760E+02	  0.063687377	1.874400E+01	  0.063687377	-1.494600E+01
220	  0.063887775	-6.157000E+00	  0.063887775	-1.433380E+02	  0.063887775	1.864500E+01	  0.063887775	-1.446300E+01
221	  0.064088173	-6.154000E+00	  0.064088173	-1.444940E+02	  0.064088173	1.853100E+01	  0.064088173	-1.398900E+01
222	  0.064288579	-6.158000E+00	  0.064288579	-1.456530E+02	  0.064288579	1.843900E+01	  0.064288579	-1.351200E+01
223	  0.064488977	-6.158000E+00	  0.064488977	-1.467860E+02	  0.064488977	1.834200E+01	  0.064488977	-1.305000E+01
224	  0.064689375	-6.160000E+00	  0.064689375	-1.479030E+02	  0.064689375	1.825600E+01	  0.064689375	-1.259400E+01
225	  0.064889781	-6.163000E+00	  0.064889781	-1.490180E+02	  0.064889781	1.817800E+01	  0.064889781	-1.214100E+01
226	  0.065090179	-6.164000E+00	  0.065090179	-1.501570E+02	  0.065090179	1.809400E+01	  0.065090179	-1.168100E+01
227	  0.065290578	-6.169000E+00	  0.065290578	-1.512380E+02	  0.065290578	1.802800E+01	  0.065290578	-1.124400E+01
228	  0.065490983	-6.169000E+00	  0.065490983	-1.523420E+02	  0.065490983	1.795200E+01	  0.065490983	-1.080000E+01
229	  0.065691382	-6.169000E+00	  0.065691382	-1.534890E+02	  0.065691382	1.787700E+01	  0.065691382	-1.034200E+01
230	  0.065891780	-6.172000E+00	  0.065891780	-1.545660E+02	  0.065891780	1.781700E+01	  0.065891780	-9.911000E+00
231	  0.066092186	-6.173000E+00	  0.066092186	-1.556710E+02	  0.066092186	1.775200E+01	  0.066092186	-9.472000E+00
232	  0.066292584	-6.177000E+00	  0.066292584	-1.567700E+02	  0.066292584	1.770100E+01	  0.066292584	-9.034000E+00
233	  0.066492982	-6.177000E+00	  0.066492982	-1.578510E+02	  0.066492982	1.764200E+01	  0.066492982	-8.607000E+00
234	  0.066693388	-6.181000E+00	  0.066693388	-1.589230E+02	  0.066693388	1.759700E+01	  0.066693388	-8.183000E+00
235	  0.066893786	-6.184000E+00	  0.066893786	-1.599710E+02	  0.066893786	1.755300E+01	  0.066893786	-7.770000E+00
236	  0.067094192	-6.187000E+00	  0.067094192	-1.610510E+02	  0.067094192	1.751200E+01	  0.067094192	-7.344000E+00
237	  0.067294590	-6.189000E+00	  0.067294590	-1.621290E+02	  0.067294590	1.746900E+01	  0.067294590	-6.922000E+00
238	  0.067494988	-6.190000E+00	  0.067494988	-1.631870E+02	  0.067494988	1.742900E+01	  0.067494988	-6.508000E+00
239	  0.067695394	-6.199000E+00	  0.067695394	-1.641850E+02	  0.067695394	1.741200E+01	  0.067695394	-6.116000E+00
240	  0.067895792	-6.199000E+00	  0.067895792	-1.652600E+02	  0.067895792	1.737500E+01	  0.067895792	-5.697000E+00
241	  0.068096191	-6.201000E+00	  0.068096191	-1.663300E+02	  0.068096191	1.734300E+01	  0.068096191	-5.280000E+00
242	  0.068296596	-6.208000E+00	  0.068296596	-1.673440E+02	  0.068296596	1.733000E+01	  0.068296596	-4.885000E+00
243	  0.068496995	-6.208000E+00	  0.068496995	-1.683590E+02	  0.068496995	1.730200E+01	  0.068496995	-4.491000E+00
244	  0.068697393	-6.212000E+00	  0.068697393	-1.694140E+02	  0.068697393	1.728600E+01	  0.068697393	-4.082000E+00
245	  0.068897791	-6.215000E+00	  0.068897791	-1.704300E+02	  0.068897791	1.726800E+01	  0.068897791	-3.689000E+00
246	  0.069098189	-6.214000E+00	  0.069098189	-1.714390E+02	  0.069098189	1.724600E+01	  0.069098189	-3.299000E+00
247	  0.069298595	-6.222000E+00	  0.069298595	-1.724540E+02	  0.069298595	1.724500E+01	  0.069298595	-2.906000E+00
248	  0.069498993	-6.224000E+00	  0.069498993	-1.734780E+02	  0.069498993	1.723600E+01	  0.069498993	-2.510000E+00
249	  0.069699399	-6.231000E+00	  0.069699399	-1.744910E+02	  0.069699399	1.723800E+01	  0.069699399	-2.120000E+00
250	  0.069899797	-6.233000E+00	  0.069899797	-1.754570E+02	  0.069899797	1.723200E+01	  0.069899797	-1.747000E+00
251	  0.070100196	-6.243000E+00	  0.070100196	-1.764490E+02	  0.070100196	1.724800E+01	  0.070100196	-1.365000E+00
252	  0.070300601	-6.244000E+00	  0.070300601	-1.774470E+02	  0.070300601	1.724300E+01	  0.070300601	-9.810000E-01
253	  0.070501000	-6.239000E+00	  0.070501000	-1.784190E+02	  0.070501000	1.722800E+01	  0.070501000	-6.070000E-01
254	  0.070701398	-6.249000E+00	  0.070701398	-1.793790E+02	  0.070701398	1.724900E+01	  0.070701398	-2.380000E-01
255	  0.070901804	-6.253000E+00	  0.070901804	1.796330E+02	  0.070901804	1.726000E+01	  0.070901804	1.400000E-01
256	  0.071102202	-6.257000E+00	  0.071102202	1.786410E+02	  0.071102202	1.727100E+01	  0.071102202	5.220000E-01
257	  0.071302600	-6.263000E+00	  0.071302600	1.776770E+02	  0.071302600	1.729200E+01	  0.071302600	8.920000E-01
258	  0.071503006	-6.273000E+00	  0.071503006	1.766890E+02	  0.071503006	1.732400E+01	  0.071503006	1.271000E+00
259	  0.071703404	-6.276000E+00	  0.071703404	1.757500E+02	  0.071703404	1.733900E+01	  0.071703404	1.632000E+00
260	  0.071903802	-6.283000E+00	  0.071903802	1.747640E+02	  0.071903802	1.736600E+01	  0.071903802	2.010000E+00
261	  0.072104208	-6.289000E+00	  0.072104208	1.737870E+02	  0.072104208	1.739500E+01	  0.072104208	2.385000E+00
262	  0.072304606	-6.293000E+00	  0.072304606	1.728300E+02	  0.072304606	1.742000E+01	  0.072304606	2.753000E+00
263	  0.072505005	-6.299000E+00	  0.072505005	1.718820E+02	  0.072505005	1.745200E+01	  0.072505005	3.117000E+00
264	  0.072705410	-6.306000E+00	  0.072705410	1.709340E+02	  0.072705410	1.749100E+01	  0.072705410	3.481000E+00
265	  0.072905809	-6.313000E+00	  0.072905809	1.699720E+02	  0.072905809	1.752800E+01	  0.072905809	3.851000E+00
266	  0.073106214	-6.318000E+00	  0.073106214	1.690290E+02	  0.073106214	1.756400E+01	  0.073106214	4.213000E+00
267	  0.073306613	-6.325000E+00	  0.073306613	1.680750E+02	  0.073306613	1.760700E+01	  0.073306613	4.580000E+00
268	  0.073507011	-6.333000E+00	  0.073507011	1.671280E+02	  0.073507011	1.765600E+01	  0.073507011	4.944000E+00
269	  0.073707417	-6.338000E+00	  0.073707417	1.661560E+02	  0.073707417	1.770000E+01	  0.073707417	5.319000E+00
270	  0.073907815	-6.348000E+00	  0.073907815	1.652400E+02	  0.073907815	1.775600E+01	  0.073907815	5.670000E+00
271	  0.074108213	-6.350000E+00	  0.074108213	1.643320E+02	  0.074108213	1.779600E+01	  0.074108213	6.021000E+00
272	  0.074308619	-6.358000E+00	  0.074308619	1.633750E+02	  0.074308619	1.785100E+01	  0.074308619	6.390000E+00
273	  0.074509017	-6.365000E+00	  0.074509017	1.624300E+02	  0.074509017	1.791000E+01	  0.074509017	6.755000E+00
274	  0.074709415	-6.369000E+00	  0.074709415	1.614940E+02	  0.074709415	1.796000E+01	  0.074709415	7.118000E+00
275	  0.074909821	-6.380000E+00	  0.074909821	1.605810E+02	  0.074909821	1.803000E+01	  0.074909821	7.470000E+00
276	  0.075110219	-6.386000E+00	  0.075110219	1.596510E+02	  0.075110219	1.809100E+01	  0.075110219	7.830000E+00
277	  0.075310618	-6.392000E+00	  0.075310618	1.587610E+02	  0.075310618	1.815000E+01	  0.075310618	8.176000E+00
278	  0.075511023	-6.400000E+00	  0.075511023	1.578490E+02	  0.075511023	1.821900E+01	  0.075511023	8.529000E+00
279	  0.075711422	-6.403000E+00	  0.075711422	1.569620E+02	  0.075711422	1.827600E+01	  0.075711422	8.875000E+00
280	  0.075911827	-6.415000E+00	  0.075911827	1.560540E+02	  0.075911827	1.836000E+01	  0.075911827	9.227000E+00
281	  0.076112226	-6.421000E+00	  0.076112226	1.551630E+02	  0.076112226	1.842900E+01	  0.076112226	9.574000E+00
282	  0.076312624	-6.429000E+00	  0.076312624	1.542580E+02	  0.076312624	1.850700E+01	  0.076312624	9.927000E+00
283	  0.076513030	-6.442000E+00	  0.076513030	1.533700E+02	  0.076513030	1.860000E+01	  0.076513030	1.027100E+01
284	  0.076713428	-6.451000E+00	  0.076713428	1.524620E+02	  0.076713428	1.868500E+01	  0.076713428	1.062500E+01
285	  0.076913826	-6.459000E+00	  0.076913826	1.515980E+02	  0.076913826	1.876500E+01	  0.076913826	1.096400E+01
286	  0.077114232	-6.468000E+00	  0.077114232	1.507410E+02	  0.077114232	1.885100E+01	  0.077114232	1.129900E+01
287	  0.077314630	-6.478000E+00	  0.077314630	1.498810E+02	  0.077314630	1.894400E+01	  0.077314630	1.163500E+01
288	  0.077515028	-6.488000E+00	  0.077515028	1.490090E+02	  0.077515028	1.903700E+01	  0.077515028	1.197700E+01
289	  0.077715434	-6.501000E+00	  0.077715434	1.481390E+02	  0.077715434	1.914200E+01	  0.077715434	1.231600E+01
290	  0.077915832	-6.511000E+00	  0.077915832	1.472860E+02	  0.077915832	1.924000E+01	  0.077915832	1.265200E+01
291	  0.078116231	-6.523000E+00	  0.078116231	1.464040E+02	  0.078116231	1.934800E+01	  0.078116231	1.299700E+01
292	  0.078316636	-6.535000E+00	  0.078316636	1.455550E+02	  0.078316636	1.945400E+01	  0.078316636	1.333100E+01
293	  0.078517035	-6.548000E+00	  0.078517035	1.447030E+02	  0.078517035	1.956700E+01	  0.078517035	1.366500E+01
294	  0.078717433	-6.556000E+00	  0.078717433	1.438550E+02	  0.078717433	1.967100E+01	  0.078717433	1.400100E+01
295	  0.078917839	-6.570000E+00	  0.078917839	1.430290E+02	  0.078917839	1.978800E+01	  0.078917839	1.432600E+01
296	  0.079118237	-6.587000E+00	  0.079118237	1.421880E+02	  0.079118237	1.991600E+01	  0.079118237	1.465500E+01
297	  0.079318643	-6.601000E+00	  0.079318643	1.413580E+02	  0.079318643	2.004100E+01	  0.079318643	1.498100E+01
298	  0.079519041	-6.615000E+00	  0.079519041	1.405240E+02	  0.079519041	2.016600E+01	  0.079519041	1.531000E+01
299	  0.079719439	-6.628000E+00	  0.079719439	1.397000E+02	  0.079719439	2.029300E+01	  0.079719439	1.563500E+01
300	  0.079919845	-6.642000E+00	  0.079919845	1.388630E+02	  0.079919845	2.042200E+01	  0.079919845	1.596700E+01
301	  0.080120243	-6.660000E+00	  0.080120243	1.380050E+02	  0.080120243	2.057200E+01	  0.080120243	1.630300E+01
302	  0.080320641	-6.674000E+00	  0.080320641	1.371830E+02	  0.080320641	2.070600E+01	  0.080320641	1.662800E+01
303	  0.080521047	-6.692000E+00	  0.080521047	1.363850E+02	  0.080521047	2.085300E+01	  0.080521047	1.694100E+01
304	  0.080721445	-6.705000E+00	  0.080721445	1.355610E+02	  0.080721445	2.099000E+01	  0.080721445	1.726900E+01
305	  0.080921844	-6.721000E+00	  0.080921844	1.347610E+02	  0.080921844	2.113600E+01	  0.080921844	1.758500E+01
306	  0.081122249	-6.737000E+00	  0.081122249	1.339560E+02	  0.081122249	2.128700E+01	  0.081122249	1.790300E+01
307	  0.081322648	-6.755000E+00	  0.081322648	1.331760E+02	  0.081322648	2.144000E+01	  0.081322648	1.821000E+01
308	  0.081523046	-6.770000E+00	  0.081523046	1.323470E+02	  0.081523046	2.159600E+01	  0.081523046	1.854000E+01
309	  0.081723452	-6.786000E+00	  0.081723452	1.315520E+02	  0.081723452	2.175200E+01	  0.081723452	1.885500E+01
310	  0.081923850	-6.802000E+00	  0.081923850	1.307360E+02	  0.081923850	2.191400E+01	  0.081923850	1.917900E+01
311	  0.082124248	-6.819000E+00	  0.082124248	1.299680E+02	  0.082124248	2.207500E+01	  0.082124248	1.948300E+01
312	  0.082324654	-6.832000E+00	  0.082324654	1.291680E+02	  0.082324654	2.223100E+01	  0.082324654	1.980500E+01
313	  0.082525052	-6.852000E+00	  0.082525052	1.284210E+02	  0.082525052	2.240200E+01	  0.082525052	2.009800E+01
314	  0.082725458	-6.876000E+00	  0.082725458	1.276580E+02	  0.082725458	2.259000E+01	  0.082725458	2.039200E+01
315	  0.082925856	-6.889000E+00	  0.082925856	1.268670E+02	  0.082925856	2.275700E+01	  0.082925856	2.071000E+01
316	  0.083126254	-6.910000E+00	  0.083126254	1.260760E+02	  0.083126254	2.294600E+01	  0.083126254	2.102100E+01
317	  0.083326660	-6.928000E+00	  0.083326660	1.253030E+02	  0.083326660	2.312900E+01	  0.083326660	2.132600E+01
318	  0.083527058	-6.949000E+00	  0.083527058	1.245390E+02	  0.083527058	2.331800E+01	  0.083527058	2.162600E+01
319	  0.083727457	-6.970000E+00	  0.083727457	1.237910E+02	  0.083727457	2.351100E+01	  0.083727457	2.191800E+01
320	  0.083927862	-6.987000E+00	  0.083927862	1.230010E+02	  0.083927862	2.370200E+01	  0.083927862	2.223200E+01
321	  0.084128261	-7.014000E+00	  0.084128261	1.222550E+02	  0.084128261	2.391600E+01	  0.084128261	2.251600E+01
322	  0.084328659	-7.029000E+00	  0.084328659	1.215160E+02	  0.084328659	2.409800E+01	  0.084328659	2.281200E+01
323	  0.084529065	-7.051000E+00	  0.084529065	1.207600E+02	  0.084529065	2.430600E+01	  0.084529065	2.310600E+01
324	  0.084729463	-7.070000E+00	  0.084729463	1.200080E+02	  0.084729463	2.451000E+01	  0.084729463	2.340100E+01
325	  0.084929854	-7.095000E+00	  0.084929854	1.192670E+02	  0.084929854	2.473100E+01	  0.084929854	2.368400E+01
326	  0.085130259	-7.113000E+00	  0.085130259	1.185150E+02	  0.085130259	2.493700E+01	  0.085130259	2.398200E+01
327	  0.085330658	-7.136000E+00	  0.085330658	1.177750E+02	  0.085330658	2.515600E+01	  0.085330658	2.426800E+01
328	  0.085531056	-7.158000E+00	  0.085531056	1.170190E+02	  0.085531056	2.538300E+01	  0.085531056	2.456000E+01
329	  0.085731462	-7.180000E+00	  0.085731462	1.162930E+02	  0.085731462	2.560300E+01	  0.085731462	2.484100E+01
330	  0.085931860	-7.200000E+00	  0.085931860	1.155730E+02	  0.085931860	2.582300E+01	  0.085931860	2.511900E+01
331	  0.086132258	-7.225000E+00	  0.086132258	1.148880E+02	  0.086132258	2.604900E+01	  0.086132258	2.537700E+01
332	  0.086332664	-7.242000E+00	  0.086332664	1.141750E+02	  0.086332664	2.626500E+01	  0.086332664	2.565800E+01
333	  0.086533062	-7.270000E+00	  0.086533062	1.134710E+02	  0.086533062	2.651200E+01	  0.086533062	2.591700E+01
334	  0.086733460	-7.286000E+00	  0.086733460	1.127340E+02	  0.086733460	2.673400E+01	  0.086733460	2.621000E+01
335	  0.086933866	-7.309000E+00	  0.086933866	1.120450E+02	  0.086933866	2.697200E+01	  0.086933866	2.646900E+01
336	  0.087134264	-7.332000E+00	  0.087134264	1.113310E+02	  0.087134264	2.721500E+01	  0.087134264	2.674000E+01
337	  0.087334670	-7.354000E+00	  0.087334670	1.106370E+02	  0.087334670	2.745800E+01	  0.087334670	2.700100E+01
338	  0.087535068	-7.377000E+00	  0.087535068	1.099860E+02	  0.087535068	2.769200E+01	  0.087535068	2.724400E+01
339	  0.087735467	-7.399000E+00	  0.087735467	1.093060E+02	  0.087735467	2.793500E+01	  0.087735467	2.749900E+01
340	  0.087935872	-7.428000E+00	  0.087935872	1.086530E+02	  0.087935872	2.819500E+01	  0.087935872	2.772900E+01
341	  0.088136271	-7.447000E+00	  0.088136271	1.079810E+02	  0.088136271	2.843400E+01	  0.088136271	2.798500E+01
342	  0.088336669	-7.474000E+00	  0.088336669	1.073170E+02	  0.088336669	2.869600E+01	  0.088336669	2.822200E+01
343	  0.088537075	-7.487000E+00	  0.088537075	1.066670E+02	  0.088537075	2.892000E+01	  0.088537075	2.847700E+01
344	  0.088737473	-7.511000E+00	  0.088737473	1.060390E+02	  0.088737473	2.917000E+01	  0.088737473	2.870300E+01
345	  0.088937871	-7.533000E+00	  0.088937871	1.054070E+02	  0.088937871	2.941900E+01	  0.088937871	2.893300E+01
346	  0.089138277	-7.561000E+00	  0.089138277	1.047590E+02	  0.089138277	2.969300E+01	  0.089138277	2.915700E+01
347	  0.089338675	-7.584000E+00	  0.089338675	1.041560E+02	  0.089338675	2.994300E+01	  0.089338675	2.937000E+01
348	  0.089539073	-7.610000E+00	  0.089539073	1.035330E+02	  0.089539073	3.020800E+01	  0.089539073	2.958500E+01
349	  0.089739479	-7.635000E+00	  0.089739479	1.029300E+02	  0.089739479	3.046800E+01	  0.089739479	2.979300E+01
350	  0.089939877	-7.662000E+00	  0.089939877	1.023190E+02	  0.089939877	3.074000E+01	  0.089939877	2.999700E+01
351	  0.090140276	-7.681000E+00	  0.090140276	1.017130E+02	  0.090140276	3.098900E+01	  0.090140276	3.021800E+01
352	  0.090340681	-7.711000E+00	  0.090340681	1.011240E+02	  0.090340681	3.126900E+01	  0.090340681	3.040300E+01
353	  0.090541080	-7.734000E+00	  0.090541080	1.005140E+02	  0.090541080	3.153900E+01	  0.090541080	3.061200E+01
354	  0.090741485	-7.760000E+00	  0.090741485	9.995300E+01	  0.090741485	3.180000E+01	  0.090741485	3.079400E+01
355	  0.090941884	-7.787000E+00	  0.090941884	9.938100E+01	  0.090941884	3.207500E+01	  0.090941884	3.097400E+01
356	  0.091142282	-7.819000E+00	  0.091142282	9.878800E+01	  0.091142282	3.237100E+01	  0.091142282	3.115200E+01
357	  0.091342688	-7.849000E+00	  0.091342688	9.821800E+01	  0.091342688	3.265700E+01	  0.091342688	3.132200E+01
358	  0.091543086	-7.869000E+00	  0.091543086	9.762800E+01	  0.091543086	3.292400E+01	  0.091543086	3.152300E+01
359	  0.091743484	-7.897000E+00	  0.091743484	9.702600E+01	  0.091743484	3.322000E+01	  0.091743484	3.171000E+01
360	  0.091943890	-7.922000E+00	  0.091943890	9.646900E+01	  0.091943890	3.349600E+01	  0.091943890	3.188200E+01
361	  0.092144288	-7.947000E+00	  0.092144288	9.590400E+01	  0.092144288	3.377800E+01	  0.092144288	3.205400E+01
362	  0.092344686	-7.966000E+00	  0.092344686	9.527900E+01	  0.092344686	3.406700E+01	  0.092344686	3.226700E+01
363	  0.092545092	-8.000000E+00	  0.092545092	9.475300E+01	  0.092545092	3.436200E+01	  0.092545092	3.240000E+01
364	  0.092745490	-8.022000E+00	  0.092745490	9.421900E+01	  0.092745490	3.463200E+01	  0.092745490	3.256200E+01
365	  0.092945889	-8.051000E+00	  0.092945889	9.364700E+01	  0.092945889	3.493700E+01	  0.092945889	3.272200E+01
366	  0.093146294	-8.074000E+00	  0.093146294	9.310100E+01	  0.093146294	3.521900E+01	  0.093146294	3.288500E+01
367	  0.093346693	-8.099000E+00	  0.093346693	9.256400E+01	  0.093346693	3.550400E+01	  0.093346693	3.303700E+01
368	  0.093547091	-8.116000E+00	  0.093547091	9.200600E+01	  0.093547091	3.578100E+01	  0.093547091	3.321600E+01
369	  0.093747497	-8.145000E+00	  0.093747497	9.149300E+01	  0.093747497	3.607000E+01	  0.093747497	3.334600E+01
370	  0.093947895	-8.167000E+00	  0.093947895	9.095700E+01	  0.093947895	3.635800E+01	  0.093947895	3.349800E+01
371	  0.094148301	-8.189000E+00	  0.094148301	9.043700E+01	  0.094148301	3.663700E+01	  0.094148301	3.364500E+01
372	  0.094348699	-8.215000E+00	  0.094348699	8.991500E+01	  0.094348699	3.693200E+01	  0.094348699	3.377800E+01
373	  0.094549097	-8.238000E+00	  0.094549097	8.941800E+01	  0.094549097	3.720900E+01	  0.094549097	3.391000E+01
374	  0.094749503	-8.259000E+00	  0.094749503	8.889800E+01	  0.094749503	3.749300E+01	  0.094749503	3.405400E+01
375	  0.094949901	-8.279000E+00	  0.094949901	8.841200E+01	  0.094949901	3.776200E+01	  0.094949901	3.418600E+01
376	  0.095150299	-8.297000E+00	  0.095150299	8.794500E+01	  0.095150299	3.802200E+01	  0.095150299	3.431300E+01
377	  0.095350705	-8.312000E+00	  0.095350705	8.741200E+01	  0.095350705	3.830300E+01	  0.095350705	3.447700E+01
378	  0.095551103	-8.333000E+00	  0.095551103	8.696000E+01	  0.095551103	3.856700E+01	  0.095551103	3.458600E+01
379	  0.095751502	-8.353000E+00	  0.095751502	8.644500E+01	  0.095751502	3.885900E+01	  0.095751502	3.472100E+01
380	  0.095951907	-8.367000E+00	  0.095951907	8.598400E+01	  0.095951907	3.911300E+01	  0.095951907	3.485300E+01
381	  0.096152306	-8.392000E+00	  0.096152306	8.552000E+01	  0.096152306	3.939600E+01	  0.096152306	3.495300E+01
382	  0.096352704	-8.405000E+00	  0.096352704	8.505000E+01	  0.096352704	3.965700E+01	  0.096352704	3.508700E+01
383	  0.096553110	-8.421000E+00	  0.096553110	8.460100E+01	  0.096553110	3.991600E+01	  0.096553110	3.520500E+01
384	  0.096753508	-8.433000E+00	  0.096753508	8.418100E+01	  0.096753508	4.015200E+01	  0.096753508	3.532300E+01
385	  0.096953906	-8.449000E+00	  0.096953906	8.368600E+01	  0.096953906	4.043700E+01	  0.096953906	3.545500E+01
386	  0.097154312	-8.464000E+00	  0.097154312	8.323000E+01	  0.097154312	4.070500E+01	  0.097154312	3.557200E+01
387	  0.097354710	-8.478000E+00	  0.097354710	8.281200E+01	  0.097354710	4.095000E+01	  0.097354710	3.568000E+01
388	  0.097555116	-8.486000E+00	  0.097555116	8.235900E+01	  0.097555116	4.120200E+01	  0.097555116	3.581700E+01
389	  0.097755514	-8.503000E+00	  0.097755514	8.193900E+01	  0.097755514	4.145800E+01	  0.097755514	3.591300E+01
390	  0.097955912	-8.515000E+00	  0.097955912	8.148100E+01	  0.097955912	4.172700E+01	  0.097955912	3.603600E+01
391	  0.098156318	-8.524000E+00	  0.098156318	8.105900E+01	  0.098156318	4.196900E+01	  0.098156318	3.615600E+01
392	  0.098356716	-8.531000E+00	  0.098356716	8.063600E+01	  0.098356716	4.221300E+01	  0.098356716	3.628000E+01
393	  0.098557115	-8.540000E+00	  0.098557115	8.021800E+01	  0.098557115	4.245800E+01	  0.098557115	3.639700E+01
394	  0.098757520	-8.550000E+00	  0.098757520	7.972900E+01	  0.098757520	4.274700E+01	  0.098757520	3.653200E+01
395	  0.098957919	-8.554000E+00	  0.098957919	7.930200E+01	  0.098957919	4.298900E+01	  0.098957919	3.666800E+01
396	  0.099158317	-8.557000E+00	  0.099158317	7.885400E+01	  0.099158317	4.324200E+01	  0.099158317	3.681500E+01
397	  0.099358723	-8.561000E+00	  0.099358723	7.841900E+01	  0.099358723	4.349500E+01	  0.099358723	3.694900E+01
398	  0.099559121	-8.565000E+00	  0.099559121	7.800700E+01	  0.099559121	4.373800E+01	  0.099559121	3.707400E+01
399	  0.099759519	-8.568000E+00	  0.099759519	7.755800E+01	  0.099759519	4.399900E+01	  0.099759519	3.721800E+01
400	  0.099959925	-8.562000E+00	  0.099959925	7.715200E+01	  0.099959925	4.421800E+01	  0.099959925	3.737900E+01
401	  0.100160323	-8.568000E+00	  0.100160323	7.676600E+01	  0.100160323	4.445600E+01	  0.100160323	3.748600E+01
402	  0.100360721	-8.565000E+00	  0.100360721	7.630400E+01	  0.100360721	4.471900E+01	  0.100360721	3.765200E+01
403	  0.100561127	-8.563000E+00	  0.100561127	7.585000E+01	  0.100561127	4.498300E+01	  0.100561127	3.781200E+01
404	  0.100761525	-8.555000E+00	  0.100761525	7.535500E+01	  0.100761525	4.526000E+01	  0.100761525	3.800800E+01
405	  0.100961931	-8.559000E+00	  0.100961931	7.500200E+01	  0.100961931	4.548200E+01	  0.100961931	3.810900E+01
406	  0.101162329	-8.551000E+00	  0.101162329	7.460000E+01	  0.101162329	4.570900E+01	  0.101162329	3.827200E+01
407	  0.101362728	-8.549000E+00	  0.101362728	7.412200E+01	  0.101362728	4.599800E+01	  0.101362728	3.843600E+01
408	  0.101563133	-8.546000E+00	  0.101563133	7.365600E+01	  0.101563133	4.628200E+01	  0.101563133	3.859700E+01
409	  0.101763532	-8.539000E+00	  0.101763532	7.325000E+01	  0.101763532	4.652100E+01	  0.101763532	3.875700E+01
410	  0.101963930	-8.542000E+00	  0.101963930	7.283600E+01	  0.101963930	4.678900E+01	  0.101963930	3.887800E+01
411	  0.102164328	-8.538000E+00	  0.102164328	7.233000E+01	  0.102164328	4.710400E+01	  0.102164328	3.905500E+01
412	  0.102364726	-8.523000E+00	  0.102364726	7.185600E+01	  0.102364726	4.737900E+01	  0.102364726	3.926800E+01
413	  0.102565125	-8.520000E+00	  0.102565125	7.148000E+01	  0.102565125	4.761700E+01	  0.102565125	3.940000E+01
414	  0.102765530	-8.514000E+00	  0.102765530	7.100100E+01	  0.102765530	4.792100E+01	  0.102765530	3.957100E+01
415	  0.102965929	-8.502000E+00	  0.102965929	7.055700E+01	  0.102965929	4.819200E+01	  0.102965929	3.976200E+01
416	  0.103166327	-8.497000E+00	  0.103166327	7.010000E+01	  0.103166327	4.848900E+01	  0.103166327	3.992300E+01
417	  0.103366733	-8.493000E+00	  0.103366733	6.966900E+01	  0.103366733	4.877400E+01	  0.103366733	4.007300E+01
418	  0.103567131	-8.491000E+00	  0.103567131	6.917200E+01	  0.103567131	4.911100E+01	  0.103567131	4.023000E+01
419	  0.103767529	-8.473000E+00	  0.103767529	6.870800E+01	  0.103767529	4.939800E+01	  0.103767529	4.045000E+01
420	  0.103967935	-8.469000E+00	  0.103967935	6.825900E+01	  0.103967935	4.970400E+01	  0.103967935	4.060200E+01
421	  0.104168333	-8.464000E+00	  0.104168333	6.774200E+01	  0.104168333	5.006200E+01	  0.104168333	4.077300E+01
422	  0.104368731	-8.452000E+00	  0.104368731	6.730000E+01	  0.104368731	5.035400E+01	  0.104368731	4.096000E+01
423	  0.104569137	-8.449000E+00	  0.104569137	6.675600E+01	  0.104569137	5.074300E+01	  0.104569137	4.112800E+01
424	  0.104769535	-8.439000E+00	  0.104769535	6.628400E+01	  0.104769535	5.107000E+01	  0.104769535	4.131000E+01
425	  0.104969934	-8.428000E+00	  0.104969934	6.571800E+01	  0.104969934	5.147000E+01	  0.104969934	4.151900E+01
426	  0.105170339	-8.417000E+00	  0.105170339	6.526700E+01	  0.105170339	5.178700E+01	  0.105170339	4.169800E+01
427	  0.105370738	-8.407000E+00	  0.105370738	6.468500E+01	  0.105370738	5.221100E+01	  0.105370738	4.190600E+01
428	  0.105571143	-8.400000E+00	  0.105571143	6.418100E+01	  0.105571143	5.258600E+01	  0.105571143	4.207500E+01
429	  0.105771542	-8.387000E+00	  0.105771542	6.366200E+01	  0.105771542	5.296900E+01	  0.105771542	4.227200E+01
430	  0.105971940	-8.387000E+00	  0.105971940	6.310200E+01	  0.105971940	5.340800E+01	  0.105971940	4.241700E+01
431	  0.106172346	-8.361000E+00	  0.106172346	6.256800E+01	  0.106172346	5.379100E+01	  0.106172346	4.268800E+01
432	  0.106372744	-8.348000E+00	  0.106372744	6.200600E+01	  0.106372744	5.422300E+01	  0.106372744	4.289500E+01
433	  0.106573142	-8.344000E+00	  0.106573142	6.145400E+01	  0.106573142	5.466700E+01	  0.106573142	4.305100E+01
434	  0.106773548	-8.325000E+00	  0.106773548	6.085600E+01	  0.106773548	5.513200E+01	  0.106773548	4.329300E+01
435	  0.106973946	-8.313000E+00	  0.106973946	6.030500E+01	  0.106973946	5.557600E+01	  0.106973946	4.348800E+01
436	  0.107174344	-8.299000E+00	  0.107174344	5.971400E+01	  0.107174344	5.605800E+01	  0.107174344	4.369800E+01
437	  0.107374750	-8.283000E+00	  0.107374750	5.907100E+01	  0.107374750	5.658700E+01	  0.107374750	4.393300E+01
438	  0.107575148	-8.273000E+00	  0.107575148	5.852100E+01	  0.107575148	5.705400E+01	  0.107575148	4.410300E+01
439	  0.107775547	-8.257000E+00	  0.107775547	5.792200E+01	  0.107775547	5.756300E+01	  0.107775547	4.432100E+01
440	  0.107975952	-8.245000E+00	  0.107975952	5.734200E+01	  0.107975952	5.806700E+01	  0.107975952	4.450300E+01
441	  0.108176351	-8.233000E+00	  0.108176351	5.673200E+01	  0.108176351	5.860600E+01	  0.108176351	4.469400E+01
442	  0.108376749	-8.220000E+00	  0.108376749	5.612600E+01	  0.108376749	5.914700E+01	  0.108376749	4.488400E+01
443	  0.108577155	-8.198000E+00	  0.108577155	5.547900E+01	  0.108577155	5.972700E+01	  0.108577155	4.512700E+01
444	  0.108777553	-8.189000E+00	  0.108777553	5.486500E+01	  0.108777553	6.029900E+01	  0.108777553	4.528400E+01
445	  0.108977959	-8.172000E+00	  0.108977959	5.419700E+01	  0.108977959	6.092300E+01	  0.108977959	4.549700E+01
446	  0.109178357	-8.167000E+00	  0.109178357	5.359400E+01	  0.109178357	6.150500E+01	  0.109178357	4.561600E+01
447	  0.109378755	-8.145000E+00	  0.109378755	5.292100E+01	  0.109378755	6.215000E+01	  0.109378755	4.584800E+01
448	  0.109579161	-8.139000E+00	  0.109579161	5.227900E+01	  0.109579161	6.278800E+01	  0.109579161	4.596800E+01
449	  0.109779559	-8.116000E+00	  0.109779559	5.164700E+01	  0.109779559	6.341200E+01	  0.109779559	4.619400E+01
450	  0.109979957	-8.110000E+00	  0.109979957	5.099600E+01	  0.109979957	6.407700E+01	  0.109979957	4.630300E+01
451	  0.110180363	-8.096000E+00	  0.110180363	5.026700E+01	  0.110180363	6.483100E+01	  0.110180363	4.645900E+01
452	  0.110380761	-8.085000E+00	  0.110380761	4.956800E+01	  0.110380761	6.556600E+01	  0.110380761	4.658800E+01
453	  0.110581160	-8.073000E+00	  0.110581160	4.891000E+01	  0.110581160	6.626700E+01	  0.110581160	4.671100E+01
454	  0.110781565	-8.060000E+00	  0.110781565	4.821000E+01	  0.110781565	6.702500E+01	  0.110781565	4.683500E+01
455	  0.110981964	-8.055000E+00	  0.110981964	4.751500E+01	  0.110981964	6.779100E+01	  0.110981964	4.688600E+01
456	  0.111182362	-8.042000E+00	  0.111182362	4.680900E+01	  0.111182362	6.857900E+01	  0.111182362	4.699100E+01
457	  0.111382768	-8.032000E+00	  0.111382768	4.608400E+01	  0.111382768	6.940100E+01	  0.111382768	4.706100E+01
458	  0.111583166	-8.030000E+00	  0.111583166	4.531500E+01	  0.111583166	7.028300E+01	  0.111583166	4.705000E+01
459	  0.111783572	-8.021000E+00	  0.111783572	4.458000E+01	  0.111783572	7.114000E+01	  0.111783572	4.708900E+01
460	  0.111983970	-8.011000E+00	  0.111983970	4.382700E+01	  0.111983970	7.203100E+01	  0.111983970	4.711300E+01
461	  0.112184368	-8.004000E+00	  0.112184368	4.308900E+01	  0.112184368	7.291500E+01	  0.112184368	4.709700E+01
462	  0.112384774	-8.002000E+00	  0.112384774	4.231800E+01	  0.112384774	7.384600E+01	  0.112384774	4.702000E+01
463	  0.112585172	-7.999000E+00	  0.112585172	4.152300E+01	  0.112585172	7.481700E+01	  0.112585172	4.692900E+01
464	  0.112785570	-8.004000E+00	  0.112785570	4.074500E+01	  0.112785570	7.577000E+01	  0.112785570	4.675800E+01
465	  0.112985976	-7.992000E+00	  0.112985976	3.998300E+01	  0.112985976	7.673200E+01	  0.112985976	4.670600E+01
466	  0.113186374	-7.988000E+00	  0.113186374	3.918400E+01	  0.113186374	7.774300E+01	  0.113186374	4.655700E+01
467	  0.113386773	-7.990000E+00	  0.113386773	3.838200E+01	  0.113386773	7.875800E+01	  0.113386773	4.633600E+01
468	  0.113587178	-7.996000E+00	  0.113587178	3.754900E+01	  0.113587178	7.981100E+01	  0.113587178	4.604600E+01
469	  0.113787577	-7.995000E+00	  0.113787577	3.665300E+01	  0.113787577	8.096700E+01	  0.113787577	4.576300E+01
470	  0.113987975	-7.994000E+00	  0.113987975	3.586100E+01	  0.113987975	8.199700E+01	  0.113987975	4.548900E+01
471	  0.114188381	-7.997000E+00	  0.114188381	3.498700E+01	  0.114188381	8.313300E+01	  0.114188381	4.512100E+01
472	  0.114388779	-8.003000E+00	  0.114388779	3.413100E+01	  0.114388779	8.423600E+01	  0.114388779	4.469300E+01
473	  0.114589177	-8.006000E+00	  0.114589177	3.325900E+01	  0.114589177	8.537600E+01	  0.114589177	4.425600E+01
474	  0.114789583	-8.007000E+00	  0.114789583	3.239800E+01	  0.114789583	8.651100E+01	  0.114789583	4.380800E+01
475	  0.114989981	-8.019000E+00	  0.114989981	3.156100E+01	  0.114989981	8.757300E+01	  0.114989981	4.323500E+01
476	  0.115190387	-8.028000E+00	  0.115190387	3.061500E+01	  0.115190387	8.878500E+01	  0.115190387	4.258800E+01
477	  0.115390785	-8.038000E+00	  0.115390785	2.969800E+01	  0.115390785	8.995500E+01	  0.115390785	4.191500E+01
478	  0.115591183	-8.055000E+00	  0.115591183	2.879600E+01	  0.115591183	9.106100E+01	  0.115591183	4.114100E+01
479	  0.115791589	-8.068000E+00	  0.115791589	2.785800E+01	  0.115791589	9.221900E+01	  0.115791589	4.033600E+01
480	  0.115991987	-8.085000E+00	  0.115991987	2.696200E+01	  0.115991987	9.329000E+01	  0.115991987	3.948700E+01
481	  0.116192386	-8.105000E+00	  0.116192386	2.600300E+01	  0.116192386	9.440500E+01	  0.116192386	3.851700E+01
482	  0.116392791	-8.124000E+00	  0.116392791	2.501400E+01	  0.116392791	9.553700E+01	  0.116392791	3.747800E+01
483	  0.116593190	-8.145000E+00	  0.116593190	2.406200E+01	  0.116593190	9.659000E+01	  0.116593190	3.641800E+01
484	  0.116793588	-8.168000E+00	  0.116793588	2.306100E+01	  0.116793588	9.765700E+01	  0.116793588	3.524800E+01
485	  0.116993994	-8.191000E+00	  0.116993994	2.206700E+01	  0.116993994	9.867400E+01	  0.116993994	3.403300E+01
486	  0.117194392	-8.223000E+00	  0.117194392	2.102900E+01	  0.117194392	9.964800E+01	  0.117194392	3.266600E+01
487	  0.117394790	-8.254000E+00	  0.117394790	2.003000E+01	  0.117394790	1.005330E+02	  0.117394790	3.130600E+01
488	  0.117595196	-8.286000E+00	  0.117595196	1.899500E+01	  0.117595196	1.014000E+02	  0.117595196	2.985700E+01
489	  0.117795594	-8.330000E+00	  0.117795594	1.789500E+01	  0.117795594	1.021760E+02	  0.117795594	2.820800E+01
490	  0.117995992	-8.361000E+00	  0.117995992	1.686600E+01	  0.117995992	1.029280E+02	  0.117995992	2.670300E+01
491	  0.118196398	-8.405000E+00	  0.118196398	1.577700E+01	  0.118196398	1.035670E+02	  0.118196398	2.500900E+01
492	  0.118396796	-8.450000E+00	  0.118396796	1.459300E+01	  0.118396796	1.042020E+02	  0.118396796	2.315700E+01
493	  0.118597202	-8.490000E+00	  0.118597202	1.352800E+01	  0.118597202	1.047050E+02	  0.118597202	2.147300E+01
494	  0.118797600	-8.548000E+00	  0.118797600	1.237300E+01	  0.118797600	1.050250E+02	  0.118797600	1.955200E+01
