! Anritsu VNA Master:             	Model: MS2036C/10/77
! SN:             	1601066
! /bd0/18may07/256.ew.m9.txt
! Existing Calibration Information:
! TYPE:             	Current Settings	Active Cal Settings
! TIME:             	05/07/2018 12:16:46 PM	05/07/2018 12:05:13 PM
! INTERNAL TEMP:    	54.8 C	53.5 C
! # POINTS:         	500	500
! START FREQ:       	20.000 MHz	20.000 MHz
! STOP FREQ:        	120.000 MHz	120.000 MHz
! SOURCE POWER:     	High	High
! IFBW:             	50 Hz	50 Hz
! AVG FACTOR:       	  1 	  1 
! REF PLANE 1:      	0 mm	0 mm
! REF PLANE 2:      	0 mm	0 mm
! CAL TYPE:         	Full S11	Full S11
! CAL METHOD:       	SOLT	SOLT
! CAL LINE TYPE:    	Coax	Coax
! DUT PORT 1:       	K-Conn(F)	K-Conn(F)
! DUT PORT 2:       	K-Conn(F)	K-Conn(F)
! CAL STATUS:       	OK: Accuracy High	--
! PROP-V:       	0.700
! CABLE LOSS:       	0.000 dB/m
! REF IMPEDANCE:       	50.0
! Trace Specific Parameters:	TR1	TR2	TR3	TR4
! TRACE.#.Y (GRAPH TYPE)	LOG MAG	PHASE	REAL IMPEDANCE	IMAGINARY IMPEDANCE
! TRACE.#.X 	FREQ.GHZ	FREQ.GHZ	FREQ.GHZ	FREQ.GHZ
! S-PARAMETER	S11	S11	S11	S11
! SMOOTH/APERTURE %	0	0	0	0
! WINDOW	NSL	NSL	NSL	NSL
! GATING	OFF	OFF	OFF	OFF
! FGTD	OFF	OFF	OFF	OFF
Marker Information per Trace:	TR1	TR2	TR3	TR4
!MK1	--	"MK1 TR2:  20.000 MHz,PH:-125.72°"	--	--
!MK2	--	--	"MK2 TR3:  70.100 200 MHz,Z:(16.371 ohm, -2.978 ohm)"	--
!MK3	--	--	--	--
!MK4	--	--	--	--
!MK5	--	--	--	--
!MK6	--	--	--	--
!MK7	--	--	--	--
!MK8	--	--	--	--
PNT	TR1.FREQ.GHZ	TR1.LOG MAG.dB	TR2.FREQ.GHZ	TR2.PHASE.deg	TR3.FREQ.GHZ	TR3.REAL IMPEDANCE.ohm	TR4.FREQ.GHZ	TR4.IMAGINARY IMPEDANCE.ohm
1	  0.020000000	-6.330000E-01	  0.020000000	-1.257230E+02	  0.020000000	2.300000E+00	  0.020000000	-2.558500E+01
2	  0.020200402	-6.310000E-01	  0.020200402	-1.271960E+02	  0.020200402	2.265000E+00	  0.020200402	-2.478100E+01
3	  0.020400802	-6.330000E-01	  0.020400802	-1.286440E+02	  0.020400802	2.243000E+00	  0.020400802	-2.400000E+01
4	  0.020601204	-6.350000E-01	  0.020601204	-1.301110E+02	  0.020601204	2.222000E+00	  0.020601204	-2.321800E+01
5	  0.020801604	-6.380000E-01	  0.020801604	-1.316040E+02	  0.020801604	2.208000E+00	  0.020801604	-2.243100E+01
6	  0.021002004	-6.460000E-01	  0.021002004	-1.331300E+02	  0.021002004	2.207000E+00	  0.021002004	-2.163700E+01
7	  0.021202406	-6.530000E-01	  0.021202406	-1.346630E+02	  0.021202406	2.206000E+00	  0.021202406	-2.084800E+01
8	  0.021402806	-6.590000E-01	  0.021402806	-1.361980E+02	  0.021402806	2.203000E+00	  0.021402806	-2.006700E+01
9	  0.021603208	-6.650000E-01	  0.021603208	-1.377370E+02	  0.021603208	2.199000E+00	  0.021603208	-1.929100E+01
10	  0.021803608	-6.690000E-01	  0.021803608	-1.392820E+02	  0.021803608	2.190000E+00	  0.021803608	-1.852200E+01
11	  0.022004008	-6.730000E-01	  0.022004008	-1.408210E+02	  0.022004008	2.183000E+00	  0.022004008	-1.776300E+01
12	  0.022204408	-6.780000E-01	  0.022204408	-1.423820E+02	  0.022204408	2.179000E+00	  0.022204408	-1.700100E+01
13	  0.022404809	-6.850000E-01	  0.022404809	-1.439620E+02	  0.022404809	2.179000E+00	  0.022404809	-1.623600E+01
14	  0.022605211	-6.920000E-01	  0.022605211	-1.455450E+02	  0.022605211	2.181000E+00	  0.022605211	-1.547600E+01
15	  0.022805611	-6.980000E-01	  0.022805611	-1.471470E+02	  0.022805611	2.182000E+00	  0.022805611	-1.471400E+01
16	  0.023006011	-6.990000E-01	  0.023006011	-1.487430E+02	  0.023006011	2.170000E+00	  0.023006011	-1.396200E+01
17	  0.023206413	-6.990000E-01	  0.023206413	-1.503260E+02	  0.023206413	2.154000E+00	  0.023206413	-1.322200E+01
18	  0.023406813	-7.030000E-01	  0.023406813	-1.519120E+02	  0.023406813	2.149000E+00	  0.023406813	-1.248500E+01
19	  0.023607215	-7.070000E-01	  0.023607215	-1.535000E+02	  0.023607215	2.148000E+00	  0.023607215	-1.175200E+01
20	  0.023807615	-7.160000E-01	  0.023807615	-1.550980E+02	  0.023807615	2.161000E+00	  0.023807615	-1.102000E+01
21	  0.024008015	-7.250000E-01	  0.024008015	-1.567160E+02	  0.024008015	2.175000E+00	  0.024008015	-1.028200E+01
22	  0.024208417	-7.350000E-01	  0.024208417	-1.583460E+02	  0.024208417	2.192000E+00	  0.024208417	-9.544000E+00
23	  0.024408817	-7.440000E-01	  0.024408817	-1.599880E+02	  0.024408817	2.208000E+00	  0.024408817	-8.804000E+00
24	  0.024609219	-7.530000E-01	  0.024609219	-1.616300E+02	  0.024609219	2.223000E+00	  0.024609219	-8.068000E+00
25	  0.024809619	-7.630000E-01	  0.024809619	-1.632760E+02	  0.024809619	2.242000E+00	  0.024809619	-7.334000E+00
26	  0.025010020	-7.760000E-01	  0.025010020	-1.649230E+02	  0.025010020	2.271000E+00	  0.025010020	-6.603000E+00
27	  0.025210422	-7.890000E-01	  0.025210422	-1.665770E+02	  0.025210422	2.300000E+00	  0.025210422	-5.871000E+00
28	  0.025410822	-8.010000E-01	  0.025410822	-1.682650E+02	  0.025410822	2.329000E+00	  0.025410822	-5.127000E+00
29	  0.025611224	-8.160000E-01	  0.025611224	-1.699530E+02	  0.025611224	2.365000E+00	  0.025611224	-4.384000E+00
30	  0.025811624	-8.300000E-01	  0.025811624	-1.716640E+02	  0.025811624	2.401000E+00	  0.025811624	-3.634000E+00
31	  0.026012026	-8.420000E-01	  0.026012026	-1.733880E+02	  0.026012026	2.429000E+00	  0.026012026	-2.881000E+00
32	  0.026212426	-8.540000E-01	  0.026212426	-1.751080E+02	  0.026212426	2.460000E+00	  0.026212426	-2.130000E+00
33	  0.026412826	-8.660000E-01	  0.026412826	-1.768410E+02	  0.026412826	2.494000E+00	  0.026412826	-1.375000E+00
34	  0.026613226	-8.830000E-01	  0.026613226	-1.785910E+02	  0.026613226	2.540000E+00	  0.026613226	-6.130000E-01
35	  0.026813626	-8.990000E-01	  0.026813626	1.796440E+02	  0.026813626	2.587000E+00	  0.026813626	1.540000E-01
36	  0.027014028	-9.170000E-01	  0.027014028	1.778690E+02	  0.027014028	2.638000E+00	  0.027014028	9.270000E-01
37	  0.027214428	-9.340000E-01	  0.027214428	1.760930E+02	  0.027214428	2.691000E+00	  0.027214428	1.700000E+00
38	  0.027414829	-9.520000E-01	  0.027414829	1.742930E+02	  0.027414829	2.746000E+00	  0.027414829	2.484000E+00
39	  0.027615231	-9.700000E-01	  0.027615231	1.724820E+02	  0.027615231	2.801000E+00	  0.027615231	3.274000E+00
40	  0.027815631	-9.900000E-01	  0.027815631	1.706690E+02	  0.027815631	2.865000E+00	  0.027815631	4.067000E+00
41	  0.028016033	-1.011000E+00	  0.028016033	1.688400E+02	  0.028016033	2.935000E+00	  0.028016033	4.867000E+00
42	  0.028216433	-1.034000E+00	  0.028216433	1.670020E+02	  0.028216433	3.013000E+00	  0.028216433	5.675000E+00
43	  0.028416833	-1.056000E+00	  0.028416833	1.651680E+02	  0.028416833	3.088000E+00	  0.028416833	6.483000E+00
44	  0.028617235	-1.076000E+00	  0.028617235	1.633300E+02	  0.028617235	3.161000E+00	  0.028617235	7.296000E+00
45	  0.028817635	-1.096000E+00	  0.028817635	1.614900E+02	  0.028817635	3.234000E+00	  0.028817635	8.113000E+00
46	  0.029018037	-1.118000E+00	  0.029018037	1.596720E+02	  0.029018037	3.316000E+00	  0.029018037	8.925000E+00
47	  0.029218437	-1.138000E+00	  0.029218437	1.578540E+02	  0.029218437	3.397000E+00	  0.029218437	9.741000E+00
48	  0.029418837	-1.162000E+00	  0.029418837	1.560370E+02	  0.029418837	3.489000E+00	  0.029418837	1.056100E+01
49	  0.029619239	-1.189000E+00	  0.029619239	1.542040E+02	  0.029619239	3.597000E+00	  0.029619239	1.139200E+01
50	  0.029819639	-1.217000E+00	  0.029819639	1.523400E+02	  0.029819639	3.710000E+00	  0.029819639	1.224400E+01
51	  0.030020041	-1.248000E+00	  0.030020041	1.504570E+02	  0.030020041	3.834000E+00	  0.030020041	1.311100E+01
52	  0.030220442	-1.277000E+00	  0.030220442	1.485580E+02	  0.030220442	3.960000E+00	  0.030220442	1.399200E+01
53	  0.030420844	-1.307000E+00	  0.030420844	1.466490E+02	  0.030420844	4.091000E+00	  0.030420844	1.488400E+01
54	  0.030621244	-1.338000E+00	  0.030621244	1.447570E+02	  0.030621244	4.230000E+00	  0.030621244	1.577800E+01
55	  0.030821644	-1.370000E+00	  0.030821644	1.428660E+02	  0.030821644	4.376000E+00	  0.030821644	1.667800E+01
56	  0.031022044	-1.403000E+00	  0.031022044	1.409580E+02	  0.031022044	4.534000E+00	  0.031022044	1.759600E+01
57	  0.031222444	-1.438000E+00	  0.031222444	1.390470E+02	  0.031222444	4.701000E+00	  0.031222444	1.852500E+01
58	  0.031422846	-1.473000E+00	  0.031422846	1.370900E+02	  0.031422846	4.879000E+00	  0.031422846	1.948700E+01
59	  0.031623244	-1.513000E+00	  0.031623244	1.351030E+02	  0.031623244	5.078000E+00	  0.031623244	2.047500E+01
60	  0.031823646	-1.548000E+00	  0.031823646	1.331150E+02	  0.031823646	5.272000E+00	  0.031823646	2.147700E+01
61	  0.032024048	-1.584000E+00	  0.032024048	1.311220E+02	  0.032024048	5.477000E+00	  0.032024048	2.249500E+01
62	  0.032224450	-1.620000E+00	  0.032224450	1.291290E+02	  0.032224450	5.691000E+00	  0.032224450	2.352700E+01
63	  0.032424849	-1.656000E+00	  0.032424849	1.271260E+02	  0.032424849	5.916000E+00	  0.032424849	2.458000E+01
64	  0.032625251	-1.691000E+00	  0.032625251	1.251380E+02	  0.032625251	6.143000E+00	  0.032625251	2.564200E+01
65	  0.032825653	-1.730000E+00	  0.032825653	1.231520E+02	  0.032825653	6.399000E+00	  0.032825653	2.671800E+01
66	  0.033026051	-1.768000E+00	  0.033026051	1.211600E+02	  0.033026051	6.665000E+00	  0.033026051	2.781400E+01
67	  0.033226453	-1.812000E+00	  0.033226453	1.191790E+02	  0.033226453	6.963000E+00	  0.033226453	2.892100E+01
68	  0.033426855	-1.860000E+00	  0.033426855	1.171900E+02	  0.033426855	7.290000E+00	  0.033426855	3.005000E+01
69	  0.033627257	-1.910000E+00	  0.033627257	1.151740E+02	  0.033627257	7.648000E+00	  0.033627257	3.121400E+01
70	  0.033827655	-1.965000E+00	  0.033827655	1.131410E+02	  0.033827655	8.043000E+00	  0.033827655	3.240700E+01
71	  0.034028057	-2.015000E+00	  0.034028057	1.110700E+02	  0.034028057	8.441000E+00	  0.034028057	3.365000E+01
72	  0.034228459	-2.065000E+00	  0.034228459	1.089720E+02	  0.034228459	8.866000E+00	  0.034228459	3.493300E+01
73	  0.034428857	-2.117000E+00	  0.034428857	1.068400E+02	  0.034428857	9.330000E+00	  0.034428857	3.626600E+01
74	  0.034629259	-2.165000E+00	  0.034629259	1.047030E+02	  0.034629259	9.801000E+00	  0.034629259	3.763400E+01
75	  0.034829661	-2.209000E+00	  0.034829661	1.025700E+02	  0.034829661	1.028100E+01	  0.034829661	3.903600E+01
76	  0.035030060	-2.254000E+00	  0.035030060	1.004660E+02	  0.035030060	1.079600E+01	  0.035030060	4.044900E+01
77	  0.035230462	-2.298000E+00	  0.035230462	9.834900E+01	  0.035230462	1.133900E+01	  0.035230462	4.190800E+01
78	  0.035430863	-2.342000E+00	  0.035430863	9.623000E+01	  0.035430863	1.191600E+01	  0.035430863	4.340600E+01
79	  0.035631265	-2.384000E+00	  0.035631265	9.416000E+01	  0.035631265	1.251600E+01	  0.035631265	4.490700E+01
80	  0.035831664	-2.426000E+00	  0.035831664	9.208600E+01	  0.035831664	1.315300E+01	  0.035831664	4.645100E+01
81	  0.036032066	-2.469000E+00	  0.036032066	9.002800E+01	  0.036032066	1.383700E+01	  0.036032066	4.802200E+01
82	  0.036232468	-2.517000E+00	  0.036232468	8.798100E+01	  0.036232468	1.459000E+01	  0.036232468	4.961800E+01
83	  0.036432866	-2.565000E+00	  0.036432866	8.593100E+01	  0.036432866	1.540000E+01	  0.036432866	5.125800E+01
84	  0.036633268	-2.616000E+00	  0.036633268	8.390300E+01	  0.036633268	1.627300E+01	  0.036633268	5.291900E+01
85	  0.036833670	-2.669000E+00	  0.036833670	8.187200E+01	  0.036833670	1.722700E+01	  0.036833670	5.461800E+01
86	  0.037034072	-2.728000E+00	  0.037034072	7.982100E+01	  0.037034072	1.828600E+01	  0.037034072	5.637000E+01
87	  0.037234470	-2.787000E+00	  0.037234470	7.776900E+01	  0.037234470	1.943000E+01	  0.037234470	5.816600E+01
88	  0.037434869	-2.848000E+00	  0.037434869	7.568900E+01	  0.037434869	2.068200E+01	  0.037434869	6.002900E+01
89	  0.037635271	-2.909000E+00	  0.037635271	7.357700E+01	  0.037635271	2.204500E+01	  0.037635271	6.197200E+01
90	  0.037835669	-2.970000E+00	  0.037835669	7.145300E+01	  0.037835669	2.353200E+01	  0.037835669	6.397200E+01
91	  0.038036071	-3.032000E+00	  0.038036071	6.929700E+01	  0.038036071	2.515400E+01	  0.038036071	6.605700E+01
92	  0.038236473	-3.091000E+00	  0.038236473	6.714200E+01	  0.038236473	2.690300E+01	  0.038236473	6.819900E+01
93	  0.038436871	-3.153000E+00	  0.038436871	6.498800E+01	  0.038436871	2.881500E+01	  0.038436871	7.037800E+01
94	  0.038637273	-3.206000E+00	  0.038637273	6.284800E+01	  0.038637273	3.081900E+01	  0.038637273	7.262900E+01
95	  0.038837675	-3.256000E+00	  0.038837675	6.069800E+01	  0.038837675	3.298400E+01	  0.038837675	7.495700E+01
96	  0.039038073	-3.305000E+00	  0.039038073	5.860300E+01	  0.039038073	3.528800E+01	  0.039038073	7.727100E+01
97	  0.039238475	-3.354000E+00	  0.039238475	5.651600E+01	  0.039238475	3.779000E+01	  0.039238475	7.961000E+01
98	  0.039438877	-3.404000E+00	  0.039438877	5.446400E+01	  0.039438877	4.047900E+01	  0.039438877	8.193600E+01
99	  0.039639279	-3.455000E+00	  0.039639279	5.240900E+01	  0.039639279	4.343400E+01	  0.039639279	8.426500E+01
100	  0.039839678	-3.513000E+00	  0.039839678	5.035900E+01	  0.039839678	4.670600E+01	  0.039839678	8.652700E+01
101	  0.040040080	-3.573000E+00	  0.040040080	4.826900E+01	  0.040040080	5.034400E+01	  0.040040080	8.880100E+01
102	  0.040240481	-3.632000E+00	  0.040240481	4.619200E+01	  0.040240481	5.429200E+01	  0.040240481	9.100300E+01
103	  0.040440880	-3.691000E+00	  0.040440880	4.411300E+01	  0.040440880	5.859200E+01	  0.040440880	9.312400E+01
104	  0.040641282	-3.753000E+00	  0.040641282	4.202300E+01	  0.040641282	6.331800E+01	  0.040641282	9.509900E+01
105	  0.040841684	-3.811000E+00	  0.040841684	3.994400E+01	  0.040841684	6.839700E+01	  0.040841684	9.694000E+01
106	  0.041042086	-3.868000E+00	  0.041042086	3.787800E+01	  0.041042086	7.387000E+01	  0.041042086	9.855100E+01
107	  0.041242484	-3.926000E+00	  0.041242484	3.579000E+01	  0.041242484	7.986000E+01	  0.041242484	9.987800E+01
108	  0.041442886	-3.979000E+00	  0.041442886	3.372900E+01	  0.041442886	8.620300E+01	  0.041442886	1.009140E+02
109	  0.041643288	-4.033000E+00	  0.041643288	3.165100E+01	  0.041643288	9.307700E+01	  0.041643288	1.014960E+02
110	  0.041843686	-4.084000E+00	  0.041843686	2.957900E+01	  0.041843686	1.003860E+02	  0.041843686	1.015820E+02
111	  0.042044088	-4.134000E+00	  0.042044088	2.752900E+01	  0.042044088	1.080560E+02	  0.042044088	1.010660E+02
112	  0.042244490	-4.185000E+00	  0.042244490	2.550500E+01	  0.042244490	1.160060E+02	  0.042244490	9.976300E+01
113	  0.042444889	-4.236000E+00	  0.042444889	2.347900E+01	  0.042444889	1.242680E+02	  0.042444889	9.758600E+01
114	  0.042645290	-4.286000E+00	  0.042645290	2.146000E+01	  0.042645290	1.326990E+02	  0.042645290	9.450300E+01
115	  0.042845692	-4.336000E+00	  0.042845692	1.946500E+01	  0.042845692	1.410660E+02	  0.042845692	9.035500E+01
116	  0.043046094	-4.388000E+00	  0.043046094	1.747400E+01	  0.043046094	1.492780E+02	  0.043046094	8.506300E+01
117	  0.043246493	-4.435000E+00	  0.043246493	1.546900E+01	  0.043246493	1.572880E+02	  0.043246493	7.868100E+01
118	  0.043446895	-4.485000E+00	  0.043446895	1.349600E+01	  0.043446895	1.645920E+02	  0.043446895	7.118200E+01
119	  0.043647297	-4.533000E+00	  0.043647297	1.151100E+01	  0.043647297	1.712170E+02	  0.043647297	6.259000E+01
120	  0.043847695	-4.583000E+00	  0.043847695	9.531000E+00	  0.043847695	1.767660E+02	  0.043847695	5.298300E+01
121	  0.044048097	-4.628000E+00	  0.044048097	7.558000E+00	  0.044048097	1.812330E+02	  0.044048097	4.268500E+01
122	  0.044248499	-4.679000E+00	  0.044248499	5.570000E+00	  0.044248499	1.842470E+02	  0.044248499	3.165000E+01
123	  0.044448901	-4.724000E+00	  0.044448901	3.621000E+00	  0.044448901	1.859030E+02	  0.044448901	2.055600E+01
124	  0.044649299	-4.769000E+00	  0.044649299	1.671000E+00	  0.044649299	1.861540E+02	  0.044649299	9.409000E+00
125	  0.044849701	-4.814000E+00	  0.044849701	-2.670000E-01	  0.044849701	1.849780E+02	  0.044849701	-1.478000E+00
126	  0.045050103	-4.858000E+00	  0.045050103	-2.206000E+00	  0.045050103	1.825650E+02	  0.045050103	-1.193200E+01
127	  0.045250501	-4.897000E+00	  0.045250501	-4.144000E+00	  0.045250501	1.791430E+02	  0.045250501	-2.178700E+01
128	  0.045450903	-4.936000E+00	  0.045450903	-6.069000E+00	  0.045450903	1.747720E+02	  0.045450903	-3.083300E+01
129	  0.045651305	-4.974000E+00	  0.045651305	-7.974000E+00	  0.045651305	1.696310E+02	  0.045651305	-3.893100E+01
130	  0.045851704	-5.011000E+00	  0.045851704	-9.888000E+00	  0.045851704	1.638700E+02	  0.045851704	-4.617100E+01
131	  0.046052106	-5.050000E+00	  0.046052106	-1.177500E+01	  0.046052106	1.577080E+02	  0.046052106	-5.235000E+01
132	  0.046252504	-5.085000E+00	  0.046252504	-1.366400E+01	  0.046252504	1.513470E+02	  0.046252504	-5.770700E+01
133	  0.046452906	-5.121000E+00	  0.046452906	-1.554400E+01	  0.046452906	1.448680E+02	  0.046452906	-6.217700E+01
134	  0.046653304	-5.156000E+00	  0.046653304	-1.741000E+01	  0.046653304	1.384170E+02	  0.046653304	-6.582900E+01
135	  0.046853706	-5.190000E+00	  0.046853706	-1.928000E+01	  0.046853706	1.320310E+02	  0.046853706	-6.878400E+01
136	  0.047054108	-5.220000E+00	  0.047054108	-2.112300E+01	  0.047054108	1.259000E+02	  0.047054108	-7.112500E+01
137	  0.047254506	-5.254000E+00	  0.047254506	-2.296300E+01	  0.047254506	1.199270E+02	  0.047254506	-7.281600E+01
138	  0.047454908	-5.283000E+00	  0.047454908	-2.477500E+01	  0.047454908	1.142920E+02	  0.047454908	-7.407900E+01
139	  0.047655310	-5.309000E+00	  0.047655310	-2.658800E+01	  0.047655310	1.088950E+02	  0.047655310	-7.497400E+01
140	  0.047855709	-5.334000E+00	  0.047855709	-2.835400E+01	  0.047855709	1.038710E+02	  0.047855709	-7.548300E+01
141	  0.048056111	-5.363000E+00	  0.048056111	-3.010400E+01	  0.048056111	9.911700E+01	  0.048056111	-7.560700E+01
142	  0.048256513	-5.392000E+00	  0.048256513	-3.186200E+01	  0.048256513	9.458700E+01	  0.048256513	-7.549100E+01
143	  0.048456915	-5.419000E+00	  0.048456915	-3.359500E+01	  0.048456915	9.036300E+01	  0.048456915	-7.515600E+01
144	  0.048657313	-5.448000E+00	  0.048657313	-3.533500E+01	  0.048657313	8.635400E+01	  0.048657313	-7.463000E+01
145	  0.048857715	-5.474000E+00	  0.048857715	-3.707300E+01	  0.048857715	8.257300E+01	  0.048857715	-7.398200E+01
146	  0.049058117	-5.499000E+00	  0.049058117	-3.881700E+01	  0.049058117	7.899300E+01	  0.049058117	-7.321100E+01
147	  0.049258515	-5.520000E+00	  0.049258515	-4.054700E+01	  0.049258515	7.564000E+01	  0.049258515	-7.238700E+01
148	  0.049458917	-5.546000E+00	  0.049458917	-4.225700E+01	  0.049458917	7.252600E+01	  0.049458917	-7.141500E+01
149	  0.049659319	-5.569000E+00	  0.049659319	-4.395800E+01	  0.049659319	6.959800E+01	  0.049659319	-7.041200E+01
150	  0.049859721	-5.598000E+00	  0.049859721	-4.566000E+01	  0.049859721	6.685600E+01	  0.049859721	-6.929400E+01
151	  0.050060119	-5.620000E+00	  0.050060119	-4.735200E+01	  0.050060119	6.427100E+01	  0.050060119	-6.819200E+01
152	  0.050260521	-5.642000E+00	  0.050260521	-4.904600E+01	  0.050260521	6.182700E+01	  0.050260521	-6.706400E+01
153	  0.050460923	-5.663000E+00	  0.050460923	-5.074100E+01	  0.050460923	5.952000E+01	  0.050460923	-6.590800E+01
154	  0.050661322	-5.681000E+00	  0.050661322	-5.242300E+01	  0.050661322	5.734900E+01	  0.050661322	-6.476200E+01
155	  0.050861724	-5.696000E+00	  0.050861724	-5.406700E+01	  0.050861724	5.533000E+01	  0.050861724	-6.365300E+01
156	  0.051062126	-5.711000E+00	  0.051062126	-5.572800E+01	  0.051062126	5.340200E+01	  0.051062126	-6.251300E+01
157	  0.051262524	-5.726000E+00	  0.051262524	-5.732300E+01	  0.051262524	5.165400E+01	  0.051262524	-6.140100E+01
158	  0.051462926	-5.744000E+00	  0.051462926	-5.891500E+01	  0.051462926	5.001000E+01	  0.051462926	-6.026800E+01
159	  0.051663328	-5.755000E+00	  0.051663328	-6.049200E+01	  0.051663328	4.844000E+01	  0.051663328	-5.918800E+01
160	  0.051863730	-5.768000E+00	  0.051863730	-6.202900E+01	  0.051863730	4.699000E+01	  0.051863730	-5.812600E+01
161	  0.052064128	-5.784000E+00	  0.052064128	-6.358400E+01	  0.052064128	4.561300E+01	  0.052064128	-5.702700E+01
162	  0.052264530	-5.799000E+00	  0.052264530	-6.511400E+01	  0.052264530	4.432100E+01	  0.052264530	-5.595900E+01
163	  0.052464932	-5.818000E+00	  0.052464932	-6.666000E+01	  0.052464932	4.309300E+01	  0.052464932	-5.486700E+01
164	  0.052665330	-5.833000E+00	  0.052665330	-6.822800E+01	  0.052665330	4.189100E+01	  0.052665330	-5.379100E+01
165	  0.052865732	-5.847000E+00	  0.052865732	-6.974700E+01	  0.052865732	4.078500E+01	  0.052865732	-5.275500E+01
166	  0.053066134	-5.863000E+00	  0.053066134	-7.125700E+01	  0.053066134	3.974200E+01	  0.053066134	-5.172600E+01
167	  0.053266536	-5.874000E+00	  0.053266536	-7.277600E+01	  0.053266536	3.872100E+01	  0.053266536	-5.072700E+01
168	  0.053466935	-5.883000E+00	  0.053466935	-7.429200E+01	  0.053466935	3.774000E+01	  0.053466935	-4.974600E+01
169	  0.053667337	-5.892000E+00	  0.053667337	-7.579600E+01	  0.053667337	3.681400E+01	  0.053667337	-4.877800E+01
170	  0.053867739	-5.901000E+00	  0.053867739	-7.728500E+01	  0.053867739	3.593700E+01	  0.053867739	-4.782900E+01
171	  0.054068137	-5.903000E+00	  0.054068137	-7.876800E+01	  0.054068137	3.507200E+01	  0.054068137	-4.692100E+01
172	  0.054268539	-5.909000E+00	  0.054268539	-8.022000E+01	  0.054268539	3.428300E+01	  0.054268539	-4.602000E+01
173	  0.054468941	-5.915000E+00	  0.054468941	-8.164400E+01	  0.054468941	3.353800E+01	  0.054468941	-4.514700E+01
174	  0.054669339	-5.923000E+00	  0.054669339	-8.307500E+01	  0.054669339	3.282700E+01	  0.054669339	-4.427200E+01
175	  0.054869737	-5.928000E+00	  0.054869737	-8.449500E+01	  0.054869737	3.213900E+01	  0.054869737	-4.342200E+01
176	  0.055070139	-5.938000E+00	  0.055070139	-8.586100E+01	  0.055070139	3.152400E+01	  0.055070139	-4.259600E+01
177	  0.055270538	-5.942000E+00	  0.055270538	-8.723300E+01	  0.055270538	3.091100E+01	  0.055270538	-4.179000E+01
178	  0.055470940	-5.950000E+00	  0.055470940	-8.862700E+01	  0.055470940	3.032600E+01	  0.055470940	-4.096900E+01
179	  0.055671342	-5.961000E+00	  0.055671342	-8.999800E+01	  0.055671342	2.978100E+01	  0.055671342	-4.016400E+01
180	  0.055871744	-5.961000E+00	  0.055871744	-9.138500E+01	  0.055871744	2.921300E+01	  0.055871744	-3.938700E+01
181	  0.056072142	-5.972000E+00	  0.056072142	-9.278100E+01	  0.056072142	2.870300E+01	  0.056072142	-3.858300E+01
182	  0.056272544	-5.976000E+00	  0.056272544	-9.414900E+01	  0.056272544	2.820000E+01	  0.056272544	-3.782000E+01
183	  0.056472946	-5.984000E+00	  0.056472946	-9.552800E+01	  0.056472946	2.772400E+01	  0.056472946	-3.705000E+01
184	  0.056673344	-5.990000E+00	  0.056673344	-9.688900E+01	  0.056673344	2.726800E+01	  0.056673344	-3.630100E+01
185	  0.056873746	-5.991000E+00	  0.056873746	-9.827700E+01	  0.056873746	2.679900E+01	  0.056873746	-3.555900E+01
186	  0.057074148	-5.992000E+00	  0.057074148	-9.962200E+01	  0.057074148	2.636400E+01	  0.057074148	-3.484400E+01
187	  0.057274550	-5.992000E+00	  0.057274550	-1.010070E+02	  0.057274550	2.592600E+01	  0.057274550	-3.411900E+01
188	  0.057474948	-5.986000E+00	  0.057474948	-1.023340E+02	  0.057474948	2.550500E+01	  0.057474948	-3.344000E+01
189	  0.057675350	-5.984000E+00	  0.057675350	-1.036700E+02	  0.057675350	2.510800E+01	  0.057675350	-3.275500E+01
190	  0.057875752	-5.981000E+00	  0.057875752	-1.049880E+02	  0.057875752	2.472500E+01	  0.057875752	-3.208600E+01
191	  0.058076151	-5.981000E+00	  0.058076151	-1.062900E+02	  0.058076151	2.437000E+01	  0.058076151	-3.142600E+01
192	  0.058276553	-5.980000E+00	  0.058276553	-1.075750E+02	  0.058276553	2.403000E+01	  0.058276553	-3.078100E+01
193	  0.058476955	-5.976000E+00	  0.058476955	-1.088280E+02	  0.058476955	2.369900E+01	  0.058476955	-3.016200E+01
194	  0.058677353	-5.975000E+00	  0.058677353	-1.100700E+02	  0.058677353	2.339000E+01	  0.058677353	-2.955000E+01
195	  0.058877755	-5.976000E+00	  0.058877755	-1.113300E+02	  0.058877755	2.309500E+01	  0.058877755	-2.892900E+01
196	  0.059078157	-5.974000E+00	  0.059078157	-1.125700E+02	  0.059078157	2.280500E+01	  0.059078157	-2.832700E+01
197	  0.059278559	-5.974000E+00	  0.059278559	-1.138050E+02	  0.059278559	2.252900E+01	  0.059278559	-2.773100E+01
198	  0.059478957	-5.976000E+00	  0.059478957	-1.150420E+02	  0.059478957	2.227000E+01	  0.059478957	-2.713400E+01
199	  0.059679359	-5.976000E+00	  0.059679359	-1.162840E+02	  0.059679359	2.201400E+01	  0.059679359	-2.654100E+01
200	  0.059879761	-5.975000E+00	  0.059879761	-1.175100E+02	  0.059879761	2.176400E+01	  0.059879761	-2.596300E+01
201	  0.060080159	-5.978000E+00	  0.060080159	-1.187070E+02	  0.060080159	2.154100E+01	  0.060080159	-2.539700E+01
202	  0.060280561	-5.978000E+00	  0.060280561	-1.199210E+02	  0.060280561	2.131500E+01	  0.060280561	-2.483000E+01
203	  0.060480963	-5.978000E+00	  0.060480963	-1.211250E+02	  0.060480963	2.109600E+01	  0.060480963	-2.427300E+01
204	  0.060681365	-5.978000E+00	  0.060681365	-1.223330E+02	  0.060681365	2.088400E+01	  0.060681365	-2.371700E+01
205	  0.060881764	-5.977000E+00	  0.060881764	-1.235230E+02	  0.060881764	2.067700E+01	  0.060881764	-2.317500E+01
206	  0.061082166	-5.978000E+00	  0.061082166	-1.247020E+02	  0.061082166	2.048500E+01	  0.061082166	-2.263900E+01
207	  0.061282568	-5.975000E+00	  0.061282568	-1.258940E+02	  0.061282568	2.028800E+01	  0.061282568	-2.210400E+01
208	  0.061482966	-5.972000E+00	  0.061482966	-1.270490E+02	  0.061482966	2.010100E+01	  0.061482966	-2.158900E+01
209	  0.061683368	-5.976000E+00	  0.061683368	-1.282030E+02	  0.061683368	1.993900E+01	  0.061683368	-2.107100E+01
210	  0.061883770	-5.974000E+00	  0.061883770	-1.293530E+02	  0.061883770	1.976900E+01	  0.061883770	-2.056300E+01
211	  0.062084168	-5.974000E+00	  0.062084168	-1.305100E+02	  0.062084168	1.960700E+01	  0.062084168	-2.005300E+01
212	  0.062284570	-5.975000E+00	  0.062284570	-1.316180E+02	  0.062284570	1.946100E+01	  0.062284570	-1.956700E+01
213	  0.062484972	-5.969000E+00	  0.062484972	-1.327020E+02	  0.062484972	1.930100E+01	  0.062484972	-1.909900E+01
214	  0.062685370	-5.975000E+00	  0.062685370	-1.338460E+02	  0.062685370	1.917400E+01	  0.062685370	-1.859800E+01
215	  0.062885776	-5.975000E+00	  0.062885776	-1.349900E+02	  0.062885776	1.903500E+01	  0.062885776	-1.810400E+01
216	  0.063086174	-5.980000E+00	  0.063086174	-1.360960E+02	  0.063086174	1.891800E+01	  0.063086174	-1.762600E+01
217	  0.063286573	-5.989000E+00	  0.063286573	-1.372620E+02	  0.063286573	1.880900E+01	  0.063286573	-1.712200E+01
218	  0.063486971	-5.986000E+00	  0.063486971	-1.384010E+02	  0.063486971	1.867500E+01	  0.063486971	-1.664000E+01
219	  0.063687377	-5.985000E+00	  0.063687377	-1.395150E+02	  0.063687377	1.855300E+01	  0.063687377	-1.616900E+01
220	  0.063887775	-5.986000E+00	  0.063887775	-1.406560E+02	  0.063887775	1.843900E+01	  0.063887775	-1.568800E+01
221	  0.064088173	-5.983000E+00	  0.064088173	-1.417730E+02	  0.064088173	1.832100E+01	  0.064088173	-1.522200E+01
222	  0.064288579	-5.982000E+00	  0.064288579	-1.428620E+02	  0.064288579	1.821300E+01	  0.064288579	-1.476800E+01
223	  0.064488977	-5.981000E+00	  0.064488977	-1.439640E+02	  0.064488977	1.810700E+01	  0.064488977	-1.431100E+01
224	  0.064689375	-5.981000E+00	  0.064689375	-1.450380E+02	  0.064689375	1.801400E+01	  0.064689375	-1.386600E+01
225	  0.064889781	-5.977000E+00	  0.064889781	-1.461180E+02	  0.064889781	1.791100E+01	  0.064889781	-1.342300E+01
226	  0.065090179	-5.976000E+00	  0.065090179	-1.471780E+02	  0.065090179	1.781900E+01	  0.065090179	-1.298800E+01
227	  0.065290578	-5.974000E+00	  0.065290578	-1.481920E+02	  0.065290578	1.773300E+01	  0.065290578	-1.257300E+01
228	  0.065490983	-5.972000E+00	  0.065490983	-1.492520E+02	  0.065490983	1.764600E+01	  0.065490983	-1.214200E+01
229	  0.065691382	-5.967000E+00	  0.065691382	-1.502790E+02	  0.065691382	1.755800E+01	  0.065691382	-1.172600E+01
230	  0.065891780	-5.967000E+00	  0.065891780	-1.512950E+02	  0.065891780	1.748800E+01	  0.065891780	-1.131400E+01
231	  0.066092186	-5.965000E+00	  0.066092186	-1.523190E+02	  0.066092186	1.741200E+01	  0.066092186	-1.090000E+01
232	  0.066292584	-5.959000E+00	  0.066292584	-1.533480E+02	  0.066292584	1.732900E+01	  0.066292584	-1.048700E+01
233	  0.066492982	-5.954000E+00	  0.066492982	-1.543510E+02	  0.066492982	1.725400E+01	  0.066492982	-1.008500E+01
234	  0.066693388	-5.953000E+00	  0.066693388	-1.553220E+02	  0.066693388	1.719500E+01	  0.066693388	-9.696000E+00
235	  0.066893786	-5.946000E+00	  0.066893786	-1.563210E+02	  0.066893786	1.711800E+01	  0.066893786	-9.298000E+00
236	  0.067094192	-5.938000E+00	  0.067094192	-1.573460E+02	  0.067094192	1.704100E+01	  0.067094192	-8.891000E+00
237	  0.067294590	-5.937000E+00	  0.067294590	-1.583600E+02	  0.067294590	1.698600E+01	  0.067294590	-8.487000E+00
238	  0.067494988	-5.930000E+00	  0.067494988	-1.593750E+02	  0.067494988	1.691800E+01	  0.067494988	-8.085000E+00
239	  0.067695394	-5.923000E+00	  0.067695394	-1.603590E+02	  0.067695394	1.685600E+01	  0.067695394	-7.696000E+00
240	  0.067895792	-5.921000E+00	  0.067895792	-1.613680E+02	  0.067895792	1.680600E+01	  0.067895792	-7.296000E+00
241	  0.068096191	-5.914000E+00	  0.068096191	-1.623960E+02	  0.068096191	1.674300E+01	  0.068096191	-6.891000E+00
242	  0.068296596	-5.912000E+00	  0.068296596	-1.634070E+02	  0.068296596	1.669800E+01	  0.068296596	-6.492000E+00
243	  0.068496995	-5.910000E+00	  0.068496995	-1.643850E+02	  0.068496995	1.665800E+01	  0.068496995	-6.106000E+00
244	  0.068697393	-5.906000E+00	  0.068697393	-1.653910E+02	  0.068697393	1.661300E+01	  0.068697393	-5.711000E+00
245	  0.068897791	-5.897000E+00	  0.068897791	-1.664240E+02	  0.068897791	1.655600E+01	  0.068897791	-5.306000E+00
246	  0.069098189	-5.893000E+00	  0.069098189	-1.674080E+02	  0.069098189	1.651700E+01	  0.069098189	-4.920000E+00
247	  0.069298595	-5.889000E+00	  0.069298595	-1.683960E+02	  0.069298595	1.648100E+01	  0.069298595	-4.533000E+00
248	  0.069498993	-5.881000E+00	  0.069498993	-1.693670E+02	  0.069498993	1.643600E+01	  0.069498993	-4.153000E+00
249	  0.069699399	-5.884000E+00	  0.069699399	-1.704010E+02	  0.069699399	1.642000E+01	  0.069699399	-3.748000E+00
250	  0.069899797	-5.878000E+00	  0.069899797	-1.714130E+02	  0.069899797	1.638400E+01	  0.069899797	-3.352000E+00
251	  0.070100196	-5.879000E+00	  0.070100196	-1.723690E+02	  0.070100196	1.637000E+01	  0.070100196	-2.978000E+00
252	  0.070300601	-5.882000E+00	  0.070300601	-1.733410E+02	  0.070300601	1.636100E+01	  0.070300601	-2.597000E+00
253	  0.070501000	-5.872000E+00	  0.070501000	-1.743860E+02	  0.070501000	1.632100E+01	  0.070501000	-2.190000E+00
254	  0.070701398	-5.864000E+00	  0.070701398	-1.753820E+02	  0.070701398	1.628900E+01	  0.070701398	-1.802000E+00
255	  0.070901804	-5.868000E+00	  0.070901804	-1.763380E+02	  0.070901804	1.629100E+01	  0.070901804	-1.428000E+00
256	  0.071102202	-5.859000E+00	  0.071102202	-1.772850E+02	  0.071102202	1.626000E+01	  0.071102202	-1.059000E+00
257	  0.071302600	-5.860000E+00	  0.071302600	-1.783150E+02	  0.071302600	1.625900E+01	  0.071302600	-6.570000E-01
258	  0.071503006	-5.861000E+00	  0.071503006	-1.792630E+02	  0.071503006	1.625800E+01	  0.071503006	-2.870000E-01
259	  0.071703404	-5.859000E+00	  0.071703404	1.797870E+02	  0.071703404	1.625300E+01	  0.071703404	8.300000E-02
260	  0.071903802	-5.863000E+00	  0.071903802	1.788260E+02	  0.071903802	1.626500E+01	  0.071903802	4.570000E-01
261	  0.072104208	-5.858000E+00	  0.072104208	1.778640E+02	  0.072104208	1.625600E+01	  0.072104208	8.330000E-01
262	  0.072304606	-5.862000E+00	  0.072304606	1.769040E+02	  0.072304606	1.627200E+01	  0.072304606	1.208000E+00
263	  0.072505005	-5.862000E+00	  0.072505005	1.759680E+02	  0.072505005	1.627800E+01	  0.072505005	1.573000E+00
264	  0.072705410	-5.865000E+00	  0.072705410	1.750560E+02	  0.072705410	1.629500E+01	  0.072705410	1.929000E+00
265	  0.072905809	-5.866000E+00	  0.072905809	1.740950E+02	  0.072905809	1.631000E+01	  0.072905809	2.304000E+00
266	  0.073106214	-5.868000E+00	  0.073106214	1.731460E+02	  0.073106214	1.632700E+01	  0.073106214	2.675000E+00
267	  0.073306613	-5.873000E+00	  0.073306613	1.722240E+02	  0.073306613	1.635600E+01	  0.073306613	3.035000E+00
268	  0.073507011	-5.877000E+00	  0.073507011	1.713060E+02	  0.073507011	1.638400E+01	  0.073507011	3.394000E+00
269	  0.073707417	-5.883000E+00	  0.073707417	1.703940E+02	  0.073707417	1.641700E+01	  0.073707417	3.751000E+00
270	  0.073907815	-5.886000E+00	  0.073907815	1.694260E+02	  0.073907815	1.644700E+01	  0.073907815	4.129000E+00
271	  0.074108213	-5.890000E+00	  0.074108213	1.685260E+02	  0.074108213	1.648000E+01	  0.074108213	4.482000E+00
272	  0.074308619	-5.895000E+00	  0.074308619	1.675820E+02	  0.074308619	1.651800E+01	  0.074308619	4.852000E+00
273	  0.074509017	-5.901000E+00	  0.074509017	1.666650E+02	  0.074509017	1.656000E+01	  0.074509017	5.211000E+00
274	  0.074709415	-5.911000E+00	  0.074709415	1.657430E+02	  0.074709415	1.661600E+01	  0.074709415	5.571000E+00
275	  0.074909821	-5.915000E+00	  0.074909821	1.648170E+02	  0.074909821	1.665600E+01	  0.074909821	5.935000E+00
276	  0.075110219	-5.926000E+00	  0.075110219	1.639010E+02	  0.075110219	1.671700E+01	  0.075110219	6.294000E+00
277	  0.075310618	-5.931000E+00	  0.075310618	1.629990E+02	  0.075310618	1.676500E+01	  0.075310618	6.648000E+00
278	  0.075511023	-5.942000E+00	  0.075511023	1.620890E+02	  0.075511023	1.682800E+01	  0.075511023	7.005000E+00
279	  0.075711422	-5.949000E+00	  0.075711422	1.611930E+02	  0.075711422	1.688600E+01	  0.075711422	7.358000E+00
280	  0.075911827	-5.958000E+00	  0.075911827	1.603190E+02	  0.075911827	1.694700E+01	  0.075911827	7.702000E+00
281	  0.076112226	-5.963000E+00	  0.076112226	1.593890E+02	  0.076112226	1.700400E+01	  0.076112226	8.069000E+00
282	  0.076312624	-5.973000E+00	  0.076312624	1.584830E+02	  0.076312624	1.707500E+01	  0.076312624	8.426000E+00
283	  0.076513030	-5.981000E+00	  0.076513030	1.575620E+02	  0.076513030	1.714400E+01	  0.076513030	8.790000E+00
284	  0.076713428	-5.991000E+00	  0.076713428	1.566440E+02	  0.076713428	1.721900E+01	  0.076713428	9.153000E+00
285	  0.076913826	-5.997000E+00	  0.076913826	1.557450E+02	  0.076913826	1.728600E+01	  0.076913826	9.510000E+00
286	  0.077114232	-5.999000E+00	  0.077114232	1.548630E+02	  0.077114232	1.734300E+01	  0.077114232	9.862000E+00
287	  0.077314630	-6.005000E+00	  0.077314630	1.539790E+02	  0.077314630	1.741200E+01	  0.077314630	1.021400E+01
288	  0.077515028	-6.010000E+00	  0.077515028	1.531020E+02	  0.077515028	1.748000E+01	  0.077515028	1.056500E+01
289	  0.077715434	-6.018000E+00	  0.077715434	1.522300E+02	  0.077715434	1.755900E+01	  0.077715434	1.091300E+01
290	  0.077915832	-6.026000E+00	  0.077915832	1.513580E+02	  0.077915832	1.763900E+01	  0.077915832	1.126100E+01
291	  0.078116231	-6.033000E+00	  0.078116231	1.504880E+02	  0.078116231	1.772200E+01	  0.078116231	1.161000E+01
292	  0.078316636	-6.046000E+00	  0.078316636	1.496050E+02	  0.078316636	1.782100E+01	  0.078316636	1.196100E+01
293	  0.078517035	-6.057000E+00	  0.078517035	1.487470E+02	  0.078517035	1.791300E+01	  0.078517035	1.230500E+01
294	  0.078717433	-6.064000E+00	  0.078717433	1.478630E+02	  0.078717433	1.800300E+01	  0.078717433	1.266100E+01
295	  0.078917839	-6.080000E+00	  0.078917839	1.470180E+02	  0.078917839	1.811400E+01	  0.078917839	1.299700E+01
296	  0.079118237	-6.090000E+00	  0.079118237	1.462040E+02	  0.079118237	1.820700E+01	  0.079118237	1.332500E+01
297	  0.079318643	-6.104000E+00	  0.079318643	1.453530E+02	  0.079318643	1.832000E+01	  0.079318643	1.366600E+01
298	  0.079519041	-6.118000E+00	  0.079519041	1.444990E+02	  0.079519041	1.843400E+01	  0.079519041	1.400800E+01
299	  0.079719439	-6.132000E+00	  0.079719439	1.436380E+02	  0.079719439	1.855000E+01	  0.079719439	1.435500E+01
300	  0.079919845	-6.147000E+00	  0.079919845	1.428070E+02	  0.079919845	1.867000E+01	  0.079919845	1.468800E+01
301	  0.080120243	-6.165000E+00	  0.080120243	1.419650E+02	  0.080120243	1.879900E+01	  0.080120243	1.502500E+01
302	  0.080320641	-6.173000E+00	  0.080320641	1.411200E+02	  0.080320641	1.890700E+01	  0.080320641	1.537000E+01
303	  0.080521047	-6.192000E+00	  0.080521047	1.402720E+02	  0.080521047	1.904500E+01	  0.080521047	1.571000E+01
304	  0.080721445	-6.210000E+00	  0.080721445	1.394520E+02	  0.080721445	1.918200E+01	  0.080721445	1.603900E+01
305	  0.080921844	-6.228000E+00	  0.080921844	1.386000E+02	  0.080921844	1.932400E+01	  0.080921844	1.638100E+01
306	  0.081122249	-6.243000E+00	  0.081122249	1.378170E+02	  0.081122249	1.945400E+01	  0.081122249	1.669800E+01
307	  0.081322648	-6.262000E+00	  0.081322648	1.369680E+02	  0.081322648	1.960400E+01	  0.081322648	1.703900E+01
308	  0.081523046	-6.285000E+00	  0.081523046	1.361450E+02	  0.081523046	1.976700E+01	  0.081523046	1.736700E+01
309	  0.081723452	-6.301000E+00	  0.081723452	1.353230E+02	  0.081723452	1.990900E+01	  0.081723452	1.770100E+01
310	  0.081923850	-6.321000E+00	  0.081923850	1.345010E+02	  0.081923850	2.006800E+01	  0.081923850	1.803200E+01
311	  0.082124248	-6.338000E+00	  0.082124248	1.336970E+02	  0.082124248	2.021800E+01	  0.082124248	1.835700E+01
312	  0.082324654	-6.365000E+00	  0.082324654	1.329160E+02	  0.082324654	2.039600E+01	  0.082324654	1.866500E+01
313	  0.082525052	-6.381000E+00	  0.082525052	1.321200E+02	  0.082525052	2.054900E+01	  0.082525052	1.898900E+01
314	  0.082725458	-6.405000E+00	  0.082725458	1.313640E+02	  0.082725458	2.071800E+01	  0.082725458	1.929000E+01
315	  0.082925856	-6.430000E+00	  0.082925856	1.305520E+02	  0.082925856	2.090600E+01	  0.082925856	1.961300E+01
316	  0.083126254	-6.458000E+00	  0.083126254	1.297890E+02	  0.083126254	2.109600E+01	  0.083126254	1.991200E+01
317	  0.083326660	-6.480000E+00	  0.083326660	1.289600E+02	  0.083326660	2.127900E+01	  0.083326660	2.024600E+01
318	  0.083527058	-6.503000E+00	  0.083527058	1.281720E+02	  0.083527058	2.146500E+01	  0.083527058	2.056100E+01
319	  0.083727457	-6.525000E+00	  0.083727457	1.273720E+02	  0.083727457	2.165000E+01	  0.083727457	2.088400E+01
320	  0.083927862	-6.550000E+00	  0.083927862	1.266310E+02	  0.083927862	2.184000E+01	  0.083927862	2.117600E+01
321	  0.084128261	-6.573000E+00	  0.084128261	1.258420E+02	  0.084128261	2.203400E+01	  0.084128261	2.149200E+01
322	  0.084328659	-6.594000E+00	  0.084328659	1.251110E+02	  0.084328659	2.221600E+01	  0.084328659	2.178500E+01
323	  0.084529065	-6.621000E+00	  0.084529065	1.243820E+02	  0.084529065	2.242100E+01	  0.084529065	2.207000E+01
324	  0.084729463	-6.646000E+00	  0.084729463	1.236360E+02	  0.084729463	2.262200E+01	  0.084729463	2.236500E+01
325	  0.084929861	-6.673000E+00	  0.084929861	1.229170E+02	  0.084929861	2.282700E+01	  0.084929861	2.264600E+01
326	  0.085130267	-6.697000E+00	  0.085130267	1.221680E+02	  0.085130267	2.303300E+01	  0.085130267	2.294300E+01
327	  0.085330658	-6.723000E+00	  0.085330658	1.214470E+02	  0.085330658	2.324200E+01	  0.085330658	2.322600E+01
328	  0.085531056	-6.755000E+00	  0.085531056	1.207780E+02	  0.085531056	2.346000E+01	  0.085531056	2.347700E+01
329	  0.085731462	-6.788000E+00	  0.085731462	1.200580E+02	  0.085731462	2.369600E+01	  0.085731462	2.374900E+01
330	  0.085931860	-6.817000E+00	  0.085931860	1.193940E+02	  0.085931860	2.391100E+01	  0.085931860	2.400200E+01
331	  0.086132258	-6.842000E+00	  0.086132258	1.187270E+02	  0.086132258	2.411900E+01	  0.086132258	2.425900E+01
332	  0.086332664	-6.875000E+00	  0.086332664	1.180700E+02	  0.086332664	2.434900E+01	  0.086332664	2.450200E+01
333	  0.086533062	-6.907000E+00	  0.086533062	1.174020E+02	  0.086533062	2.458300E+01	  0.086533062	2.475000E+01
334	  0.086733460	-6.934000E+00	  0.086733460	1.167370E+02	  0.086733460	2.480400E+01	  0.086733460	2.500300E+01
335	  0.086933866	-6.962000E+00	  0.086933866	1.160840E+02	  0.086933866	2.502500E+01	  0.086933866	2.525000E+01
336	  0.087134264	-6.988000E+00	  0.087134264	1.153850E+02	  0.087134264	2.525800E+01	  0.087134264	2.551700E+01
337	  0.087334670	-7.016000E+00	  0.087334670	1.147360E+02	  0.087334670	2.548400E+01	  0.087334670	2.576100E+01
338	  0.087535068	-7.038000E+00	  0.087535068	1.140750E+02	  0.087535068	2.570200E+01	  0.087535068	2.601700E+01
339	  0.087735467	-7.060000E+00	  0.087735467	1.134340E+02	  0.087735467	2.591800E+01	  0.087735467	2.626400E+01
340	  0.087935872	-7.082000E+00	  0.087935872	1.128130E+02	  0.087935872	2.612800E+01	  0.087935872	2.650300E+01
341	  0.088136271	-7.101000E+00	  0.088136271	1.121400E+02	  0.088136271	2.634800E+01	  0.088136271	2.676900E+01
342	  0.088336669	-7.117000E+00	  0.088336669	1.114860E+02	  0.088336669	2.655700E+01	  0.088336669	2.703000E+01
343	  0.088537075	-7.127000E+00	  0.088537075	1.107950E+02	  0.088537075	2.676200E+01	  0.088537075	2.731700E+01
344	  0.088737473	-7.142000E+00	  0.088737473	1.101790E+02	  0.088737473	2.696300E+01	  0.088737473	2.756500E+01
345	  0.088937871	-7.156000E+00	  0.088937871	1.094720E+02	  0.088937871	2.719100E+01	  0.088937871	2.785300E+01
346	  0.089138277	-7.171000E+00	  0.089138277	1.088010E+02	  0.089138277	2.741400E+01	  0.089138277	2.812300E+01
347	  0.089338675	-7.190000E+00	  0.089338675	1.081400E+02	  0.089338675	2.764700E+01	  0.089338675	2.838300E+01
348	  0.089539073	-7.210000E+00	  0.089539073	1.074640E+02	  0.089539073	2.789300E+01	  0.089539073	2.864700E+01
349	  0.089739479	-7.230000E+00	  0.089739479	1.067930E+02	  0.089739479	2.814000E+01	  0.089739479	2.890700E+01
350	  0.089939877	-7.254000E+00	  0.089939877	1.061080E+02	  0.089939877	2.840600E+01	  0.089939877	2.916700E+01
351	  0.090140276	-7.272000E+00	  0.090140276	1.053970E+02	  0.090140276	2.866900E+01	  0.090140276	2.944600E+01
352	  0.090340681	-7.301000E+00	  0.090340681	1.047570E+02	  0.090340681	2.894200E+01	  0.090340681	2.967500E+01
353	  0.090541080	-7.317000E+00	  0.090541080	1.040260E+02	  0.090541080	2.921000E+01	  0.090541080	2.996800E+01
354	  0.090741485	-7.350000E+00	  0.090741485	1.033580E+02	  0.090741485	2.951200E+01	  0.090741485	3.019700E+01
355	  0.090941884	-7.371000E+00	  0.090941884	1.027190E+02	  0.090941884	2.977400E+01	  0.090941884	3.043700E+01
356	  0.091142282	-7.399000E+00	  0.091142282	1.020720E+02	  0.091142282	3.006400E+01	  0.091142282	3.066400E+01
357	  0.091342688	-7.424000E+00	  0.091342688	1.014450E+02	  0.091342688	3.034100E+01	  0.091342688	3.088700E+01
358	  0.091543086	-7.452000E+00	  0.091543086	1.007910E+02	  0.091543086	3.063900E+01	  0.091543086	3.111500E+01
359	  0.091743484	-7.481000E+00	  0.091743484	1.001690E+02	  0.091743484	3.092900E+01	  0.091743484	3.132700E+01
360	  0.091943890	-7.511000E+00	  0.091943890	9.954600E+01	  0.091943890	3.122900E+01	  0.091943890	3.153400E+01
361	  0.092144288	-7.544000E+00	  0.092144288	9.892900E+01	  0.092144288	3.153900E+01	  0.092144288	3.172900E+01
362	  0.092344686	-7.567000E+00	  0.092344686	9.834700E+01	  0.092344686	3.181200E+01	  0.092344686	3.192900E+01
363	  0.092545092	-7.608000E+00	  0.092545092	9.773200E+01	  0.092545092	3.214800E+01	  0.092545092	3.210200E+01
364	  0.092745490	-7.635000E+00	  0.092745490	9.719000E+01	  0.092745490	3.242300E+01	  0.092745490	3.227300E+01
365	  0.092945889	-7.675000E+00	  0.092945889	9.662100E+01	  0.092945889	3.274700E+01	  0.092945889	3.242300E+01
366	  0.093146294	-7.710000E+00	  0.093146294	9.603100E+01	  0.093146294	3.306600E+01	  0.093146294	3.259200E+01
367	  0.093346693	-7.751000E+00	  0.093346693	9.548900E+01	  0.093346693	3.338800E+01	  0.093346693	3.272200E+01
368	  0.093547091	-7.788000E+00	  0.093547091	9.490200E+01	  0.093547091	3.371800E+01	  0.093547091	3.287900E+01
369	  0.093747497	-7.827000E+00	  0.093747497	9.432500E+01	  0.093747497	3.405200E+01	  0.093747497	3.302400E+01
370	  0.093947895	-7.861000E+00	  0.093947895	9.372800E+01	  0.093947895	3.438400E+01	  0.093947895	3.318700E+01
371	  0.094148301	-7.901000E+00	  0.094148301	9.315900E+01	  0.094148301	3.472100E+01	  0.094148301	3.332300E+01
372	  0.094348699	-7.942000E+00	  0.094348699	9.258500E+01	  0.094348699	3.506800E+01	  0.094348699	3.345300E+01
373	  0.094549097	-7.983000E+00	  0.094549097	9.201400E+01	  0.094549097	3.541700E+01	  0.094549097	3.357700E+01
374	  0.094749503	-8.019000E+00	  0.094749503	9.147000E+01	  0.094749503	3.574200E+01	  0.094749503	3.370300E+01
375	  0.094949901	-8.050000E+00	  0.094949901	9.091900E+01	  0.094949901	3.605900E+01	  0.094949901	3.384300E+01
376	  0.095150299	-8.090000E+00	  0.095150299	9.037700E+01	  0.095150299	3.640000E+01	  0.095150299	3.395000E+01
377	  0.095350705	-8.125000E+00	  0.095350705	8.983900E+01	  0.095350705	3.672600E+01	  0.095350705	3.406900E+01
378	  0.095551103	-8.156000E+00	  0.095551103	8.929900E+01	  0.095551103	3.704700E+01	  0.095551103	3.419500E+01
379	  0.095751502	-8.191000E+00	  0.095751502	8.872600E+01	  0.095751502	3.739400E+01	  0.095751502	3.432100E+01
380	  0.095951907	-8.224000E+00	  0.095951907	8.825700E+01	  0.095951907	3.769100E+01	  0.095951907	3.441000E+01
381	  0.096152306	-8.266000E+00	  0.096152306	8.773800E+01	  0.096152306	3.803700E+01	  0.096152306	3.448600E+01
382	  0.096352704	-8.296000E+00	  0.096352704	8.725400E+01	  0.096352704	3.833500E+01	  0.096352704	3.458600E+01
383	  0.096553110	-8.328000E+00	  0.096553110	8.677000E+01	  0.096553110	3.864400E+01	  0.096553110	3.467300E+01
384	  0.096753508	-8.357000E+00	  0.096753508	8.627600E+01	  0.096753508	3.894900E+01	  0.096753508	3.477400E+01
385	  0.096953906	-8.391000E+00	  0.096953906	8.582500E+01	  0.096953906	3.924700E+01	  0.096953906	3.484000E+01
386	  0.097154312	-8.422000E+00	  0.097154312	8.534300E+01	  0.097154312	3.955700E+01	  0.097154312	3.492200E+01
387	  0.097354710	-8.454000E+00	  0.097354710	8.487400E+01	  0.097354710	3.986400E+01	  0.097354710	3.499600E+01
388	  0.097555116	-8.482000E+00	  0.097555116	8.444200E+01	  0.097555116	4.014200E+01	  0.097555116	3.506800E+01
389	  0.097755514	-8.516000E+00	  0.097755514	8.396500E+01	  0.097755514	4.046000E+01	  0.097755514	3.513300E+01
390	  0.097955912	-8.540000E+00	  0.097955912	8.354000E+01	  0.097955912	4.073100E+01	  0.097955912	3.520700E+01
391	  0.098156318	-8.566000E+00	  0.098156318	8.314300E+01	  0.098156318	4.099300E+01	  0.098156318	3.526300E+01
392	  0.098356716	-8.597000E+00	  0.098356716	8.273100E+01	  0.098356716	4.127500E+01	  0.098356716	3.530800E+01
393	  0.098557115	-8.623000E+00	  0.098557115	8.236300E+01	  0.098557115	4.152300E+01	  0.098557115	3.535300E+01
394	  0.098757520	-8.644000E+00	  0.098757520	8.192600E+01	  0.098757520	4.179600E+01	  0.098757520	3.543600E+01
395	  0.098957919	-8.670000E+00	  0.098957919	8.154300E+01	  0.098957919	4.205500E+01	  0.098957919	3.548000E+01
396	  0.099158317	-8.697000E+00	  0.099158317	8.115600E+01	  0.099158317	4.232000E+01	  0.099158317	3.551900E+01
397	  0.099358723	-8.721000E+00	  0.099358723	8.078100E+01	  0.099358723	4.257100E+01	  0.099358723	3.556500E+01
398	  0.099559121	-8.745000E+00	  0.099559121	8.044600E+01	  0.099559121	4.280300E+01	  0.099559121	3.559300E+01
399	  0.099759519	-8.771000E+00	  0.099759519	8.009100E+01	  0.099759519	4.305000E+01	  0.099759519	3.562200E+01
400	  0.099959925	-8.799000E+00	  0.099959925	7.977600E+01	  0.099959925	4.327900E+01	  0.099959925	3.562900E+01
401	  0.100160323	-8.822000E+00	  0.100160323	7.940500E+01	  0.100160323	4.353000E+01	  0.100160323	3.566700E+01
402	  0.100360721	-8.846000E+00	  0.100360721	7.910500E+01	  0.100360721	4.374600E+01	  0.100360721	3.567800E+01
403	  0.100561127	-8.867000E+00	  0.100561127	7.870000E+01	  0.100561127	4.401000E+01	  0.100561127	3.573600E+01
404	  0.100761525	-8.886000E+00	  0.100761525	7.833300E+01	  0.100761525	4.425300E+01	  0.100761525	3.578300E+01
405	  0.100961931	-8.909000E+00	  0.100961931	7.802300E+01	  0.100961931	4.447400E+01	  0.100961931	3.579500E+01
406	  0.101162329	-8.930000E+00	  0.101162329	7.765900E+01	  0.101162329	4.472000E+01	  0.101162329	3.583300E+01
407	  0.101362728	-8.949000E+00	  0.101362728	7.727900E+01	  0.101362728	4.497100E+01	  0.101362728	3.588200E+01
408	  0.101563133	-8.977000E+00	  0.101563133	7.693800E+01	  0.101563133	4.522000E+01	  0.101563133	3.588200E+01
409	  0.101763532	-8.978000E+00	  0.101763532	7.658200E+01	  0.101763532	4.542500E+01	  0.101763532	3.598600E+01
410	  0.101963930	-8.998000E+00	  0.101963930	7.626200E+01	  0.101963930	4.564800E+01	  0.101963930	3.600700E+01
411	  0.102164336	-9.014000E+00	  0.102164336	7.582800E+01	  0.102164336	4.592900E+01	  0.102164336	3.607500E+01
412	  0.102364734	-9.027000E+00	  0.102364734	7.547800E+01	  0.102364734	4.615700E+01	  0.102364734	3.612900E+01
413	  0.102565132	-9.027000E+00	  0.102565132	7.512500E+01	  0.102565132	4.636400E+01	  0.102565132	3.623100E+01
414	  0.102765530	-9.037000E+00	  0.102765530	7.477600E+01	  0.102765530	4.658800E+01	  0.102765530	3.629200E+01
415	  0.102965929	-9.036000E+00	  0.102965929	7.444300E+01	  0.102965929	4.678300E+01	  0.102965929	3.639300E+01
416	  0.103166327	-9.048000E+00	  0.103166327	7.409300E+01	  0.103166327	4.701500E+01	  0.103166327	3.644200E+01
417	  0.103366733	-9.041000E+00	  0.103366733	7.376000E+01	  0.103366733	4.720100E+01	  0.103366733	3.656700E+01
418	  0.103567131	-9.041000E+00	  0.103567131	7.338300E+01	  0.103567131	4.742900E+01	  0.103567131	3.667000E+01
419	  0.103767529	-9.043000E+00	  0.103767529	7.306700E+01	  0.103767529	4.762600E+01	  0.103767529	3.675000E+01
420	  0.103967935	-9.037000E+00	  0.103967935	7.266000E+01	  0.103967935	4.786500E+01	  0.103967935	3.688500E+01
421	  0.104168333	-9.034000E+00	  0.104168333	7.236000E+01	  0.104168333	4.804400E+01	  0.104168333	3.698000E+01
422	  0.104368731	-9.042000E+00	  0.104368731	7.203200E+01	  0.104368731	4.826200E+01	  0.104368731	3.703800E+01
423	  0.104569137	-9.038000E+00	  0.104569137	7.163500E+01	  0.104569137	4.850500E+01	  0.104569137	3.715800E+01
424	  0.104769535	-9.020000E+00	  0.104769535	7.129900E+01	  0.104769535	4.868500E+01	  0.104769535	3.732500E+01
425	  0.104969934	-9.011000E+00	  0.104969934	7.089900E+01	  0.104969934	4.892500E+01	  0.104969934	3.746500E+01
426	  0.105170339	-9.010000E+00	  0.105170339	7.055300E+01	  0.105170339	4.914500E+01	  0.105170339	3.756200E+01
427	  0.105370738	-8.986000E+00	  0.105370738	7.024000E+01	  0.105370738	4.930700E+01	  0.105370738	3.774500E+01
428	  0.105571143	-8.984000E+00	  0.105571143	6.986900E+01	  0.105571143	4.954500E+01	  0.105571143	3.785000E+01
429	  0.105771542	-8.965000E+00	  0.105771542	6.944500E+01	  0.105771542	4.979200E+01	  0.105771542	3.804100E+01
430	  0.105971940	-8.966000E+00	  0.105971940	6.906500E+01	  0.105971940	5.004400E+01	  0.105971940	3.813700E+01
431	  0.106172346	-8.941000E+00	  0.106172346	6.867800E+01	  0.106172346	5.026300E+01	  0.106172346	3.834300E+01
432	  0.106372744	-8.931000E+00	  0.106372744	6.825300E+01	  0.106372744	5.053300E+01	  0.106372744	3.849300E+01
433	  0.106573142	-8.910000E+00	  0.106573142	6.782400E+01	  0.106573142	5.079100E+01	  0.106573142	3.869700E+01
434	  0.106773548	-8.903000E+00	  0.106773548	6.738300E+01	  0.106773548	5.108500E+01	  0.106773548	3.883500E+01
435	  0.106973946	-8.890000E+00	  0.106973946	6.702800E+01	  0.106973946	5.131000E+01	  0.106973946	3.898300E+01
436	  0.107174344	-8.880000E+00	  0.107174344	6.662400E+01	  0.107174344	5.157900E+01	  0.107174344	3.912300E+01
437	  0.107374750	-8.858000E+00	  0.107374750	6.611500E+01	  0.107374750	5.190300E+01	  0.107374750	3.935000E+01
438	  0.107575148	-8.848000E+00	  0.107575148	6.555400E+01	  0.107575148	5.229100E+01	  0.107575148	3.952800E+01
439	  0.107775547	-8.833000E+00	  0.107775547	6.510200E+01	  0.107775547	5.259600E+01	  0.107775547	3.970300E+01
440	  0.107975952	-8.812000E+00	  0.107975952	6.462500E+01	  0.107975952	5.291300E+01	  0.107975952	3.991500E+01
441	  0.108176351	-8.791000E+00	  0.108176351	6.410900E+01	  0.108176351	5.326600E+01	  0.108176351	4.013200E+01
442	  0.108376749	-8.775000E+00	  0.108376749	6.360100E+01	  0.108376749	5.362500E+01	  0.108376749	4.032100E+01
443	  0.108577155	-8.759000E+00	  0.108577155	6.302000E+01	  0.108577155	5.404300E+01	  0.108577155	4.052800E+01
444	  0.108777553	-8.741000E+00	  0.108777553	6.247400E+01	  0.108777553	5.443700E+01	  0.108777553	4.073700E+01
445	  0.108977959	-8.724000E+00	  0.108977959	6.186500E+01	  0.108977959	5.488800E+01	  0.108977959	4.095000E+01
446	  0.109178357	-8.709000E+00	  0.109178357	6.121400E+01	  0.109178357	5.538400E+01	  0.109178357	4.115500E+01
447	  0.109378755	-8.680000E+00	  0.109378755	6.066700E+01	  0.109378755	5.578500E+01	  0.109378755	4.141600E+01
448	  0.109579161	-8.662000E+00	  0.109579161	6.002900E+01	  0.109579161	5.628000E+01	  0.109579161	4.163200E+01
449	  0.109779559	-8.637000E+00	  0.109779559	5.943900E+01	  0.109779559	5.673700E+01	  0.109779559	4.187500E+01
450	  0.109979957	-8.617000E+00	  0.109979957	5.882200E+01	  0.109979957	5.722800E+01	  0.109979957	4.209600E+01
451	  0.110180363	-8.604000E+00	  0.110180363	5.815200E+01	  0.110180363	5.778100E+01	  0.110180363	4.228200E+01
452	  0.110380761	-8.564000E+00	  0.110380761	5.755600E+01	  0.110380761	5.825000E+01	  0.110380761	4.260700E+01
453	  0.110581160	-8.556000E+00	  0.110581160	5.682200E+01	  0.110581160	5.888200E+01	  0.110581160	4.276600E+01
454	  0.110781565	-8.537000E+00	  0.110781565	5.619800E+01	  0.110781565	5.941600E+01	  0.110781565	4.297200E+01
455	  0.110981964	-8.513000E+00	  0.110981964	5.555000E+01	  0.110981964	5.997600E+01	  0.110981964	4.320200E+01
456	  0.111182362	-8.495000E+00	  0.111182362	5.486300E+01	  0.111182362	6.058700E+01	  0.111182362	4.339900E+01
457	  0.111382768	-8.476000E+00	  0.111382768	5.418400E+01	  0.111382768	6.120000E+01	  0.111382768	4.359400E+01
458	  0.111583166	-8.460000E+00	  0.111583166	5.349800E+01	  0.111583166	6.183100E+01	  0.111583166	4.377000E+01
459	  0.111783572	-8.451000E+00	  0.111783572	5.281800E+01	  0.111783572	6.247200E+01	  0.111783572	4.389400E+01
460	  0.111983970	-8.432000E+00	  0.111983970	5.213200E+01	  0.111983970	6.312300E+01	  0.111983970	4.407200E+01
461	  0.112184368	-8.415000E+00	  0.112184368	5.136700E+01	  0.112184368	6.386300E+01	  0.112184368	4.423400E+01
462	  0.112384774	-8.407000E+00	  0.112384774	5.065200E+01	  0.112384774	6.457000E+01	  0.112384774	4.433100E+01
463	  0.112585172	-8.407000E+00	  0.112585172	4.993700E+01	  0.112585172	6.528800E+01	  0.112585172	4.436100E+01
464	  0.112785570	-8.390000E+00	  0.112785570	4.916900E+01	  0.112785570	6.606700E+01	  0.112785570	4.449800E+01
465	  0.112985976	-8.393000E+00	  0.112985976	4.840800E+01	  0.112985976	6.685300E+01	  0.112985976	4.448800E+01
466	  0.113186374	-8.393000E+00	  0.113186374	4.763700E+01	  0.113186374	6.765900E+01	  0.113186374	4.448100E+01
467	  0.113386773	-8.387000E+00	  0.113386773	4.687200E+01	  0.113386773	6.846800E+01	  0.113386773	4.450200E+01
468	  0.113587178	-8.388000E+00	  0.113587178	4.603900E+01	  0.113587178	6.936000E+01	  0.113587178	4.445800E+01
469	  0.113787577	-8.387000E+00	  0.113787577	4.523600E+01	  0.113787577	7.022900E+01	  0.113787577	4.440500E+01
470	  0.113987975	-8.397000E+00	  0.113987975	4.440800E+01	  0.113987975	7.112900E+01	  0.113987975	4.426100E+01
471	  0.114188381	-8.396000E+00	  0.114188381	4.360800E+01	  0.114188381	7.201300E+01	  0.114188381	4.417400E+01
472	  0.114388779	-8.410000E+00	  0.114388779	4.272700E+01	  0.114388779	7.298300E+01	  0.114388779	4.394800E+01
473	  0.114589177	-8.411000E+00	  0.114589177	4.186300E+01	  0.114589177	7.395400E+01	  0.114589177	4.379200E+01
474	  0.114789583	-8.421000E+00	  0.114789583	4.100400E+01	  0.114789583	7.491500E+01	  0.114789583	4.354700E+01
475	  0.114989981	-8.437000E+00	  0.114989981	4.009000E+01	  0.114989981	7.593500E+01	  0.114989981	4.322000E+01
476	  0.115190387	-8.452000E+00	  0.115190387	3.917700E+01	  0.115190387	7.695800E+01	  0.115190387	4.286200E+01
477	  0.115390785	-8.464000E+00	  0.115390785	3.824400E+01	  0.115390785	7.801200E+01	  0.115390785	4.250000E+01
478	  0.115591183	-8.470000E+00	  0.115591183	3.722500E+01	  0.115591183	7.918300E+01	  0.115591183	4.212100E+01
479	  0.115791589	-8.488000E+00	  0.115791589	3.631500E+01	  0.115791589	8.020000E+01	  0.115791589	4.165000E+01
480	  0.115991987	-8.502000E+00	  0.115991987	3.531600E+01	  0.115991987	8.132700E+01	  0.115991987	4.113600E+01
481	  0.116192386	-8.514000E+00	  0.116192386	3.436900E+01	  0.116192386	8.239800E+01	  0.116192386	4.062500E+01
482	  0.116392791	-8.537000E+00	  0.116392791	3.336000E+01	  0.116392791	8.350400E+01	  0.116392791	3.996600E+01
483	  0.116593190	-8.555000E+00	  0.116593190	3.235900E+01	  0.116593190	8.460600E+01	  0.116593190	3.930500E+01
484	  0.116793588	-8.571000E+00	  0.116793588	3.135000E+01	  0.116793588	8.571500E+01	  0.116793588	3.861300E+01
485	  0.116993994	-8.593000E+00	  0.116993994	3.028300E+01	  0.116993994	8.685400E+01	  0.116993994	3.779500E+01
486	  0.117194392	-8.617000E+00	  0.117194392	2.921300E+01	  0.117194392	8.796900E+01	  0.117194392	3.691200E+01
487	  0.117394790	-8.635000E+00	  0.117394790	2.816400E+01	  0.117394790	8.906900E+01	  0.117394790	3.604700E+01
488	  0.117595196	-8.658000E+00	  0.117595196	2.714800E+01	  0.117595196	9.008900E+01	  0.117595196	3.512600E+01
489	  0.117795594	-8.691000E+00	  0.117795594	2.604700E+01	  0.117795594	9.112000E+01	  0.117795594	3.401800E+01
490	  0.117995992	-8.719000E+00	  0.117995992	2.495300E+01	  0.117995992	9.213500E+01	  0.117995992	3.290500E+01
491	  0.118196398	-8.749000E+00	  0.118196398	2.387400E+01	  0.118196398	9.309300E+01	  0.118196398	3.175600E+01
492	  0.118396796	-8.788000E+00	  0.118396796	2.275600E+01	  0.118396796	9.398700E+01	  0.118396796	3.045900E+01
493	  0.118597202	-8.829000E+00	  0.118597202	2.159400E+01	  0.118597202	9.486700E+01	  0.118597202	2.907300E+01
494	  0.118797600	-8.871000E+00	  0.118797600	2.044200E+01	  0.118797600	9.567800E+01	  0.118797600	2.765300E+01
495	  0.118997999	-8.925000E+00	  0.118997999	1.931900E+01	  0.118997999	9.631600E+01	  0.118997999	2.615700E+01
496	  0.119198404	-8.966000E+00	  0.119198404	1.810200E+01	  0.119198404	9.706300E+01	  0.119198404	2.460400E+01
497	  0.119398803	-9.028000E+00	  0.119398803	1.695600E+01	  0.119398803	9.753500E+01	  0.119398803	2.299600E+01
498	  0.119599201	-9.096000E+00	  0.119599201	1.570200E+01	  0.119599201	9.796700E+01	  0.119599201	2.121900E+01
499	  0.119799607	-9.160000E+00	  0.119799607	1.444500E+01	  0.119799607	9.835100E+01	  0.119799607	1.945200E+01
500	  0.120000005	-9.234000E+00	  0.120000005	1.319100E+01	  0.120000005	9.856200E+01	  0.120000005	1.763800E+01
