! Anritsu VNA Master:             	Model: MS2036C/10/77
! SN:             	1601066
! /bd0/18may07/256.ew.m4.txt
! Existing Calibration Information:
! TYPE:             	Current Settings	Active Cal Settings
! TIME:             	05/07/2018 11:56:12 AM	05/07/2018 11:47:21 AM
! INTERNAL TEMP:    	52.8 C	52.0 C
! # POINTS:         	500	500
! START FREQ:       	20.000 MHz	20.000 MHz
! STOP FREQ:        	120.000 MHz	120.000 MHz
! SOURCE POWER:     	High	High
! IFBW:             	50 Hz	50 Hz
! AVG FACTOR:       	  1 	  1 
! REF PLANE 1:      	0 mm	0 mm
! REF PLANE 2:      	0 mm	0 mm
! CAL TYPE:         	Full S11	Full S11
! CAL METHOD:       	SOLT	SOLT
! CAL LINE TYPE:    	Coax	Coax
! DUT PORT 1:       	K-Conn(F)	K-Conn(F)
! DUT PORT 2:       	K-Conn(F)	K-Conn(F)
! CAL STATUS:       	OK: Accuracy High	--
! PROP-V:       	0.700
! CABLE LOSS:       	0.000 dB/m
! REF IMPEDANCE:       	50.0
! Trace Specific Parameters:	TR1	TR2	TR3	TR4
! TRACE.#.Y (GRAPH TYPE)	LOG MAG	PHASE	REAL IMPEDANCE	IMAGINARY IMPEDANCE
! TRACE.#.X 	FREQ.GHZ	FREQ.GHZ	FREQ.GHZ	FREQ.GHZ
! S-PARAMETER	S11	S11	S11	S11
! SMOOTH/APERTURE %	0	0	0	0
! WINDOW	NSL	NSL	NSL	NSL
! GATING	OFF	OFF	OFF	OFF
! FGTD	OFF	OFF	OFF	OFF
Marker Information per Trace:	TR1	TR2	TR3	TR4
!MK1	--	"MK1 TR2:  20.000 MHz,PH:-125.77°"	--	--
!MK2	--	--	"MK2 TR3:  70.100 200 MHz,Z:(16.349 ohm, -3.007 ohm)"	--
!MK3	--	--	--	--
!MK4	--	--	--	--
!MK5	--	--	--	--
!MK6	--	--	--	--
!MK7	--	--	--	--
!MK8	--	--	--	--
PNT	TR1.FREQ.GHZ	TR1.LOG MAG.dB	TR2.FREQ.GHZ	TR2.PHASE.deg	TR3.FREQ.GHZ	TR3.REAL IMPEDANCE.ohm	TR4.FREQ.GHZ	TR4.IMAGINARY IMPEDANCE.ohm
1	  0.020000000	-6.270000E-01	  0.020000000	-1.257740E+02	  0.020000000	2.278000E+00	  0.020000000	-2.555800E+01
2	  0.020200402	-6.260000E-01	  0.020200402	-1.272290E+02	  0.020200402	2.244000E+00	  0.020200402	-2.476400E+01
3	  0.020400802	-6.260000E-01	  0.020400802	-1.286810E+02	  0.020400802	2.216000E+00	  0.020400802	-2.398100E+01
4	  0.020601204	-6.290000E-01	  0.020601204	-1.301370E+02	  0.020601204	2.201000E+00	  0.020601204	-2.320500E+01
5	  0.020801604	-6.320000E-01	  0.020801604	-1.316280E+02	  0.020801604	2.185000E+00	  0.020801604	-2.242000E+01
6	  0.021002004	-6.410000E-01	  0.021002004	-1.331410E+02	  0.021002004	2.190000E+00	  0.021002004	-2.163200E+01
7	  0.021202406	-6.500000E-01	  0.021202406	-1.346820E+02	  0.021202406	2.195000E+00	  0.021202406	-2.083800E+01
8	  0.021402806	-6.540000E-01	  0.021402806	-1.362050E+02	  0.021402806	2.185000E+00	  0.021402806	-2.006400E+01
9	  0.021603208	-6.590000E-01	  0.021603208	-1.377380E+02	  0.021603208	2.179000E+00	  0.021603208	-1.929200E+01
10	  0.021803608	-6.650000E-01	  0.021803608	-1.392650E+02	  0.021803608	2.177000E+00	  0.021803608	-1.853100E+01
11	  0.022004008	-6.710000E-01	  0.022004008	-1.408170E+02	  0.022004008	2.175000E+00	  0.022004008	-1.776500E+01
12	  0.022204408	-6.760000E-01	  0.022204408	-1.423730E+02	  0.022204408	2.172000E+00	  0.022204408	-1.700500E+01
13	  0.022404809	-6.840000E-01	  0.022404809	-1.439420E+02	  0.022404809	2.176000E+00	  0.022404809	-1.624500E+01
14	  0.022605211	-6.890000E-01	  0.022605211	-1.455310E+02	  0.022605211	2.172000E+00	  0.022605211	-1.548300E+01
15	  0.022805611	-6.890000E-01	  0.022805611	-1.471360E+02	  0.022805611	2.156000E+00	  0.022805611	-1.472000E+01
16	  0.023006011	-6.930000E-01	  0.023006011	-1.487340E+02	  0.023006011	2.152000E+00	  0.023006011	-1.396600E+01
17	  0.023206413	-6.970000E-01	  0.023206413	-1.503160E+02	  0.023206413	2.147000E+00	  0.023206413	-1.322600E+01
18	  0.023406813	-6.990000E-01	  0.023406813	-1.518870E+02	  0.023406813	2.139000E+00	  0.023406813	-1.249700E+01
19	  0.023607215	-7.070000E-01	  0.023607215	-1.534760E+02	  0.023607215	2.149000E+00	  0.023607215	-1.176300E+01
20	  0.023807615	-7.150000E-01	  0.023807615	-1.550760E+02	  0.023807615	2.157000E+00	  0.023807615	-1.103000E+01
21	  0.024008015	-7.240000E-01	  0.024008015	-1.567010E+02	  0.024008015	2.172000E+00	  0.024008015	-1.028900E+01
22	  0.024208417	-7.330000E-01	  0.024208417	-1.583330E+02	  0.024208417	2.188000E+00	  0.024208417	-9.550000E+00
23	  0.024408817	-7.420000E-01	  0.024408817	-1.599840E+02	  0.024408817	2.203000E+00	  0.024408817	-8.806000E+00
24	  0.024609219	-7.530000E-01	  0.024609219	-1.616280E+02	  0.024609219	2.223000E+00	  0.024609219	-8.070000E+00
25	  0.024809619	-7.630000E-01	  0.024809619	-1.632850E+02	  0.024809619	2.242000E+00	  0.024809619	-7.330000E+00
26	  0.025010020	-7.740000E-01	  0.025010020	-1.649240E+02	  0.025010020	2.267000E+00	  0.025010020	-6.602000E+00
27	  0.025210422	-7.870000E-01	  0.025210422	-1.665910E+02	  0.025210422	2.297000E+00	  0.025210422	-5.865000E+00
28	  0.025410822	-8.000000E-01	  0.025410822	-1.682730E+02	  0.025410822	2.326000E+00	  0.025410822	-5.123000E+00
29	  0.025611224	-8.150000E-01	  0.025611224	-1.699630E+02	  0.025611224	2.362000E+00	  0.025611224	-4.380000E+00
30	  0.025811624	-8.280000E-01	  0.025811624	-1.716820E+02	  0.025811624	2.395000E+00	  0.025811624	-3.627000E+00
31	  0.026012026	-8.390000E-01	  0.026012026	-1.734090E+02	  0.026012026	2.423000E+00	  0.026012026	-2.872000E+00
32	  0.026212426	-8.500000E-01	  0.026212426	-1.751250E+02	  0.026212426	2.450000E+00	  0.026212426	-2.122000E+00
33	  0.026412826	-8.640000E-01	  0.026412826	-1.768530E+02	  0.026412826	2.487000E+00	  0.026412826	-1.369000E+00
34	  0.026613226	-8.800000E-01	  0.026613226	-1.785980E+02	  0.026613226	2.532000E+00	  0.026613226	-6.100000E-01
35	  0.026813626	-8.960000E-01	  0.026813626	1.796400E+02	  0.026813626	2.577000E+00	  0.026813626	1.560000E-01
36	  0.027014028	-9.140000E-01	  0.027014028	1.778730E+02	  0.027014028	2.629000E+00	  0.027014028	9.250000E-01
37	  0.027214428	-9.320000E-01	  0.027214428	1.760820E+02	  0.027214428	2.683000E+00	  0.027214428	1.705000E+00
38	  0.027414829	-9.470000E-01	  0.027414829	1.742940E+02	  0.027414829	2.730000E+00	  0.027414829	2.484000E+00
39	  0.027615231	-9.650000E-01	  0.027615231	1.724900E+02	  0.027615231	2.789000E+00	  0.027615231	3.270000E+00
40	  0.027815631	-9.860000E-01	  0.027815631	1.706810E+02	  0.027815631	2.854000E+00	  0.027815631	4.061000E+00
41	  0.028016033	-1.006000E+00	  0.028016033	1.688540E+02	  0.028016033	2.921000E+00	  0.028016033	4.862000E+00
42	  0.028216433	-1.029000E+00	  0.028216433	1.670230E+02	  0.028216433	2.996000E+00	  0.028216433	5.666000E+00
43	  0.028416833	-1.050000E+00	  0.028416833	1.651930E+02	  0.028416833	3.070000E+00	  0.028416833	6.472000E+00
44	  0.028617235	-1.072000E+00	  0.028617235	1.633510E+02	  0.028617235	3.149000E+00	  0.028617235	7.287000E+00
45	  0.028817635	-1.093000E+00	  0.028817635	1.615220E+02	  0.028817635	3.225000E+00	  0.028817635	8.100000E+00
46	  0.029018037	-1.113000E+00	  0.029018037	1.597060E+02	  0.029018037	3.303000E+00	  0.029018037	8.910000E+00
47	  0.029218437	-1.135000E+00	  0.029218437	1.578840E+02	  0.029218437	3.388000E+00	  0.029218437	9.728000E+00
48	  0.029418837	-1.159000E+00	  0.029418837	1.560700E+02	  0.029418837	3.482000E+00	  0.029418837	1.054600E+01
49	  0.029619239	-1.184000E+00	  0.029619239	1.542400E+02	  0.029619239	3.581000E+00	  0.029619239	1.137700E+01
50	  0.029819639	-1.214000E+00	  0.029819639	1.523730E+02	  0.029819639	3.700000E+00	  0.029819639	1.222900E+01
51	  0.030020041	-1.245000E+00	  0.030020041	1.504940E+02	  0.030020041	3.826000E+00	  0.030020041	1.309400E+01
52	  0.030220442	-1.275000E+00	  0.030220442	1.485950E+02	  0.030220442	3.953000E+00	  0.030220442	1.397500E+01
53	  0.030420844	-1.304000E+00	  0.030420844	1.466870E+02	  0.030420844	4.080000E+00	  0.030420844	1.486700E+01
54	  0.030621244	-1.336000E+00	  0.030621244	1.447910E+02	  0.030621244	4.223000E+00	  0.030621244	1.576200E+01
55	  0.030821644	-1.367000E+00	  0.030821644	1.428840E+02	  0.030821644	4.367000E+00	  0.030821644	1.667000E+01
56	  0.031022044	-1.403000E+00	  0.031022044	1.409770E+02	  0.031022044	4.531000E+00	  0.031022044	1.758700E+01
57	  0.031222444	-1.434000E+00	  0.031222444	1.390700E+02	  0.031222444	4.688000E+00	  0.031222444	1.851500E+01
58	  0.031422846	-1.472000E+00	  0.031422846	1.371040E+02	  0.031422846	4.875000E+00	  0.031422846	1.948000E+01
59	  0.031623244	-1.510000E+00	  0.031623244	1.351130E+02	  0.031623244	5.069000E+00	  0.031623244	2.047100E+01
60	  0.031823646	-1.544000E+00	  0.031823646	1.331110E+02	  0.031823646	5.259000E+00	  0.031823646	2.148000E+01
61	  0.032024048	-1.580000E+00	  0.032024048	1.311160E+02	  0.032024048	5.465000E+00	  0.032024048	2.249900E+01
62	  0.032224450	-1.616000E+00	  0.032224450	1.291250E+02	  0.032224450	5.678000E+00	  0.032224450	2.353000E+01
63	  0.032424849	-1.651000E+00	  0.032424849	1.271300E+02	  0.032424849	5.898000E+00	  0.032424849	2.458000E+01
64	  0.032625251	-1.687000E+00	  0.032625251	1.251480E+02	  0.032625251	6.130000E+00	  0.032625251	2.563800E+01
65	  0.032825653	-1.726000E+00	  0.032825653	1.231510E+02	  0.032825653	6.384000E+00	  0.032825653	2.671900E+01
66	  0.033026051	-1.765000E+00	  0.033026051	1.211660E+02	  0.033026051	6.651000E+00	  0.033026051	2.781300E+01
67	  0.033226453	-1.810000E+00	  0.033226453	1.191750E+02	  0.033226453	6.956000E+00	  0.033226453	2.892400E+01
68	  0.033426855	-1.854000E+00	  0.033426855	1.171900E+02	  0.033426855	7.270000E+00	  0.033426855	3.005300E+01
69	  0.033627257	-1.909000E+00	  0.033627257	1.151810E+02	  0.033627257	7.642000E+00	  0.033627257	3.121000E+01
70	  0.033827655	-1.961000E+00	  0.033827655	1.131540E+02	  0.033827655	8.025000E+00	  0.033827655	3.240100E+01
71	  0.034028057	-2.012000E+00	  0.034028057	1.110600E+02	  0.034028057	8.432000E+00	  0.034028057	3.365700E+01
72	  0.034228459	-2.064000E+00	  0.034228459	1.089650E+02	  0.034228459	8.865000E+00	  0.034228459	3.493800E+01
73	  0.034428857	-2.113000E+00	  0.034428857	1.068200E+02	  0.034428857	9.315000E+00	  0.034428857	3.628100E+01
74	  0.034629259	-2.162000E+00	  0.034629259	1.046920E+02	  0.034629259	9.790000E+00	  0.034629259	3.764400E+01
75	  0.034829661	-2.208000E+00	  0.034829661	1.025630E+02	  0.034829661	1.027900E+01	  0.034829661	3.904200E+01
76	  0.035030060	-2.252000E+00	  0.035030060	1.004390E+02	  0.035030060	1.079200E+01	  0.035030060	4.047000E+01
77	  0.035230462	-2.295000E+00	  0.035230462	9.833300E+01	  0.035230462	1.132600E+01	  0.035230462	4.192300E+01
78	  0.035430863	-2.336000E+00	  0.035430863	9.622000E+01	  0.035430863	1.189300E+01	  0.035430863	4.341900E+01
79	  0.035631265	-2.380000E+00	  0.035631265	9.412500E+01	  0.035631265	1.250500E+01	  0.035631265	4.493800E+01
80	  0.035831664	-2.422000E+00	  0.035831664	9.206500E+01	  0.035831664	1.313800E+01	  0.035831664	4.647300E+01
81	  0.036032066	-2.469000E+00	  0.036032066	8.999600E+01	  0.036032066	1.384700E+01	  0.036032066	4.804700E+01
82	  0.036232468	-2.514000E+00	  0.036232468	8.793100E+01	  0.036232468	1.458900E+01	  0.036232468	4.966400E+01
83	  0.036432866	-2.561000E+00	  0.036432866	8.589700E+01	  0.036432866	1.538800E+01	  0.036432866	5.129300E+01
84	  0.036633268	-2.613000E+00	  0.036633268	8.386500E+01	  0.036633268	1.626600E+01	  0.036633268	5.295700E+01
85	  0.036833670	-2.666000E+00	  0.036833670	8.182800E+01	  0.036833670	1.722100E+01	  0.036833670	5.466500E+01
86	  0.037034072	-2.727000E+00	  0.037034072	7.977600E+01	  0.037034072	1.829700E+01	  0.037034072	5.641400E+01
87	  0.037234470	-2.784000E+00	  0.037234470	7.769900E+01	  0.037234470	1.944000E+01	  0.037234470	5.824000E+01
88	  0.037434869	-2.847000E+00	  0.037434869	7.562100E+01	  0.037434869	2.070500E+01	  0.037434869	6.009900E+01
89	  0.037635271	-2.904000E+00	  0.037635271	7.351900E+01	  0.037635271	2.204300E+01	  0.037635271	6.204600E+01
90	  0.037835669	-2.966000E+00	  0.037835669	7.137700E+01	  0.037835669	2.354100E+01	  0.037835669	6.406800E+01
91	  0.038036071	-3.028000E+00	  0.038036071	6.920400E+01	  0.038036071	2.518300E+01	  0.038036071	6.617300E+01
92	  0.038236473	-3.088000E+00	  0.038236473	6.706700E+01	  0.038236473	2.693100E+01	  0.038236473	6.829400E+01
93	  0.038436871	-3.144000E+00	  0.038436871	6.489900E+01	  0.038436871	2.881400E+01	  0.038436871	7.052000E+01
94	  0.038637273	-3.200000E+00	  0.038637273	6.276400E+01	  0.038637273	3.083900E+01	  0.038637273	7.276000E+01
95	  0.038837675	-3.246000E+00	  0.038837675	6.064700E+01	  0.038837675	3.294500E+01	  0.038837675	7.507900E+01
96	  0.039038073	-3.295000E+00	  0.039038073	5.853800E+01	  0.039038073	3.526500E+01	  0.039038073	7.741600E+01
97	  0.039238475	-3.341000E+00	  0.039238475	5.646800E+01	  0.039238475	3.772800E+01	  0.039238475	7.976400E+01
98	  0.039438877	-3.391000E+00	  0.039438877	5.441200E+01	  0.039438877	4.042800E+01	  0.039438877	8.210100E+01
99	  0.039639279	-3.448000E+00	  0.039639279	5.237800E+01	  0.039639279	4.340600E+01	  0.039639279	8.436900E+01
100	  0.039839678	-3.504000E+00	  0.039839678	5.033200E+01	  0.039839678	4.666400E+01	  0.039839678	8.664600E+01
101	  0.040040080	-3.565000E+00	  0.040040080	4.827400E+01	  0.040040080	5.026400E+01	  0.040040080	8.887600E+01
102	  0.040240481	-3.627000E+00	  0.040240481	4.621000E+01	  0.040240481	5.421200E+01	  0.040240481	9.103900E+01
103	  0.040440880	-3.688000E+00	  0.040440880	4.411700E+01	  0.040440880	5.855300E+01	  0.040440880	9.316300E+01
104	  0.040641282	-3.747000E+00	  0.040641282	4.204700E+01	  0.040641282	6.321600E+01	  0.040641282	9.515200E+01
105	  0.040841684	-3.807000E+00	  0.040841684	3.995500E+01	  0.040841684	6.833900E+01	  0.040841684	9.698700E+01
106	  0.041042086	-3.865000E+00	  0.041042086	3.789200E+01	  0.041042086	7.381700E+01	  0.041042086	9.857500E+01
107	  0.041242484	-3.922000E+00	  0.041242484	3.580700E+01	  0.041242484	7.978200E+01	  0.041242484	9.994000E+01
108	  0.041442886	-3.978000E+00	  0.041442886	3.373700E+01	  0.041442886	8.617500E+01	  0.041442886	1.009230E+02
109	  0.041643288	-4.032000E+00	  0.041643288	3.164800E+01	  0.041643288	9.308300E+01	  0.041643288	1.015120E+02
110	  0.041843686	-4.085000E+00	  0.041843686	2.956300E+01	  0.041843686	1.004480E+02	  0.041843686	1.015770E+02
111	  0.042044088	-4.137000E+00	  0.042044088	2.749900E+01	  0.042044088	1.081720E+02	  0.042044088	1.009980E+02
112	  0.042244490	-4.189000E+00	  0.042244490	2.545600E+01	  0.042244490	1.161990E+02	  0.042244490	9.965400E+01
113	  0.042444889	-4.238000E+00	  0.042444889	2.342400E+01	  0.042444889	1.244930E+02	  0.042444889	9.750000E+01
114	  0.042645290	-4.292000E+00	  0.042645290	2.139500E+01	  0.042645290	1.329380E+02	  0.042645290	9.425900E+01
115	  0.042845692	-4.341000E+00	  0.042845692	1.940300E+01	  0.042845692	1.412970E+02	  0.042845692	9.012600E+01
116	  0.043046094	-4.391000E+00	  0.043046094	1.736200E+01	  0.043046094	1.497270E+02	  0.043046094	8.471300E+01
117	  0.043246493	-4.442000E+00	  0.043246493	1.535900E+01	  0.043246493	1.576410E+02	  0.043246493	7.818600E+01
118	  0.043446895	-4.489000E+00	  0.043446895	1.335000E+01	  0.043446895	1.650830E+02	  0.043446895	7.056000E+01
119	  0.043647297	-4.538000E+00	  0.043647297	1.135600E+01	  0.043647297	1.716390E+02	  0.043647297	6.182500E+01
120	  0.043847695	-4.586000E+00	  0.043847695	9.363000E+00	  0.043847695	1.772020E+02	  0.043847695	5.213600E+01
121	  0.044048097	-4.635000E+00	  0.044048097	7.379000E+00	  0.044048097	1.814840E+02	  0.044048097	4.166800E+01
122	  0.044248499	-4.683000E+00	  0.044248499	5.409000E+00	  0.044248499	1.844090E+02	  0.044248499	3.072800E+01
123	  0.044448901	-4.729000E+00	  0.044448901	3.425000E+00	  0.044448901	1.859890E+02	  0.044448901	1.943700E+01
124	  0.044649299	-4.776000E+00	  0.044649299	1.479000E+00	  0.044649299	1.859990E+02	  0.044649299	8.304000E+00
125	  0.044849701	-4.816000E+00	  0.044849701	-4.710000E-01	  0.044849701	1.848770E+02	  0.044849701	-2.609000E+00
126	  0.045050103	-4.857000E+00	  0.045050103	-2.428000E+00	  0.045050103	1.824250E+02	  0.045050103	-1.312400E+01
127	  0.045250501	-4.893000E+00	  0.045250501	-4.370000E+00	  0.045250501	1.789630E+02	  0.045250501	-2.297000E+01
128	  0.045450903	-4.927000E+00	  0.045450903	-6.280000E+00	  0.045450903	1.746400E+02	  0.045450903	-3.193500E+01
129	  0.045651305	-4.964000E+00	  0.045651305	-8.201000E+00	  0.045651305	1.693760E+02	  0.045651305	-4.006000E+01
130	  0.045851704	-5.004000E+00	  0.045851704	-1.010000E+01	  0.045851704	1.634930E+02	  0.045851704	-4.711700E+01
131	  0.046052106	-5.042000E+00	  0.046052106	-1.198300E+01	  0.046052106	1.572860E+02	  0.046052106	-5.321400E+01
132	  0.046252504	-5.079000E+00	  0.046252504	-1.385600E+01	  0.046252504	1.508770E+02	  0.046252504	-5.839600E+01
133	  0.046452906	-5.116000E+00	  0.046452906	-1.573200E+01	  0.046452906	1.443650E+02	  0.046452906	-6.276300E+01
134	  0.046653304	-5.150000E+00	  0.046653304	-1.758200E+01	  0.046653304	1.379550E+02	  0.046653304	-6.632300E+01
135	  0.046853706	-5.183000E+00	  0.046853706	-1.944700E+01	  0.046853706	1.315840E+02	  0.046853706	-6.923100E+01
136	  0.047054108	-5.211000E+00	  0.047054108	-2.126600E+01	  0.047054108	1.255410E+02	  0.047054108	-7.151700E+01
137	  0.047254506	-5.242000E+00	  0.047254506	-2.310900E+01	  0.047254506	1.195730E+02	  0.047254506	-7.322400E+01
138	  0.047454908	-5.267000E+00	  0.047454908	-2.490300E+01	  0.047454908	1.140060E+02	  0.047454908	-7.450700E+01
139	  0.047655310	-5.295000E+00	  0.047655310	-2.670500E+01	  0.047655310	1.086200E+02	  0.047655310	-7.531000E+01
140	  0.047855709	-5.324000E+00	  0.047855709	-2.847200E+01	  0.047855709	1.035760E+02	  0.047855709	-7.571900E+01
141	  0.048056111	-5.353000E+00	  0.048056111	-3.021200E+01	  0.048056111	9.885100E+01	  0.048056111	-7.581500E+01
142	  0.048256513	-5.381000E+00	  0.048256513	-3.195800E+01	  0.048256513	9.435700E+01	  0.048256513	-7.567400E+01
143	  0.048456915	-5.411000E+00	  0.048456915	-3.369500E+01	  0.048456915	9.012600E+01	  0.048456915	-7.528700E+01
144	  0.048657313	-5.439000E+00	  0.048657313	-3.542900E+01	  0.048657313	8.613400E+01	  0.048657313	-7.475000E+01
145	  0.048857715	-5.463000E+00	  0.048857715	-3.718100E+01	  0.048857715	8.232800E+01	  0.048857715	-7.411200E+01
146	  0.049058117	-5.492000E+00	  0.049058117	-3.892200E+01	  0.049058117	7.876800E+01	  0.049058117	-7.328000E+01
147	  0.049258515	-5.512000E+00	  0.049258515	-4.065100E+01	  0.049258515	7.542200E+01	  0.049258515	-7.245300E+01
148	  0.049458917	-5.540000E+00	  0.049458917	-4.236000E+01	  0.049458917	7.232000E+01	  0.049458917	-7.145500E+01
149	  0.049659319	-5.566000E+00	  0.049659319	-4.404400E+01	  0.049659319	6.944200E+01	  0.049659319	-7.041400E+01
150	  0.049859721	-5.594000E+00	  0.049859721	-4.575700E+01	  0.049859721	6.668900E+01	  0.049859721	-6.928100E+01
151	  0.050060119	-5.617000E+00	  0.050060119	-4.744400E+01	  0.050060119	6.411900E+01	  0.050060119	-6.817800E+01
152	  0.050260521	-5.637000E+00	  0.050260521	-4.915100E+01	  0.050260521	6.165700E+01	  0.050260521	-6.705500E+01
153	  0.050460923	-5.657000E+00	  0.050460923	-5.085300E+01	  0.050460923	5.934300E+01	  0.050460923	-6.589900E+01
154	  0.050661322	-5.674000E+00	  0.050661322	-5.251600E+01	  0.050661322	5.719900E+01	  0.050661322	-6.477100E+01
155	  0.050861724	-5.688000E+00	  0.050861724	-5.419800E+01	  0.050861724	5.513900E+01	  0.050861724	-6.363500E+01
156	  0.051062126	-5.707000E+00	  0.051062126	-5.584600E+01	  0.051062126	5.324900E+01	  0.051062126	-6.247000E+01
157	  0.051262524	-5.720000E+00	  0.051262524	-5.746200E+01	  0.051262524	5.147400E+01	  0.051262524	-6.136100E+01
158	  0.051462926	-5.732000E+00	  0.051462926	-5.904000E+01	  0.051462926	4.982800E+01	  0.051462926	-6.027300E+01
159	  0.051663328	-5.744000E+00	  0.051663328	-6.059700E+01	  0.051663328	4.828600E+01	  0.051663328	-5.919700E+01
160	  0.051863730	-5.762000E+00	  0.051863730	-6.216900E+01	  0.051863730	4.683200E+01	  0.051863730	-5.807300E+01
161	  0.052064128	-5.774000E+00	  0.052064128	-6.370500E+01	  0.052064128	4.545900E+01	  0.052064128	-5.701400E+01
162	  0.052264530	-5.791000E+00	  0.052264530	-6.522000E+01	  0.052264530	4.419300E+01	  0.052264530	-5.593900E+01
163	  0.052464932	-5.807000E+00	  0.052464932	-6.677200E+01	  0.052464932	4.295200E+01	  0.052464932	-5.485900E+01
164	  0.052665330	-5.817000E+00	  0.052665330	-6.832300E+01	  0.052665330	4.175200E+01	  0.052665330	-5.381000E+01
165	  0.052865732	-5.837000E+00	  0.052865732	-6.986900E+01	  0.052865732	4.064700E+01	  0.052865732	-5.273100E+01
166	  0.053066134	-5.849000E+00	  0.053066134	-7.137200E+01	  0.053066134	3.959800E+01	  0.053066134	-5.172400E+01
167	  0.053266536	-5.860000E+00	  0.053266536	-7.287600E+01	  0.053266536	3.859400E+01	  0.053266536	-5.072700E+01
168	  0.053466935	-5.871000E+00	  0.053466935	-7.439100E+01	  0.053466935	3.762800E+01	  0.053466935	-4.973400E+01
169	  0.053667337	-5.878000E+00	  0.053667337	-7.588600E+01	  0.053667337	3.670000E+01	  0.053667337	-4.878000E+01
170	  0.053867739	-5.884000E+00	  0.053867739	-7.738100E+01	  0.053867739	3.581200E+01	  0.053867739	-4.783600E+01
171	  0.054068137	-5.890000E+00	  0.054068137	-7.885600E+01	  0.054068137	3.497200E+01	  0.054068137	-4.691500E+01
172	  0.054268539	-5.894000E+00	  0.054268539	-8.029800E+01	  0.054268539	3.417800E+01	  0.054268539	-4.603000E+01
173	  0.054468941	-5.899000E+00	  0.054468941	-8.171600E+01	  0.054468941	3.343600E+01	  0.054468941	-4.516100E+01
174	  0.054669339	-5.906000E+00	  0.054669339	-8.312300E+01	  0.054669339	3.273800E+01	  0.054669339	-4.429900E+01
175	  0.054869737	-5.910000E+00	  0.054869737	-8.451000E+01	  0.054869737	3.206500E+01	  0.054869737	-4.346900E+01
176	  0.055070139	-5.919000E+00	  0.055070139	-8.589200E+01	  0.055070139	3.143700E+01	  0.055070139	-4.263600E+01
177	  0.055270538	-5.924000E+00	  0.055270538	-8.725100E+01	  0.055270538	3.083400E+01	  0.055270538	-4.183300E+01
178	  0.055470940	-5.938000E+00	  0.055470940	-8.863700E+01	  0.055470940	3.027300E+01	  0.055470940	-4.100000E+01
179	  0.055671342	-5.941000E+00	  0.055671342	-9.002700E+01	  0.055671342	2.969600E+01	  0.055671342	-4.020100E+01
180	  0.055871744	-5.948000E+00	  0.055871744	-9.137700E+01	  0.055871744	2.917000E+01	  0.055871744	-3.942400E+01
181	  0.056072142	-5.953000E+00	  0.056072142	-9.274900E+01	  0.056072142	2.864800E+01	  0.056072142	-3.864700E+01
182	  0.056272544	-5.960000E+00	  0.056272544	-9.412400E+01	  0.056272544	2.815000E+01	  0.056272544	-3.787300E+01
183	  0.056472946	-5.969000E+00	  0.056472946	-9.552500E+01	  0.056472946	2.767200E+01	  0.056472946	-3.708700E+01
184	  0.056673344	-5.972000E+00	  0.056673344	-9.687200E+01	  0.056673344	2.720800E+01	  0.056673344	-3.635300E+01
185	  0.056873746	-5.974000E+00	  0.056873746	-9.821500E+01	  0.056873746	2.676000E+01	  0.056873746	-3.562900E+01
186	  0.057074148	-5.975000E+00	  0.057074148	-9.958400E+01	  0.057074148	2.631600E+01	  0.057074148	-3.490100E+01
187	  0.057274550	-5.978000E+00	  0.057274550	-1.009620E+02	  0.057274550	2.589300E+01	  0.057274550	-3.417100E+01
188	  0.057474948	-5.973000E+00	  0.057474948	-1.022900E+02	  0.057474948	2.547300E+01	  0.057474948	-3.348800E+01
189	  0.057675350	-5.969000E+00	  0.057675350	-1.035990E+02	  0.057675350	2.507800E+01	  0.057675350	-3.281900E+01
190	  0.057875752	-5.967000E+00	  0.057875752	-1.049170E+02	  0.057875752	2.469900E+01	  0.057875752	-3.214800E+01
191	  0.058076151	-5.970000E+00	  0.058076151	-1.062090E+02	  0.058076151	2.435700E+01	  0.058076151	-3.148600E+01
192	  0.058276553	-5.965000E+00	  0.058276553	-1.074850E+02	  0.058276553	2.400400E+01	  0.058276553	-3.085200E+01
193	  0.058476955	-5.966000E+00	  0.058476955	-1.087310E+02	  0.058476955	2.369200E+01	  0.058476955	-3.022700E+01
194	  0.058677353	-5.966000E+00	  0.058677353	-1.099830E+02	  0.058677353	2.338400E+01	  0.058677353	-2.960600E+01
195	  0.058877755	-5.966000E+00	  0.058877755	-1.112320E+02	  0.058877755	2.308600E+01	  0.058877755	-2.899200E+01
196	  0.059078157	-5.962000E+00	  0.059078157	-1.124810E+02	  0.059078157	2.278600E+01	  0.059078157	-2.838800E+01
197	  0.059278559	-5.965000E+00	  0.059278559	-1.137190E+02	  0.059278559	2.252100E+01	  0.059278559	-2.778400E+01
198	  0.059478957	-5.966000E+00	  0.059478957	-1.149550E+02	  0.059478957	2.225800E+01	  0.059478957	-2.718900E+01
199	  0.059679359	-5.968000E+00	  0.059679359	-1.162030E+02	  0.059679359	2.200400E+01	  0.059679359	-2.659100E+01
200	  0.059879761	-5.969000E+00	  0.059879761	-1.174440E+02	  0.059879761	2.176000E+01	  0.059879761	-2.600100E+01
201	  0.060080159	-5.968000E+00	  0.060080159	-1.186510E+02	  0.060080159	2.152100E+01	  0.060080159	-2.543600E+01
202	  0.060280561	-5.972000E+00	  0.060280561	-1.198610E+02	  0.060280561	2.130500E+01	  0.060280561	-2.486600E+01
203	  0.060480963	-5.970000E+00	  0.060480963	-1.210580E+02	  0.060480963	2.108200E+01	  0.060480963	-2.431400E+01
204	  0.060681365	-5.970000E+00	  0.060681365	-1.222800E+02	  0.060681365	2.086800E+01	  0.060681365	-2.375100E+01
205	  0.060881764	-5.968000E+00	  0.060881764	-1.234690E+02	  0.060881764	2.065900E+01	  0.060881764	-2.320900E+01
206	  0.061082166	-5.969000E+00	  0.061082166	-1.246700E+02	  0.061082166	2.046300E+01	  0.061082166	-2.266300E+01
207	  0.061282568	-5.968000E+00	  0.061282568	-1.258410E+02	  0.061282568	2.027500E+01	  0.061282568	-2.213500E+01
208	  0.061482966	-5.968000E+00	  0.061482966	-1.270110E+02	  0.061482966	2.009400E+01	  0.061482966	-2.161000E+01
209	  0.061683368	-5.963000E+00	  0.061683368	-1.281680E+02	  0.061683368	1.990900E+01	  0.061683368	-2.109900E+01
210	  0.061883770	-5.966000E+00	  0.061883770	-1.293310E+02	  0.061883770	1.974700E+01	  0.061883770	-2.058100E+01
211	  0.062084168	-5.964000E+00	  0.062084168	-1.304580E+02	  0.062084168	1.958400E+01	  0.062084168	-2.008600E+01
212	  0.062284570	-5.968000E+00	  0.062284570	-1.315890E+02	  0.062284570	1.944300E+01	  0.062284570	-1.958600E+01
213	  0.062484972	-5.964000E+00	  0.062484972	-1.326700E+02	  0.062484972	1.929100E+01	  0.062484972	-1.911800E+01
214	  0.062685370	-5.963000E+00	  0.062685370	-1.338120E+02	  0.062685370	1.914400E+01	  0.062685370	-1.862300E+01
215	  0.062885776	-5.968000E+00	  0.062885776	-1.349440E+02	  0.062885776	1.901900E+01	  0.062885776	-1.813000E+01
216	  0.063086174	-5.967000E+00	  0.063086174	-1.360830E+02	  0.063086174	1.888300E+01	  0.063086174	-1.764100E+01
217	  0.063286573	-5.971000E+00	  0.063286573	-1.372260E+02	  0.063286573	1.876200E+01	  0.063286573	-1.715000E+01
218	  0.063486971	-5.970000E+00	  0.063486971	-1.383630E+02	  0.063486971	1.863300E+01	  0.063486971	-1.666800E+01
219	  0.063687377	-5.972000E+00	  0.063687377	-1.394790E+02	  0.063687377	1.852200E+01	  0.063687377	-1.619300E+01
220	  0.063887775	-5.969000E+00	  0.063887775	-1.405930E+02	  0.063887775	1.839900E+01	  0.063887775	-1.572600E+01
221	  0.064088173	-5.966000E+00	  0.064088173	-1.417100E+02	  0.064088173	1.827900E+01	  0.064088173	-1.526000E+01
222	  0.064288579	-5.966000E+00	  0.064288579	-1.428270E+02	  0.064288579	1.817200E+01	  0.064288579	-1.479300E+01
223	  0.064488977	-5.966000E+00	  0.064488977	-1.439330E+02	  0.064488977	1.807100E+01	  0.064488977	-1.433300E+01
224	  0.064689375	-5.963000E+00	  0.064689375	-1.449910E+02	  0.064689375	1.796900E+01	  0.064689375	-1.389600E+01
225	  0.064889781	-5.960000E+00	  0.064889781	-1.460290E+02	  0.064889781	1.787200E+01	  0.064889781	-1.346900E+01
226	  0.065090179	-5.957000E+00	  0.065090179	-1.470710E+02	  0.065090179	1.777600E+01	  0.065090179	-1.304200E+01
227	  0.065290578	-5.956000E+00	  0.065290578	-1.481060E+02	  0.065290578	1.769300E+01	  0.065290578	-1.261800E+01
228	  0.065490983	-5.954000E+00	  0.065490983	-1.491480E+02	  0.065490983	1.760800E+01	  0.065490983	-1.219300E+01
229	  0.065691382	-5.948000E+00	  0.065691382	-1.501390E+02	  0.065691382	1.751900E+01	  0.065691382	-1.179200E+01
230	  0.065891780	-5.948000E+00	  0.065891780	-1.511660E+02	  0.065891780	1.744500E+01	  0.065891780	-1.137500E+01
231	  0.066092186	-5.945000E+00	  0.066092186	-1.521970E+02	  0.066092186	1.736800E+01	  0.066092186	-1.095800E+01
232	  0.066292584	-5.944000E+00	  0.066292584	-1.531820E+02	  0.066292584	1.730100E+01	  0.066292584	-1.056000E+01
233	  0.066492982	-5.940000E+00	  0.066492982	-1.541780E+02	  0.066492982	1.722800E+01	  0.066492982	-1.016100E+01
234	  0.066693388	-5.934000E+00	  0.066693388	-1.552220E+02	  0.066693388	1.714900E+01	  0.066693388	-9.743000E+00
235	  0.066893786	-5.932000E+00	  0.066893786	-1.561860E+02	  0.066893786	1.709000E+01	  0.066893786	-9.357000E+00
236	  0.067094192	-5.927000E+00	  0.067094192	-1.571920E+02	  0.067094192	1.702000E+01	  0.067094192	-8.957000E+00
237	  0.067294590	-5.923000E+00	  0.067294590	-1.582030E+02	  0.067294590	1.695900E+01	  0.067294590	-8.554000E+00
238	  0.067494988	-5.919000E+00	  0.067494988	-1.592210E+02	  0.067494988	1.689900E+01	  0.067494988	-8.150000E+00
239	  0.067695394	-5.915000E+00	  0.067695394	-1.602390E+02	  0.067695394	1.684000E+01	  0.067695394	-7.746000E+00
240	  0.067895792	-5.912000E+00	  0.067895792	-1.612080E+02	  0.067895792	1.678900E+01	  0.067895792	-7.363000E+00
241	  0.068096191	-5.906000E+00	  0.068096191	-1.622140E+02	  0.068096191	1.673000E+01	  0.068096191	-6.966000E+00
242	  0.068296596	-5.905000E+00	  0.068296596	-1.632780E+02	  0.068296596	1.668700E+01	  0.068296596	-6.545000E+00
243	  0.068496995	-5.898000E+00	  0.068496995	-1.642710E+02	  0.068496995	1.663100E+01	  0.068496995	-6.155000E+00
244	  0.068697393	-5.898000E+00	  0.068697393	-1.652550E+02	  0.068697393	1.659700E+01	  0.068697393	-5.766000E+00
245	  0.068897791	-5.895000E+00	  0.068897791	-1.662760E+02	  0.068897791	1.655600E+01	  0.068897791	-5.365000E+00
246	  0.069098189	-5.886000E+00	  0.069098189	-1.672870E+02	  0.069098189	1.650300E+01	  0.069098189	-4.969000E+00
247	  0.069298595	-5.884000E+00	  0.069298595	-1.682890E+02	  0.069298595	1.646900E+01	  0.069298595	-4.576000E+00
248	  0.069498993	-5.877000E+00	  0.069498993	-1.692720E+02	  0.069498993	1.642800E+01	  0.069498993	-4.191000E+00
249	  0.069699399	-5.875000E+00	  0.069699399	-1.702840E+02	  0.069699399	1.640000E+01	  0.069699399	-3.795000E+00
250	  0.069899797	-5.879000E+00	  0.069899797	-1.713030E+02	  0.069899797	1.638900E+01	  0.069899797	-3.395000E+00
251	  0.070100196	-5.871000E+00	  0.070100196	-1.722980E+02	  0.070100196	1.634900E+01	  0.070100196	-3.007000E+00
252	  0.070300601	-5.864000E+00	  0.070300601	-1.732900E+02	  0.070300601	1.631700E+01	  0.070300601	-2.619000E+00
253	  0.070501000	-5.866000E+00	  0.070501000	-1.742550E+02	  0.070501000	1.630700E+01	  0.070501000	-2.242000E+00
254	  0.070701398	-5.858000E+00	  0.070701398	-1.752870E+02	  0.070701398	1.627400E+01	  0.070701398	-1.839000E+00
255	  0.070901804	-5.853000E+00	  0.070901804	-1.762540E+02	  0.070901804	1.625400E+01	  0.070901804	-1.462000E+00
256	  0.071102202	-5.855000E+00	  0.071102202	-1.772290E+02	  0.071102202	1.625200E+01	  0.071102202	-1.081000E+00
257	  0.071302600	-5.850000E+00	  0.071302600	-1.782190E+02	  0.071302600	1.623200E+01	  0.071302600	-6.950000E-01
258	  0.071503006	-5.851000E+00	  0.071503006	-1.791820E+02	  0.071503006	1.623300E+01	  0.071503006	-3.190000E-01
259	  0.071703404	-5.847000E+00	  0.071703404	1.798750E+02	  0.071703404	1.622200E+01	  0.071703404	4.800000E-02
260	  0.071903802	-5.847000E+00	  0.071903802	1.789300E+02	  0.071903802	1.622200E+01	  0.071903802	4.170000E-01
261	  0.072104208	-5.847000E+00	  0.072104208	1.779830E+02	  0.072104208	1.622700E+01	  0.072104208	7.870000E-01
262	  0.072304606	-5.845000E+00	  0.072304606	1.770190E+02	  0.072304606	1.622700E+01	  0.072304606	1.163000E+00
263	  0.072505005	-5.846000E+00	  0.072505005	1.760940E+02	  0.072505005	1.623700E+01	  0.072505005	1.525000E+00
264	  0.072705410	-5.851000E+00	  0.072705410	1.751550E+02	  0.072705410	1.625900E+01	  0.072705410	1.891000E+00
265	  0.072905809	-5.854000E+00	  0.072905809	1.742280E+02	  0.072905809	1.627600E+01	  0.072905809	2.254000E+00
266	  0.073106214	-5.857000E+00	  0.073106214	1.732920E+02	  0.073106214	1.629700E+01	  0.073106214	2.619000E+00
267	  0.073306613	-5.860000E+00	  0.073306613	1.723890E+02	  0.073306613	1.632000E+01	  0.073306613	2.972000E+00
268	  0.073507011	-5.868000E+00	  0.073507011	1.714420E+02	  0.073507011	1.635600E+01	  0.073507011	3.342000E+00
269	  0.073707417	-5.873000E+00	  0.073707417	1.705110E+02	  0.073707417	1.638800E+01	  0.073707417	3.706000E+00
270	  0.073907815	-5.877000E+00	  0.073907815	1.695880E+02	  0.073907815	1.642000E+01	  0.073907815	4.067000E+00
271	  0.074108213	-5.884000E+00	  0.074108213	1.686990E+02	  0.074108213	1.646000E+01	  0.074108213	4.415000E+00
272	  0.074308619	-5.889000E+00	  0.074308619	1.677840E+02	  0.074308619	1.649600E+01	  0.074308619	4.773000E+00
273	  0.074509017	-5.895000E+00	  0.074509017	1.668410E+02	  0.074509017	1.653900E+01	  0.074509017	5.143000E+00
274	  0.074709415	-5.903000E+00	  0.074709415	1.659300E+02	  0.074709415	1.658900E+01	  0.074709415	5.500000E+00
275	  0.074909821	-5.911000E+00	  0.074909821	1.650090E+02	  0.074909821	1.664000E+01	  0.074909821	5.861000E+00
276	  0.075110219	-5.921000E+00	  0.075110219	1.641080E+02	  0.075110219	1.669800E+01	  0.075110219	6.213000E+00
277	  0.075310618	-5.932000E+00	  0.075310618	1.631720E+02	  0.075310618	1.675900E+01	  0.075310618	6.580000E+00
278	  0.075511023	-5.940000E+00	  0.075511023	1.622910E+02	  0.075511023	1.681700E+01	  0.075511023	6.926000E+00
279	  0.075711422	-5.943000E+00	  0.075711422	1.613740E+02	  0.075711422	1.686300E+01	  0.075711422	7.288000E+00
280	  0.075911827	-5.957000E+00	  0.075911827	1.604720E+02	  0.075911827	1.693800E+01	  0.075911827	7.641000E+00
281	  0.076112226	-5.964000E+00	  0.076112226	1.595590E+02	  0.076112226	1.700000E+01	  0.076112226	8.001000E+00
282	  0.076312624	-5.972000E+00	  0.076312624	1.586080E+02	  0.076312624	1.706600E+01	  0.076312624	8.377000E+00
283	  0.076513030	-5.980000E+00	  0.076513030	1.577330E+02	  0.076513030	1.713300E+01	  0.076513030	8.722000E+00
284	  0.076713428	-5.990000E+00	  0.076713428	1.567930E+02	  0.076713428	1.720900E+01	  0.076713428	9.094000E+00
285	  0.076913826	-5.996000E+00	  0.076913826	1.558800E+02	  0.076913826	1.727600E+01	  0.076913826	9.456000E+00
286	  0.077114232	-6.002000E+00	  0.077114232	1.549560E+02	  0.077114232	1.734500E+01	  0.077114232	9.824000E+00
287	  0.077314630	-6.007000E+00	  0.077314630	1.540690E+02	  0.077314630	1.741200E+01	  0.077314630	1.017800E+01
288	  0.077515028	-6.011000E+00	  0.077515028	1.531980E+02	  0.077515028	1.747800E+01	  0.077515028	1.052500E+01
289	  0.077715434	-6.019000E+00	  0.077715434	1.523220E+02	  0.077715434	1.755500E+01	  0.077715434	1.087500E+01
290	  0.077915832	-6.025000E+00	  0.077915832	1.514370E+02	  0.077915832	1.763200E+01	  0.077915832	1.123000E+01
291	  0.078116231	-6.034000E+00	  0.078116231	1.505470E+02	  0.078116231	1.771900E+01	  0.078116231	1.158500E+01
292	  0.078316636	-6.045000E+00	  0.078316636	1.496750E+02	  0.078316636	1.781100E+01	  0.078316636	1.193400E+01
293	  0.078517035	-6.055000E+00	  0.078517035	1.488160E+02	  0.078517035	1.790300E+01	  0.078517035	1.227800E+01
294	  0.078717433	-6.065000E+00	  0.078717433	1.479420E+02	  0.078717433	1.799800E+01	  0.078717433	1.262900E+01
295	  0.078917839	-6.076000E+00	  0.078917839	1.470940E+02	  0.078917839	1.809800E+01	  0.078917839	1.296900E+01
296	  0.079118237	-6.088000E+00	  0.079118237	1.462470E+02	  0.079118237	1.820000E+01	  0.079118237	1.330800E+01
297	  0.079318643	-6.101000E+00	  0.079318643	1.454120E+02	  0.079318643	1.830500E+01	  0.079318643	1.364300E+01
298	  0.079519041	-6.116000E+00	  0.079519041	1.445760E+02	  0.079519041	1.842200E+01	  0.079519041	1.397800E+01
299	  0.079719439	-6.131000E+00	  0.079719439	1.437350E+02	  0.079719439	1.853800E+01	  0.079719439	1.431500E+01
300	  0.079919845	-6.143000E+00	  0.079919845	1.428980E+02	  0.079919845	1.864900E+01	  0.079919845	1.465300E+01
301	  0.080120243	-6.159000E+00	  0.080120243	1.419990E+02	  0.080120243	1.878200E+01	  0.080120243	1.501400E+01
302	  0.080320641	-6.175000E+00	  0.080320641	1.411910E+02	  0.080320641	1.890600E+01	  0.080320641	1.533900E+01
303	  0.080521047	-6.191000E+00	  0.080521047	1.403200E+02	  0.080521047	1.903900E+01	  0.080521047	1.569000E+01
304	  0.080721445	-6.209000E+00	  0.080721445	1.395290E+02	  0.080721445	1.917000E+01	  0.080721445	1.600700E+01
305	  0.080921844	-6.228000E+00	  0.080921844	1.386780E+02	  0.080921844	1.931600E+01	  0.080921844	1.634900E+01
306	  0.081122249	-6.246000E+00	  0.081122249	1.378580E+02	  0.081122249	1.945800E+01	  0.081122249	1.667800E+01
307	  0.081322648	-6.265000E+00	  0.081322648	1.370440E+02	  0.081322648	1.960300E+01	  0.081322648	1.700500E+01
308	  0.081523046	-6.287000E+00	  0.081523046	1.362250E+02	  0.081523046	1.976100E+01	  0.081523046	1.733200E+01
309	  0.081723452	-6.305000E+00	  0.081723452	1.353940E+02	  0.081723452	1.991200E+01	  0.081723452	1.766800E+01
310	  0.081923850	-6.326000E+00	  0.081923850	1.345850E+02	  0.081923850	2.007000E+01	  0.081923850	1.799200E+01
311	  0.082124248	-6.346000E+00	  0.082124248	1.337880E+02	  0.082124248	2.023000E+01	  0.082124248	1.831200E+01
312	  0.082324654	-6.371000E+00	  0.082324654	1.329680E+02	  0.082324654	2.040600E+01	  0.082324654	1.863800E+01
313	  0.082525052	-6.394000E+00	  0.082525052	1.321790E+02	  0.082525052	2.057700E+01	  0.082525052	1.895300E+01
314	  0.082725458	-6.418000E+00	  0.082725458	1.314270E+02	  0.082725458	2.074700E+01	  0.082725458	1.925100E+01
315	  0.082925856	-6.444000E+00	  0.082925856	1.306220E+02	  0.082925856	2.093400E+01	  0.082925856	1.957000E+01
316	  0.083126254	-6.466000E+00	  0.083126254	1.298290E+02	  0.083126254	2.111200E+01	  0.083126254	1.988700E+01
317	  0.083326660	-6.488000E+00	  0.083326660	1.290100E+02	  0.083326660	2.129600E+01	  0.083326660	2.021600E+01
318	  0.083527058	-6.516000E+00	  0.083527058	1.281830E+02	  0.083527058	2.150000E+01	  0.083527058	2.054300E+01
319	  0.083727457	-6.537000E+00	  0.083727457	1.274080E+02	  0.083727457	2.168100E+01	  0.083727457	2.085500E+01
320	  0.083927862	-6.564000E+00	  0.083927862	1.266210E+02	  0.083927862	2.188300E+01	  0.083927862	2.116500E+01
321	  0.084128261	-6.584000E+00	  0.084128261	1.258390E+02	  0.084128261	2.206700E+01	  0.084128261	2.148100E+01
322	  0.084328659	-6.608000E+00	  0.084328659	1.250820E+02	  0.084328659	2.226300E+01	  0.084328659	2.178100E+01
323	  0.084529065	-6.632000E+00	  0.084529065	1.243760E+02	  0.084529065	2.245200E+01	  0.084529065	2.206000E+01
324	  0.084729463	-6.656000E+00	  0.084729463	1.236250E+02	  0.084729463	2.265300E+01	  0.084729463	2.235800E+01
325	  0.084929861	-6.682000E+00	  0.084929861	1.228740E+02	  0.084929861	2.286200E+01	  0.084929861	2.265400E+01
326	  0.085130267	-6.707000E+00	  0.085130267	1.221420E+02	  0.085130267	2.306700E+01	  0.085130267	2.294200E+01
327	  0.085330658	-6.736000E+00	  0.085330658	1.214360E+02	  0.085330658	2.328200E+01	  0.085330658	2.321300E+01
328	  0.085531056	-6.761000E+00	  0.085531056	1.207430E+02	  0.085531056	2.348400E+01	  0.085531056	2.348500E+01
329	  0.085731462	-6.793000E+00	  0.085731462	1.200240E+02	  0.085731462	2.371700E+01	  0.085731462	2.375800E+01
330	  0.085931860	-6.820000E+00	  0.085931860	1.193480E+02	  0.085931860	2.393000E+01	  0.085931860	2.401700E+01
331	  0.086132258	-6.850000E+00	  0.086132258	1.186890E+02	  0.086132258	2.414800E+01	  0.086132258	2.426600E+01
332	  0.086332664	-6.878000E+00	  0.086332664	1.180210E+02	  0.086332664	2.436700E+01	  0.086332664	2.452000E+01
333	  0.086533062	-6.915000E+00	  0.086533062	1.173820E+02	  0.086533062	2.460800E+01	  0.086533062	2.474800E+01
334	  0.086733460	-6.942000E+00	  0.086733460	1.166990E+02	  0.086733460	2.483500E+01	  0.086733460	2.500800E+01
335	  0.086933866	-6.967000E+00	  0.086933866	1.160400E+02	  0.086933866	2.505100E+01	  0.086933866	2.526100E+01
336	  0.087134264	-6.996000E+00	  0.087134264	1.154030E+02	  0.087134264	2.527500E+01	  0.087134264	2.549800E+01
337	  0.087334670	-7.022000E+00	  0.087334670	1.147620E+02	  0.087334670	2.549600E+01	  0.087334670	2.574000E+01
338	  0.087535068	-7.044000E+00	  0.087535068	1.141070E+02	  0.087535068	2.571400E+01	  0.087535068	2.599300E+01
339	  0.087735467	-7.068000E+00	  0.087735467	1.134800E+02	  0.087735467	2.593000E+01	  0.087735467	2.623100E+01
340	  0.087935872	-7.087000E+00	  0.087935872	1.128510E+02	  0.087935872	2.613400E+01	  0.087935872	2.647800E+01
341	  0.088136271	-7.112000E+00	  0.088136271	1.122010E+02	  0.088136271	2.636600E+01	  0.088136271	2.672300E+01
342	  0.088336669	-7.122000E+00	  0.088336669	1.115580E+02	  0.088336669	2.655600E+01	  0.088336669	2.698900E+01
343	  0.088537075	-7.141000E+00	  0.088537075	1.108880E+02	  0.088537075	2.677900E+01	  0.088537075	2.725400E+01
344	  0.088737473	-7.154000E+00	  0.088737473	1.102320E+02	  0.088737473	2.698600E+01	  0.088737473	2.752000E+01
345	  0.088937871	-7.171000E+00	  0.088937871	1.095620E+02	  0.088937871	2.721100E+01	  0.088937871	2.778700E+01
346	  0.089138277	-7.183000E+00	  0.089138277	1.088730E+02	  0.089138277	2.743000E+01	  0.089138277	2.807000E+01
347	  0.089338675	-7.204000E+00	  0.089338675	1.082330E+02	  0.089338675	2.766200E+01	  0.089338675	2.831800E+01
348	  0.089539073	-7.229000E+00	  0.089539073	1.075570E+02	  0.089539073	2.792300E+01	  0.089539073	2.857100E+01
349	  0.089739479	-7.250000E+00	  0.089739479	1.068380E+02	  0.089739479	2.818600E+01	  0.089739479	2.885000E+01
350	  0.089939877	-7.267000E+00	  0.089939877	1.062030E+02	  0.089939877	2.841900E+01	  0.089939877	2.909800E+01
351	  0.090140276	-7.291000E+00	  0.090140276	1.054750E+02	  0.090140276	2.870100E+01	  0.090140276	2.937500E+01
352	  0.090340681	-7.314000E+00	  0.090340681	1.047830E+02	  0.090340681	2.897400E+01	  0.090340681	2.963700E+01
353	  0.090541080	-7.339000E+00	  0.090541080	1.040880E+02	  0.090541080	2.925600E+01	  0.090541080	2.989500E+01
354	  0.090741485	-7.364000E+00	  0.090741485	1.034460E+02	  0.090741485	2.952800E+01	  0.090741485	3.012700E+01
355	  0.090941884	-7.393000E+00	  0.090941884	1.027400E+02	  0.090941884	2.983300E+01	  0.090941884	3.038100E+01
356	  0.091142282	-7.415000E+00	  0.091142282	1.021000E+02	  0.091142282	3.010200E+01	  0.091142282	3.061600E+01
357	  0.091342688	-7.446000E+00	  0.091342688	1.014300E+02	  0.091342688	3.040900E+01	  0.091342688	3.084700E+01
358	  0.091543086	-7.470000E+00	  0.091543086	1.008070E+02	  0.091543086	3.068400E+01	  0.091543086	3.107000E+01
359	  0.091743484	-7.497000E+00	  0.091743484	1.001740E+02	  0.091743484	3.097600E+01	  0.091743484	3.128800E+01
360	  0.091943890	-7.527000E+00	  0.091943890	9.955600E+01	  0.091943890	3.127400E+01	  0.091943890	3.149100E+01
361	  0.092144288	-7.552000E+00	  0.092144288	9.896700E+01	  0.092144288	3.155000E+01	  0.092144288	3.169300E+01
362	  0.092344686	-7.585000E+00	  0.092344686	9.834100E+01	  0.092344686	3.186400E+01	  0.092344686	3.189100E+01
363	  0.092545092	-7.611000E+00	  0.092545092	9.775700E+01	  0.092545092	3.215000E+01	  0.092545092	3.208300E+01
364	  0.092745490	-7.655000E+00	  0.092745490	9.719000E+01	  0.092745490	3.248000E+01	  0.092745490	3.222500E+01
365	  0.092945889	-7.682000E+00	  0.092945889	9.664500E+01	  0.092945889	3.275700E+01	  0.092945889	3.239600E+01
366	  0.093146294	-7.723000E+00	  0.093146294	9.608000E+01	  0.093146294	3.308500E+01	  0.093146294	3.253800E+01
367	  0.093346693	-7.760000E+00	  0.093346693	9.551500E+01	  0.093346693	3.340300E+01	  0.093346693	3.268800E+01
368	  0.093547091	-7.797000E+00	  0.093547091	9.495300E+01	  0.093547091	3.372400E+01	  0.093547091	3.283400E+01
369	  0.093747497	-7.831000E+00	  0.093747497	9.440400E+01	  0.093747497	3.403300E+01	  0.093747497	3.298000E+01
370	  0.093947895	-7.871000E+00	  0.093947895	9.381800E+01	  0.093947895	3.437700E+01	  0.093947895	3.312300E+01
371	  0.094148301	-7.908000E+00	  0.094148301	9.324800E+01	  0.094148301	3.470500E+01	  0.094148301	3.326700E+01
372	  0.094348699	-7.949000E+00	  0.094348699	9.270400E+01	  0.094348699	3.504100E+01	  0.094348699	3.338300E+01
373	  0.094549097	-7.984000E+00	  0.094549097	9.214200E+01	  0.094549097	3.536600E+01	  0.094549097	3.352200E+01
374	  0.094749503	-8.024000E+00	  0.094749503	9.159200E+01	  0.094749503	3.570500E+01	  0.094749503	3.363800E+01
375	  0.094949901	-8.063000E+00	  0.094949901	9.105100E+01	  0.094949901	3.603700E+01	  0.094949901	3.375400E+01
376	  0.095150299	-8.092000E+00	  0.095150299	9.053900E+01	  0.095150299	3.633600E+01	  0.095150299	3.387800E+01
377	  0.095350705	-8.131000E+00	  0.095350705	8.998500E+01	  0.095350705	3.667800E+01	  0.095350705	3.399200E+01
378	  0.095551103	-8.163000E+00	  0.095551103	8.944200E+01	  0.095551103	3.700200E+01	  0.095551103	3.411700E+01
379	  0.095751502	-8.200000E+00	  0.095751502	8.893500E+01	  0.095751502	3.732400E+01	  0.095751502	3.421100E+01
380	  0.095951907	-8.235000E+00	  0.095951907	8.842500E+01	  0.095951907	3.764400E+01	  0.095951907	3.431000E+01
381	  0.096152306	-8.271000E+00	  0.096152306	8.795400E+01	  0.096152306	3.795100E+01	  0.096152306	3.438700E+01
382	  0.096352704	-8.307000E+00	  0.096352704	8.744600E+01	  0.096352704	3.827500E+01	  0.096352704	3.447800E+01
383	  0.096553110	-8.340000E+00	  0.096553110	8.699000E+01	  0.096553110	3.857100E+01	  0.096553110	3.455300E+01
384	  0.096753508	-8.368000E+00	  0.096753508	8.649500E+01	  0.096753508	3.887400E+01	  0.096753508	3.465500E+01
385	  0.096953906	-8.402000E+00	  0.096953906	8.601300E+01	  0.096953906	3.918600E+01	  0.096953906	3.473400E+01
386	  0.097154312	-8.438000E+00	  0.097154312	8.553100E+01	  0.097154312	3.950600E+01	  0.097154312	3.480200E+01
387	  0.097354710	-8.469000E+00	  0.097354710	8.506000E+01	  0.097354710	3.980900E+01	  0.097354710	3.488000E+01
388	  0.097555116	-8.499000E+00	  0.097555116	8.456900E+01	  0.097555116	4.012100E+01	  0.097555116	3.496600E+01
389	  0.097755514	-8.525000E+00	  0.097755514	8.413900E+01	  0.097755514	4.039800E+01	  0.097755514	3.503700E+01
390	  0.097955912	-8.559000E+00	  0.097955912	8.370300E+01	  0.097955912	4.069400E+01	  0.097955912	3.508700E+01
391	  0.098156318	-8.583000E+00	  0.098156318	8.327500E+01	  0.098156318	4.096700E+01	  0.098156318	3.516000E+01
392	  0.098356716	-8.607000E+00	  0.098356716	8.286500E+01	  0.098356716	4.123000E+01	  0.098356716	3.522600E+01
393	  0.098557115	-8.631000E+00	  0.098557115	8.247600E+01	  0.098557115	4.148400E+01	  0.098557115	3.528500E+01
394	  0.098757520	-8.656000E+00	  0.098757520	8.206600E+01	  0.098757520	4.175100E+01	  0.098757520	3.534500E+01
395	  0.098957919	-8.680000E+00	  0.098957919	8.165900E+01	  0.098957919	4.201700E+01	  0.098957919	3.540500E+01
396	  0.099158317	-8.705000E+00	  0.099158317	8.127500E+01	  0.099158317	4.227600E+01	  0.099158317	3.545000E+01
397	  0.099358723	-8.727000E+00	  0.099358723	8.088900E+01	  0.099358723	4.252800E+01	  0.099358723	3.550700E+01
398	  0.099559121	-8.751000E+00	  0.099559121	8.053700E+01	  0.099559121	4.276700E+01	  0.099559121	3.554400E+01
399	  0.099759519	-8.777000E+00	  0.099759519	8.020100E+01	  0.099759519	4.300300E+01	  0.099759519	3.556500E+01
400	  0.099959925	-8.805000E+00	  0.099959925	7.989800E+01	  0.099959925	4.322800E+01	  0.099959925	3.556400E+01
401	  0.100160323	-8.822000E+00	  0.100160323	7.951600E+01	  0.100160323	4.347100E+01	  0.100160323	3.563100E+01
402	  0.100360721	-8.845000E+00	  0.100360721	7.917100E+01	  0.100360721	4.370800E+01	  0.100360721	3.566100E+01
403	  0.100561127	-8.866000E+00	  0.100561127	7.875900E+01	  0.100561127	4.397800E+01	  0.100561127	3.571800E+01
404	  0.100761525	-8.892000E+00	  0.100761525	7.839800E+01	  0.100761525	4.423000E+01	  0.100761525	3.574000E+01
405	  0.100961931	-8.914000E+00	  0.100961931	7.799000E+01	  0.100961931	4.450200E+01	  0.100961931	3.579000E+01
406	  0.101162329	-8.940000E+00	  0.101162329	7.769800E+01	  0.101162329	4.471900E+01	  0.101162329	3.578300E+01
407	  0.101362728	-8.956000E+00	  0.101362728	7.735900E+01	  0.101362728	4.494000E+01	  0.101362728	3.583000E+01
408	  0.101563133	-8.969000E+00	  0.101563133	7.701800E+01	  0.101563133	4.515900E+01	  0.101563133	3.588800E+01
409	  0.101763532	-8.984000E+00	  0.101763532	7.662000E+01	  0.101763532	4.541500E+01	  0.101763532	3.595300E+01
410	  0.101963930	-8.999000E+00	  0.101963930	7.626100E+01	  0.101963930	4.565100E+01	  0.101963930	3.600200E+01
411	  0.102164336	-9.018000E+00	  0.102164336	7.591900E+01	  0.102164336	4.588500E+01	  0.102164336	3.603200E+01
412	  0.102364734	-9.031000E+00	  0.102364734	7.550400E+01	  0.102364734	4.615100E+01	  0.102364734	3.610300E+01
413	  0.102565132	-9.035000E+00	  0.102565132	7.514200E+01	  0.102565132	4.636900E+01	  0.102565132	3.619400E+01
414	  0.102765530	-9.046000E+00	  0.102765530	7.473800E+01	  0.102765530	4.662700E+01	  0.102765530	3.626800E+01
415	  0.102965929	-9.042000E+00	  0.102965929	7.439300E+01	  0.102965929	4.682400E+01	  0.102965929	3.638300E+01
416	  0.103166327	-9.059000E+00	  0.103166327	7.407600E+01	  0.103166327	4.704400E+01	  0.103166327	3.640700E+01
417	  0.103366733	-9.055000E+00	  0.103366733	7.368400E+01	  0.103366733	4.727200E+01	  0.103366733	3.653200E+01
418	  0.103567131	-9.056000E+00	  0.103567131	7.333000E+01	  0.103567131	4.748800E+01	  0.103567131	3.662700E+01
419	  0.103767529	-9.061000E+00	  0.103767529	7.290000E+01	  0.103767529	4.776000E+01	  0.103767529	3.672500E+01
420	  0.103967935	-9.062000E+00	  0.103967935	7.257700E+01	  0.103967935	4.796000E+01	  0.103967935	3.680800E+01
421	  0.104168333	-9.059000E+00	  0.104168333	7.213300E+01	  0.104168333	4.823000E+01	  0.104168333	3.693900E+01
422	  0.104368731	-9.053000E+00	  0.104368731	7.175500E+01	  0.104368731	4.845600E+01	  0.104368731	3.706500E+01
423	  0.104569137	-9.056000E+00	  0.104569137	7.137500E+01	  0.104569137	4.869900E+01	  0.104569137	3.715500E+01
424	  0.104769535	-9.043000E+00	  0.104769535	7.102000E+01	  0.104769535	4.890200E+01	  0.104769535	3.730100E+01
425	  0.104969934	-9.042000E+00	  0.104969934	7.062600E+01	  0.104969934	4.915300E+01	  0.104969934	3.740700E+01
426	  0.105170339	-9.030000E+00	  0.105170339	7.023200E+01	  0.105170339	4.938600E+01	  0.105170339	3.756100E+01
427	  0.105370738	-9.019000E+00	  0.105370738	6.983400E+01	  0.105370738	4.962600E+01	  0.105370738	3.771100E+01
428	  0.105571143	-9.002000E+00	  0.105571143	6.952900E+01	  0.105571143	4.979700E+01	  0.105571143	3.786200E+01
429	  0.105771542	-8.992000E+00	  0.105771542	6.903700E+01	  0.105771542	5.010700E+01	  0.105771542	3.802700E+01
430	  0.105971940	-8.970000E+00	  0.105971940	6.866600E+01	  0.105971940	5.031800E+01	  0.105971940	3.821800E+01
431	  0.106172346	-8.958000E+00	  0.106172346	6.823900E+01	  0.106172346	5.058700E+01	  0.106172346	3.837600E+01
432	  0.106372744	-8.943000E+00	  0.106372744	6.785700E+01	  0.106372744	5.082200E+01	  0.106372744	3.854000E+01
433	  0.106573142	-8.928000E+00	  0.106573142	6.742800E+01	  0.106573142	5.109300E+01	  0.106573142	3.871200E+01
434	  0.106773548	-8.916000E+00	  0.106773548	6.700800E+01	  0.106773548	5.136600E+01	  0.106773548	3.886800E+01
435	  0.106973946	-8.900000E+00	  0.106973946	6.662600E+01	  0.106973946	5.160800E+01	  0.106973946	3.903000E+01
436	  0.107174344	-8.880000E+00	  0.107174344	6.613800E+01	  0.107174344	5.192200E+01	  0.107174344	3.924100E+01
437	  0.107374750	-8.869000E+00	  0.107374750	6.572100E+01	  0.107374750	5.220300E+01	  0.107374750	3.938800E+01
438	  0.107575148	-8.855000E+00	  0.107575148	6.521500E+01	  0.107575148	5.254600E+01	  0.107575148	3.957400E+01
439	  0.107775547	-8.837000E+00	  0.107775547	6.475700E+01	  0.107775547	5.285400E+01	  0.107775547	3.976100E+01
440	  0.107975952	-8.819000E+00	  0.107975952	6.426000E+01	  0.107975952	5.319400E+01	  0.107975952	3.996200E+01
441	  0.108176351	-8.810000E+00	  0.108176351	6.378800E+01	  0.108176351	5.353300E+01	  0.108176351	4.011000E+01
442	  0.108376749	-8.792000E+00	  0.108376749	6.330000E+01	  0.108376749	5.387500E+01	  0.108376749	4.030400E+01
443	  0.108577155	-8.772000E+00	  0.108577155	6.272800E+01	  0.108577155	5.428400E+01	  0.108577155	4.052500E+01
444	  0.108777553	-8.763000E+00	  0.108777553	6.222900E+01	  0.108777553	5.465700E+01	  0.108777553	4.067400E+01
445	  0.108977959	-8.747000E+00	  0.108977959	6.163200E+01	  0.108977959	5.510100E+01	  0.108977959	4.087800E+01
446	  0.109178357	-8.731000E+00	  0.109178357	6.104100E+01	  0.109178357	5.555000E+01	  0.109178357	4.107300E+01
447	  0.109378755	-8.711000E+00	  0.109378755	6.051100E+01	  0.109378755	5.594800E+01	  0.109378755	4.128300E+01
448	  0.109579161	-8.700000E+00	  0.109579161	5.993200E+01	  0.109579161	5.640400E+01	  0.109579161	4.144800E+01
449	  0.109779559	-8.673000E+00	  0.109779559	5.928300E+01	  0.109779559	5.690800E+01	  0.109779559	4.170600E+01
450	  0.109979957	-8.671000E+00	  0.109979957	5.869100E+01	  0.109979957	5.739800E+01	  0.109979957	4.182100E+01
451	  0.110180363	-8.646000E+00	  0.110180363	5.799500E+01	  0.110180363	5.796000E+01	  0.110180363	4.207100E+01
452	  0.110380761	-8.627000E+00	  0.110380761	5.739900E+01	  0.110380761	5.845000E+01	  0.110380761	4.227500E+01
453	  0.110581160	-8.609000E+00	  0.110581160	5.672200E+01	  0.110581160	5.902100E+01	  0.110581160	4.247800E+01
454	  0.110781565	-8.597000E+00	  0.110781565	5.608900E+01	  0.110781565	5.956800E+01	  0.110781565	4.263100E+01
455	  0.110981964	-8.574000E+00	  0.110981964	5.543700E+01	  0.110981964	6.013000E+01	  0.110981964	4.285400E+01
456	  0.111182362	-8.553000E+00	  0.111182362	5.471300E+01	  0.111182362	6.077000E+01	  0.111182362	4.306500E+01
457	  0.111382768	-8.542000E+00	  0.111382768	5.403900E+01	  0.111382768	6.138200E+01	  0.111382768	4.320500E+01
458	  0.111583166	-8.527000E+00	  0.111583166	5.334400E+01	  0.111583166	6.202000E+01	  0.111583166	4.336600E+01
459	  0.111783572	-8.512000E+00	  0.111783572	5.265100E+01	  0.111783572	6.266600E+01	  0.111783572	4.352200E+01
460	  0.111983970	-8.496000E+00	  0.111983970	5.189600E+01	  0.111983970	6.338300E+01	  0.111983970	4.368100E+01
461	  0.112184368	-8.487000E+00	  0.112184368	5.121100E+01	  0.112184368	6.404600E+01	  0.112184368	4.378100E+01
462	  0.112384774	-8.470000E+00	  0.112384774	5.048100E+01	  0.112384774	6.476000E+01	  0.112384774	4.392400E+01
463	  0.112585172	-8.461000E+00	  0.112585172	4.973600E+01	  0.112585172	6.550200E+01	  0.112585172	4.400700E+01
464	  0.112785570	-8.458000E+00	  0.112785570	4.897800E+01	  0.112785570	6.627000E+01	  0.112785570	4.404300E+01
465	  0.112985976	-8.448000E+00	  0.112985976	4.819200E+01	  0.112985976	6.707600E+01	  0.112985976	4.410900E+01
466	  0.113186374	-8.444000E+00	  0.113186374	4.739500E+01	  0.113186374	6.790500E+01	  0.113186374	4.412500E+01
467	  0.113386773	-8.437000E+00	  0.113386773	4.663300E+01	  0.113386773	6.870800E+01	  0.113386773	4.414600E+01
468	  0.113587178	-8.437000E+00	  0.113587178	4.583200E+01	  0.113587178	6.956100E+01	  0.113587178	4.409500E+01
469	  0.113787577	-8.434000E+00	  0.113787577	4.508500E+01	  0.113787577	7.036700E+01	  0.113787577	4.405800E+01
470	  0.113987975	-8.436000E+00	  0.113987975	4.422800E+01	  0.113987975	7.129900E+01	  0.113987975	4.395800E+01
471	  0.114188381	-8.434000E+00	  0.114188381	4.338500E+01	  0.114188381	7.222700E+01	  0.114188381	4.386200E+01
472	  0.114388779	-8.443000E+00	  0.114388779	4.254300E+01	  0.114388779	7.315300E+01	  0.114388779	4.366900E+01
473	  0.114589177	-8.444000E+00	  0.114589177	4.167000E+01	  0.114589177	7.413000E+01	  0.114589177	4.350800E+01
474	  0.114789583	-8.458000E+00	  0.114789583	4.085000E+01	  0.114789583	7.503700E+01	  0.114789583	4.323300E+01
475	  0.114989981	-8.458000E+00	  0.114989981	3.997400E+01	  0.114989981	7.603400E+01	  0.114989981	4.303200E+01
476	  0.115190387	-8.470000E+00	  0.115190387	3.906900E+01	  0.115190387	7.704800E+01	  0.115190387	4.269700E+01
477	  0.115390785	-8.492000E+00	  0.115390785	3.817800E+01	  0.115390785	7.803000E+01	  0.115390785	4.226400E+01
478	  0.115591183	-8.501000E+00	  0.115591183	3.725400E+01	  0.115591183	7.907600E+01	  0.115591183	4.188800E+01
479	  0.115791589	-8.516000E+00	  0.115791589	3.630200E+01	  0.115791589	8.014200E+01	  0.115791589	4.142400E+01
480	  0.115991987	-8.530000E+00	  0.115991987	3.536300E+01	  0.115991987	8.119500E+01	  0.115991987	4.094400E+01
481	  0.116192386	-8.554000E+00	  0.116192386	3.443600E+01	  0.116192386	8.219900E+01	  0.116192386	4.034900E+01
482	  0.116392791	-8.563000E+00	  0.116392791	3.344200E+01	  0.116392791	8.332200E+01	  0.116392791	3.980600E+01
483	  0.116593190	-8.591000E+00	  0.116593190	3.243900E+01	  0.116593190	8.438200E+01	  0.116593190	3.906900E+01
484	  0.116793588	-8.606000E+00	  0.116793588	3.149000E+01	  0.116793588	8.541700E+01	  0.116793588	3.842300E+01
485	  0.116993994	-8.633000E+00	  0.116993994	3.044900E+01	  0.116993994	8.649900E+01	  0.116993994	3.759700E+01
486	  0.117194392	-8.651000E+00	  0.117194392	2.938300E+01	  0.117194392	8.762600E+01	  0.117194392	3.677300E+01
487	  0.117394790	-8.679000E+00	  0.117394790	2.832400E+01	  0.117394790	8.868200E+01	  0.117394790	3.583800E+01
488	  0.117595196	-8.710000E+00	  0.117595196	2.725500E+01	  0.117595196	8.970900E+01	  0.117595196	3.482900E+01
489	  0.117795594	-8.743000E+00	  0.117795594	2.623400E+01	  0.117795594	9.064500E+01	  0.117795594	3.380300E+01
490	  0.117995992	-8.778000E+00	  0.117995992	2.509800E+01	  0.117995992	9.165200E+01	  0.117995992	3.262000E+01
491	  0.118196398	-8.807000E+00	  0.118196398	2.399800E+01	  0.118196398	9.262400E+01	  0.118196398	3.147600E+01
492	  0.118396796	-8.849000E+00	  0.118396796	2.292200E+01	  0.118396796	9.345000E+01	  0.118396796	3.021900E+01
493	  0.118597202	-8.885000E+00	  0.118597202	2.173800E+01	  0.118597202	9.436700E+01	  0.118597202	2.886100E+01
494	  0.118797600	-8.937000E+00	  0.118797600	2.056500E+01	  0.118797600	9.512100E+01	  0.118797600	2.737900E+01
495	  0.118997999	-8.982000E+00	  0.118997999	1.933600E+01	  0.118997999	9.590600E+01	  0.118997999	2.584900E+01
496	  0.119198404	-9.035000E+00	  0.119198404	1.816800E+01	  0.119198404	9.651400E+01	  0.119198404	2.430400E+01
497	  0.119398803	-9.091000E+00	  0.119398803	1.697000E+01	  0.119398803	9.705600E+01	  0.119398803	2.268900E+01
498	  0.119599201	-9.147000E+00	  0.119599201	1.570900E+01	  0.119599201	9.757100E+01	  0.119599201	2.098400E+01
499	  0.119799607	-9.220000E+00	  0.119799607	1.448100E+01	  0.119799607	9.785800E+01	  0.119799607	1.923100E+01
500	  0.120000005	-9.292000E+00	  0.120000005	1.320500E+01	  0.120000005	9.809900E+01	  0.120000005	1.742700E+01
