! Anritsu VNA Master:             	Model: MS2036C/10/77
! SN:             	1601066
! /bd0/18may07/256.ew.m1.txt
! Existing Calibration Information:
! TYPE:             	Current Settings	Active Cal Settings
! TIME:             	05/07/2018 11:50:17 AM	05/07/2018 11:47:21 AM
! INTERNAL TEMP:    	52.3 C	52.0 C
! # POINTS:         	500	500
! START FREQ:       	20.000 MHz	20.000 MHz
! STOP FREQ:        	120.000 MHz	120.000 MHz
! SOURCE POWER:     	High	High
! IFBW:             	50 Hz	50 Hz
! AVG FACTOR:       	  1 	  1 
! REF PLANE 1:      	0 mm	0 mm
! REF PLANE 2:      	0 mm	0 mm
! CAL TYPE:         	Full S11	Full S11
! CAL METHOD:       	SOLT	SOLT
! CAL LINE TYPE:    	Coax	Coax
! DUT PORT 1:       	K-Conn(F)	K-Conn(F)
! DUT PORT 2:       	K-Conn(F)	K-Conn(F)
! CAL STATUS:       	OK: Accuracy High	--
! PROP-V:       	0.700
! CABLE LOSS:       	0.000 dB/m
! REF IMPEDANCE:       	50.0
! Trace Specific Parameters:	TR1	TR2	TR3	TR4
! TRACE.#.Y (GRAPH TYPE)	LOG MAG	PHASE	REAL IMPEDANCE	IMAGINARY IMPEDANCE
! TRACE.#.X 	FREQ.GHZ	FREQ.GHZ	FREQ.GHZ	FREQ.GHZ
! S-PARAMETER	S11	S11	S11	S11
! SMOOTH/APERTURE %	0	0	0	0
! WINDOW	NSL	NSL	NSL	NSL
! GATING	OFF	OFF	OFF	OFF
! FGTD	OFF	OFF	OFF	OFF
Marker Information per Trace:	TR1	TR2	TR3	TR4
!MK1	--	"MK1 TR2:  20.000 MHz,PH:-125.86°"	--	--
!MK2	--	--	"MK2 TR3:  70.100 200 MHz,Z:(16.303 ohm, -2.874 ohm)"	--
!MK3	--	--	--	--
!MK4	--	--	--	--
!MK5	--	--	--	--
!MK6	--	--	--	--
!MK7	--	--	--	--
!MK8	--	--	--	--
PNT	TR1.FREQ.GHZ	TR1.LOG MAG.dB	TR2.FREQ.GHZ	TR2.PHASE.deg	TR3.FREQ.GHZ	TR3.REAL IMPEDANCE.ohm	TR4.FREQ.GHZ	TR4.IMAGINARY IMPEDANCE.ohm
1	  0.020000000	-6.240000E-01	  0.020000000	-1.258560E+02	  0.020000000	2.266000E+00	  0.020000000	-2.551300E+01
2	  0.020200402	-6.230000E-01	  0.020200402	-1.273210E+02	  0.020200402	2.231000E+00	  0.020200402	-2.471400E+01
3	  0.020400802	-6.230000E-01	  0.020400802	-1.287700E+02	  0.020400802	2.206000E+00	  0.020400802	-2.393300E+01
4	  0.020601204	-6.240000E-01	  0.020601204	-1.302340E+02	  0.020601204	2.181000E+00	  0.020601204	-2.315400E+01
5	  0.020801604	-6.280000E-01	  0.020801604	-1.317250E+02	  0.020801604	2.169000E+00	  0.020801604	-2.236900E+01
6	  0.021002004	-6.350000E-01	  0.021002004	-1.332450E+02	  0.021002004	2.170000E+00	  0.021002004	-2.157900E+01
7	  0.021202406	-6.440000E-01	  0.021202406	-1.347740E+02	  0.021202406	2.173000E+00	  0.021202406	-2.079200E+01
8	  0.021402806	-6.470000E-01	  0.021402806	-1.363000E+02	  0.021402806	2.162000E+00	  0.021402806	-2.001600E+01
9	  0.021603208	-6.530000E-01	  0.021603208	-1.378300E+02	  0.021603208	2.157000E+00	  0.021603208	-1.924600E+01
10	  0.021803608	-6.580000E-01	  0.021803608	-1.393620E+02	  0.021803608	2.152000E+00	  0.021803608	-1.848300E+01
11	  0.022004008	-6.640000E-01	  0.022004008	-1.409010E+02	  0.022004008	2.153000E+00	  0.022004008	-1.772400E+01
12	  0.022204408	-6.700000E-01	  0.022204408	-1.424630E+02	  0.022204408	2.151000E+00	  0.022204408	-1.696200E+01
13	  0.022404809	-6.770000E-01	  0.022404809	-1.440240E+02	  0.022404809	2.153000E+00	  0.022404809	-1.620600E+01
14	  0.022605211	-6.810000E-01	  0.022605211	-1.456180E+02	  0.022605211	2.148000E+00	  0.022605211	-1.544200E+01
15	  0.022805611	-6.810000E-01	  0.022805611	-1.472260E+02	  0.022805611	2.130000E+00	  0.022805611	-1.467800E+01
16	  0.023006011	-6.860000E-01	  0.023006011	-1.488200E+02	  0.023006011	2.129000E+00	  0.023006011	-1.392700E+01
17	  0.023206413	-6.890000E-01	  0.023206413	-1.504070E+02	  0.023206413	2.121000E+00	  0.023206413	-1.318400E+01
18	  0.023406813	-6.930000E-01	  0.023406813	-1.519770E+02	  0.023406813	2.117000E+00	  0.023406813	-1.245500E+01
19	  0.023607215	-7.010000E-01	  0.023607215	-1.535670E+02	  0.023607215	2.129000E+00	  0.023607215	-1.172100E+01
20	  0.023807615	-7.070000E-01	  0.023807615	-1.551700E+02	  0.023807615	2.133000E+00	  0.023807615	-1.098700E+01
21	  0.024008015	-7.170000E-01	  0.024008015	-1.567910E+02	  0.024008015	2.151000E+00	  0.024008015	-1.024900E+01
22	  0.024208417	-7.270000E-01	  0.024208417	-1.584300E+02	  0.024208417	2.167000E+00	  0.024208417	-9.507000E+00
23	  0.024408817	-7.360000E-01	  0.024408817	-1.600790E+02	  0.024408817	2.182000E+00	  0.024408817	-8.764000E+00
24	  0.024609219	-7.470000E-01	  0.024609219	-1.617230E+02	  0.024609219	2.205000E+00	  0.024609219	-8.027000E+00
25	  0.024809619	-7.550000E-01	  0.024809619	-1.633830E+02	  0.024809619	2.219000E+00	  0.024809619	-7.287000E+00
26	  0.025010020	-7.680000E-01	  0.025010020	-1.650320E+02	  0.025010020	2.247000E+00	  0.025010020	-6.555000E+00
27	  0.025210422	-7.800000E-01	  0.025210422	-1.666950E+02	  0.025210422	2.275000E+00	  0.025210422	-5.819000E+00
28	  0.025410822	-7.930000E-01	  0.025410822	-1.683790E+02	  0.025410822	2.304000E+00	  0.025410822	-5.077000E+00
29	  0.025611224	-8.080000E-01	  0.025611224	-1.700640E+02	  0.025611224	2.342000E+00	  0.025611224	-4.336000E+00
30	  0.025811624	-8.210000E-01	  0.025811624	-1.717910E+02	  0.025811624	2.374000E+00	  0.025811624	-3.579000E+00
31	  0.026012026	-8.330000E-01	  0.026012026	-1.735180E+02	  0.026012026	2.403000E+00	  0.026012026	-2.824000E+00
32	  0.026212426	-8.430000E-01	  0.026212426	-1.752340E+02	  0.026212426	2.429000E+00	  0.026212426	-2.075000E+00
33	  0.026412826	-8.570000E-01	  0.026412826	-1.769650E+02	  0.026412826	2.468000E+00	  0.026412826	-1.320000E+00
34	  0.026613226	-8.720000E-01	  0.026613226	-1.787050E+02	  0.026613226	2.510000E+00	  0.026613226	-5.630000E-01
35	  0.026813626	-8.880000E-01	  0.026813626	1.795350E+02	  0.026813626	2.556000E+00	  0.026813626	2.010000E-01
36	  0.027014028	-9.060000E-01	  0.027014028	1.777670E+02	  0.027014028	2.609000E+00	  0.027014028	9.710000E-01
37	  0.027214428	-9.230000E-01	  0.027214428	1.759800E+02	  0.027214428	2.659000E+00	  0.027214428	1.749000E+00
38	  0.027414829	-9.380000E-01	  0.027414829	1.741980E+02	  0.027414829	2.705000E+00	  0.027414829	2.526000E+00
39	  0.027615231	-9.570000E-01	  0.027615231	1.723990E+02	  0.027615231	2.764000E+00	  0.027615231	3.311000E+00
40	  0.027815631	-9.770000E-01	  0.027815631	1.705800E+02	  0.027815631	2.829000E+00	  0.027815631	4.106000E+00
41	  0.028016033	-9.990000E-01	  0.028016033	1.687570E+02	  0.028016033	2.900000E+00	  0.028016033	4.904000E+00
42	  0.028216433	-1.021000E+00	  0.028216433	1.669270E+02	  0.028216433	2.974000E+00	  0.028216433	5.709000E+00
43	  0.028416833	-1.042000E+00	  0.028416833	1.650950E+02	  0.028416833	3.049000E+00	  0.028416833	6.516000E+00
44	  0.028617235	-1.064000E+00	  0.028617235	1.632600E+02	  0.028617235	3.125000E+00	  0.028617235	7.328000E+00
45	  0.028817635	-1.084000E+00	  0.028817635	1.614280E+02	  0.028817635	3.199000E+00	  0.028817635	8.142000E+00
46	  0.029018037	-1.105000E+00	  0.029018037	1.596140E+02	  0.029018037	3.278000E+00	  0.029018037	8.952000E+00
47	  0.029218437	-1.126000E+00	  0.029218437	1.577950E+02	  0.029218437	3.363000E+00	  0.029218437	9.768000E+00
48	  0.029418837	-1.150000E+00	  0.029418837	1.559770E+02	  0.029418837	3.456000E+00	  0.029418837	1.058900E+01
49	  0.029619239	-1.177000E+00	  0.029619239	1.541460E+02	  0.029619239	3.560000E+00	  0.029619239	1.142000E+01
50	  0.029819639	-1.206000E+00	  0.029819639	1.522770E+02	  0.029819639	3.677000E+00	  0.029819639	1.227400E+01
51	  0.030020041	-1.237000E+00	  0.030020041	1.503850E+02	  0.030020041	3.803000E+00	  0.030020041	1.314500E+01
52	  0.030220442	-1.267000E+00	  0.030220442	1.484790E+02	  0.030220442	3.931000E+00	  0.030220442	1.403000E+01
53	  0.030420844	-1.297000E+00	  0.030420844	1.465570E+02	  0.030420844	4.062000E+00	  0.030420844	1.492900E+01
54	  0.030621244	-1.330000E+00	  0.030621244	1.446580E+02	  0.030621244	4.207000E+00	  0.030621244	1.582600E+01
55	  0.030821644	-1.361000E+00	  0.030821644	1.427420E+02	  0.030821644	4.353000E+00	  0.030821644	1.673900E+01
56	  0.031022044	-1.396000E+00	  0.031022044	1.408300E+02	  0.031022044	4.514000E+00	  0.031022044	1.766000E+01
57	  0.031222444	-1.427000E+00	  0.031222444	1.389260E+02	  0.031222444	4.669000E+00	  0.031222444	1.858700E+01
58	  0.031422846	-1.464000E+00	  0.031422846	1.369500E+02	  0.031422846	4.854000E+00	  0.031422846	1.955900E+01
59	  0.031623244	-1.502000E+00	  0.031623244	1.349500E+02	  0.031623244	5.049000E+00	  0.031623244	2.055500E+01
60	  0.031823646	-1.537000E+00	  0.031823646	1.329520E+02	  0.031823646	5.240000E+00	  0.031823646	2.156300E+01
61	  0.032024048	-1.572000E+00	  0.032024048	1.309550E+02	  0.032024048	5.445000E+00	  0.032024048	2.258500E+01
62	  0.032224450	-1.607000E+00	  0.032224450	1.289620E+02	  0.032224450	5.654000E+00	  0.032224450	2.361900E+01
63	  0.032424849	-1.643000E+00	  0.032424849	1.269580E+02	  0.032424849	5.879000E+00	  0.032424849	2.467400E+01
64	  0.032625251	-1.678000E+00	  0.032625251	1.249750E+02	  0.032625251	6.107000E+00	  0.032625251	2.573500E+01
65	  0.032825653	-1.716000E+00	  0.032825653	1.229830E+02	  0.032825653	6.360000E+00	  0.032825653	2.681600E+01
66	  0.033026051	-1.755000E+00	  0.033026051	1.209970E+02	  0.033026051	6.625000E+00	  0.033026051	2.791200E+01
67	  0.033226453	-1.800000E+00	  0.033226453	1.190090E+02	  0.033226453	6.928000E+00	  0.033226453	2.902500E+01
68	  0.033426855	-1.846000E+00	  0.033426855	1.170130E+02	  0.033426855	7.251000E+00	  0.033426855	3.016100E+01
69	  0.033627257	-1.899000E+00	  0.033627257	1.150040E+02	  0.033627257	7.619000E+00	  0.033627257	3.132100E+01
70	  0.033827655	-1.951000E+00	  0.033827655	1.129840E+02	  0.033827655	8.003000E+00	  0.033827655	3.251100E+01
71	  0.034028057	-2.003000E+00	  0.034028057	1.108950E+02	  0.034028057	8.410000E+00	  0.034028057	3.376500E+01
72	  0.034228459	-2.055000E+00	  0.034228459	1.087990E+02	  0.034228459	8.846000E+00	  0.034228459	3.505000E+01
73	  0.034428857	-2.104000E+00	  0.034428857	1.066510E+02	  0.034428857	9.295000E+00	  0.034428857	3.639900E+01
74	  0.034629259	-2.153000E+00	  0.034629259	1.045220E+02	  0.034629259	9.769000E+00	  0.034629259	3.776600E+01
75	  0.034829661	-2.200000E+00	  0.034829661	1.023950E+02	  0.034829661	1.026800E+01	  0.034829661	3.916300E+01
76	  0.035030060	-2.242000E+00	  0.035030060	1.002740E+02	  0.035030060	1.077200E+01	  0.035030060	4.059600E+01
77	  0.035230462	-2.285000E+00	  0.035230462	9.817800E+01	  0.035230462	1.130600E+01	  0.035230462	4.204600E+01
78	  0.035430863	-2.328000E+00	  0.035430863	9.606400E+01	  0.035430863	1.188200E+01	  0.035430863	4.354500E+01
79	  0.035631265	-2.372000E+00	  0.035631265	9.396800E+01	  0.035631265	1.249300E+01	  0.035631265	4.506900E+01
80	  0.035831664	-2.413000E+00	  0.035831664	9.190400E+01	  0.035831664	1.312700E+01	  0.035831664	4.661100E+01
81	  0.036032066	-2.460000E+00	  0.036032066	8.983100E+01	  0.036032066	1.383400E+01	  0.036032066	4.819500E+01
82	  0.036232468	-2.506000E+00	  0.036232468	8.776000E+01	  0.036232468	1.458500E+01	  0.036232468	4.982000E+01
83	  0.036432866	-2.553000E+00	  0.036432866	8.573400E+01	  0.036432866	1.538500E+01	  0.036432866	5.144900E+01
84	  0.036633268	-2.604000E+00	  0.036633268	8.369400E+01	  0.036633268	1.626900E+01	  0.036633268	5.312500E+01
85	  0.036833670	-2.659000E+00	  0.036833670	8.165400E+01	  0.036833670	1.723700E+01	  0.036833670	5.483900E+01
86	  0.037034072	-2.718000E+00	  0.037034072	7.959800E+01	  0.037034072	1.830400E+01	  0.037034072	5.660400E+01
87	  0.037234470	-2.776000E+00	  0.037234470	7.752500E+01	  0.037234470	1.945400E+01	  0.037234470	5.843000E+01
88	  0.037434869	-2.838000E+00	  0.037434869	7.542300E+01	  0.037434869	2.073000E+01	  0.037434869	6.032400E+01
89	  0.037635271	-2.894000E+00	  0.037635271	7.333100E+01	  0.037635271	2.206600E+01	  0.037635271	6.226900E+01
90	  0.037835669	-2.956000E+00	  0.037835669	7.117500E+01	  0.037835669	2.357900E+01	  0.037835669	6.431600E+01
91	  0.038036071	-3.018000E+00	  0.038036071	6.899500E+01	  0.038036071	2.523000E+01	  0.038036071	6.644100E+01
92	  0.038236473	-3.079000E+00	  0.038236473	6.685900E+01	  0.038236473	2.699300E+01	  0.038236473	6.856900E+01
93	  0.038436871	-3.134000E+00	  0.038436871	6.467200E+01	  0.038436871	2.889700E+01	  0.038436871	7.083300E+01
94	  0.038637273	-3.191000E+00	  0.038637273	6.255100E+01	  0.038637273	3.093500E+01	  0.038637273	7.306100E+01
95	  0.038837675	-3.236000E+00	  0.038837675	6.041600E+01	  0.038837675	3.306700E+01	  0.038837675	7.542000E+01
96	  0.039038073	-3.286000E+00	  0.039038073	5.831200E+01	  0.039038073	3.541000E+01	  0.039038073	7.775600E+01
97	  0.039238475	-3.330000E+00	  0.039238475	5.623600E+01	  0.039238475	3.787600E+01	  0.039238475	8.014600E+01
98	  0.039438877	-3.383000E+00	  0.039438877	5.418900E+01	  0.039438877	4.061400E+01	  0.039438877	8.246200E+01
99	  0.039639279	-3.438000E+00	  0.039639279	5.215400E+01	  0.039639279	4.360400E+01	  0.039639279	8.475700E+01
100	  0.039839678	-3.493000E+00	  0.039839678	5.009800E+01	  0.039839678	4.689400E+01	  0.039839678	8.707200E+01
101	  0.040040080	-3.555000E+00	  0.040040080	4.803800E+01	  0.040040080	5.054400E+01	  0.040040080	8.930400E+01
102	  0.040240481	-3.615000E+00	  0.040240481	4.597200E+01	  0.040240481	5.452100E+01	  0.040240481	9.149700E+01
103	  0.040440880	-3.678000E+00	  0.040440880	4.387300E+01	  0.040440880	5.892900E+01	  0.040440880	9.362400E+01
104	  0.040641282	-3.737000E+00	  0.040641282	4.178700E+01	  0.040641282	6.367700E+01	  0.040641282	9.563300E+01
105	  0.040841684	-3.797000E+00	  0.040841684	3.969200E+01	  0.040841684	6.887200E+01	  0.040841684	9.746400E+01
106	  0.041042086	-3.855000E+00	  0.041042086	3.762200E+01	  0.041042086	7.442700E+01	  0.041042086	9.906300E+01
107	  0.041242484	-3.912000E+00	  0.041242484	3.553700E+01	  0.041242484	8.047200E+01	  0.041242484	1.003990E+02
108	  0.041442886	-3.967000E+00	  0.041442886	3.346200E+01	  0.041442886	8.695200E+01	  0.041442886	1.013860E+02
109	  0.041643288	-4.020000E+00	  0.041643288	3.136800E+01	  0.041643288	9.395800E+01	  0.041643288	1.019760E+02
110	  0.041843686	-4.073000E+00	  0.041843686	2.929300E+01	  0.041843686	1.013770E+02	  0.041843686	1.019860E+02
111	  0.042044088	-4.125000E+00	  0.042044088	2.722400E+01	  0.042044088	1.092140E+02	  0.042044088	1.013400E+02
112	  0.042244490	-4.177000E+00	  0.042244490	2.517200E+01	  0.042244490	1.173710E+02	  0.042244490	9.991800E+01
113	  0.042444889	-4.226000E+00	  0.042444889	2.315800E+01	  0.042444889	1.256740E+02	  0.042444889	9.766800E+01
114	  0.042645290	-4.278000E+00	  0.042645290	2.112500E+01	  0.042645290	1.342250E+02	  0.042645290	9.433600E+01
115	  0.042845692	-4.326000E+00	  0.042845692	1.912700E+01	  0.042845692	1.426880E+02	  0.042845692	9.009800E+01
116	  0.043046094	-4.377000E+00	  0.043046094	1.710900E+01	  0.043046094	1.510680E+02	  0.043046094	8.456800E+01
117	  0.043246493	-4.425000E+00	  0.043246493	1.510900E+01	  0.043246493	1.590320E+02	  0.043246493	7.793900E+01
118	  0.043446895	-4.473000E+00	  0.043446895	1.311500E+01	  0.043446895	1.664200E+02	  0.043446895	7.018300E+01
119	  0.043647297	-4.521000E+00	  0.043647297	1.111500E+01	  0.043647297	1.730040E+02	  0.043647297	6.126700E+01
120	  0.043847695	-4.570000E+00	  0.043847695	9.137000E+00	  0.043847695	1.784100E+02	  0.043847695	5.143200E+01
121	  0.044048097	-4.618000E+00	  0.044048097	7.163000E+00	  0.044048097	1.826370E+02	  0.044048097	4.088200E+01
122	  0.044248499	-4.666000E+00	  0.044248499	5.195000E+00	  0.044248499	1.854480E+02	  0.044248499	2.980700E+01
123	  0.044448901	-4.712000E+00	  0.044448901	3.237000E+00	  0.044448901	1.868280E+02	  0.044448901	1.852300E+01
124	  0.044649299	-4.756000E+00	  0.044649299	1.273000E+00	  0.044649299	1.868330E+02	  0.044649299	7.213000E+00
125	  0.044849701	-4.800000E+00	  0.044849701	-6.470000E-01	  0.044849701	1.854270E+02	  0.044849701	-3.607000E+00
126	  0.045050103	-4.841000E+00	  0.045050103	-2.612000E+00	  0.045050103	1.828290E+02	  0.045050103	-1.420200E+01
127	  0.045250501	-4.875000E+00	  0.045250501	-4.545000E+00	  0.045250501	1.793170E+02	  0.045250501	-2.403300E+01
128	  0.045450903	-4.910000E+00	  0.045450903	-6.466000E+00	  0.045450903	1.748050E+02	  0.045450903	-3.303700E+01
129	  0.045651305	-4.950000E+00	  0.045651305	-8.381000E+00	  0.045651305	1.693520E+02	  0.045651305	-4.105500E+01
130	  0.045851704	-4.988000E+00	  0.045851704	-1.026200E+01	  0.045851704	1.634440E+02	  0.045851704	-4.801700E+01
131	  0.046052106	-5.028000E+00	  0.046052106	-1.216100E+01	  0.046052106	1.570680E+02	  0.046052106	-5.407900E+01
132	  0.046252504	-5.067000E+00	  0.046252504	-1.404100E+01	  0.046252504	1.505440E+02	  0.046252504	-5.919300E+01
133	  0.046452906	-5.104000E+00	  0.046452906	-1.591500E+01	  0.046452906	1.439690E+02	  0.046452906	-6.345400E+01
134	  0.046653304	-5.139000E+00	  0.046653304	-1.777300E+01	  0.046653304	1.374920E+02	  0.046653304	-6.695400E+01
135	  0.046853706	-5.172000E+00	  0.046853706	-1.964400E+01	  0.046853706	1.310820E+02	  0.046853706	-6.980400E+01
136	  0.047054108	-5.204000E+00	  0.047054108	-2.148300E+01	  0.047054108	1.249240E+02	  0.047054108	-7.197000E+01
137	  0.047254506	-5.234000E+00	  0.047254506	-2.333300E+01	  0.047254506	1.189430E+02	  0.047254506	-7.363000E+01
138	  0.047454908	-5.263000E+00	  0.047454908	-2.514100E+01	  0.047454908	1.133270E+02	  0.047454908	-7.479800E+01
139	  0.047655310	-5.291000E+00	  0.047655310	-2.696700E+01	  0.047655310	1.078890E+02	  0.047655310	-7.554700E+01
140	  0.047855709	-5.319000E+00	  0.047855709	-2.872800E+01	  0.047855709	1.028920E+02	  0.047855709	-7.591300E+01
141	  0.048056111	-5.347000E+00	  0.048056111	-3.048900E+01	  0.048056111	9.814100E+01	  0.048056111	-7.599500E+01
142	  0.048256513	-5.373000E+00	  0.048256513	-3.225400E+01	  0.048256513	9.362700E+01	  0.048256513	-7.583500E+01
143	  0.048456915	-5.402000E+00	  0.048456915	-3.399200E+01	  0.048456915	8.942300E+01	  0.048456915	-7.542100E+01
144	  0.048657313	-5.431000E+00	  0.048657313	-3.574800E+01	  0.048657313	8.541300E+01	  0.048657313	-7.482700E+01
145	  0.048857715	-5.455000E+00	  0.048857715	-3.749900E+01	  0.048857715	8.164000E+01	  0.048857715	-7.416100E+01
146	  0.049058117	-5.480000E+00	  0.049058117	-3.924700E+01	  0.049058117	7.809300E+01	  0.049058117	-7.333600E+01
147	  0.049258515	-5.501000E+00	  0.049258515	-4.096100E+01	  0.049258515	7.480500E+01	  0.049258515	-7.248300E+01
148	  0.049458917	-5.525000E+00	  0.049458917	-4.268200E+01	  0.049458917	7.170200E+01	  0.049458917	-7.149000E+01
149	  0.049659319	-5.550000E+00	  0.049659319	-4.432100E+01	  0.049659319	6.892200E+01	  0.049659319	-7.046000E+01
150	  0.049859721	-5.577000E+00	  0.049859721	-4.601600E+01	  0.049859721	6.621400E+01	  0.049859721	-6.933600E+01
151	  0.050060119	-5.596000E+00	  0.050060119	-4.769900E+01	  0.050060119	6.365700E+01	  0.050060119	-6.824900E+01
152	  0.050260521	-5.619000E+00	  0.050260521	-4.939400E+01	  0.050260521	6.124100E+01	  0.050260521	-6.708700E+01
153	  0.050460923	-5.636000E+00	  0.050460923	-5.109200E+01	  0.050460923	5.893600E+01	  0.050460923	-6.594900E+01
154	  0.050661322	-5.650000E+00	  0.050661322	-5.277100E+01	  0.050661322	5.677400E+01	  0.050661322	-6.482300E+01
155	  0.050861724	-5.663000E+00	  0.050861724	-5.444000E+01	  0.050861724	5.474100E+01	  0.050861724	-6.368700E+01
156	  0.051062126	-5.680000E+00	  0.051062126	-5.608100E+01	  0.051062126	5.286900E+01	  0.051062126	-6.252400E+01
157	  0.051262524	-5.693000E+00	  0.051262524	-5.768500E+01	  0.051262524	5.111900E+01	  0.051262524	-6.140900E+01
158	  0.051462926	-5.708000E+00	  0.051462926	-5.926000E+01	  0.051462926	4.949700E+01	  0.051462926	-6.029600E+01
159	  0.051663328	-5.721000E+00	  0.051663328	-6.082500E+01	  0.051663328	4.796300E+01	  0.051663328	-5.919900E+01
160	  0.051863730	-5.738000E+00	  0.051863730	-6.238000E+01	  0.051863730	4.653100E+01	  0.051863730	-5.808600E+01
161	  0.052064128	-5.752000E+00	  0.052064128	-6.393000E+01	  0.052064128	4.516200E+01	  0.052064128	-5.699900E+01
162	  0.052264530	-5.770000E+00	  0.052264530	-6.546600E+01	  0.052264530	4.389500E+01	  0.052264530	-5.589800E+01
163	  0.052464932	-5.785000E+00	  0.052464932	-6.700900E+01	  0.052464932	4.266800E+01	  0.052464932	-5.482100E+01
164	  0.052665330	-5.802000E+00	  0.052665330	-6.857700E+01	  0.052665330	4.148700E+01	  0.052665330	-5.372900E+01
165	  0.052865732	-5.822000E+00	  0.052865732	-7.011600E+01	  0.052865732	4.040200E+01	  0.052865732	-5.264600E+01
166	  0.053066134	-5.836000E+00	  0.053066134	-7.162800E+01	  0.053066134	3.936400E+01	  0.053066134	-5.162100E+01
167	  0.053266536	-5.849000E+00	  0.053266536	-7.316500E+01	  0.053266536	3.835100E+01	  0.053266536	-5.059600E+01
168	  0.053466935	-5.862000E+00	  0.053466935	-7.467900E+01	  0.053466935	3.740400E+01	  0.053466935	-4.959300E+01
169	  0.053667337	-5.870000E+00	  0.053667337	-7.617400E+01	  0.053667337	3.649000E+01	  0.053667337	-4.863300E+01
170	  0.053867739	-5.880000E+00	  0.053867739	-7.769600E+01	  0.053867739	3.560800E+01	  0.053867739	-4.766000E+01
171	  0.054068137	-5.884000E+00	  0.054068137	-7.918400E+01	  0.054068137	3.476200E+01	  0.054068137	-4.673800E+01
172	  0.054268539	-5.889000E+00	  0.054268539	-8.063900E+01	  0.054268539	3.397400E+01	  0.054268539	-4.584000E+01
173	  0.054468941	-5.897000E+00	  0.054468941	-8.207000E+01	  0.054468941	3.324300E+01	  0.054468941	-4.495600E+01
174	  0.054669339	-5.904000E+00	  0.054669339	-8.348900E+01	  0.054669339	3.254600E+01	  0.054669339	-4.408900E+01
175	  0.054869737	-5.912000E+00	  0.054869737	-8.490000E+01	  0.054869737	3.188200E+01	  0.054869737	-4.323500E+01
176	  0.055070139	-5.918000E+00	  0.055070139	-8.629900E+01	  0.055070139	3.124600E+01	  0.055070139	-4.240100E+01
177	  0.055270538	-5.924000E+00	  0.055270538	-8.763900E+01	  0.055270538	3.066000E+01	  0.055270538	-4.161000E+01
178	  0.055470940	-5.936000E+00	  0.055470940	-8.903500E+01	  0.055470940	3.009600E+01	  0.055470940	-4.077800E+01
179	  0.055671342	-5.940000E+00	  0.055671342	-9.042900E+01	  0.055671342	2.952500E+01	  0.055671342	-3.997800E+01
180	  0.055871744	-5.947000E+00	  0.055871744	-9.179500E+01	  0.055871744	2.900000E+01	  0.055871744	-3.919300E+01
181	  0.056072142	-5.953000E+00	  0.056072142	-9.315600E+01	  0.056072142	2.848900E+01	  0.056072142	-3.842400E+01
182	  0.056272544	-5.958000E+00	  0.056272544	-9.453100E+01	  0.056272544	2.799300E+01	  0.056272544	-3.765500E+01
183	  0.056472946	-5.966000E+00	  0.056472946	-9.592000E+01	  0.056472946	2.752100E+01	  0.056472946	-3.687900E+01
184	  0.056673344	-5.970000E+00	  0.056673344	-9.726700E+01	  0.056673344	2.706500E+01	  0.056673344	-3.614500E+01
185	  0.056873746	-5.972000E+00	  0.056873746	-9.860400E+01	  0.056873746	2.662400E+01	  0.056873746	-3.542700E+01
186	  0.057074148	-5.972000E+00	  0.057074148	-9.995800E+01	  0.057074148	2.618700E+01	  0.057074148	-3.470900E+01
187	  0.057274550	-5.972000E+00	  0.057274550	-1.013140E+02	  0.057274550	2.576600E+01	  0.057274550	-3.399800E+01
188	  0.057474948	-5.968000E+00	  0.057474948	-1.026290E+02	  0.057474948	2.535500E+01	  0.057474948	-3.332300E+01
189	  0.057675350	-5.966000E+00	  0.057675350	-1.039230E+02	  0.057675350	2.497300E+01	  0.057675350	-3.265900E+01
190	  0.057875752	-5.963000E+00	  0.057875752	-1.052400E+02	  0.057875752	2.459600E+01	  0.057875752	-3.199000E+01
191	  0.058076151	-5.963000E+00	  0.058076151	-1.065280E+02	  0.058076151	2.424900E+01	  0.058076151	-3.133700E+01
192	  0.058276553	-5.960000E+00	  0.058276553	-1.077750E+02	  0.058276553	2.391400E+01	  0.058276553	-3.071500E+01
193	  0.058476955	-5.960000E+00	  0.058476955	-1.090240E+02	  0.058476955	2.359800E+01	  0.058476955	-3.009100E+01
194	  0.058677353	-5.961000E+00	  0.058677353	-1.102760E+02	  0.058677353	2.329700E+01	  0.058677353	-2.946900E+01
195	  0.058877755	-5.960000E+00	  0.058877755	-1.115160E+02	  0.058877755	2.299900E+01	  0.058877755	-2.886300E+01
196	  0.059078157	-5.959000E+00	  0.059078157	-1.127710E+02	  0.059078157	2.271300E+01	  0.059078157	-2.825100E+01
197	  0.059278559	-5.961000E+00	  0.059278559	-1.140180E+02	  0.059278559	2.244300E+01	  0.059278559	-2.764600E+01
198	  0.059478957	-5.960000E+00	  0.059478957	-1.152510E+02	  0.059478957	2.217700E+01	  0.059478957	-2.705600E+01
199	  0.059679359	-5.964000E+00	  0.059679359	-1.165090E+02	  0.059679359	2.193100E+01	  0.059679359	-2.645100E+01
200	  0.059879761	-5.965000E+00	  0.059879761	-1.177430E+02	  0.059879761	2.168900E+01	  0.059879761	-2.586500E+01
201	  0.060080159	-5.963000E+00	  0.060080159	-1.189610E+02	  0.060080159	2.144700E+01	  0.060080159	-2.529700E+01
202	  0.060280561	-5.963000E+00	  0.060280561	-1.201850E+02	  0.060280561	2.122000E+01	  0.060280561	-2.472600E+01
203	  0.060480963	-5.963000E+00	  0.060480963	-1.213990E+02	  0.060480963	2.100200E+01	  0.060480963	-2.416400E+01
204	  0.060681365	-5.963000E+00	  0.060681365	-1.226240E+02	  0.060681365	2.078800E+01	  0.060681365	-2.360100E+01
205	  0.060881764	-5.959000E+00	  0.060881764	-1.238300E+02	  0.060881764	2.057100E+01	  0.060881764	-2.305600E+01
206	  0.061082166	-5.960000E+00	  0.061082166	-1.250400E+02	  0.061082166	2.037800E+01	  0.061082166	-2.250500E+01
207	  0.061282568	-5.957000E+00	  0.061282568	-1.262300E+02	  0.061282568	2.018300E+01	  0.061282568	-2.197100E+01
208	  0.061482966	-5.954000E+00	  0.061482966	-1.274000E+02	  0.061482966	1.999500E+01	  0.061482966	-2.145000E+01
209	  0.061683368	-5.952000E+00	  0.061683368	-1.285680E+02	  0.061683368	1.981700E+01	  0.061683368	-2.093100E+01
210	  0.061883770	-5.954000E+00	  0.061883770	-1.297240E+02	  0.061883770	1.965700E+01	  0.061883770	-2.041800E+01
211	  0.062084168	-5.951000E+00	  0.062084168	-1.308700E+02	  0.062084168	1.949000E+01	  0.062084168	-1.991600E+01
212	  0.062284570	-5.953000E+00	  0.062284570	-1.320000E+02	  0.062284570	1.934600E+01	  0.062284570	-1.941900E+01
213	  0.062484972	-5.946000E+00	  0.062484972	-1.330940E+02	  0.062484972	1.918600E+01	  0.062484972	-1.894800E+01
214	  0.062685370	-5.950000E+00	  0.062685370	-1.342540E+02	  0.062685370	1.905200E+01	  0.062685370	-1.844200E+01
215	  0.062885776	-5.954000E+00	  0.062885776	-1.353640E+02	  0.062885776	1.893000E+01	  0.062885776	-1.796000E+01
216	  0.063086174	-5.954000E+00	  0.063086174	-1.364900E+02	  0.063086174	1.879800E+01	  0.063086174	-1.747700E+01
217	  0.063286573	-5.959000E+00	  0.063286573	-1.376390E+02	  0.063286573	1.868400E+01	  0.063286573	-1.698300E+01
218	  0.063486971	-5.957000E+00	  0.063486971	-1.387770E+02	  0.063486971	1.855200E+01	  0.063486971	-1.650100E+01
219	  0.063687377	-5.961000E+00	  0.063687377	-1.398810E+02	  0.063687377	1.844900E+01	  0.063687377	-1.603100E+01
220	  0.063887775	-5.960000E+00	  0.063887775	-1.409840E+02	  0.063887775	1.833300E+01	  0.063887775	-1.556800E+01
221	  0.064088173	-5.960000E+00	  0.064088173	-1.421010E+02	  0.064088173	1.822300E+01	  0.064088173	-1.510000E+01
222	  0.064288579	-5.958000E+00	  0.064288579	-1.432040E+02	  0.064288579	1.811500E+01	  0.064288579	-1.464100E+01
223	  0.064488977	-5.960000E+00	  0.064488977	-1.442940E+02	  0.064488977	1.802200E+01	  0.064488977	-1.418700E+01
224	  0.064689375	-5.958000E+00	  0.064689375	-1.453630E+02	  0.064689375	1.792200E+01	  0.064689375	-1.374500E+01
225	  0.064889781	-5.961000E+00	  0.064889781	-1.464050E+02	  0.064889781	1.784200E+01	  0.064889781	-1.331400E+01
226	  0.065090179	-5.955000E+00	  0.065090179	-1.474520E+02	  0.065090179	1.774000E+01	  0.065090179	-1.288700E+01
227	  0.065290578	-5.955000E+00	  0.065290578	-1.484730E+02	  0.065290578	1.766100E+01	  0.065290578	-1.246800E+01
228	  0.065490983	-5.954000E+00	  0.065490983	-1.495000E+02	  0.065490983	1.757900E+01	  0.065490983	-1.205000E+01
229	  0.065691382	-5.950000E+00	  0.065691382	-1.505230E+02	  0.065691382	1.749500E+01	  0.065691382	-1.163500E+01
230	  0.065891780	-5.949000E+00	  0.065891780	-1.515410E+02	  0.065891780	1.742300E+01	  0.065891780	-1.122200E+01
231	  0.066092186	-5.947000E+00	  0.066092186	-1.525590E+02	  0.066092186	1.734900E+01	  0.066092186	-1.081100E+01
232	  0.066292584	-5.942000E+00	  0.066292584	-1.535640E+02	  0.066292584	1.727000E+01	  0.066292584	-1.040700E+01
233	  0.066492982	-5.940000E+00	  0.066492982	-1.545870E+02	  0.066492982	1.720200E+01	  0.066492982	-9.996000E+00
234	  0.066693388	-5.937000E+00	  0.066693388	-1.555880E+02	  0.066693388	1.713700E+01	  0.066693388	-9.595000E+00
235	  0.066893786	-5.929000E+00	  0.066893786	-1.565680E+02	  0.066893786	1.706100E+01	  0.066893786	-9.205000E+00
236	  0.067094192	-5.922000E+00	  0.067094192	-1.575940E+02	  0.067094192	1.698600E+01	  0.067094192	-8.798000E+00
237	  0.067294590	-5.918000E+00	  0.067294590	-1.585930E+02	  0.067294590	1.692600E+01	  0.067294590	-8.400000E+00
238	  0.067494988	-5.911000E+00	  0.067494988	-1.596070E+02	  0.067494988	1.685700E+01	  0.067494988	-7.999000E+00
239	  0.067695394	-5.907000E+00	  0.067695394	-1.606270E+02	  0.067695394	1.680200E+01	  0.067695394	-7.594000E+00
240	  0.067895792	-5.902000E+00	  0.067895792	-1.616230E+02	  0.067895792	1.674400E+01	  0.067895792	-7.201000E+00
241	  0.068096191	-5.895000E+00	  0.068096191	-1.626440E+02	  0.068096191	1.668400E+01	  0.068096191	-6.798000E+00
242	  0.068296596	-5.893000E+00	  0.068296596	-1.636810E+02	  0.068296596	1.663900E+01	  0.068296596	-6.389000E+00
243	  0.068496995	-5.886000E+00	  0.068496995	-1.646440E+02	  0.068496995	1.658600E+01	  0.068496995	-6.010000E+00
244	  0.068697393	-5.880000E+00	  0.068697393	-1.656590E+02	  0.068697393	1.653800E+01	  0.068697393	-5.611000E+00
245	  0.068897791	-5.877000E+00	  0.068897791	-1.666620E+02	  0.068897791	1.649900E+01	  0.068897791	-5.217000E+00
246	  0.069098189	-5.872000E+00	  0.069098189	-1.676630E+02	  0.069098189	1.645600E+01	  0.069098189	-4.824000E+00
247	  0.069298595	-5.865000E+00	  0.069298595	-1.686810E+02	  0.069298595	1.641200E+01	  0.069298595	-4.425000E+00
248	  0.069498993	-5.859000E+00	  0.069498993	-1.696480E+02	  0.069498993	1.637100E+01	  0.069498993	-4.046000E+00
249	  0.069699399	-5.859000E+00	  0.069699399	-1.706580E+02	  0.069699399	1.634900E+01	  0.069699399	-3.650000E+00
250	  0.069899797	-5.861000E+00	  0.069899797	-1.716700E+02	  0.069899797	1.633500E+01	  0.069899797	-3.254000E+00
251	  0.070100196	-5.855000E+00	  0.070100196	-1.726430E+02	  0.070100196	1.630200E+01	  0.070100196	-2.873000E+00
252	  0.070300601	-5.851000E+00	  0.070300601	-1.736330E+02	  0.070300601	1.627700E+01	  0.070300601	-2.487000E+00
253	  0.070501000	-5.850000E+00	  0.070501000	-1.746170E+02	  0.070501000	1.626000E+01	  0.070501000	-2.102000E+00
254	  0.070701398	-5.846000E+00	  0.070701398	-1.756220E+02	  0.070701398	1.623900E+01	  0.070701398	-1.709000E+00
255	  0.070901804	-5.847000E+00	  0.070901804	-1.765810E+02	  0.070901804	1.623400E+01	  0.070901804	-1.334000E+00
256	  0.071102202	-5.845000E+00	  0.071102202	-1.775770E+02	  0.071102202	1.622400E+01	  0.071102202	-9.450000E-01
257	  0.071302600	-5.847000E+00	  0.071302600	-1.785610E+02	  0.071302600	1.622400E+01	  0.071302600	-5.610000E-01
258	  0.071503006	-5.846000E+00	  0.071503006	-1.795270E+02	  0.071503006	1.622100E+01	  0.071503006	-1.840000E-01
259	  0.071703404	-5.847000E+00	  0.071703404	1.795100E+02	  0.071703404	1.622200E+01	  0.071703404	1.910000E-01
260	  0.071903802	-5.847000E+00	  0.071903802	1.785580E+02	  0.071903802	1.622500E+01	  0.071903802	5.620000E-01
261	  0.072104208	-5.848000E+00	  0.072104208	1.775990E+02	  0.072104208	1.623100E+01	  0.072104208	9.370000E-01
262	  0.072304606	-5.849000E+00	  0.072304606	1.766420E+02	  0.072304606	1.623900E+01	  0.072304606	1.310000E+00
263	  0.072505005	-5.850000E+00	  0.072505005	1.756930E+02	  0.072505005	1.625100E+01	  0.072505005	1.681000E+00
264	  0.072705410	-5.854000E+00	  0.072705410	1.747470E+02	  0.072705410	1.627000E+01	  0.072705410	2.050000E+00
265	  0.072905809	-5.857000E+00	  0.072905809	1.738050E+02	  0.072905809	1.629100E+01	  0.072905809	2.418000E+00
266	  0.073106214	-5.859000E+00	  0.073106214	1.728450E+02	  0.073106214	1.630900E+01	  0.073106214	2.794000E+00
267	  0.073306613	-5.863000E+00	  0.073306613	1.719260E+02	  0.073306613	1.633600E+01	  0.073306613	3.153000E+00
268	  0.073507011	-5.870000E+00	  0.073507011	1.709670E+02	  0.073507011	1.637100E+01	  0.073507011	3.528000E+00
269	  0.073707417	-5.874000E+00	  0.073707417	1.700140E+02	  0.073707417	1.640100E+01	  0.073707417	3.901000E+00
270	  0.073907815	-5.874000E+00	  0.073907815	1.690990E+02	  0.073907815	1.642400E+01	  0.073907815	4.260000E+00
271	  0.074108213	-5.882000E+00	  0.074108213	1.682000E+02	  0.074108213	1.646800E+01	  0.074108213	4.611000E+00
272	  0.074308619	-5.885000E+00	  0.074308619	1.672790E+02	  0.074308619	1.650000E+01	  0.074308619	4.972000E+00
273	  0.074509017	-5.889000E+00	  0.074509017	1.663350E+02	  0.074509017	1.653800E+01	  0.074509017	5.343000E+00
274	  0.074709415	-5.895000E+00	  0.074709415	1.654260E+02	  0.074709415	1.658400E+01	  0.074709415	5.700000E+00
275	  0.074909821	-5.901000E+00	  0.074909821	1.645110E+02	  0.074909821	1.662900E+01	  0.074909821	6.059000E+00
276	  0.075110219	-5.908000E+00	  0.075110219	1.636100E+02	  0.075110219	1.668200E+01	  0.075110219	6.413000E+00
277	  0.075310618	-5.914000E+00	  0.075310618	1.627070E+02	  0.075310618	1.673300E+01	  0.075310618	6.768000E+00
278	  0.075511023	-5.922000E+00	  0.075511023	1.618230E+02	  0.075511023	1.678900E+01	  0.075511023	7.116000E+00
279	  0.075711422	-5.926000E+00	  0.075711422	1.609180E+02	  0.075711422	1.683900E+01	  0.075711422	7.473000E+00
280	  0.075911827	-5.936000E+00	  0.075911827	1.600370E+02	  0.075911827	1.690200E+01	  0.075911827	7.820000E+00
281	  0.076112226	-5.943000E+00	  0.076112226	1.591180E+02	  0.076112226	1.696500E+01	  0.076112226	8.183000E+00
282	  0.076312624	-5.949000E+00	  0.076312624	1.581840E+02	  0.076312624	1.702700E+01	  0.076312624	8.553000E+00
283	  0.076513030	-5.960000E+00	  0.076513030	1.573090E+02	  0.076513030	1.710200E+01	  0.076513030	8.899000E+00
284	  0.076713428	-5.967000E+00	  0.076713428	1.564080E+02	  0.076713428	1.717100E+01	  0.076713428	9.256000E+00
285	  0.076913826	-5.973000E+00	  0.076913826	1.555210E+02	  0.076913826	1.723400E+01	  0.076913826	9.609000E+00
286	  0.077114232	-5.982000E+00	  0.077114232	1.546110E+02	  0.077114232	1.731200E+01	  0.077114232	9.970000E+00
287	  0.077314630	-5.985000E+00	  0.077314630	1.537300E+02	  0.077314630	1.737400E+01	  0.077314630	1.032300E+01
288	  0.077515028	-5.991000E+00	  0.077515028	1.528950E+02	  0.077515028	1.744400E+01	  0.077515028	1.065600E+01
289	  0.077715434	-6.000000E+00	  0.077715434	1.519960E+02	  0.077715434	1.752700E+01	  0.077715434	1.101500E+01
290	  0.077915832	-6.009000E+00	  0.077915832	1.511020E+02	  0.077915832	1.761200E+01	  0.077915832	1.137300E+01
291	  0.078116231	-6.020000E+00	  0.078116231	1.502560E+02	  0.078116231	1.770200E+01	  0.078116231	1.171000E+01
292	  0.078316636	-6.033000E+00	  0.078316636	1.493970E+02	  0.078316636	1.779900E+01	  0.078316636	1.205300E+01
293	  0.078517035	-6.041000E+00	  0.078517035	1.485200E+02	  0.078517035	1.788800E+01	  0.078517035	1.240500E+01
294	  0.078717433	-6.056000E+00	  0.078717433	1.476520E+02	  0.078717433	1.799700E+01	  0.078717433	1.275100E+01
295	  0.078917839	-6.069000E+00	  0.078917839	1.467940E+02	  0.078917839	1.810300E+01	  0.078917839	1.309500E+01
296	  0.079118237	-6.086000E+00	  0.079118237	1.459360E+02	  0.079118237	1.822200E+01	  0.079118237	1.343700E+01
297	  0.079318643	-6.096000E+00	  0.079318643	1.451010E+02	  0.079318643	1.832100E+01	  0.079318643	1.377400E+01
298	  0.079519041	-6.108000E+00	  0.079519041	1.442620E+02	  0.079519041	1.842700E+01	  0.079519041	1.411200E+01
299	  0.079719439	-6.124000E+00	  0.079719439	1.434020E+02	  0.079719439	1.855100E+01	  0.079719439	1.445700E+01
300	  0.079919845	-6.138000E+00	  0.079919845	1.425500E+02	  0.079919845	1.866900E+01	  0.079919845	1.480000E+01
301	  0.080120243	-6.155000E+00	  0.080120243	1.416960E+02	  0.080120243	1.879900E+01	  0.080120243	1.514300E+01
302	  0.080320641	-6.168000E+00	  0.080320641	1.408550E+02	  0.080320641	1.891900E+01	  0.080320641	1.548400E+01
303	  0.080521047	-6.183000E+00	  0.080521047	1.399920E+02	  0.080521047	1.905200E+01	  0.080521047	1.583200E+01
304	  0.080721445	-6.203000E+00	  0.080721445	1.391740E+02	  0.080721445	1.919200E+01	  0.080721445	1.616000E+01
305	  0.080921844	-6.217000E+00	  0.080921844	1.383270E+02	  0.080921844	1.932500E+01	  0.080921844	1.650400E+01
306	  0.081122249	-6.238000E+00	  0.081122249	1.374910E+02	  0.081122249	1.947800E+01	  0.081122249	1.683800E+01
307	  0.081322648	-6.254000E+00	  0.081322648	1.366810E+02	  0.081322648	1.961500E+01	  0.081322648	1.716600E+01
308	  0.081523046	-6.271000E+00	  0.081523046	1.358640E+02	  0.081523046	1.976000E+01	  0.081523046	1.749700E+01
309	  0.081723452	-6.289000E+00	  0.081723452	1.350200E+02	  0.081723452	1.991300E+01	  0.081723452	1.783900E+01
310	  0.081923850	-6.310000E+00	  0.081923850	1.342260E+02	  0.081923850	2.007200E+01	  0.081923850	1.815700E+01
311	  0.082124248	-6.329000E+00	  0.082124248	1.334270E+02	  0.082124248	2.022700E+01	  0.082124248	1.848000E+01
312	  0.082324654	-6.352000E+00	  0.082324654	1.326270E+02	  0.082324654	2.039900E+01	  0.082324654	1.880000E+01
313	  0.082525052	-6.373000E+00	  0.082525052	1.318530E+02	  0.082525052	2.056200E+01	  0.082525052	1.911100E+01
314	  0.082725458	-6.398000E+00	  0.082725458	1.310820E+02	  0.082725458	2.074000E+01	  0.082725458	1.941700E+01
315	  0.082925856	-6.422000E+00	  0.082925856	1.302890E+02	  0.082925856	2.091900E+01	  0.082925856	1.973300E+01
316	  0.083126254	-6.449000E+00	  0.083126254	1.294840E+02	  0.083126254	2.111300E+01	  0.083126254	2.005200E+01
317	  0.083326660	-6.471000E+00	  0.083326660	1.286870E+02	  0.083326660	2.129600E+01	  0.083326660	2.037200E+01
318	  0.083527058	-6.494000E+00	  0.083527058	1.278860E+02	  0.083527058	2.148200E+01	  0.083527058	2.069400E+01
319	  0.083727457	-6.519000E+00	  0.083727457	1.271030E+02	  0.083727457	2.167600E+01	  0.083727457	2.100500E+01
320	  0.083927862	-6.543000E+00	  0.083927862	1.263360E+02	  0.083927862	2.187000E+01	  0.083927862	2.131100E+01
321	  0.084128261	-6.565000E+00	  0.084128261	1.255640E+02	  0.084128261	2.205800E+01	  0.084128261	2.162100E+01
322	  0.084328659	-6.592000E+00	  0.084328659	1.248120E+02	  0.084328659	2.226100E+01	  0.084328659	2.191700E+01
323	  0.084529065	-6.617000E+00	  0.084529065	1.241030E+02	  0.084529065	2.245500E+01	  0.084529065	2.219600E+01
324	  0.084729463	-6.644000E+00	  0.084729463	1.233630E+02	  0.084729463	2.266400E+01	  0.084729463	2.248700E+01
325	  0.084929861	-6.668000E+00	  0.084929861	1.225950E+02	  0.084929861	2.287200E+01	  0.084929861	2.279100E+01
326	  0.085130267	-6.695000E+00	  0.085130267	1.218790E+02	  0.085130267	2.307900E+01	  0.085130267	2.307200E+01
327	  0.085330658	-6.725000E+00	  0.085330658	1.211510E+02	  0.085330658	2.330300E+01	  0.085330658	2.335200E+01
328	  0.085531056	-6.749000E+00	  0.085531056	1.204470E+02	  0.085531056	2.350900E+01	  0.085531056	2.362900E+01
329	  0.085731462	-6.782000E+00	  0.085731462	1.197160E+02	  0.085731462	2.374500E+01	  0.085731462	2.390700E+01
330	  0.085931860	-6.811000E+00	  0.085931860	1.190390E+02	  0.085931860	2.396500E+01	  0.085931860	2.416500E+01
331	  0.086132258	-6.841000E+00	  0.086132258	1.183750E+02	  0.086132258	2.418900E+01	  0.086132258	2.441500E+01
332	  0.086332664	-6.867000E+00	  0.086332664	1.177310E+02	  0.086332664	2.439800E+01	  0.086332664	2.466200E+01
333	  0.086533062	-6.903000E+00	  0.086533062	1.170400E+02	  0.086533062	2.464900E+01	  0.086533062	2.491400E+01
334	  0.086733460	-6.928000E+00	  0.086733460	1.163600E+02	  0.086733460	2.486900E+01	  0.086733460	2.517600E+01
335	  0.086933866	-6.955000E+00	  0.086933866	1.156810E+02	  0.086933866	2.509600E+01	  0.086933866	2.543600E+01
336	  0.087134264	-6.983000E+00	  0.087134264	1.150470E+02	  0.087134264	2.532000E+01	  0.087134264	2.567300E+01
337	  0.087334670	-7.007000E+00	  0.087334670	1.143840E+02	  0.087334670	2.554100E+01	  0.087334670	2.592800E+01
338	  0.087535068	-7.031000E+00	  0.087535068	1.137370E+02	  0.087535068	2.576100E+01	  0.087535068	2.617700E+01
339	  0.087735467	-7.051000E+00	  0.087735467	1.131000E+02	  0.087735467	2.597100E+01	  0.087735467	2.642500E+01
340	  0.087935872	-7.072000E+00	  0.087935872	1.124780E+02	  0.087935872	2.618300E+01	  0.087935872	2.666500E+01
341	  0.088136271	-7.092000E+00	  0.088136271	1.118210E+02	  0.088136271	2.640200E+01	  0.088136271	2.692300E+01
342	  0.088336669	-7.106000E+00	  0.088336669	1.111870E+02	  0.088336669	2.660200E+01	  0.088336669	2.717900E+01
343	  0.088537075	-7.120000E+00	  0.088537075	1.105330E+02	  0.088537075	2.680800E+01	  0.088537075	2.744600E+01
344	  0.088737473	-7.137000E+00	  0.088737473	1.098820E+02	  0.088737473	2.702600E+01	  0.088737473	2.770500E+01
345	  0.088937871	-7.149000E+00	  0.088937871	1.092120E+02	  0.088937871	2.723900E+01	  0.088937871	2.798100E+01
346	  0.089138277	-7.166000E+00	  0.089138277	1.085480E+02	  0.089138277	2.746600E+01	  0.089138277	2.824500E+01
347	  0.089338675	-7.184000E+00	  0.089338675	1.079140E+02	  0.089338675	2.769100E+01	  0.089338675	2.849500E+01
348	  0.089539073	-7.206000E+00	  0.089539073	1.072420E+02	  0.089539073	2.794300E+01	  0.089539073	2.875300E+01
349	  0.089739479	-7.233000E+00	  0.089739479	1.065470E+02	  0.089739479	2.821900E+01	  0.089739479	2.901100E+01
350	  0.089939877	-7.251000E+00	  0.089939877	1.058980E+02	  0.089939877	2.846100E+01	  0.089939877	2.926400E+01
351	  0.090140276	-7.274000E+00	  0.090140276	1.051920E+02	  0.090140276	2.873500E+01	  0.090140276	2.953300E+01
352	  0.090340681	-7.302000E+00	  0.090340681	1.045170E+02	  0.090340681	2.901900E+01	  0.090340681	2.977900E+01
353	  0.090541080	-7.327000E+00	  0.090541080	1.038560E+02	  0.090541080	2.929300E+01	  0.090541080	3.002200E+01
354	  0.090741485	-7.356000E+00	  0.090741485	1.031810E+02	  0.090741485	2.958500E+01	  0.090741485	3.026300E+01
355	  0.090941884	-7.381000E+00	  0.090941884	1.024700E+02	  0.090941884	2.988400E+01	  0.090941884	3.052500E+01
356	  0.091142282	-7.409000E+00	  0.091142282	1.018370E+02	  0.091142282	3.016900E+01	  0.091142282	3.074600E+01
357	  0.091342688	-7.438000E+00	  0.091342688	1.011550E+02	  0.091342688	3.047500E+01	  0.091342688	3.098700E+01
358	  0.091543086	-7.467000E+00	  0.091543086	1.005440E+02	  0.091543086	3.076300E+01	  0.091543086	3.119200E+01
359	  0.091743484	-7.496000E+00	  0.091743484	9.990400E+01	  0.091743484	3.106400E+01	  0.091743484	3.141000E+01
360	  0.091943890	-7.522000E+00	  0.091943890	9.926700E+01	  0.091943890	3.135800E+01	  0.091943890	3.163100E+01
361	  0.092144288	-7.553000E+00	  0.092144288	9.862900E+01	  0.092144288	3.167200E+01	  0.092144288	3.183800E+01
362	  0.092344686	-7.585000E+00	  0.092344686	9.799800E+01	  0.092344686	3.198600E+01	  0.092344686	3.204000E+01
363	  0.092545092	-7.615000E+00	  0.092545092	9.741300E+01	  0.092545092	3.228500E+01	  0.092545092	3.222300E+01
364	  0.092745490	-7.653000E+00	  0.092745490	9.681500E+01	  0.092745490	3.261300E+01	  0.092745490	3.239100E+01
365	  0.092945889	-7.685000E+00	  0.092945889	9.624600E+01	  0.092945889	3.291300E+01	  0.092945889	3.256100E+01
366	  0.093146294	-7.724000E+00	  0.093146294	9.567800E+01	  0.093146294	3.324100E+01	  0.093146294	3.270700E+01
367	  0.093346693	-7.762000E+00	  0.093346693	9.510200E+01	  0.093346693	3.356700E+01	  0.093346693	3.285900E+01
368	  0.093547091	-7.798000E+00	  0.093547091	9.450500E+01	  0.093547091	3.389900E+01	  0.093547091	3.302300E+01
369	  0.093747497	-7.828000E+00	  0.093747497	9.395200E+01	  0.093747497	3.420100E+01	  0.093747497	3.318100E+01
370	  0.093947895	-7.868000E+00	  0.093947895	9.333300E+01	  0.093947895	3.456100E+01	  0.093947895	3.333600E+01
371	  0.094148301	-7.902000E+00	  0.094148301	9.276000E+01	  0.094148301	3.488700E+01	  0.094148301	3.348700E+01
372	  0.094348699	-7.942000E+00	  0.094348699	9.220200E+01	  0.094348699	3.522600E+01	  0.094348699	3.361200E+01
373	  0.094549097	-7.976000E+00	  0.094549097	9.166000E+01	  0.094549097	3.554500E+01	  0.094549097	3.374400E+01
374	  0.094749503	-8.013000E+00	  0.094749503	9.111000E+01	  0.094749503	3.587700E+01	  0.094749503	3.386900E+01
375	  0.094949901	-8.047000E+00	  0.094949901	9.056200E+01	  0.094949901	3.620400E+01	  0.094949901	3.399800E+01
376	  0.095150299	-8.078000E+00	  0.095150299	9.002800E+01	  0.095150299	3.651800E+01	  0.095150299	3.412700E+01
377	  0.095350705	-8.111000E+00	  0.095350705	8.949400E+01	  0.095350705	3.684100E+01	  0.095350705	3.424700E+01
378	  0.095551103	-8.144000E+00	  0.095551103	8.898700E+01	  0.095551103	3.715300E+01	  0.095551103	3.435500E+01
379	  0.095751502	-8.179000E+00	  0.095751502	8.846000E+01	  0.095751502	3.748100E+01	  0.095751502	3.446400E+01
380	  0.095951907	-8.212000E+00	  0.095951907	8.799100E+01	  0.095951907	3.778100E+01	  0.095951907	3.454900E+01
381	  0.096152306	-8.245000E+00	  0.096152306	8.751300E+01	  0.096152306	3.808600E+01	  0.096152306	3.463900E+01
382	  0.096352704	-8.281000E+00	  0.096352704	8.701000E+01	  0.096352704	3.841100E+01	  0.096352704	3.472600E+01
383	  0.096553110	-8.314000E+00	  0.096553110	8.655600E+01	  0.096553110	3.870900E+01	  0.096553110	3.479900E+01
384	  0.096753508	-8.347000E+00	  0.096753508	8.609900E+01	  0.096753508	3.900600E+01	  0.096753508	3.487500E+01
385	  0.096953906	-8.380000E+00	  0.096953906	8.562400E+01	  0.096953906	3.931600E+01	  0.096953906	3.495100E+01
386	  0.097154312	-8.413000E+00	  0.097154312	8.515600E+01	  0.097154312	3.962600E+01	  0.097154312	3.502100E+01
387	  0.097354710	-8.442000E+00	  0.097354710	8.469100E+01	  0.097354710	3.992300E+01	  0.097354710	3.510300E+01
388	  0.097555116	-8.479000E+00	  0.097555116	8.421500E+01	  0.097555116	4.024700E+01	  0.097555116	3.516100E+01
389	  0.097755514	-8.503000E+00	  0.097755514	8.378200E+01	  0.097755514	4.052100E+01	  0.097755514	3.524000E+01
390	  0.097955912	-8.542000E+00	  0.097955912	8.335600E+01	  0.097955912	4.082900E+01	  0.097955912	3.526600E+01
391	  0.098156318	-8.566000E+00	  0.098156318	8.291300E+01	  0.098156318	4.110700E+01	  0.098156318	3.534900E+01
392	  0.098356716	-8.593000E+00	  0.098356716	8.249900E+01	  0.098356716	4.138300E+01	  0.098356716	3.540500E+01
393	  0.098557115	-8.618000E+00	  0.098557115	8.211200E+01	  0.098557115	4.164100E+01	  0.098557115	3.545700E+01
394	  0.098757520	-8.646000E+00	  0.098757520	8.168000E+01	  0.098757520	4.192900E+01	  0.098757520	3.551300E+01
395	  0.098957919	-8.672000E+00	  0.098957919	8.127900E+01	  0.098957919	4.219700E+01	  0.098957919	3.556500E+01
396	  0.099158317	-8.696000E+00	  0.099158317	8.088500E+01	  0.099158317	4.245900E+01	  0.099158317	3.561700E+01
397	  0.099358723	-8.720000E+00	  0.099358723	8.047300E+01	  0.099358723	4.273100E+01	  0.099358723	3.567400E+01
398	  0.099559121	-8.744000E+00	  0.099559121	8.010800E+01	  0.099559121	4.298100E+01	  0.099559121	3.571000E+01
399	  0.099759519	-8.772000E+00	  0.099759519	7.975400E+01	  0.099759519	4.323200E+01	  0.099759519	3.573200E+01
400	  0.099959925	-8.799000E+00	  0.099959925	7.943500E+01	  0.099959925	4.346500E+01	  0.099959925	3.573900E+01
401	  0.100160323	-8.812000E+00	  0.100160323	7.903200E+01	  0.100160323	4.371200E+01	  0.100160323	3.582600E+01
402	  0.100360721	-8.834000E+00	  0.100360721	7.867600E+01	  0.100360721	4.395400E+01	  0.100360721	3.586200E+01
403	  0.100561127	-8.854000E+00	  0.100561127	7.829700E+01	  0.100561127	4.420600E+01	  0.100561127	3.591100E+01
404	  0.100761525	-8.878000E+00	  0.100761525	7.790500E+01	  0.100761525	4.447400E+01	  0.100761525	3.594900E+01
405	  0.100961931	-8.893000E+00	  0.100961931	7.750500E+01	  0.100961931	4.473000E+01	  0.100961931	3.601900E+01
406	  0.101162329	-8.913000E+00	  0.101162329	7.720100E+01	  0.101162329	4.494300E+01	  0.101162329	3.603800E+01
407	  0.101362728	-8.929000E+00	  0.101362728	7.681500E+01	  0.101362728	4.519400E+01	  0.101362728	3.609900E+01
408	  0.101563133	-8.944000E+00	  0.101563133	7.650200E+01	  0.101563133	4.540300E+01	  0.101563133	3.613700E+01
409	  0.101763532	-8.961000E+00	  0.101763532	7.614200E+01	  0.101763532	4.564300E+01	  0.101763532	3.618300E+01
410	  0.101963930	-8.969000E+00	  0.101963930	7.575500E+01	  0.101963930	4.588300E+01	  0.101963930	3.627000E+01
411	  0.102164336	-8.984000E+00	  0.102164336	7.541200E+01	  0.102164336	4.611200E+01	  0.102164336	3.631200E+01
412	  0.102364734	-9.002000E+00	  0.102364734	7.502100E+01	  0.102364734	4.637700E+01	  0.102364734	3.635700E+01
413	  0.102565132	-9.008000E+00	  0.102565132	7.469400E+01	  0.102565132	4.658100E+01	  0.102565132	3.642900E+01
414	  0.102765530	-9.011000E+00	  0.102765530	7.429000E+01	  0.102765530	4.682800E+01	  0.102765530	3.653200E+01
415	  0.102965929	-9.009000E+00	  0.102965929	7.395900E+01	  0.102965929	4.702100E+01	  0.102965929	3.663700E+01
416	  0.103166327	-9.026000E+00	  0.103166327	7.363800E+01	  0.103166327	4.724700E+01	  0.103166327	3.665900E+01
417	  0.103366733	-9.022000E+00	  0.103366733	7.330300E+01	  0.103366733	4.744300E+01	  0.103366733	3.677000E+01
418	  0.103567131	-9.028000E+00	  0.103567131	7.292300E+01	  0.103567131	4.768600E+01	  0.103567131	3.685200E+01
419	  0.103767529	-9.027000E+00	  0.103767529	7.255100E+01	  0.103767529	4.791300E+01	  0.103767529	3.695700E+01
420	  0.103967935	-9.032000E+00	  0.103967935	7.219100E+01	  0.103967935	4.814700E+01	  0.103967935	3.703300E+01
421	  0.104168333	-9.032000E+00	  0.104168333	7.176100E+01	  0.104168333	4.841500E+01	  0.104168333	3.715000E+01
422	  0.104368731	-9.028000E+00	  0.104368731	7.142800E+01	  0.104368731	4.861800E+01	  0.104368731	3.725500E+01
423	  0.104569137	-9.029000E+00	  0.104569137	7.109100E+01	  0.104569137	4.883400E+01	  0.104569137	3.733900E+01
424	  0.104769535	-9.030000E+00	  0.104769535	7.071200E+01	  0.104769535	4.907800E+01	  0.104769535	3.743500E+01
425	  0.104969934	-9.024000E+00	  0.104969934	7.029200E+01	  0.104969934	4.933800E+01	  0.104969934	3.756900E+01
426	  0.105170339	-9.021000E+00	  0.105170339	6.993200E+01	  0.105170339	4.956600E+01	  0.105170339	3.767600E+01
427	  0.105370738	-9.003000E+00	  0.105370738	6.954100E+01	  0.105370738	4.979200E+01	  0.105370738	3.785100E+01
428	  0.105571143	-8.995000E+00	  0.105571143	6.916400E+01	  0.105571143	5.002600E+01	  0.105571143	3.798500E+01
429	  0.105771542	-8.983000E+00	  0.105771542	6.872700E+01	  0.105771542	5.029900E+01	  0.105771542	3.814700E+01
430	  0.105971940	-8.977000E+00	  0.105971940	6.831900E+01	  0.105971940	5.056300E+01	  0.105971940	3.827400E+01
431	  0.106172346	-8.955000E+00	  0.106172346	6.790800E+01	  0.106172346	5.080600E+01	  0.106172346	3.847300E+01
432	  0.106372744	-8.950000E+00	  0.106372744	6.747200E+01	  0.106372744	5.109700E+01	  0.106372744	3.860200E+01
433	  0.106573142	-8.927000E+00	  0.106573142	6.706700E+01	  0.106573142	5.134200E+01	  0.106573142	3.880200E+01
434	  0.106773548	-8.916000E+00	  0.106773548	6.662300E+01	  0.106773548	5.163400E+01	  0.106773548	3.896000E+01
435	  0.106973946	-8.900000E+00	  0.106973946	6.619700E+01	  0.106973946	5.191000E+01	  0.106973946	3.913400E+01
436	  0.107174344	-8.882000E+00	  0.107174344	6.572100E+01	  0.107174344	5.222300E+01	  0.107174344	3.932800E+01
437	  0.107374750	-8.868000E+00	  0.107374750	6.524400E+01	  0.107374750	5.254500E+01	  0.107374750	3.950300E+01
438	  0.107575148	-8.856000E+00	  0.107575148	6.474300E+01	  0.107575148	5.289200E+01	  0.107575148	3.967400E+01
439	  0.107775547	-8.836000E+00	  0.107775547	6.429100E+01	  0.107775547	5.319700E+01	  0.107775547	3.986900E+01
440	  0.107975952	-8.816000E+00	  0.107975952	6.376900E+01	  0.107975952	5.355600E+01	  0.107975952	4.008500E+01
441	  0.108176351	-8.801000E+00	  0.108176351	6.327300E+01	  0.108176351	5.390900E+01	  0.108176351	4.026200E+01
442	  0.108376749	-8.783000E+00	  0.108376749	6.279400E+01	  0.108376749	5.424800E+01	  0.108376749	4.045600E+01
443	  0.108577155	-8.763000E+00	  0.108577155	6.224500E+01	  0.108577155	5.464500E+01	  0.108577155	4.067100E+01
444	  0.108777553	-8.757000E+00	  0.108777553	6.178100E+01	  0.108777553	5.499800E+01	  0.108777553	4.079400E+01
445	  0.108977959	-8.735000E+00	  0.108977959	6.112500E+01	  0.108977959	5.548800E+01	  0.108977959	4.103600E+01
446	  0.109178357	-8.718000E+00	  0.109178357	6.056200E+01	  0.109178357	5.591600E+01	  0.109178357	4.123500E+01
447	  0.109378755	-8.693000E+00	  0.109378755	6.002100E+01	  0.109378755	5.632500E+01	  0.109378755	4.146700E+01
448	  0.109579161	-8.677000E+00	  0.109579161	5.945500E+01	  0.109579161	5.677000E+01	  0.109579161	4.165600E+01
449	  0.109779559	-8.655000E+00	  0.109779559	5.883500E+01	  0.109779559	5.725900E+01	  0.109779559	4.188600E+01
450	  0.109979957	-8.647000E+00	  0.109979957	5.829800E+01	  0.109979957	5.770300E+01	  0.109979957	4.201800E+01
451	  0.110180363	-8.627000E+00	  0.110180363	5.758600E+01	  0.110180363	5.828900E+01	  0.110180363	4.224300E+01
452	  0.110380761	-8.602000E+00	  0.110380761	5.702600E+01	  0.110380761	5.874800E+01	  0.110380761	4.247400E+01
453	  0.110581160	-8.583000E+00	  0.110581160	5.631400E+01	  0.110581160	5.935500E+01	  0.110581160	4.268400E+01
454	  0.110781565	-8.571000E+00	  0.110781565	5.570300E+01	  0.110781565	5.988900E+01	  0.110781565	4.283700E+01
455	  0.110981964	-8.548000E+00	  0.110981964	5.509500E+01	  0.110981964	6.041800E+01	  0.110981964	4.304800E+01
456	  0.111182362	-8.536000E+00	  0.111182362	5.438100E+01	  0.111182362	6.106200E+01	  0.111182362	4.320500E+01
457	  0.111382768	-8.522000E+00	  0.111382768	5.367100E+01	  0.111382768	6.171000E+01	  0.111382768	4.337000E+01
458	  0.111583166	-8.512000E+00	  0.111583166	5.303600E+01	  0.111583166	6.230100E+01	  0.111583166	4.348800E+01
459	  0.111783572	-8.495000E+00	  0.111783572	5.234500E+01	  0.111783572	6.295000E+01	  0.111783572	4.365300E+01
460	  0.111983970	-8.485000E+00	  0.111983970	5.161000E+01	  0.111983970	6.365600E+01	  0.111983970	4.376600E+01
461	  0.112184368	-8.478000E+00	  0.112184368	5.085400E+01	  0.112184368	6.439300E+01	  0.112184368	4.385900E+01
462	  0.112384774	-8.459000E+00	  0.112384774	5.015200E+01	  0.112384774	6.508500E+01	  0.112384774	4.401200E+01
463	  0.112585172	-8.453000E+00	  0.112585172	4.936500E+01	  0.112585172	6.587600E+01	  0.112585172	4.406900E+01
464	  0.112785570	-8.448000E+00	  0.112785570	4.861700E+01	  0.112785570	6.663800E+01	  0.112785570	4.411300E+01
465	  0.112985976	-8.443000E+00	  0.112985976	4.783200E+01	  0.112985976	6.744900E+01	  0.112985976	4.413700E+01
466	  0.113186374	-8.439000E+00	  0.113186374	4.700700E+01	  0.113186374	6.831300E+01	  0.113186374	4.414200E+01
467	  0.113386773	-8.430000E+00	  0.113386773	4.626500E+01	  0.113386773	6.910200E+01	  0.113386773	4.416900E+01
468	  0.113587178	-8.434000E+00	  0.113587178	4.541800E+01	  0.113587178	7.000800E+01	  0.113587178	4.408900E+01
469	  0.113787577	-8.433000E+00	  0.113787577	4.462100E+01	  0.113787577	7.087100E+01	  0.113787577	4.401800E+01
470	  0.113987975	-8.425000E+00	  0.113987975	4.376100E+01	  0.113987975	7.182000E+01	  0.113987975	4.398200E+01
471	  0.114188381	-8.433000E+00	  0.114188381	4.290500E+01	  0.114188381	7.276000E+01	  0.114188381	4.380000E+01
472	  0.114388779	-8.431000E+00	  0.114388779	4.208900E+01	  0.114388779	7.367400E+01	  0.114388779	4.368000E+01
473	  0.114589177	-8.437000E+00	  0.114589177	4.119500E+01	  0.114589177	7.467600E+01	  0.114589177	4.346600E+01
474	  0.114789583	-8.443000E+00	  0.114789583	4.036700E+01	  0.114789583	7.560900E+01	  0.114789583	4.323600E+01
475	  0.114989981	-8.448000E+00	  0.114989981	3.943100E+01	  0.114989981	7.667200E+01	  0.114989981	4.296500E+01
476	  0.115190387	-8.462000E+00	  0.115190387	3.855000E+01	  0.115190387	7.766100E+01	  0.115190387	4.260500E+01
477	  0.115390785	-8.477000E+00	  0.115390785	3.763000E+01	  0.115390785	7.869600E+01	  0.115390785	4.220600E+01
478	  0.115591183	-8.482000E+00	  0.115591183	3.668200E+01	  0.115591183	7.978600E+01	  0.115591183	4.183200E+01
479	  0.115791589	-8.502000E+00	  0.115791589	3.575300E+01	  0.115791589	8.081700E+01	  0.115791589	4.131800E+01
480	  0.115991987	-8.512000E+00	  0.115991987	3.479800E+01	  0.115991987	8.190400E+01	  0.115991987	4.083800E+01
481	  0.116192386	-8.534000E+00	  0.116192386	3.387000E+01	  0.116192386	8.291700E+01	  0.116192386	4.023600E+01
482	  0.116392791	-8.542000E+00	  0.116392791	3.293000E+01	  0.116392791	8.398700E+01	  0.116392791	3.970700E+01
483	  0.116593190	-8.570000E+00	  0.116593190	3.189300E+01	  0.116593190	8.509200E+01	  0.116593190	3.893300E+01
484	  0.116793588	-8.589000E+00	  0.116793588	3.090900E+01	  0.116793588	8.615200E+01	  0.116793588	3.821300E+01
485	  0.116993994	-8.615000E+00	  0.116993994	2.990200E+01	  0.116993994	8.719400E+01	  0.116993994	3.738200E+01
486	  0.117194392	-8.639000E+00	  0.117194392	2.882400E+01	  0.117194392	8.831100E+01	  0.117194392	3.648700E+01
487	  0.117394790	-8.665000E+00	  0.117394790	2.776900E+01	  0.117394790	8.936700E+01	  0.117394790	3.554000E+01
488	  0.117595196	-8.696000E+00	  0.117595196	2.671700E+01	  0.117595196	9.036600E+01	  0.117595196	3.451500E+01
489	  0.117795594	-8.728000E+00	  0.117795594	2.568800E+01	  0.117795594	9.130800E+01	  0.117795594	3.346400E+01
490	  0.117995992	-8.771000E+00	  0.117995992	2.455900E+01	  0.117995992	9.225200E+01	  0.117995992	3.220800E+01
491	  0.118196398	-8.797000E+00	  0.118196398	2.343000E+01	  0.118196398	9.325400E+01	  0.118196398	3.102500E+01
492	  0.118396796	-8.841000E+00	  0.118396796	2.234200E+01	  0.118396796	9.406700E+01	  0.118396796	2.972300E+01
493	  0.118597202	-8.886000E+00	  0.118597202	2.119000E+01	  0.118597202	9.488300E+01	  0.118597202	2.832000E+01
494	  0.118797600	-8.931000E+00	  0.118797600	1.994900E+01	  0.118797600	9.571700E+01	  0.118797600	2.678500E+01
495	  0.118997999	-8.984000E+00	  0.118997999	1.875800E+01	  0.118997999	9.638300E+01	  0.118997999	2.521800E+01
496	  0.119198404	-9.035000E+00	  0.119198404	1.757100E+01	  0.119198404	9.699900E+01	  0.119198404	2.364900E+01
497	  0.119398803	-9.095000E+00	  0.119398803	1.633100E+01	  0.119398803	9.751600E+01	  0.119398803	2.194900E+01
498	  0.119599201	-9.154000E+00	  0.119599201	1.510300E+01	  0.119599201	9.794400E+01	  0.119599201	2.024900E+01
499	  0.119799607	-9.224000E+00	  0.119799607	1.381500E+01	  0.119799607	9.825800E+01	  0.119799607	1.842900E+01
500	  0.120000005	-9.295000E+00	  0.120000005	1.255000E+01	  0.120000005	9.845400E+01	  0.120000005	1.662900E+01
