! Anritsu VNA Master:             	Model: MS2036C/10/77
! SN:             	1601066
! /bd0/18may07/256.ew.m11.txt
! Existing Calibration Information:
! TYPE:             	Current Settings	Active Cal Settings
! TIME:             	05/07/2018 02:24:48 PM	05/07/2018 02:21:54 PM
! INTERNAL TEMP:    	56.0 C	55.5 C
! # POINTS:         	500	500
! START FREQ:       	20.000 MHz	20.000 MHz
! STOP FREQ:        	120.000 MHz	120.000 MHz
! SOURCE POWER:     	High	High
! IFBW:             	50 Hz	50 Hz
! AVG FACTOR:       	  1 	  1 
! REF PLANE 1:      	0 mm	0 mm
! REF PLANE 2:      	0 mm	0 mm
! CAL TYPE:         	Full S11	Full S11
! CAL METHOD:       	SOLT	SOLT
! CAL LINE TYPE:    	Coax	Coax
! DUT PORT 1:       	K-Conn(F)	K-Conn(F)
! DUT PORT 2:       	K-Conn(F)	K-Conn(F)
! CAL STATUS:       	OK: Accuracy High	--
! PROP-V:       	0.700
! CABLE LOSS:       	0.000 dB/m
! REF IMPEDANCE:       	50.0
! Trace Specific Parameters:	TR1	TR2	TR3	TR4
! TRACE.#.Y (GRAPH TYPE)	LOG MAG	PHASE	REAL IMPEDANCE	IMAGINARY IMPEDANCE
! TRACE.#.X 	FREQ.GHZ	FREQ.GHZ	FREQ.GHZ	FREQ.GHZ
! S-PARAMETER	S11	S11	S11	S11
! SMOOTH/APERTURE %	0	0	0	0
! WINDOW	NSL	NSL	NSL	NSL
! GATING	OFF	OFF	OFF	OFF
! FGTD	OFF	OFF	OFF	OFF
Marker Information per Trace:	TR1	TR2	TR3	TR4
!MK1	--	"MK1 TR2:  20.000 MHz,PH:-126.12°"	--	--
!MK2	--	--	"MK2 TR3:  70.100 200 MHz,Z:(16.502 ohm, -2.604 ohm)"	--
!MK3	--	--	--	--
!MK4	--	--	--	--
!MK5	--	--	--	--
!MK6	--	--	--	--
!MK7	--	--	--	--
!MK8	--	--	--	--
PNT	TR1.FREQ.GHZ	TR1.LOG MAG.dB	TR2.FREQ.GHZ	TR2.PHASE.deg	TR3.FREQ.GHZ	TR3.REAL IMPEDANCE.ohm	TR4.FREQ.GHZ	TR4.IMAGINARY IMPEDANCE.ohm
1	  0.020000000	-6.340000E-01	  0.020000000	-1.261240E+02	  0.020000000	2.297000E+00	  0.020000000	-2.536500E+01
2	  0.020200402	-6.330000E-01	  0.020200402	-1.275920E+02	  0.020200402	2.264000E+00	  0.020200402	-2.456600E+01
3	  0.020400802	-6.330000E-01	  0.020400802	-1.290580E+02	  0.020400802	2.236000E+00	  0.020400802	-2.377800E+01
4	  0.020601204	-6.370000E-01	  0.020601204	-1.305160E+02	  0.020601204	2.221000E+00	  0.020601204	-2.300300E+01
5	  0.020801604	-6.420000E-01	  0.020801604	-1.320080E+02	  0.020801604	2.215000E+00	  0.020801604	-2.222000E+01
6	  0.021002004	-6.500000E-01	  0.021002004	-1.335210E+02	  0.021002004	2.215000E+00	  0.021002004	-2.143500E+01
7	  0.021202406	-6.540000E-01	  0.021202406	-1.350620E+02	  0.021202406	2.205000E+00	  0.021202406	-2.064400E+01
8	  0.021402806	-6.610000E-01	  0.021402806	-1.365940E+02	  0.021402806	2.205000E+00	  0.021402806	-1.986600E+01
9	  0.021603208	-6.670000E-01	  0.021603208	-1.381270E+02	  0.021603208	2.200000E+00	  0.021603208	-1.909600E+01
10	  0.021803608	-6.720000E-01	  0.021803608	-1.396550E+02	  0.021803608	2.194000E+00	  0.021803608	-1.833700E+01
11	  0.022004008	-6.790000E-01	  0.022004008	-1.411980E+02	  0.022004008	2.196000E+00	  0.022004008	-1.757800E+01
12	  0.022204408	-6.870000E-01	  0.022204408	-1.427480E+02	  0.022204408	2.201000E+00	  0.022204408	-1.682200E+01
13	  0.022404809	-6.910000E-01	  0.022404809	-1.443140E+02	  0.022404809	2.193000E+00	  0.022404809	-1.606600E+01
14	  0.022605211	-6.960000E-01	  0.022605211	-1.459150E+02	  0.022605211	2.190000E+00	  0.022605211	-1.529900E+01
15	  0.022805611	-6.990000E-01	  0.022805611	-1.475150E+02	  0.022805611	2.184000E+00	  0.022805611	-1.454000E+01
16	  0.023006011	-7.030000E-01	  0.023006011	-1.491110E+02	  0.023006011	2.177000E+00	  0.023006011	-1.378900E+01
17	  0.023206413	-7.060000E-01	  0.023206413	-1.507030E+02	  0.023206413	2.171000E+00	  0.023206413	-1.304500E+01
18	  0.023406813	-7.110000E-01	  0.023406813	-1.522900E+02	  0.023406813	2.170000E+00	  0.023406813	-1.230900E+01
19	  0.023607215	-7.160000E-01	  0.023607215	-1.538740E+02	  0.023607215	2.172000E+00	  0.023607215	-1.158000E+01
20	  0.023807615	-7.230000E-01	  0.023807615	-1.554770E+02	  0.023807615	2.178000E+00	  0.023807615	-1.084600E+01
21	  0.024008015	-7.330000E-01	  0.024008015	-1.571020E+02	  0.024008015	2.197000E+00	  0.024008015	-1.010700E+01
22	  0.024208417	-7.440000E-01	  0.024208417	-1.587300E+02	  0.024208417	2.215000E+00	  0.024208417	-9.370000E+00
23	  0.024408817	-7.540000E-01	  0.024408817	-1.603830E+02	  0.024408817	2.233000E+00	  0.024408817	-8.627000E+00
24	  0.024609219	-7.620000E-01	  0.024609219	-1.620320E+02	  0.024609219	2.248000E+00	  0.024609219	-7.889000E+00
25	  0.024809619	-7.720000E-01	  0.024809619	-1.636860E+02	  0.024809619	2.267000E+00	  0.024809619	-7.151000E+00
26	  0.025010020	-7.850000E-01	  0.025010020	-1.653440E+02	  0.025010020	2.296000E+00	  0.025010020	-6.416000E+00
27	  0.025210422	-7.970000E-01	  0.025210422	-1.670130E+02	  0.025210422	2.322000E+00	  0.025210422	-5.678000E+00
28	  0.025410822	-8.100000E-01	  0.025410822	-1.686930E+02	  0.025410822	2.353000E+00	  0.025410822	-4.938000E+00
29	  0.025611224	-8.240000E-01	  0.025611224	-1.703910E+02	  0.025611224	2.388000E+00	  0.025611224	-4.192000E+00
30	  0.025811624	-8.380000E-01	  0.025811624	-1.721030E+02	  0.025811624	2.423000E+00	  0.025811624	-3.442000E+00
31	  0.026012026	-8.500000E-01	  0.026012026	-1.738320E+02	  0.026012026	2.452000E+00	  0.026012026	-2.687000E+00
32	  0.026212426	-8.610000E-01	  0.026212426	-1.755550E+02	  0.026212426	2.480000E+00	  0.026212426	-1.935000E+00
33	  0.026412826	-8.730000E-01	  0.026412826	-1.772870E+02	  0.026412826	2.514000E+00	  0.026412826	-1.180000E+00
34	  0.026613226	-8.890000E-01	  0.026613226	-1.790270E+02	  0.026613226	2.557000E+00	  0.026613226	-4.230000E-01
35	  0.026813626	-9.060000E-01	  0.026813626	1.792020E+02	  0.026813626	2.605000E+00	  0.026813626	3.470000E-01
36	  0.027014028	-9.230000E-01	  0.027014028	1.774360E+02	  0.027014028	2.655000E+00	  0.027014028	1.115000E+00
37	  0.027214428	-9.410000E-01	  0.027214428	1.756560E+02	  0.027214428	2.710000E+00	  0.027214428	1.890000E+00
38	  0.027414829	-9.570000E-01	  0.027414829	1.738600E+02	  0.027414829	2.760000E+00	  0.027414829	2.673000E+00
39	  0.027615231	-9.750000E-01	  0.027615231	1.720640E+02	  0.027615231	2.817000E+00	  0.027615231	3.456000E+00
40	  0.027815631	-9.940000E-01	  0.027815631	1.702420E+02	  0.027815631	2.880000E+00	  0.027815631	4.253000E+00
41	  0.028016033	-1.016000E+00	  0.028016033	1.684280E+02	  0.028016033	2.951000E+00	  0.028016033	5.048000E+00
42	  0.028216433	-1.039000E+00	  0.028216433	1.665940E+02	  0.028216433	3.029000E+00	  0.028216433	5.854000E+00
43	  0.028416833	-1.060000E+00	  0.028416833	1.647570E+02	  0.028416833	3.102000E+00	  0.028416833	6.664000E+00
44	  0.028617235	-1.082000E+00	  0.028617235	1.629190E+02	  0.028617235	3.180000E+00	  0.028617235	7.478000E+00
45	  0.028817635	-1.100000E+00	  0.028817635	1.610910E+02	  0.028817635	3.250000E+00	  0.028817635	8.291000E+00
46	  0.029018037	-1.122000E+00	  0.029018037	1.592710E+02	  0.029018037	3.332000E+00	  0.029018037	9.105000E+00
47	  0.029218437	-1.144000E+00	  0.029218437	1.574480E+02	  0.029218437	3.420000E+00	  0.029218437	9.923000E+00
48	  0.029418837	-1.167000E+00	  0.029418837	1.556220E+02	  0.029418837	3.511000E+00	  0.029418837	1.074900E+01
49	  0.029619239	-1.193000E+00	  0.029619239	1.537900E+02	  0.029619239	3.613000E+00	  0.029619239	1.158200E+01
50	  0.029819639	-1.223000E+00	  0.029819639	1.519220E+02	  0.029819639	3.733000E+00	  0.029819639	1.243600E+01
51	  0.030020041	-1.253000E+00	  0.030020041	1.500380E+02	  0.030020041	3.858000E+00	  0.030020041	1.330500E+01
52	  0.030220442	-1.284000E+00	  0.030220442	1.481190E+02	  0.030220442	3.988000E+00	  0.030220442	1.419600E+01
53	  0.030420844	-1.314000E+00	  0.030420844	1.462100E+02	  0.030420844	4.121000E+00	  0.030420844	1.509100E+01
54	  0.030621244	-1.344000E+00	  0.030621244	1.442990E+02	  0.030621244	4.259000E+00	  0.030621244	1.599500E+01
55	  0.030821644	-1.375000E+00	  0.030821644	1.423950E+02	  0.030821644	4.405000E+00	  0.030821644	1.690400E+01
56	  0.031022044	-1.410000E+00	  0.031022044	1.404700E+02	  0.031022044	4.568000E+00	  0.031022044	1.783300E+01
57	  0.031222444	-1.439000E+00	  0.031222444	1.385680E+02	  0.031222444	4.719000E+00	  0.031222444	1.876100E+01
58	  0.031422846	-1.476000E+00	  0.031422846	1.365810E+02	  0.031422846	4.906000E+00	  0.031422846	1.974100E+01
59	  0.031623244	-1.512000E+00	  0.031623244	1.345880E+02	  0.031623244	5.095000E+00	  0.031623244	2.073600E+01
60	  0.031823646	-1.551000E+00	  0.031823646	1.325930E+02	  0.031823646	5.303000E+00	  0.031823646	2.174400E+01
61	  0.032024048	-1.585000E+00	  0.032024048	1.306030E+02	  0.032024048	5.502000E+00	  0.032024048	2.276500E+01
62	  0.032224450	-1.619000E+00	  0.032224450	1.285920E+02	  0.032224450	5.713000E+00	  0.032224450	2.381100E+01
63	  0.032424849	-1.658000E+00	  0.032424849	1.265930E+02	  0.032424849	5.948000E+00	  0.032424849	2.486600E+01
64	  0.032625251	-1.690000E+00	  0.032625251	1.245940E+02	  0.032625251	6.170000E+00	  0.032625251	2.593900E+01
65	  0.032825653	-1.726000E+00	  0.032825653	1.226080E+02	  0.032825653	6.417000E+00	  0.032825653	2.702100E+01
66	  0.033026051	-1.766000E+00	  0.033026051	1.206400E+02	  0.033026051	6.691000E+00	  0.033026051	2.810900E+01
67	  0.033226453	-1.806000E+00	  0.033226453	1.186400E+02	  0.033226453	6.976000E+00	  0.033226453	2.923500E+01
68	  0.033426855	-1.855000E+00	  0.033426855	1.166620E+02	  0.033426855	7.311000E+00	  0.033426855	3.036300E+01
69	  0.033627257	-1.906000E+00	  0.033627257	1.146600E+02	  0.033627257	7.674000E+00	  0.033627257	3.152400E+01
70	  0.033827655	-1.956000E+00	  0.033827655	1.126470E+02	  0.033827655	8.053000E+00	  0.033827655	3.271300E+01
71	  0.034028057	-2.009000E+00	  0.034028057	1.105790E+02	  0.034028057	8.466000E+00	  0.034028057	3.395900E+01
72	  0.034228459	-2.058000E+00	  0.034228459	1.084890E+02	  0.034228459	8.890000E+00	  0.034228459	3.524600E+01
73	  0.034428857	-2.109000E+00	  0.034428857	1.063770E+02	  0.034428857	9.350000E+00	  0.034428857	3.657400E+01
74	  0.034629259	-2.157000E+00	  0.034629259	1.042340E+02	  0.034629259	9.825000E+00	  0.034629259	3.795500E+01
75	  0.034829661	-2.202000E+00	  0.034829661	1.021200E+02	  0.034829661	1.031600E+01	  0.034829661	3.935000E+01
76	  0.035030060	-2.249000E+00	  0.035030060	9.998800E+01	  0.035030060	1.084500E+01	  0.035030060	4.079100E+01
77	  0.035230462	-2.291000E+00	  0.035230462	9.788100E+01	  0.035230462	1.138300E+01	  0.035230462	4.225400E+01
78	  0.035430863	-2.335000E+00	  0.035430863	9.579500E+01	  0.035430863	1.196100E+01	  0.035430863	4.373700E+01
79	  0.035631265	-2.376000E+00	  0.035631265	9.370200E+01	  0.035631265	1.256900E+01	  0.035631265	4.526600E+01
80	  0.035831664	-2.420000E+00	  0.035831664	9.162500E+01	  0.035831664	1.322400E+01	  0.035831664	4.682100E+01
81	  0.036032066	-2.463000E+00	  0.036032066	8.955400E+01	  0.036032066	1.391800E+01	  0.036032066	4.841300E+01
82	  0.036232468	-2.508000E+00	  0.036232468	8.747900E+01	  0.036232468	1.467000E+01	  0.036232468	5.005000E+01
83	  0.036432866	-2.559000E+00	  0.036432866	8.543800E+01	  0.036432866	1.550000E+01	  0.036432866	5.169200E+01
84	  0.036633268	-2.607000E+00	  0.036633268	8.341300E+01	  0.036633268	1.637200E+01	  0.036633268	5.336800E+01
85	  0.036833670	-2.661000E+00	  0.036833670	8.137100E+01	  0.036833670	1.734200E+01	  0.036833670	5.509200E+01
86	  0.037034072	-2.717000E+00	  0.037034072	7.931300E+01	  0.037034072	1.840400E+01	  0.037034072	5.687200E+01
87	  0.037234470	-2.776000E+00	  0.037234470	7.725600E+01	  0.037234470	1.956200E+01	  0.037234470	5.869100E+01
88	  0.037434869	-2.837000E+00	  0.037434869	7.517800E+01	  0.037434869	2.083200E+01	  0.037434869	6.057000E+01
89	  0.037635271	-2.896000E+00	  0.037635271	7.307200E+01	  0.037635271	2.220100E+01	  0.037635271	6.253100E+01
90	  0.037835669	-2.956000E+00	  0.037835669	7.093100E+01	  0.037835669	2.370800E+01	  0.037835669	6.457500E+01
91	  0.038036071	-3.018000E+00	  0.038036071	6.878300E+01	  0.038036071	2.535600E+01	  0.038036071	6.667300E+01
92	  0.038236473	-3.078000E+00	  0.038236473	6.661900E+01	  0.038236473	2.714500E+01	  0.038236473	6.884300E+01
93	  0.038436871	-3.134000E+00	  0.038436871	6.447600E+01	  0.038436871	2.904200E+01	  0.038436871	7.106000E+01
94	  0.038637273	-3.188000E+00	  0.038637273	6.231900E+01	  0.038637273	3.109700E+01	  0.038637273	7.335500E+01
95	  0.038837675	-3.239000E+00	  0.038837675	6.018700E+01	  0.038837675	3.329500E+01	  0.038837675	7.568300E+01
96	  0.039038073	-3.287000E+00	  0.039038073	5.808600E+01	  0.039038073	3.563200E+01	  0.039038073	7.804200E+01
97	  0.039238475	-3.333000E+00	  0.039238475	5.602700E+01	  0.039238475	3.812600E+01	  0.039238475	8.039600E+01
98	  0.039438877	-3.383000E+00	  0.039438877	5.394500E+01	  0.039438877	4.090400E+01	  0.039438877	8.278600E+01
99	  0.039639279	-3.434000E+00	  0.039639279	5.193000E+01	  0.039639279	4.385800E+01	  0.039639279	8.509700E+01
100	  0.039839678	-3.493000E+00	  0.039839678	4.986000E+01	  0.039839678	4.723200E+01	  0.039839678	8.740400E+01
101	  0.040040080	-3.550000E+00	  0.040040080	4.780500E+01	  0.040040080	5.087000E+01	  0.040040080	8.967700E+01
102	  0.040240481	-3.613000E+00	  0.040240481	4.574400E+01	  0.040240481	5.489600E+01	  0.040240481	9.184200E+01
103	  0.040440880	-3.672000E+00	  0.040440880	4.365600E+01	  0.040440880	5.929400E+01	  0.040440880	9.399800E+01
104	  0.040641282	-3.732000E+00	  0.040641282	4.158000E+01	  0.040641282	6.407800E+01	  0.040641282	9.597500E+01
105	  0.040841684	-3.789000E+00	  0.040841684	3.950300E+01	  0.040841684	6.925200E+01	  0.040841684	9.782700E+01
106	  0.041042086	-3.848000E+00	  0.041042086	3.742600E+01	  0.041042086	7.487800E+01	  0.041042086	9.942100E+01
107	  0.041242484	-3.903000E+00	  0.041242484	3.534200E+01	  0.041242484	8.095800E+01	  0.041242484	1.007850E+02
108	  0.041442886	-3.959000E+00	  0.041442886	3.327500E+01	  0.041442886	8.747600E+01	  0.041442886	1.017340E+02
109	  0.041643288	-4.014000E+00	  0.041643288	3.118700E+01	  0.041643288	9.453500E+01	  0.041643288	1.022390E+02
110	  0.041843686	-4.067000E+00	  0.041843686	2.912200E+01	  0.041843686	1.019780E+02	  0.041843686	1.022110E+02
111	  0.042044088	-4.117000E+00	  0.042044088	2.704900E+01	  0.042044088	1.098890E+02	  0.042044088	1.015580E+02
112	  0.042244490	-4.167000E+00	  0.042244490	2.502700E+01	  0.042244490	1.179860E+02	  0.042244490	1.001540E+02
113	  0.042444889	-4.218000E+00	  0.042444889	2.300800E+01	  0.042444889	1.263550E+02	  0.042444889	9.778700E+01
114	  0.042645290	-4.269000E+00	  0.042645290	2.098800E+01	  0.042645290	1.349050E+02	  0.042645290	9.445300E+01
115	  0.042845692	-4.319000E+00	  0.042845692	1.899700E+01	  0.042845692	1.433560E+02	  0.042845692	9.007900E+01
116	  0.043046094	-4.369000E+00	  0.043046094	1.699200E+01	  0.043046094	1.517130E+02	  0.043046094	8.453200E+01
117	  0.043246493	-4.418000E+00	  0.043246493	1.498200E+01	  0.043246493	1.597260E+02	  0.043246493	7.777400E+01
118	  0.043446895	-4.467000E+00	  0.043446895	1.299900E+01	  0.043446895	1.670300E+02	  0.043446895	6.992200E+01
119	  0.043647297	-4.514000E+00	  0.043647297	1.100000E+01	  0.043647297	1.736150E+02	  0.043647297	6.095400E+01
120	  0.043847695	-4.562000E+00	  0.043847695	9.028000E+00	  0.043847695	1.790220E+02	  0.043847695	5.110300E+01
121	  0.044048097	-4.611000E+00	  0.044048097	7.053000E+00	  0.044048097	1.831480E+02	  0.044048097	4.043500E+01
122	  0.044248499	-4.659000E+00	  0.044248499	5.093000E+00	  0.044248499	1.858870E+02	  0.044248499	2.933500E+01
123	  0.044448901	-4.705000E+00	  0.044448901	3.148000E+00	  0.044448901	1.871970E+02	  0.044448901	1.808000E+01
124	  0.044649299	-4.751000E+00	  0.044649299	1.196000E+00	  0.044649299	1.870850E+02	  0.044649299	6.797000E+00
125	  0.044849701	-4.794000E+00	  0.044849701	-7.440000E-01	  0.044849701	1.856480E+02	  0.044849701	-4.157000E+00
126	  0.045050103	-4.836000E+00	  0.045050103	-2.678000E+00	  0.045050103	1.829450E+02	  0.045050103	-1.458700E+01
127	  0.045250501	-4.876000E+00	  0.045250501	-4.613000E+00	  0.045250501	1.791800E+02	  0.045250501	-2.437000E+01
128	  0.045450903	-4.916000E+00	  0.045450903	-6.509000E+00	  0.045450903	1.745150E+02	  0.045450903	-3.315400E+01
129	  0.045651305	-4.957000E+00	  0.045651305	-8.410000E+00	  0.045651305	1.690790E+02	  0.045651305	-4.106400E+01
130	  0.045851704	-5.000000E+00	  0.045851704	-1.030400E+01	  0.045851704	1.630320E+02	  0.045851704	-4.796300E+01
131	  0.046052106	-5.041000E+00	  0.046052106	-1.219600E+01	  0.046052106	1.566750E+02	  0.046052106	-5.394500E+01
132	  0.046252504	-5.080000E+00	  0.046252504	-1.407800E+01	  0.046252504	1.501850E+02	  0.046252504	-5.903800E+01
133	  0.046452906	-5.117000E+00	  0.046452906	-1.595100E+01	  0.046452906	1.436530E+02	  0.046452906	-6.328600E+01
134	  0.046653304	-5.154000E+00	  0.046653304	-1.781400E+01	  0.046653304	1.371530E+02	  0.046653304	-6.671900E+01
135	  0.046853706	-5.189000E+00	  0.046853706	-1.968000E+01	  0.046853706	1.307720E+02	  0.046853706	-6.950200E+01
136	  0.047054108	-5.222000E+00	  0.047054108	-2.152800E+01	  0.047054108	1.246180E+02	  0.047054108	-7.165300E+01
137	  0.047254506	-5.255000E+00	  0.047254506	-2.338000E+01	  0.047254506	1.186540E+02	  0.047254506	-7.326700E+01
138	  0.047454908	-5.285000E+00	  0.047454908	-2.519200E+01	  0.047454908	1.130550E+02	  0.047454908	-7.440800E+01
139	  0.047655310	-5.315000E+00	  0.047655310	-2.701800E+01	  0.047655310	1.076510E+02	  0.047655310	-7.513600E+01
140	  0.047855709	-5.343000E+00	  0.047855709	-2.877800E+01	  0.047855709	1.026910E+02	  0.047855709	-7.550200E+01
141	  0.048056111	-5.373000E+00	  0.048056111	-3.055200E+01	  0.048056111	9.793500E+01	  0.048056111	-7.555300E+01
142	  0.048256513	-5.402000E+00	  0.048256513	-3.231800E+01	  0.048256513	9.345100E+01	  0.048256513	-7.536300E+01
143	  0.048456915	-5.433000E+00	  0.048456915	-3.405300E+01	  0.048456915	8.928600E+01	  0.048456915	-7.494200E+01
144	  0.048657313	-5.460000E+00	  0.048657313	-3.579900E+01	  0.048657313	8.532500E+01	  0.048657313	-7.439800E+01
145	  0.048857715	-5.485000E+00	  0.048857715	-3.755800E+01	  0.048857715	8.156100E+01	  0.048857715	-7.373100E+01
146	  0.049058117	-5.512000E+00	  0.049058117	-3.930400E+01	  0.049058117	7.804500E+01	  0.049058117	-7.289400E+01
147	  0.049258515	-5.536000E+00	  0.049258515	-4.102900E+01	  0.049258515	7.476300E+01	  0.049258515	-7.201500E+01
148	  0.049458917	-5.561000E+00	  0.049458917	-4.274400E+01	  0.049458917	7.169100E+01	  0.049458917	-7.104000E+01
149	  0.049659319	-5.587000E+00	  0.049659319	-4.445200E+01	  0.049659319	6.881500E+01	  0.049659319	-6.998800E+01
150	  0.049859721	-5.610000E+00	  0.049859721	-4.614900E+01	  0.049859721	6.611200E+01	  0.049859721	-6.892000E+01
151	  0.050060119	-5.635000E+00	  0.050060119	-4.783700E+01	  0.050060119	6.358500E+01	  0.050060119	-6.779300E+01
152	  0.050260521	-5.655000E+00	  0.050260521	-4.953400E+01	  0.050260521	6.117400E+01	  0.050260521	-6.667100E+01
153	  0.050460923	-5.677000E+00	  0.050460923	-5.122100E+01	  0.050460923	5.891900E+01	  0.050460923	-6.551000E+01
154	  0.050661322	-5.693000E+00	  0.050661322	-5.288000E+01	  0.050661322	5.680600E+01	  0.050661322	-6.439200E+01
155	  0.050861724	-5.707000E+00	  0.050861724	-5.452500E+01	  0.050861724	5.481800E+01	  0.050861724	-6.328000E+01
156	  0.051062126	-5.723000E+00	  0.051062126	-5.619000E+01	  0.051062126	5.291800E+01	  0.051062126	-6.213200E+01
157	  0.051262524	-5.739000E+00	  0.051262524	-5.778400E+01	  0.051262524	5.119900E+01	  0.051262524	-6.102200E+01
158	  0.051462926	-5.752000E+00	  0.051462926	-5.935700E+01	  0.051462926	4.958300E+01	  0.051462926	-5.993100E+01
159	  0.051663328	-5.768000E+00	  0.051663328	-6.091500E+01	  0.051663328	4.807500E+01	  0.051663328	-5.883300E+01
160	  0.051863730	-5.783000E+00	  0.051863730	-6.247300E+01	  0.051863730	4.663500E+01	  0.051863730	-5.774600E+01
161	  0.052064128	-5.800000E+00	  0.052064128	-6.403200E+01	  0.052064128	4.527500E+01	  0.052064128	-5.664700E+01
162	  0.052264530	-5.813000E+00	  0.052264530	-6.556400E+01	  0.052264530	4.399300E+01	  0.052264530	-5.559200E+01
163	  0.052464932	-5.829000E+00	  0.052464932	-6.709400E+01	  0.052464932	4.278400E+01	  0.052464932	-5.453100E+01
164	  0.052665330	-5.846000E+00	  0.052665330	-6.863300E+01	  0.052665330	4.162900E+01	  0.052665330	-5.346700E+01
165	  0.052865732	-5.862000E+00	  0.052865732	-7.018400E+01	  0.052865732	4.052000E+01	  0.052865732	-5.240600E+01
166	  0.053066134	-5.879000E+00	  0.053066134	-7.171700E+01	  0.053066134	3.947700E+01	  0.053066134	-5.136700E+01
167	  0.053266536	-5.893000E+00	  0.053266536	-7.322100E+01	  0.053266536	3.849500E+01	  0.053266536	-5.036500E+01
168	  0.053466935	-5.905000E+00	  0.053466935	-7.475800E+01	  0.053466935	3.752800E+01	  0.053466935	-4.936100E+01
169	  0.053667337	-5.914000E+00	  0.053667337	-7.626600E+01	  0.053667337	3.661100E+01	  0.053667337	-4.839800E+01
170	  0.053867739	-5.922000E+00	  0.053867739	-7.775600E+01	  0.053867739	3.574100E+01	  0.053867739	-4.745900E+01
171	  0.054068137	-5.928000E+00	  0.054068137	-7.926000E+01	  0.054068137	3.489400E+01	  0.054068137	-4.652800E+01
172	  0.054268539	-5.933000E+00	  0.054268539	-8.074700E+01	  0.054268539	3.408900E+01	  0.054268539	-4.561800E+01
173	  0.054468941	-5.941000E+00	  0.054468941	-8.217900E+01	  0.054468941	3.335700E+01	  0.054468941	-4.474100E+01
174	  0.054669339	-5.947000E+00	  0.054669339	-8.361000E+01	  0.054669339	3.265000E+01	  0.054669339	-4.387800E+01
175	  0.054869737	-5.953000E+00	  0.054869737	-8.503600E+01	  0.054869737	3.197500E+01	  0.054869737	-4.302500E+01
176	  0.055070139	-5.962000E+00	  0.055070139	-8.642100E+01	  0.055070139	3.135800E+01	  0.055070139	-4.219600E+01
177	  0.055270538	-5.971000E+00	  0.055270538	-8.782500E+01	  0.055270538	3.075400E+01	  0.055270538	-4.136600E+01
178	  0.055470940	-5.977000E+00	  0.055470940	-8.921700E+01	  0.055470940	3.017300E+01	  0.055470940	-4.055800E+01
179	  0.055671342	-5.985000E+00	  0.055671342	-9.060800E+01	  0.055671342	2.961700E+01	  0.055671342	-3.975700E+01
180	  0.055871744	-5.992000E+00	  0.055871744	-9.201400E+01	  0.055871744	2.907700E+01	  0.055871744	-3.895400E+01
181	  0.056072142	-5.999000E+00	  0.056072142	-9.339300E+01	  0.056072142	2.856700E+01	  0.056072142	-3.817700E+01
182	  0.056272544	-6.005000E+00	  0.056272544	-9.478800E+01	  0.056272544	2.806700E+01	  0.056272544	-3.740100E+01
183	  0.056472946	-6.014000E+00	  0.056472946	-9.616900E+01	  0.056472946	2.760300E+01	  0.056472946	-3.663300E+01
184	  0.056673344	-6.020000E+00	  0.056673344	-9.752700E+01	  0.056673344	2.715500E+01	  0.056673344	-3.589300E+01
185	  0.056873746	-6.023000E+00	  0.056873746	-9.891200E+01	  0.056873746	2.670200E+01	  0.056873746	-3.515200E+01
186	  0.057074148	-6.027000E+00	  0.057074148	-1.002550E+02	  0.057074148	2.628300E+01	  0.057074148	-3.443900E+01
187	  0.057274550	-6.026000E+00	  0.057274550	-1.016350E+02	  0.057274550	2.585300E+01	  0.057274550	-3.372200E+01
188	  0.057474948	-6.027000E+00	  0.057474948	-1.029710E+02	  0.057474948	2.545500E+01	  0.057474948	-3.303200E+01
189	  0.057675350	-6.024000E+00	  0.057675350	-1.043040E+02	  0.057675350	2.506300E+01	  0.057675350	-3.235400E+01
190	  0.057875752	-6.024000E+00	  0.057875752	-1.056190E+02	  0.057875752	2.469400E+01	  0.057875752	-3.168900E+01
191	  0.058076151	-6.025000E+00	  0.058076151	-1.069170E+02	  0.058076151	2.435000E+01	  0.058076151	-3.103400E+01
192	  0.058276553	-6.026000E+00	  0.058276553	-1.081970E+02	  0.058276553	2.402200E+01	  0.058276553	-3.039300E+01
193	  0.058476955	-6.024000E+00	  0.058476955	-1.094710E+02	  0.058476955	2.369500E+01	  0.058476955	-2.976700E+01
194	  0.058677353	-6.025000E+00	  0.058677353	-1.107100E+02	  0.058677353	2.339800E+01	  0.058677353	-2.915700E+01
195	  0.058877755	-6.026000E+00	  0.058877755	-1.119720E+02	  0.058877755	2.310600E+01	  0.058877755	-2.854000E+01
196	  0.059078157	-6.028000E+00	  0.059078157	-1.132060E+02	  0.059078157	2.283300E+01	  0.059078157	-2.794100E+01
197	  0.059278559	-6.031000E+00	  0.059278559	-1.145010E+02	  0.059278559	2.256000E+01	  0.059278559	-2.731400E+01
198	  0.059478957	-6.030000E+00	  0.059478957	-1.157080E+02	  0.059478957	2.230100E+01	  0.059478957	-2.674200E+01
199	  0.059679359	-6.035000E+00	  0.059679359	-1.169780E+02	  0.059679359	2.205800E+01	  0.059679359	-2.613400E+01
200	  0.059879761	-6.035000E+00	  0.059879761	-1.182170E+02	  0.059879761	2.181200E+01	  0.059879761	-2.555400E+01
201	  0.060080159	-6.037000E+00	  0.060080159	-1.194410E+02	  0.060080159	2.158400E+01	  0.060080159	-2.498100E+01
202	  0.060280561	-6.037000E+00	  0.060280561	-1.206740E+02	  0.060280561	2.135700E+01	  0.060280561	-2.441100E+01
203	  0.060480963	-6.039000E+00	  0.060480963	-1.218830E+02	  0.060480963	2.114700E+01	  0.060480963	-2.385300E+01
204	  0.060681365	-6.037000E+00	  0.060681365	-1.231000E+02	  0.060681365	2.092800E+01	  0.060681365	-2.330100E+01
205	  0.060881764	-6.036000E+00	  0.060881764	-1.243000E+02	  0.060881764	2.072500E+01	  0.060881764	-2.275800E+01
206	  0.061082166	-6.035000E+00	  0.061082166	-1.255010E+02	  0.061082166	2.052700E+01	  0.061082166	-2.221800E+01
207	  0.061282568	-6.033000E+00	  0.061282568	-1.266860E+02	  0.061282568	2.033500E+01	  0.061282568	-2.169000E+01
208	  0.061482966	-6.032000E+00	  0.061482966	-1.278530E+02	  0.061482966	2.015500E+01	  0.061482966	-2.117200E+01
209	  0.061683368	-6.032000E+00	  0.061683368	-1.290190E+02	  0.061683368	1.998400E+01	  0.061683368	-2.065600E+01
210	  0.061883770	-6.028000E+00	  0.061883770	-1.301950E+02	  0.061883770	1.980800E+01	  0.061883770	-2.014200E+01
211	  0.062084168	-6.030000E+00	  0.062084168	-1.313290E+02	  0.062084168	1.965700E+01	  0.062084168	-1.964500E+01
212	  0.062284570	-6.030000E+00	  0.062284570	-1.324660E+02	  0.062284570	1.950600E+01	  0.062284570	-1.915000E+01
213	  0.062484972	-6.023000E+00	  0.062484972	-1.335470E+02	  0.062484972	1.934800E+01	  0.062484972	-1.868800E+01
214	  0.062685370	-6.025000E+00	  0.062685370	-1.346870E+02	  0.062685370	1.921400E+01	  0.062685370	-1.819500E+01
215	  0.062885776	-6.029000E+00	  0.062885776	-1.358030E+02	  0.062885776	1.909100E+01	  0.062885776	-1.771300E+01
216	  0.063086174	-6.031000E+00	  0.063086174	-1.369580E+02	  0.063086174	1.896100E+01	  0.063086174	-1.721900E+01
217	  0.063286573	-6.036000E+00	  0.063286573	-1.381060E+02	  0.063286573	1.884600E+01	  0.063286573	-1.672900E+01
218	  0.063486971	-6.040000E+00	  0.063486971	-1.392230E+02	  0.063486971	1.873700E+01	  0.063486971	-1.625400E+01
219	  0.063687377	-6.037000E+00	  0.063687377	-1.403310E+02	  0.063687377	1.861200E+01	  0.063687377	-1.579100E+01
220	  0.063887775	-6.034000E+00	  0.063887775	-1.414840E+02	  0.063887775	1.848800E+01	  0.063887775	-1.531000E+01
221	  0.064088173	-6.036000E+00	  0.064088173	-1.425720E+02	  0.064088173	1.838900E+01	  0.064088173	-1.485500E+01
222	  0.064288579	-6.035000E+00	  0.064288579	-1.436840E+02	  0.064288579	1.828100E+01	  0.064288579	-1.439500E+01
223	  0.064488977	-6.033000E+00	  0.064488977	-1.447710E+02	  0.064488977	1.817800E+01	  0.064488977	-1.394700E+01
224	  0.064689375	-6.034000E+00	  0.064689375	-1.458580E+02	  0.064689375	1.808700E+01	  0.064689375	-1.349800E+01
225	  0.064889781	-6.033000E+00	  0.064889781	-1.469140E+02	  0.064889781	1.799500E+01	  0.064889781	-1.306600E+01
226	  0.065090179	-6.032000E+00	  0.065090179	-1.479940E+02	  0.065090179	1.790600E+01	  0.065090179	-1.262400E+01
227	  0.065290578	-6.028000E+00	  0.065290578	-1.490380E+02	  0.065290578	1.781500E+01	  0.065290578	-1.220100E+01
228	  0.065490983	-6.030000E+00	  0.065490983	-1.500570E+02	  0.065490983	1.774400E+01	  0.065490983	-1.178600E+01
229	  0.065691382	-6.028000E+00	  0.065691382	-1.510740E+02	  0.065691382	1.766500E+01	  0.065691382	-1.137500E+01
230	  0.065891780	-6.021000E+00	  0.065891780	-1.521390E+02	  0.065891780	1.757300E+01	  0.065891780	-1.094800E+01
231	  0.066092186	-6.015000E+00	  0.066092186	-1.531730E+02	  0.066092186	1.749100E+01	  0.066092186	-1.053400E+01
232	  0.066292584	-6.018000E+00	  0.066292584	-1.541670E+02	  0.066292584	1.743400E+01	  0.066292584	-1.013400E+01
233	  0.066492982	-6.015000E+00	  0.066492982	-1.551810E+02	  0.066492982	1.736500E+01	  0.066492982	-9.728000E+00
234	  0.066693388	-6.007000E+00	  0.066693388	-1.562190E+02	  0.066693388	1.728500E+01	  0.066693388	-9.316000E+00
235	  0.066893786	-6.004000E+00	  0.066893786	-1.572150E+02	  0.066893786	1.722200E+01	  0.066893786	-8.920000E+00
236	  0.067094192	-5.999000E+00	  0.067094192	-1.582240E+02	  0.067094192	1.715700E+01	  0.067094192	-8.520000E+00
237	  0.067294590	-5.992000E+00	  0.067294590	-1.592530E+02	  0.067294590	1.708800E+01	  0.067294590	-8.114000E+00
238	  0.067494988	-5.990000E+00	  0.067494988	-1.602700E+02	  0.067494988	1.703400E+01	  0.067494988	-7.711000E+00
239	  0.067695394	-5.983000E+00	  0.067695394	-1.613060E+02	  0.067695394	1.697000E+01	  0.067695394	-7.303000E+00
240	  0.067895792	-5.976000E+00	  0.067895792	-1.623020E+02	  0.067895792	1.691000E+01	  0.067895792	-6.912000E+00
241	  0.068096191	-5.975000E+00	  0.068096191	-1.633080E+02	  0.068096191	1.686800E+01	  0.068096191	-6.515000E+00
242	  0.068296596	-5.971000E+00	  0.068296596	-1.643190E+02	  0.068296596	1.681900E+01	  0.068296596	-6.118000E+00
243	  0.068496995	-5.959000E+00	  0.068496995	-1.653300E+02	  0.068496995	1.675200E+01	  0.068496995	-5.723000E+00
244	  0.068697393	-5.956000E+00	  0.068697393	-1.663330E+02	  0.068697393	1.671400E+01	  0.068697393	-5.330000E+00
245	  0.068897791	-5.953000E+00	  0.068897791	-1.673260E+02	  0.068897791	1.667600E+01	  0.068897791	-4.941000E+00
246	  0.069098189	-5.945000E+00	  0.069098189	-1.683270E+02	  0.069098189	1.662600E+01	  0.069098189	-4.550000E+00
247	  0.069298595	-5.942000E+00	  0.069298595	-1.693290E+02	  0.069298595	1.659400E+01	  0.069298595	-4.158000E+00
248	  0.069498993	-5.938000E+00	  0.069498993	-1.703040E+02	  0.069498993	1.656200E+01	  0.069498993	-3.778000E+00
249	  0.069699399	-5.933000E+00	  0.069699399	-1.713250E+02	  0.069699399	1.652800E+01	  0.069699399	-3.380000E+00
250	  0.069899797	-5.933000E+00	  0.069899797	-1.723080E+02	  0.069899797	1.650800E+01	  0.069899797	-2.996000E+00
251	  0.070100196	-5.936000E+00	  0.070100196	-1.733120E+02	  0.070100196	1.650100E+01	  0.070100196	-2.604000E+00
252	  0.070300601	-5.926000E+00	  0.070300601	-1.743110E+02	  0.070300601	1.646200E+01	  0.070300601	-2.215000E+00
253	  0.070501000	-5.928000E+00	  0.070501000	-1.752920E+02	  0.070501000	1.645400E+01	  0.070501000	-1.833000E+00
254	  0.070701398	-5.924000E+00	  0.070701398	-1.762740E+02	  0.070701398	1.643500E+01	  0.070701398	-1.450000E+00
255	  0.070901804	-5.917000E+00	  0.070901804	-1.772530E+02	  0.070901804	1.641100E+01	  0.070901804	-1.069000E+00
256	  0.071102202	-5.920000E+00	  0.071102202	-1.782720E+02	  0.071102202	1.641200E+01	  0.071102202	-6.720000E-01
257	  0.071302600	-5.916000E+00	  0.071302600	-1.792340E+02	  0.071302600	1.639900E+01	  0.071302600	-2.980000E-01
258	  0.071503006	-5.917000E+00	  0.071503006	1.797820E+02	  0.071503006	1.640200E+01	  0.071503006	8.400000E-02
259	  0.071703404	-5.918000E+00	  0.071703404	1.788020E+02	  0.071703404	1.640600E+01	  0.071703404	4.660000E-01
260	  0.071903802	-5.920000E+00	  0.071903802	1.778550E+02	  0.071903802	1.641400E+01	  0.071903802	8.340000E-01
261	  0.072104208	-5.919000E+00	  0.072104208	1.768850E+02	  0.072104208	1.641700E+01	  0.072104208	1.212000E+00
262	  0.072304606	-5.918000E+00	  0.072304606	1.759240E+02	  0.072304606	1.642300E+01	  0.072304606	1.587000E+00
263	  0.072505005	-5.918000E+00	  0.072505005	1.749620E+02	  0.072505005	1.643300E+01	  0.072505005	1.962000E+00
264	  0.072705410	-5.919000E+00	  0.072705410	1.739970E+02	  0.072705410	1.644700E+01	  0.072705410	2.338000E+00
265	  0.072905809	-5.919000E+00	  0.072905809	1.730640E+02	  0.072905809	1.646200E+01	  0.072905809	2.702000E+00
266	  0.073106214	-5.919000E+00	  0.073106214	1.721150E+02	  0.073106214	1.647700E+01	  0.073106214	3.073000E+00
267	  0.073306613	-5.925000E+00	  0.073306613	1.711670E+02	  0.073306613	1.650900E+01	  0.073306613	3.442000E+00
268	  0.073507011	-5.929000E+00	  0.073507011	1.702050E+02	  0.073507011	1.654000E+01	  0.073507011	3.818000E+00
269	  0.073707417	-5.930000E+00	  0.073707417	1.692910E+02	  0.073707417	1.656400E+01	  0.073707417	4.175000E+00
270	  0.073907815	-5.930000E+00	  0.073907815	1.683500E+02	  0.073907815	1.658800E+01	  0.073907815	4.544000E+00
271	  0.074108213	-5.932000E+00	  0.074108213	1.674300E+02	  0.074108213	1.661800E+01	  0.074108213	4.904000E+00
272	  0.074308619	-5.935000E+00	  0.074308619	1.664850E+02	  0.074308619	1.665300E+01	  0.074308619	5.275000E+00
273	  0.074509017	-5.938000E+00	  0.074509017	1.655540E+02	  0.074509017	1.669100E+01	  0.074509017	5.640000E+00
274	  0.074709415	-5.942000E+00	  0.074709415	1.646180E+02	  0.074709415	1.673300E+01	  0.074709415	6.007000E+00
275	  0.074909821	-5.945000E+00	  0.074909821	1.637040E+02	  0.074909821	1.677400E+01	  0.074909821	6.367000E+00
276	  0.075110219	-5.953000E+00	  0.075110219	1.627770E+02	  0.075110219	1.683200E+01	  0.075110219	6.731000E+00
277	  0.075310618	-5.962000E+00	  0.075310618	1.618850E+02	  0.075310618	1.689100E+01	  0.075310618	7.081000E+00
278	  0.075511023	-5.968000E+00	  0.075511023	1.610040E+02	  0.075511023	1.694300E+01	  0.075511023	7.427000E+00
279	  0.075711422	-5.973000E+00	  0.075711422	1.600950E+02	  0.075711422	1.699700E+01	  0.075711422	7.786000E+00
280	  0.075911827	-5.979000E+00	  0.075911827	1.592010E+02	  0.075911827	1.705500E+01	  0.075911827	8.139000E+00
281	  0.076112226	-5.983000E+00	  0.076112226	1.582840E+02	  0.076112226	1.711300E+01	  0.076112226	8.502000E+00
282	  0.076312624	-5.992000E+00	  0.076312624	1.573950E+02	  0.076312624	1.718200E+01	  0.076312624	8.853000E+00
283	  0.076513030	-6.003000E+00	  0.076513030	1.564820E+02	  0.076513030	1.725900E+01	  0.076513030	9.213000E+00
284	  0.076713428	-6.012000E+00	  0.076713428	1.555550E+02	  0.076713428	1.733600E+01	  0.076713428	9.580000E+00
285	  0.076913826	-6.018000E+00	  0.076913826	1.546740E+02	  0.076913826	1.740400E+01	  0.076913826	9.930000E+00
286	  0.077114232	-6.028000E+00	  0.077114232	1.537650E+02	  0.077114232	1.748600E+01	  0.077114232	1.029100E+01
287	  0.077314630	-6.033000E+00	  0.077314630	1.529100E+02	  0.077314630	1.755400E+01	  0.077314630	1.063200E+01
288	  0.077515028	-6.038000E+00	  0.077515028	1.520490E+02	  0.077515028	1.762500E+01	  0.077515028	1.097700E+01
289	  0.077715434	-6.042000E+00	  0.077715434	1.511730E+02	  0.077715434	1.769600E+01	  0.077715434	1.132800E+01
290	  0.077915832	-6.052000E+00	  0.077915832	1.503070E+02	  0.077915832	1.778500E+01	  0.077915832	1.167400E+01
291	  0.078116231	-6.068000E+00	  0.078116231	1.494270E+02	  0.078116231	1.789100E+01	  0.078116231	1.202300E+01
292	  0.078316636	-6.074000E+00	  0.078316636	1.485650E+02	  0.078316636	1.797500E+01	  0.078316636	1.237000E+01
293	  0.078517035	-6.090000E+00	  0.078517035	1.476780E+02	  0.078517035	1.808700E+01	  0.078517035	1.272300E+01
294	  0.078717433	-6.103000E+00	  0.078717433	1.468200E+02	  0.078717433	1.819100E+01	  0.078717433	1.306600E+01
295	  0.078917839	-6.114000E+00	  0.078917839	1.459580E+02	  0.078917839	1.829400E+01	  0.078917839	1.341200E+01
296	  0.079118237	-6.127000E+00	  0.079118237	1.451250E+02	  0.079118237	1.840100E+01	  0.079118237	1.374600E+01
297	  0.079318643	-6.142000E+00	  0.079318643	1.442740E+02	  0.079318643	1.851900E+01	  0.079318643	1.408700E+01
298	  0.079519041	-6.155000E+00	  0.079519041	1.434160E+02	  0.079519041	1.863400E+01	  0.079519041	1.443200E+01
299	  0.079719439	-6.171000E+00	  0.079719439	1.425670E+02	  0.079719439	1.875900E+01	  0.079719439	1.477200E+01
300	  0.079919845	-6.188000E+00	  0.079919845	1.417340E+02	  0.079919845	1.888600E+01	  0.079919845	1.510500E+01
301	  0.080120243	-6.200000E+00	  0.080120243	1.408670E+02	  0.080120243	1.900700E+01	  0.080120243	1.545700E+01
302	  0.080320641	-6.214000E+00	  0.080320641	1.400350E+02	  0.080320641	1.913000E+01	  0.080320641	1.579300E+01
303	  0.080521047	-6.226000E+00	  0.080521047	1.391990E+02	  0.080521047	1.925500E+01	  0.080521047	1.613200E+01
304	  0.080721445	-6.241000E+00	  0.080721445	1.383460E+02	  0.080721445	1.939000E+01	  0.080721445	1.647800E+01
305	  0.080921844	-6.258000E+00	  0.080921844	1.375020E+02	  0.080921844	1.953100E+01	  0.080921844	1.681800E+01
306	  0.081122249	-6.277000E+00	  0.081122249	1.366880E+02	  0.081122249	1.967700E+01	  0.081122249	1.714600E+01
307	  0.081322648	-6.291000E+00	  0.081322648	1.358630E+02	  0.081322648	1.981500E+01	  0.081322648	1.748200E+01
308	  0.081523046	-6.310000E+00	  0.081523046	1.350310E+02	  0.081523046	1.997100E+01	  0.081523046	1.781700E+01
309	  0.081723452	-6.326000E+00	  0.081723452	1.342430E+02	  0.081723452	2.011400E+01	  0.081723452	1.813700E+01
310	  0.081923850	-6.343000E+00	  0.081923850	1.334190E+02	  0.081923850	2.026900E+01	  0.081923850	1.847100E+01
311	  0.082124248	-6.359000E+00	  0.082124248	1.326240E+02	  0.082124248	2.041800E+01	  0.082124248	1.879500E+01
312	  0.082324654	-6.380000E+00	  0.082324654	1.318190E+02	  0.082324654	2.058500E+01	  0.082324654	1.911900E+01
313	  0.082525052	-6.402000E+00	  0.082525052	1.310320E+02	  0.082525052	2.075600E+01	  0.082525052	1.943500E+01
314	  0.082725458	-6.421000E+00	  0.082725458	1.302890E+02	  0.082725458	2.091600E+01	  0.082725458	1.973400E+01
315	  0.082925856	-6.447000E+00	  0.082925856	1.295000E+02	  0.082925856	2.110600E+01	  0.082925856	2.004700E+01
316	  0.083126254	-6.471000E+00	  0.083126254	1.286960E+02	  0.083126254	2.129400E+01	  0.083126254	2.036800E+01
317	  0.083326660	-6.494000E+00	  0.083326660	1.278850E+02	  0.083326660	2.148500E+01	  0.083326660	2.069400E+01
318	  0.083527058	-6.514000E+00	  0.083527058	1.270890E+02	  0.083527058	2.166600E+01	  0.083527058	2.101600E+01
319	  0.083727457	-6.540000E+00	  0.083727457	1.262850E+02	  0.083727457	2.186900E+01	  0.083727457	2.133600E+01
320	  0.083927862	-6.560000E+00	  0.083927862	1.255090E+02	  0.083927862	2.205500E+01	  0.083927862	2.165000E+01
321	  0.084128261	-6.581000E+00	  0.084128261	1.247460E+02	  0.084128261	2.224100E+01	  0.084128261	2.195800E+01
322	  0.084328659	-6.608000E+00	  0.084328659	1.239950E+02	  0.084328659	2.245000E+01	  0.084328659	2.225300E+01
323	  0.084529065	-6.630000E+00	  0.084529065	1.232380E+02	  0.084529065	2.264700E+01	  0.084529065	2.255700E+01
324	  0.084729463	-6.653000E+00	  0.084729463	1.225200E+02	  0.084729463	2.284100E+01	  0.084729463	2.284300E+01
325	  0.084929861	-6.679000E+00	  0.084929861	1.217600E+02	  0.084929861	2.305600E+01	  0.084929861	2.314300E+01
326	  0.085130267	-6.701000E+00	  0.085130267	1.209970E+02	  0.085130267	2.326400E+01	  0.085130267	2.344900E+01
327	  0.085330658	-6.730000E+00	  0.085330658	1.202880E+02	  0.085330658	2.348500E+01	  0.085330658	2.372300E+01
328	  0.085531056	-6.758000E+00	  0.085531056	1.195540E+02	  0.085531056	2.370900E+01	  0.085531056	2.400900E+01
329	  0.085731462	-6.784000E+00	  0.085731462	1.188620E+02	  0.085731462	2.392400E+01	  0.085731462	2.427800E+01
330	  0.085931860	-6.811000E+00	  0.085931860	1.181580E+02	  0.085931860	2.414600E+01	  0.085931860	2.455200E+01
331	  0.086132258	-6.842000E+00	  0.086132258	1.174730E+02	  0.086132258	2.437800E+01	  0.086132258	2.481000E+01
332	  0.086332664	-6.869000E+00	  0.086332664	1.168250E+02	  0.086332664	2.459400E+01	  0.086332664	2.505800E+01
333	  0.086533062	-6.904000E+00	  0.086533062	1.161300E+02	  0.086533062	2.484800E+01	  0.086533062	2.531300E+01
334	  0.086733460	-6.927000E+00	  0.086733460	1.154460E+02	  0.086733460	2.506600E+01	  0.086733460	2.558100E+01
335	  0.086933866	-6.952000E+00	  0.086933866	1.147920E+02	  0.086933866	2.528600E+01	  0.086933866	2.583200E+01
336	  0.087134264	-6.976000E+00	  0.087134264	1.141140E+02	  0.087134264	2.551200E+01	  0.087134264	2.609500E+01
337	  0.087334670	-6.999000E+00	  0.087334670	1.134300E+02	  0.087334670	2.573900E+01	  0.087334670	2.636200E+01
338	  0.087535068	-7.022000E+00	  0.087535068	1.128130E+02	  0.087535068	2.595600E+01	  0.087535068	2.659700E+01
339	  0.087735467	-7.041000E+00	  0.087735467	1.121640E+02	  0.087735467	2.616800E+01	  0.087735467	2.685500E+01
340	  0.087935872	-7.064000E+00	  0.087935872	1.115100E+02	  0.087935872	2.639700E+01	  0.087935872	2.710700E+01
341	  0.088136271	-7.080000E+00	  0.088136271	1.108920E+02	  0.088136271	2.660100E+01	  0.088136271	2.735300E+01
342	  0.088336669	-7.098000E+00	  0.088336669	1.102360E+02	  0.088336669	2.682200E+01	  0.088336669	2.761400E+01
343	  0.088537075	-7.116000E+00	  0.088537075	1.095870E+02	  0.088537075	2.704200E+01	  0.088537075	2.787200E+01
344	  0.088737473	-7.124000E+00	  0.088737473	1.089350E+02	  0.088737473	2.723800E+01	  0.088737473	2.814800E+01
345	  0.088937871	-7.140000E+00	  0.088937871	1.082880E+02	  0.088937871	2.746200E+01	  0.088937871	2.840700E+01
346	  0.089138277	-7.152000E+00	  0.089138277	1.076330E+02	  0.089138277	2.767700E+01	  0.089138277	2.867700E+01
347	  0.089338675	-7.172000E+00	  0.089338675	1.069940E+02	  0.089338675	2.791300E+01	  0.089338675	2.892700E+01
348	  0.089539073	-7.194000E+00	  0.089539073	1.063230E+02	  0.089539073	2.816900E+01	  0.089539073	2.918500E+01
349	  0.089739479	-7.224000E+00	  0.089739479	1.056700E+02	  0.089739479	2.844700E+01	  0.089739479	2.941800E+01
350	  0.089939877	-7.242000E+00	  0.089939877	1.049790E+02	  0.089939877	2.870300E+01	  0.089939877	2.969200E+01
351	  0.090140276	-7.272000E+00	  0.090140276	1.042940E+02	  0.090140276	2.899800E+01	  0.090140276	2.993700E+01
352	  0.090340681	-7.294000E+00	  0.090340681	1.036090E+02	  0.090340681	2.927200E+01	  0.090340681	3.019900E+01
353	  0.090541080	-7.324000E+00	  0.090541080	1.029270E+02	  0.090541080	2.957200E+01	  0.090541080	3.044200E+01
354	  0.090741485	-7.353000E+00	  0.090741485	1.022460E+02	  0.090741485	2.987300E+01	  0.090741485	3.068400E+01
355	  0.090941884	-7.373000E+00	  0.090941884	1.015980E+02	  0.090941884	3.014200E+01	  0.090941884	3.092800E+01
356	  0.091142282	-7.410000E+00	  0.091142282	1.009050E+02	  0.091142282	3.047700E+01	  0.091142282	3.115700E+01
357	  0.091342688	-7.434000E+00	  0.091342688	1.002500E+02	  0.091342688	3.076600E+01	  0.091342688	3.139500E+01
358	  0.091543086	-7.470000E+00	  0.091543086	9.960100E+01	  0.091543086	3.109300E+01	  0.091543086	3.160100E+01
359	  0.091743484	-7.498000E+00	  0.091743484	9.897400E+01	  0.091743484	3.139100E+01	  0.091743484	3.181300E+01
360	  0.091943890	-7.524000E+00	  0.091943890	9.832700E+01	  0.091943890	3.169300E+01	  0.091943890	3.203900E+01
361	  0.092144288	-7.555000E+00	  0.092144288	9.766000E+01	  0.092144288	3.202200E+01	  0.092144288	3.225900E+01
362	  0.092344686	-7.586000E+00	  0.092344686	9.705800E+01	  0.092344686	3.233000E+01	  0.092344686	3.244800E+01
363	  0.092545092	-7.614000E+00	  0.092545092	9.643500E+01	  0.092545092	3.264000E+01	  0.092545092	3.265300E+01
364	  0.092745490	-7.649000E+00	  0.092745490	9.582600E+01	  0.092745490	3.297100E+01	  0.092745490	3.283000E+01
365	  0.092945889	-7.682000E+00	  0.092945889	9.523100E+01	  0.092945889	3.328900E+01	  0.092945889	3.300800E+01
366	  0.093146294	-7.721000E+00	  0.093146294	9.461800E+01	  0.093146294	3.363900E+01	  0.093146294	3.317200E+01
367	  0.093346693	-7.754000E+00	  0.093346693	9.406300E+01	  0.093346693	3.395100E+01	  0.093346693	3.332500E+01
368	  0.093547091	-7.784000E+00	  0.093547091	9.345400E+01	  0.093547091	3.427600E+01	  0.093547091	3.350800E+01
369	  0.093747497	-7.817000E+00	  0.093747497	9.286500E+01	  0.093747497	3.460900E+01	  0.093747497	3.366900E+01
370	  0.093947895	-7.851000E+00	  0.093947895	9.226200E+01	  0.093947895	3.494900E+01	  0.093947895	3.383600E+01
371	  0.094148301	-7.891000E+00	  0.094148301	9.169700E+01	  0.094148301	3.529600E+01	  0.094148301	3.396300E+01
372	  0.094348699	-7.918000E+00	  0.094348699	9.112800E+01	  0.094348699	3.561100E+01	  0.094348699	3.412600E+01
373	  0.094549097	-7.957000E+00	  0.094549097	9.054200E+01	  0.094549097	3.596700E+01	  0.094549097	3.426200E+01
374	  0.094749503	-7.989000E+00	  0.094749503	8.999600E+01	  0.094749503	3.629300E+01	  0.094749503	3.439400E+01
375	  0.094949901	-8.023000E+00	  0.094949901	8.947300E+01	  0.094949901	3.661300E+01	  0.094949901	3.451200E+01
376	  0.095150299	-8.050000E+00	  0.095150299	8.892000E+01	  0.095150299	3.693100E+01	  0.095150299	3.466000E+01
377	  0.095350705	-8.084000E+00	  0.095350705	8.839300E+01	  0.095350705	3.725900E+01	  0.095350705	3.477400E+01
378	  0.095551103	-8.108000E+00	  0.095551103	8.786500E+01	  0.095551103	3.756500E+01	  0.095551103	3.491300E+01
379	  0.095751502	-8.145000E+00	  0.095751502	8.735700E+01	  0.095751502	3.789500E+01	  0.095751502	3.500600E+01
380	  0.095951907	-8.171000E+00	  0.095951907	8.686000E+01	  0.095951907	3.819700E+01	  0.095951907	3.512300E+01
381	  0.096152306	-8.206000E+00	  0.096152306	8.635500E+01	  0.096152306	3.852500E+01	  0.096152306	3.521500E+01
382	  0.096352704	-8.243000E+00	  0.096352704	8.589800E+01	  0.096352704	3.883700E+01	  0.096352704	3.527800E+01
383	  0.096553110	-8.278000E+00	  0.096553110	8.540800E+01	  0.096553110	3.916300E+01	  0.096553110	3.535800E+01
384	  0.096753508	-8.304000E+00	  0.096753508	8.493700E+01	  0.096753508	3.945900E+01	  0.096753508	3.545500E+01
385	  0.096953906	-8.342000E+00	  0.096953906	8.449200E+01	  0.096953906	3.977300E+01	  0.096953906	3.550200E+01
386	  0.097154312	-8.371000E+00	  0.097154312	8.400600E+01	  0.097154312	4.008500E+01	  0.097154312	3.559200E+01
387	  0.097354710	-8.405000E+00	  0.097354710	8.355700E+01	  0.097354710	4.039500E+01	  0.097354710	3.564800E+01
388	  0.097555116	-8.438000E+00	  0.097555116	8.309400E+01	  0.097555116	4.070900E+01	  0.097555116	3.571000E+01
389	  0.097755514	-8.472000E+00	  0.097755514	8.263700E+01	  0.097755514	4.102500E+01	  0.097755514	3.576300E+01
390	  0.097955912	-8.503000E+00	  0.097955912	8.223000E+01	  0.097955912	4.130900E+01	  0.097955912	3.580500E+01
391	  0.098156318	-8.534000E+00	  0.098156318	8.174300E+01	  0.098156318	4.163400E+01	  0.098156318	3.587700E+01
392	  0.098356716	-8.561000E+00	  0.098356716	8.135000E+01	  0.098356716	4.190300E+01	  0.098356716	3.592400E+01
393	  0.098557115	-8.591000E+00	  0.098557115	8.092600E+01	  0.098557115	4.219700E+01	  0.098557115	3.596900E+01
394	  0.098757520	-8.616000E+00	  0.098757520	8.052000E+01	  0.098757520	4.247100E+01	  0.098757520	3.602400E+01
395	  0.098957919	-8.643000E+00	  0.098957919	8.011300E+01	  0.098957919	4.275100E+01	  0.098957919	3.606800E+01
396	  0.099158317	-8.668000E+00	  0.099158317	7.973600E+01	  0.099158317	4.301000E+01	  0.099158317	3.610900E+01
397	  0.099358723	-8.696000E+00	  0.099358723	7.932100E+01	  0.099358723	4.330000E+01	  0.099358723	3.614800E+01
398	  0.099559121	-8.722000E+00	  0.099559121	7.892700E+01	  0.099559121	4.357200E+01	  0.099559121	3.618800E+01
399	  0.099759519	-8.750000E+00	  0.099759519	7.859400E+01	  0.099759519	4.381800E+01	  0.099759519	3.619600E+01
400	  0.099959925	-8.770000E+00	  0.099959925	7.826900E+01	  0.099959925	4.404200E+01	  0.099959925	3.622900E+01
401	  0.100160323	-8.791000E+00	  0.100160323	7.787300E+01	  0.100160323	4.430900E+01	  0.100160323	3.627900E+01
402	  0.100360721	-8.820000E+00	  0.100360721	7.751900E+01	  0.100360721	4.457000E+01	  0.100360721	3.628400E+01
403	  0.100561127	-8.836000E+00	  0.100561127	7.712800E+01	  0.100561127	4.482500E+01	  0.100561127	3.635000E+01
404	  0.100761525	-8.847000E+00	  0.100761525	7.678900E+01	  0.100761525	4.504200E+01	  0.100761525	3.641400E+01
405	  0.100961931	-8.879000E+00	  0.100961931	7.643600E+01	  0.100961931	4.530800E+01	  0.100961931	3.640600E+01
406	  0.101162329	-8.891000E+00	  0.101162329	7.606700E+01	  0.101162329	4.554700E+01	  0.101162329	3.647100E+01
407	  0.101362728	-8.916000E+00	  0.101362728	7.572700E+01	  0.101362728	4.579400E+01	  0.101362728	3.648000E+01
408	  0.101563133	-8.933000E+00	  0.101563133	7.539300E+01	  0.101563133	4.602500E+01	  0.101563133	3.651300E+01
409	  0.101763532	-8.948000E+00	  0.101763532	7.503800E+01	  0.101763532	4.626300E+01	  0.101763532	3.656100E+01
410	  0.101963930	-8.955000E+00	  0.101963930	7.472000E+01	  0.101963930	4.646500E+01	  0.101963930	3.662800E+01
411	  0.102164336	-8.975000E+00	  0.102164336	7.437100E+01	  0.102164336	4.671100E+01	  0.102164336	3.665100E+01
412	  0.102364734	-8.985000E+00	  0.102364734	7.401000E+01	  0.102364734	4.694500E+01	  0.102364734	3.671800E+01
413	  0.102565132	-8.994000E+00	  0.102565132	7.367200E+01	  0.102565132	4.716700E+01	  0.102565132	3.677600E+01
414	  0.102765530	-9.001000E+00	  0.102765530	7.340900E+01	  0.102765530	4.734100E+01	  0.102765530	3.682200E+01
415	  0.102965929	-9.006000E+00	  0.102965929	7.307400E+01	  0.102965929	4.755400E+01	  0.102965929	3.689600E+01
416	  0.103166327	-9.014000E+00	  0.103166327	7.273800E+01	  0.103166327	4.777600E+01	  0.103166327	3.695700E+01
417	  0.103366733	-9.018000E+00	  0.103366733	7.238500E+01	  0.103366733	4.800100E+01	  0.103366733	3.703800E+01
418	  0.103567131	-9.017000E+00	  0.103567131	7.206900E+01	  0.103567131	4.819600E+01	  0.103567131	3.712800E+01
419	  0.103767529	-9.020000E+00	  0.103767529	7.178900E+01	  0.103767529	4.837500E+01	  0.103767529	3.719300E+01
420	  0.103967935	-9.020000E+00	  0.103967935	7.142900E+01	  0.103967935	4.860200E+01	  0.103967935	3.729100E+01
421	  0.104168333	-9.023000E+00	  0.104168333	7.102300E+01	  0.104168333	4.886600E+01	  0.104168333	3.738500E+01
422	  0.104368731	-9.020000E+00	  0.104368731	7.070200E+01	  0.104368731	4.906700E+01	  0.104368731	3.748000E+01
423	  0.104569137	-9.022000E+00	  0.104569137	7.032000E+01	  0.104569137	4.931500E+01	  0.104569137	3.757300E+01
424	  0.104769535	-9.017000E+00	  0.104769535	6.995400E+01	  0.104769535	4.954500E+01	  0.104769535	3.768700E+01
425	  0.104969934	-9.013000E+00	  0.104969934	6.962700E+01	  0.104969934	4.975200E+01	  0.104969934	3.778900E+01
426	  0.105170339	-9.002000E+00	  0.105170339	6.919500E+01	  0.105170339	5.001900E+01	  0.105170339	3.794300E+01
427	  0.105370738	-9.002000E+00	  0.105370738	6.887500E+01	  0.105370738	5.023100E+01	  0.105370738	3.802400E+01
428	  0.105571143	-8.982000E+00	  0.105571143	6.844000E+01	  0.105571143	5.049100E+01	  0.105571143	3.821900E+01
429	  0.105771542	-8.969000E+00	  0.105771542	6.805500E+01	  0.105771542	5.073000E+01	  0.105771542	3.837200E+01
430	  0.105971940	-8.947000E+00	  0.105971940	6.762100E+01	  0.105971940	5.099100E+01	  0.105971940	3.857600E+01
431	  0.106172346	-8.946000E+00	  0.106172346	6.718300E+01	  0.106172346	5.129100E+01	  0.106172346	3.868800E+01
432	  0.106372744	-8.928000E+00	  0.106372744	6.677500E+01	  0.106372744	5.154700E+01	  0.106372744	3.886800E+01
433	  0.106573142	-8.912000E+00	  0.106573142	6.631300E+01	  0.106573142	5.184800E+01	  0.106573142	3.904800E+01
434	  0.106773548	-8.896000E+00	  0.106773548	6.593800E+01	  0.106773548	5.208900E+01	  0.106773548	3.921100E+01
435	  0.106973946	-8.881000E+00	  0.106973946	6.548700E+01	  0.106973946	5.238900E+01	  0.106973946	3.938800E+01
436	  0.107174344	-8.868000E+00	  0.107174344	6.501500E+01	  0.107174344	5.271100E+01	  0.107174344	3.955600E+01
437	  0.107374750	-8.838000E+00	  0.107374750	6.455700E+01	  0.107374750	5.300200E+01	  0.107374750	3.980400E+01
438	  0.107575148	-8.829000E+00	  0.107575148	6.401400E+01	  0.107575148	5.339200E+01	  0.107575148	3.996400E+01
439	  0.107775547	-8.804000E+00	  0.107775547	6.348900E+01	  0.107775547	5.375000E+01	  0.107775547	4.020200E+01
440	  0.107975952	-8.785000E+00	  0.107975952	6.300400E+01	  0.107975952	5.409100E+01	  0.107975952	4.039900E+01
441	  0.108176351	-8.765000E+00	  0.108176351	6.252000E+01	  0.108176351	5.443500E+01	  0.108176351	4.060300E+01
442	  0.108376749	-8.745000E+00	  0.108376749	6.201400E+01	  0.108376749	5.480000E+01	  0.108376749	4.081000E+01
443	  0.108577155	-8.724000E+00	  0.108577155	6.150800E+01	  0.108577155	5.517000E+01	  0.108577155	4.102100E+01
444	  0.108777553	-8.704000E+00	  0.108777553	6.095400E+01	  0.108777553	5.558400E+01	  0.108777553	4.123300E+01
445	  0.108977959	-8.696000E+00	  0.108977959	6.040200E+01	  0.108977959	5.601900E+01	  0.108977959	4.138000E+01
446	  0.109178357	-8.661000E+00	  0.109178357	5.982400E+01	  0.109178357	5.644700E+01	  0.109178357	4.167500E+01
447	  0.109378755	-8.636000E+00	  0.109378755	5.927200E+01	  0.109378755	5.687400E+01	  0.109378755	4.191200E+01
448	  0.109579161	-8.614000E+00	  0.109579161	5.870800E+01	  0.109579161	5.732100E+01	  0.109579161	4.213400E+01
449	  0.109779559	-8.597000E+00	  0.109779559	5.807600E+01	  0.109779559	5.783800E+01	  0.109779559	4.233300E+01
450	  0.109979957	-8.584000E+00	  0.109979957	5.748900E+01	  0.109979957	5.832900E+01	  0.109979957	4.250300E+01
451	  0.110180363	-8.565000E+00	  0.110180363	5.690400E+01	  0.110180363	5.881900E+01	  0.110180363	4.270200E+01
452	  0.110380761	-8.543000E+00	  0.110380761	5.626700E+01	  0.110380761	5.936100E+01	  0.110380761	4.292300E+01
453	  0.110581160	-8.521000E+00	  0.110581160	5.562700E+01	  0.110581160	5.991400E+01	  0.110581160	4.314200E+01
454	  0.110781565	-8.506000E+00	  0.110781565	5.496100E+01	  0.110781565	6.050500E+01	  0.110781565	4.332200E+01
455	  0.110981964	-8.492000E+00	  0.110981964	5.428700E+01	  0.110981964	6.111600E+01	  0.110981964	4.348500E+01
456	  0.111182362	-8.469000E+00	  0.111182362	5.360100E+01	  0.111182362	6.174000E+01	  0.111182362	4.370100E+01
457	  0.111382768	-8.460000E+00	  0.111382768	5.297000E+01	  0.111382768	6.233300E+01	  0.111382768	4.382300E+01
458	  0.111583166	-8.447000E+00	  0.111583166	5.230600E+01	  0.111583166	6.296200E+01	  0.111583166	4.396200E+01
459	  0.111783572	-8.438000E+00	  0.111783572	5.157500E+01	  0.111783572	6.366800E+01	  0.111783572	4.407600E+01
460	  0.111983970	-8.423000E+00	  0.111983970	5.085700E+01	  0.111983970	6.437100E+01	  0.111983970	4.421700E+01
461	  0.112184368	-8.413000E+00	  0.112184368	5.013700E+01	  0.112184368	6.508800E+01	  0.112184368	4.431500E+01
462	  0.112384774	-8.401000E+00	  0.112384774	4.934600E+01	  0.112384774	6.588800E+01	  0.112384774	4.442300E+01
463	  0.112585172	-8.399000E+00	  0.112585172	4.860500E+01	  0.112585172	6.665000E+01	  0.112585172	4.444700E+01
464	  0.112785570	-8.387000E+00	  0.112785570	4.778100E+01	  0.112785570	6.750900E+01	  0.112785570	4.452600E+01
465	  0.112985976	-8.381000E+00	  0.112985976	4.705000E+01	  0.112985976	6.828100E+01	  0.112985976	4.455300E+01
466	  0.113186374	-8.380000E+00	  0.113186374	4.626200E+01	  0.113186374	6.912300E+01	  0.113186374	4.452700E+01
467	  0.113386773	-8.382000E+00	  0.113386773	4.548600E+01	  0.113386773	6.996000E+01	  0.113386773	4.446500E+01
468	  0.113587178	-8.375000E+00	  0.113587178	4.466600E+01	  0.113587178	7.086000E+01	  0.113587178	4.444600E+01
469	  0.113787577	-8.377000E+00	  0.113787577	4.385700E+01	  0.113787577	7.175300E+01	  0.113787577	4.434400E+01
470	  0.113987975	-8.375000E+00	  0.113987975	4.298500E+01	  0.113987975	7.272800E+01	  0.113987975	4.424100E+01
471	  0.114188381	-8.371000E+00	  0.114188381	4.214800E+01	  0.114188381	7.367800E+01	  0.114188381	4.414000E+01
472	  0.114388779	-8.374000E+00	  0.114388779	4.130400E+01	  0.114388779	7.463600E+01	  0.114388779	4.396000E+01
473	  0.114589177	-8.386000E+00	  0.114589177	4.041300E+01	  0.114589177	7.564200E+01	  0.114589177	4.367700E+01
474	  0.114789583	-8.386000E+00	  0.114789583	3.957800E+01	  0.114789583	7.661000E+01	  0.114789583	4.347500E+01
475	  0.114989981	-8.396000E+00	  0.114989981	3.869200E+01	  0.114989981	7.762500E+01	  0.114989981	4.315300E+01
476	  0.115190387	-8.404000E+00	  0.115190387	3.780700E+01	  0.115190387	7.864700E+01	  0.115190387	4.282100E+01
477	  0.115390785	-8.417000E+00	  0.115390785	3.686500E+01	  0.115390785	7.972900E+01	  0.115390785	4.240400E+01
478	  0.115591183	-8.427000E+00	  0.115591183	3.592600E+01	  0.115591183	8.081200E+01	  0.115591183	4.196600E+01
479	  0.115791589	-8.437000E+00	  0.115791589	3.501900E+01	  0.115791589	8.186100E+01	  0.115791589	4.151600E+01
480	  0.115991987	-8.452000E+00	  0.115991987	3.409900E+01	  0.115991987	8.290800E+01	  0.115991987	4.098300E+01
481	  0.116192386	-8.464000E+00	  0.116192386	3.315400E+01	  0.116192386	8.398800E+01	  0.116192386	4.042300E+01
482	  0.116392791	-8.489000E+00	  0.116392791	3.216100E+01	  0.116392791	8.507700E+01	  0.116392791	3.970700E+01
483	  0.116593190	-8.505000E+00	  0.116593190	3.115900E+01	  0.116593190	8.619500E+01	  0.116593190	3.900800E+01
484	  0.116793588	-8.522000E+00	  0.116793588	3.022700E+01	  0.116793588	8.721400E+01	  0.116793588	3.830000E+01
485	  0.116993994	-8.551000E+00	  0.116993994	2.918200E+01	  0.116993994	8.830100E+01	  0.116993994	3.739200E+01
486	  0.117194392	-8.577000E+00	  0.117194392	2.814300E+01	  0.117194392	8.937100E+01	  0.117194392	3.646600E+01
487	  0.117394790	-8.600000E+00	  0.117394790	2.711400E+01	  0.117394790	9.041900E+01	  0.117394790	3.552300E+01
488	  0.117595196	-8.629000E+00	  0.117595196	2.604000E+01	  0.117595196	9.145800E+01	  0.117595196	3.445500E+01
489	  0.117795594	-8.662000E+00	  0.117795594	2.494300E+01	  0.117795594	9.247300E+01	  0.117795594	3.330300E+01
490	  0.117995992	-8.696000E+00	  0.117995992	2.385100E+01	  0.117995992	9.343000E+01	  0.117995992	3.209400E+01
491	  0.118196398	-8.740000E+00	  0.118196398	2.279700E+01	  0.118196398	9.424900E+01	  0.118196398	3.082000E+01
492	  0.118396796	-8.780000E+00	  0.118396796	2.158700E+01	  0.118396796	9.519400E+01	  0.118396796	2.937800E+01
493	  0.118597202	-8.821000E+00	  0.118597202	2.046400E+01	  0.118597202	9.599800E+01	  0.118597202	2.798400E+01
494	  0.118797600	-8.863000E+00	  0.118797600	1.927800E+01	  0.118797600	9.679000E+01	  0.118797600	2.647500E+01
495	  0.118997999	-8.917000E+00	  0.118997999	1.805600E+01	  0.118997999	9.746400E+01	  0.118997999	2.482700E+01
496	  0.119198404	-8.967000E+00	  0.119198404	1.685100E+01	  0.119198404	9.807800E+01	  0.119198404	2.319300E+01
497	  0.119398803	-9.020000E+00	  0.119398803	1.560000E+01	  0.119398803	9.862600E+01	  0.119398803	2.146500E+01
498	  0.119599201	-9.086000E+00	  0.119599201	1.436100E+01	  0.119599201	9.898800E+01	  0.119599201	1.967900E+01
499	  0.119799607	-9.157000E+00	  0.119799607	1.307200E+01	  0.119799607	9.925600E+01	  0.119799607	1.780700E+01
500	  0.120000005	-9.220000E+00	  0.120000005	1.174500E+01	  0.120000005	9.951800E+01	  0.120000005	1.592000E+01
