! Anritsu VNA Master:             	Model: MS2036C/10/77
! SN:             	1601066
! /bd0/18may09/b252.ns.m1.txt
! Existing Calibration Information:
! TYPE:             	Current Settings	Active Cal Settings
! TIME:             	05/09/2018 09:44:52 PM	05/09/2018 09:39:16 PM
! INTERNAL TEMP:    	49.5 C	49.8 C
! # POINTS:         	494	494
! START FREQ:       	20.000 MHz	20.000 MHz
! STOP FREQ:        	118.797 594 MHz	118.797 594 MHz
! SOURCE POWER:     	High	High
! IFBW:             	50 Hz	50 Hz
! AVG FACTOR:       	  1 	  1 
! REF PLANE 1:      	0 mm	0 mm
! REF PLANE 2:      	0 mm	0 mm
! CAL TYPE:         	Full S22	Full S22
! CAL METHOD:       	SOLT	SOLT
! CAL LINE TYPE:    	Coax	Coax
! DUT PORT 1:       	K-Conn(M)	K-Conn(M)
! DUT PORT 2:       	K-Conn(M)	K-Conn(M)
! CAL STATUS:       	OK: Accuracy High	--
! PROP-V:       	0.700
! CABLE LOSS:       	0.000 dB/m
! REF IMPEDANCE:       	50.0
! Trace Specific Parameters:	TR1	TR2	TR3	TR4
! TRACE.#.Y (GRAPH TYPE)	LOG MAG	PHASE	REAL IMPEDANCE	IMAGINARY IMPEDANCE
! TRACE.#.X 	FREQ.GHZ	FREQ.GHZ	FREQ.GHZ	FREQ.GHZ
! S-PARAMETER	S22	S22	S22	S22
! SMOOTH/APERTURE %	0	0	0	0
! WINDOW	NSL	NSL	NSL	NSL
! GATING	OFF	OFF	OFF	OFF
! FGTD	OFF	OFF	OFF	OFF
Marker Information per Trace:	TR1	TR2	TR3	TR4
!MK1	--	"MK1 TR2:  20.000 MHz,PH:-125.29°"	--	--
!MK2	--	--	"MK2 TR3:  70.100 200 MHz,Z:(16.552 ohm, -1.591 ohm)"	--
!MK3	--	--	--	--
!MK4	--	--	--	--
!MK5	--	--	--	--
!MK6	--	--	--	--
!MK7	--	--	--	--
!MK8	--	--	--	--
PNT	TR1.FREQ.GHZ	TR1.LOG MAG.dB	TR2.FREQ.GHZ	TR2.PHASE.deg	TR3.FREQ.GHZ	TR3.REAL IMPEDANCE.ohm	TR4.FREQ.GHZ	TR4.IMAGINARY IMPEDANCE.ohm
1	  0.020000000	-6.160000E-01	  0.020000000	-1.252860E+02	  0.020000000	2.248000E+00	  0.020000000	-2.582800E+01
2	  0.020200402	-6.200000E-01	  0.020200402	-1.267210E+02	  0.020200402	2.232000E+00	  0.020200402	-2.504100E+01
3	  0.020400802	-6.220000E-01	  0.020400802	-1.281730E+02	  0.020400802	2.213000E+00	  0.020400802	-2.425400E+01
4	  0.020601204	-6.280000E-01	  0.020601204	-1.296470E+02	  0.020601204	2.206000E+00	  0.020601204	-2.346500E+01
5	  0.020801604	-6.310000E-01	  0.020801604	-1.311490E+02	  0.020801604	2.191000E+00	  0.020801604	-2.267100E+01
6	  0.021002004	-6.340000E-01	  0.021002004	-1.326490E+02	  0.021002004	2.176000E+00	  0.021002004	-2.188700E+01
7	  0.021202406	-6.380000E-01	  0.021202406	-1.341500E+02	  0.021202406	2.165000E+00	  0.021202406	-2.111200E+01
8	  0.021402806	-6.400000E-01	  0.021402806	-1.356650E+02	  0.021402806	2.147000E+00	  0.021402806	-2.033900E+01
9	  0.021603208	-6.430000E-01	  0.021603208	-1.371490E+02	  0.021603208	2.135000E+00	  0.021603208	-1.958800E+01
10	  0.021803608	-6.480000E-01	  0.021803608	-1.386360E+02	  0.021803608	2.132000E+00	  0.021803608	-1.884500E+01
11	  0.022004008	-6.540000E-01	  0.022004008	-1.401570E+02	  0.022004008	2.131000E+00	  0.022004008	-1.809100E+01
12	  0.022204408	-6.620000E-01	  0.022204408	-1.416770E+02	  0.022204408	2.134000E+00	  0.022204408	-1.734500E+01
13	  0.022404809	-6.650000E-01	  0.022404809	-1.432330E+02	  0.022404809	2.125000E+00	  0.022404809	-1.658900E+01
14	  0.022605211	-6.710000E-01	  0.022605211	-1.447940E+02	  0.022605211	2.127000E+00	  0.022605211	-1.583700E+01
15	  0.022805611	-6.740000E-01	  0.022805611	-1.463420E+02	  0.022805611	2.119000E+00	  0.022805611	-1.509800E+01
16	  0.023006011	-6.800000E-01	  0.023006011	-1.479000E+02	  0.023006011	2.119000E+00	  0.023006011	-1.436000E+01
17	  0.023206413	-6.850000E-01	  0.023206413	-1.494630E+02	  0.023206413	2.118000E+00	  0.023206413	-1.362500E+01
18	  0.023406813	-6.890000E-01	  0.023406813	-1.510070E+02	  0.023406813	2.116000E+00	  0.023406813	-1.290500E+01
19	  0.023607215	-6.970000E-01	  0.023607215	-1.525780E+02	  0.023607215	2.124000E+00	  0.023607215	-1.217700E+01
20	  0.023807615	-7.070000E-01	  0.023807615	-1.541670E+02	  0.023807615	2.143000E+00	  0.023807615	-1.144600E+01
21	  0.024008015	-7.140000E-01	  0.024008015	-1.557800E+02	  0.024008015	2.148000E+00	  0.024008015	-1.070800E+01
22	  0.024208417	-7.210000E-01	  0.024208417	-1.574210E+02	  0.024208417	2.158000E+00	  0.024208417	-9.963000E+00
23	  0.024408817	-7.250000E-01	  0.024408817	-1.590620E+02	  0.024408817	2.158000E+00	  0.024408817	-9.222000E+00
24	  0.024609219	-7.330000E-01	  0.024609219	-1.606980E+02	  0.024609219	2.169000E+00	  0.024609219	-8.487000E+00
25	  0.024809619	-7.420000E-01	  0.024809619	-1.623360E+02	  0.024809619	2.188000E+00	  0.024809619	-7.754000E+00
26	  0.025010020	-7.510000E-01	  0.025010020	-1.639830E+02	  0.025010020	2.203000E+00	  0.025010020	-7.020000E+00
27	  0.025210422	-7.620000E-01	  0.025210422	-1.656430E+02	  0.025210422	2.227000E+00	  0.025210422	-6.284000E+00
28	  0.025410822	-7.730000E-01	  0.025410822	-1.673120E+02	  0.025410822	2.252000E+00	  0.025410822	-5.547000E+00
29	  0.025611224	-7.840000E-01	  0.025611224	-1.690090E+02	  0.025611224	2.277000E+00	  0.025611224	-4.800000E+00
30	  0.025811624	-7.960000E-01	  0.025811624	-1.707050E+02	  0.025811624	2.305000E+00	  0.025811624	-4.055000E+00
31	  0.026012026	-8.050000E-01	  0.026012026	-1.724180E+02	  0.026012026	2.328000E+00	  0.026012026	-3.305000E+00
32	  0.026212426	-8.160000E-01	  0.026212426	-1.741240E+02	  0.026212426	2.354000E+00	  0.026212426	-2.560000E+00
33	  0.026412826	-8.300000E-01	  0.026412826	-1.758500E+02	  0.026412826	2.391000E+00	  0.026412826	-1.807000E+00
34	  0.026613226	-8.450000E-01	  0.026613226	-1.775760E+02	  0.026613226	2.432000E+00	  0.026613226	-1.055000E+00
35	  0.026813626	-8.610000E-01	  0.026813626	-1.793230E+02	  0.026813626	2.476000E+00	  0.026813626	-2.940000E-01
36	  0.027014028	-8.770000E-01	  0.027014028	1.789290E+02	  0.027014028	2.523000E+00	  0.027014028	4.650000E-01
37	  0.027214428	-8.930000E-01	  0.027214428	1.771860E+02	  0.027214428	2.572000E+00	  0.027214428	1.224000E+00
38	  0.027414829	-9.110000E-01	  0.027414829	1.754170E+02	  0.027414829	2.625000E+00	  0.027414829	1.995000E+00
39	  0.027615231	-9.280000E-01	  0.027615231	1.736300E+02	  0.027615231	2.678000E+00	  0.027615231	2.774000E+00
40	  0.027815631	-9.470000E-01	  0.027815631	1.718510E+02	  0.027815631	2.739000E+00	  0.027815631	3.550000E+00
41	  0.028016033	-9.680000E-01	  0.028016033	1.700500E+02	  0.028016033	2.806000E+00	  0.028016033	4.338000E+00
42	  0.028216433	-9.900000E-01	  0.028216433	1.682400E+02	  0.028216433	2.879000E+00	  0.028216433	5.132000E+00
43	  0.028416833	-1.013000E+00	  0.028416833	1.664290E+02	  0.028416833	2.953000E+00	  0.028416833	5.928000E+00
44	  0.028617235	-1.034000E+00	  0.028617235	1.646020E+02	  0.028617235	3.028000E+00	  0.028617235	6.734000E+00
45	  0.028817635	-1.059000E+00	  0.028817635	1.627920E+02	  0.028817635	3.114000E+00	  0.028817635	7.536000E+00
46	  0.029018037	-1.085000E+00	  0.029018037	1.609650E+02	  0.029018037	3.208000E+00	  0.029018037	8.348000E+00
47	  0.029218437	-1.113000E+00	  0.029218437	1.591150E+02	  0.029218437	3.309000E+00	  0.029218437	9.175000E+00
48	  0.029418837	-1.142000E+00	  0.029418837	1.572630E+02	  0.029418837	3.416000E+00	  0.029418837	1.000700E+01
49	  0.029619239	-1.172000E+00	  0.029619239	1.553910E+02	  0.029619239	3.529000E+00	  0.029619239	1.085300E+01
50	  0.029819639	-1.202000E+00	  0.029819639	1.535210E+02	  0.029819639	3.645000E+00	  0.029819639	1.170400E+01
51	  0.030020041	-1.232000E+00	  0.030020041	1.516380E+02	  0.030020041	3.767000E+00	  0.030020041	1.256600E+01
52	  0.030220442	-1.264000E+00	  0.030220442	1.497670E+02	  0.030220442	3.895000E+00	  0.030220442	1.342900E+01
53	  0.030420844	-1.296000E+00	  0.030420844	1.478970E+02	  0.030420844	4.031000E+00	  0.030420844	1.429900E+01
54	  0.030621244	-1.330000E+00	  0.030621244	1.460330E+02	  0.030621244	4.176000E+00	  0.030621244	1.517200E+01
55	  0.030821642	-1.366000E+00	  0.030821642	1.441560E+02	  0.030821642	4.331000E+00	  0.030821642	1.606000E+01
56	  0.031022044	-1.400000E+00	  0.031022044	1.422520E+02	  0.031022044	4.490000E+00	  0.031022044	1.696900E+01
57	  0.031222444	-1.428000E+00	  0.031222444	1.403960E+02	  0.031222444	4.630000E+00	  0.031222444	1.786600E+01
58	  0.031422846	-1.462000E+00	  0.031422846	1.384610E+02	  0.031422846	4.799000E+00	  0.031422846	1.880900E+01
59	  0.031623244	-1.497000E+00	  0.031623244	1.365500E+02	  0.031623244	4.975000E+00	  0.031623244	1.975100E+01
60	  0.031823646	-1.530000E+00	  0.031823646	1.346240E+02	  0.031823646	5.154000E+00	  0.031823646	2.071300E+01
61	  0.032024048	-1.566000E+00	  0.032024048	1.327010E+02	  0.032024048	5.351000E+00	  0.032024048	2.168400E+01
62	  0.032224450	-1.601000E+00	  0.032224450	1.307710E+02	  0.032224450	5.551000E+00	  0.032224450	2.267200E+01
63	  0.032424849	-1.635000E+00	  0.032424849	1.288310E+02	  0.032424849	5.757000E+00	  0.032424849	2.368000E+01
64	  0.032625251	-1.669000E+00	  0.032625251	1.268570E+02	  0.032625251	5.974000E+00	  0.032625251	2.472000E+01
65	  0.032825653	-1.704000E+00	  0.032825653	1.248530E+02	  0.032825653	6.207000E+00	  0.032825653	2.579200E+01
66	  0.033026051	-1.739000E+00	  0.033026051	1.228690E+02	  0.033026051	6.450000E+00	  0.033026051	2.687000E+01
67	  0.033226453	-1.775000E+00	  0.033226453	1.208510E+02	  0.033226453	6.709000E+00	  0.033226453	2.798600E+01
68	  0.033426855	-1.810000E+00	  0.033426855	1.188470E+02	  0.033426855	6.979000E+00	  0.033426855	2.911300E+01
69	  0.033627257	-1.850000E+00	  0.033627257	1.168500E+02	  0.033627257	7.279000E+00	  0.033627257	3.025500E+01
70	  0.033827655	-1.887000E+00	  0.033827655	1.148330E+02	  0.033827655	7.586000E+00	  0.033827655	3.143000E+01
71	  0.034028057	-1.927000E+00	  0.034028057	1.128050E+02	  0.034028057	7.920000E+00	  0.034028057	3.263500E+01
72	  0.034228459	-1.969000E+00	  0.034228459	1.107500E+02	  0.034228459	8.286000E+00	  0.034228459	3.387800E+01
73	  0.034428857	-2.011000E+00	  0.034428857	1.086890E+02	  0.034428857	8.672000E+00	  0.034428857	3.515200E+01
74	  0.034629259	-2.054000E+00	  0.034629259	1.066290E+02	  0.034629259	9.084000E+00	  0.034629259	3.645200E+01
75	  0.034829661	-2.100000E+00	  0.034829661	1.045480E+02	  0.034829661	9.533000E+00	  0.034829661	3.779300E+01
76	  0.035030060	-2.145000E+00	  0.035030060	1.024780E+02	  0.035030060	1.000600E+01	  0.035030060	3.915700E+01
77	  0.035230462	-2.195000E+00	  0.035230462	1.004100E+02	  0.035230462	1.053000E+01	  0.035230462	4.054800E+01
78	  0.035430863	-2.244000E+00	  0.035430863	9.832200E+01	  0.035430863	1.108500E+01	  0.035430863	4.198600E+01
79	  0.035631265	-2.293000E+00	  0.035631265	9.624000E+01	  0.035631265	1.167500E+01	  0.035631265	4.345600E+01
80	  0.035831664	-2.341000E+00	  0.035831664	9.415300E+01	  0.035831664	1.229900E+01	  0.035831664	4.496800E+01
81	  0.036032066	-2.392000E+00	  0.036032066	9.205800E+01	  0.036032066	1.298300E+01	  0.036032066	4.652100E+01
82	  0.036232468	-2.442000E+00	  0.036232468	8.993600E+01	  0.036232468	1.371400E+01	  0.036232468	4.813800E+01
83	  0.036432866	-2.493000E+00	  0.036432866	8.784500E+01	  0.036432866	1.449500E+01	  0.036432866	4.977000E+01
84	  0.036633268	-2.548000E+00	  0.036633268	8.573400E+01	  0.036633268	1.535700E+01	  0.036633268	5.145700E+01
85	  0.036833670	-2.600000E+00	  0.036833670	8.360300E+01	  0.036833670	1.627000E+01	  0.036833670	5.321500E+01
86	  0.037034072	-2.658000E+00	  0.037034072	8.150500E+01	  0.037034072	1.727900E+01	  0.037034072	5.497700E+01
87	  0.037234470	-2.713000E+00	  0.037234470	7.937500E+01	  0.037234470	1.835500E+01	  0.037234470	5.682400E+01
88	  0.037434869	-2.766000E+00	  0.037434869	7.725100E+01	  0.037434869	1.950400E+01	  0.037434869	5.872000E+01
89	  0.037635271	-2.822000E+00	  0.037635271	7.514200E+01	  0.037635271	2.074900E+01	  0.037635271	6.065000E+01
90	  0.037835669	-2.885000E+00	  0.037835669	7.295700E+01	  0.037835669	2.218000E+01	  0.037835669	6.268700E+01
91	  0.038036071	-2.949000E+00	  0.038036071	7.080800E+01	  0.038036071	2.372500E+01	  0.038036071	6.473100E+01
92	  0.038236473	-3.018000E+00	  0.038236473	6.870800E+01	  0.038236473	2.540400E+01	  0.038236473	6.675300E+01
93	  0.038436871	-3.078000E+00	  0.038436871	6.664100E+01	  0.038436871	2.712500E+01	  0.038436871	6.882100E+01
94	  0.038637273	-3.136000E+00	  0.038637273	6.454500E+01	  0.038637273	2.900100E+01	  0.038637273	7.097400E+01
95	  0.038837675	-3.190000E+00	  0.038837675	6.241700E+01	  0.038837675	3.103500E+01	  0.038837675	7.322700E+01
96	  0.039038073	-3.246000E+00	  0.039038073	6.032000E+01	  0.039038073	3.323100E+01	  0.039038073	7.548200E+01
97	  0.039238475	-3.301000E+00	  0.039238475	5.822500E+01	  0.039238475	3.561400E+01	  0.039238475	7.777600E+01
98	  0.039438877	-3.361000E+00	  0.039438877	5.612200E+01	  0.039438877	3.826200E+01	  0.039438877	8.007600E+01
99	  0.039639279	-3.418000E+00	  0.039639279	5.399800E+01	  0.039639279	4.114700E+01	  0.039639279	8.244400E+01
100	  0.039839678	-3.475000E+00	  0.039839678	5.188300E+01	  0.039839678	4.428900E+01	  0.039839678	8.480500E+01
101	  0.040040080	-3.534000E+00	  0.040040080	4.976400E+01	  0.040040080	4.773900E+01	  0.040040080	8.714700E+01
102	  0.040240481	-3.590000E+00	  0.040240481	4.766300E+01	  0.040240481	5.145700E+01	  0.040240481	8.945600E+01
103	  0.040440880	-3.645000E+00	  0.040440880	4.556100E+01	  0.040440880	5.550800E+01	  0.040440880	9.172200E+01
104	  0.040641282	-3.701000E+00	  0.040641282	4.346900E+01	  0.040641282	5.992300E+01	  0.040641282	9.386900E+01
105	  0.040841684	-3.760000E+00	  0.040841684	4.139100E+01	  0.040841684	6.473100E+01	  0.040841684	9.582500E+01
106	  0.041042086	-3.817000E+00	  0.041042086	3.932100E+01	  0.041042086	6.991400E+01	  0.041042086	9.761900E+01
107	  0.041242484	-3.876000E+00	  0.041242484	3.721900E+01	  0.041242484	7.563500E+01	  0.041242484	9.917500E+01
108	  0.041442886	-3.932000E+00	  0.041442886	3.513300E+01	  0.041442886	8.175800E+01	  0.041442886	1.004540E+02
109	  0.041643288	-3.988000E+00	  0.041643288	3.303600E+01	  0.041643288	8.839000E+01	  0.041643288	1.013500E+02
110	  0.041843686	-4.044000E+00	  0.041843686	3.096300E+01	  0.041843686	9.542400E+01	  0.041843686	1.017310E+02
111	  0.042044088	-4.099000E+00	  0.042044088	2.888000E+01	  0.042044088	1.029480E+02	  0.042044088	1.015320E+02
112	  0.042244490	-4.155000E+00	  0.042244490	2.681200E+01	  0.042244490	1.108330E+02	  0.042244490	1.006040E+02
113	  0.042444889	-4.210000E+00	  0.042444889	2.475700E+01	  0.042444889	1.190130E+02	  0.042444889	9.888500E+01
114	  0.042645290	-4.266000E+00	  0.042645290	2.271400E+01	  0.042645290	1.273840E+02	  0.042645290	9.621500E+01
115	  0.042845692	-4.322000E+00	  0.042845692	2.066900E+01	  0.042845692	1.358850E+02	  0.042845692	9.251900E+01
116	  0.043046094	-4.376000E+00	  0.043046094	1.862200E+01	  0.043046094	1.443490E+02	  0.043046094	8.772400E+01
117	  0.043246493	-4.430000E+00	  0.043246493	1.656500E+01	  0.043246493	1.526270E+02	  0.043246493	8.172000E+01
118	  0.043446895	-4.478000E+00	  0.043446895	1.452800E+01	  0.043446895	1.604570E+02	  0.043446895	7.470400E+01
119	  0.043647297	-4.530000E+00	  0.043647297	1.249900E+01	  0.043647297	1.675080E+02	  0.043647297	6.645300E+01
120	  0.043847695	-4.582000E+00	  0.043847695	1.047800E+01	  0.043847695	1.736060E+02	  0.043847695	5.715900E+01
121	  0.044048097	-4.632000E+00	  0.044048097	8.481000E+00	  0.044048097	1.785250E+02	  0.044048097	4.710500E+01
122	  0.044248499	-4.682000E+00	  0.044248499	6.485000E+00	  0.044248499	1.821250E+02	  0.044248499	3.636900E+01
123	  0.044448901	-4.731000E+00	  0.044448901	4.505000E+00	  0.044448901	1.843490E+02	  0.044448901	2.531300E+01
124	  0.044649299	-4.779000E+00	  0.044649299	2.524000E+00	  0.044649299	1.851480E+02	  0.044649299	1.409600E+01
125	  0.044849701	-4.826000E+00	  0.044849701	5.600000E-01	  0.044849701	1.845020E+02	  0.044849701	3.085000E+00
126	  0.045050103	-4.872000E+00	  0.045050103	-1.403000E+00	  0.045050103	1.825710E+02	  0.045050103	-7.565000E+00
127	  0.045250501	-4.917000E+00	  0.045250501	-3.336000E+00	  0.045250501	1.794640E+02	  0.045250501	-1.749600E+01
128	  0.045450903	-4.962000E+00	  0.045450903	-5.272000E+00	  0.045450903	1.753510E+02	  0.045450903	-2.672500E+01
129	  0.045651305	-5.006000E+00	  0.045651305	-7.209000E+00	  0.045651305	1.703840E+02	  0.045651305	-3.511800E+01
130	  0.045851704	-5.047000E+00	  0.045851704	-9.125000E+00	  0.045851704	1.648840E+02	  0.045851704	-4.256300E+01
131	  0.046052102	-5.087000E+00	  0.046052102	-1.103100E+01	  0.046052102	1.589490E+02	  0.046052102	-4.907300E+01
132	  0.046252504	-5.128000E+00	  0.046252504	-1.289400E+01	  0.046252504	1.527740E+02	  0.046252504	-5.451400E+01
133	  0.046452906	-5.166000E+00	  0.046452906	-1.479000E+01	  0.046452906	1.464260E+02	  0.046452906	-5.929100E+01
134	  0.046653304	-5.203000E+00	  0.046653304	-1.666900E+01	  0.046653304	1.400460E+02	  0.046653304	-6.320400E+01
135	  0.046853706	-5.238000E+00	  0.046853706	-1.853100E+01	  0.046853706	1.337940E+02	  0.046853706	-6.640800E+01
136	  0.047054108	-5.272000E+00	  0.047054108	-2.042300E+01	  0.047054108	1.275560E+02	  0.047054108	-6.901200E+01
137	  0.047254506	-5.306000E+00	  0.047254506	-2.228000E+01	  0.047254506	1.215830E+02	  0.047254506	-7.094800E+01
138	  0.047454908	-5.337000E+00	  0.047454908	-2.410900E+01	  0.047454908	1.159180E+02	  0.047454908	-7.241000E+01
139	  0.047655310	-5.369000E+00	  0.047655310	-2.594800E+01	  0.047655310	1.104390E+02	  0.047655310	-7.341000E+01
140	  0.047855709	-5.399000E+00	  0.047855709	-2.773900E+01	  0.047855709	1.053370E+02	  0.047855709	-7.401200E+01
141	  0.048056111	-5.429000E+00	  0.048056111	-2.955000E+01	  0.048056111	1.004240E+02	  0.048056111	-7.430100E+01
142	  0.048256513	-5.460000E+00	  0.048256513	-3.134500E+01	  0.048256513	9.579800E+01	  0.048256513	-7.427400E+01
143	  0.048456915	-5.487000E+00	  0.048456915	-3.314000E+01	  0.048456915	9.142500E+01	  0.048456915	-7.407900E+01
144	  0.048657313	-5.512000E+00	  0.048657313	-3.492400E+01	  0.048657313	8.731200E+01	  0.048657313	-7.371800E+01
145	  0.048857715	-5.536000E+00	  0.048857715	-3.672800E+01	  0.048857715	8.338000E+01	  0.048857715	-7.317200E+01
146	  0.049058117	-5.561000E+00	  0.049058117	-3.850700E+01	  0.049058117	7.972600E+01	  0.049058117	-7.247700E+01
147	  0.049258515	-5.584000E+00	  0.049258515	-4.024300E+01	  0.049258515	7.636100E+01	  0.049258515	-7.168400E+01
148	  0.049458917	-5.604000E+00	  0.049458917	-4.197900E+01	  0.049458917	7.317800E+01	  0.049458917	-7.083200E+01
149	  0.049659319	-5.630000E+00	  0.049659319	-4.367400E+01	  0.049659319	7.026200E+01	  0.049659319	-6.985100E+01
150	  0.049859721	-5.653000E+00	  0.049859721	-4.540100E+01	  0.049859721	6.745100E+01	  0.049859721	-6.882800E+01
151	  0.050060119	-5.673000E+00	  0.050060119	-4.711300E+01	  0.050060119	6.481500E+01	  0.050060119	-6.778700E+01
152	  0.050260521	-5.693000E+00	  0.050260521	-4.880200E+01	  0.050260521	6.236300E+01	  0.050260521	-6.671000E+01
153	  0.050460923	-5.708000E+00	  0.050460923	-5.052300E+01	  0.050460923	5.998700E+01	  0.050460923	-6.562400E+01
154	  0.050661322	-5.724000E+00	  0.050661322	-5.218600E+01	  0.050661322	5.782100E+01	  0.050661322	-6.453900E+01
155	  0.050861724	-5.743000E+00	  0.050861724	-5.384900E+01	  0.050861724	5.578700E+01	  0.050861724	-6.339900E+01
156	  0.051062126	-5.762000E+00	  0.051062126	-5.551600E+01	  0.051062126	5.385600E+01	  0.051062126	-6.225200E+01
157	  0.051262524	-5.780000E+00	  0.051262524	-5.715300E+01	  0.051262524	5.206500E+01	  0.051262524	-6.111200E+01
158	  0.051462926	-5.794000E+00	  0.051462926	-5.878600E+01	  0.051462926	5.035300E+01	  0.051462926	-6.000100E+01
159	  0.051663328	-5.807000E+00	  0.051663328	-6.042100E+01	  0.051663328	4.872800E+01	  0.051663328	-5.888900E+01
160	  0.051863730	-5.822000E+00	  0.051863730	-6.204400E+01	  0.051863730	4.720400E+01	  0.051863730	-5.777500E+01
161	  0.052064128	-5.833000E+00	  0.052064128	-6.365800E+01	  0.052064128	4.575100E+01	  0.052064128	-5.668900E+01
162	  0.052264530	-5.842000E+00	  0.052264530	-6.527900E+01	  0.052264530	4.435900E+01	  0.052264530	-5.560900E+01
163	  0.052464932	-5.854000E+00	  0.052464932	-6.687000E+01	  0.052464932	4.307000E+01	  0.052464932	-5.453800E+01
164	  0.052665330	-5.868000E+00	  0.052665330	-6.843900E+01	  0.052665330	4.187200E+01	  0.052665330	-5.347600E+01
165	  0.052865732	-5.880000E+00	  0.052865732	-6.999600E+01	  0.052865732	4.073200E+01	  0.052865732	-5.243900E+01
166	  0.053066134	-5.891000E+00	  0.053066134	-7.156600E+01	  0.053066134	3.963600E+01	  0.053066134	-5.140200E+01
167	  0.053266536	-5.900000E+00	  0.053266536	-7.310800E+01	  0.053266536	3.860200E+01	  0.053266536	-5.040100E+01
168	  0.053466935	-5.914000E+00	  0.053466935	-7.467400E+01	  0.053466935	3.761600E+01	  0.053466935	-4.937700E+01
169	  0.053667337	-5.921000E+00	  0.053667337	-7.621000E+01	  0.053667337	3.667400E+01	  0.053667337	-4.840300E+01
170	  0.053867739	-5.930000E+00	  0.053867739	-7.774200E+01	  0.053867739	3.578000E+01	  0.053867739	-4.743800E+01
171	  0.054068137	-5.937000E+00	  0.054068137	-7.928400E+01	  0.054068137	3.491700E+01	  0.054068137	-4.647900E+01
172	  0.054268539	-5.947000E+00	  0.054268539	-8.079400E+01	  0.054268539	3.411900E+01	  0.054268539	-4.554000E+01
173	  0.054468941	-5.956000E+00	  0.054468941	-8.229400E+01	  0.054468941	3.335700E+01	  0.054468941	-4.462000E+01
174	  0.054669335	-5.963000E+00	  0.054669335	-8.377300E+01	  0.054669335	3.263100E+01	  0.054669335	-4.372900E+01
175	  0.054869737	-5.974000E+00	  0.054869737	-8.524000E+01	  0.054869737	3.195700E+01	  0.054869737	-4.284100E+01
176	  0.055070139	-5.982000E+00	  0.055070139	-8.669400E+01	  0.055070139	3.130700E+01	  0.055070139	-4.197900E+01
177	  0.055270538	-5.991000E+00	  0.055270538	-8.816300E+01	  0.055270538	3.068100E+01	  0.055270538	-4.111600E+01
178	  0.055470940	-5.998000E+00	  0.055470940	-8.958700E+01	  0.055470940	3.009200E+01	  0.055470940	-4.029200E+01
179	  0.055671342	-5.999000E+00	  0.055671342	-9.103000E+01	  0.055671342	2.949700E+01	  0.055671342	-3.948200E+01
180	  0.055871744	-6.005000E+00	  0.055871744	-9.244200E+01	  0.055871744	2.895500E+01	  0.055871744	-3.868500E+01
181	  0.056072142	-6.012000E+00	  0.056072142	-9.384500E+01	  0.056072142	2.844200E+01	  0.056072142	-3.789700E+01
182	  0.056272544	-6.016000E+00	  0.056272544	-9.522600E+01	  0.056272544	2.794800E+01	  0.056272544	-3.713700E+01
183	  0.056472946	-6.023000E+00	  0.056472946	-9.659200E+01	  0.056472946	2.748500E+01	  0.056472946	-3.638600E+01
184	  0.056673344	-6.026000E+00	  0.056673344	-9.794200E+01	  0.056673344	2.703500E+01	  0.056673344	-3.565900E+01
185	  0.056873746	-6.027000E+00	  0.056873746	-9.929900E+01	  0.056873746	2.658800E+01	  0.056873746	-3.494100E+01
186	  0.057074148	-6.031000E+00	  0.057074148	-1.006310E+02	  0.057074148	2.617800E+01	  0.057074148	-3.423400E+01
187	  0.057274550	-6.031000E+00	  0.057274550	-1.019530E+02	  0.057274550	2.577200E+01	  0.057274550	-3.354800E+01
188	  0.057474948	-6.030000E+00	  0.057474948	-1.032920E+02	  0.057474948	2.537300E+01	  0.057474948	-3.286000E+01
189	  0.057675350	-6.033000E+00	  0.057675350	-1.046030E+02	  0.057675350	2.500700E+01	  0.057675350	-3.218600E+01
190	  0.057875752	-6.032000E+00	  0.057875752	-1.059320E+02	  0.057875752	2.463900E+01	  0.057875752	-3.151500E+01
191	  0.058076151	-6.034000E+00	  0.058076151	-1.072420E+02	  0.058076151	2.429400E+01	  0.058076151	-3.085600E+01
192	  0.058276553	-6.031000E+00	  0.058276553	-1.085360E+02	  0.058276553	2.395300E+01	  0.058276553	-3.021600E+01
193	  0.058476955	-6.028000E+00	  0.058476955	-1.098260E+02	  0.058476955	2.362400E+01	  0.058476955	-2.958400E+01
194	  0.058677353	-6.025000E+00	  0.058677353	-1.111260E+02	  0.058677353	2.330200E+01	  0.058677353	-2.895200E+01
195	  0.058877755	-6.021000E+00	  0.058877755	-1.124370E+02	  0.058877755	2.298600E+01	  0.058877755	-2.832100E+01
196	  0.059078157	-6.018000E+00	  0.059078157	-1.137050E+02	  0.059078157	2.269200E+01	  0.059078157	-2.771400E+01
197	  0.059278559	-6.010000E+00	  0.059278559	-1.150060E+02	  0.059278559	2.238600E+01	  0.059278559	-2.710300E+01
198	  0.059478957	-6.009000E+00	  0.059478957	-1.162960E+02	  0.059478957	2.211400E+01	  0.059478957	-2.649100E+01
199	  0.059679359	-6.005000E+00	  0.059679359	-1.175720E+02	  0.059679359	2.184700E+01	  0.059679359	-2.589400E+01
200	  0.059879761	-6.002000E+00	  0.059879761	-1.188390E+02	  0.059879761	2.159100E+01	  0.059879761	-2.530500E+01
201	  0.060080159	-5.999000E+00	  0.060080159	-1.200960E+02	  0.060080159	2.134600E+01	  0.060080159	-2.472400E+01
202	  0.060280561	-5.995000E+00	  0.060280561	-1.213570E+02	  0.060280561	2.110400E+01	  0.060280561	-2.414700E+01
203	  0.060480963	-5.992000E+00	  0.060480963	-1.226360E+02	  0.060480963	2.087100E+01	  0.060480963	-2.356400E+01
204	  0.060681365	-5.985000E+00	  0.060681365	-1.238730E+02	  0.060681365	2.064300E+01	  0.060681365	-2.300700E+01
205	  0.060881764	-5.983000E+00	  0.060881764	-1.251260E+02	  0.060881764	2.043300E+01	  0.060881764	-2.244200E+01
206	  0.061082166	-5.978000E+00	  0.061082166	-1.263730E+02	  0.061082166	2.022200E+01	  0.061082166	-2.188600E+01
207	  0.061282568	-5.977000E+00	  0.061282568	-1.276010E+02	  0.061282568	2.003100E+01	  0.061282568	-2.133800E+01
208	  0.061482966	-5.972000E+00	  0.061482966	-1.288290E+02	  0.061482966	1.983700E+01	  0.061482966	-2.079700E+01
209	  0.061683368	-5.969000E+00	  0.061683368	-1.300270E+02	  0.061683368	1.966000E+01	  0.061683368	-2.027000E+01
210	  0.061883770	-5.966000E+00	  0.061883770	-1.312460E+02	  0.061883770	1.948300E+01	  0.061883770	-1.973800E+01
211	  0.062084168	-5.964000E+00	  0.062084168	-1.324610E+02	  0.062084168	1.931800E+01	  0.062084168	-1.920900E+01
212	  0.062284570	-5.959000E+00	  0.062284570	-1.336360E+02	  0.062284570	1.915300E+01	  0.062284570	-1.870200E+01
213	  0.062484972	-5.944000E+00	  0.062484972	-1.347910E+02	  0.062484972	1.896900E+01	  0.062484972	-1.821500E+01
214	  0.062685370	-5.944000E+00	  0.062685370	-1.359640E+02	  0.062685370	1.883100E+01	  0.062685370	-1.771000E+01
215	  0.062885776	-5.940000E+00	  0.062885776	-1.371280E+02	  0.062885776	1.868500E+01	  0.062885776	-1.721500E+01
216	  0.063086174	-5.944000E+00	  0.063086174	-1.383060E+02	  0.063086174	1.856600E+01	  0.063086174	-1.671000E+01
217	  0.063286573	-5.939000E+00	  0.063286573	-1.394990E+02	  0.063286573	1.842800E+01	  0.063286573	-1.620700E+01
218	  0.063486971	-5.934000E+00	  0.063486971	-1.406440E+02	  0.063486971	1.829600E+01	  0.063486971	-1.572800E+01
219	  0.063687377	-5.933000E+00	  0.063687377	-1.417320E+02	  0.063687377	1.818700E+01	  0.063687377	-1.527100E+01
220	  0.063887775	-5.934000E+00	  0.063887775	-1.428920E+02	  0.063887775	1.807700E+01	  0.063887775	-1.478600E+01
221	  0.064088173	-5.930000E+00	  0.064088173	-1.440400E+02	  0.064088173	1.796200E+01	  0.064088173	-1.431000E+01
222	  0.064288579	-5.933000E+00	  0.064288579	-1.451650E+02	  0.064288579	1.787100E+01	  0.064288579	-1.384100E+01
223	  0.064488977	-5.932000E+00	  0.064488977	-1.463020E+02	  0.064488977	1.777200E+01	  0.064488977	-1.337200E+01
224	  0.064689375	-5.933000E+00	  0.064689375	-1.474380E+02	  0.064689375	1.768100E+01	  0.064689375	-1.290400E+01
225	  0.064889781	-5.937000E+00	  0.064889781	-1.485560E+02	  0.064889781	1.760600E+01	  0.064889781	-1.244400E+01
226	  0.065090179	-5.931000E+00	  0.065090179	-1.496650E+02	  0.065090179	1.750700E+01	  0.065090179	-1.199300E+01
227	  0.065290578	-5.934000E+00	  0.065290578	-1.507820E+02	  0.065290578	1.743400E+01	  0.065290578	-1.153700E+01
228	  0.065490983	-5.935000E+00	  0.065490983	-1.518900E+02	  0.065490983	1.736200E+01	  0.065490983	-1.108700E+01
229	  0.065691382	-5.935000E+00	  0.065691382	-1.529910E+02	  0.065691382	1.728900E+01	  0.065691382	-1.064200E+01
230	  0.065891780	-5.938000E+00	  0.065891780	-1.541030E+02	  0.065891780	1.722800E+01	  0.065891780	-1.019200E+01
231	  0.066092186	-5.940000E+00	  0.066092186	-1.551760E+02	  0.066092186	1.716900E+01	  0.066092186	-9.759000E+00
232	  0.066292584	-5.941000E+00	  0.066292584	-1.562650E+02	  0.066292584	1.710900E+01	  0.066292584	-9.322000E+00
233	  0.066492982	-5.939000E+00	  0.066492982	-1.573520E+02	  0.066492982	1.704600E+01	  0.066492982	-8.888000E+00
234	  0.066693388	-5.942000E+00	  0.066693388	-1.584320E+02	  0.066693388	1.699700E+01	  0.066693388	-8.456000E+00
235	  0.066893786	-5.946000E+00	  0.066893786	-1.595190E+02	  0.066893786	1.695300E+01	  0.066893786	-8.023000E+00
236	  0.067094192	-5.944000E+00	  0.067094192	-1.605470E+02	  0.067094192	1.690100E+01	  0.067094192	-7.615000E+00
237	  0.067294590	-5.945000E+00	  0.067294590	-1.616210E+02	  0.067294590	1.685800E+01	  0.067294590	-7.190000E+00
238	  0.067494988	-5.944000E+00	  0.067494988	-1.626940E+02	  0.067494988	1.681100E+01	  0.067494988	-6.766000E+00
239	  0.067695394	-5.948000E+00	  0.067695394	-1.637250E+02	  0.067695394	1.678200E+01	  0.067695394	-6.358000E+00
240	  0.067895792	-5.951000E+00	  0.067895792	-1.647800E+02	  0.067895792	1.675000E+01	  0.067895792	-5.942000E+00
241	  0.068096191	-5.950000E+00	  0.068096191	-1.658410E+02	  0.068096191	1.671300E+01	  0.068096191	-5.525000E+00
242	  0.068296596	-5.952000E+00	  0.068296596	-1.668600E+02	  0.068296596	1.668700E+01	  0.068296596	-5.124000E+00
243	  0.068496995	-5.954000E+00	  0.068496995	-1.678820E+02	  0.068496995	1.666100E+01	  0.068496995	-4.723000E+00
244	  0.068697393	-5.956000E+00	  0.068697393	-1.689080E+02	  0.068697393	1.664200E+01	  0.068697393	-4.321000E+00
245	  0.068897791	-5.957000E+00	  0.068897791	-1.699120E+02	  0.068897791	1.661900E+01	  0.068897791	-3.928000E+00
246	  0.069098189	-5.957000E+00	  0.069098189	-1.709250E+02	  0.069098189	1.659600E+01	  0.069098189	-3.532000E+00
247	  0.069298595	-5.957000E+00	  0.069298595	-1.719450E+02	  0.069298595	1.657700E+01	  0.069298595	-3.135000E+00
248	  0.069498993	-5.962000E+00	  0.069498993	-1.729610E+02	  0.069498993	1.657300E+01	  0.069498993	-2.738000E+00
249	  0.069699399	-5.965000E+00	  0.069699399	-1.739460E+02	  0.069699399	1.656500E+01	  0.069699399	-2.354000E+00
250	  0.069899797	-5.964000E+00	  0.069899797	-1.749360E+02	  0.069899797	1.655100E+01	  0.069899797	-1.969000E+00
251	  0.070100196	-5.968000E+00	  0.070100196	-1.759080E+02	  0.070100196	1.655200E+01	  0.070100196	-1.590000E+00
252	  0.070300601	-5.971000E+00	  0.070300601	-1.768860E+02	  0.070300601	1.655200E+01	  0.070300601	-1.209000E+00
253	  0.070501000	-5.972000E+00	  0.070501000	-1.778640E+02	  0.070501000	1.654900E+01	  0.070501000	-8.290000E-01
254	  0.070701398	-5.975000E+00	  0.070701398	-1.788320E+02	  0.070701398	1.655300E+01	  0.070701398	-4.530000E-01
255	  0.070901804	-5.977000E+00	  0.070901804	-1.798060E+02	  0.070901804	1.655700E+01	  0.070901804	-7.500000E-02
256	  0.071102202	-5.985000E+00	  0.071102202	1.792240E+02	  0.071102202	1.657600E+01	  0.071102202	3.010000E-01
257	  0.071302600	-5.990000E+00	  0.071302600	1.782460E+02	  0.071302600	1.659300E+01	  0.071302600	6.800000E-01
258	  0.071503006	-5.995000E+00	  0.071503006	1.772900E+02	  0.071503006	1.661000E+01	  0.071503006	1.052000E+00
259	  0.071703404	-5.999000E+00	  0.071703404	1.763300E+02	  0.071703404	1.662800E+01	  0.071703404	1.424000E+00
260	  0.071903802	-6.005000E+00	  0.071903802	1.753810E+02	  0.071903802	1.665100E+01	  0.071903802	1.792000E+00
261	  0.072104208	-6.006000E+00	  0.072104208	1.744310E+02	  0.072104208	1.666500E+01	  0.072104208	2.161000E+00
262	  0.072304606	-6.012000E+00	  0.072304606	1.734760E+02	  0.072304606	1.669400E+01	  0.072304606	2.532000E+00
263	  0.072505005	-6.020000E+00	  0.072505005	1.725580E+02	  0.072505005	1.672800E+01	  0.072505005	2.889000E+00
264	  0.072705410	-6.023000E+00	  0.072705410	1.715780E+02	  0.072705410	1.675500E+01	  0.072705410	3.269000E+00
265	  0.072905809	-6.028000E+00	  0.072905809	1.706370E+02	  0.072905809	1.678600E+01	  0.072905809	3.635000E+00
266	  0.073106214	-6.036000E+00	  0.073106214	1.697050E+02	  0.073106214	1.682800E+01	  0.073106214	3.997000E+00
267	  0.073306613	-6.044000E+00	  0.073306613	1.687780E+02	  0.073306613	1.687000E+01	  0.073306613	4.357000E+00
268	  0.073507011	-6.047000E+00	  0.073507011	1.678440E+02	  0.073507011	1.690400E+01	  0.073507011	4.721000E+00
269	  0.073707417	-6.053000E+00	  0.073707417	1.669160E+02	  0.073707417	1.694400E+01	  0.073707417	5.082000E+00
270	  0.073907815	-6.056000E+00	  0.073907815	1.659780E+02	  0.073907815	1.698300E+01	  0.073907815	5.448000E+00
271	  0.074108213	-6.065000E+00	  0.074108213	1.650880E+02	  0.074108213	1.703600E+01	  0.074108213	5.795000E+00
272	  0.074308619	-6.068000E+00	  0.074308619	1.641690E+02	  0.074308619	1.707600E+01	  0.074308619	6.154000E+00
273	  0.074509017	-6.075000E+00	  0.074509017	1.632430E+02	  0.074509017	1.713000E+01	  0.074509017	6.515000E+00
274	  0.074709415	-6.081000E+00	  0.074709415	1.623400E+02	  0.074709415	1.718100E+01	  0.074709415	6.869000E+00
275	  0.074909821	-6.086000E+00	  0.074909821	1.614290E+02	  0.074909821	1.723200E+01	  0.074909821	7.226000E+00
276	  0.075110219	-6.094000E+00	  0.075110219	1.605480E+02	  0.075110219	1.729300E+01	  0.075110219	7.570000E+00
277	  0.075310618	-6.098000E+00	  0.075310618	1.596510E+02	  0.075310618	1.734500E+01	  0.075310618	7.923000E+00
278	  0.075511023	-6.106000E+00	  0.075511023	1.587980E+02	  0.075511023	1.740800E+01	  0.075511023	8.257000E+00
279	  0.075711422	-6.110000E+00	  0.075711422	1.579090E+02	  0.075711422	1.746300E+01	  0.075711422	8.608000E+00
280	  0.075911827	-6.120000E+00	  0.075911827	1.570510E+02	  0.075911827	1.753600E+01	  0.075911827	8.944000E+00
281	  0.076112226	-6.129000E+00	  0.076112226	1.561600E+02	  0.076112226	1.760900E+01	  0.076112226	9.294000E+00
282	  0.076312624	-6.135000E+00	  0.076312624	1.552860E+02	  0.076312624	1.767600E+01	  0.076312624	9.640000E+00
283	  0.076513030	-6.146000E+00	  0.076513030	1.544060E+02	  0.076513030	1.775700E+01	  0.076513030	9.986000E+00
284	  0.076713428	-6.154000E+00	  0.076713428	1.535490E+02	  0.076713428	1.783200E+01	  0.076713428	1.032500E+01
285	  0.076913826	-6.166000E+00	  0.076913826	1.526660E+02	  0.076913826	1.792300E+01	  0.076913826	1.067200E+01
286	  0.077114232	-6.174000E+00	  0.077114232	1.518380E+02	  0.077114232	1.799900E+01	  0.077114232	1.100100E+01
287	  0.077314630	-6.180000E+00	  0.077314630	1.509970E+02	  0.077314630	1.807500E+01	  0.077314630	1.133500E+01
288	  0.077515028	-6.190000E+00	  0.077515028	1.501390E+02	  0.077515028	1.816500E+01	  0.077515028	1.167500E+01
289	  0.077715434	-6.202000E+00	  0.077715434	1.493150E+02	  0.077715434	1.825700E+01	  0.077715434	1.200200E+01
290	  0.077915832	-6.212000E+00	  0.077915832	1.484420E+02	  0.077915832	1.835300E+01	  0.077915832	1.234900E+01
291	  0.078116231	-6.223000E+00	  0.078116231	1.475920E+02	  0.078116231	1.845000E+01	  0.078116231	1.268700E+01
292	  0.078316636	-6.230000E+00	  0.078316636	1.467250E+02	  0.078316636	1.854200E+01	  0.078316636	1.303400E+01
293	  0.078517035	-6.248000E+00	  0.078517035	1.458820E+02	  0.078517035	1.866200E+01	  0.078517035	1.336700E+01
294	  0.078717433	-6.262000E+00	  0.078717433	1.450480E+02	  0.078717433	1.877200E+01	  0.078717433	1.369900E+01
295	  0.078917839	-6.271000E+00	  0.078917839	1.442070E+02	  0.078917839	1.887400E+01	  0.078917839	1.403600E+01
296	  0.079118237	-6.281000E+00	  0.079118237	1.433660E+02	  0.079118237	1.897900E+01	  0.079118237	1.437400E+01
297	  0.079318643	-6.296000E+00	  0.079318643	1.425370E+02	  0.079318643	1.910100E+01	  0.079318643	1.470400E+01
298	  0.079519041	-6.307000E+00	  0.079519041	1.417090E+02	  0.079519041	1.921100E+01	  0.079519041	1.503700E+01
299	  0.079719439	-6.320000E+00	  0.079719439	1.408570E+02	  0.079719439	1.933500E+01	  0.079719439	1.537900E+01
300	  0.079919845	-6.332000E+00	  0.079919845	1.400230E+02	  0.079919845	1.945500E+01	  0.079919845	1.571500E+01
301	  0.080120243	-6.347000E+00	  0.080120243	1.391580E+02	  0.080120243	1.958900E+01	  0.080120243	1.606300E+01
302	  0.080320641	-6.361000E+00	  0.080320641	1.383650E+02	  0.080320641	1.971700E+01	  0.080320641	1.638100E+01
303	  0.080521047	-6.367000E+00	  0.080521047	1.375440E+02	  0.080521047	1.982700E+01	  0.080521047	1.671800E+01
304	  0.080721445	-6.384000E+00	  0.080721445	1.367180E+02	  0.080721445	1.997200E+01	  0.080721445	1.704900E+01
305	  0.080921844	-6.398000E+00	  0.080921844	1.359120E+02	  0.080921844	2.010600E+01	  0.080921844	1.737500E+01
306	  0.081122249	-6.408000E+00	  0.081122249	1.351200E+02	  0.081122249	2.023100E+01	  0.081122249	1.769900E+01
307	  0.081322648	-6.424000E+00	  0.081322648	1.343070E+02	  0.081322648	2.037800E+01	  0.081322648	1.802700E+01
308	  0.081523046	-6.432000E+00	  0.081523046	1.335070E+02	  0.081523046	2.050600E+01	  0.081523046	1.835700E+01
309	  0.081723452	-6.448000E+00	  0.081723452	1.327070E+02	  0.081723452	2.065600E+01	  0.081723452	1.868100E+01
310	  0.081923850	-6.460000E+00	  0.081923850	1.318960E+02	  0.081923850	2.080000E+01	  0.081923850	1.901400E+01
311	  0.082124248	-6.475000E+00	  0.082124248	1.311360E+02	  0.082124248	2.094800E+01	  0.082124248	1.932200E+01
312	  0.082324654	-6.488000E+00	  0.082324654	1.303540E+02	  0.082324654	2.109600E+01	  0.082324654	1.964200E+01
313	  0.082525052	-6.501000E+00	  0.082525052	1.296000E+02	  0.082525052	2.124400E+01	  0.082525052	1.995100E+01
314	  0.082725458	-6.516000E+00	  0.082725458	1.288540E+02	  0.082725458	2.139700E+01	  0.082725458	2.025600E+01
315	  0.082925856	-6.533000E+00	  0.082925856	1.280800E+02	  0.082925856	2.156400E+01	  0.082925856	2.057000E+01
316	  0.083126254	-6.554000E+00	  0.083126254	1.273210E+02	  0.083126254	2.174200E+01	  0.083126254	2.087500E+01
317	  0.083326660	-6.568000E+00	  0.083326660	1.265520E+02	  0.083326660	2.190600E+01	  0.083326660	2.119100E+01
318	  0.083527058	-6.586000E+00	  0.083527058	1.257890E+02	  0.083527058	2.208300E+01	  0.083527058	2.150000E+01
319	  0.083727457	-6.604000E+00	  0.083727457	1.250390E+02	  0.083727457	2.225800E+01	  0.083727457	2.180500E+01
320	  0.083927862	-6.622000E+00	  0.083927862	1.242900E+02	  0.083927862	2.243700E+01	  0.083927862	2.210900E+01
321	  0.084128261	-6.643000E+00	  0.084128261	1.235470E+02	  0.084128261	2.262700E+01	  0.084128261	2.240800E+01
322	  0.084328659	-6.662000E+00	  0.084328659	1.228190E+02	  0.084328659	2.281300E+01	  0.084328659	2.270100E+01
323	  0.084529065	-6.682000E+00	  0.084529065	1.220850E+02	  0.084529065	2.300400E+01	  0.084529065	2.299800E+01
324	  0.084729463	-6.705000E+00	  0.084729463	1.213120E+02	  0.084729463	2.321400E+01	  0.084729463	2.330700E+01
325	  0.084929854	-6.718000E+00	  0.084929854	1.205650E+02	  0.084929854	2.339600E+01	  0.084929854	2.361700E+01
326	  0.085130259	-6.742000E+00	  0.085130259	1.198260E+02	  0.085130259	2.360800E+01	  0.085130259	2.391100E+01
327	  0.085330658	-6.760000E+00	  0.085330658	1.190860E+02	  0.085330658	2.380900E+01	  0.085330658	2.421200E+01
328	  0.085531056	-6.783000E+00	  0.085531056	1.183420E+02	  0.085531056	2.402700E+01	  0.085531056	2.450800E+01
329	  0.085731462	-6.801000E+00	  0.085731462	1.176000E+02	  0.085731462	2.423300E+01	  0.085731462	2.481100E+01
330	  0.085931860	-6.824000E+00	  0.085931860	1.168760E+02	  0.085931860	2.445300E+01	  0.085931860	2.509900E+01
331	  0.086132258	-6.849000E+00	  0.086132258	1.161490E+02	  0.086132258	2.468500E+01	  0.086132258	2.538400E+01
332	  0.086332664	-6.868000E+00	  0.086332664	1.154070E+02	  0.086332664	2.490300E+01	  0.086332664	2.568500E+01
333	  0.086533062	-6.889000E+00	  0.086533062	1.146540E+02	  0.086533062	2.513600E+01	  0.086533062	2.598700E+01
334	  0.086733460	-6.909000E+00	  0.086733460	1.139270E+02	  0.086733460	2.536100E+01	  0.086733460	2.628100E+01
335	  0.086933866	-6.930000E+00	  0.086933866	1.132290E+02	  0.086933866	2.558700E+01	  0.086933866	2.655800E+01
336	  0.087134264	-6.953000E+00	  0.087134264	1.124840E+02	  0.087134264	2.583200E+01	  0.087134264	2.685400E+01
337	  0.087334670	-6.975000E+00	  0.087334670	1.117790E+02	  0.087334670	2.606800E+01	  0.087334670	2.713300E+01
338	  0.087535068	-6.999000E+00	  0.087535068	1.110890E+02	  0.087535068	2.631200E+01	  0.087535068	2.740100E+01
339	  0.087735467	-7.019000E+00	  0.087735467	1.103540E+02	  0.087735467	2.656000E+01	  0.087735467	2.769500E+01
340	  0.087935872	-7.042000E+00	  0.087935872	1.096590E+02	  0.087935872	2.680700E+01	  0.087935872	2.796700E+01
341	  0.088136271	-7.064000E+00	  0.088136271	1.089510E+02	  0.088136271	2.705900E+01	  0.088136271	2.824600E+01
342	  0.088336669	-7.086000E+00	  0.088336669	1.082610E+02	  0.088336669	2.731000E+01	  0.088336669	2.851600E+01
343	  0.088537075	-7.103000E+00	  0.088537075	1.075710E+02	  0.088537075	2.754800E+01	  0.088537075	2.879500E+01
344	  0.088737473	-7.127000E+00	  0.088737473	1.068910E+02	  0.088737473	2.780900E+01	  0.088737473	2.905600E+01
345	  0.088937871	-7.151000E+00	  0.088937871	1.062200E+02	  0.088937871	2.807300E+01	  0.088937871	2.931100E+01
346	  0.089138277	-7.171000E+00	  0.089138277	1.055480E+02	  0.089138277	2.832500E+01	  0.089138277	2.957600E+01
347	  0.089338675	-7.199000E+00	  0.089338675	1.049140E+02	  0.089338675	2.859700E+01	  0.089338675	2.980500E+01
348	  0.089539073	-7.223000E+00	  0.089539073	1.042300E+02	  0.089539073	2.887300E+01	  0.089539073	3.006400E+01
349	  0.089739479	-7.254000E+00	  0.089739479	1.036040E+02	  0.089739479	2.915500E+01	  0.089739479	3.028300E+01
350	  0.089939877	-7.277000E+00	  0.089939877	1.029610E+02	  0.089939877	2.942400E+01	  0.089939877	3.052300E+01
351	  0.090140276	-7.305000E+00	  0.090140276	1.023140E+02	  0.090140276	2.970900E+01	  0.090140276	3.075600E+01
352	  0.090340681	-7.328000E+00	  0.090340681	1.016840E+02	  0.090340681	2.998100E+01	  0.090340681	3.098800E+01
353	  0.090541080	-7.365000E+00	  0.090541080	1.010520E+02	  0.090541080	3.029500E+01	  0.090541080	3.119100E+01
354	  0.090741485	-7.392000E+00	  0.090741485	1.004430E+02	  0.090741485	3.057800E+01	  0.090741485	3.140200E+01
355	  0.090941884	-7.419000E+00	  0.090941884	9.982500E+01	  0.090941884	3.086700E+01	  0.090941884	3.161600E+01
356	  0.091142282	-7.455000E+00	  0.091142282	9.920000E+01	  0.091142282	3.118600E+01	  0.091142282	3.181300E+01
357	  0.091342688	-7.487000E+00	  0.091342688	9.858700E+01	  0.091342688	3.149200E+01	  0.091342688	3.201200E+01
358	  0.091543086	-7.517000E+00	  0.091543086	9.795600E+01	  0.091543086	3.180400E+01	  0.091543086	3.222000E+01
359	  0.091743484	-7.546000E+00	  0.091743484	9.733800E+01	  0.091743484	3.211200E+01	  0.091743484	3.242200E+01
360	  0.091943890	-7.580000E+00	  0.091943890	9.675000E+01	  0.091943890	3.242700E+01	  0.091943890	3.259800E+01
361	  0.092144288	-7.610000E+00	  0.092144288	9.611000E+01	  0.092144288	3.275100E+01	  0.092144288	3.280500E+01
362	  0.092344686	-7.636000E+00	  0.092344686	9.548800E+01	  0.092344686	3.306100E+01	  0.092344686	3.301000E+01
363	  0.092545092	-7.670000E+00	  0.092545092	9.493200E+01	  0.092545092	3.337200E+01	  0.092545092	3.316600E+01
364	  0.092745490	-7.704000E+00	  0.092745490	9.433700E+01	  0.092745490	3.369900E+01	  0.092745490	3.333800E+01
365	  0.092945889	-7.735000E+00	  0.092945889	9.376300E+01	  0.092945889	3.401600E+01	  0.092945889	3.350300E+01
366	  0.093146294	-7.766000E+00	  0.093146294	9.317100E+01	  0.093146294	3.434000E+01	  0.093146294	3.367600E+01
367	  0.093346693	-7.799000E+00	  0.093346693	9.257700E+01	  0.093346693	3.467600E+01	  0.093346693	3.384000E+01
368	  0.093547091	-7.827000E+00	  0.093547091	9.203800E+01	  0.093547091	3.497400E+01	  0.093547091	3.399600E+01
369	  0.093747497	-7.857000E+00	  0.093747497	9.145100E+01	  0.093747497	3.530400E+01	  0.093747497	3.416100E+01
370	  0.093947895	-7.887000E+00	  0.093947895	9.091300E+01	  0.093947895	3.561500E+01	  0.093947895	3.430500E+01
371	  0.094148301	-7.915000E+00	  0.094148301	9.035400E+01	  0.094148301	3.593300E+01	  0.094148301	3.445900E+01
372	  0.094348699	-7.947000E+00	  0.094348699	8.981800E+01	  0.094348699	3.625500E+01	  0.094348699	3.459100E+01
373	  0.094549097	-7.978000E+00	  0.094549097	8.928700E+01	  0.094549097	3.657500E+01	  0.094549097	3.471900E+01
374	  0.094749503	-8.006000E+00	  0.094749503	8.875700E+01	  0.094749503	3.688700E+01	  0.094749503	3.485500E+01
375	  0.094949901	-8.033000E+00	  0.094949901	8.824200E+01	  0.094949901	3.719000E+01	  0.094949901	3.498800E+01
376	  0.095150299	-8.064000E+00	  0.095150299	8.774100E+01	  0.095150299	3.750500E+01	  0.095150299	3.509700E+01
377	  0.095350705	-8.088000E+00	  0.095350705	8.721000E+01	  0.095350705	3.781400E+01	  0.095350705	3.523800E+01
378	  0.095551103	-8.118000E+00	  0.095551103	8.672300E+01	  0.095551103	3.812000E+01	  0.095551103	3.534300E+01
379	  0.095751502	-8.147000E+00	  0.095751502	8.622500E+01	  0.095751502	3.843300E+01	  0.095751502	3.545100E+01
380	  0.095951907	-8.172000E+00	  0.095951907	8.575500E+01	  0.095951907	3.872200E+01	  0.095951907	3.555900E+01
381	  0.096152306	-8.198000E+00	  0.096152306	8.528600E+01	  0.096152306	3.901600E+01	  0.096152306	3.566100E+01
382	  0.096352704	-8.226000E+00	  0.096352704	8.480600E+01	  0.096352704	3.932300E+01	  0.096352704	3.575900E+01
383	  0.096553110	-8.253000E+00	  0.096553110	8.435100E+01	  0.096553110	3.961700E+01	  0.096553110	3.584600E+01
384	  0.096753508	-8.276000E+00	  0.096753508	8.389200E+01	  0.096753508	3.990300E+01	  0.096753508	3.594900E+01
385	  0.096953906	-8.303000E+00	  0.096953906	8.343700E+01	  0.096953906	4.020100E+01	  0.096953906	3.603300E+01
386	  0.097154312	-8.327000E+00	  0.097154312	8.301200E+01	  0.097154312	4.047700E+01	  0.097154312	3.611300E+01
387	  0.097354710	-8.351000E+00	  0.097354710	8.257200E+01	  0.097354710	4.076300E+01	  0.097354710	3.619600E+01
388	  0.097555116	-8.375000E+00	  0.097555116	8.212900E+01	  0.097555116	4.105100E+01	  0.097555116	3.628100E+01
389	  0.097755514	-8.403000E+00	  0.097755514	8.170100E+01	  0.097755514	4.134200E+01	  0.097755514	3.634400E+01
390	  0.097955912	-8.426000E+00	  0.097955912	8.129000E+01	  0.097955912	4.161600E+01	  0.097955912	3.641300E+01
391	  0.098156318	-8.444000E+00	  0.098156318	8.086900E+01	  0.098156318	4.188100E+01	  0.098156318	3.650400E+01
392	  0.098356716	-8.468000E+00	  0.098356716	8.043500E+01	  0.098356716	4.217000E+01	  0.098356716	3.657700E+01
393	  0.098557115	-8.489000E+00	  0.098557115	8.006900E+01	  0.098557115	4.242000E+01	  0.098557115	3.663100E+01
394	  0.098757520	-8.507000E+00	  0.098757520	7.959400E+01	  0.098757520	4.272000E+01	  0.098757520	3.673500E+01
395	  0.098957919	-8.527000E+00	  0.098957919	7.919300E+01	  0.098957919	4.298700E+01	  0.098957919	3.680400E+01
396	  0.099158317	-8.549000E+00	  0.099158317	7.875200E+01	  0.099158317	4.328200E+01	  0.099158317	3.687800E+01
397	  0.099358723	-8.563000E+00	  0.099358723	7.837100E+01	  0.099358723	4.352700E+01	  0.099358723	3.695800E+01
398	  0.099559121	-8.580000E+00	  0.099559121	7.797700E+01	  0.099559121	4.378700E+01	  0.099559121	3.703100E+01
399	  0.099759519	-8.598000E+00	  0.099759519	7.756800E+01	  0.099759519	4.405900E+01	  0.099759519	3.710200E+01
400	  0.099959925	-8.600000E+00	  0.099959925	7.715400E+01	  0.099959925	4.430100E+01	  0.099959925	3.723500E+01
401	  0.100160323	-8.618000E+00	  0.100160323	7.678400E+01	  0.100160323	4.455500E+01	  0.100160323	3.728900E+01
402	  0.100360721	-8.624000E+00	  0.100360721	7.637000E+01	  0.100360721	4.481100E+01	  0.100360721	3.740100E+01
403	  0.100561127	-8.636000E+00	  0.100561127	7.595800E+01	  0.100561127	4.507800E+01	  0.100561127	3.748900E+01
404	  0.100761525	-8.651000E+00	  0.100761525	7.555200E+01	  0.100761525	4.535100E+01	  0.100761525	3.756400E+01
405	  0.100961931	-8.655000E+00	  0.100961931	7.518400E+01	  0.100961931	4.557800E+01	  0.100961931	3.766900E+01
406	  0.101162329	-8.663000E+00	  0.101162329	7.481300E+01	  0.101162329	4.581900E+01	  0.101162329	3.775500E+01
407	  0.101362728	-8.672000E+00	  0.101362728	7.436300E+01	  0.101362728	4.611100E+01	  0.101362728	3.786100E+01
408	  0.101563133	-8.673000E+00	  0.101563133	7.405500E+01	  0.101563133	4.630100E+01	  0.101563133	3.795300E+01
409	  0.101763532	-8.675000E+00	  0.101763532	7.362900E+01	  0.101763532	4.656700E+01	  0.101763532	3.807900E+01
410	  0.101963930	-8.684000E+00	  0.101963930	7.325500E+01	  0.101963930	4.681800E+01	  0.101963930	3.815900E+01
411	  0.102164328	-8.695000E+00	  0.102164328	7.283600E+01	  0.102164328	4.710400E+01	  0.102164328	3.823900E+01
412	  0.102364726	-8.692000E+00	  0.102364726	7.245000E+01	  0.102364726	4.734000E+01	  0.102364726	3.837100E+01
413	  0.102565125	-8.692000E+00	  0.102565125	7.208100E+01	  0.102565125	4.757700E+01	  0.102565125	3.847900E+01
414	  0.102765530	-8.686000E+00	  0.102765530	7.169200E+01	  0.102765530	4.781500E+01	  0.102765530	3.862000E+01
415	  0.102965929	-8.690000E+00	  0.102965929	7.129100E+01	  0.102965929	4.808100E+01	  0.102965929	3.872300E+01
416	  0.103166327	-8.687000E+00	  0.103166327	7.090600E+01	  0.103166327	4.832600E+01	  0.103166327	3.885000E+01
417	  0.103366733	-8.691000E+00	  0.103366733	7.051800E+01	  0.103366733	4.858900E+01	  0.103366733	3.894600E+01
418	  0.103567131	-8.677000E+00	  0.103567131	7.008800E+01	  0.103567131	4.884800E+01	  0.103567131	3.913100E+01
419	  0.103767529	-8.683000E+00	  0.103767529	6.968700E+01	  0.103767529	4.912800E+01	  0.103767529	3.921800E+01
420	  0.103967935	-8.677000E+00	  0.103967935	6.925800E+01	  0.103967935	4.940600E+01	  0.103967935	3.936600E+01
421	  0.104168333	-8.667000E+00	  0.104168333	6.890000E+01	  0.104168333	4.963200E+01	  0.104168333	3.951200E+01
422	  0.104368731	-8.673000E+00	  0.104368731	6.846900E+01	  0.104368731	4.994000E+01	  0.104368731	3.960200E+01
423	  0.104569137	-8.665000E+00	  0.104569137	6.803100E+01	  0.104569137	5.022900E+01	  0.104569137	3.976100E+01
424	  0.104769535	-8.652000E+00	  0.104769535	6.761100E+01	  0.104769535	5.049900E+01	  0.104769535	3.993500E+01
425	  0.104969934	-8.652000E+00	  0.104969934	6.715300E+01	  0.104969934	5.082400E+01	  0.104969934	4.005500E+01
426	  0.105170339	-8.637000E+00	  0.105170339	6.667400E+01	  0.105170339	5.113900E+01	  0.105170339	4.025500E+01
427	  0.105370738	-8.630000E+00	  0.105370738	6.620500E+01	  0.105370738	5.146700E+01	  0.105370738	4.041000E+01
428	  0.105571143	-8.625000E+00	  0.105571143	6.576000E+01	  0.105571143	5.178200E+01	  0.105571143	4.055000E+01
429	  0.105771542	-8.607000E+00	  0.105771542	6.525300E+01	  0.105771542	5.212700E+01	  0.105771542	4.076400E+01
430	  0.105971940	-8.604000E+00	  0.105971940	6.480800E+01	  0.105971940	5.245400E+01	  0.105971940	4.088800E+01
431	  0.106172346	-8.595000E+00	  0.106172346	6.435100E+01	  0.106172346	5.278300E+01	  0.106172346	4.104600E+01
432	  0.106372744	-8.584000E+00	  0.106372744	6.382000E+01	  0.106372744	5.316900E+01	  0.106372744	4.123000E+01
433	  0.106573142	-8.568000E+00	  0.106573142	6.330200E+01	  0.106573142	5.354300E+01	  0.106573142	4.143200E+01
434	  0.106773548	-8.554000E+00	  0.106773548	6.277800E+01	  0.106773548	5.393000E+01	  0.106773548	4.162700E+01
435	  0.106973946	-8.544000E+00	  0.106973946	6.227000E+01	  0.106973946	5.431400E+01	  0.106973946	4.179800E+01
436	  0.107174344	-8.534000E+00	  0.107174344	6.174800E+01	  0.107174344	5.471500E+01	  0.107174344	4.196800E+01
437	  0.107374750	-8.528000E+00	  0.107374750	6.115300E+01	  0.107374750	5.518800E+01	  0.107374750	4.212700E+01
438	  0.107575148	-8.510000E+00	  0.107575148	6.065400E+01	  0.107575148	5.557000E+01	  0.107575148	4.232900E+01
439	  0.107775547	-8.496000E+00	  0.107775547	6.008500E+01	  0.107775547	5.602000E+01	  0.107775547	4.252700E+01
440	  0.107975952	-8.483000E+00	  0.107975952	5.953000E+01	  0.107975952	5.646700E+01	  0.107975952	4.270800E+01
441	  0.108176351	-8.481000E+00	  0.108176351	5.901300E+01	  0.108176351	5.690200E+01	  0.108176351	4.282300E+01
442	  0.108376749	-8.466000E+00	  0.108376749	5.844800E+01	  0.108376749	5.736700E+01	  0.108376749	4.300900E+01
443	  0.108577155	-8.457000E+00	  0.108577155	5.792000E+01	  0.108577155	5.781400E+01	  0.108577155	4.315700E+01
444	  0.108777553	-8.453000E+00	  0.108777553	5.728100E+01	  0.108777553	5.836900E+01	  0.108777553	4.329200E+01
445	  0.108977959	-8.446000E+00	  0.108977959	5.670000E+01	  0.108977959	5.887800E+01	  0.108977959	4.343000E+01
446	  0.109178357	-8.437000E+00	  0.109178357	5.618100E+01	  0.109178357	5.933400E+01	  0.109178357	4.356200E+01
447	  0.109378755	-8.426000E+00	  0.109378755	5.554900E+01	  0.109378755	5.989800E+01	  0.109378755	4.372100E+01
448	  0.109579161	-8.416000E+00	  0.109579161	5.501100E+01	  0.109579161	6.038200E+01	  0.109579161	4.385800E+01
449	  0.109779559	-8.423000E+00	  0.109779559	5.444500E+01	  0.109779559	6.091500E+01	  0.109779559	4.388900E+01
450	  0.109979957	-8.406000E+00	  0.109979957	5.385700E+01	  0.109979957	6.145300E+01	  0.109979957	4.406600E+01
451	  0.110180363	-8.404000E+00	  0.110180363	5.325900E+01	  0.110180363	6.202000E+01	  0.110180363	4.414400E+01
452	  0.110380761	-8.395000E+00	  0.110380761	5.265900E+01	  0.110380761	6.259100E+01	  0.110380761	4.426400E+01
453	  0.110581160	-8.388000E+00	  0.110581160	5.207700E+01	  0.110581160	6.315200E+01	  0.110581160	4.436000E+01
454	  0.110781565	-8.383000E+00	  0.110781565	5.149700E+01	  0.110781565	6.372000E+01	  0.110781565	4.443900E+01
455	  0.110981964	-8.383000E+00	  0.110981964	5.085300E+01	  0.110981964	6.436000E+01	  0.110981964	4.448100E+01
456	  0.111182362	-8.372000E+00	  0.111182362	5.022700E+01	  0.111182362	6.498600E+01	  0.111182362	4.458600E+01
457	  0.111382768	-8.362000E+00	  0.111382768	4.961000E+01	  0.111382768	6.561100E+01	  0.111382768	4.467900E+01
458	  0.111583166	-8.357000E+00	  0.111583166	4.898600E+01	  0.111583166	6.625200E+01	  0.111583166	4.472700E+01
459	  0.111783572	-8.349000E+00	  0.111783572	4.832200E+01	  0.111783572	6.694200E+01	  0.111783572	4.478800E+01
460	  0.111983970	-8.344000E+00	  0.111983970	4.763700E+01	  0.111983970	6.766400E+01	  0.111983970	4.482200E+01
461	  0.112184368	-8.337000E+00	  0.112184368	4.699700E+01	  0.112184368	6.834600E+01	  0.112184368	4.486000E+01
462	  0.112384774	-8.328000E+00	  0.112384774	4.632000E+01	  0.112384774	6.907700E+01	  0.112384774	4.489500E+01
463	  0.112585172	-8.326000E+00	  0.112585172	4.557700E+01	  0.112585172	6.988600E+01	  0.112585172	4.487400E+01
464	  0.112785570	-8.320000E+00	  0.112785570	4.488700E+01	  0.112785570	7.064900E+01	  0.112785570	4.486700E+01
465	  0.112985976	-8.313000E+00	  0.112985976	4.417700E+01	  0.112985976	7.144200E+01	  0.112985976	4.484800E+01
466	  0.113186374	-8.305000E+00	  0.113186374	4.345500E+01	  0.113186374	7.226100E+01	  0.113186374	4.482600E+01
467	  0.113386773	-8.297000E+00	  0.113386773	4.270300E+01	  0.113386773	7.312300E+01	  0.113386773	4.478500E+01
468	  0.113587178	-8.293000E+00	  0.113587178	4.193300E+01	  0.113587178	7.401100E+01	  0.113587178	4.469000E+01
469	  0.113787577	-8.294000E+00	  0.113787577	4.117100E+01	  0.113787577	7.489400E+01	  0.113787577	4.454800E+01
470	  0.113987975	-8.290000E+00	  0.113987975	4.041300E+01	  0.113987975	7.578700E+01	  0.113987975	4.442000E+01
471	  0.114188381	-8.284000E+00	  0.114188381	3.963300E+01	  0.114188381	7.671700E+01	  0.114188381	4.428400E+01
472	  0.114388779	-8.284000E+00	  0.114388779	3.878600E+01	  0.114388779	7.772400E+01	  0.114388779	4.405500E+01
473	  0.114589177	-8.283000E+00	  0.114589177	3.800300E+01	  0.114589177	7.866500E+01	  0.114589177	4.383400E+01
474	  0.114789583	-8.285000E+00	  0.114789583	3.722300E+01	  0.114789583	7.960300E+01	  0.114789583	4.356600E+01
475	  0.114989981	-8.284000E+00	  0.114989981	3.636700E+01	  0.114989981	8.064400E+01	  0.114989981	4.326700E+01
476	  0.115190387	-8.293000E+00	  0.115190387	3.550800E+01	  0.115190387	8.167100E+01	  0.115190387	4.286400E+01
477	  0.115390785	-8.296000E+00	  0.115390785	3.468800E+01	  0.115390785	8.266500E+01	  0.115390785	4.248800E+01
478	  0.115591183	-8.307000E+00	  0.115591183	3.379900E+01	  0.115591183	8.372300E+01	  0.115591183	4.199300E+01
479	  0.115791589	-8.316000E+00	  0.115791589	3.292000E+01	  0.115791589	8.477100E+01	  0.115791589	4.148000E+01
480	  0.115991987	-8.326000E+00	  0.115991987	3.210000E+01	  0.115991987	8.574400E+01	  0.115991987	4.096300E+01
481	  0.116192386	-8.337000E+00	  0.116192386	3.118500E+01	  0.116192386	8.682100E+01	  0.116192386	4.034500E+01
482	  0.116392791	-8.352000E+00	  0.116392791	3.027600E+01	  0.116392791	8.786800E+01	  0.116392791	3.966300E+01
483	  0.116593190	-8.368000E+00	  0.116593190	2.930100E+01	  0.116593190	8.898100E+01	  0.116593190	3.889400E+01
484	  0.116793588	-8.390000E+00	  0.116793588	2.841900E+01	  0.116793588	8.994200E+01	  0.116793588	3.810400E+01
485	  0.116993994	-8.412000E+00	  0.116993994	2.743500E+01	  0.116993994	9.100400E+01	  0.116993994	3.719900E+01
486	  0.117194392	-8.434000E+00	  0.117194392	2.649400E+01	  0.117194392	9.199500E+01	  0.117194392	3.628800E+01
487	  0.117394790	-8.467000E+00	  0.117394790	2.549900E+01	  0.117394790	9.296200E+01	  0.117394790	3.520600E+01
488	  0.117595196	-8.497000E+00	  0.117595196	2.450500E+01	  0.117595196	9.390900E+01	  0.117595196	3.410700E+01
489	  0.117795594	-8.529000E+00	  0.117795594	2.347800E+01	  0.117795594	9.485100E+01	  0.117795594	3.292900E+01
490	  0.117995992	-8.570000E+00	  0.117995992	2.248200E+01	  0.117995992	9.565900E+01	  0.117995992	3.167700E+01
491	  0.118196398	-8.602000E+00	  0.118196398	2.143100E+01	  0.118196398	9.654100E+01	  0.118196398	3.039800E+01
492	  0.118396796	-8.641000E+00	  0.118396796	2.035500E+01	  0.118396796	9.735300E+01	  0.118396796	2.900900E+01
493	  0.118597202	-8.687000E+00	  0.118597202	1.926400E+01	  0.118597202	9.806900E+01	  0.118597202	2.752300E+01
494	  0.118797600	-8.729000E+00	  0.118797600	1.818000E+01	  0.118797600	9.875600E+01	  0.118797600	2.604700E+01
