! Anritsu VNA Master:             	Model: MS2036C/10/77
! SN:             	1601066
! /bd0/18may09/b252.ns.m2.txt
! Existing Calibration Information:
! TYPE:             	Current Settings	Active Cal Settings
! TIME:             	05/09/2018 09:47:05 PM	05/09/2018 09:39:16 PM
! INTERNAL TEMP:    	49.3 C	49.8 C
! # POINTS:         	494	494
! START FREQ:       	20.000 MHz	20.000 MHz
! STOP FREQ:        	118.797 594 MHz	118.797 594 MHz
! SOURCE POWER:     	High	High
! IFBW:             	50 Hz	50 Hz
! AVG FACTOR:       	  1 	  1 
! REF PLANE 1:      	0 mm	0 mm
! REF PLANE 2:      	0 mm	0 mm
! CAL TYPE:         	Full S22	Full S22
! CAL METHOD:       	SOLT	SOLT
! CAL LINE TYPE:    	Coax	Coax
! DUT PORT 1:       	K-Conn(M)	K-Conn(M)
! DUT PORT 2:       	K-Conn(M)	K-Conn(M)
! CAL STATUS:       	OK: Accuracy High	--
! PROP-V:       	0.700
! CABLE LOSS:       	0.000 dB/m
! REF IMPEDANCE:       	50.0
! Trace Specific Parameters:	TR1	TR2	TR3	TR4
! TRACE.#.Y (GRAPH TYPE)	LOG MAG	PHASE	REAL IMPEDANCE	IMAGINARY IMPEDANCE
! TRACE.#.X 	FREQ.GHZ	FREQ.GHZ	FREQ.GHZ	FREQ.GHZ
! S-PARAMETER	S22	S22	S22	S22
! SMOOTH/APERTURE %	0	0	0	0
! WINDOW	NSL	NSL	NSL	NSL
! GATING	OFF	OFF	OFF	OFF
! FGTD	OFF	OFF	OFF	OFF
Marker Information per Trace:	TR1	TR2	TR3	TR4
!MK1	--	"MK1 TR2:  20.000 MHz,PH:-125.33°"	--	--
!MK2	--	--	"MK2 TR3:  70.100 200 MHz,Z:(16.534 ohm, -1.544 ohm)"	--
!MK3	--	--	--	--
!MK4	--	--	--	--
!MK5	--	--	--	--
!MK6	--	--	--	--
!MK7	--	--	--	--
!MK8	--	--	--	--
PNT	TR1.FREQ.GHZ	TR1.LOG MAG.dB	TR2.FREQ.GHZ	TR2.PHASE.deg	TR3.FREQ.GHZ	TR3.REAL IMPEDANCE.ohm	TR4.FREQ.GHZ	TR4.IMAGINARY IMPEDANCE.ohm
1	  0.020000000	-6.080000E-01	  0.020000000	-1.253310E+02	  0.020000000	2.215000E+00	  0.020000000	-2.580400E+01
2	  0.020200402	-6.120000E-01	  0.020200402	-1.267720E+02	  0.020200402	2.205000E+00	  0.020200402	-2.501400E+01
3	  0.020400802	-6.160000E-01	  0.020400802	-1.282160E+02	  0.020400802	2.189000E+00	  0.020400802	-2.423100E+01
4	  0.020601204	-6.210000E-01	  0.020601204	-1.296980E+02	  0.020601204	2.181000E+00	  0.020601204	-2.343800E+01
5	  0.020801604	-6.250000E-01	  0.020801604	-1.311890E+02	  0.020801604	2.168000E+00	  0.020801604	-2.265000E+01
6	  0.021002004	-6.270000E-01	  0.021002004	-1.326920E+02	  0.021002004	2.152000E+00	  0.021002004	-2.186600E+01
7	  0.021202406	-6.310000E-01	  0.021202406	-1.341910E+02	  0.021202406	2.142000E+00	  0.021202406	-2.109200E+01
8	  0.021402806	-6.340000E-01	  0.021402806	-1.356980E+02	  0.021402806	2.126000E+00	  0.021402806	-2.032200E+01
9	  0.021603208	-6.360000E-01	  0.021603208	-1.371900E+02	  0.021603208	2.113000E+00	  0.021603208	-1.956900E+01
10	  0.021803608	-6.410000E-01	  0.021803608	-1.386740E+02	  0.021803608	2.108000E+00	  0.021803608	-1.882600E+01
11	  0.022004008	-6.480000E-01	  0.022004008	-1.401860E+02	  0.022004008	2.111000E+00	  0.022004008	-1.807800E+01
12	  0.022204408	-6.570000E-01	  0.022204408	-1.417050E+02	  0.022204408	2.118000E+00	  0.022204408	-1.733200E+01
13	  0.022404809	-6.590000E-01	  0.022404809	-1.432610E+02	  0.022404809	2.107000E+00	  0.022404809	-1.657600E+01
14	  0.022605211	-6.640000E-01	  0.022605211	-1.448330E+02	  0.022605211	2.103000E+00	  0.022605211	-1.581900E+01
15	  0.022805611	-6.680000E-01	  0.022805611	-1.463820E+02	  0.022805611	2.097000E+00	  0.022805611	-1.507900E+01
16	  0.023006011	-6.750000E-01	  0.023006011	-1.479310E+02	  0.023006011	2.102000E+00	  0.023006011	-1.434500E+01
17	  0.023206413	-6.800000E-01	  0.023206413	-1.494870E+02	  0.023206413	2.103000E+00	  0.023206413	-1.361400E+01
18	  0.023406813	-6.840000E-01	  0.023406813	-1.510370E+02	  0.023406813	2.099000E+00	  0.023406813	-1.289100E+01
19	  0.023607215	-6.910000E-01	  0.023607215	-1.526140E+02	  0.023607215	2.107000E+00	  0.023607215	-1.216100E+01
20	  0.023807615	-7.010000E-01	  0.023807615	-1.542020E+02	  0.023807615	2.124000E+00	  0.023807615	-1.143000E+01
21	  0.024008015	-7.090000E-01	  0.024008015	-1.558150E+02	  0.024008015	2.135000E+00	  0.024008015	-1.069300E+01
22	  0.024208417	-7.170000E-01	  0.024208417	-1.574510E+02	  0.024208417	2.145000E+00	  0.024208417	-9.949000E+00
23	  0.024408817	-7.220000E-01	  0.024408817	-1.590940E+02	  0.024408817	2.148000E+00	  0.024408817	-9.207000E+00
24	  0.024609219	-7.280000E-01	  0.024609219	-1.607320E+02	  0.024609219	2.155000E+00	  0.024609219	-8.471000E+00
25	  0.024809619	-7.370000E-01	  0.024809619	-1.623690E+02	  0.024809619	2.173000E+00	  0.024809619	-7.739000E+00
26	  0.025010020	-7.470000E-01	  0.025010020	-1.640160E+02	  0.025010020	2.191000E+00	  0.025010020	-7.006000E+00
27	  0.025210422	-7.570000E-01	  0.025210422	-1.656770E+02	  0.025210422	2.214000E+00	  0.025210422	-6.269000E+00
28	  0.025410822	-7.690000E-01	  0.025410822	-1.673510E+02	  0.025410822	2.240000E+00	  0.025410822	-5.530000E+00
29	  0.025611224	-7.800000E-01	  0.025611224	-1.690470E+02	  0.025611224	2.265000E+00	  0.025611224	-4.783000E+00
30	  0.025811624	-7.910000E-01	  0.025811624	-1.707400E+02	  0.025811624	2.291000E+00	  0.025811624	-4.040000E+00
31	  0.026012026	-8.010000E-01	  0.026012026	-1.724470E+02	  0.026012026	2.315000E+00	  0.026012026	-3.293000E+00
32	  0.026212426	-8.120000E-01	  0.026212426	-1.741690E+02	  0.026212426	2.342000E+00	  0.026212426	-2.540000E+00
33	  0.026412826	-8.270000E-01	  0.026412826	-1.758890E+02	  0.026412826	2.382000E+00	  0.026412826	-1.790000E+00
34	  0.026613226	-8.410000E-01	  0.026613226	-1.776170E+02	  0.026613226	2.419000E+00	  0.026613226	-1.037000E+00
35	  0.026813626	-8.560000E-01	  0.026813626	-1.793660E+02	  0.026813626	2.463000E+00	  0.026813626	-2.750000E-01
36	  0.027014028	-8.730000E-01	  0.027014028	1.788900E+02	  0.027014028	2.512000E+00	  0.027014028	4.830000E-01
37	  0.027214428	-8.900000E-01	  0.027214428	1.771370E+02	  0.027214428	2.561000E+00	  0.027214428	1.245000E+00
38	  0.027414829	-9.070000E-01	  0.027414829	1.753750E+02	  0.027414829	2.614000E+00	  0.027414829	2.013000E+00
39	  0.027615231	-9.240000E-01	  0.027615231	1.735910E+02	  0.027615231	2.667000E+00	  0.027615231	2.791000E+00
40	  0.027815631	-9.430000E-01	  0.027815631	1.718150E+02	  0.027815631	2.726000E+00	  0.027815631	3.566000E+00
41	  0.028016033	-9.640000E-01	  0.028016033	1.700130E+02	  0.028016033	2.792000E+00	  0.028016033	4.355000E+00
42	  0.028216433	-9.860000E-01	  0.028216433	1.682010E+02	  0.028216433	2.865000E+00	  0.028216433	5.149000E+00
43	  0.028416833	-1.008000E+00	  0.028416833	1.663840E+02	  0.028416833	2.941000E+00	  0.028416833	5.948000E+00
44	  0.028617235	-1.031000E+00	  0.028617235	1.645670E+02	  0.028617235	3.021000E+00	  0.028617235	6.750000E+00
45	  0.028817635	-1.056000E+00	  0.028817635	1.627570E+02	  0.028817635	3.105000E+00	  0.028817635	7.552000E+00
46	  0.029018037	-1.082000E+00	  0.029018037	1.609230E+02	  0.029018037	3.198000E+00	  0.029018037	8.367000E+00
47	  0.029218437	-1.109000E+00	  0.029218437	1.590740E+02	  0.029218437	3.297000E+00	  0.029218437	9.194000E+00
48	  0.029418837	-1.138000E+00	  0.029418837	1.572270E+02	  0.029418837	3.404000E+00	  0.029418837	1.002400E+01
49	  0.029619239	-1.169000E+00	  0.029619239	1.553580E+02	  0.029619239	3.519000E+00	  0.029619239	1.086900E+01
50	  0.029819639	-1.198000E+00	  0.029819639	1.534840E+02	  0.029819639	3.634000E+00	  0.029819639	1.172100E+01
51	  0.030020041	-1.230000E+00	  0.030020041	1.516030E+02	  0.030020041	3.760000E+00	  0.030020041	1.258300E+01
52	  0.030220442	-1.261000E+00	  0.030220442	1.497340E+02	  0.030220442	3.887000E+00	  0.030220442	1.344500E+01
53	  0.030420844	-1.293000E+00	  0.030420844	1.478580E+02	  0.030420844	4.021000E+00	  0.030420844	1.431800E+01
54	  0.030621244	-1.326000E+00	  0.030621244	1.459960E+02	  0.030621244	4.166000E+00	  0.030621244	1.519100E+01
55	  0.030821642	-1.363000E+00	  0.030821642	1.441180E+02	  0.030821642	4.323000E+00	  0.030821642	1.607900E+01
56	  0.031022044	-1.397000E+00	  0.031022044	1.422090E+02	  0.031022044	4.479000E+00	  0.031022044	1.699100E+01
57	  0.031222444	-1.424000E+00	  0.031222444	1.403500E+02	  0.031222444	4.618000E+00	  0.031222444	1.788900E+01
58	  0.031422846	-1.458000E+00	  0.031422846	1.384190E+02	  0.031422846	4.785000E+00	  0.031422846	1.883100E+01
59	  0.031623244	-1.493000E+00	  0.031623244	1.365050E+02	  0.031623244	4.963000E+00	  0.031623244	1.977500E+01
60	  0.031823646	-1.526000E+00	  0.031823646	1.345770E+02	  0.031823646	5.142000E+00	  0.031823646	2.073800E+01
61	  0.032024048	-1.562000E+00	  0.032024048	1.326540E+02	  0.032024048	5.339000E+00	  0.032024048	2.171000E+01
62	  0.032224450	-1.596000E+00	  0.032224450	1.307280E+02	  0.032224450	5.537000E+00	  0.032224450	2.269600E+01
63	  0.032424849	-1.632000E+00	  0.032424849	1.287920E+02	  0.032424849	5.748000E+00	  0.032424849	2.370100E+01
64	  0.032625251	-1.666000E+00	  0.032625251	1.268180E+02	  0.032625251	5.965000E+00	  0.032625251	2.474200E+01
65	  0.032825653	-1.698000E+00	  0.032825653	1.248050E+02	  0.032825653	6.190000E+00	  0.032825653	2.582100E+01
66	  0.033026051	-1.735000E+00	  0.033026051	1.228330E+02	  0.033026051	6.438000E+00	  0.033026051	2.689200E+01
67	  0.033226453	-1.770000E+00	  0.033226453	1.207970E+02	  0.033226453	6.693000E+00	  0.033226453	2.801800E+01
68	  0.033426855	-1.805000E+00	  0.033426855	1.188090E+02	  0.033426855	6.962000E+00	  0.033426855	2.913800E+01
69	  0.033627257	-1.845000E+00	  0.033627257	1.168030E+02	  0.033627257	7.264000E+00	  0.033627257	3.028400E+01
70	  0.033827655	-1.883000E+00	  0.033827655	1.147900E+02	  0.033827655	7.573000E+00	  0.033827655	3.145800E+01
71	  0.034028057	-1.922000E+00	  0.034028057	1.127670E+02	  0.034028057	7.904000E+00	  0.034028057	3.266100E+01
72	  0.034228459	-1.965000E+00	  0.034228459	1.107110E+02	  0.034228459	8.271000E+00	  0.034228459	3.390500E+01
73	  0.034428857	-2.008000E+00	  0.034428857	1.086540E+02	  0.034428857	8.660000E+00	  0.034428857	3.517700E+01
74	  0.034629259	-2.050000E+00	  0.034629259	1.065920E+02	  0.034629259	9.070000E+00	  0.034629259	3.647900E+01
75	  0.034829661	-2.096000E+00	  0.034829661	1.045170E+02	  0.034829661	9.522000E+00	  0.034829661	3.781600E+01
76	  0.035030060	-2.143000E+00	  0.035030060	1.024480E+02	  0.035030060	1.000000E+01	  0.035030060	3.918000E+01
77	  0.035230462	-2.191000E+00	  0.035230462	1.003840E+02	  0.035230462	1.051800E+01	  0.035230462	4.056900E+01
78	  0.035430863	-2.240000E+00	  0.035430863	9.829200E+01	  0.035430863	1.107100E+01	  0.035430863	4.201200E+01
79	  0.035631265	-2.289000E+00	  0.035631265	9.621500E+01	  0.035631265	1.166100E+01	  0.035631265	4.347900E+01
80	  0.035831664	-2.338000E+00	  0.035831664	9.412000E+01	  0.035831664	1.229000E+01	  0.035831664	4.499700E+01
81	  0.036032066	-2.389000E+00	  0.036032066	9.203000E+01	  0.036032066	1.297600E+01	  0.036032066	4.654600E+01
82	  0.036232468	-2.439000E+00	  0.036232468	8.990800E+01	  0.036232468	1.370600E+01	  0.036232468	4.816400E+01
83	  0.036432866	-2.491000E+00	  0.036432866	8.780800E+01	  0.036432866	1.449300E+01	  0.036432866	4.980400E+01
84	  0.036633268	-2.545000E+00	  0.036633268	8.569800E+01	  0.036633268	1.535100E+01	  0.036633268	5.149400E+01
85	  0.036833670	-2.597000E+00	  0.036833670	8.356700E+01	  0.036833670	1.626800E+01	  0.036833670	5.325100E+01
86	  0.037034072	-2.655000E+00	  0.037034072	8.146800E+01	  0.037034072	1.727500E+01	  0.037034072	5.501700E+01
87	  0.037234470	-2.709000E+00	  0.037234470	7.932400E+01	  0.037234470	1.835300E+01	  0.037234470	5.688000E+01
88	  0.037434869	-2.763000E+00	  0.037434869	7.720600E+01	  0.037434869	1.950300E+01	  0.037434869	5.877200E+01
89	  0.037635271	-2.818000E+00	  0.037635271	7.509200E+01	  0.037635271	2.074500E+01	  0.037635271	6.071100E+01
90	  0.037835669	-2.881000E+00	  0.037835669	7.290800E+01	  0.037835669	2.218100E+01	  0.037835669	6.274800E+01
91	  0.038036071	-2.945000E+00	  0.038036071	7.075600E+01	  0.038036071	2.372300E+01	  0.038036071	6.480200E+01
92	  0.038236473	-3.014000E+00	  0.038236473	6.866000E+01	  0.038236473	2.540200E+01	  0.038236473	6.682300E+01
93	  0.038436871	-3.074000E+00	  0.038436871	6.659100E+01	  0.038436871	2.712800E+01	  0.038436871	6.889600E+01
94	  0.038637273	-3.132000E+00	  0.038637273	6.449100E+01	  0.038637273	2.901200E+01	  0.038637273	7.105400E+01
95	  0.038837675	-3.187000E+00	  0.038837675	6.237100E+01	  0.038837675	3.104500E+01	  0.038837675	7.330000E+01
96	  0.039038073	-3.241000E+00	  0.039038073	6.027600E+01	  0.039038073	3.323100E+01	  0.039038073	7.556300E+01
97	  0.039238475	-3.296000E+00	  0.039238475	5.817100E+01	  0.039238475	3.562800E+01	  0.039238475	7.787500E+01
98	  0.039438877	-3.355000E+00	  0.039438877	5.607400E+01	  0.039438877	3.826700E+01	  0.039438877	8.017800E+01
99	  0.039639279	-3.413000E+00	  0.039639279	5.395000E+01	  0.039639279	4.116000E+01	  0.039639279	8.254700E+01
100	  0.039839678	-3.470000E+00	  0.039839678	5.183300E+01	  0.039839678	4.431000E+01	  0.039839678	8.491600E+01
101	  0.040040080	-3.529000E+00	  0.040040080	4.972300E+01	  0.040040080	4.775800E+01	  0.040040080	8.724700E+01
102	  0.040240481	-3.583000E+00	  0.040240481	4.760200E+01	  0.040240481	5.149500E+01	  0.040240481	8.961000E+01
103	  0.040440880	-3.639000E+00	  0.040440880	4.551700E+01	  0.040440880	5.553700E+01	  0.040440880	9.184500E+01
104	  0.040641282	-3.698000E+00	  0.040641282	4.341300E+01	  0.040641282	6.000600E+01	  0.040641282	9.398500E+01
105	  0.040841684	-3.757000E+00	  0.040841684	4.134300E+01	  0.040841684	6.480300E+01	  0.040841684	9.593800E+01
106	  0.041042086	-3.814000E+00	  0.041042086	3.926900E+01	  0.041042086	7.001200E+01	  0.041042086	9.773700E+01
107	  0.041242484	-3.872000E+00	  0.041242484	3.717200E+01	  0.041242484	7.573000E+01	  0.041242484	9.929800E+01
108	  0.041442886	-3.930000E+00	  0.041442886	3.508200E+01	  0.041442886	8.188600E+01	  0.041442886	1.005540E+02
109	  0.041643288	-3.984000E+00	  0.041643288	3.297200E+01	  0.041643288	8.856700E+01	  0.041643288	1.014850E+02
110	  0.041843686	-4.041000E+00	  0.041843686	3.090900E+01	  0.041843686	9.559500E+01	  0.041843686	1.018290E+02
111	  0.042044088	-4.095000E+00	  0.042044088	2.882700E+01	  0.042044088	1.031300E+02	  0.042044088	1.016610E+02
112	  0.042244490	-4.153000E+00	  0.042244490	2.676400E+01	  0.042244490	1.110210E+02	  0.042244490	1.006810E+02
113	  0.042444889	-4.207000E+00	  0.042444889	2.470800E+01	  0.042444889	1.192240E+02	  0.042444889	9.897100E+01
114	  0.042645290	-4.265000E+00	  0.042645290	2.266800E+01	  0.042645290	1.275890E+02	  0.042645290	9.620300E+01
115	  0.042845692	-4.318000E+00	  0.042845692	2.060700E+01	  0.042845692	1.361900E+02	  0.042845692	9.255500E+01
116	  0.043046094	-4.372000E+00	  0.043046094	1.856100E+01	  0.043046094	1.446740E+02	  0.043046094	8.773200E+01
117	  0.043246493	-4.427000E+00	  0.043246493	1.650300E+01	  0.043246493	1.529530E+02	  0.043246493	8.166400E+01
118	  0.043446895	-4.475000E+00	  0.043446895	1.447100E+01	  0.043446895	1.607580E+02	  0.043446895	7.461500E+01
119	  0.043647297	-4.527000E+00	  0.043647297	1.243300E+01	  0.043647297	1.678470E+02	  0.043647297	6.629200E+01
120	  0.043847695	-4.579000E+00	  0.043847695	1.041600E+01	  0.043847695	1.738900E+02	  0.043847695	5.695700E+01
121	  0.044048097	-4.628000E+00	  0.044048097	8.409000E+00	  0.044048097	1.788460E+02	  0.044048097	4.683400E+01
122	  0.044248499	-4.681000E+00	  0.044248499	6.415000E+00	  0.044248499	1.823470E+02	  0.044248499	3.603400E+01
123	  0.044448901	-4.727000E+00	  0.044448901	4.439000E+00	  0.044448901	1.845920E+02	  0.044448901	2.499900E+01
124	  0.044649299	-4.777000E+00	  0.044649299	2.469000E+00	  0.044649299	1.852460E+02	  0.044649299	1.380500E+01
125	  0.044849701	-4.822000E+00	  0.044849701	4.960000E-01	  0.044849701	1.846690E+02	  0.044849701	2.738000E+00
126	  0.045050103	-4.868000E+00	  0.045050103	-1.479000E+00	  0.045050103	1.826660E+02	  0.045050103	-7.986000E+00
127	  0.045250501	-4.916000E+00	  0.045250501	-3.409000E+00	  0.045250501	1.794430E+02	  0.045250501	-1.788600E+01
128	  0.045450903	-4.959000E+00	  0.045450903	-5.347000E+00	  0.045450903	1.753180E+02	  0.045450903	-2.711600E+01
129	  0.045651305	-5.004000E+00	  0.045651305	-7.272000E+00	  0.045651305	1.703120E+02	  0.045651305	-3.542800E+01
130	  0.045851704	-5.043000E+00	  0.045851704	-9.183000E+00	  0.045851704	1.648360E+02	  0.045851704	-4.285300E+01
131	  0.046052102	-5.084000E+00	  0.046052102	-1.108300E+01	  0.046052102	1.588770E+02	  0.046052102	-4.931300E+01
132	  0.046252504	-5.125000E+00	  0.046252504	-1.297500E+01	  0.046252504	1.526090E+02	  0.046252504	-5.482700E+01
133	  0.046452906	-5.164000E+00	  0.046452906	-1.485000E+01	  0.046452906	1.462670E+02	  0.046452906	-5.948200E+01
134	  0.046653304	-5.203000E+00	  0.046653304	-1.673400E+01	  0.046653304	1.398540E+02	  0.046653304	-6.336100E+01
135	  0.046853706	-5.236000E+00	  0.046853706	-1.859700E+01	  0.046853706	1.336130E+02	  0.046853706	-6.657300E+01
136	  0.047054108	-5.271000E+00	  0.047054108	-2.049000E+01	  0.047054108	1.273550E+02	  0.047054108	-6.912700E+01
137	  0.047254506	-5.305000E+00	  0.047254506	-2.235100E+01	  0.047254506	1.213780E+02	  0.047254506	-7.106100E+01
138	  0.047454908	-5.335000E+00	  0.047454908	-2.418900E+01	  0.047454908	1.156960E+02	  0.047454908	-7.252800E+01
139	  0.047655310	-5.366000E+00	  0.047655310	-2.602200E+01	  0.047655310	1.102400E+02	  0.047655310	-7.350600E+01
140	  0.047855709	-5.399000E+00	  0.047855709	-2.781000E+01	  0.047855709	1.051440E+02	  0.047855709	-7.405400E+01
141	  0.048056111	-5.429000E+00	  0.048056111	-2.962100E+01	  0.048056111	1.002390E+02	  0.048056111	-7.432200E+01
142	  0.048256513	-5.458000E+00	  0.048256513	-3.142400E+01	  0.048256513	9.560400E+01	  0.048256513	-7.432300E+01
143	  0.048456915	-5.486000E+00	  0.048456915	-3.322000E+01	  0.048456915	9.123500E+01	  0.048456915	-7.410400E+01
144	  0.048657313	-5.509000E+00	  0.048657313	-3.500500E+01	  0.048657313	8.712800E+01	  0.048657313	-7.375300E+01
145	  0.048857715	-5.535000E+00	  0.048857715	-3.680900E+01	  0.048857715	8.320800E+01	  0.048857715	-7.317400E+01
146	  0.049058117	-5.559000E+00	  0.049058117	-3.858400E+01	  0.049058117	7.956700E+01	  0.049058117	-7.248200E+01
147	  0.049258515	-5.582000E+00	  0.049258515	-4.032900E+01	  0.049258515	7.619300E+01	  0.049258515	-7.168100E+01
148	  0.049458917	-5.603000E+00	  0.049458917	-4.204500E+01	  0.049458917	7.305500E+01	  0.049458917	-7.082700E+01
149	  0.049659319	-5.628000E+00	  0.049659319	-4.373800E+01	  0.049659319	7.014400E+01	  0.049659319	-6.985400E+01
150	  0.049859721	-5.652000E+00	  0.049859721	-4.547800E+01	  0.049859721	6.732200E+01	  0.049859721	-6.880500E+01
151	  0.050060119	-5.672000E+00	  0.050060119	-4.719800E+01	  0.050060119	6.468300E+01	  0.050060119	-6.775200E+01
152	  0.050260521	-5.688000E+00	  0.050260521	-4.887500E+01	  0.050260521	6.224300E+01	  0.050260521	-6.671200E+01
153	  0.050460923	-5.708000E+00	  0.050460923	-5.058600E+01	  0.050460923	5.989900E+01	  0.050460923	-6.559400E+01
154	  0.050661322	-5.724000E+00	  0.050661322	-5.225900E+01	  0.050661322	5.772600E+01	  0.050661322	-6.449500E+01
155	  0.050861724	-5.741000E+00	  0.050861724	-5.391300E+01	  0.050861724	5.569900E+01	  0.050861724	-6.338200E+01
156	  0.051062126	-5.761000E+00	  0.051062126	-5.556700E+01	  0.051062126	5.379500E+01	  0.051062126	-6.222400E+01
157	  0.051262524	-5.778000E+00	  0.051262524	-5.720800E+01	  0.051262524	5.199400E+01	  0.051262524	-6.109300E+01
158	  0.051462926	-5.794000E+00	  0.051462926	-5.883800E+01	  0.051462926	5.029700E+01	  0.051462926	-5.997300E+01
159	  0.051663328	-5.808000E+00	  0.051663328	-6.047500E+01	  0.051663328	4.867700E+01	  0.051663328	-5.885100E+01
160	  0.051863730	-5.824000E+00	  0.051863730	-6.209900E+01	  0.051863730	4.716100E+01	  0.051863730	-5.772500E+01
161	  0.052064128	-5.835000E+00	  0.052064128	-6.370700E+01	  0.052064128	4.571500E+01	  0.052064128	-5.664500E+01
162	  0.052264530	-5.841000E+00	  0.052264530	-6.532800E+01	  0.052264530	4.431100E+01	  0.052264530	-5.558600E+01
163	  0.052464932	-5.854000E+00	  0.052464932	-6.690600E+01	  0.052464932	4.304100E+01	  0.052464932	-5.451500E+01
164	  0.052665330	-5.870000E+00	  0.052665330	-6.848900E+01	  0.052665330	4.184100E+01	  0.052665330	-5.343500E+01
165	  0.052865732	-5.883000E+00	  0.052865732	-7.004500E+01	  0.052865732	4.071100E+01	  0.052865732	-5.239000E+01
166	  0.053066134	-5.896000E+00	  0.053066134	-7.161800E+01	  0.053066134	3.962100E+01	  0.053066134	-5.134500E+01
167	  0.053266536	-5.904000E+00	  0.053266536	-7.316300E+01	  0.053266536	3.857900E+01	  0.053266536	-5.035100E+01
168	  0.053466935	-5.916000E+00	  0.053466935	-7.473700E+01	  0.053466935	3.758500E+01	  0.053466935	-4.932800E+01
169	  0.053667337	-5.924000E+00	  0.053667337	-7.626700E+01	  0.053667337	3.665100E+01	  0.053667337	-4.835700E+01
170	  0.053867739	-5.932000E+00	  0.053867739	-7.779700E+01	  0.053867739	3.575400E+01	  0.053867739	-4.739800E+01
171	  0.054068137	-5.941000E+00	  0.054068137	-7.934900E+01	  0.054068137	3.489400E+01	  0.054068137	-4.642600E+01
172	  0.054268539	-5.949000E+00	  0.054268539	-8.085500E+01	  0.054268539	3.409300E+01	  0.054268539	-4.549700E+01
173	  0.054468941	-5.958000E+00	  0.054468941	-8.235100E+01	  0.054468941	3.333500E+01	  0.054468941	-4.458000E+01
174	  0.054669335	-5.964000E+00	  0.054669335	-8.383700E+01	  0.054669335	3.260300E+01	  0.054669335	-4.368800E+01
175	  0.054869737	-5.974000E+00	  0.054869737	-8.530500E+01	  0.054869737	3.192500E+01	  0.054869737	-4.280400E+01
176	  0.055070139	-5.982000E+00	  0.055070139	-8.677100E+01	  0.055070139	3.127000E+01	  0.055070139	-4.193700E+01
177	  0.055270538	-5.991000E+00	  0.055270538	-8.822600E+01	  0.055270538	3.065100E+01	  0.055270538	-4.108100E+01
178	  0.055470940	-5.995000E+00	  0.055470940	-8.965700E+01	  0.055470940	3.005100E+01	  0.055470940	-4.026100E+01
179	  0.055671342	-5.996000E+00	  0.055671342	-9.110900E+01	  0.055671342	2.945500E+01	  0.055671342	-3.944500E+01
180	  0.055871744	-6.002000E+00	  0.055871744	-9.250700E+01	  0.055871744	2.891800E+01	  0.055871744	-3.865700E+01
181	  0.056072142	-6.009000E+00	  0.056072142	-9.390300E+01	  0.056072142	2.840900E+01	  0.056072142	-3.787400E+01
182	  0.056272544	-6.014000E+00	  0.056272544	-9.528100E+01	  0.056272544	2.791900E+01	  0.056272544	-3.711400E+01
183	  0.056472946	-6.018000E+00	  0.056472946	-9.663900E+01	  0.056472946	2.745100E+01	  0.056472946	-3.637300E+01
184	  0.056673344	-6.021000E+00	  0.056673344	-9.798100E+01	  0.056673344	2.700200E+01	  0.056673344	-3.565100E+01
185	  0.056873746	-6.022000E+00	  0.056873746	-9.934200E+01	  0.056873746	2.655700E+01	  0.056873746	-3.492800E+01
186	  0.057074148	-6.027000E+00	  0.057074148	-1.006780E+02	  0.057074148	2.614900E+01	  0.057074148	-3.421800E+01
187	  0.057274550	-6.023000E+00	  0.057274550	-1.020000E+02	  0.057274550	2.573200E+01	  0.057274550	-3.353900E+01
188	  0.057474948	-6.025000E+00	  0.057474948	-1.033290E+02	  0.057474948	2.534400E+01	  0.057474948	-3.285200E+01
189	  0.057675350	-6.027000E+00	  0.057675350	-1.046530E+02	  0.057675350	2.497300E+01	  0.057675350	-3.217200E+01
190	  0.057875752	-6.027000E+00	  0.057875752	-1.059750E+02	  0.057875752	2.461000E+01	  0.057875752	-3.150200E+01
191	  0.058076151	-6.028000E+00	  0.058076151	-1.072800E+02	  0.058076151	2.426400E+01	  0.058076151	-3.084700E+01
192	  0.058276553	-6.027000E+00	  0.058276553	-1.085720E+02	  0.058276553	2.392900E+01	  0.058276553	-3.020600E+01
193	  0.058476955	-6.026000E+00	  0.058476955	-1.098610E+02	  0.058476955	2.360600E+01	  0.058476955	-2.957100E+01
194	  0.058677353	-6.021000E+00	  0.058677353	-1.111650E+02	  0.058677353	2.327800E+01	  0.058677353	-2.894000E+01
195	  0.058877755	-6.018000E+00	  0.058877755	-1.124650E+02	  0.058877755	2.296900E+01	  0.058877755	-2.831200E+01
196	  0.059078157	-6.014000E+00	  0.059078157	-1.137450E+02	  0.059078157	2.267200E+01	  0.059078157	-2.770100E+01
197	  0.059278559	-6.010000E+00	  0.059278559	-1.150630E+02	  0.059278559	2.237500E+01	  0.059278559	-2.707500E+01
198	  0.059478957	-6.006000E+00	  0.059478957	-1.163360E+02	  0.059478957	2.209900E+01	  0.059478957	-2.647600E+01
199	  0.059679359	-6.006000E+00	  0.059679359	-1.176190E+02	  0.059679359	2.184100E+01	  0.059679359	-2.587100E+01
200	  0.059879761	-5.999000E+00	  0.059879761	-1.188910E+02	  0.059879761	2.157300E+01	  0.059879761	-2.528400E+01
201	  0.060080159	-5.999000E+00	  0.060080159	-1.201570E+02	  0.060080159	2.133400E+01	  0.060080159	-2.469600E+01
202	  0.060280561	-5.995000E+00	  0.060280561	-1.214230E+02	  0.060280561	2.109300E+01	  0.060280561	-2.411600E+01
203	  0.060480963	-5.990000E+00	  0.060480963	-1.226990E+02	  0.060480963	2.085600E+01	  0.060480963	-2.353600E+01
204	  0.060681365	-5.986000E+00	  0.060681365	-1.239490E+02	  0.060681365	2.063300E+01	  0.060681365	-2.297100E+01
205	  0.060881764	-5.982000E+00	  0.060881764	-1.252030E+02	  0.060881764	2.041700E+01	  0.060881764	-2.240800E+01
206	  0.061082166	-5.975000E+00	  0.061082166	-1.264700E+02	  0.061082166	2.019900E+01	  0.061082166	-2.184500E+01
207	  0.061282568	-5.975000E+00	  0.061282568	-1.276970E+02	  0.061282568	2.001400E+01	  0.061282568	-2.129600E+01
208	  0.061482966	-5.969000E+00	  0.061482966	-1.289240E+02	  0.061482966	1.981500E+01	  0.061482966	-2.075700E+01
209	  0.061683368	-5.967000E+00	  0.061683368	-1.301360E+02	  0.061683368	1.963800E+01	  0.061683368	-2.022400E+01
210	  0.061883770	-5.963000E+00	  0.061883770	-1.313410E+02	  0.061883770	1.946200E+01	  0.061883770	-1.969900E+01
211	  0.062084168	-5.959000E+00	  0.062084168	-1.325480E+02	  0.062084168	1.929300E+01	  0.062084168	-1.917500E+01
212	  0.062284570	-5.956000E+00	  0.062284570	-1.337310E+02	  0.062284570	1.913400E+01	  0.062284570	-1.866300E+01
213	  0.062484972	-5.939000E+00	  0.062484972	-1.348650E+02	  0.062484972	1.894800E+01	  0.062484972	-1.818700E+01
214	  0.062685370	-5.939000E+00	  0.062685370	-1.360730E+02	  0.062685370	1.880300E+01	  0.062685370	-1.766700E+01
215	  0.062885776	-5.936000E+00	  0.062885776	-1.372250E+02	  0.062885776	1.866300E+01	  0.062885776	-1.717700E+01
216	  0.063086174	-5.937000E+00	  0.063086174	-1.383960E+02	  0.063086174	1.853900E+01	  0.063086174	-1.667700E+01
217	  0.063286573	-5.934000E+00	  0.063286573	-1.395740E+02	  0.063286573	1.840400E+01	  0.063286573	-1.618000E+01
218	  0.063486971	-5.932000E+00	  0.063486971	-1.407140E+02	  0.063486971	1.828200E+01	  0.063486971	-1.570000E+01
219	  0.063687377	-5.930000E+00	  0.063687377	-1.418240E+02	  0.063687377	1.816800E+01	  0.063687377	-1.523500E+01
220	  0.063887775	-5.925000E+00	  0.063887775	-1.429520E+02	  0.063887775	1.804700E+01	  0.063887775	-1.476600E+01
221	  0.064088173	-5.923000E+00	  0.064088173	-1.441220E+02	  0.064088173	1.793500E+01	  0.064088173	-1.428000E+01
222	  0.064288579	-5.927000E+00	  0.064288579	-1.452620E+02	  0.064288579	1.784600E+01	  0.064288579	-1.380500E+01
223	  0.064488977	-5.926000E+00	  0.064488977	-1.463760E+02	  0.064488977	1.774900E+01	  0.064488977	-1.334500E+01
224	  0.064689375	-5.926000E+00	  0.064689375	-1.475010E+02	  0.064689375	1.765900E+01	  0.064689375	-1.288100E+01
225	  0.064889781	-5.932000E+00	  0.064889781	-1.486490E+02	  0.064889781	1.758500E+01	  0.064889781	-1.240800E+01
226	  0.065090179	-5.928000E+00	  0.065090179	-1.497230E+02	  0.065090179	1.749500E+01	  0.065090179	-1.197100E+01
227	  0.065290578	-5.930000E+00	  0.065290578	-1.508600E+02	  0.065290578	1.741900E+01	  0.065290578	-1.150700E+01
228	  0.065490983	-5.931000E+00	  0.065490983	-1.519530E+02	  0.065490983	1.734600E+01	  0.065490983	-1.106300E+01
229	  0.065691382	-5.934000E+00	  0.065691382	-1.530520E+02	  0.065691382	1.728400E+01	  0.065691382	-1.061700E+01
230	  0.065891780	-5.933000E+00	  0.065891780	-1.541770E+02	  0.065891780	1.720900E+01	  0.065891780	-1.016400E+01
231	  0.066092186	-5.934000E+00	  0.066092186	-1.552650E+02	  0.066092186	1.714800E+01	  0.066092186	-9.726000E+00
232	  0.066292584	-5.938000E+00	  0.066292584	-1.563480E+02	  0.066292584	1.709700E+01	  0.066292584	-9.290000E+00
233	  0.066492982	-5.937000E+00	  0.066492982	-1.574360E+02	  0.066492982	1.703400E+01	  0.066492982	-8.856000E+00
234	  0.066693388	-5.937000E+00	  0.066693388	-1.585180E+02	  0.066693388	1.698000E+01	  0.066693388	-8.424000E+00
235	  0.066893786	-5.942000E+00	  0.066893786	-1.596160E+02	  0.066893786	1.693900E+01	  0.066893786	-7.986000E+00
236	  0.067094192	-5.939000E+00	  0.067094192	-1.606530E+02	  0.067094192	1.688400E+01	  0.067094192	-7.575000E+00
237	  0.067294590	-5.942000E+00	  0.067294590	-1.617210E+02	  0.067294590	1.684500E+01	  0.067294590	-7.151000E+00
238	  0.067494988	-5.941000E+00	  0.067494988	-1.627930E+02	  0.067494988	1.679900E+01	  0.067494988	-6.727000E+00
239	  0.067695394	-5.944000E+00	  0.067695394	-1.638440E+02	  0.067695394	1.676700E+01	  0.067695394	-6.312000E+00
240	  0.067895792	-5.946000E+00	  0.067895792	-1.648930E+02	  0.067895792	1.673300E+01	  0.067895792	-5.898000E+00
241	  0.068096191	-5.947000E+00	  0.068096191	-1.659430E+02	  0.068096191	1.670100E+01	  0.068096191	-5.485000E+00
242	  0.068296596	-5.951000E+00	  0.068296596	-1.669760E+02	  0.068296596	1.668000E+01	  0.068296596	-5.079000E+00
243	  0.068496995	-5.948000E+00	  0.068496995	-1.679950E+02	  0.068496995	1.664300E+01	  0.068496995	-4.680000E+00
244	  0.068697393	-5.952000E+00	  0.068697393	-1.690090E+02	  0.068697393	1.662700E+01	  0.068697393	-4.282000E+00
245	  0.068897791	-5.952000E+00	  0.068897791	-1.700300E+02	  0.068897791	1.660300E+01	  0.068897791	-3.883000E+00
246	  0.069098189	-5.949000E+00	  0.069098189	-1.710510E+02	  0.069098189	1.657500E+01	  0.069098189	-3.484000E+00
247	  0.069298595	-5.953000E+00	  0.069298595	-1.720570E+02	  0.069298595	1.656500E+01	  0.069298595	-3.091000E+00
248	  0.069498993	-5.955000E+00	  0.069498993	-1.730650E+02	  0.069498993	1.655500E+01	  0.069498993	-2.698000E+00
249	  0.069699399	-5.956000E+00	  0.069699399	-1.740550E+02	  0.069699399	1.654100E+01	  0.069699399	-2.312000E+00
250	  0.069899797	-5.957000E+00	  0.069899797	-1.750420E+02	  0.069899797	1.653300E+01	  0.069899797	-1.928000E+00
251	  0.070100196	-5.961000E+00	  0.070100196	-1.760290E+02	  0.070100196	1.653300E+01	  0.070100196	-1.543000E+00
252	  0.070300601	-5.963000E+00	  0.070300601	-1.770010E+02	  0.070300601	1.653000E+01	  0.070300601	-1.165000E+00
253	  0.070501000	-5.963000E+00	  0.070501000	-1.779640E+02	  0.070501000	1.652400E+01	  0.070501000	-7.910000E-01
254	  0.070701398	-5.970000E+00	  0.070701398	-1.789290E+02	  0.070701398	1.653900E+01	  0.070701398	-4.160000E-01
255	  0.070901804	-5.974000E+00	  0.070901804	-1.799040E+02	  0.070901804	1.654900E+01	  0.070901804	-3.700000E-02
256	  0.071102202	-5.978000E+00	  0.071102202	1.791120E+02	  0.071102202	1.656000E+01	  0.071102202	3.440000E-01
257	  0.071302600	-5.985000E+00	  0.071302600	1.781590E+02	  0.071302600	1.658000E+01	  0.071302600	7.140000E-01
258	  0.071503006	-5.988000E+00	  0.071503006	1.771930E+02	  0.071503006	1.659400E+01	  0.071503006	1.089000E+00
259	  0.071703404	-5.993000E+00	  0.071703404	1.762270E+02	  0.071703404	1.661400E+01	  0.071703404	1.464000E+00
260	  0.071903802	-5.998000E+00	  0.071903802	1.752850E+02	  0.071903802	1.663500E+01	  0.071903802	1.830000E+00
261	  0.072104208	-6.001000E+00	  0.072104208	1.743300E+02	  0.072104208	1.665300E+01	  0.072104208	2.201000E+00
262	  0.072304606	-6.008000E+00	  0.072304606	1.733810E+02	  0.072304606	1.668400E+01	  0.072304606	2.570000E+00
263	  0.072505005	-6.017000E+00	  0.072505005	1.724340E+02	  0.072505005	1.672200E+01	  0.072505005	2.937000E+00
264	  0.072705410	-6.017000E+00	  0.072705410	1.714720E+02	  0.072705410	1.674000E+01	  0.072705410	3.312000E+00
265	  0.072905809	-6.024000E+00	  0.072905809	1.705230E+02	  0.072905809	1.677900E+01	  0.072905809	3.680000E+00
266	  0.073106214	-6.033000E+00	  0.073106214	1.695860E+02	  0.073106214	1.682100E+01	  0.073106214	4.044000E+00
267	  0.073306613	-6.037000E+00	  0.073306613	1.686450E+02	  0.073306613	1.685700E+01	  0.073306613	4.410000E+00
268	  0.073507011	-6.043000E+00	  0.073507011	1.677200E+02	  0.073507011	1.689600E+01	  0.073507011	4.770000E+00
269	  0.073707417	-6.047000E+00	  0.073707417	1.668010E+02	  0.073707417	1.693400E+01	  0.073707417	5.128000E+00
270	  0.073907815	-6.051000E+00	  0.073907815	1.658810E+02	  0.073907815	1.697300E+01	  0.073907815	5.487000E+00
271	  0.074108213	-6.056000E+00	  0.074108213	1.649530E+02	  0.074108213	1.701700E+01	  0.074108213	5.849000E+00
272	  0.074308619	-6.067000E+00	  0.074308619	1.640310E+02	  0.074308619	1.707700E+01	  0.074308619	6.208000E+00
273	  0.074509017	-6.068000E+00	  0.074509017	1.631290E+02	  0.074509017	1.711500E+01	  0.074509017	6.562000E+00
274	  0.074709415	-6.075000E+00	  0.074709415	1.622100E+02	  0.074709415	1.717000E+01	  0.074709415	6.921000E+00
275	  0.074909821	-6.080000E+00	  0.074909821	1.613130E+02	  0.074909821	1.722200E+01	  0.074909821	7.273000E+00
276	  0.075110219	-6.090000E+00	  0.075110219	1.604120E+02	  0.075110219	1.728800E+01	  0.075110219	7.625000E+00
277	  0.075310618	-6.089000E+00	  0.075310618	1.595450E+02	  0.075310618	1.732700E+01	  0.075310618	7.967000E+00
278	  0.075511023	-6.096000E+00	  0.075511023	1.586540E+02	  0.075511023	1.739000E+01	  0.075511023	8.317000E+00
279	  0.075711422	-6.103000E+00	  0.075711422	1.577830E+02	  0.075711422	1.745100E+01	  0.075711422	8.660000E+00
280	  0.075911827	-6.111000E+00	  0.075911827	1.569160E+02	  0.075911827	1.751900E+01	  0.075911827	9.001000E+00
281	  0.076112226	-6.116000E+00	  0.076112226	1.560350E+02	  0.076112226	1.758300E+01	  0.076112226	9.349000E+00
282	  0.076312624	-6.126000E+00	  0.076312624	1.551670E+02	  0.076312624	1.766000E+01	  0.076312624	9.691000E+00
283	  0.076513030	-6.136000E+00	  0.076513030	1.543030E+02	  0.076513030	1.773700E+01	  0.076513030	1.003100E+01
284	  0.076713428	-6.146000E+00	  0.076713428	1.534410E+02	  0.076713428	1.781800E+01	  0.076713428	1.037100E+01
285	  0.076913826	-6.155000E+00	  0.076913826	1.525560E+02	  0.076913826	1.790200E+01	  0.076913826	1.072100E+01
286	  0.077114232	-6.162000E+00	  0.077114232	1.517150E+02	  0.077114232	1.797700E+01	  0.077114232	1.105500E+01
287	  0.077314630	-6.173000E+00	  0.077314630	1.508840E+02	  0.077314630	1.806600E+01	  0.077314630	1.138300E+01
288	  0.077515028	-6.182000E+00	  0.077515028	1.500270E+02	  0.077515028	1.815100E+01	  0.077515028	1.172400E+01
289	  0.077715434	-6.193000E+00	  0.077715434	1.491980E+02	  0.077715434	1.824400E+01	  0.077715434	1.205300E+01
290	  0.077915832	-6.204000E+00	  0.077915832	1.483280E+02	  0.077915832	1.834000E+01	  0.077915832	1.239900E+01
291	  0.078116231	-6.216000E+00	  0.078116231	1.475050E+02	  0.078116231	1.843700E+01	  0.078116231	1.272600E+01
292	  0.078316636	-6.225000E+00	  0.078316636	1.466240E+02	  0.078316636	1.853700E+01	  0.078316636	1.307800E+01
293	  0.078517035	-6.240000E+00	  0.078517035	1.457750E+02	  0.078517035	1.864900E+01	  0.078517035	1.341500E+01
294	  0.078717433	-6.253000E+00	  0.078717433	1.449340E+02	  0.078717433	1.875800E+01	  0.078717433	1.375000E+01
295	  0.078917839	-6.261000E+00	  0.078917839	1.440920E+02	  0.078917839	1.885700E+01	  0.078917839	1.408900E+01
296	  0.079118237	-6.274000E+00	  0.079118237	1.432490E+02	  0.079118237	1.897200E+01	  0.079118237	1.442600E+01
297	  0.079318643	-6.290000E+00	  0.079318643	1.424210E+02	  0.079318643	1.909600E+01	  0.079318643	1.475600E+01
298	  0.079519041	-6.299000E+00	  0.079519041	1.415880E+02	  0.079519041	1.920200E+01	  0.079519041	1.509200E+01
299	  0.079719439	-6.312000E+00	  0.079719439	1.407580E+02	  0.079719439	1.932500E+01	  0.079719439	1.542500E+01
300	  0.079919845	-6.326000E+00	  0.079919845	1.398830E+02	  0.079919845	1.945300E+01	  0.079919845	1.577800E+01
301	  0.080120243	-6.338000E+00	  0.080120243	1.390430E+02	  0.080120243	1.957800E+01	  0.080120243	1.611700E+01
302	  0.080320641	-6.353000E+00	  0.080320641	1.382080E+02	  0.080320641	1.971200E+01	  0.080320641	1.645200E+01
303	  0.080521047	-6.361000E+00	  0.080521047	1.373980E+02	  0.080521047	1.982800E+01	  0.080521047	1.678300E+01
304	  0.080721445	-6.376000E+00	  0.080721445	1.365740E+02	  0.080721445	1.996500E+01	  0.080721445	1.711600E+01
305	  0.080921844	-6.388000E+00	  0.080921844	1.357760E+02	  0.080921844	2.009500E+01	  0.080921844	1.744000E+01
306	  0.081122249	-6.402000E+00	  0.081122249	1.349790E+02	  0.081122249	2.023300E+01	  0.081122249	1.776300E+01
307	  0.081322648	-6.414000E+00	  0.081322648	1.341560E+02	  0.081322648	2.037100E+01	  0.081322648	1.809900E+01
308	  0.081523046	-6.423000E+00	  0.081523046	1.333700E+02	  0.081523046	2.049900E+01	  0.081523046	1.842200E+01
309	  0.081723452	-6.436000E+00	  0.081723452	1.325300E+02	  0.081723452	2.064600E+01	  0.081723452	1.876700E+01
310	  0.081923850	-6.450000E+00	  0.081923850	1.317640E+02	  0.081923850	2.079100E+01	  0.081923850	1.907800E+01
311	  0.082124248	-6.463000E+00	  0.082124248	1.309750E+02	  0.082124248	2.093600E+01	  0.082124248	1.940200E+01
312	  0.082324654	-6.477000E+00	  0.082324654	1.302190E+02	  0.082324654	2.108400E+01	  0.082324654	1.971100E+01
313	  0.082525052	-6.493000E+00	  0.082525052	1.294470E+02	  0.082525052	2.124200E+01	  0.082525052	2.002500E+01
314	  0.082725458	-6.505000E+00	  0.082725458	1.286990E+02	  0.082725458	2.138800E+01	  0.082725458	2.033400E+01
315	  0.082925856	-6.522000E+00	  0.082925856	1.279300E+02	  0.082925856	2.155600E+01	  0.082925856	2.064600E+01
316	  0.083126254	-6.542000E+00	  0.083126254	1.271750E+02	  0.083126254	2.173200E+01	  0.083126254	2.095000E+01
317	  0.083326660	-6.556000E+00	  0.083326660	1.264290E+02	  0.083326660	2.189000E+01	  0.083326660	2.125700E+01
318	  0.083527058	-6.572000E+00	  0.083527058	1.256490E+02	  0.083527058	2.206500E+01	  0.083527058	2.157600E+01
319	  0.083727457	-6.591000E+00	  0.083727457	1.249120E+02	  0.083727457	2.224300E+01	  0.083727457	2.187500E+01
320	  0.083927862	-6.612000E+00	  0.083927862	1.241800E+02	  0.083927862	2.242800E+01	  0.083927862	2.216900E+01
321	  0.084128261	-6.631000E+00	  0.084128261	1.234340E+02	  0.084128261	2.261300E+01	  0.084128261	2.247100E+01
322	  0.084328659	-6.652000E+00	  0.084328659	1.227000E+02	  0.084328659	2.280500E+01	  0.084328659	2.276600E+01
323	  0.084529065	-6.669000E+00	  0.084529065	1.219540E+02	  0.084529065	2.299200E+01	  0.084529065	2.307000E+01
324	  0.084729463	-6.694000E+00	  0.084729463	1.211760E+02	  0.084729463	2.321000E+01	  0.084729463	2.338000E+01
325	  0.084929854	-6.710000E+00	  0.084929854	1.204480E+02	  0.084929854	2.339400E+01	  0.084929854	2.367900E+01
326	  0.085130259	-6.732000E+00	  0.085130259	1.197000E+02	  0.085130259	2.360500E+01	  0.085130259	2.397900E+01
327	  0.085330658	-6.752000E+00	  0.085330658	1.189410E+02	  0.085330658	2.381300E+01	  0.085330658	2.428700E+01
328	  0.085531056	-6.773000E+00	  0.085531056	1.182120E+02	  0.085531056	2.402600E+01	  0.085531056	2.457900E+01
329	  0.085731462	-6.793000E+00	  0.085731462	1.174820E+02	  0.085731462	2.423600E+01	  0.085731462	2.487400E+01
330	  0.085931860	-6.813000E+00	  0.085931860	1.167510E+02	  0.085931860	2.444900E+01	  0.085931860	2.516900E+01
331	  0.086132258	-6.840000E+00	  0.086132258	1.160180E+02	  0.086132258	2.468500E+01	  0.086132258	2.545600E+01
332	  0.086332664	-6.859000E+00	  0.086332664	1.152940E+02	  0.086332664	2.490300E+01	  0.086332664	2.574800E+01
333	  0.086533062	-6.881000E+00	  0.086533062	1.145170E+02	  0.086533062	2.514100E+01	  0.086533062	2.606100E+01
334	  0.086733460	-6.901000E+00	  0.086733460	1.137830E+02	  0.086733460	2.537200E+01	  0.086733460	2.635600E+01
335	  0.086933866	-6.919000E+00	  0.086933866	1.130720E+02	  0.086933866	2.559000E+01	  0.086933866	2.664600E+01
336	  0.087134264	-6.942000E+00	  0.087134264	1.123230E+02	  0.087134264	2.584000E+01	  0.087134264	2.694300E+01
337	  0.087334670	-6.965000E+00	  0.087334670	1.116260E+02	  0.087334670	2.607900E+01	  0.087334670	2.721700E+01
338	  0.087535068	-6.988000E+00	  0.087535068	1.109220E+02	  0.087535068	2.632100E+01	  0.087535068	2.749500E+01
339	  0.087735467	-7.009000E+00	  0.087735467	1.102140E+02	  0.087735467	2.656500E+01	  0.087735467	2.777600E+01
340	  0.087935872	-7.033000E+00	  0.087935872	1.095160E+02	  0.087935872	2.681600E+01	  0.087935872	2.804800E+01
341	  0.088136271	-7.053000E+00	  0.088136271	1.087960E+02	  0.088136271	2.706800E+01	  0.088136271	2.833500E+01
342	  0.088336669	-7.074000E+00	  0.088336669	1.081140E+02	  0.088336669	2.731200E+01	  0.088336669	2.860400E+01
343	  0.088537075	-7.092000E+00	  0.088537075	1.074070E+02	  0.088537075	2.756300E+01	  0.088537075	2.888800E+01
344	  0.088737473	-7.115000E+00	  0.088737473	1.067250E+02	  0.088737473	2.782000E+01	  0.088737473	2.915300E+01
345	  0.088937871	-7.137000E+00	  0.088937871	1.060550E+02	  0.088937871	2.807800E+01	  0.088937871	2.941300E+01
346	  0.089138277	-7.157000E+00	  0.089138277	1.053940E+02	  0.089138277	2.833000E+01	  0.089138277	2.967100E+01
347	  0.089338675	-7.184000E+00	  0.089338675	1.047790E+02	  0.089338675	2.859200E+01	  0.089338675	2.989500E+01
348	  0.089539073	-7.210000E+00	  0.089539073	1.041000E+02	  0.089539073	2.887300E+01	  0.089539073	3.014900E+01
349	  0.089739479	-7.236000E+00	  0.089739479	1.034760E+02	  0.089739479	2.914200E+01	  0.089739479	3.037600E+01
350	  0.089939877	-7.260000E+00	  0.089939877	1.028170E+02	  0.089939877	2.941900E+01	  0.089939877	3.062200E+01
351	  0.090140276	-7.291000E+00	  0.090140276	1.021770E+02	  0.090140276	2.971200E+01	  0.090140276	3.084500E+01
352	  0.090340681	-7.315000E+00	  0.090340681	1.015280E+02	  0.090340681	2.999400E+01	  0.090340681	3.108500E+01
353	  0.090541080	-7.350000E+00	  0.090541080	1.009290E+02	  0.090541080	3.029400E+01	  0.090541080	3.127700E+01
354	  0.090741485	-7.376000E+00	  0.090741485	1.003140E+02	  0.090741485	3.057400E+01	  0.090741485	3.149600E+01
355	  0.090941884	-7.404000E+00	  0.090941884	9.969100E+01	  0.090941884	3.086800E+01	  0.090941884	3.171000E+01
356	  0.091142282	-7.440000E+00	  0.091142282	9.908600E+01	  0.091142282	3.118300E+01	  0.091142282	3.189700E+01
357	  0.091342688	-7.473000E+00	  0.091342688	9.845300E+01	  0.091342688	3.149900E+01	  0.091342688	3.210300E+01
358	  0.091543086	-7.500000E+00	  0.091543086	9.782700E+01	  0.091543086	3.180300E+01	  0.091543086	3.231500E+01
359	  0.091743484	-7.534000E+00	  0.091743484	9.720900E+01	  0.091743484	3.212300E+01	  0.091743484	3.250900E+01
360	  0.091943890	-7.568000E+00	  0.091943890	9.661800E+01	  0.091943890	3.243900E+01	  0.091943890	3.268600E+01
361	  0.092144288	-7.599000E+00	  0.092144288	9.597000E+01	  0.092144288	3.277000E+01	  0.092144288	3.289400E+01
362	  0.092344686	-7.627000E+00	  0.092344686	9.536900E+01	  0.092344686	3.308100E+01	  0.092344686	3.308500E+01
363	  0.092545092	-7.660000E+00	  0.092545092	9.479900E+01	  0.092545092	3.339300E+01	  0.092545092	3.325100E+01
364	  0.092745490	-7.693000E+00	  0.092745490	9.421500E+01	  0.092745490	3.371700E+01	  0.092745490	3.341900E+01
365	  0.092945889	-7.727000E+00	  0.092945889	9.362200E+01	  0.092945889	3.404800E+01	  0.092945889	3.358600E+01
366	  0.093146294	-7.756000E+00	  0.093146294	9.303500E+01	  0.093146294	3.436800E+01	  0.093146294	3.376000E+01
367	  0.093346693	-7.790000E+00	  0.093346693	9.242800E+01	  0.093346693	3.471100E+01	  0.093346693	3.392800E+01
368	  0.093547091	-7.816000E+00	  0.093547091	9.189000E+01	  0.093547091	3.500700E+01	  0.093547091	3.408700E+01
369	  0.093747497	-7.851000E+00	  0.093747497	9.129100E+01	  0.093747497	3.535500E+01	  0.093747497	3.424600E+01
370	  0.093947895	-7.877000E+00	  0.093947895	9.074200E+01	  0.093947895	3.566200E+01	  0.093947895	3.440200E+01
371	  0.094148301	-7.907000E+00	  0.094148301	9.018700E+01	  0.094148301	3.598400E+01	  0.094148301	3.455100E+01
372	  0.094348699	-7.937000E+00	  0.094348699	8.964000E+01	  0.094348699	3.630700E+01	  0.094348699	3.469200E+01
373	  0.094549097	-7.968000E+00	  0.094549097	8.911200E+01	  0.094549097	3.662400E+01	  0.094549097	3.482100E+01
374	  0.094749503	-7.997000E+00	  0.094749503	8.857600E+01	  0.094749503	3.694400E+01	  0.094749503	3.495600E+01
375	  0.094949901	-8.023000E+00	  0.094949901	8.806400E+01	  0.094949901	3.724500E+01	  0.094949901	3.509000E+01
376	  0.095150299	-8.052000E+00	  0.095150299	8.754700E+01	  0.095150299	3.756000E+01	  0.095150299	3.521300E+01
377	  0.095350705	-8.079000E+00	  0.095350705	8.703300E+01	  0.095350705	3.787100E+01	  0.095350705	3.534000E+01
378	  0.095551103	-8.107000E+00	  0.095551103	8.651000E+01	  0.095551103	3.819000E+01	  0.095551103	3.546300E+01
379	  0.095751502	-8.134000E+00	  0.095751502	8.603000E+01	  0.095751502	3.849100E+01	  0.095751502	3.557000E+01
380	  0.095951907	-8.160000E+00	  0.095951907	8.555700E+01	  0.095951907	3.878800E+01	  0.095951907	3.567300E+01
381	  0.096152306	-8.185000E+00	  0.096152306	8.511100E+01	  0.096152306	3.906800E+01	  0.096152306	3.577100E+01
382	  0.096352704	-8.214000E+00	  0.096352704	8.461700E+01	  0.096352704	3.938500E+01	  0.096352704	3.587000E+01
383	  0.096553110	-8.240000E+00	  0.096553110	8.416600E+01	  0.096553110	3.967500E+01	  0.096553110	3.596200E+01
384	  0.096753508	-8.265000E+00	  0.096753508	8.372200E+01	  0.096753508	3.996100E+01	  0.096753508	3.605000E+01
385	  0.096953906	-8.288000E+00	  0.096953906	8.326400E+01	  0.096953906	4.025100E+01	  0.096953906	3.614900E+01
386	  0.097154312	-8.313000E+00	  0.097154312	8.281900E+01	  0.097154312	4.054000E+01	  0.097154312	3.623400E+01
387	  0.097354710	-8.337000E+00	  0.097354710	8.238600E+01	  0.097354710	4.082400E+01	  0.097354710	3.631500E+01
388	  0.097555116	-8.360000E+00	  0.097555116	8.197800E+01	  0.097555116	4.109200E+01	  0.097555116	3.638900E+01
389	  0.097755514	-8.387000E+00	  0.097755514	8.153200E+01	  0.097755514	4.139200E+01	  0.097755514	3.646200E+01
390	  0.097955912	-8.412000E+00	  0.097955912	8.111400E+01	  0.097955912	4.167400E+01	  0.097955912	3.652800E+01
391	  0.098156318	-8.435000E+00	  0.098156318	8.068800E+01	  0.098156318	4.195800E+01	  0.098156318	3.660000E+01
392	  0.098356716	-8.454000E+00	  0.098356716	8.028700E+01	  0.098356716	4.221700E+01	  0.098356716	3.668100E+01
393	  0.098557115	-8.479000E+00	  0.098557115	7.989000E+01	  0.098557115	4.249300E+01	  0.098557115	3.673100E+01
394	  0.098757520	-8.500000E+00	  0.098757520	7.943000E+01	  0.098757520	4.279300E+01	  0.098757520	3.682100E+01
395	  0.098957919	-8.516000E+00	  0.098957919	7.900800E+01	  0.098957919	4.306500E+01	  0.098957919	3.690800E+01
396	  0.099158317	-8.540000E+00	  0.099158317	7.858500E+01	  0.099158317	4.335600E+01	  0.099158317	3.696700E+01
397	  0.099358723	-8.555000E+00	  0.099358723	7.820400E+01	  0.099358723	4.360400E+01	  0.099358723	3.704400E+01
398	  0.099559121	-8.573000E+00	  0.099559121	7.778800E+01	  0.099559121	4.387800E+01	  0.099559121	3.712100E+01
399	  0.099759519	-8.592000E+00	  0.099759519	7.740400E+01	  0.099759519	4.414000E+01	  0.099759519	3.718100E+01
400	  0.099959925	-8.593000E+00	  0.099959925	7.695700E+01	  0.099959925	4.440000E+01	  0.099959925	3.732700E+01
401	  0.100160323	-8.614000E+00	  0.100160323	7.659700E+01	  0.100160323	4.465500E+01	  0.100160323	3.736600E+01
402	  0.100360721	-8.618000E+00	  0.100360721	7.617900E+01	  0.100360721	4.490900E+01	  0.100360721	3.748800E+01
403	  0.100561127	-8.628000E+00	  0.100561127	7.574700E+01	  0.100561127	4.518500E+01	  0.100561127	3.759100E+01
404	  0.100761525	-8.646000E+00	  0.100761525	7.534900E+01	  0.100761525	4.546100E+01	  0.100761525	3.764900E+01
405	  0.100961931	-8.650000E+00	  0.100961931	7.501600E+01	  0.100961931	4.567000E+01	  0.100961931	3.773900E+01
406	  0.101162329	-8.656000E+00	  0.101162329	7.462200E+01	  0.101162329	4.591900E+01	  0.101162329	3.784400E+01
407	  0.101362728	-8.664000E+00	  0.101362728	7.420100E+01	  0.101362728	4.619400E+01	  0.101362728	3.794300E+01
408	  0.101563133	-8.666000E+00	  0.101563133	7.387700E+01	  0.101563133	4.639600E+01	  0.101563133	3.803800E+01
409	  0.101763532	-8.667000E+00	  0.101763532	7.342600E+01	  0.101763532	4.667700E+01	  0.101763532	3.817500E+01
410	  0.101963930	-8.677000E+00	  0.101963930	7.304400E+01	  0.101963930	4.693600E+01	  0.101963930	3.825200E+01
411	  0.102164328	-8.685000E+00	  0.102164328	7.264400E+01	  0.102164328	4.720300E+01	  0.102164328	3.834100E+01
412	  0.102364726	-8.685000E+00	  0.102364726	7.219100E+01	  0.102364726	4.749100E+01	  0.102364726	3.847800E+01
413	  0.102565125	-8.688000E+00	  0.102565125	7.185200E+01	  0.102565125	4.771400E+01	  0.102565125	3.856700E+01
414	  0.102765530	-8.680000E+00	  0.102765530	7.148900E+01	  0.102765530	4.793200E+01	  0.102765530	3.871000E+01
415	  0.102965929	-8.684000E+00	  0.102965929	7.109600E+01	  0.102965929	4.819600E+01	  0.102965929	3.880700E+01
416	  0.103166327	-8.675000E+00	  0.103166327	7.067300E+01	  0.103166327	4.845700E+01	  0.103166327	3.896800E+01
417	  0.103366733	-8.678000E+00	  0.103366733	7.029200E+01	  0.103366733	4.871500E+01	  0.103366733	3.906700E+01
418	  0.103567131	-8.668000E+00	  0.103567131	6.991000E+01	  0.103567131	4.895100E+01	  0.103567131	3.921900E+01
419	  0.103767529	-8.666000E+00	  0.103767529	6.948100E+01	  0.103767529	4.923500E+01	  0.103767529	3.935200E+01
420	  0.103967935	-8.661000E+00	  0.103967935	6.906800E+01	  0.103967935	4.950700E+01	  0.103967935	3.949100E+01
421	  0.104168333	-8.658000E+00	  0.104168333	6.869300E+01	  0.104168333	4.975800E+01	  0.104168333	3.960900E+01
422	  0.104368731	-8.661000E+00	  0.104368731	6.823300E+01	  0.104368731	5.008100E+01	  0.104368731	3.972400E+01
423	  0.104569137	-8.652000E+00	  0.104569137	6.783800E+01	  0.104569137	5.034100E+01	  0.104569137	3.987100E+01
424	  0.104769535	-8.649000E+00	  0.104769535	6.738100E+01	  0.104769535	5.065700E+01	  0.104769535	4.000700E+01
425	  0.104969934	-8.644000E+00	  0.104969934	6.694100E+01	  0.104969934	5.096000E+01	  0.104969934	4.015200E+01
426	  0.105170339	-8.630000E+00	  0.105170339	6.654000E+01	  0.105170339	5.122500E+01	  0.105170339	4.032100E+01
427	  0.105370738	-8.616000E+00	  0.105370738	6.603000E+01	  0.105370738	5.157000E+01	  0.105370738	4.052300E+01
428	  0.105571143	-8.612000E+00	  0.105571143	6.558500E+01	  0.105571143	5.188900E+01	  0.105571143	4.065700E+01
429	  0.105771542	-8.598000E+00	  0.105771542	6.508600E+01	  0.105771542	5.223600E+01	  0.105771542	4.084900E+01
430	  0.105971940	-8.596000E+00	  0.105971940	6.461600E+01	  0.105971940	5.258500E+01	  0.105971940	4.097500E+01
431	  0.106172346	-8.587000E+00	  0.106172346	6.414200E+01	  0.106172346	5.292900E+01	  0.106172346	4.113500E+01
432	  0.106372744	-8.577000E+00	  0.106372744	6.367300E+01	  0.106372744	5.327000E+01	  0.106372744	4.130200E+01
433	  0.106573142	-8.565000E+00	  0.106573142	6.311800E+01	  0.106573142	5.368000E+01	  0.106573142	4.149600E+01
434	  0.106773548	-8.549000E+00	  0.106773548	6.259400E+01	  0.106773548	5.406500E+01	  0.106773548	4.169900E+01
435	  0.106973946	-8.538000E+00	  0.106973946	6.207700E+01	  0.106973946	5.445900E+01	  0.106973946	4.187300E+01
436	  0.107174344	-8.528000E+00	  0.107174344	6.157300E+01	  0.107174344	5.484700E+01	  0.107174344	4.203900E+01
437	  0.107374750	-8.521000E+00	  0.107374750	6.099600E+01	  0.107374750	5.530400E+01	  0.107374750	4.220200E+01
438	  0.107575148	-8.508000E+00	  0.107575148	6.047400E+01	  0.107575148	5.571500E+01	  0.107575148	4.237800E+01
439	  0.107775547	-8.489000E+00	  0.107775547	5.990800E+01	  0.107775547	5.615900E+01	  0.107775547	4.259800E+01
440	  0.107975952	-8.483000E+00	  0.107975952	5.934300E+01	  0.107975952	5.662400E+01	  0.107975952	4.274800E+01
441	  0.108176351	-8.478000E+00	  0.108176351	5.880800E+01	  0.108176351	5.707300E+01	  0.108176351	4.287600E+01
442	  0.108376749	-8.460000E+00	  0.108376749	5.823300E+01	  0.108376749	5.754600E+01	  0.108376749	4.308400E+01
443	  0.108577155	-8.454000E+00	  0.108577155	5.771800E+01	  0.108577155	5.798700E+01	  0.108577155	4.321000E+01
444	  0.108777553	-8.447000E+00	  0.108777553	5.710100E+01	  0.108777553	5.852200E+01	  0.108777553	4.335800E+01
445	  0.108977959	-8.446000E+00	  0.108977959	5.652400E+01	  0.108977959	5.903400E+01	  0.108977959	4.345900E+01
446	  0.109178357	-8.431000E+00	  0.109178357	5.598600E+01	  0.109178357	5.950400E+01	  0.109178357	4.363000E+01
447	  0.109378755	-8.427000E+00	  0.109378755	5.540300E+01	  0.109378755	6.003100E+01	  0.109378755	4.374000E+01
448	  0.109579161	-8.411000E+00	  0.109579161	5.485800E+01	  0.109579161	6.052000E+01	  0.109579161	4.390900E+01
449	  0.109779559	-8.417000E+00	  0.109779559	5.425700E+01	  0.109779559	6.108500E+01	  0.109779559	4.394900E+01
450	  0.109979957	-8.402000E+00	  0.109979957	5.366200E+01	  0.109979957	6.163500E+01	  0.109979957	4.411500E+01
451	  0.110180363	-8.405000E+00	  0.110180363	5.306600E+01	  0.110180363	6.220500E+01	  0.110180363	4.415800E+01
452	  0.110380761	-8.391000E+00	  0.110380761	5.252300E+01	  0.110380761	6.272000E+01	  0.110380761	4.430100E+01
453	  0.110581160	-8.387000E+00	  0.110581160	5.195500E+01	  0.110581160	6.327200E+01	  0.110581160	4.437600E+01
454	  0.110781565	-8.377000E+00	  0.110781565	5.134200E+01	  0.110781565	6.387100E+01	  0.110781565	4.448400E+01
455	  0.110981964	-8.376000E+00	  0.110981964	5.070800E+01	  0.110981964	6.450300E+01	  0.110981964	4.453200E+01
456	  0.111182362	-8.365000E+00	  0.111182362	5.006400E+01	  0.111182362	6.514900E+01	  0.111182362	4.463900E+01
457	  0.111382768	-8.357000E+00	  0.111382768	4.946900E+01	  0.111382768	6.575500E+01	  0.111382768	4.471300E+01
458	  0.111583166	-8.349000E+00	  0.111583166	4.882000E+01	  0.111583166	6.642300E+01	  0.111583166	4.478100E+01
459	  0.111783572	-8.345000E+00	  0.111783572	4.818800E+01	  0.111783572	6.708300E+01	  0.111783572	4.481800E+01
460	  0.111983970	-8.336000E+00	  0.111983970	4.746500E+01	  0.111983970	6.784700E+01	  0.111983970	4.487300E+01
461	  0.112184368	-8.331000E+00	  0.112184368	4.685200E+01	  0.112184368	6.850300E+01	  0.112184368	4.489600E+01
462	  0.112384774	-8.325000E+00	  0.112384774	4.615100E+01	  0.112384774	6.926100E+01	  0.112384774	4.491300E+01
463	  0.112585172	-8.321000E+00	  0.112585172	4.545700E+01	  0.112585172	7.002000E+01	  0.112585172	4.489900E+01
464	  0.112785570	-8.308000E+00	  0.112785570	4.474600E+01	  0.112785570	7.081200E+01	  0.112785570	4.493600E+01
465	  0.112985976	-8.305000E+00	  0.112985976	4.402700E+01	  0.112985976	7.161600E+01	  0.112985976	4.489200E+01
466	  0.113186374	-8.298000E+00	  0.113186374	4.330300E+01	  0.113186374	7.243900E+01	  0.113186374	4.485600E+01
467	  0.113386773	-8.293000E+00	  0.113386773	4.256500E+01	  0.113386773	7.328500E+01	  0.113386773	4.479600E+01
468	  0.113587178	-8.290000E+00	  0.113587178	4.176700E+01	  0.113587178	7.420700E+01	  0.113587178	4.468700E+01
469	  0.113787577	-8.286000E+00	  0.113787577	4.099100E+01	  0.113787577	7.511400E+01	  0.113787577	4.456700E+01
470	  0.113987975	-8.280000E+00	  0.113987975	4.022500E+01	  0.113987975	7.602300E+01	  0.113987975	4.445400E+01
471	  0.114188381	-8.273000E+00	  0.114188381	3.944800E+01	  0.114188381	7.695400E+01	  0.114188381	4.431600E+01
472	  0.114388779	-8.279000E+00	  0.114388779	3.863600E+01	  0.114388779	7.791400E+01	  0.114388779	4.405800E+01
473	  0.114589177	-8.273000E+00	  0.114589177	3.785500E+01	  0.114589177	7.886500E+01	  0.114589177	4.386800E+01
474	  0.114789583	-8.281000E+00	  0.114789583	3.705500E+01	  0.114789583	7.981500E+01	  0.114789583	4.353800E+01
475	  0.114989981	-8.273000E+00	  0.114989981	3.623400E+01	  0.114989981	8.083500E+01	  0.114989981	4.331100E+01
476	  0.115190387	-8.277000E+00	  0.115190387	3.535800E+01	  0.115190387	8.189600E+01	  0.115190387	4.293000E+01
477	  0.115390785	-8.288000E+00	  0.115390785	3.453500E+01	  0.115390785	8.287700E+01	  0.115390785	4.248900E+01
478	  0.115591183	-8.295000E+00	  0.115591183	3.362600E+01	  0.115591183	8.397400E+01	  0.115591183	4.200900E+01
479	  0.115791589	-8.309000E+00	  0.115791589	3.278900E+01	  0.115791589	8.495700E+01	  0.115791589	4.147200E+01
480	  0.115991987	-8.321000E+00	  0.115991987	3.193500E+01	  0.115991987	8.596500E+01	  0.115991987	4.091300E+01
481	  0.116192386	-8.330000E+00	  0.116192386	3.103600E+01	  0.116192386	8.703300E+01	  0.116192386	4.031700E+01
482	  0.116392791	-8.341000E+00	  0.116392791	3.011800E+01	  0.116392791	8.810800E+01	  0.116392791	3.965200E+01
483	  0.116593190	-8.361000E+00	  0.116593190	2.918800E+01	  0.116593190	8.915000E+01	  0.116593190	3.887500E+01
484	  0.116793588	-8.380000E+00	  0.116793588	2.826300E+01	  0.116793588	9.017600E+01	  0.116793588	3.807000E+01
485	  0.116993994	-8.397000E+00	  0.116993994	2.728800E+01	  0.116993994	9.125200E+01	  0.116993994	3.720100E+01
486	  0.117194392	-8.422000E+00	  0.117194392	2.638200E+01	  0.117194392	9.219000E+01	  0.117194392	3.628900E+01
487	  0.117394790	-8.456000E+00	  0.117394790	2.536800E+01	  0.117394790	9.317500E+01	  0.117394790	3.517800E+01
488	  0.117595196	-8.487000E+00	  0.117595196	2.438800E+01	  0.117595196	9.410100E+01	  0.117595196	3.407700E+01
489	  0.117795594	-8.518000E+00	  0.117795594	2.336800E+01	  0.117795594	9.503700E+01	  0.117795594	3.290100E+01
490	  0.117995992	-8.551000E+00	  0.117995992	2.234300E+01	  0.117995992	9.592700E+01	  0.117995992	3.166900E+01
491	  0.118196398	-8.594000E+00	  0.118196398	2.130800E+01	  0.118196398	9.671900E+01	  0.118196398	3.032300E+01
492	  0.118396796	-8.631000E+00	  0.118396796	2.023500E+01	  0.118396796	9.754200E+01	  0.118396796	2.894500E+01
493	  0.118597202	-8.675000E+00	  0.118597202	1.911600E+01	  0.118597202	9.830000E+01	  0.118597202	2.743600E+01
494	  0.118797600	-8.720000E+00	  0.118797600	1.807000E+01	  0.118797600	9.892500E+01	  0.118797600	2.597400E+01
