! Anritsu VNA Master:             	Model: MS2036C/10/77
! SN:             	1601066
! /bd0/18may09/254.ew.m5.txt
! Existing Calibration Information:
! TYPE:             	Current Settings	Active Cal Settings
! TIME:             	05/09/2018 10:18:56 AM	05/09/2018 10:08:40 AM
! INTERNAL TEMP:    	48.8 C	48.0 C
! # POINTS:         	500	500
! START FREQ:       	20.000 MHz	20.000 MHz
! STOP FREQ:        	120.000 MHz	120.000 MHz
! SOURCE POWER:     	High	High
! IFBW:             	50 Hz	50 Hz
! AVG FACTOR:       	  1 	  1 
! REF PLANE 1:      	0 mm	0 mm
! REF PLANE 2:      	0 mm	0 mm
! CAL TYPE:         	Full S11	Full S11
! CAL METHOD:       	SOLT	SOLT
! CAL LINE TYPE:    	Coax	Coax
! DUT PORT 1:       	K-Conn(F)	K-Conn(F)
! DUT PORT 2:       	K-Conn(F)	K-Conn(F)
! CAL STATUS:       	OK: Accuracy High	--
! PROP-V:       	0.700
! CABLE LOSS:       	0.000 dB/m
! REF IMPEDANCE:       	50.0
! Trace Specific Parameters:	TR1	TR2	TR3	TR4
! TRACE.#.Y (GRAPH TYPE)	LOG MAG	PHASE	REAL IMPEDANCE	IMAGINARY IMPEDANCE
! TRACE.#.X 	FREQ.GHZ	FREQ.GHZ	FREQ.GHZ	FREQ.GHZ
! S-PARAMETER	S11	S11	S11	S11
! SMOOTH/APERTURE %	0	0	0	0
! WINDOW	NSL	NSL	NSL	NSL
! GATING	OFF	OFF	OFF	OFF
! FGTD	OFF	OFF	OFF	OFF
Marker Information per Trace:	TR1	TR2	TR3	TR4
!MK1	--	"MK1 TR2:  20.000 MHz,PH:-125.14°"	--	--
!MK2	--	--	"MK2 TR3:  70.100 200 MHz,Z:(15.956 ohm, -3.314 ohm)"	--
!MK3	--	--	--	--
!MK4	--	--	--	--
!MK5	--	--	--	--
!MK6	--	--	--	--
!MK7	--	--	--	--
!MK8	--	--	--	--
PNT	TR1.FREQ.GHZ	TR1.LOG MAG.dB	TR2.FREQ.GHZ	TR2.PHASE.deg	TR3.FREQ.GHZ	TR3.REAL IMPEDANCE.ohm	TR4.FREQ.GHZ	TR4.IMAGINARY IMPEDANCE.ohm
1	  0.020000000	-6.130000E-01	  0.020000000	-1.251410E+02	  0.020000000	2.240000E+00	  0.020000000	-2.590800E+01
2	  0.020200402	-6.100000E-01	  0.020200402	-1.265920E+02	  0.020200402	2.201000E+00	  0.020200402	-2.511200E+01
3	  0.020400802	-6.110000E-01	  0.020400802	-1.280370E+02	  0.020400802	2.178000E+00	  0.020400802	-2.432800E+01
4	  0.020601204	-6.110000E-01	  0.020601204	-1.295170E+02	  0.020601204	2.149000E+00	  0.020601204	-2.353600E+01
5	  0.020801604	-6.140000E-01	  0.020801604	-1.309910E+02	  0.020801604	2.134000E+00	  0.020801604	-2.275600E+01
6	  0.021002004	-6.190000E-01	  0.021002004	-1.325050E+02	  0.021002004	2.125000E+00	  0.021002004	-2.196400E+01
7	  0.021202406	-6.250000E-01	  0.021202406	-1.340410E+02	  0.021202406	2.121000E+00	  0.021202406	-2.117000E+01
8	  0.021402806	-6.290000E-01	  0.021402806	-1.355680E+02	  0.021402806	2.113000E+00	  0.021402806	-2.038900E+01
9	  0.021603208	-6.320000E-01	  0.021603208	-1.371010E+02	  0.021603208	2.098000E+00	  0.021603208	-1.961400E+01
10	  0.021803608	-6.350000E-01	  0.021803608	-1.386270E+02	  0.021803608	2.089000E+00	  0.021803608	-1.885000E+01
11	  0.022004008	-6.400000E-01	  0.022004008	-1.401690E+02	  0.022004008	2.082000E+00	  0.022004008	-1.808600E+01
12	  0.022204408	-6.480000E-01	  0.022204408	-1.417100E+02	  0.022204408	2.089000E+00	  0.022204408	-1.733000E+01
13	  0.022404809	-6.520000E-01	  0.022404809	-1.432780E+02	  0.022404809	2.084000E+00	  0.022404809	-1.656800E+01
14	  0.022605211	-6.530000E-01	  0.022605211	-1.448840E+02	  0.022605211	2.066000E+00	  0.022605211	-1.579500E+01
15	  0.022805611	-6.570000E-01	  0.022805611	-1.464700E+02	  0.022805611	2.062000E+00	  0.022805611	-1.503800E+01
16	  0.023006011	-6.610000E-01	  0.023006011	-1.480450E+02	  0.023006011	2.060000E+00	  0.023006011	-1.429300E+01
17	  0.023206413	-6.630000E-01	  0.023206413	-1.496230E+02	  0.023206413	2.049000E+00	  0.023206413	-1.355200E+01
18	  0.023406813	-6.630000E-01	  0.023406813	-1.512050E+02	  0.023406813	2.035000E+00	  0.023406813	-1.281500E+01
19	  0.023607215	-6.670000E-01	  0.023607215	-1.527990E+02	  0.023607215	2.031000E+00	  0.023607215	-1.207700E+01
20	  0.023807615	-6.720000E-01	  0.023807615	-1.543980E+02	  0.023807615	2.035000E+00	  0.023807615	-1.134200E+01
21	  0.024008015	-6.800000E-01	  0.024008015	-1.560170E+02	  0.024008015	2.046000E+00	  0.024008015	-1.060200E+01
22	  0.024208417	-6.890000E-01	  0.024208417	-1.576500E+02	  0.024208417	2.060000E+00	  0.024208417	-9.861000E+00
23	  0.024408817	-6.960000E-01	  0.024408817	-1.593000E+02	  0.024408817	2.071000E+00	  0.024408817	-9.116000E+00
24	  0.024609219	-7.030000E-01	  0.024609219	-1.609360E+02	  0.024609219	2.080000E+00	  0.024609219	-8.381000E+00
25	  0.024809619	-7.110000E-01	  0.024809619	-1.625960E+02	  0.024809619	2.095000E+00	  0.024809619	-7.639000E+00
26	  0.025010020	-7.190000E-01	  0.025010020	-1.642490E+02	  0.025010020	2.109000E+00	  0.025010020	-6.904000E+00
27	  0.025210422	-7.300000E-01	  0.025210422	-1.659110E+02	  0.025210422	2.134000E+00	  0.025210422	-6.167000E+00
28	  0.025410822	-7.420000E-01	  0.025410822	-1.675850E+02	  0.025410822	2.160000E+00	  0.025410822	-5.427000E+00
29	  0.025611224	-7.540000E-01	  0.025611224	-1.692810E+02	  0.025611224	2.189000E+00	  0.025611224	-4.681000E+00
30	  0.025811624	-7.640000E-01	  0.025811624	-1.709950E+02	  0.025811624	2.212000E+00	  0.025811624	-3.929000E+00
31	  0.026012026	-7.730000E-01	  0.026012026	-1.727330E+02	  0.026012026	2.234000E+00	  0.026012026	-3.168000E+00
32	  0.026212426	-7.830000E-01	  0.026212426	-1.744500E+02	  0.026212426	2.259000E+00	  0.026212426	-2.418000E+00
33	  0.026412826	-7.950000E-01	  0.026412826	-1.761780E+02	  0.026412826	2.290000E+00	  0.026412826	-1.664000E+00
34	  0.026613226	-8.080000E-01	  0.026613226	-1.779220E+02	  0.026613226	2.326000E+00	  0.026613226	-9.040000E-01
35	  0.026813626	-8.220000E-01	  0.026813626	-1.796870E+02	  0.026813626	2.364000E+00	  0.026813626	-1.350000E-01
36	  0.027014028	-8.360000E-01	  0.027014028	1.785550E+02	  0.027014028	2.405000E+00	  0.027014028	6.290000E-01
37	  0.027214428	-8.510000E-01	  0.027214428	1.767810E+02	  0.027214428	2.450000E+00	  0.027214428	1.401000E+00
38	  0.027414829	-8.660000E-01	  0.027414829	1.749870E+02	  0.027414829	2.497000E+00	  0.027414829	2.182000E+00
39	  0.027615231	-8.800000E-01	  0.027615231	1.731880E+02	  0.027615231	2.542000E+00	  0.027615231	2.967000E+00
40	  0.027815631	-8.980000E-01	  0.027815631	1.713890E+02	  0.027815631	2.599000E+00	  0.027815631	3.754000E+00
41	  0.028016033	-9.170000E-01	  0.028016033	1.695510E+02	  0.028016033	2.661000E+00	  0.028016033	4.558000E+00
42	  0.028216433	-9.370000E-01	  0.028216433	1.677290E+02	  0.028216433	2.728000E+00	  0.028216433	5.358000E+00
43	  0.028416833	-9.560000E-01	  0.028416833	1.658940E+02	  0.028416833	2.792000E+00	  0.028416833	6.167000E+00
44	  0.028617235	-9.740000E-01	  0.028617235	1.640640E+02	  0.028617235	2.856000E+00	  0.028617235	6.975000E+00
45	  0.028817635	-9.920000E-01	  0.028817635	1.622270E+02	  0.028817635	2.922000E+00	  0.028817635	7.791000E+00
46	  0.029018037	-1.009000E+00	  0.029018037	1.603970E+02	  0.029018037	2.989000E+00	  0.029018037	8.607000E+00
47	  0.029218437	-1.028000E+00	  0.029218437	1.585780E+02	  0.029218437	3.062000E+00	  0.029218437	9.423000E+00
48	  0.029418837	-1.049000E+00	  0.029418837	1.567400E+02	  0.029418837	3.143000E+00	  0.029418837	1.025100E+01
49	  0.029619239	-1.073000E+00	  0.029619239	1.548980E+02	  0.029619239	3.239000E+00	  0.029619239	1.108600E+01
50	  0.029819639	-1.100000E+00	  0.029819639	1.530280E+02	  0.029819639	3.344000E+00	  0.029819639	1.193900E+01
51	  0.030020041	-1.129000E+00	  0.030020041	1.511360E+02	  0.030020041	3.459000E+00	  0.030020041	1.280900E+01
52	  0.030220442	-1.156000E+00	  0.030220442	1.492140E+02	  0.030220442	3.574000E+00	  0.030220442	1.370000E+01
53	  0.030420844	-1.182000E+00	  0.030420844	1.472860E+02	  0.030420844	3.689000E+00	  0.030420844	1.460100E+01
54	  0.030621244	-1.211000E+00	  0.030621244	1.453740E+02	  0.030621244	3.816000E+00	  0.030621244	1.550200E+01
55	  0.030821644	-1.241000E+00	  0.030821644	1.434710E+02	  0.030821644	3.955000E+00	  0.030821644	1.640800E+01
56	  0.031022044	-1.274000E+00	  0.031022044	1.415510E+02	  0.031022044	4.104000E+00	  0.031022044	1.733000E+01
57	  0.031222444	-1.303000E+00	  0.031222444	1.396180E+02	  0.031222444	4.247000E+00	  0.031222444	1.827000E+01
58	  0.031422846	-1.338000E+00	  0.031422846	1.376450E+02	  0.031422846	4.416000E+00	  0.031422846	1.923900E+01
59	  0.031623244	-1.372000E+00	  0.031623244	1.356550E+02	  0.031623244	4.591000E+00	  0.031623244	2.022800E+01
60	  0.031823646	-1.404000E+00	  0.031823646	1.336630E+02	  0.031823646	4.767000E+00	  0.031823646	2.123200E+01
61	  0.032024048	-1.436000E+00	  0.032024048	1.316630E+02	  0.032024048	4.949000E+00	  0.032024048	2.225400E+01
62	  0.032224450	-1.467000E+00	  0.032224450	1.296760E+02	  0.032224450	5.136000E+00	  0.032224450	2.328300E+01
63	  0.032424849	-1.499000E+00	  0.032424849	1.276990E+02	  0.032424849	5.333000E+00	  0.032424849	2.432300E+01
64	  0.032625251	-1.530000E+00	  0.032625251	1.257350E+02	  0.032625251	5.536000E+00	  0.032625251	2.537200E+01
65	  0.032825653	-1.564000E+00	  0.032825653	1.237640E+02	  0.032825653	5.761000E+00	  0.032825653	2.644000E+01
66	  0.033026051	-1.603000E+00	  0.033026051	1.217800E+02	  0.033026051	6.013000E+00	  0.033026051	2.753200E+01
67	  0.033226453	-1.644000E+00	  0.033226453	1.197950E+02	  0.033226453	6.284000E+00	  0.033226453	2.864200E+01
68	  0.033426855	-1.691000E+00	  0.033426855	1.178230E+02	  0.033426855	6.593000E+00	  0.033426855	2.976200E+01
69	  0.033627257	-1.739000E+00	  0.033627257	1.158050E+02	  0.033627257	6.925000E+00	  0.033627257	3.092800E+01
70	  0.033827655	-1.786000E+00	  0.033827655	1.137610E+02	  0.033827655	7.272000E+00	  0.033827655	3.213200E+01
71	  0.034028057	-1.835000E+00	  0.034028057	1.116850E+02	  0.034028057	7.648000E+00	  0.034028057	3.337800E+01
72	  0.034228459	-1.879000E+00	  0.034228459	1.095700E+02	  0.034228459	8.026000E+00	  0.034228459	3.468000E+01
73	  0.034428857	-1.926000E+00	  0.034428857	1.074540E+02	  0.034428857	8.439000E+00	  0.034428857	3.600800E+01
74	  0.034629259	-1.969000E+00	  0.034629259	1.053200E+02	  0.034629259	8.865000E+00	  0.034629259	3.738000E+01
75	  0.034829661	-2.010000E+00	  0.034829661	1.032070E+02	  0.034829661	9.300000E+00	  0.034829661	3.877400E+01
76	  0.035030060	-2.052000E+00	  0.035030060	1.010860E+02	  0.035030060	9.770000E+00	  0.035030060	4.020700E+01
77	  0.035230462	-2.093000E+00	  0.035230462	9.898200E+01	  0.035230462	1.026400E+01	  0.035230462	4.166500E+01
78	  0.035430863	-2.131000E+00	  0.035430863	9.689200E+01	  0.035430863	1.077600E+01	  0.035430863	4.315300E+01
79	  0.035631265	-2.170000E+00	  0.035631265	9.480600E+01	  0.035631265	1.132200E+01	  0.035631265	4.467700E+01
80	  0.035831664	-2.210000E+00	  0.035831664	9.274700E+01	  0.035831664	1.190300E+01	  0.035831664	4.622200E+01
81	  0.036032066	-2.253000E+00	  0.036032066	9.068500E+01	  0.036032066	1.254200E+01	  0.036032066	4.780700E+01
82	  0.036232468	-2.295000E+00	  0.036232468	8.863800E+01	  0.036232468	1.321900E+01	  0.036232468	4.942300E+01
83	  0.036432866	-2.343000E+00	  0.036432866	8.661300E+01	  0.036432866	1.396900E+01	  0.036432866	5.105800E+01
84	  0.036633268	-2.394000E+00	  0.036633268	8.457500E+01	  0.036633268	1.478900E+01	  0.036633268	5.274600E+01
85	  0.036833670	-2.447000E+00	  0.036833670	8.255200E+01	  0.036833670	1.568400E+01	  0.036833670	5.446000E+01
86	  0.037034072	-2.503000E+00	  0.037034072	8.049100E+01	  0.037034072	1.666600E+01	  0.037034072	5.625300E+01
87	  0.037234470	-2.563000E+00	  0.037234470	7.842400E+01	  0.037234470	1.775400E+01	  0.037234470	5.809100E+01
88	  0.037434869	-2.621000E+00	  0.037434869	7.632900E+01	  0.037434869	1.892300E+01	  0.037434869	6.001200E+01
89	  0.037635271	-2.675000E+00	  0.037635271	7.421000E+01	  0.037635271	2.016900E+01	  0.037635271	6.202500E+01
90	  0.037835669	-2.735000E+00	  0.037835669	7.207100E+01	  0.037835669	2.156900E+01	  0.037835669	6.409800E+01
91	  0.038036071	-2.795000E+00	  0.038036071	6.991500E+01	  0.038036071	2.309300E+01	  0.038036071	6.625000E+01
92	  0.038236473	-2.853000E+00	  0.038236473	6.777700E+01	  0.038236473	2.473200E+01	  0.038236473	6.844300E+01
93	  0.038436871	-2.905000E+00	  0.038436871	6.561500E+01	  0.038436871	2.647500E+01	  0.038436871	7.075500E+01
94	  0.038637273	-2.958000E+00	  0.038637273	6.350900E+01	  0.038637273	2.834100E+01	  0.038637273	7.306200E+01
95	  0.038837675	-3.001000E+00	  0.038837675	6.140300E+01	  0.038837675	3.030000E+01	  0.038837675	7.547300E+01
96	  0.039038073	-3.046000E+00	  0.039038073	5.933600E+01	  0.039038073	3.241400E+01	  0.039038073	7.789400E+01
97	  0.039238475	-3.092000E+00	  0.039238475	5.729200E+01	  0.039238475	3.471500E+01	  0.039238475	8.033600E+01
98	  0.039438877	-3.139000E+00	  0.039438877	5.527600E+01	  0.039438877	3.720400E+01	  0.039438877	8.278200E+01
99	  0.039639279	-3.188000E+00	  0.039639279	5.327700E+01	  0.039639279	3.992100E+01	  0.039639279	8.523100E+01
100	  0.039839678	-3.247000E+00	  0.039839678	5.126600E+01	  0.039839678	4.299200E+01	  0.039839678	8.764500E+01
101	  0.040040080	-3.303000E+00	  0.040040080	4.922400E+01	  0.040040080	4.636400E+01	  0.040040080	9.012900E+01
102	  0.040240481	-3.361000E+00	  0.040240481	4.718600E+01	  0.040240481	5.006900E+01	  0.040240481	9.257000E+01
103	  0.040440880	-3.420000E+00	  0.040440880	4.511500E+01	  0.040440880	5.418700E+01	  0.040440880	9.500600E+01
104	  0.040641282	-3.478000E+00	  0.040641282	4.308400E+01	  0.040641282	5.859400E+01	  0.040641282	9.733200E+01
105	  0.040841684	-3.535000E+00	  0.040841684	4.100600E+01	  0.040841684	6.350800E+01	  0.040841684	9.961700E+01
106	  0.041042086	-3.589000E+00	  0.041042086	3.897000E+01	  0.041042086	6.875700E+01	  0.041042086	1.017180E+02
107	  0.041242484	-3.642000E+00	  0.041242484	3.691600E+01	  0.041242484	7.451000E+01	  0.041242484	1.036680E+02
108	  0.041442886	-3.693000E+00	  0.041442886	3.485700E+01	  0.041442886	8.078100E+01	  0.041442886	1.053640E+02
109	  0.041643288	-3.745000E+00	  0.041643288	3.277300E+01	  0.041643288	8.767600E+01	  0.041643288	1.067190E+02
110	  0.041843686	-3.796000E+00	  0.041843686	3.074100E+01	  0.041843686	9.494600E+01	  0.041843686	1.075930E+02
111	  0.042044088	-3.843000E+00	  0.042044088	2.868200E+01	  0.042044088	1.028450E+02	  0.042044088	1.079860E+02
112	  0.042244490	-3.892000E+00	  0.042244490	2.667200E+01	  0.042244490	1.110900E+02	  0.042244490	1.076440E+02
113	  0.042444889	-3.937000E+00	  0.042444889	2.466700E+01	  0.042444889	1.197800E+02	  0.042444889	1.065930E+02
114	  0.042645290	-3.987000E+00	  0.042645290	2.266500E+01	  0.042645290	1.288490E+02	  0.042645290	1.044600E+02
115	  0.042845692	-4.033000E+00	  0.042845692	2.068000E+01	  0.042845692	1.381180E+02	  0.042845692	1.013460E+02
116	  0.043046094	-4.081000E+00	  0.043046094	1.868100E+01	  0.043046094	1.475740E+02	  0.043046094	9.699100E+01
117	  0.043246493	-4.128000E+00	  0.043246493	1.668600E+01	  0.043246493	1.569220E+02	  0.043246493	9.130900E+01
118	  0.043446895	-4.173000E+00	  0.043446895	1.470100E+01	  0.043446895	1.659490E+02	  0.043446895	8.437900E+01
119	  0.043647297	-4.219000E+00	  0.043647297	1.271800E+01	  0.043647297	1.743480E+02	  0.043647297	7.599900E+01
120	  0.043847695	-4.265000E+00	  0.043847695	1.075700E+01	  0.043847695	1.817510E+02	  0.043847695	6.638500E+01
121	  0.044048097	-4.314000E+00	  0.044048097	8.787000E+00	  0.044048097	1.879250E+02	  0.044048097	5.548500E+01
122	  0.044248499	-4.359000E+00	  0.044248499	6.813000E+00	  0.044248499	1.928000E+02	  0.044248499	4.370800E+01
123	  0.044448901	-4.405000E+00	  0.044448901	4.864000E+00	  0.044448901	1.960010E+02	  0.044448901	3.140900E+01
124	  0.044649299	-4.450000E+00	  0.044649299	2.913000E+00	  0.044649299	1.975230E+02	  0.044649299	1.876500E+01
125	  0.044849701	-4.489000E+00	  0.044849701	9.670000E-01	  0.044849701	1.975490E+02	  0.044849701	6.177000E+00
126	  0.045050103	-4.527000E+00	  0.045050103	-9.580000E-01	  0.045050103	1.959670E+02	  0.045050103	-6.014000E+00
127	  0.045250501	-4.568000E+00	  0.045250501	-2.870000E+00	  0.045250501	1.927790E+02	  0.045250501	-1.753500E+01
128	  0.045450903	-4.606000E+00	  0.045450903	-4.776000E+00	  0.045450903	1.884080E+02	  0.045450903	-2.824100E+01
129	  0.045651305	-4.647000E+00	  0.045651305	-6.657000E+00	  0.045651305	1.829030E+02	  0.045651305	-3.779800E+01
130	  0.045851704	-4.686000E+00	  0.045851704	-8.516000E+00	  0.045851704	1.767500E+02	  0.045851704	-4.624200E+01
131	  0.046052106	-4.723000E+00	  0.046052106	-1.039600E+01	  0.046052106	1.699770E+02	  0.046052106	-5.371600E+01
132	  0.046252504	-4.761000E+00	  0.046252504	-1.224600E+01	  0.046252504	1.629100E+02	  0.046252504	-5.999300E+01
133	  0.046452906	-4.796000E+00	  0.046452906	-1.408800E+01	  0.046452906	1.557240E+02	  0.046452906	-6.528300E+01
134	  0.046653304	-4.829000E+00	  0.046653304	-1.595000E+01	  0.046653304	1.484260E+02	  0.046653304	-6.971100E+01
135	  0.046853706	-4.859000E+00	  0.046853706	-1.778200E+01	  0.046853706	1.413340E+02	  0.046853706	-7.326100E+01
136	  0.047054108	-4.890000E+00	  0.047054108	-1.961000E+01	  0.047054108	1.343760E+02	  0.047054108	-7.602000E+01
137	  0.047254506	-4.919000E+00	  0.047254506	-2.140600E+01	  0.047254506	1.277520E+02	  0.047254506	-7.807700E+01
138	  0.047454908	-4.950000E+00	  0.047454908	-2.319200E+01	  0.047454908	1.213890E+02	  0.047454908	-7.950500E+01
139	  0.047655310	-4.980000E+00	  0.047655310	-2.496600E+01	  0.047655310	1.153530E+02	  0.047655310	-8.044000E+01
140	  0.047855709	-5.006000E+00	  0.047855709	-2.671200E+01	  0.047855709	1.097070E+02	  0.047855709	-8.100200E+01
141	  0.048056111	-5.034000E+00	  0.048056111	-2.841900E+01	  0.048056111	1.044520E+02	  0.048056111	-8.113800E+01
142	  0.048256513	-5.069000E+00	  0.048256513	-3.015200E+01	  0.048256513	9.940600E+01	  0.048256513	-8.088200E+01
143	  0.048456915	-5.094000E+00	  0.048456915	-3.188900E+01	  0.048456915	9.464700E+01	  0.048456915	-8.054400E+01
144	  0.048657313	-5.125000E+00	  0.048657313	-3.360300E+01	  0.048657313	9.022300E+01	  0.048657313	-7.990900E+01
145	  0.048857715	-5.148000E+00	  0.048857715	-3.532300E+01	  0.048857715	8.604200E+01	  0.048857715	-7.920500E+01
146	  0.049058117	-5.174000E+00	  0.049058117	-3.703500E+01	  0.049058117	8.213300E+01	  0.049058117	-7.832500E+01
147	  0.049258515	-5.196000E+00	  0.049258515	-3.873000E+01	  0.049258515	7.848900E+01	  0.049258515	-7.737500E+01
148	  0.049458917	-5.222000E+00	  0.049458917	-4.040200E+01	  0.049458917	7.511700E+01	  0.049458917	-7.629900E+01
149	  0.049659319	-5.245000E+00	  0.049659319	-4.208100E+01	  0.049659319	7.193200E+01	  0.049659319	-7.516900E+01
150	  0.049859721	-5.270000E+00	  0.049859721	-4.375200E+01	  0.049859721	6.895700E+01	  0.049859721	-7.396300E+01
151	  0.050060119	-5.294000E+00	  0.050060119	-4.541600E+01	  0.050060119	6.616800E+01	  0.050060119	-7.273300E+01
152	  0.050260521	-5.313000E+00	  0.050260521	-4.709500E+01	  0.050260521	6.350700E+01	  0.050260521	-7.149300E+01
153	  0.050460923	-5.335000E+00	  0.050460923	-4.875300E+01	  0.050460923	6.104600E+01	  0.050460923	-7.021800E+01
154	  0.050661322	-5.350000E+00	  0.050661322	-5.041500E+01	  0.050661322	5.869100E+01	  0.050661322	-6.898900E+01
155	  0.050861724	-5.365000E+00	  0.050861724	-5.204100E+01	  0.050861724	5.652200E+01	  0.050861724	-6.775800E+01
156	  0.051062126	-5.380000E+00	  0.051062126	-5.367500E+01	  0.051062126	5.446600E+01	  0.051062126	-6.650700E+01
157	  0.051262524	-5.392000E+00	  0.051262524	-5.525400E+01	  0.051262524	5.258000E+01	  0.051262524	-6.530700E+01
158	  0.051462926	-5.406000E+00	  0.051462926	-5.681700E+01	  0.051462926	5.081700E+01	  0.051462926	-6.410800E+01
159	  0.051663328	-5.417000E+00	  0.051663328	-5.835000E+01	  0.051663328	4.917100E+01	  0.051663328	-6.294400E+01
160	  0.051863730	-5.433000E+00	  0.051863730	-5.989200E+01	  0.051863730	4.762100E+01	  0.051863730	-6.174500E+01
161	  0.052064128	-5.448000E+00	  0.052064128	-6.144600E+01	  0.052064128	4.613600E+01	  0.052064128	-6.054900E+01
162	  0.052264530	-5.463000E+00	  0.052264530	-6.296700E+01	  0.052264530	4.475600E+01	  0.052264530	-5.939000E+01
163	  0.052464932	-5.479000E+00	  0.052464932	-6.450100E+01	  0.052464932	4.344100E+01	  0.052464932	-5.822000E+01
164	  0.052665330	-5.495000E+00	  0.052665330	-6.603400E+01	  0.052665330	4.219600E+01	  0.052665330	-5.706000E+01
165	  0.052865732	-5.507000E+00	  0.052865732	-6.758400E+01	  0.052865732	4.098100E+01	  0.052865732	-5.592200E+01
166	  0.053066134	-5.520000E+00	  0.053066134	-6.909700E+01	  0.053066134	3.985800E+01	  0.053066134	-5.481500E+01
167	  0.053266536	-5.531000E+00	  0.053266536	-7.061800E+01	  0.053266536	3.877400E+01	  0.053266536	-5.372600E+01
168	  0.053466935	-5.539000E+00	  0.053466935	-7.211900E+01	  0.053466935	3.774300E+01	  0.053466935	-5.267600E+01
169	  0.053667337	-5.544000E+00	  0.053667337	-7.362700E+01	  0.053667337	3.674300E+01	  0.053667337	-5.164400E+01
170	  0.053867739	-5.549000E+00	  0.053867739	-7.511500E+01	  0.053867739	3.580100E+01	  0.053867739	-5.063600E+01
171	  0.054068137	-5.552000E+00	  0.054068137	-7.659400E+01	  0.054068137	3.489900E+01	  0.054068137	-4.965300E+01
172	  0.054268539	-5.555000E+00	  0.054268539	-7.805400E+01	  0.054268539	3.404800E+01	  0.054268539	-4.869000E+01
173	  0.054468941	-5.561000E+00	  0.054468941	-7.948100E+01	  0.054468941	3.326300E+01	  0.054468941	-4.775000E+01
174	  0.054669339	-5.564000E+00	  0.054669339	-8.091100E+01	  0.054669339	3.250000E+01	  0.054669339	-4.682600E+01
175	  0.054869737	-5.567000E+00	  0.054869737	-8.229500E+01	  0.054869737	3.179400E+01	  0.054869737	-4.594200E+01
176	  0.055070139	-5.573000E+00	  0.055070139	-8.368300E+01	  0.055070139	3.112600E+01	  0.055070139	-4.505300E+01
177	  0.055270538	-5.581000E+00	  0.055270538	-8.505800E+01	  0.055270538	3.049900E+01	  0.055270538	-4.417800E+01
178	  0.055470940	-5.587000E+00	  0.055470940	-8.644100E+01	  0.055470940	2.988200E+01	  0.055470940	-4.331700E+01
179	  0.055671342	-5.592000E+00	  0.055671342	-8.781400E+01	  0.055671342	2.929500E+01	  0.055671342	-4.247100E+01
180	  0.055871744	-5.601000E+00	  0.055871744	-8.922900E+01	  0.055871744	2.872900E+01	  0.055871744	-4.159900E+01
181	  0.056072142	-5.610000E+00	  0.056072142	-9.058700E+01	  0.056072142	2.820800E+01	  0.056072142	-4.077300E+01
182	  0.056272544	-5.615000E+00	  0.056272544	-9.197000E+01	  0.056272544	2.768200E+01	  0.056272544	-3.995300E+01
183	  0.056472946	-5.620000E+00	  0.056472946	-9.335100E+01	  0.056472946	2.717700E+01	  0.056472946	-3.914200E+01
184	  0.056673344	-5.623000E+00	  0.056673344	-9.471800E+01	  0.056673344	2.669200E+01	  0.056673344	-3.835200E+01
185	  0.056873746	-5.628000E+00	  0.056873746	-9.609500E+01	  0.056873746	2.622700E+01	  0.056873746	-3.756300E+01
186	  0.057074148	-5.628000E+00	  0.057074148	-9.747500E+01	  0.057074148	2.576400E+01	  0.057074148	-3.678900E+01
187	  0.057274550	-5.631000E+00	  0.057274550	-9.884200E+01	  0.057274550	2.533100E+01	  0.057274550	-3.602500E+01
188	  0.057474948	-5.632000E+00	  0.057474948	-1.001810E+02	  0.057474948	2.491400E+01	  0.057474948	-3.529100E+01
189	  0.057675350	-5.630000E+00	  0.057675350	-1.015270E+02	  0.057675350	2.450100E+01	  0.057675350	-3.456400E+01
190	  0.057875752	-5.630000E+00	  0.057875752	-1.028370E+02	  0.057875752	2.412300E+01	  0.057875752	-3.385900E+01
191	  0.058076151	-5.631000E+00	  0.058076151	-1.041220E+02	  0.058076151	2.376700E+01	  0.058076151	-3.317300E+01
192	  0.058276553	-5.632000E+00	  0.058276553	-1.054110E+02	  0.058276553	2.342100E+01	  0.058276553	-3.249200E+01
193	  0.058476955	-5.633000E+00	  0.058476955	-1.066620E+02	  0.058476955	2.309700E+01	  0.058476955	-3.183700E+01
194	  0.058677353	-5.638000E+00	  0.058677353	-1.079560E+02	  0.058677353	2.278800E+01	  0.058677353	-3.115900E+01
195	  0.058877755	-5.641000E+00	  0.058877755	-1.092210E+02	  0.058877755	2.248900E+01	  0.058877755	-3.050500E+01
196	  0.059078157	-5.646000E+00	  0.059078157	-1.104680E+02	  0.059078157	2.221300E+01	  0.059078157	-2.986400E+01
197	  0.059278559	-5.648000E+00	  0.059278559	-1.117360E+02	  0.059278559	2.193100E+01	  0.059278559	-2.922200E+01
198	  0.059478957	-5.653000E+00	  0.059478957	-1.129940E+02	  0.059478957	2.167200E+01	  0.059478957	-2.858600E+01
199	  0.059679359	-5.659000E+00	  0.059679359	-1.142530E+02	  0.059679359	2.142400E+01	  0.059679359	-2.795500E+01
200	  0.059879761	-5.663000E+00	  0.059879761	-1.155180E+02	  0.059879761	2.117600E+01	  0.059879761	-2.732900E+01
201	  0.060080159	-5.666000E+00	  0.060080159	-1.167370E+02	  0.060080159	2.094100E+01	  0.060080159	-2.673300E+01
202	  0.060280561	-5.666000E+00	  0.060280561	-1.180070E+02	  0.060280561	2.069800E+01	  0.060280561	-2.612000E+01
203	  0.060480963	-5.668000E+00	  0.060480963	-1.192310E+02	  0.060480963	2.047800E+01	  0.060480963	-2.553100E+01
204	  0.060681365	-5.670000E+00	  0.060681365	-1.204550E+02	  0.060681365	2.026400E+01	  0.060681365	-2.494800E+01
205	  0.060881764	-5.671000E+00	  0.060881764	-1.216730E+02	  0.060881764	2.005500E+01	  0.060881764	-2.437200E+01
206	  0.061082166	-5.671000E+00	  0.061082166	-1.229000E+02	  0.061082166	1.985100E+01	  0.061082166	-2.379700E+01
207	  0.061282568	-5.669000E+00	  0.061282568	-1.241030E+02	  0.061282568	1.965000E+01	  0.061282568	-2.324000E+01
208	  0.061482966	-5.670000E+00	  0.061482966	-1.253040E+02	  0.061482966	1.946300E+01	  0.061482966	-2.268500E+01
209	  0.061683368	-5.670000E+00	  0.061683368	-1.264580E+02	  0.061683368	1.928900E+01	  0.061683368	-2.215600E+01
210	  0.061883770	-5.669000E+00	  0.061883770	-1.276390E+02	  0.061883770	1.911400E+01	  0.061883770	-2.161800E+01
211	  0.062084168	-5.668000E+00	  0.062084168	-1.287790E+02	  0.062084168	1.894800E+01	  0.062084168	-2.110400E+01
212	  0.062284570	-5.672000E+00	  0.062284570	-1.299470E+02	  0.062284570	1.879900E+01	  0.062284570	-2.057500E+01
213	  0.062484972	-5.662000E+00	  0.062484972	-1.310420E+02	  0.062484972	1.862500E+01	  0.062484972	-2.009300E+01
214	  0.062685370	-5.670000E+00	  0.062685370	-1.322090E+02	  0.062685370	1.849800E+01	  0.062685370	-1.956700E+01
215	  0.062885776	-5.671000E+00	  0.062885776	-1.333620E+02	  0.062885776	1.835900E+01	  0.062885776	-1.905600E+01
216	  0.063086174	-5.678000E+00	  0.063086174	-1.345120E+02	  0.063086174	1.824100E+01	  0.063086174	-1.854600E+01
217	  0.063286573	-5.676000E+00	  0.063286573	-1.356880E+02	  0.063286573	1.809700E+01	  0.063286573	-1.803300E+01
218	  0.063486971	-5.675000E+00	  0.063486971	-1.368330E+02	  0.063486971	1.796800E+01	  0.063486971	-1.753600E+01
219	  0.063687377	-5.676000E+00	  0.063687377	-1.379710E+02	  0.063687377	1.784700E+01	  0.063687377	-1.704300E+01
220	  0.063887775	-5.673000E+00	  0.063887775	-1.391140E+02	  0.063887775	1.771900E+01	  0.063887775	-1.655300E+01
221	  0.064088173	-5.676000E+00	  0.064088173	-1.402600E+02	  0.064088173	1.761300E+01	  0.064088173	-1.606000E+01
222	  0.064288579	-5.672000E+00	  0.064288579	-1.414170E+02	  0.064288579	1.748800E+01	  0.064288579	-1.557000E+01
223	  0.064488977	-5.671000E+00	  0.064488977	-1.425160E+02	  0.064488977	1.738500E+01	  0.064488977	-1.510400E+01
224	  0.064689375	-5.670000E+00	  0.064689375	-1.436270E+02	  0.064689375	1.728200E+01	  0.064689375	-1.463500E+01
225	  0.064889781	-5.667000E+00	  0.064889781	-1.447070E+02	  0.064889781	1.717800E+01	  0.064889781	-1.418300E+01
226	  0.065090179	-5.668000E+00	  0.065090179	-1.458040E+02	  0.065090179	1.709100E+01	  0.065090179	-1.372200E+01
227	  0.065290578	-5.667000E+00	  0.065290578	-1.468830E+02	  0.065290578	1.700000E+01	  0.065290578	-1.327300E+01
228	  0.065490983	-5.669000E+00	  0.065490983	-1.479580E+02	  0.065490983	1.692200E+01	  0.065490983	-1.282500E+01
229	  0.065691382	-5.668000E+00	  0.065691382	-1.490320E+02	  0.065691382	1.684000E+01	  0.065691382	-1.238000E+01
230	  0.065891780	-5.667000E+00	  0.065891780	-1.501230E+02	  0.065891780	1.675900E+01	  0.065891780	-1.193000E+01
231	  0.066092186	-5.671000E+00	  0.066092186	-1.511710E+02	  0.066092186	1.669900E+01	  0.066092186	-1.149700E+01
232	  0.066292584	-5.673000E+00	  0.066292584	-1.522270E+02	  0.066292584	1.663600E+01	  0.066292584	-1.106300E+01
233	  0.066492982	-5.672000E+00	  0.066492982	-1.532930E+02	  0.066492982	1.656500E+01	  0.066492982	-1.062800E+01
234	  0.066693388	-5.673000E+00	  0.066693388	-1.543380E+02	  0.066693388	1.650600E+01	  0.066693388	-1.020200E+01
235	  0.066893786	-5.671000E+00	  0.066893786	-1.553900E+02	  0.066893786	1.644000E+01	  0.066893786	-9.775000E+00
236	  0.067094192	-5.673000E+00	  0.067094192	-1.564400E+02	  0.067094192	1.638700E+01	  0.067094192	-9.348000E+00
237	  0.067294590	-5.677000E+00	  0.067294590	-1.574580E+02	  0.067294590	1.634400E+01	  0.067294590	-8.936000E+00
238	  0.067494988	-5.674000E+00	  0.067494988	-1.585260E+02	  0.067494988	1.628200E+01	  0.067494988	-8.506000E+00
239	  0.067695394	-5.678000E+00	  0.067695394	-1.595430E+02	  0.067695394	1.624600E+01	  0.067695394	-8.096000E+00
240	  0.067895792	-5.679000E+00	  0.067895792	-1.605970E+02	  0.067895792	1.620300E+01	  0.067895792	-7.672000E+00
241	  0.068096191	-5.682000E+00	  0.068096191	-1.616110E+02	  0.068096191	1.616800E+01	  0.068096191	-7.266000E+00
242	  0.068296596	-5.686000E+00	  0.068296596	-1.626060E+02	  0.068296596	1.613800E+01	  0.068296596	-6.867000E+00
243	  0.068496995	-5.685000E+00	  0.068496995	-1.636470E+02	  0.068496995	1.609800E+01	  0.068496995	-6.452000E+00
244	  0.068697393	-5.685000E+00	  0.068697393	-1.646240E+02	  0.068697393	1.606200E+01	  0.068697393	-6.064000E+00
245	  0.068897791	-5.692000E+00	  0.068897791	-1.656460E+02	  0.068897791	1.604700E+01	  0.068897791	-5.656000E+00
246	  0.069098189	-5.693000E+00	  0.069098189	-1.666200E+02	  0.069098189	1.601900E+01	  0.069098189	-5.269000E+00
247	  0.069298595	-5.693000E+00	  0.069298595	-1.676350E+02	  0.069298595	1.599200E+01	  0.069298595	-4.867000E+00
248	  0.069498993	-5.698000E+00	  0.069498993	-1.686230E+02	  0.069498993	1.597700E+01	  0.069498993	-4.476000E+00
249	  0.069699399	-5.699000E+00	  0.069699399	-1.696150E+02	  0.069699399	1.595800E+01	  0.069699399	-4.084000E+00
250	  0.069899797	-5.706000E+00	  0.069899797	-1.705930E+02	  0.069899797	1.595500E+01	  0.069899797	-3.697000E+00
251	  0.070100196	-5.714000E+00	  0.070100196	-1.715630E+02	  0.070100196	1.595600E+01	  0.070100196	-3.313000E+00
252	  0.070300601	-5.711000E+00	  0.070300601	-1.725570E+02	  0.070300601	1.593100E+01	  0.070300601	-2.922000E+00
253	  0.070501000	-5.716000E+00	  0.070501000	-1.735370E+02	  0.070501000	1.593000E+01	  0.070501000	-2.536000E+00
254	  0.070701398	-5.721000E+00	  0.070701398	-1.745010E+02	  0.070701398	1.593000E+01	  0.070701398	-2.157000E+00
255	  0.070901804	-5.721000E+00	  0.070901804	-1.754930E+02	  0.070901804	1.591900E+01	  0.070901804	-1.768000E+00
256	  0.071102202	-5.725000E+00	  0.071102202	-1.764750E+02	  0.071102202	1.592100E+01	  0.071102202	-1.382000E+00
257	  0.071302600	-5.735000E+00	  0.071302600	-1.774240E+02	  0.071302600	1.594000E+01	  0.071302600	-1.009000E+00
258	  0.071503006	-5.737000E+00	  0.071503006	-1.783900E+02	  0.071503006	1.594100E+01	  0.071503006	-6.310000E-01
259	  0.071703404	-5.742000E+00	  0.071703404	-1.793540E+02	  0.071703404	1.595200E+01	  0.071703404	-2.530000E-01
260	  0.071903802	-5.750000E+00	  0.071903802	1.797030E+02	  0.071903802	1.597300E+01	  0.071903802	1.160000E-01
261	  0.072104208	-5.754000E+00	  0.072104208	1.787490E+02	  0.072104208	1.598300E+01	  0.072104208	4.890000E-01
262	  0.072304606	-5.760000E+00	  0.072304606	1.778200E+02	  0.072304606	1.600200E+01	  0.072304606	8.530000E-01
263	  0.072505005	-5.765000E+00	  0.072505005	1.768730E+02	  0.072505005	1.602200E+01	  0.072505005	1.224000E+00
264	  0.072705410	-5.774000E+00	  0.072705410	1.759380E+02	  0.072705410	1.605100E+01	  0.072705410	1.590000E+00
265	  0.072905809	-5.778000E+00	  0.072905809	1.749930E+02	  0.072905809	1.607200E+01	  0.072905809	1.960000E+00
266	  0.073106214	-5.784000E+00	  0.073106214	1.740770E+02	  0.073106214	1.609700E+01	  0.073106214	2.318000E+00
267	  0.073306613	-5.788000E+00	  0.073306613	1.731390E+02	  0.073306613	1.612100E+01	  0.073306613	2.686000E+00
268	  0.073507011	-5.799000E+00	  0.073507011	1.722350E+02	  0.073507011	1.616500E+01	  0.073507011	3.040000E+00
269	  0.073707417	-5.802000E+00	  0.073707417	1.712890E+02	  0.073707417	1.618900E+01	  0.073707417	3.410000E+00
270	  0.073907815	-5.808000E+00	  0.073907815	1.703780E+02	  0.073907815	1.622300E+01	  0.073907815	3.767000E+00
271	  0.074108213	-5.814000E+00	  0.074108213	1.694800E+02	  0.074108213	1.626000E+01	  0.074108213	4.119000E+00
272	  0.074308619	-5.817000E+00	  0.074308619	1.685710E+02	  0.074308619	1.628900E+01	  0.074308619	4.476000E+00
273	  0.074509017	-5.823000E+00	  0.074509017	1.676350E+02	  0.074509017	1.633100E+01	  0.074509017	4.844000E+00
274	  0.074709415	-5.830000E+00	  0.074709415	1.667490E+02	  0.074709415	1.637200E+01	  0.074709415	5.192000E+00
275	  0.074909821	-5.835000E+00	  0.074909821	1.658660E+02	  0.074909821	1.641300E+01	  0.074909821	5.539000E+00
276	  0.075110219	-5.842000E+00	  0.075110219	1.649640E+02	  0.075110219	1.646000E+01	  0.075110219	5.894000E+00
277	  0.075310618	-5.847000E+00	  0.075310618	1.640550E+02	  0.075310618	1.650600E+01	  0.075310618	6.252000E+00
278	  0.075511023	-5.853000E+00	  0.075511023	1.632040E+02	  0.075511023	1.655400E+01	  0.075511023	6.587000E+00
279	  0.075711422	-5.859000E+00	  0.075711422	1.623340E+02	  0.075711422	1.660200E+01	  0.075711422	6.931000E+00
280	  0.075911827	-5.865000E+00	  0.075911827	1.614620E+02	  0.075911827	1.665600E+01	  0.075911827	7.275000E+00
281	  0.076112226	-5.874000E+00	  0.076112226	1.605580E+02	  0.076112226	1.671700E+01	  0.076112226	7.632000E+00
282	  0.076312624	-5.882000E+00	  0.076312624	1.596960E+02	  0.076312624	1.677800E+01	  0.076312624	7.972000E+00
283	  0.076513030	-5.887000E+00	  0.076513030	1.587920E+02	  0.076513030	1.683500E+01	  0.076513030	8.331000E+00
284	  0.076713428	-5.895000E+00	  0.076713428	1.579210E+02	  0.076713428	1.689800E+01	  0.076713428	8.677000E+00
285	  0.076913826	-5.904000E+00	  0.076913826	1.570350E+02	  0.076913826	1.696800E+01	  0.076913826	9.028000E+00
286	  0.077114232	-5.906000E+00	  0.077114232	1.561690E+02	  0.077114232	1.702300E+01	  0.077114232	9.374000E+00
287	  0.077314630	-5.912000E+00	  0.077314630	1.553050E+02	  0.077314630	1.708500E+01	  0.077314630	9.719000E+00
288	  0.077515028	-5.919000E+00	  0.077515028	1.544870E+02	  0.077515028	1.715400E+01	  0.077515028	1.004500E+01
289	  0.077715434	-5.924000E+00	  0.077715434	1.536320E+02	  0.077715434	1.722000E+01	  0.077715434	1.038700E+01
290	  0.077915832	-5.937000E+00	  0.077915832	1.527680E+02	  0.077915832	1.730700E+01	  0.077915832	1.073100E+01
291	  0.078116231	-5.948000E+00	  0.078116231	1.519260E+02	  0.078116231	1.739300E+01	  0.078116231	1.106600E+01
292	  0.078316636	-5.956000E+00	  0.078316636	1.510890E+02	  0.078316636	1.747200E+01	  0.078316636	1.140200E+01
293	  0.078517035	-5.968000E+00	  0.078517035	1.502080E+02	  0.078517035	1.756700E+01	  0.078517035	1.175400E+01
294	  0.078717433	-5.977000E+00	  0.078717433	1.493670E+02	  0.078717433	1.765200E+01	  0.078717433	1.209200E+01
295	  0.078917839	-5.990000E+00	  0.078917839	1.485170E+02	  0.078917839	1.775300E+01	  0.078917839	1.243200E+01
296	  0.079118237	-6.004000E+00	  0.079118237	1.476910E+02	  0.079118237	1.785500E+01	  0.079118237	1.276300E+01
297	  0.079318643	-6.019000E+00	  0.079318643	1.468150E+02	  0.079318643	1.796500E+01	  0.079318643	1.311400E+01
298	  0.079519041	-6.031000E+00	  0.079519041	1.459830E+02	  0.079519041	1.806800E+01	  0.079519041	1.344800E+01
299	  0.079719439	-6.040000E+00	  0.079719439	1.451230E+02	  0.079719439	1.816700E+01	  0.079719439	1.379700E+01
300	  0.079919845	-6.058000E+00	  0.079919845	1.442850E+02	  0.079919845	1.829000E+01	  0.079919845	1.413200E+01
301	  0.080120243	-6.068000E+00	  0.080120243	1.434090E+02	  0.080120243	1.839800E+01	  0.080120243	1.448800E+01
302	  0.080320641	-6.079000E+00	  0.080320641	1.425410E+02	  0.080320641	1.850900E+01	  0.080320641	1.484100E+01
303	  0.080521047	-6.093000E+00	  0.080521047	1.417070E+02	  0.080521047	1.863000E+01	  0.080521047	1.517900E+01
304	  0.080721445	-6.104000E+00	  0.080721445	1.408400E+02	  0.080721445	1.874700E+01	  0.080721445	1.553200E+01
305	  0.080921844	-6.118000E+00	  0.080921844	1.399820E+02	  0.080921844	1.887300E+01	  0.080921844	1.588200E+01
306	  0.081122249	-6.126000E+00	  0.081122249	1.391460E+02	  0.081122249	1.898400E+01	  0.081122249	1.622600E+01
307	  0.081322648	-6.137000E+00	  0.081322648	1.383170E+02	  0.081322648	1.910400E+01	  0.081322648	1.656600E+01
308	  0.081523046	-6.151000E+00	  0.081523046	1.374460E+02	  0.081523046	1.924100E+01	  0.081523046	1.692300E+01
309	  0.081723452	-6.161000E+00	  0.081723452	1.366050E+02	  0.081723452	1.936400E+01	  0.081723452	1.727100E+01
310	  0.081923850	-6.173000E+00	  0.081923850	1.357460E+02	  0.081923850	1.950200E+01	  0.081923850	1.762400E+01
311	  0.082124248	-6.185000E+00	  0.082124248	1.349450E+02	  0.082124248	1.963200E+01	  0.082124248	1.795500E+01
312	  0.082324654	-6.196000E+00	  0.082324654	1.341470E+02	  0.082324654	1.976300E+01	  0.082324654	1.828600E+01
313	  0.082525052	-6.211000E+00	  0.082525052	1.333220E+02	  0.082525052	1.990900E+01	  0.082525052	1.862600E+01
314	  0.082725458	-6.224000E+00	  0.082725458	1.325270E+02	  0.082725458	2.005200E+01	  0.082725458	1.895500E+01
315	  0.082925856	-6.241000E+00	  0.082925856	1.317150E+02	  0.082925856	2.020900E+01	  0.082925856	1.928900E+01
316	  0.083126254	-6.257000E+00	  0.083126254	1.308950E+02	  0.083126254	2.036500E+01	  0.083126254	1.962800E+01
317	  0.083326660	-6.267000E+00	  0.083326660	1.300810E+02	  0.083326660	2.051000E+01	  0.083326660	1.996900E+01
318	  0.083527058	-6.284000E+00	  0.083527058	1.292500E+02	  0.083527058	2.068000E+01	  0.083527058	2.031300E+01
319	  0.083727457	-6.298000E+00	  0.083727457	1.284290E+02	  0.083727457	2.084200E+01	  0.083727457	2.065500E+01
320	  0.083927862	-6.314000E+00	  0.083927862	1.276330E+02	  0.083927862	2.100700E+01	  0.083927862	2.098700E+01
321	  0.084128261	-6.325000E+00	  0.084128261	1.268390E+02	  0.084128261	2.116400E+01	  0.084128261	2.132200E+01
322	  0.084328659	-6.343000E+00	  0.084328659	1.260670E+02	  0.084328659	2.133700E+01	  0.084328659	2.164200E+01
323	  0.084529065	-6.351000E+00	  0.084529065	1.252900E+02	  0.084529065	2.148900E+01	  0.084529065	2.197400E+01
324	  0.084729463	-6.373000E+00	  0.084729463	1.245250E+02	  0.084729463	2.168100E+01	  0.084729463	2.228600E+01
325	  0.084929861	-6.393000E+00	  0.084929861	1.237210E+02	  0.084929861	2.187400E+01	  0.084929861	2.262000E+01
326	  0.085130267	-6.411000E+00	  0.085130267	1.229550E+02	  0.085130267	2.206200E+01	  0.085130267	2.293800E+01
327	  0.085330658	-6.429000E+00	  0.085330658	1.221660E+02	  0.085330658	2.225600E+01	  0.085330658	2.326600E+01
328	  0.085531056	-6.450000E+00	  0.085531056	1.214230E+02	  0.085531056	2.245200E+01	  0.085531056	2.357200E+01
329	  0.085731462	-6.471000E+00	  0.085731462	1.206430E+02	  0.085731462	2.266000E+01	  0.085731462	2.389400E+01
330	  0.085931860	-6.493000E+00	  0.085931860	1.198790E+02	  0.085931860	2.287100E+01	  0.085931860	2.420800E+01
331	  0.086132258	-6.520000E+00	  0.086132258	1.191320E+02	  0.086132258	2.309700E+01	  0.086132258	2.450700E+01
332	  0.086332664	-6.542000E+00	  0.086332664	1.183530E+02	  0.086332664	2.331800E+01	  0.086332664	2.482700E+01
333	  0.086533062	-6.568000E+00	  0.086533062	1.175920E+02	  0.086533062	2.355000E+01	  0.086533062	2.513500E+01
334	  0.086733460	-6.590000E+00	  0.086733460	1.167920E+02	  0.086733460	2.378100E+01	  0.086733460	2.546500E+01
335	  0.086933866	-6.611000E+00	  0.086933866	1.160150E+02	  0.086933866	2.401100E+01	  0.086933866	2.578600E+01
336	  0.087134264	-6.635000E+00	  0.087134264	1.152270E+02	  0.087134264	2.425500E+01	  0.087134264	2.610700E+01
337	  0.087334670	-6.661000E+00	  0.087334670	1.144170E+02	  0.087334670	2.451300E+01	  0.087334670	2.643600E+01
338	  0.087535068	-6.684000E+00	  0.087535068	1.136500E+02	  0.087535068	2.475900E+01	  0.087535068	2.674900E+01
339	  0.087735467	-6.705000E+00	  0.087735467	1.128780E+02	  0.087735467	2.500200E+01	  0.087735467	2.706700E+01
340	  0.087935872	-6.731000E+00	  0.087935872	1.121160E+02	  0.087935872	2.526000E+01	  0.087935872	2.737400E+01
341	  0.088136271	-6.756000E+00	  0.088136271	1.113320E+02	  0.088136271	2.552800E+01	  0.088136271	2.769100E+01
342	  0.088336669	-6.777000E+00	  0.088336669	1.105830E+02	  0.088336669	2.577700E+01	  0.088336669	2.799900E+01
343	  0.088537075	-6.801000E+00	  0.088537075	1.098050E+02	  0.088537075	2.605000E+01	  0.088537075	2.831400E+01
344	  0.088737473	-6.817000E+00	  0.088737473	1.090540E+02	  0.088737473	2.629400E+01	  0.088737473	2.863000E+01
345	  0.088937871	-6.847000E+00	  0.088937871	1.083080E+02	  0.088937871	2.658000E+01	  0.088937871	2.892200E+01
346	  0.089138277	-6.868000E+00	  0.089138277	1.075690E+02	  0.089138277	2.684500E+01	  0.089138277	2.922300E+01
347	  0.089338675	-6.896000E+00	  0.089338675	1.068280E+02	  0.089338675	2.713600E+01	  0.089338675	2.951200E+01
348	  0.089539073	-6.921000E+00	  0.089539073	1.061000E+02	  0.089539073	2.741700E+01	  0.089539073	2.980100E+01
349	  0.089739479	-6.955000E+00	  0.089739479	1.053670E+02	  0.089739479	2.773300E+01	  0.089739479	3.007300E+01
350	  0.089939877	-6.979000E+00	  0.089939877	1.046270E+02	  0.089939877	2.802300E+01	  0.089939877	3.036600E+01
351	  0.090140276	-7.012000E+00	  0.090140276	1.038680E+02	  0.090140276	2.835000E+01	  0.090140276	3.065100E+01
352	  0.090340681	-7.040000E+00	  0.090340681	1.031410E+02	  0.090340681	2.865800E+01	  0.090340681	3.092900E+01
353	  0.090541080	-7.067000E+00	  0.090541080	1.023790E+02	  0.090541080	2.897600E+01	  0.090541080	3.122500E+01
354	  0.090741485	-7.099000E+00	  0.090741485	1.016560E+02	  0.090741485	2.930500E+01	  0.090741485	3.148900E+01
355	  0.090941884	-7.129000E+00	  0.090941884	1.009530E+02	  0.090941884	2.962300E+01	  0.090941884	3.174800E+01
356	  0.091142282	-7.163000E+00	  0.091142282	1.002480E+02	  0.091142282	2.996100E+01	  0.091142282	3.199600E+01
357	  0.091342688	-7.196000E+00	  0.091342688	9.950900E+01	  0.091342688	3.031000E+01	  0.091342688	3.226200E+01
358	  0.091543086	-7.234000E+00	  0.091543086	9.881100E+01	  0.091543086	3.066500E+01	  0.091543086	3.249400E+01
359	  0.091743484	-7.261000E+00	  0.091743484	9.809000E+01	  0.091743484	3.100000E+01	  0.091743484	3.276000E+01
360	  0.091943890	-7.298000E+00	  0.091943890	9.742200E+01	  0.091943890	3.135100E+01	  0.091943890	3.297600E+01
361	  0.092144288	-7.333000E+00	  0.092144288	9.673400E+01	  0.092144288	3.170500E+01	  0.092144288	3.320500E+01
362	  0.092344686	-7.368000E+00	  0.092344686	9.605800E+01	  0.092344686	3.206100E+01	  0.092344686	3.342600E+01
363	  0.092545092	-7.409000E+00	  0.092545092	9.537900E+01	  0.092545092	3.243900E+01	  0.092545092	3.363000E+01
364	  0.092745490	-7.445000E+00	  0.092745490	9.472000E+01	  0.092745490	3.279800E+01	  0.092745490	3.383500E+01
365	  0.092945889	-7.488000E+00	  0.092945889	9.409400E+01	  0.092945889	3.317100E+01	  0.092945889	3.400300E+01
366	  0.093146294	-7.530000E+00	  0.093146294	9.340300E+01	  0.093146294	3.356700E+01	  0.093146294	3.420200E+01
367	  0.093346693	-7.574000E+00	  0.093346693	9.277600E+01	  0.093346693	3.394800E+01	  0.093346693	3.436300E+01
368	  0.093547091	-7.610000E+00	  0.093547091	9.207000E+01	  0.093547091	3.434300E+01	  0.093547091	3.457600E+01
369	  0.093747497	-7.656000E+00	  0.093747497	9.141500E+01	  0.093747497	3.475100E+01	  0.093747497	3.473500E+01
370	  0.093947895	-7.695000E+00	  0.093947895	9.074000E+01	  0.093947895	3.515000E+01	  0.093947895	3.491800E+01
371	  0.094148301	-7.741000E+00	  0.094148301	9.008600E+01	  0.094148301	3.556400E+01	  0.094148301	3.507000E+01
372	  0.094348699	-7.781000E+00	  0.094348699	8.945100E+01	  0.094348699	3.595500E+01	  0.094348699	3.522600E+01
373	  0.094549097	-7.829000E+00	  0.094549097	8.881900E+01	  0.094549097	3.637100E+01	  0.094549097	3.535500E+01
374	  0.094749503	-7.865000E+00	  0.094749503	8.818600E+01	  0.094749503	3.675900E+01	  0.094749503	3.551300E+01
375	  0.094949901	-7.906000E+00	  0.094949901	8.756900E+01	  0.094949901	3.715400E+01	  0.094949901	3.564900E+01
376	  0.095150299	-7.942000E+00	  0.095150299	8.697100E+01	  0.095150299	3.753100E+01	  0.095150299	3.578600E+01
377	  0.095350705	-7.986000E+00	  0.095350705	8.635600E+01	  0.095350705	3.794000E+01	  0.095350705	3.590400E+01
378	  0.095551103	-8.025000E+00	  0.095551103	8.573200E+01	  0.095551103	3.834600E+01	  0.095551103	3.603300E+01
379	  0.095751502	-8.062000E+00	  0.095751502	8.516500E+01	  0.095751502	3.872000E+01	  0.095751502	3.614400E+01
380	  0.095951907	-8.107000E+00	  0.095951907	8.460700E+01	  0.095951907	3.911200E+01	  0.095951907	3.622300E+01
381	  0.096152306	-8.147000E+00	  0.096152306	8.406500E+01	  0.096152306	3.948600E+01	  0.096152306	3.630600E+01
382	  0.096352704	-8.191000E+00	  0.096352704	8.350600E+01	  0.096352704	3.988300E+01	  0.096352704	3.637800E+01
383	  0.096553110	-8.234000E+00	  0.096553110	8.296800E+01	  0.096553110	4.026600E+01	  0.096553110	3.644300E+01
384	  0.096753508	-8.274000E+00	  0.096753508	8.244600E+01	  0.096753508	4.063600E+01	  0.096753508	3.650600E+01
385	  0.096953906	-8.321000E+00	  0.096953906	8.193400E+01	  0.096953906	4.101800E+01	  0.096953906	3.654200E+01
386	  0.097154312	-8.362000E+00	  0.097154312	8.140100E+01	  0.097154312	4.140000E+01	  0.097154312	3.659600E+01
387	  0.097354710	-8.403000E+00	  0.097354710	8.087900E+01	  0.097354710	4.177700E+01	  0.097354710	3.664600E+01
388	  0.097555116	-8.452000E+00	  0.097555116	8.039000E+01	  0.097555116	4.215900E+01	  0.097555116	3.664800E+01
389	  0.097755514	-8.499000E+00	  0.097755514	7.989400E+01	  0.097755514	4.253600E+01	  0.097755514	3.666000E+01
390	  0.097955912	-8.541000E+00	  0.097955912	7.941200E+01	  0.097955912	4.289900E+01	  0.097955912	3.667600E+01
391	  0.098156318	-8.587000E+00	  0.098156318	7.891600E+01	  0.098156318	4.327700E+01	  0.098156318	3.668200E+01
392	  0.098356716	-8.627000E+00	  0.098356716	7.844600E+01	  0.098356716	4.363000E+01	  0.098356716	3.669500E+01
393	  0.098557115	-8.669000E+00	  0.098557115	7.798100E+01	  0.098557115	4.398500E+01	  0.098557115	3.669500E+01
394	  0.098757520	-8.716000E+00	  0.098757520	7.751300E+01	  0.098757520	4.435100E+01	  0.098757520	3.667500E+01
395	  0.098957919	-8.761000E+00	  0.098957919	7.704100E+01	  0.098957919	4.471600E+01	  0.098957919	3.666100E+01
396	  0.099158317	-8.809000E+00	  0.099158317	7.658800E+01	  0.099158317	4.507700E+01	  0.099158317	3.662400E+01
397	  0.099358723	-8.849000E+00	  0.099358723	7.618500E+01	  0.099358723	4.539400E+01	  0.099358723	3.659600E+01
398	  0.099559121	-8.897000E+00	  0.099559121	7.574800E+01	  0.099559121	4.574400E+01	  0.099559121	3.654700E+01
399	  0.099759519	-8.944000E+00	  0.099759519	7.532100E+01	  0.099759519	4.608700E+01	  0.099759519	3.649500E+01
400	  0.099959925	-8.985000E+00	  0.099959925	7.491500E+01	  0.099959925	4.640600E+01	  0.099959925	3.645400E+01
401	  0.100160323	-9.047000E+00	  0.100160323	7.449500E+01	  0.100160323	4.677300E+01	  0.100160323	3.633500E+01
402	  0.100360721	-9.075000E+00	  0.100360721	7.408400E+01	  0.100360721	4.707000E+01	  0.100360721	3.633900E+01
403	  0.100561127	-9.126000E+00	  0.100561127	7.366400E+01	  0.100561127	4.741400E+01	  0.100561127	3.625500E+01
404	  0.100761525	-9.163000E+00	  0.100761525	7.324400E+01	  0.100761525	4.773400E+01	  0.100761525	3.622100E+01
405	  0.100961931	-9.201000E+00	  0.100961931	7.281900E+01	  0.100961931	4.805600E+01	  0.100961931	3.618200E+01
406	  0.101162329	-9.241000E+00	  0.101162329	7.246300E+01	  0.101162329	4.834100E+01	  0.101162329	3.611500E+01
407	  0.101362728	-9.279000E+00	  0.101362728	7.205600E+01	  0.101362728	4.865400E+01	  0.101362728	3.606200E+01
408	  0.101563133	-9.316000E+00	  0.101563133	7.171800E+01	  0.101563133	4.892200E+01	  0.101563133	3.599700E+01
409	  0.101763532	-9.352000E+00	  0.101763532	7.135600E+01	  0.101763532	4.920200E+01	  0.101763532	3.593900E+01
410	  0.101963930	-9.383000E+00	  0.101963930	7.095500E+01	  0.101963930	4.949800E+01	  0.101963930	3.590700E+01
411	  0.102164336	-9.415000E+00	  0.102164336	7.051200E+01	  0.102164336	4.982400E+01	  0.102164336	3.587600E+01
412	  0.102364734	-9.443000E+00	  0.102364734	7.022900E+01	  0.102364734	5.004100E+01	  0.102364734	3.582800E+01
413	  0.102565132	-9.470000E+00	  0.102565132	6.983100E+01	  0.102565132	5.033000E+01	  0.102565132	3.580500E+01
414	  0.102765530	-9.490000E+00	  0.102765530	6.956400E+01	  0.102765530	5.052800E+01	  0.102765530	3.577600E+01
415	  0.102965929	-9.524000E+00	  0.102965929	6.919400E+01	  0.102965929	5.080800E+01	  0.102965929	3.571200E+01
416	  0.103166327	-9.542000E+00	  0.103166327	6.888800E+01	  0.103166327	5.102800E+01	  0.103166327	3.570000E+01
417	  0.103366733	-9.573000E+00	  0.103366733	6.863100E+01	  0.103366733	5.123200E+01	  0.103366733	3.562500E+01
418	  0.103567131	-9.588000E+00	  0.103567131	6.829900E+01	  0.103567131	5.146400E+01	  0.103567131	3.562400E+01
419	  0.103767529	-9.624000E+00	  0.103767529	6.801300E+01	  0.103767529	5.169300E+01	  0.103767529	3.552700E+01
420	  0.103967935	-9.632000E+00	  0.103967935	6.767600E+01	  0.103967935	5.191900E+01	  0.103967935	3.555800E+01
421	  0.104168333	-9.654000E+00	  0.104168333	6.744600E+01	  0.104168333	5.209400E+01	  0.104168333	3.550700E+01
422	  0.104368731	-9.675000E+00	  0.104368731	6.721400E+01	  0.104368731	5.227000E+01	  0.104368731	3.545800E+01
423	  0.104569137	-9.693000E+00	  0.104569137	6.691200E+01	  0.104569137	5.248600E+01	  0.104569137	3.543700E+01
424	  0.104769535	-9.701000E+00	  0.104769535	6.661800E+01	  0.104769535	5.268600E+01	  0.104769535	3.545400E+01
425	  0.104969934	-9.720000E+00	  0.104969934	6.636400E+01	  0.104969934	5.287300E+01	  0.104969934	3.541500E+01
426	  0.105170339	-9.734000E+00	  0.105170339	6.607200E+01	  0.105170339	5.308000E+01	  0.105170339	3.540100E+01
427	  0.105370738	-9.742000E+00	  0.105370738	6.583400E+01	  0.105370738	5.324400E+01	  0.105370738	3.540600E+01
428	  0.105571143	-9.748000E+00	  0.105571143	6.549500E+01	  0.105571143	5.347500E+01	  0.105571143	3.543300E+01
429	  0.105771542	-9.767000E+00	  0.105771542	6.523800E+01	  0.105771542	5.366400E+01	  0.105771542	3.539000E+01
430	  0.105971940	-9.771000E+00	  0.105971940	6.501800E+01	  0.105971940	5.381500E+01	  0.105971940	3.540300E+01
431	  0.106172346	-9.786000E+00	  0.106172346	6.466700E+01	  0.106172346	5.406300E+01	  0.106172346	3.539300E+01
432	  0.106372744	-9.787000E+00	  0.106372744	6.441300E+01	  0.106372744	5.423300E+01	  0.106372744	3.542400E+01
433	  0.106573142	-9.803000E+00	  0.106573142	6.406400E+01	  0.106573142	5.448300E+01	  0.106573142	3.540100E+01
434	  0.106773548	-9.809000E+00	  0.106773548	6.381600E+01	  0.106773548	5.465600E+01	  0.106773548	3.540800E+01
435	  0.106973946	-9.815000E+00	  0.106973946	6.352900E+01	  0.106973946	5.485500E+01	  0.106973946	3.541800E+01
436	  0.107174344	-9.810000E+00	  0.107174344	6.320800E+01	  0.107174344	5.506900E+01	  0.107174344	3.548200E+01
437	  0.107374750	-9.821000E+00	  0.107374750	6.283300E+01	  0.107374750	5.533500E+01	  0.107374750	3.547800E+01
438	  0.107575148	-9.812000E+00	  0.107575148	6.243800E+01	  0.107575148	5.559900E+01	  0.107575148	3.556800E+01
439	  0.107775547	-9.813000E+00	  0.107775547	6.221300E+01	  0.107775547	5.575500E+01	  0.107775547	3.559000E+01
440	  0.107975952	-9.809000E+00	  0.107975952	6.183700E+01	  0.107975952	5.601400E+01	  0.107975952	3.564700E+01
441	  0.108176351	-9.803000E+00	  0.108176351	6.144100E+01	  0.108176351	5.628600E+01	  0.108176351	3.572100E+01
442	  0.108376749	-9.805000E+00	  0.108376749	6.109500E+01	  0.108376749	5.653200E+01	  0.108376749	3.574500E+01
443	  0.108577155	-9.796000E+00	  0.108577155	6.069300E+01	  0.108577155	5.681000E+01	  0.108577155	3.582800E+01
444	  0.108777553	-9.790000E+00	  0.108777553	6.025900E+01	  0.108777553	5.711600E+01	  0.108777553	3.589800E+01
445	  0.108977959	-9.777000E+00	  0.108977959	5.985500E+01	  0.108977959	5.739900E+01	  0.108977959	3.599400E+01
446	  0.109178357	-9.766000E+00	  0.109178357	5.937100E+01	  0.109178357	5.774300E+01	  0.109178357	3.609000E+01
447	  0.109378755	-9.744000E+00	  0.109378755	5.895300E+01	  0.109378755	5.803600E+01	  0.109378755	3.622900E+01
448	  0.109579161	-9.740000E+00	  0.109579161	5.849000E+01	  0.109579161	5.837600E+01	  0.109579161	3.628200E+01
449	  0.109779559	-9.720000E+00	  0.109779559	5.807600E+01	  0.109779559	5.867400E+01	  0.109779559	3.641100E+01
450	  0.109979957	-9.702000E+00	  0.109979957	5.763900E+01	  0.109979957	5.899400E+01	  0.109979957	3.652400E+01
451	  0.110180363	-9.682000E+00	  0.110180363	5.714800E+01	  0.110180363	5.935700E+01	  0.110180363	3.665500E+01
452	  0.110380761	-9.667000E+00	  0.110380761	5.664500E+01	  0.110380761	5.973500E+01	  0.110380761	3.675600E+01
453	  0.110581160	-9.645000E+00	  0.110581160	5.618800E+01	  0.110581160	6.008100E+01	  0.110581160	3.689000E+01
454	  0.110781565	-9.624000E+00	  0.110781565	5.568000E+01	  0.110781565	6.047000E+01	  0.110781565	3.701800E+01
455	  0.110981964	-9.606000E+00	  0.110981964	5.516400E+01	  0.110981964	6.087100E+01	  0.110981964	3.712900E+01
456	  0.111182362	-9.592000E+00	  0.111182362	5.465600E+01	  0.111182362	6.127100E+01	  0.111182362	3.721700E+01
457	  0.111382768	-9.569000E+00	  0.111382768	5.412800E+01	  0.111382768	6.169100E+01	  0.111382768	3.734900E+01
458	  0.111583166	-9.549000E+00	  0.111583166	5.357800E+01	  0.111583166	6.213400E+01	  0.111583166	3.745800E+01
459	  0.111783572	-9.530000E+00	  0.111783572	5.306000E+01	  0.111783572	6.255700E+01	  0.111783572	3.756400E+01
460	  0.111983970	-9.510000E+00	  0.111983970	5.246300E+01	  0.111983970	6.305000E+01	  0.111983970	3.766700E+01
461	  0.112184368	-9.487000E+00	  0.112184368	5.189500E+01	  0.112184368	6.352500E+01	  0.112184368	3.778700E+01
462	  0.112384774	-9.471000E+00	  0.112384774	5.134600E+01	  0.112384774	6.399000E+01	  0.112384774	3.786400E+01
463	  0.112585172	-9.446000E+00	  0.112585172	5.065800E+01	  0.112585172	6.458100E+01	  0.112585172	3.797900E+01
464	  0.112785570	-9.430000E+00	  0.112785570	5.004800E+01	  0.112785570	6.511100E+01	  0.112785570	3.804300E+01
465	  0.112985976	-9.415000E+00	  0.112985976	4.937400E+01	  0.112985976	6.570200E+01	  0.112985976	3.809100E+01
466	  0.113186374	-9.397000E+00	  0.113186374	4.874300E+01	  0.113186374	6.626500E+01	  0.113186374	3.815200E+01
467	  0.113386773	-9.383000E+00	  0.113386773	4.811700E+01	  0.113386773	6.682700E+01	  0.113386773	3.818200E+01
468	  0.113587178	-9.370000E+00	  0.113587178	4.741300E+01	  0.113587178	6.746500E+01	  0.113587178	3.819100E+01
469	  0.113787577	-9.360000E+00	  0.113787577	4.671500E+01	  0.113787577	6.810300E+01	  0.113787577	3.817100E+01
470	  0.113987975	-9.345000E+00	  0.113987975	4.592900E+01	  0.113987975	6.883300E+01	  0.113987975	3.816200E+01
471	  0.114188381	-9.327000E+00	  0.114188381	4.522100E+01	  0.114188381	6.950300E+01	  0.114188381	3.817000E+01
472	  0.114388779	-9.314000E+00	  0.114388779	4.446700E+01	  0.114388779	7.021800E+01	  0.114388779	3.813000E+01
473	  0.114589177	-9.300000E+00	  0.114589177	4.369600E+01	  0.114589177	7.095800E+01	  0.114589177	3.807400E+01
474	  0.114789583	-9.292000E+00	  0.114789583	4.289100E+01	  0.114789583	7.173100E+01	  0.114789583	3.796500E+01
475	  0.114989981	-9.280000E+00	  0.114989981	4.210900E+01	  0.114989981	7.249400E+01	  0.114989981	3.786700E+01
476	  0.115190387	-9.280000E+00	  0.115190387	4.122900E+01	  0.115190387	7.334000E+01	  0.115190387	3.765300E+01
477	  0.115390785	-9.271000E+00	  0.115390785	4.037700E+01	  0.115390785	7.418000E+01	  0.115390785	3.748500E+01
478	  0.115591183	-9.265000E+00	  0.115591183	3.954300E+01	  0.115591183	7.500500E+01	  0.115591183	3.728300E+01
479	  0.115791589	-9.257000E+00	  0.115791589	3.858700E+01	  0.115791589	7.595800E+01	  0.115791589	3.703300E+01
480	  0.115991987	-9.256000E+00	  0.115991987	3.771200E+01	  0.115991987	7.681900E+01	  0.115991987	3.673400E+01
481	  0.116192386	-9.260000E+00	  0.116192386	3.681700E+01	  0.116192386	7.769300E+01	  0.116192386	3.637900E+01
482	  0.116392791	-9.258000E+00	  0.116392791	3.586400E+01	  0.116392791	7.864000E+01	  0.116392791	3.600900E+01
483	  0.116593190	-9.252000E+00	  0.116593190	3.490800E+01	  0.116593190	7.960100E+01	  0.116593190	3.563000E+01
484	  0.116793588	-9.253000E+00	  0.116793588	3.392000E+01	  0.116793588	8.057700E+01	  0.116793588	3.516800E+01
485	  0.116993994	-9.262000E+00	  0.116993994	3.291100E+01	  0.116993994	8.154100E+01	  0.116993994	3.460300E+01
486	  0.117194392	-9.268000E+00	  0.117194392	3.190700E+01	  0.117194392	8.250800E+01	  0.117194392	3.403200E+01
487	  0.117394790	-9.280000E+00	  0.117394790	3.087500E+01	  0.117394790	8.347100E+01	  0.117394790	3.336800E+01
488	  0.117595196	-9.292000E+00	  0.117595196	2.989000E+01	  0.117595196	8.437500E+01	  0.117595196	3.269600E+01
489	  0.117795594	-9.298000E+00	  0.117795594	2.878400E+01	  0.117795594	8.541100E+01	  0.117795594	3.195400E+01
490	  0.117995992	-9.322000E+00	  0.117995992	2.774800E+01	  0.117995992	8.628300E+01	  0.117995992	3.110300E+01
491	  0.118196398	-9.341000E+00	  0.118196398	2.667100E+01	  0.118196398	8.719600E+01	  0.118196398	3.022300E+01
492	  0.118396796	-9.360000E+00	  0.118396796	2.551600E+01	  0.118396796	8.815300E+01	  0.118396796	2.924100E+01
493	  0.118597202	-9.389000E+00	  0.118597202	2.437000E+01	  0.118597202	8.901900E+01	  0.118597202	2.816600E+01
494	  0.118797600	-9.414000E+00	  0.118797600	2.322000E+01	  0.118797600	8.987100E+01	  0.118797600	2.707000E+01
495	  0.118997999	-9.443000E+00	  0.118997999	2.208000E+01	  0.118997999	9.065900E+01	  0.118997999	2.592700E+01
496	  0.119198404	-9.481000E+00	  0.119198404	2.087600E+01	  0.119198404	9.139800E+01	  0.119198404	2.464200E+01
497	  0.119398803	-9.517000E+00	  0.119398803	1.965300E+01	  0.119398803	9.212000E+01	  0.119398803	2.332200E+01
498	  0.119599201	-9.557000E+00	  0.119599201	1.838900E+01	  0.119599201	9.278700E+01	  0.119599201	2.190500E+01
499	  0.119799607	-9.604000E+00	  0.119799607	1.717900E+01	  0.119799607	9.331300E+01	  0.119799607	2.048800E+01
500	  0.120000005	-9.655000E+00	  0.120000005	1.586500E+01	  0.120000005	9.381300E+01	  0.120000005	1.892500E+01
