! Anritsu VNA Master:             	Model: MS2036C/10/77
! SN:             	1601066
! /bd0/18may09/254.ew.m7.txt
! Existing Calibration Information:
! TYPE:             	Current Settings	Active Cal Settings
! TIME:             	05/09/2018 11:58:14 AM	05/09/2018 11:52:33 AM
! INTERNAL TEMP:    	54.0 C	53.5 C
! # POINTS:         	494	494
! START FREQ:       	20.000 MHz	20.000 MHz
! STOP FREQ:        	118.797 594 MHz	118.797 594 MHz
! SOURCE POWER:     	High	High
! IFBW:             	50 Hz	50 Hz
! AVG FACTOR:       	  1 	  1 
! REF PLANE 1:      	0 mm	0 mm
! REF PLANE 2:      	0 mm	0 mm
! CAL TYPE:         	Full S22	Full S22
! CAL METHOD:       	SOLT	SOLT
! CAL LINE TYPE:    	Coax	Coax
! DUT PORT 1:       	K-Conn(M)	K-Conn(M)
! DUT PORT 2:       	K-Conn(M)	K-Conn(M)
! CAL STATUS:       	OK: Accuracy High	--
! PROP-V:       	0.700
! CABLE LOSS:       	0.000 dB/m
! REF IMPEDANCE:       	50.0
! Trace Specific Parameters:	TR1	TR2	TR3	TR4
! TRACE.#.Y (GRAPH TYPE)	LOG MAG	PHASE	REAL IMPEDANCE	IMAGINARY IMPEDANCE
! TRACE.#.X 	FREQ.GHZ	FREQ.GHZ	FREQ.GHZ	FREQ.GHZ
! S-PARAMETER	S22	S22	S22	S22
! SMOOTH/APERTURE %	0	0	0	0
! WINDOW	NSL	NSL	NSL	NSL
! GATING	OFF	OFF	OFF	OFF
! FGTD	OFF	OFF	OFF	OFF
Marker Information per Trace:	TR1	TR2	TR3	TR4
!MK1	--	"MK1 TR2:  20.000 MHz,PH:-126.63°"	--	--
!MK2	--	--	"MK2 TR3:  70.100 200 MHz,Z:(16.110 ohm, -1.048 ohm)"	--
!MK3	--	--	--	--
!MK4	--	--	--	--
!MK5	--	--	--	--
!MK6	--	--	--	--
!MK7	--	--	--	--
!MK8	--	--	--	--
PNT	TR1.FREQ.GHZ	TR1.LOG MAG.dB	TR2.FREQ.GHZ	TR2.PHASE.deg	TR3.FREQ.GHZ	TR3.REAL IMPEDANCE.ohm	TR4.FREQ.GHZ	TR4.IMAGINARY IMPEDANCE.ohm
1	  0.020000000	-6.340000E-01	  0.020000000	-1.266250E+02	  0.020000000	2.287000E+00	  0.020000000	-2.509100E+01
2	  0.020200402	-6.350000E-01	  0.020200402	-1.280980E+02	  0.020200402	2.260000E+00	  0.020200402	-2.429300E+01
3	  0.020400802	-6.380000E-01	  0.020400802	-1.295650E+02	  0.020400802	2.244000E+00	  0.020400802	-2.350800E+01
4	  0.020601204	-6.410000E-01	  0.020601204	-1.310720E+02	  0.020601204	2.227000E+00	  0.020601204	-2.271000E+01
5	  0.020801604	-6.440000E-01	  0.020801604	-1.325950E+02	  0.020801604	2.210000E+00	  0.020801604	-2.191400E+01
6	  0.021002004	-6.450000E-01	  0.021002004	-1.341430E+02	  0.021002004	2.188000E+00	  0.021002004	-2.111500E+01
7	  0.021202406	-6.470000E-01	  0.021202406	-1.356850E+02	  0.021202406	2.171000E+00	  0.021202406	-2.032800E+01
8	  0.021402806	-6.520000E-01	  0.021402806	-1.372250E+02	  0.021402806	2.165000E+00	  0.021402806	-1.955000E+01
9	  0.021603208	-6.520000E-01	  0.021603208	-1.387460E+02	  0.021603208	2.141000E+00	  0.021603208	-1.879000E+01
10	  0.021803608	-6.560000E-01	  0.021803608	-1.402930E+02	  0.021803608	2.133000E+00	  0.021803608	-1.802400E+01
11	  0.022004008	-6.610000E-01	  0.022004008	-1.418350E+02	  0.022004008	2.130000E+00	  0.022004008	-1.726800E+01
12	  0.022204408	-6.650000E-01	  0.022204408	-1.434070E+02	  0.022204408	2.123000E+00	  0.022204408	-1.650500E+01
13	  0.022404809	-6.710000E-01	  0.022404809	-1.449760E+02	  0.022404809	2.124000E+00	  0.022404809	-1.575000E+01
14	  0.022605211	-6.770000E-01	  0.022605211	-1.465710E+02	  0.022605211	2.123000E+00	  0.022605211	-1.498900E+01
15	  0.022805611	-6.770000E-01	  0.022805611	-1.481650E+02	  0.022805611	2.108000E+00	  0.022805611	-1.423500E+01
16	  0.023006011	-6.810000E-01	  0.023006011	-1.497530E+02	  0.023006011	2.103000E+00	  0.023006011	-1.349000E+01
17	  0.023206413	-6.860000E-01	  0.023206413	-1.513390E+02	  0.023206413	2.103000E+00	  0.023206413	-1.275100E+01
18	  0.023406813	-6.900000E-01	  0.023406813	-1.529260E+02	  0.023406813	2.101000E+00	  0.023406813	-1.201700E+01
19	  0.023607215	-6.980000E-01	  0.023607215	-1.545080E+02	  0.023607215	2.112000E+00	  0.023607215	-1.129000E+01
20	  0.023807615	-7.080000E-01	  0.023807615	-1.561080E+02	  0.023807615	2.128000E+00	  0.023807615	-1.055900E+01
21	  0.024008015	-7.130000E-01	  0.024008015	-1.577440E+02	  0.024008015	2.131000E+00	  0.024008015	-9.817000E+00
22	  0.024208417	-7.210000E-01	  0.024208417	-1.593960E+02	  0.024208417	2.142000E+00	  0.024208417	-9.072000E+00
23	  0.024408817	-7.250000E-01	  0.024408817	-1.610500E+02	  0.024408817	2.144000E+00	  0.024408817	-8.329000E+00
24	  0.024609219	-7.320000E-01	  0.024609219	-1.626940E+02	  0.024609219	2.156000E+00	  0.024609219	-7.595000E+00
25	  0.024809619	-7.410000E-01	  0.024809619	-1.643520E+02	  0.024809619	2.172000E+00	  0.024809619	-6.857000E+00
26	  0.025010020	-7.490000E-01	  0.025010020	-1.660220E+02	  0.025010020	2.188000E+00	  0.025010020	-6.117000E+00
27	  0.025210422	-7.590000E-01	  0.025210422	-1.676950E+02	  0.025210422	2.211000E+00	  0.025210422	-5.379000E+00
28	  0.025410822	-7.700000E-01	  0.025410822	-1.693840E+02	  0.025410822	2.234000E+00	  0.025410822	-4.635000E+00
29	  0.025611224	-7.810000E-01	  0.025611224	-1.710900E+02	  0.025611224	2.261000E+00	  0.025611224	-3.887000E+00
30	  0.025811624	-7.920000E-01	  0.025811624	-1.728020E+02	  0.025811624	2.287000E+00	  0.025811624	-3.138000E+00
31	  0.026012026	-8.010000E-01	  0.026012026	-1.745320E+02	  0.026012026	2.311000E+00	  0.026012026	-2.382000E+00
32	  0.026212426	-8.140000E-01	  0.026212426	-1.762690E+02	  0.026212426	2.343000E+00	  0.026212426	-1.624000E+00
33	  0.026412826	-8.280000E-01	  0.026412826	-1.780230E+02	  0.026412826	2.382000E+00	  0.026412826	-8.600000E-01
34	  0.026613226	-8.410000E-01	  0.026613226	-1.797790E+02	  0.026613226	2.420000E+00	  0.026613226	-9.600000E-02
35	  0.026813626	-8.560000E-01	  0.026813626	1.784490E+02	  0.026813626	2.464000E+00	  0.026813626	6.740000E-01
36	  0.027014028	-8.700000E-01	  0.027014028	1.766740E+02	  0.027014028	2.505000E+00	  0.027014028	1.447000E+00
37	  0.027214428	-8.880000E-01	  0.027214428	1.748950E+02	  0.027214428	2.558000E+00	  0.027214428	2.222000E+00
38	  0.027414829	-9.020000E-01	  0.027414829	1.731090E+02	  0.027414829	2.605000E+00	  0.027414829	3.002000E+00
39	  0.027615231	-9.190000E-01	  0.027615231	1.713000E+02	  0.027615231	2.658000E+00	  0.027615231	3.792000E+00
40	  0.027815631	-9.350000E-01	  0.027815631	1.694830E+02	  0.027815631	2.713000E+00	  0.027815631	4.588000E+00
41	  0.028016033	-9.530000E-01	  0.028016033	1.676570E+02	  0.028016033	2.775000E+00	  0.028016033	5.389000E+00
42	  0.028216433	-9.720000E-01	  0.028216433	1.658160E+02	  0.028216433	2.839000E+00	  0.028216433	6.200000E+00
43	  0.028416833	-9.910000E-01	  0.028416833	1.639750E+02	  0.028416833	2.906000E+00	  0.028416833	7.014000E+00
44	  0.028617235	-1.011000E+00	  0.028617235	1.621300E+02	  0.028617235	2.978000E+00	  0.028617235	7.833000E+00
45	  0.028817635	-1.029000E+00	  0.028817635	1.602880E+02	  0.028817635	3.049000E+00	  0.028817635	8.655000E+00
46	  0.029018037	-1.051000E+00	  0.029018037	1.584430E+02	  0.029018037	3.133000E+00	  0.029018037	9.482000E+00
47	  0.029218437	-1.074000E+00	  0.029218437	1.565790E+02	  0.029218437	3.221000E+00	  0.029218437	1.032200E+01
48	  0.029418837	-1.099000E+00	  0.029418837	1.546870E+02	  0.029418837	3.319000E+00	  0.029418837	1.118000E+01
49	  0.029619239	-1.121000E+00	  0.029619239	1.528160E+02	  0.029619239	3.410000E+00	  0.029619239	1.203500E+01
50	  0.029819639	-1.145000E+00	  0.029819639	1.509230E+02	  0.029819639	3.512000E+00	  0.029819639	1.290600E+01
51	  0.030020041	-1.171000E+00	  0.030020041	1.490170E+02	  0.030020041	3.624000E+00	  0.030020041	1.379000E+01
52	  0.030220442	-1.197000E+00	  0.030220442	1.471250E+02	  0.030220442	3.737000E+00	  0.030220442	1.467500E+01
53	  0.030420844	-1.223000E+00	  0.030420844	1.452270E+02	  0.030420844	3.858000E+00	  0.030420844	1.557100E+01
54	  0.030621244	-1.250000E+00	  0.030621244	1.433300E+02	  0.030621244	3.985000E+00	  0.030621244	1.647400E+01
55	  0.030821642	-1.281000E+00	  0.030821642	1.414160E+02	  0.030821642	4.128000E+00	  0.030821642	1.739500E+01
56	  0.031022044	-1.311000E+00	  0.031022044	1.394910E+02	  0.031022044	4.277000E+00	  0.031022044	1.833100E+01
57	  0.031222444	-1.335000E+00	  0.031222444	1.375640E+02	  0.031222444	4.409000E+00	  0.031222444	1.928000E+01
58	  0.031422846	-1.367000E+00	  0.031422846	1.355990E+02	  0.031422846	4.578000E+00	  0.031422846	2.025700E+01
59	  0.031623244	-1.402000E+00	  0.031623244	1.336270E+02	  0.031623244	4.760000E+00	  0.031623244	2.125100E+01
60	  0.031823646	-1.434000E+00	  0.031823646	1.316570E+02	  0.031823646	4.940000E+00	  0.031823646	2.225700E+01
61	  0.032024048	-1.469000E+00	  0.032024048	1.296750E+02	  0.032024048	5.144000E+00	  0.032024048	2.328400E+01
62	  0.032224450	-1.504000E+00	  0.032224450	1.277010E+02	  0.032224450	5.352000E+00	  0.032224450	2.432100E+01
63	  0.032424849	-1.541000E+00	  0.032424849	1.257120E+02	  0.032424849	5.577000E+00	  0.032424849	2.538100E+01
64	  0.032625251	-1.578000E+00	  0.032625251	1.236950E+02	  0.032625251	5.813000E+00	  0.032625251	2.647400E+01
65	  0.032825653	-1.614000E+00	  0.032825653	1.216600E+02	  0.032825653	6.059000E+00	  0.032825653	2.759600E+01
66	  0.033026051	-1.650000E+00	  0.033026051	1.196160E+02	  0.033026051	6.319000E+00	  0.033026051	2.874300E+01
67	  0.033226453	-1.688000E+00	  0.033226453	1.175810E+02	  0.033226453	6.601000E+00	  0.033226453	2.990400E+01
68	  0.033426855	-1.726000E+00	  0.033426855	1.155570E+02	  0.033426855	6.894000E+00	  0.033426855	3.108100E+01
69	  0.033627257	-1.764000E+00	  0.033627257	1.135070E+02	  0.033627257	7.205000E+00	  0.033627257	3.229800E+01
70	  0.033827655	-1.805000E+00	  0.033827655	1.114690E+02	  0.033827655	7.543000E+00	  0.033827655	3.353100E+01
71	  0.034028057	-1.843000E+00	  0.034028057	1.094060E+02	  0.034028057	7.893000E+00	  0.034028057	3.480600E+01
72	  0.034228459	-1.885000E+00	  0.034228459	1.073430E+02	  0.034228459	8.276000E+00	  0.034228459	3.610800E+01
73	  0.034428857	-1.927000E+00	  0.034428857	1.052630E+02	  0.034428857	8.687000E+00	  0.034428857	3.745000E+01
74	  0.034629259	-1.970000E+00	  0.034629259	1.031870E+02	  0.034629259	9.122000E+00	  0.034629259	3.882100E+01
75	  0.034829661	-2.013000E+00	  0.034829661	1.011060E+02	  0.034829661	9.590000E+00	  0.034829661	4.022700E+01
76	  0.035030060	-2.059000E+00	  0.035030060	9.903600E+01	  0.035030060	1.009400E+01	  0.035030060	4.165900E+01
77	  0.035230462	-2.103000E+00	  0.035230462	9.695300E+01	  0.035230462	1.062900E+01	  0.035230462	4.313800E+01
78	  0.035430863	-2.149000E+00	  0.035430863	9.487500E+01	  0.035430863	1.120500E+01	  0.035430863	4.464900E+01
79	  0.035631265	-2.197000E+00	  0.035631265	9.278500E+01	  0.035631265	1.182700E+01	  0.035631265	4.620900E+01
80	  0.035831664	-2.247000E+00	  0.035831664	9.072000E+01	  0.035831664	1.250300E+01	  0.035831664	4.778600E+01
81	  0.036032066	-2.293000E+00	  0.036032066	8.862800E+01	  0.036032066	1.320800E+01	  0.036032066	4.943600E+01
82	  0.036232468	-2.343000E+00	  0.036232468	8.653200E+01	  0.036232468	1.398900E+01	  0.036232468	5.112800E+01
83	  0.036432866	-2.392000E+00	  0.036432866	8.444100E+01	  0.036432866	1.481700E+01	  0.036432866	5.286600E+01
84	  0.036633268	-2.444000E+00	  0.036633268	8.236600E+01	  0.036633268	1.572000E+01	  0.036633268	5.463600E+01
85	  0.036833670	-2.495000E+00	  0.036833670	8.028400E+01	  0.036833670	1.668700E+01	  0.036833670	5.646400E+01
86	  0.037034072	-2.548000E+00	  0.037034072	7.819500E+01	  0.037034072	1.774200E+01	  0.037034072	5.834900E+01
87	  0.037234470	-2.603000E+00	  0.037234470	7.611100E+01	  0.037234470	1.889100E+01	  0.037234470	6.027900E+01
88	  0.037434869	-2.656000E+00	  0.037434869	7.403700E+01	  0.037434869	2.011600E+01	  0.037434869	6.225800E+01
89	  0.037635271	-2.707000E+00	  0.037635271	7.196700E+01	  0.037635271	2.141900E+01	  0.037635271	6.429900E+01
90	  0.037835669	-2.762000E+00	  0.037835669	6.985200E+01	  0.037835669	2.288600E+01	  0.037835669	6.643500E+01
91	  0.038036071	-2.818000E+00	  0.038036071	6.773600E+01	  0.038036071	2.448900E+01	  0.038036071	6.862800E+01
92	  0.038236473	-2.874000E+00	  0.038236473	6.561000E+01	  0.038236473	2.623300E+01	  0.038236473	7.089600E+01
93	  0.038436871	-2.932000E+00	  0.038436871	6.350300E+01	  0.038436871	2.813700E+01	  0.038436871	7.319000E+01
94	  0.038637273	-2.989000E+00	  0.038637273	6.140400E+01	  0.038637273	3.020100E+01	  0.038637273	7.553300E+01
95	  0.038837675	-3.043000E+00	  0.038837675	5.929400E+01	  0.038837675	3.242500E+01	  0.038837675	7.796800E+01
96	  0.039038073	-3.097000E+00	  0.039038073	5.720000E+01	  0.039038073	3.484500E+01	  0.039038073	8.043000E+01
97	  0.039238475	-3.151000E+00	  0.039238475	5.511500E+01	  0.039238475	3.748600E+01	  0.039238475	8.292300E+01
98	  0.039438877	-3.204000E+00	  0.039438877	5.302100E+01	  0.039438877	4.037200E+01	  0.039438877	8.547600E+01
99	  0.039639279	-3.259000E+00	  0.039639279	5.092100E+01	  0.039639279	4.356900E+01	  0.039639279	8.803900E+01
100	  0.039839678	-3.311000E+00	  0.039839678	4.881400E+01	  0.039839678	4.705100E+01	  0.039839678	9.065500E+01
101	  0.040040080	-3.365000E+00	  0.040040080	4.671100E+01	  0.040040080	5.088100E+01	  0.040040080	9.324500E+01
102	  0.040240481	-3.417000E+00	  0.040240481	4.460000E+01	  0.040240481	5.508700E+01	  0.040240481	9.582400E+01
103	  0.040440880	-3.467000E+00	  0.040440880	4.250500E+01	  0.040440880	5.965800E+01	  0.040440880	9.833700E+01
104	  0.040641282	-3.518000E+00	  0.040641282	4.044500E+01	  0.040641282	6.460700E+01	  0.040641282	1.006840E+02
105	  0.040841684	-3.570000E+00	  0.040841684	3.837100E+01	  0.040841684	7.006000E+01	  0.040841684	1.028890E+02
106	  0.041042086	-3.622000E+00	  0.041042086	3.630400E+01	  0.041042086	7.601700E+01	  0.041042086	1.048380E+02
107	  0.041242484	-3.674000E+00	  0.041242484	3.425100E+01	  0.041242484	8.245700E+01	  0.041242484	1.064900E+02
108	  0.041442886	-3.727000E+00	  0.041442886	3.218000E+01	  0.041442886	8.951300E+01	  0.041442886	1.077640E+02
109	  0.041643288	-3.776000E+00	  0.041643288	3.011700E+01	  0.041643288	9.709500E+01	  0.041643288	1.085980E+02
110	  0.041843686	-3.824000E+00	  0.041843686	2.803900E+01	  0.041843686	1.053020E+02	  0.041843686	1.088770E+02
111	  0.042044088	-3.873000E+00	  0.042044088	2.599700E+01	  0.042044088	1.139190E+02	  0.042044088	1.083490E+02
112	  0.042244490	-3.923000E+00	  0.042244490	2.396100E+01	  0.042244490	1.229860E+02	  0.042244490	1.069090E+02
113	  0.042444889	-3.974000E+00	  0.042444889	2.193100E+01	  0.042444889	1.323970E+02	  0.042444889	1.043870E+02
114	  0.042645290	-4.024000E+00	  0.042645290	1.990800E+01	  0.042645290	1.420120E+02	  0.042645290	1.007290E+02
115	  0.042845692	-4.075000E+00	  0.042845692	1.789900E+01	  0.042845692	1.515770E+02	  0.042845692	9.573100E+01
116	  0.043046094	-4.124000E+00	  0.043046094	1.589300E+01	  0.043046094	1.609680E+02	  0.043046094	8.943200E+01
117	  0.043246493	-4.173000E+00	  0.043246493	1.386100E+01	  0.043246493	1.700370E+02	  0.043246493	8.161300E+01
118	  0.043446895	-4.221000E+00	  0.043446895	1.185000E+01	  0.043446895	1.782420E+02	  0.043446895	7.242400E+01
119	  0.043647297	-4.268000E+00	  0.043647297	9.853000E+00	  0.043647297	1.853570E+02	  0.043647297	6.201400E+01
120	  0.043847695	-4.315000E+00	  0.043847695	7.873000E+00	  0.043847695	1.910870E+02	  0.043847695	5.057600E+01
121	  0.044048097	-4.363000E+00	  0.044048097	5.885000E+00	  0.044048097	1.952520E+02	  0.044048097	3.822800E+01
122	  0.044248499	-4.411000E+00	  0.044248499	3.918000E+00	  0.044248499	1.976020E+02	  0.044248499	2.547900E+01
123	  0.044448901	-4.459000E+00	  0.044448901	1.940000E+00	  0.044448901	1.982050E+02	  0.044448901	1.251800E+01
124	  0.044649299	-4.505000E+00	  0.044649299	1.400000E-02	  0.044649299	1.970930E+02	  0.044649299	9.100000E-02
125	  0.044849701	-4.550000E+00	  0.044849701	-1.935000E+00	  0.044849701	1.944350E+02	  0.044849701	-1.197700E+01
126	  0.045050103	-4.593000E+00	  0.045050103	-3.877000E+00	  0.045050103	1.904290E+02	  0.045050103	-2.325200E+01
127	  0.045250501	-4.634000E+00	  0.045250501	-5.841000E+00	  0.045250501	1.852270E+02	  0.045250501	-3.370700E+01
128	  0.045450903	-4.676000E+00	  0.045450903	-7.774000E+00	  0.045450903	1.791180E+02	  0.045450903	-4.290100E+01
129	  0.045651305	-4.715000E+00	  0.045651305	-9.695000E+00	  0.045651305	1.723870E+02	  0.045651305	-5.093300E+01
130	  0.045851704	-4.755000E+00	  0.045851704	-1.160300E+01	  0.045851704	1.652090E+02	  0.045851704	-5.776300E+01
131	  0.046052102	-4.795000E+00	  0.046052102	-1.349100E+01	  0.046052102	1.578330E+02	  0.046052102	-6.341600E+01
132	  0.046252504	-4.835000E+00	  0.046252504	-1.535500E+01	  0.046252504	1.504690E+02	  0.046252504	-6.801300E+01
133	  0.046452906	-4.872000E+00	  0.046452906	-1.722200E+01	  0.046452906	1.431650E+02	  0.046452906	-7.174200E+01
134	  0.046653304	-4.910000E+00	  0.046653304	-1.909400E+01	  0.046653304	1.359800E+02	  0.046653304	-7.463800E+01
135	  0.046853706	-4.947000E+00	  0.046853706	-2.094900E+01	  0.046853706	1.290770E+02	  0.046853706	-7.679600E+01
136	  0.047054108	-4.983000E+00	  0.047054108	-2.278400E+01	  0.047054108	1.225250E+02	  0.047054108	-7.832800E+01
137	  0.047254506	-5.015000E+00	  0.047254506	-2.464300E+01	  0.047254506	1.162130E+02	  0.047254506	-7.943600E+01
138	  0.047454908	-5.047000E+00	  0.047454908	-2.646800E+01	  0.047454908	1.103110E+02	  0.047454908	-8.002800E+01
139	  0.047655310	-5.079000E+00	  0.047655310	-2.827300E+01	  0.047655310	1.047850E+02	  0.047655310	-8.022100E+01
140	  0.047855709	-5.109000E+00	  0.047855709	-3.006100E+01	  0.047855709	9.961700E+01	  0.047855709	-8.012500E+01
141	  0.048056111	-5.143000E+00	  0.048056111	-3.183700E+01	  0.048056111	9.478100E+01	  0.048056111	-7.968900E+01
142	  0.048256513	-5.174000E+00	  0.048256513	-3.359600E+01	  0.048256513	9.027900E+01	  0.048256513	-7.908600E+01
143	  0.048456915	-5.206000E+00	  0.048456915	-3.535900E+01	  0.048456915	8.604300E+01	  0.048456915	-7.829300E+01
144	  0.048657313	-5.236000E+00	  0.048657313	-3.711400E+01	  0.048657313	8.208600E+01	  0.048657313	-7.738600E+01
145	  0.048857715	-5.264000E+00	  0.048857715	-3.886200E+01	  0.048857715	7.838700E+01	  0.048857715	-7.638700E+01
146	  0.049058117	-5.286000E+00	  0.049058117	-4.062400E+01	  0.049058117	7.487300E+01	  0.049058117	-7.535100E+01
147	  0.049258515	-5.313000E+00	  0.049258515	-4.233000E+01	  0.049258515	7.169300E+01	  0.049258515	-7.420200E+01
148	  0.049458917	-5.341000E+00	  0.049458917	-4.403700E+01	  0.049458917	6.871300E+01	  0.049458917	-7.297700E+01
149	  0.049659319	-5.368000E+00	  0.049659319	-4.573200E+01	  0.049659319	6.593000E+01	  0.049659319	-7.172700E+01
150	  0.049859721	-5.394000E+00	  0.049859721	-4.742600E+01	  0.049859721	6.331300E+01	  0.049859721	-7.045800E+01
151	  0.050060119	-5.418000E+00	  0.050060119	-4.909800E+01	  0.050060119	6.088300E+01	  0.050060119	-6.918500E+01
152	  0.050260521	-5.442000E+00	  0.050260521	-5.078900E+01	  0.050260521	5.856600E+01	  0.050260521	-6.788900E+01
153	  0.050460923	-5.464000E+00	  0.050460923	-5.246100E+01	  0.050460923	5.640500E+01	  0.050460923	-6.660600E+01
154	  0.050661322	-5.485000E+00	  0.050661322	-5.412200E+01	  0.050661322	5.437800E+01	  0.050661322	-6.533300E+01
155	  0.050861724	-5.503000E+00	  0.050861724	-5.577700E+01	  0.050861724	5.246100E+01	  0.050861724	-6.408000E+01
156	  0.051062126	-5.523000E+00	  0.051062126	-5.741600E+01	  0.051062126	5.067800E+01	  0.051062126	-6.282500E+01
157	  0.051262524	-5.545000E+00	  0.051262524	-5.902400E+01	  0.051262524	4.903600E+01	  0.051262524	-6.157600E+01
158	  0.051462926	-5.564000E+00	  0.051462926	-6.063400E+01	  0.051462926	4.746700E+01	  0.051462926	-6.035800E+01
159	  0.051663328	-5.583000E+00	  0.051663328	-6.224200E+01	  0.051663328	4.598400E+01	  0.051663328	-5.914500E+01
160	  0.051863730	-5.601000E+00	  0.051863730	-6.381300E+01	  0.051863730	4.460800E+01	  0.051863730	-5.797500E+01
161	  0.052064128	-5.615000E+00	  0.052064128	-6.539600E+01	  0.052064128	4.327700E+01	  0.052064128	-5.682500E+01
162	  0.052264530	-5.625000E+00	  0.052264530	-6.697700E+01	  0.052264530	4.200000E+01	  0.052264530	-5.570600E+01
163	  0.052464932	-5.637000E+00	  0.052464932	-6.850100E+01	  0.052464932	4.083900E+01	  0.052464932	-5.462200E+01
164	  0.052665330	-5.650000E+00	  0.052665330	-7.004800E+01	  0.052665330	3.971700E+01	  0.052665330	-5.353400E+01
165	  0.052865732	-5.662000E+00	  0.052865732	-7.155900E+01	  0.052865732	3.867300E+01	  0.052865732	-5.248100E+01
166	  0.053066134	-5.673000E+00	  0.053066134	-7.307700E+01	  0.053066134	3.767200E+01	  0.053066134	-5.143600E+01
167	  0.053266536	-5.684000E+00	  0.053266536	-7.457200E+01	  0.053266536	3.672800E+01	  0.053266536	-5.042300E+01
168	  0.053466935	-5.695000E+00	  0.053466935	-7.606800E+01	  0.053466935	3.583000E+01	  0.053466935	-4.941700E+01
169	  0.053667337	-5.704000E+00	  0.053667337	-7.756000E+01	  0.053667337	3.496700E+01	  0.053667337	-4.843100E+01
170	  0.053867739	-5.712000E+00	  0.053867739	-7.903200E+01	  0.053867739	3.414600E+01	  0.053867739	-4.747600E+01
171	  0.054068137	-5.717000E+00	  0.054068137	-8.050700E+01	  0.054068137	3.335300E+01	  0.054068137	-4.653700E+01
172	  0.054268539	-5.723000E+00	  0.054268539	-8.198300E+01	  0.054268539	3.259300E+01	  0.054268539	-4.560600E+01
173	  0.054468941	-5.730000E+00	  0.054468941	-8.341600E+01	  0.054468941	3.189200E+01	  0.054468941	-4.470900E+01
174	  0.054669335	-5.740000E+00	  0.054669335	-8.485800E+01	  0.054669335	3.122800E+01	  0.054669335	-4.380500E+01
175	  0.054869737	-5.749000E+00	  0.054869737	-8.629400E+01	  0.054869737	3.059100E+01	  0.054869737	-4.291900E+01
176	  0.055070139	-5.754000E+00	  0.055070139	-8.773100E+01	  0.055070139	2.996900E+01	  0.055070139	-4.205300E+01
177	  0.055270538	-5.761000E+00	  0.055270538	-8.914200E+01	  0.055270538	2.938500E+01	  0.055270538	-4.120800E+01
178	  0.055470940	-5.766000E+00	  0.055470940	-9.056100E+01	  0.055470940	2.881600E+01	  0.055470940	-4.037400E+01
179	  0.055671342	-5.770000E+00	  0.055671342	-9.198600E+01	  0.055671342	2.826700E+01	  0.055671342	-3.954500E+01
180	  0.055871744	-5.776000E+00	  0.055871744	-9.341800E+01	  0.055871744	2.774000E+01	  0.055871744	-3.871800E+01
181	  0.056072142	-5.779000E+00	  0.056072142	-9.480600E+01	  0.056072142	2.723900E+01	  0.056072142	-3.793300E+01
182	  0.056272544	-5.787000E+00	  0.056272544	-9.620200E+01	  0.056272544	2.677500E+01	  0.056272544	-3.714000E+01
183	  0.056472946	-5.792000E+00	  0.056472946	-9.760600E+01	  0.056472946	2.631500E+01	  0.056472946	-3.635900E+01
184	  0.056673344	-5.793000E+00	  0.056673344	-9.899300E+01	  0.056673344	2.586400E+01	  0.056673344	-3.560300E+01
185	  0.056873746	-5.797000E+00	  0.056873746	-1.003660E+02	  0.056873746	2.544700E+01	  0.056873746	-3.485400E+01
186	  0.057074148	-5.800000E+00	  0.057074148	-1.017480E+02	  0.057074148	2.503700E+01	  0.057074148	-3.411200E+01
187	  0.057274550	-5.804000E+00	  0.057274550	-1.031170E+02	  0.057274550	2.464900E+01	  0.057274550	-3.338400E+01
188	  0.057474948	-5.805000E+00	  0.057474948	-1.044770E+02	  0.057474948	2.426800E+01	  0.057474948	-3.267100E+01
189	  0.057675350	-5.809000E+00	  0.057675350	-1.058390E+02	  0.057675350	2.391200E+01	  0.057675350	-3.195900E+01
190	  0.057875752	-5.809000E+00	  0.057875752	-1.072010E+02	  0.057875752	2.355700E+01	  0.057875752	-3.126000E+01
191	  0.058076151	-5.812000E+00	  0.058076151	-1.085620E+02	  0.058076151	2.322200E+01	  0.058076151	-3.056600E+01
192	  0.058276553	-5.814000E+00	  0.058276553	-1.098910E+02	  0.058276553	2.290600E+01	  0.058276553	-2.989400E+01
193	  0.058476955	-5.812000E+00	  0.058476955	-1.111960E+02	  0.058476955	2.259300E+01	  0.058476955	-2.924600E+01
194	  0.058677353	-5.813000E+00	  0.058677353	-1.125450E+02	  0.058677353	2.229000E+01	  0.058677353	-2.857800E+01
195	  0.058877755	-5.814000E+00	  0.058877755	-1.138430E+02	  0.058877755	2.200900E+01	  0.058877755	-2.794000E+01
196	  0.059078157	-5.808000E+00	  0.059078157	-1.151450E+02	  0.059078157	2.171600E+01	  0.059078157	-2.731500E+01
197	  0.059278559	-5.806000E+00	  0.059278559	-1.164280E+02	  0.059278559	2.144800E+01	  0.059278559	-2.670000E+01
198	  0.059478957	-5.806000E+00	  0.059478957	-1.177090E+02	  0.059478957	2.119800E+01	  0.059478957	-2.608600E+01
199	  0.059679359	-5.803000E+00	  0.059679359	-1.190030E+02	  0.059679359	2.094400E+01	  0.059679359	-2.547500E+01
200	  0.059879761	-5.804000E+00	  0.059879761	-1.202420E+02	  0.059879761	2.071900E+01	  0.059879761	-2.489000E+01
201	  0.060080159	-5.802000E+00	  0.060080159	-1.214830E+02	  0.060080159	2.049500E+01	  0.060080159	-2.431200E+01
202	  0.060280561	-5.801000E+00	  0.060280561	-1.227330E+02	  0.060280561	2.027600E+01	  0.060280561	-2.373200E+01
203	  0.060480963	-5.803000E+00	  0.060480963	-1.239610E+02	  0.060480963	2.008000E+01	  0.060480963	-2.316400E+01
204	  0.060681365	-5.800000E+00	  0.060681365	-1.251740E+02	  0.060681365	1.987600E+01	  0.060681365	-2.261200E+01
205	  0.060881764	-5.797000E+00	  0.060881764	-1.263930E+02	  0.060881764	1.968100E+01	  0.060881764	-2.205900E+01
206	  0.061082166	-5.797000E+00	  0.061082166	-1.276190E+02	  0.061082166	1.949700E+01	  0.061082166	-2.150500E+01
207	  0.061282568	-5.796000E+00	  0.061282568	-1.288410E+02	  0.061282568	1.932000E+01	  0.061282568	-2.095700E+01
208	  0.061482966	-5.795000E+00	  0.061482966	-1.300240E+02	  0.061482966	1.915200E+01	  0.061482966	-2.043000E+01
209	  0.061683368	-5.796000E+00	  0.061683368	-1.312230E+02	  0.061683368	1.899500E+01	  0.061683368	-1.989600E+01
210	  0.061883770	-5.798000E+00	  0.061883770	-1.324040E+02	  0.061883770	1.884700E+01	  0.061883770	-1.937400E+01
211	  0.062084168	-5.801000E+00	  0.062084168	-1.335860E+02	  0.062084168	1.870600E+01	  0.062084168	-1.885400E+01
212	  0.062284570	-5.801000E+00	  0.062284570	-1.347700E+02	  0.062284570	1.856400E+01	  0.062284570	-1.833700E+01
213	  0.062484972	-5.790000E+00	  0.062484972	-1.359340E+02	  0.062484972	1.839700E+01	  0.062484972	-1.784000E+01
214	  0.062685370	-5.794000E+00	  0.062685370	-1.371010E+02	  0.062685370	1.827700E+01	  0.062685370	-1.733400E+01
215	  0.062885776	-5.789000E+00	  0.062885776	-1.382850E+02	  0.062885776	1.813300E+01	  0.062885776	-1.682900E+01
216	  0.063086174	-5.789000E+00	  0.063086174	-1.394720E+02	  0.063086174	1.801100E+01	  0.063086174	-1.632100E+01
217	  0.063286573	-5.792000E+00	  0.063286573	-1.406340E+02	  0.063286573	1.790200E+01	  0.063286573	-1.582500E+01
218	  0.063486971	-5.789000E+00	  0.063486971	-1.417960E+02	  0.063486971	1.778100E+01	  0.063486971	-1.533600E+01
219	  0.063687377	-5.791000E+00	  0.063687377	-1.429310E+02	  0.063687377	1.767900E+01	  0.063687377	-1.485700E+01
220	  0.063887775	-5.785000E+00	  0.063887775	-1.440980E+02	  0.063887775	1.755700E+01	  0.063887775	-1.437100E+01
221	  0.064088173	-5.789000E+00	  0.064088173	-1.452650E+02	  0.064088173	1.746900E+01	  0.064088173	-1.388100E+01
222	  0.064288579	-5.785000E+00	  0.064288579	-1.464470E+02	  0.064288579	1.735800E+01	  0.064288579	-1.339200E+01
223	  0.064488977	-5.783000E+00	  0.064488977	-1.475910E+02	  0.064488977	1.726200E+01	  0.064488977	-1.291900E+01
224	  0.064689375	-5.782000E+00	  0.064689375	-1.487110E+02	  0.064689375	1.717500E+01	  0.064689375	-1.245700E+01
225	  0.064889781	-5.783000E+00	  0.064889781	-1.498690E+02	  0.064889781	1.709200E+01	  0.064889781	-1.198000E+01
226	  0.065090179	-5.780000E+00	  0.065090179	-1.509970E+02	  0.065090179	1.700600E+01	  0.065090179	-1.151900E+01
227	  0.065290578	-5.779000E+00	  0.065290578	-1.521000E+02	  0.065290578	1.693000E+01	  0.065290578	-1.107000E+01
228	  0.065490983	-5.778000E+00	  0.065490983	-1.532110E+02	  0.065490983	1.685600E+01	  0.065490983	-1.061800E+01
229	  0.065691382	-5.771000E+00	  0.065691382	-1.543250E+02	  0.065691382	1.676800E+01	  0.065691382	-1.016900E+01
230	  0.065891780	-5.774000E+00	  0.065891780	-1.554500E+02	  0.065891780	1.671100E+01	  0.065891780	-9.712000E+00
231	  0.066092186	-5.772000E+00	  0.066092186	-1.565110E+02	  0.066092186	1.664600E+01	  0.066092186	-9.285000E+00
232	  0.066292584	-5.769000E+00	  0.066292584	-1.576040E+02	  0.066292584	1.658100E+01	  0.066292584	-8.846000E+00
233	  0.066492982	-5.764000E+00	  0.066492982	-1.587070E+02	  0.066492982	1.651500E+01	  0.066492982	-8.404000E+00
234	  0.066693388	-5.767000E+00	  0.066693388	-1.597470E+02	  0.066693388	1.647300E+01	  0.066693388	-7.987000E+00
235	  0.066893786	-5.763000E+00	  0.066893786	-1.608080E+02	  0.066893786	1.641600E+01	  0.066893786	-7.564000E+00
236	  0.067094192	-5.763000E+00	  0.067094192	-1.618940E+02	  0.067094192	1.636800E+01	  0.067094192	-7.131000E+00
237	  0.067294590	-5.762000E+00	  0.067294590	-1.629260E+02	  0.067294590	1.632600E+01	  0.067294590	-6.721000E+00
238	  0.067494988	-5.765000E+00	  0.067494988	-1.639860E+02	  0.067494988	1.629300E+01	  0.067494988	-6.299000E+00
239	  0.067695394	-5.765000E+00	  0.067695394	-1.650110E+02	  0.067695394	1.626000E+01	  0.067695394	-5.892000E+00
240	  0.067895792	-5.770000E+00	  0.067895792	-1.660510E+02	  0.067895792	1.623800E+01	  0.067895792	-5.479000E+00
241	  0.068096191	-5.770000E+00	  0.068096191	-1.671150E+02	  0.068096191	1.620500E+01	  0.068096191	-5.059000E+00
242	  0.068296596	-5.772000E+00	  0.068296596	-1.681410E+02	  0.068296596	1.618300E+01	  0.068296596	-4.653000E+00
243	  0.068496995	-5.773000E+00	  0.068496995	-1.691510E+02	  0.068496995	1.616200E+01	  0.068496995	-4.255000E+00
244	  0.068697393	-5.779000E+00	  0.068697393	-1.701910E+02	  0.068697393	1.615300E+01	  0.068697393	-3.845000E+00
245	  0.068897791	-5.779000E+00	  0.068897791	-1.712050E+02	  0.068897791	1.613200E+01	  0.068897791	-3.446000E+00
246	  0.069098189	-5.782000E+00	  0.069098189	-1.722260E+02	  0.069098189	1.612000E+01	  0.069098189	-3.045000E+00
247	  0.069298595	-5.788000E+00	  0.069298595	-1.732370E+02	  0.069298595	1.612100E+01	  0.069298595	-2.648000E+00
248	  0.069498993	-5.788000E+00	  0.069498993	-1.742840E+02	  0.069498993	1.610500E+01	  0.069498993	-2.237000E+00
249	  0.069699399	-5.792000E+00	  0.069699399	-1.752940E+02	  0.069699399	1.610600E+01	  0.069699399	-1.841000E+00
250	  0.069899797	-5.796000E+00	  0.069899797	-1.763100E+02	  0.069899797	1.610600E+01	  0.069899797	-1.443000E+00
251	  0.070100196	-5.800000E+00	  0.070100196	-1.773210E+02	  0.070100196	1.611000E+01	  0.070100196	-1.047000E+00
252	  0.070300601	-5.805000E+00	  0.070300601	-1.783280E+02	  0.070300601	1.611800E+01	  0.070300601	-6.530000E-01
253	  0.070501000	-5.810000E+00	  0.070501000	-1.793400E+02	  0.070501000	1.612600E+01	  0.070501000	-2.570000E-01
254	  0.070701398	-5.812000E+00	  0.070701398	1.796350E+02	  0.070701398	1.613200E+01	  0.070701398	1.420000E-01
255	  0.070901804	-5.817000E+00	  0.070901804	1.786490E+02	  0.070901804	1.614700E+01	  0.070901804	5.280000E-01
256	  0.071102202	-5.819000E+00	  0.071102202	1.776230E+02	  0.071102202	1.615700E+01	  0.071102202	9.280000E-01
257	  0.071302600	-5.826000E+00	  0.071302600	1.766180E+02	  0.071302600	1.618000E+01	  0.071302600	1.321000E+00
258	  0.071503006	-5.827000E+00	  0.071503006	1.756340E+02	  0.071503006	1.619000E+01	  0.071503006	1.706000E+00
259	  0.071703404	-5.830000E+00	  0.071703404	1.746540E+02	  0.071703404	1.621000E+01	  0.071703404	2.089000E+00
260	  0.071903802	-5.835000E+00	  0.071903802	1.736730E+02	  0.071903802	1.623400E+01	  0.071903802	2.472000E+00
261	  0.072104208	-5.839000E+00	  0.072104208	1.727100E+02	  0.072104208	1.626100E+01	  0.072104208	2.849000E+00
262	  0.072304606	-5.842000E+00	  0.072304606	1.717280E+02	  0.072304606	1.628600E+01	  0.072304606	3.233000E+00
263	  0.072505005	-5.845000E+00	  0.072505005	1.707580E+02	  0.072505005	1.631200E+01	  0.072505005	3.613000E+00
264	  0.072705410	-5.849000E+00	  0.072705410	1.697960E+02	  0.072705410	1.634200E+01	  0.072705410	3.990000E+00
265	  0.072905809	-5.850000E+00	  0.072905809	1.688290E+02	  0.072905809	1.636700E+01	  0.072905809	4.370000E+00
266	  0.073106214	-5.857000E+00	  0.073106214	1.679000E+02	  0.073106214	1.641000E+01	  0.073106214	4.733000E+00
267	  0.073306613	-5.858000E+00	  0.073306613	1.669590E+02	  0.073306613	1.643900E+01	  0.073306613	5.103000E+00
268	  0.073507011	-5.866000E+00	  0.073507011	1.660210E+02	  0.073507011	1.648800E+01	  0.073507011	5.471000E+00
269	  0.073707417	-5.868000E+00	  0.073707417	1.650880E+02	  0.073707417	1.652600E+01	  0.073707417	5.839000E+00
270	  0.073907815	-5.873000E+00	  0.073907815	1.641540E+02	  0.073907815	1.656900E+01	  0.073907815	6.207000E+00
271	  0.074108213	-5.876000E+00	  0.074108213	1.632540E+02	  0.074108213	1.661100E+01	  0.074108213	6.562000E+00
272	  0.074308619	-5.881000E+00	  0.074308619	1.623550E+02	  0.074308619	1.666000E+01	  0.074308619	6.916000E+00
273	  0.074509017	-5.886000E+00	  0.074509017	1.614240E+02	  0.074509017	1.671200E+01	  0.074509017	7.284000E+00
274	  0.074709415	-5.889000E+00	  0.074709415	1.605180E+02	  0.074709415	1.675900E+01	  0.074709415	7.643000E+00
275	  0.074909821	-5.895000E+00	  0.074909821	1.596110E+02	  0.074909821	1.681600E+01	  0.074909821	8.002000E+00
276	  0.075110219	-5.899000E+00	  0.075110219	1.587210E+02	  0.075110219	1.686900E+01	  0.075110219	8.355000E+00
277	  0.075310618	-5.908000E+00	  0.075310618	1.578260E+02	  0.075310618	1.693700E+01	  0.075310618	8.710000E+00
278	  0.075511023	-5.912000E+00	  0.075511023	1.569370E+02	  0.075511023	1.699400E+01	  0.075511023	9.064000E+00
279	  0.075711422	-5.921000E+00	  0.075711422	1.560750E+02	  0.075711422	1.706600E+01	  0.075711422	9.406000E+00
280	  0.075911827	-5.928000E+00	  0.075911827	1.551880E+02	  0.075911827	1.713600E+01	  0.075911827	9.759000E+00
281	  0.076112226	-5.933000E+00	  0.076112226	1.542890E+02	  0.076112226	1.720200E+01	  0.076112226	1.011900E+01
282	  0.076312624	-5.939000E+00	  0.076312624	1.534060E+02	  0.076312624	1.727300E+01	  0.076312624	1.047200E+01
283	  0.076513030	-5.952000E+00	  0.076513030	1.525130E+02	  0.076513030	1.736500E+01	  0.076513030	1.082700E+01
284	  0.076713428	-5.958000E+00	  0.076713428	1.516220E+02	  0.076713428	1.744100E+01	  0.076713428	1.118500E+01
285	  0.076913826	-5.965000E+00	  0.076913826	1.507270E+02	  0.076913826	1.752200E+01	  0.076913826	1.154500E+01
286	  0.077114232	-5.974000E+00	  0.077114232	1.498440E+02	  0.077114232	1.761000E+01	  0.077114232	1.189900E+01
287	  0.077314630	-5.980000E+00	  0.077314630	1.489690E+02	  0.077314630	1.769000E+01	  0.077314630	1.225300E+01
288	  0.077515028	-5.985000E+00	  0.077515028	1.480800E+02	  0.077515028	1.777300E+01	  0.077515028	1.261400E+01
289	  0.077715434	-5.997000E+00	  0.077715434	1.472090E+02	  0.077715434	1.787400E+01	  0.077715434	1.296400E+01
290	  0.077915832	-6.005000E+00	  0.077915832	1.463170E+02	  0.077915832	1.797000E+01	  0.077915832	1.332600E+01
291	  0.078116231	-6.009000E+00	  0.078116231	1.454280E+02	  0.078116231	1.805500E+01	  0.078116231	1.368900E+01
292	  0.078316636	-6.023000E+00	  0.078316636	1.445320E+02	  0.078316636	1.817100E+01	  0.078316636	1.405100E+01
293	  0.078517035	-6.031000E+00	  0.078517035	1.436610E+02	  0.078517035	1.827200E+01	  0.078517035	1.440700E+01
294	  0.078717433	-6.036000E+00	  0.078717433	1.427620E+02	  0.078717433	1.836900E+01	  0.078717433	1.477700E+01
295	  0.078917839	-6.045000E+00	  0.078917839	1.418910E+02	  0.078917839	1.847900E+01	  0.078917839	1.513300E+01
296	  0.079118237	-6.054000E+00	  0.079118237	1.410540E+02	  0.079118237	1.858500E+01	  0.079118237	1.547700E+01
297	  0.079318643	-6.063000E+00	  0.079318643	1.401570E+02	  0.079318643	1.870400E+01	  0.079318643	1.584600E+01
298	  0.079519041	-6.070000E+00	  0.079519041	1.392870E+02	  0.079519041	1.881400E+01	  0.079519041	1.620600E+01
299	  0.079719439	-6.081000E+00	  0.079719439	1.384420E+02	  0.079719439	1.893400E+01	  0.079719439	1.655500E+01
300	  0.079919845	-6.089000E+00	  0.079919845	1.375710E+02	  0.079919845	1.905500E+01	  0.079919845	1.691600E+01
301	  0.080120243	-6.098000E+00	  0.080120243	1.366890E+02	  0.080120243	1.917900E+01	  0.080120243	1.728300E+01
302	  0.080320641	-6.105000E+00	  0.080320641	1.358390E+02	  0.080320641	1.929800E+01	  0.080320641	1.763900E+01
303	  0.080521047	-6.115000E+00	  0.080521047	1.349910E+02	  0.080521047	1.942800E+01	  0.080521047	1.799200E+01
304	  0.080721445	-6.125000E+00	  0.080721445	1.341300E+02	  0.080721445	1.956500E+01	  0.080721445	1.835200E+01
305	  0.080921844	-6.135000E+00	  0.080921844	1.333040E+02	  0.080921844	1.969800E+01	  0.080921844	1.869800E+01
306	  0.081122249	-6.151000E+00	  0.081122249	1.324870E+02	  0.081122249	1.984800E+01	  0.081122249	1.903600E+01
307	  0.081322648	-6.161000E+00	  0.081322648	1.316460E+02	  0.081322648	1.999000E+01	  0.081322648	1.939000E+01
308	  0.081523046	-6.169000E+00	  0.081523046	1.307810E+02	  0.081523046	2.013200E+01	  0.081523046	1.975700E+01
309	  0.081723452	-6.177000E+00	  0.081723452	1.299630E+02	  0.081723452	2.027100E+01	  0.081723452	2.010500E+01
310	  0.081923850	-6.189000E+00	  0.081923850	1.291310E+02	  0.081923850	2.042400E+01	  0.081923850	2.045700E+01
311	  0.082124248	-6.199000E+00	  0.082124248	1.282840E+02	  0.082124248	2.057700E+01	  0.082124248	2.081700E+01
312	  0.082324654	-6.216000E+00	  0.082324654	1.274840E+02	  0.082324654	2.074700E+01	  0.082324654	2.115200E+01
313	  0.082525052	-6.225000E+00	  0.082525052	1.266610E+02	  0.082525052	2.090200E+01	  0.082525052	2.150400E+01
314	  0.082725458	-6.238000E+00	  0.082725458	1.258490E+02	  0.082725458	2.106800E+01	  0.082725458	2.184900E+01
315	  0.082925856	-6.258000E+00	  0.082925856	1.250300E+02	  0.082925856	2.125900E+01	  0.082925856	2.219100E+01
316	  0.083126254	-6.264000E+00	  0.083126254	1.242490E+02	  0.083126254	2.140900E+01	  0.083126254	2.253000E+01
317	  0.083326660	-6.283000E+00	  0.083326660	1.234010E+02	  0.083326660	2.160800E+01	  0.083326660	2.288700E+01
318	  0.083527058	-6.296000E+00	  0.083527058	1.225880E+02	  0.083527058	2.179000E+01	  0.083527058	2.323500E+01
319	  0.083727457	-6.313000E+00	  0.083727457	1.218040E+02	  0.083727457	2.197700E+01	  0.083727457	2.356700E+01
320	  0.083927862	-6.330000E+00	  0.083927862	1.209620E+02	  0.083927862	2.218400E+01	  0.083927862	2.392400E+01
321	  0.084128261	-6.351000E+00	  0.084128261	1.201660E+02	  0.084128261	2.239400E+01	  0.084128261	2.425800E+01
322	  0.084328659	-6.363000E+00	  0.084328659	1.193700E+02	  0.084328659	2.258300E+01	  0.084328659	2.460300E+01
323	  0.084529065	-6.381000E+00	  0.084529065	1.185530E+02	  0.084529065	2.279900E+01	  0.084529065	2.494900E+01
324	  0.084729463	-6.399000E+00	  0.084729463	1.177580E+02	  0.084729463	2.301100E+01	  0.084729463	2.528800E+01
325	  0.084929854	-6.417000E+00	  0.084929854	1.169140E+02	  0.084929854	2.323800E+01	  0.084929854	2.564900E+01
326	  0.085130259	-6.433000E+00	  0.085130259	1.160920E+02	  0.085130259	2.346000E+01	  0.085130259	2.600300E+01
327	  0.085330658	-6.451000E+00	  0.085330658	1.152920E+02	  0.085330658	2.368800E+01	  0.085330658	2.634300E+01
328	  0.085531056	-6.469000E+00	  0.085531056	1.144650E+02	  0.085531056	2.392400E+01	  0.085531056	2.669900E+01
329	  0.085731462	-6.486000E+00	  0.085731462	1.136530E+02	  0.085731462	2.415800E+01	  0.085731462	2.704800E+01
330	  0.085931860	-6.505000E+00	  0.085931860	1.128730E+02	  0.085931860	2.439700E+01	  0.085931860	2.738000E+01
331	  0.086132258	-6.524000E+00	  0.086132258	1.120840E+02	  0.086132258	2.464300E+01	  0.086132258	2.771600E+01
332	  0.086332664	-6.542000E+00	  0.086332664	1.112980E+02	  0.086332664	2.488600E+01	  0.086332664	2.805300E+01
333	  0.086533062	-6.560000E+00	  0.086533062	1.105090E+02	  0.086533062	2.513600E+01	  0.086533062	2.839100E+01
334	  0.086733460	-6.580000E+00	  0.086733460	1.096850E+02	  0.086733460	2.540600E+01	  0.086733460	2.874200E+01
335	  0.086933866	-6.598000E+00	  0.086933866	1.089090E+02	  0.086933866	2.566000E+01	  0.086933866	2.907600E+01
336	  0.087134264	-6.617000E+00	  0.087134264	1.081250E+02	  0.087134264	2.592600E+01	  0.087134264	2.941100E+01
337	  0.087334670	-6.631000E+00	  0.087334670	1.073120E+02	  0.087334670	2.618800E+01	  0.087334670	2.976900E+01
338	  0.087535068	-6.657000E+00	  0.087535068	1.065540E+02	  0.087535068	2.647600E+01	  0.087535068	3.008000E+01
339	  0.087735467	-6.678000E+00	  0.087735467	1.058020E+02	  0.087735467	2.675500E+01	  0.087735467	3.039500E+01
340	  0.087935872	-6.698000E+00	  0.087935872	1.050360E+02	  0.087935872	2.703500E+01	  0.087935872	3.072100E+01
341	  0.088136271	-6.721000E+00	  0.088136271	1.042250E+02	  0.088136271	2.734700E+01	  0.088136271	3.105900E+01
342	  0.088336669	-6.742000E+00	  0.088336669	1.034630E+02	  0.088336669	2.763900E+01	  0.088336669	3.138100E+01
343	  0.088537075	-6.764000E+00	  0.088537075	1.026830E+02	  0.088537075	2.794700E+01	  0.088537075	3.170600E+01
344	  0.088737473	-6.784000E+00	  0.088737473	1.019240E+02	  0.088737473	2.824800E+01	  0.088737473	3.202600E+01
345	  0.088937871	-6.807000E+00	  0.088937871	1.011260E+02	  0.088937871	2.857400E+01	  0.088937871	3.235900E+01
346	  0.089138277	-6.831000E+00	  0.089138277	1.003780E+02	  0.089138277	2.889400E+01	  0.089138277	3.266300E+01
347	  0.089338675	-6.851000E+00	  0.089338675	9.962300E+01	  0.089338675	2.920700E+01	  0.089338675	3.298000E+01
348	  0.089539073	-6.876000E+00	  0.089539073	9.886100E+01	  0.089539073	2.954600E+01	  0.089539073	3.328700E+01
349	  0.089739479	-6.900000E+00	  0.089739479	9.812300E+01	  0.089739479	2.987600E+01	  0.089739479	3.358500E+01
350	  0.089939877	-6.932000E+00	  0.089939877	9.735900E+01	  0.089939877	3.024900E+01	  0.089939877	3.387400E+01
351	  0.090140276	-6.955000E+00	  0.090140276	9.658000E+01	  0.090140276	3.060200E+01	  0.090140276	3.419100E+01
352	  0.090340681	-6.985000E+00	  0.090340681	9.586400E+01	  0.090340681	3.096200E+01	  0.090340681	3.445800E+01
353	  0.090541080	-7.009000E+00	  0.090541080	9.510600E+01	  0.090541080	3.132200E+01	  0.090541080	3.476000E+01
354	  0.090741485	-7.040000E+00	  0.090741485	9.437400E+01	  0.090741485	3.169800E+01	  0.090741485	3.503100E+01
355	  0.090941884	-7.081000E+00	  0.090941884	9.363000E+01	  0.090941884	3.212000E+01	  0.090941884	3.527700E+01
356	  0.091142282	-7.105000E+00	  0.091142282	9.291100E+01	  0.091142282	3.248200E+01	  0.091142282	3.555300E+01
357	  0.091342688	-7.143000E+00	  0.091342688	9.217600E+01	  0.091342688	3.290000E+01	  0.091342688	3.579800E+01
358	  0.091543086	-7.175000E+00	  0.091543086	9.143600E+01	  0.091543086	3.330600E+01	  0.091543086	3.605800E+01
359	  0.091743484	-7.206000E+00	  0.091743484	9.069800E+01	  0.091743484	3.371300E+01	  0.091743484	3.631900E+01
360	  0.091943890	-7.242000E+00	  0.091943890	9.000500E+01	  0.091943890	3.412400E+01	  0.091943890	3.654000E+01
361	  0.092144288	-7.279000E+00	  0.092144288	8.923900E+01	  0.092144288	3.457500E+01	  0.092144288	3.678800E+01
362	  0.092344686	-7.312000E+00	  0.092344686	8.850500E+01	  0.092344686	3.500200E+01	  0.092344686	3.703300E+01
363	  0.092545092	-7.346000E+00	  0.092545092	8.783800E+01	  0.092545092	3.541100E+01	  0.092545092	3.723600E+01
364	  0.092745490	-7.385000E+00	  0.092745490	8.712600E+01	  0.092745490	3.586000E+01	  0.092745490	3.744300E+01
365	  0.092945889	-7.425000E+00	  0.092945889	8.642700E+01	  0.092945889	3.631100E+01	  0.092945889	3.763600E+01
366	  0.093146294	-7.462000E+00	  0.093146294	8.575200E+01	  0.093146294	3.674400E+01	  0.093146294	3.782500E+01
367	  0.093346693	-7.499000E+00	  0.093346693	8.506100E+01	  0.093346693	3.719300E+01	  0.093346693	3.801400E+01
368	  0.093547091	-7.537000E+00	  0.093547091	8.439100E+01	  0.093547091	3.763900E+01	  0.093547091	3.818600E+01
369	  0.093747497	-7.575000E+00	  0.093747497	8.372100E+01	  0.093747497	3.808700E+01	  0.093747497	3.835800E+01
370	  0.093947895	-7.620000E+00	  0.093947895	8.305000E+01	  0.093947895	3.856400E+01	  0.093947895	3.849700E+01
371	  0.094148301	-7.657000E+00	  0.094148301	8.239200E+01	  0.094148301	3.901100E+01	  0.094148301	3.865700E+01
372	  0.094348699	-7.703000E+00	  0.094348699	8.173600E+01	  0.094348699	3.949100E+01	  0.094348699	3.877600E+01
373	  0.094549097	-7.738000E+00	  0.094549097	8.107600E+01	  0.094549097	3.994300E+01	  0.094549097	3.893300E+01
374	  0.094749503	-7.781000E+00	  0.094749503	8.046500E+01	  0.094749503	4.039700E+01	  0.094749503	3.903400E+01
375	  0.094949901	-7.818000E+00	  0.094949901	7.985900E+01	  0.094949901	4.083300E+01	  0.094949901	3.915100E+01
376	  0.095150299	-7.863000E+00	  0.095150299	7.925200E+01	  0.095150299	4.129600E+01	  0.095150299	3.923300E+01
377	  0.095350705	-7.905000E+00	  0.095350705	7.860500E+01	  0.095350705	4.177700E+01	  0.095350705	3.933700E+01
378	  0.095551103	-7.945000E+00	  0.095551103	7.800600E+01	  0.095551103	4.222900E+01	  0.095551103	3.942200E+01
379	  0.095751502	-7.990000E+00	  0.095751502	7.737900E+01	  0.095751502	4.271200E+01	  0.095751502	3.949600E+01
380	  0.095951907	-8.034000E+00	  0.095951907	7.680000E+01	  0.095951907	4.316900E+01	  0.095951907	3.954700E+01
381	  0.096152306	-8.073000E+00	  0.096152306	7.620700E+01	  0.096152306	4.362100E+01	  0.096152306	3.961900E+01
382	  0.096352704	-8.117000E+00	  0.096352704	7.561900E+01	  0.096352704	4.408800E+01	  0.096352704	3.966200E+01
383	  0.096553110	-8.162000E+00	  0.096553110	7.506300E+01	  0.096553110	4.453800E+01	  0.096553110	3.968600E+01
384	  0.096753508	-8.202000E+00	  0.096753508	7.450800E+01	  0.096753508	4.497600E+01	  0.096753508	3.972600E+01
385	  0.096953906	-8.252000E+00	  0.096953906	7.395800E+01	  0.096953906	4.543900E+01	  0.096953906	3.971300E+01
386	  0.097154312	-8.297000E+00	  0.097154312	7.337000E+01	  0.097154312	4.591400E+01	  0.097154312	3.972900E+01
387	  0.097354710	-8.338000E+00	  0.097354710	7.284300E+01	  0.097354710	4.634400E+01	  0.097354710	3.973400E+01
388	  0.097555116	-8.385000E+00	  0.097555116	7.229600E+01	  0.097555116	4.680000E+01	  0.097555116	3.971900E+01
389	  0.097755514	-8.432000E+00	  0.097755514	7.177600E+01	  0.097755514	4.724100E+01	  0.097755514	3.968300E+01
390	  0.097955912	-8.476000E+00	  0.097955912	7.125100E+01	  0.097955912	4.767700E+01	  0.097955912	3.966100E+01
391	  0.098156318	-8.519000E+00	  0.098156318	7.072000E+01	  0.098156318	4.811700E+01	  0.098156318	3.963900E+01
392	  0.098356716	-8.562000E+00	  0.098356716	7.022600E+01	  0.098356716	4.853300E+01	  0.098356716	3.959700E+01
393	  0.098557115	-8.612000E+00	  0.098557115	6.975500E+01	  0.098557115	4.894800E+01	  0.098557115	3.951500E+01
394	  0.098757520	-8.650000E+00	  0.098757520	6.923200E+01	  0.098757520	4.937500E+01	  0.098757520	3.949300E+01
395	  0.098957919	-8.696000E+00	  0.098957919	6.874300E+01	  0.098957919	4.979300E+01	  0.098957919	3.942300E+01
396	  0.099158317	-8.741000E+00	  0.099158317	6.826600E+01	  0.099158317	5.020200E+01	  0.099158317	3.934800E+01
397	  0.099358723	-8.782000E+00	  0.099358723	6.775900E+01	  0.099358723	5.062200E+01	  0.099358723	3.929600E+01
398	  0.099559121	-8.830000E+00	  0.099559121	6.731400E+01	  0.099559121	5.101400E+01	  0.099559121	3.918600E+01
399	  0.099759519	-8.867000E+00	  0.099759519	6.684700E+01	  0.099759519	5.140000E+01	  0.099759519	3.913300E+01
400	  0.099959925	-8.907000E+00	  0.099959925	6.647100E+01	  0.099959925	5.172800E+01	  0.099959925	3.903600E+01
401	  0.100160323	-8.941000E+00	  0.100160323	6.598900E+01	  0.100160323	5.212000E+01	  0.100160323	3.899100E+01
402	  0.100360721	-8.983000E+00	  0.100360721	6.554900E+01	  0.100360721	5.249500E+01	  0.100360721	3.889000E+01
403	  0.100561127	-9.026000E+00	  0.100561127	6.506000E+01	  0.100561127	5.290600E+01	  0.100561127	3.879100E+01
404	  0.100761525	-9.069000E+00	  0.100761525	6.469500E+01	  0.100761525	5.322600E+01	  0.100761525	3.866500E+01
405	  0.100961931	-9.104000E+00	  0.100961931	6.428000E+01	  0.100961931	5.357100E+01	  0.100961931	3.858100E+01
406	  0.101162329	-9.142000E+00	  0.101162329	6.389900E+01	  0.101162329	5.389400E+01	  0.101162329	3.847300E+01
407	  0.101362728	-9.186000E+00	  0.101362728	6.347900E+01	  0.101362728	5.425200E+01	  0.101362728	3.834000E+01
408	  0.101563133	-9.214000E+00	  0.101563133	6.310800E+01	  0.101563133	5.455400E+01	  0.101563133	3.827000E+01
409	  0.101763532	-9.249000E+00	  0.101763532	6.277300E+01	  0.101763532	5.483700E+01	  0.101763532	3.816100E+01
410	  0.101963930	-9.291000E+00	  0.101963930	6.232400E+01	  0.101963930	5.521100E+01	  0.101963930	3.802700E+01
411	  0.102164328	-9.317000E+00	  0.102164328	6.197400E+01	  0.102164328	5.549500E+01	  0.102164328	3.795500E+01
412	  0.102364726	-9.344000E+00	  0.102364726	6.166600E+01	  0.102364726	5.574700E+01	  0.102364726	3.786900E+01
413	  0.102565125	-9.373000E+00	  0.102565125	6.128600E+01	  0.102565125	5.605500E+01	  0.102565125	3.778300E+01
414	  0.102765530	-9.414000E+00	  0.102765530	6.090900E+01	  0.102765530	5.636900E+01	  0.102765530	3.763200E+01
415	  0.102965929	-9.426000E+00	  0.102965929	6.061200E+01	  0.102965929	5.660000E+01	  0.102965929	3.761000E+01
416	  0.103166327	-9.461000E+00	  0.103166327	6.026000E+01	  0.103166327	5.688900E+01	  0.103166327	3.748000E+01
417	  0.103366733	-9.479000E+00	  0.103366733	6.000300E+01	  0.103366733	5.709400E+01	  0.103366733	3.742100E+01
418	  0.103567131	-9.513000E+00	  0.103567131	5.960300E+01	  0.103567131	5.741800E+01	  0.103567131	3.729800E+01
419	  0.103767529	-9.532000E+00	  0.103767529	5.938200E+01	  0.103767529	5.759500E+01	  0.103767529	3.722900E+01
420	  0.103967935	-9.556000E+00	  0.103967935	5.897500E+01	  0.103967935	5.791600E+01	  0.103967935	3.714500E+01
421	  0.104168333	-9.578000E+00	  0.104168333	5.869700E+01	  0.104168333	5.813800E+01	  0.104168333	3.706200E+01
422	  0.104368731	-9.600000E+00	  0.104368731	5.839700E+01	  0.104368731	5.837500E+01	  0.104368731	3.698000E+01
423	  0.104569137	-9.616000E+00	  0.104569137	5.807700E+01	  0.104569137	5.862500E+01	  0.104569137	3.692600E+01
424	  0.104769535	-9.630000E+00	  0.104769535	5.778000E+01	  0.104769535	5.885600E+01	  0.104769535	3.687700E+01
425	  0.104969934	-9.652000E+00	  0.104969934	5.748200E+01	  0.104969934	5.909100E+01	  0.104969934	3.678500E+01
426	  0.105170339	-9.659000E+00	  0.105170339	5.717500E+01	  0.105170339	5.932800E+01	  0.105170339	3.676700E+01
427	  0.105370738	-9.680000E+00	  0.105370738	5.683400E+01	  0.105370738	5.959600E+01	  0.105370738	3.668100E+01
428	  0.105571143	-9.687000E+00	  0.105571143	5.651400E+01	  0.105571143	5.984300E+01	  0.105571143	3.666000E+01
429	  0.105771542	-9.701000E+00	  0.105771542	5.617700E+01	  0.105771542	6.010500E+01	  0.105771542	3.660800E+01
430	  0.105971940	-9.700000E+00	  0.105971940	5.587000E+01	  0.105971940	6.034000E+01	  0.105971940	3.662400E+01
431	  0.106172346	-9.711000E+00	  0.106172346	5.557400E+01	  0.106172346	6.057200E+01	  0.106172346	3.657600E+01
432	  0.106372744	-9.720000E+00	  0.106372744	5.524300E+01	  0.106372744	6.083000E+01	  0.106372744	3.654100E+01
433	  0.106573142	-9.725000E+00	  0.106573142	5.492400E+01	  0.106573142	6.107800E+01	  0.106573142	3.652100E+01
434	  0.106773548	-9.729000E+00	  0.106773548	5.463000E+01	  0.106773548	6.130800E+01	  0.106773548	3.650400E+01
435	  0.106973946	-9.727000E+00	  0.106973946	5.424000E+01	  0.106973946	6.161300E+01	  0.106973946	3.651900E+01
436	  0.107174344	-9.721000E+00	  0.107174344	5.389800E+01	  0.107174344	6.188300E+01	  0.107174344	3.655000E+01
437	  0.107374750	-9.720000E+00	  0.107374750	5.350000E+01	  0.107374750	6.219800E+01	  0.107374750	3.655600E+01
438	  0.107575148	-9.722000E+00	  0.107575148	5.320000E+01	  0.107575148	6.243600E+01	  0.107575148	3.654300E+01
439	  0.107775547	-9.711000E+00	  0.107775547	5.278600E+01	  0.107775547	6.276800E+01	  0.107775547	3.659400E+01
440	  0.107975952	-9.701000E+00	  0.107975952	5.247400E+01	  0.107975952	6.302000E+01	  0.107975952	3.664000E+01
441	  0.108176351	-9.696000E+00	  0.108176351	5.206300E+01	  0.108176351	6.335300E+01	  0.108176351	3.665700E+01
442	  0.108376749	-9.683000E+00	  0.108376749	5.165500E+01	  0.108376749	6.368800E+01	  0.108376749	3.671400E+01
443	  0.108577155	-9.682000E+00	  0.108577155	5.125500E+01	  0.108577155	6.401600E+01	  0.108577155	3.670400E+01
444	  0.108777553	-9.662000E+00	  0.108777553	5.087100E+01	  0.108777553	6.433700E+01	  0.108777553	3.679100E+01
445	  0.108977959	-9.650000E+00	  0.108977959	5.047900E+01	  0.108977959	6.466700E+01	  0.108977959	3.683800E+01
446	  0.109178357	-9.640000E+00	  0.109178357	5.006400E+01	  0.109178357	6.501700E+01	  0.109178357	3.686600E+01
447	  0.109378755	-9.627000E+00	  0.109378755	4.964700E+01	  0.109378755	6.537300E+01	  0.109378755	3.691100E+01
448	  0.109579161	-9.611000E+00	  0.109579161	4.919500E+01	  0.109579161	6.576300E+01	  0.109579161	3.696300E+01
449	  0.109779559	-9.587000E+00	  0.109779559	4.872400E+01	  0.109779559	6.617800E+01	  0.109779559	3.706000E+01
450	  0.109979957	-9.571000E+00	  0.109979957	4.829400E+01	  0.109979957	6.655700E+01	  0.109979957	3.711200E+01
451	  0.110180363	-9.559000E+00	  0.110180363	4.783800E+01	  0.110180363	6.696000E+01	  0.110180363	3.713500E+01
452	  0.110380761	-9.538000E+00	  0.110380761	4.737000E+01	  0.110380761	6.738300E+01	  0.110380761	3.720300E+01
453	  0.110581160	-9.514000E+00	  0.110581160	4.684800E+01	  0.110581160	6.786100E+01	  0.110581160	3.727900E+01
454	  0.110781565	-9.496000E+00	  0.110781565	4.637900E+01	  0.110781565	6.829200E+01	  0.110781565	3.732200E+01
455	  0.110981964	-9.483000E+00	  0.110981964	4.584300E+01	  0.110981964	6.878200E+01	  0.110981964	3.732800E+01
456	  0.111182362	-9.462000E+00	  0.111182362	4.534300E+01	  0.111182362	6.925300E+01	  0.111182362	3.737800E+01
457	  0.111382768	-9.436000E+00	  0.111382768	4.475700E+01	  0.111382768	6.981300E+01	  0.111382768	3.743500E+01
458	  0.111583166	-9.416000E+00	  0.111583166	4.421000E+01	  0.111583166	7.033700E+01	  0.111583166	3.745700E+01
459	  0.111783572	-9.397000E+00	  0.111783572	4.365000E+01	  0.111783572	7.087800E+01	  0.111783572	3.746700E+01
460	  0.111983970	-9.380000E+00	  0.111983970	4.309200E+01	  0.111983970	7.142000E+01	  0.111983970	3.746000E+01
461	  0.112184368	-9.359000E+00	  0.112184368	4.249300E+01	  0.112184368	7.201200E+01	  0.112184368	3.746000E+01
462	  0.112384774	-9.347000E+00	  0.112384774	4.184300E+01	  0.112384774	7.264400E+01	  0.112384774	3.738500E+01
463	  0.112585172	-9.327000E+00	  0.112585172	4.121800E+01	  0.112585172	7.327100E+01	  0.112585172	3.735200E+01
464	  0.112785570	-9.313000E+00	  0.112785570	4.056200E+01	  0.112785570	7.392500E+01	  0.112785570	3.726700E+01
465	  0.112985976	-9.287000E+00	  0.112985976	3.993600E+01	  0.112985976	7.457700E+01	  0.112985976	3.725400E+01
466	  0.113186374	-9.275000E+00	  0.113186374	3.926300E+01	  0.113186374	7.525700E+01	  0.113186374	3.713200E+01
467	  0.113386773	-9.257000E+00	  0.113386773	3.857900E+01	  0.113386773	7.596600E+01	  0.113386773	3.703000E+01
468	  0.113587178	-9.249000E+00	  0.113587178	3.790500E+01	  0.113587178	7.664500E+01	  0.113587178	3.684700E+01
469	  0.113787577	-9.230000E+00	  0.113787577	3.713000E+01	  0.113787577	7.745800E+01	  0.113787577	3.669100E+01
470	  0.113987975	-9.212000E+00	  0.113987975	3.640300E+01	  0.113987975	7.822700E+01	  0.113987975	3.652600E+01
471	  0.114188381	-9.202000E+00	  0.114188381	3.566600E+01	  0.114188381	7.898900E+01	  0.114188381	3.628700E+01
472	  0.114388779	-9.191000E+00	  0.114388779	3.484000E+01	  0.114388779	7.985100E+01	  0.114388779	3.600300E+01
473	  0.114589177	-9.184000E+00	  0.114589177	3.404900E+01	  0.114589177	8.066700E+01	  0.114589177	3.568400E+01
474	  0.114789583	-9.166000E+00	  0.114789583	3.328700E+01	  0.114789583	8.149000E+01	  0.114789583	3.542600E+01
475	  0.114989981	-9.161000E+00	  0.114989981	3.244500E+01	  0.114989981	8.235600E+01	  0.114989981	3.502500E+01
476	  0.115190387	-9.157000E+00	  0.115190387	3.158000E+01	  0.115190387	8.324000E+01	  0.115190387	3.457600E+01
477	  0.115390785	-9.148000E+00	  0.115390785	3.069500E+01	  0.115390785	8.416500E+01	  0.115390785	3.412600E+01
478	  0.115591183	-9.139000E+00	  0.115591183	2.981300E+01	  0.115591183	8.508300E+01	  0.115591183	3.364100E+01
479	  0.115791589	-9.137000E+00	  0.115791589	2.892100E+01	  0.115791589	8.598100E+01	  0.115791589	3.307900E+01
480	  0.115991987	-9.130000E+00	  0.115991987	2.798300E+01	  0.115991987	8.693700E+01	  0.115991987	3.248200E+01
481	  0.116192386	-9.121000E+00	  0.116192386	2.709400E+01	  0.116192386	8.785400E+01	  0.116192386	3.190600E+01
482	  0.116392791	-9.121000E+00	  0.116392791	2.613800E+01	  0.116392791	8.878200E+01	  0.116392791	3.118600E+01
483	  0.116593190	-9.128000E+00	  0.116593190	2.517900E+01	  0.116593190	8.967000E+01	  0.116593190	3.039100E+01
484	  0.116793588	-9.127000E+00	  0.116793588	2.418700E+01	  0.116793588	9.060900E+01	  0.116793588	2.957600E+01
485	  0.116993994	-9.130000E+00	  0.116993994	2.315100E+01	  0.116993994	9.155200E+01	  0.116993994	2.866300E+01
486	  0.117194392	-9.133000E+00	  0.117194392	2.215200E+01	  0.117194392	9.243900E+01	  0.117194392	2.774300E+01
487	  0.117394790	-9.142000E+00	  0.117394790	2.118100E+01	  0.117394790	9.324300E+01	  0.117394790	2.678300E+01
488	  0.117595196	-9.155000E+00	  0.117595196	2.009500E+01	  0.117595196	9.409000E+01	  0.117595196	2.565100E+01
489	  0.117795594	-9.166000E+00	  0.117795594	1.903900E+01	  0.117795594	9.488900E+01	  0.117795594	2.452000E+01
490	  0.117995992	-9.178000E+00	  0.117995992	1.795900E+01	  0.117995992	9.566300E+01	  0.117995992	2.332300E+01
491	  0.118196398	-9.195000E+00	  0.118196398	1.685800E+01	  0.118196398	9.637800E+01	  0.118196398	2.204500E+01
492	  0.118396796	-9.219000E+00	  0.118396796	1.575400E+01	  0.118396796	9.700100E+01	  0.118396796	2.070100E+01
493	  0.118597202	-9.236000E+00	  0.118597202	1.460100E+01	  0.118597202	9.765500E+01	  0.118597202	1.930100E+01
494	  0.118797600	-9.261000E+00	  0.118797600	1.342100E+01	  0.118797600	9.821000E+01	  0.118797600	1.780600E+01
