! Anritsu VNA Master:             	Model: MS2036C/10/77
! SN:             	1601066
! /bd0/18may09/252.ew.m3.txt
! Existing Calibration Information:
! TYPE:             	Current Settings	Active Cal Settings
! TIME:             	05/09/2018 08:11:03 AM	05/09/2018 08:04:56 AM
! INTERNAL TEMP:    	41.8 C	42.3 C
! # POINTS:         	500	500
! START FREQ:       	20.000 MHz	20.000 MHz
! STOP FREQ:        	120.000 MHz	120.000 MHz
! SOURCE POWER:     	High	High
! IFBW:             	50 Hz	50 Hz
! AVG FACTOR:       	  1 	  1 
! REF PLANE 1:      	0 mm	0 mm
! REF PLANE 2:      	0 mm	0 mm
! CAL TYPE:         	Full S11	Full S11
! CAL METHOD:       	SOLT	SOLT
! CAL LINE TYPE:    	Coax	Coax
! DUT PORT 1:       	K-Conn(F)	K-Conn(F)
! DUT PORT 2:       	K-Conn(F)	K-Conn(F)
! CAL STATUS:       	OK: Accuracy High	--
! PROP-V:       	0.700
! CABLE LOSS:       	0.000 dB/m
! REF IMPEDANCE:       	50.0
! Trace Specific Parameters:	TR1	TR2	TR3	TR4
! TRACE.#.Y (GRAPH TYPE)	LOG MAG	PHASE	REAL IMPEDANCE	IMAGINARY IMPEDANCE
! TRACE.#.X 	FREQ.GHZ	FREQ.GHZ	FREQ.GHZ	FREQ.GHZ
! S-PARAMETER	S11	S11	S11	S11
! SMOOTH/APERTURE %	0	0	0	0
! WINDOW	NSL	NSL	NSL	NSL
! GATING	OFF	OFF	OFF	OFF
! FGTD	OFF	OFF	OFF	OFF
Marker Information per Trace:	TR1	TR2	TR3	TR4
!MK1	--	"MK1 TR2:  20.000 MHz,PH:-124.22°"	--	--
!MK2	--	--	"MK2 TR3:  70.100 200 MHz,Z:(17.231 ohm, -3.086 ohm)"	--
!MK3	--	--	--	--
!MK4	--	--	--	--
!MK5	--	--	--	--
!MK6	--	--	--	--
!MK7	--	--	--	--
!MK8	--	--	--	--
PNT	TR1.FREQ.GHZ	TR1.LOG MAG.dB	TR2.FREQ.GHZ	TR2.PHASE.deg	TR3.FREQ.GHZ	TR3.REAL IMPEDANCE.ohm	TR4.FREQ.GHZ	TR4.IMAGINARY IMPEDANCE.ohm
1	  0.020000000	-5.920000E-01	  0.020000000	-1.242220E+02	  0.020000000	2.179000E+00	  0.020000000	-2.642100E+01
2	  0.020200402	-5.910000E-01	  0.020200402	-1.256670E+02	  0.020200402	2.149000E+00	  0.020200402	-2.562100E+01
3	  0.020400802	-5.930000E-01	  0.020400802	-1.270950E+02	  0.020400802	2.129000E+00	  0.020400802	-2.484100E+01
4	  0.020601204	-5.950000E-01	  0.020601204	-1.285530E+02	  0.020601204	2.108000E+00	  0.020601204	-2.405300E+01
5	  0.020801604	-5.970000E-01	  0.020801604	-1.300320E+02	  0.020801604	2.092000E+00	  0.020801604	-2.326400E+01
6	  0.021002004	-6.050000E-01	  0.021002004	-1.315290E+02	  0.021002004	2.093000E+00	  0.021002004	-2.247500E+01
7	  0.021202406	-6.110000E-01	  0.021202406	-1.330550E+02	  0.021202406	2.090000E+00	  0.021202406	-2.168000E+01
8	  0.021402806	-6.140000E-01	  0.021402806	-1.345760E+02	  0.021402806	2.078000E+00	  0.021402806	-2.089600E+01
9	  0.021603208	-6.180000E-01	  0.021603208	-1.360740E+02	  0.021603208	2.067000E+00	  0.021603208	-2.013300E+01
10	  0.021803608	-6.230000E-01	  0.021803608	-1.375860E+02	  0.021803608	2.063000E+00	  0.021803608	-1.937100E+01
11	  0.022004008	-6.270000E-01	  0.022004008	-1.391190E+02	  0.022004008	2.054000E+00	  0.022004008	-1.860700E+01
12	  0.022204408	-6.300000E-01	  0.022204408	-1.406560E+02	  0.022204408	2.046000E+00	  0.022204408	-1.784800E+01
13	  0.022404809	-6.350000E-01	  0.022404809	-1.422110E+02	  0.022404809	2.041000E+00	  0.022404809	-1.708700E+01
14	  0.022605211	-6.370000E-01	  0.022605211	-1.437940E+02	  0.022605211	2.029000E+00	  0.022605211	-1.632000E+01
15	  0.022805611	-6.430000E-01	  0.022805611	-1.453600E+02	  0.022805611	2.031000E+00	  0.022805611	-1.556800E+01
16	  0.023006011	-6.460000E-01	  0.023006011	-1.469330E+02	  0.023006011	2.024000E+00	  0.023006011	-1.481900E+01
17	  0.023206413	-6.470000E-01	  0.023206413	-1.485070E+02	  0.023206413	2.011000E+00	  0.023206413	-1.407600E+01
18	  0.023406813	-6.490000E-01	  0.023406813	-1.500750E+02	  0.023406813	2.002000E+00	  0.023406813	-1.334100E+01
19	  0.023607215	-6.520000E-01	  0.023607215	-1.516660E+02	  0.023607215	1.996000E+00	  0.023607215	-1.260200E+01
20	  0.023807615	-6.610000E-01	  0.023807615	-1.532470E+02	  0.023807615	2.009000E+00	  0.023807615	-1.187100E+01
21	  0.024008015	-6.710000E-01	  0.024008015	-1.548670E+02	  0.024008015	2.026000E+00	  0.024008015	-1.112800E+01
22	  0.024208417	-6.800000E-01	  0.024208417	-1.564880E+02	  0.024208417	2.041000E+00	  0.024208417	-1.038800E+01
23	  0.024408817	-6.890000E-01	  0.024408817	-1.581420E+02	  0.024408817	2.057000E+00	  0.024408817	-9.638000E+00
24	  0.024609219	-6.980000E-01	  0.024609219	-1.597690E+02	  0.024609219	2.071000E+00	  0.024609219	-8.905000E+00
25	  0.024809619	-7.070000E-01	  0.024809619	-1.614060E+02	  0.024809619	2.090000E+00	  0.024809619	-8.171000E+00
26	  0.025010020	-7.170000E-01	  0.025010020	-1.630470E+02	  0.025010020	2.110000E+00	  0.025010020	-7.438000E+00
27	  0.025210422	-7.300000E-01	  0.025210422	-1.647020E+02	  0.025210422	2.140000E+00	  0.025210422	-6.702000E+00
28	  0.025410822	-7.440000E-01	  0.025410822	-1.663860E+02	  0.025410822	2.173000E+00	  0.025410822	-5.956000E+00
29	  0.025611224	-7.580000E-01	  0.025611224	-1.680800E+02	  0.025611224	2.206000E+00	  0.025611224	-5.209000E+00
30	  0.025811624	-7.690000E-01	  0.025811624	-1.697970E+02	  0.025811624	2.230000E+00	  0.025811624	-4.454000E+00
31	  0.026012026	-7.780000E-01	  0.026012026	-1.714850E+02	  0.026012026	2.250000E+00	  0.026012026	-3.714000E+00
32	  0.026212426	-7.890000E-01	  0.026212426	-1.732000E+02	  0.026212426	2.278000E+00	  0.026212426	-2.963000E+00
33	  0.026412826	-8.020000E-01	  0.026412826	-1.749280E+02	  0.026412826	2.312000E+00	  0.026412826	-2.209000E+00
34	  0.026613226	-8.170000E-01	  0.026613226	-1.766610E+02	  0.026613226	2.352000E+00	  0.026613226	-1.453000E+00
35	  0.026813626	-8.330000E-01	  0.026813626	-1.784040E+02	  0.026813626	2.396000E+00	  0.026813626	-6.940000E-01
36	  0.027014028	-8.500000E-01	  0.027014028	1.798380E+02	  0.027014028	2.447000E+00	  0.027014028	7.000000E-02
37	  0.027214428	-8.650000E-01	  0.027214428	1.780690E+02	  0.027214428	2.489000E+00	  0.027214428	8.400000E-01
38	  0.027414829	-8.800000E-01	  0.027414829	1.762850E+02	  0.027414829	2.534000E+00	  0.027414829	1.617000E+00
39	  0.027615231	-8.970000E-01	  0.027615231	1.744970E+02	  0.027615231	2.587000E+00	  0.027615231	2.396000E+00
40	  0.027815631	-9.170000E-01	  0.027815631	1.726970E+02	  0.027815631	2.649000E+00	  0.027815631	3.181000E+00
41	  0.028016033	-9.390000E-01	  0.028016033	1.708860E+02	  0.028016033	2.717000E+00	  0.028016033	3.973000E+00
42	  0.028216433	-9.610000E-01	  0.028216433	1.690700E+02	  0.028216433	2.791000E+00	  0.028216433	4.768000E+00
43	  0.028416833	-9.800000E-01	  0.028416833	1.672460E+02	  0.028416833	2.854000E+00	  0.028416833	5.569000E+00
44	  0.028617235	-1.000000E+00	  0.028617235	1.654220E+02	  0.028617235	2.922000E+00	  0.028617235	6.373000E+00
45	  0.028817635	-1.021000E+00	  0.028817635	1.636010E+02	  0.028817635	2.996000E+00	  0.028817635	7.179000E+00
46	  0.029018037	-1.041000E+00	  0.029018037	1.618020E+02	  0.029018037	3.070000E+00	  0.029018037	7.978000E+00
47	  0.029218437	-1.063000E+00	  0.029218437	1.599760E+02	  0.029218437	3.151000E+00	  0.029218437	8.792000E+00
48	  0.029418837	-1.087000E+00	  0.029418837	1.581400E+02	  0.029418837	3.242000E+00	  0.029418837	9.616000E+00
49	  0.029619239	-1.116000E+00	  0.029619239	1.562830E+02	  0.029619239	3.350000E+00	  0.029619239	1.045300E+01
50	  0.029819639	-1.146000E+00	  0.029819639	1.544150E+02	  0.029819639	3.462000E+00	  0.029819639	1.130000E+01
51	  0.030020041	-1.176000E+00	  0.030020041	1.524950E+02	  0.030020041	3.581000E+00	  0.030020041	1.217700E+01
52	  0.030220442	-1.205000E+00	  0.030220442	1.505730E+02	  0.030220442	3.701000E+00	  0.030220442	1.306200E+01
53	  0.030420844	-1.237000E+00	  0.030420844	1.486650E+02	  0.030420844	3.833000E+00	  0.030420844	1.394700E+01
54	  0.030621244	-1.267000E+00	  0.030621244	1.467560E+02	  0.030621244	3.964000E+00	  0.030621244	1.484000E+01
55	  0.030821644	-1.304000E+00	  0.030821644	1.448360E+02	  0.030821644	4.120000E+00	  0.030821644	1.574500E+01
56	  0.031022044	-1.338000E+00	  0.031022044	1.429060E+02	  0.031022044	4.276000E+00	  0.031022044	1.666400E+01
57	  0.031222444	-1.371000E+00	  0.031222444	1.409750E+02	  0.031222444	4.430000E+00	  0.031222444	1.759400E+01
58	  0.031422846	-1.409000E+00	  0.031422846	1.389800E+02	  0.031422846	4.609000E+00	  0.031422846	1.856400E+01
59	  0.031623244	-1.445000E+00	  0.031623244	1.369820E+02	  0.031623244	4.790000E+00	  0.031623244	1.954700E+01
60	  0.031823646	-1.481000E+00	  0.031823646	1.349670E+02	  0.031823646	4.979000E+00	  0.031823646	2.055100E+01
61	  0.032024048	-1.517000E+00	  0.032024048	1.329900E+02	  0.032024048	5.173000E+00	  0.032024048	2.154900E+01
62	  0.032224450	-1.552000E+00	  0.032224450	1.309950E+02	  0.032224450	5.372000E+00	  0.032224450	2.257000E+01
63	  0.032424849	-1.591000E+00	  0.032424849	1.290240E+02	  0.032424849	5.593000E+00	  0.032424849	2.359200E+01
64	  0.032625251	-1.630000E+00	  0.032625251	1.270390E+02	  0.032625251	5.828000E+00	  0.032625251	2.463500E+01
65	  0.032825653	-1.672000E+00	  0.032825653	1.250650E+02	  0.032825653	6.080000E+00	  0.032825653	2.568800E+01
66	  0.033026051	-1.717000E+00	  0.033026051	1.230990E+02	  0.033026051	6.356000E+00	  0.033026051	2.675100E+01
67	  0.033226453	-1.769000E+00	  0.033226453	1.211080E+02	  0.033226453	6.670000E+00	  0.033226453	2.784400E+01
68	  0.033426855	-1.823000E+00	  0.033426855	1.190830E+02	  0.033426855	7.009000E+00	  0.033426855	2.897200E+01
69	  0.033627257	-1.879000E+00	  0.033627257	1.170590E+02	  0.033627257	7.376000E+00	  0.033627257	3.011700E+01
70	  0.033827655	-1.935000E+00	  0.033827655	1.149910E+02	  0.033827655	7.762000E+00	  0.033827655	3.131000E+01
71	  0.034028057	-1.986000E+00	  0.034028057	1.128780E+02	  0.034028057	8.152000E+00	  0.034028057	3.255400E+01
72	  0.034228459	-2.039000E+00	  0.034228459	1.107480E+02	  0.034228459	8.574000E+00	  0.034228459	3.383400E+01
73	  0.034428857	-2.090000E+00	  0.034428857	1.086300E+02	  0.034428857	9.009000E+00	  0.034428857	3.513300E+01
74	  0.034629259	-2.136000E+00	  0.034629259	1.065150E+02	  0.034629259	9.447000E+00	  0.034629259	3.646300E+01
75	  0.034829661	-2.182000E+00	  0.034829661	1.044020E+02	  0.034829661	9.914000E+00	  0.034829661	3.782100E+01
76	  0.035030060	-2.229000E+00	  0.035030060	1.023000E+02	  0.035030060	1.041000E+01	  0.035030060	3.920200E+01
77	  0.035230462	-2.273000E+00	  0.035230462	1.002180E+02	  0.035230462	1.092100E+01	  0.035230462	4.060500E+01
78	  0.035430863	-2.319000E+00	  0.035430863	9.811400E+01	  0.035430863	1.148000E+01	  0.035430863	4.205400E+01
79	  0.035631265	-2.367000E+00	  0.035631265	9.604000E+01	  0.035631265	1.207400E+01	  0.035631265	4.351600E+01
80	  0.035831664	-2.415000E+00	  0.035831664	9.398800E+01	  0.035831664	1.270500E+01	  0.035831664	4.499800E+01
81	  0.036032066	-2.463000E+00	  0.036032066	9.195500E+01	  0.036032066	1.337600E+01	  0.036032066	4.650000E+01
82	  0.036232468	-2.514000E+00	  0.036232468	8.992000E+01	  0.036232468	1.410400E+01	  0.036232468	4.803800E+01
83	  0.036432866	-2.573000E+00	  0.036432866	8.789000E+01	  0.036432866	1.491900E+01	  0.036432866	4.959900E+01
84	  0.036633268	-2.630000E+00	  0.036633268	8.586800E+01	  0.036633268	1.578300E+01	  0.036633268	5.119200E+01
85	  0.036833670	-2.689000E+00	  0.036833670	8.382700E+01	  0.036833670	1.671900E+01	  0.036833670	5.283900E+01
86	  0.037034072	-2.758000E+00	  0.037034072	8.177000E+01	  0.037034072	1.778600E+01	  0.037034072	5.451600E+01
87	  0.037234470	-2.823000E+00	  0.037234470	7.968400E+01	  0.037234470	1.892100E+01	  0.037234470	5.626800E+01
88	  0.037434869	-2.887000E+00	  0.037434869	7.758100E+01	  0.037434869	2.013500E+01	  0.037434869	5.808200E+01
89	  0.037635271	-2.949000E+00	  0.037635271	7.548400E+01	  0.037635271	2.143000E+01	  0.037635271	5.993800E+01
90	  0.037835669	-3.009000E+00	  0.037835669	7.333800E+01	  0.037835669	2.283600E+01	  0.037835669	6.189400E+01
91	  0.038036071	-3.068000E+00	  0.038036071	7.117500E+01	  0.038036071	2.435700E+01	  0.038036071	6.391900E+01
92	  0.038236473	-3.127000E+00	  0.038236473	6.897900E+01	  0.038236473	2.602700E+01	  0.038236473	6.603000E+01
93	  0.038436871	-3.188000E+00	  0.038436871	6.682500E+01	  0.038436871	2.782300E+01	  0.038436871	6.813600E+01
94	  0.038637273	-3.245000E+00	  0.038637273	6.470100E+01	  0.038637273	2.972500E+01	  0.038637273	7.026900E+01
95	  0.038837675	-3.300000E+00	  0.038837675	6.260500E+01	  0.038837675	3.174400E+01	  0.038837675	7.242700E+01
96	  0.039038073	-3.354000E+00	  0.039038073	6.055500E+01	  0.039038073	3.389400E+01	  0.039038073	7.456900E+01
97	  0.039238475	-3.411000E+00	  0.039238475	5.851500E+01	  0.039238475	3.624600E+01	  0.039238475	7.670500E+01
98	  0.039438877	-3.469000E+00	  0.039438877	5.650600E+01	  0.039438877	3.877000E+01	  0.039438877	7.882000E+01
99	  0.039639279	-3.534000E+00	  0.039639279	5.446400E+01	  0.039639279	4.159600E+01	  0.039639279	8.093400E+01
100	  0.039839678	-3.602000E+00	  0.039839678	5.243000E+01	  0.039839678	4.467900E+01	  0.039839678	8.299400E+01
101	  0.040040080	-3.668000E+00	  0.040040080	5.036000E+01	  0.040040080	4.805900E+01	  0.040040080	8.508000E+01
102	  0.040240481	-3.738000E+00	  0.040240481	4.827700E+01	  0.040240481	5.178100E+01	  0.040240481	8.708500E+01
103	  0.040440880	-3.803000E+00	  0.040440880	4.621400E+01	  0.040440880	5.574200E+01	  0.040440880	8.902500E+01
104	  0.040641282	-3.870000E+00	  0.040641282	4.413400E+01	  0.040641282	6.008000E+01	  0.040641282	9.085400E+01
105	  0.040841684	-3.931000E+00	  0.040841684	4.205800E+01	  0.040841684	6.472200E+01	  0.040841684	9.259300E+01
106	  0.041042086	-3.995000E+00	  0.041042086	3.998100E+01	  0.041042086	6.976400E+01	  0.041042086	9.409900E+01
107	  0.041242484	-4.059000E+00	  0.041242484	3.791800E+01	  0.041242484	7.516700E+01	  0.041242484	9.532400E+01
108	  0.041442886	-4.119000E+00	  0.041442886	3.581800E+01	  0.041442886	8.104000E+01	  0.041442886	9.634000E+01
109	  0.041643288	-4.176000E+00	  0.041643288	3.375800E+01	  0.041643288	8.719500E+01	  0.041643288	9.700100E+01
110	  0.041843686	-4.229000E+00	  0.041843686	3.169300E+01	  0.041843686	9.376300E+01	  0.041843686	9.728400E+01
111	  0.042044088	-4.284000E+00	  0.042044088	2.964600E+01	  0.042044088	1.006700E+02	  0.042044088	9.696500E+01
112	  0.042244490	-4.337000E+00	  0.042244490	2.763600E+01	  0.042244490	1.077890E+02	  0.042244490	9.608900E+01
113	  0.042444889	-4.391000E+00	  0.042444889	2.561100E+01	  0.042444889	1.152490E+02	  0.042444889	9.445300E+01
114	  0.042645290	-4.443000E+00	  0.042645290	2.361800E+01	  0.042645290	1.227990E+02	  0.042645290	9.210400E+01
115	  0.042845692	-4.496000E+00	  0.042845692	2.163200E+01	  0.042845692	1.304260E+02	  0.042845692	8.886400E+01
116	  0.043046094	-4.548000E+00	  0.043046094	1.960600E+01	  0.043046094	1.381840E+02	  0.043046094	8.461500E+01
117	  0.043246493	-4.598000E+00	  0.043246493	1.762900E+01	  0.043246493	1.456090E+02	  0.043246493	7.953200E+01
118	  0.043446895	-4.649000E+00	  0.043446895	1.564900E+01	  0.043446895	1.526830E+02	  0.043446895	7.339000E+01
119	  0.043647297	-4.701000E+00	  0.043647297	1.367900E+01	  0.043647297	1.591510E+02	  0.043647297	6.624300E+01
120	  0.043847695	-4.753000E+00	  0.043847695	1.172600E+01	  0.043847695	1.648460E+02	  0.043847695	5.826000E+01
121	  0.044048097	-4.804000E+00	  0.044048097	9.751000E+00	  0.044048097	1.697500E+02	  0.044048097	4.941900E+01
122	  0.044248499	-4.854000E+00	  0.044248499	7.791000E+00	  0.044248499	1.735460E+02	  0.044248499	3.997900E+01
123	  0.044448901	-4.904000E+00	  0.044448901	5.843000E+00	  0.044448901	1.761990E+02	  0.044448901	3.014200E+01
124	  0.044649299	-4.953000E+00	  0.044649299	3.914000E+00	  0.044649299	1.776110E+02	  0.044649299	2.015400E+01
125	  0.044849701	-4.994000E+00	  0.044849701	1.974000E+00	  0.044849701	1.780650E+02	  0.044849701	1.010400E+01
126	  0.045050103	-5.040000E+00	  0.045050103	4.400000E-02	  0.045050103	1.771410E+02	  0.045050103	2.210000E-01
127	  0.045250501	-5.080000E+00	  0.045250501	-1.868000E+00	  0.045250501	1.752730E+02	  0.045250501	-9.233000E+00
128	  0.045450903	-5.123000E+00	  0.045450903	-3.743000E+00	  0.045450903	1.723730E+02	  0.045450903	-1.801600E+01
129	  0.045651305	-5.168000E+00	  0.045651305	-5.631000E+00	  0.045651305	1.685100E+02	  0.045651305	-2.621200E+01
130	  0.045851704	-5.211000E+00	  0.045851704	-7.517000E+00	  0.045851704	1.640480E+02	  0.045851704	-3.371400E+01
131	  0.046052106	-5.247000E+00	  0.046052106	-9.414000E+00	  0.046052106	1.591230E+02	  0.046052106	-4.056800E+01
132	  0.046252504	-5.290000E+00	  0.046252504	-1.125100E+01	  0.046252504	1.537720E+02	  0.046252504	-4.633700E+01
133	  0.046452906	-5.328000E+00	  0.046452906	-1.312500E+01	  0.046452906	1.481560E+02	  0.046452906	-5.154900E+01
134	  0.046653304	-5.363000E+00	  0.046653304	-1.499600E+01	  0.046653304	1.424050E+02	  0.046653304	-5.604000E+01
135	  0.046853706	-5.398000E+00	  0.046853706	-1.683500E+01	  0.046853706	1.366690E+02	  0.046853706	-5.976100E+01
136	  0.047054108	-5.434000E+00	  0.047054108	-1.867700E+01	  0.047054108	1.309070E+02	  0.047054108	-6.281900E+01
137	  0.047254506	-5.466000E+00	  0.047254506	-2.050200E+01	  0.047254506	1.253200E+02	  0.047254506	-6.534700E+01
138	  0.047454908	-5.500000E+00	  0.047454908	-2.229500E+01	  0.047454908	1.199130E+02	  0.047454908	-6.725400E+01
139	  0.047655310	-5.528000E+00	  0.047655310	-2.407200E+01	  0.047655310	1.147410E+02	  0.047655310	-6.878400E+01
140	  0.047855709	-5.561000E+00	  0.047855709	-2.585900E+01	  0.047855709	1.096920E+02	  0.047855709	-6.985700E+01
141	  0.048056111	-5.591000E+00	  0.048056111	-2.762600E+01	  0.048056111	1.048990E+02	  0.048056111	-7.058100E+01
142	  0.048256513	-5.620000E+00	  0.048256513	-2.936700E+01	  0.048256513	1.003820E+02	  0.048256513	-7.101300E+01
143	  0.048456915	-5.648000E+00	  0.048456915	-3.112300E+01	  0.048456915	9.603300E+01	  0.048456915	-7.119800E+01
144	  0.048657313	-5.673000E+00	  0.048657313	-3.286300E+01	  0.048657313	9.193500E+01	  0.048657313	-7.120500E+01
145	  0.048857715	-5.701000E+00	  0.048857715	-3.461400E+01	  0.048857715	8.800700E+01	  0.048857715	-7.095700E+01
146	  0.049058117	-5.722000E+00	  0.049058117	-3.633000E+01	  0.049058117	8.435500E+01	  0.049058117	-7.063300E+01
147	  0.049258515	-5.748000E+00	  0.049258515	-3.802600E+01	  0.049258515	8.093000E+01	  0.049258515	-7.010100E+01
148	  0.049458917	-5.770000E+00	  0.049458917	-3.974600E+01	  0.049458917	7.763600E+01	  0.049458917	-6.948900E+01
149	  0.049659319	-5.794000E+00	  0.049659319	-4.142700E+01	  0.049659319	7.459000E+01	  0.049659319	-6.876600E+01
150	  0.049859721	-5.816000E+00	  0.049859721	-4.311400E+01	  0.049859721	7.169100E+01	  0.049859721	-6.797300E+01
151	  0.050060119	-5.838000E+00	  0.050060119	-4.480100E+01	  0.050060119	6.894600E+01	  0.050060119	-6.711500E+01
152	  0.050260521	-5.856000E+00	  0.050260521	-4.648400E+01	  0.050260521	6.634700E+01	  0.050260521	-6.623100E+01
153	  0.050460923	-5.872000E+00	  0.050460923	-4.817600E+01	  0.050460923	6.386800E+01	  0.050460923	-6.530000E+01
154	  0.050661322	-5.885000E+00	  0.050661322	-4.981700E+01	  0.050661322	6.157600E+01	  0.050661322	-6.439300E+01
155	  0.050861724	-5.897000E+00	  0.050861724	-5.145300E+01	  0.050861724	5.941100E+01	  0.050861724	-6.344700E+01
156	  0.051062126	-5.910000E+00	  0.051062126	-5.307900E+01	  0.051062126	5.737200E+01	  0.051062126	-6.246600E+01
157	  0.051262524	-5.923000E+00	  0.051262524	-5.465800E+01	  0.051262524	5.549000E+01	  0.051262524	-6.149600E+01
158	  0.051462926	-5.938000E+00	  0.051462926	-5.621000E+01	  0.051462926	5.374100E+01	  0.051462926	-6.050200E+01
159	  0.051663328	-5.946000E+00	  0.051663328	-5.776000E+01	  0.051663328	5.205500E+01	  0.051663328	-5.954800E+01
160	  0.051863730	-5.962000E+00	  0.051863730	-5.930800E+01	  0.051863730	5.048100E+01	  0.051863730	-5.852800E+01
161	  0.052064128	-5.979000E+00	  0.052064128	-6.087000E+01	  0.052064128	4.897400E+01	  0.052064128	-5.749100E+01
162	  0.052264530	-5.991000E+00	  0.052264530	-6.243100E+01	  0.052264530	4.752200E+01	  0.052264530	-5.648600E+01
163	  0.052464932	-6.008000E+00	  0.052464932	-6.399300E+01	  0.052464932	4.616200E+01	  0.052464932	-5.544300E+01
164	  0.052665330	-6.023000E+00	  0.052665330	-6.554400E+01	  0.052665330	4.486800E+01	  0.052665330	-5.442200E+01
165	  0.052865732	-6.034000E+00	  0.052865732	-6.711400E+01	  0.052865732	4.360400E+01	  0.052865732	-5.341800E+01
166	  0.053066134	-6.046000E+00	  0.053066134	-6.862800E+01	  0.053066134	4.244600E+01	  0.053066134	-5.244600E+01
167	  0.053266536	-6.053000E+00	  0.053266536	-7.021400E+01	  0.053266536	4.127300E+01	  0.053266536	-5.145300E+01
168	  0.053466935	-6.060000E+00	  0.053466935	-7.175300E+01	  0.053466935	4.018300E+01	  0.053466935	-5.049900E+01
169	  0.053667337	-6.063000E+00	  0.053667337	-7.327100E+01	  0.053667337	3.914600E+01	  0.053667337	-4.957300E+01
170	  0.053867739	-6.066000E+00	  0.053867739	-7.479600E+01	  0.053867739	3.814400E+01	  0.053867739	-4.865300E+01
171	  0.054068137	-6.070000E+00	  0.054068137	-7.630100E+01	  0.054068137	3.720500E+01	  0.054068137	-4.774300E+01
172	  0.054268539	-6.070000E+00	  0.054268539	-7.777600E+01	  0.054268539	3.631300E+01	  0.054268539	-4.686800E+01
173	  0.054468941	-6.076000E+00	  0.054468941	-7.922700E+01	  0.054468941	3.549100E+01	  0.054468941	-4.599400E+01
174	  0.054669339	-6.081000E+00	  0.054669339	-8.067500E+01	  0.054669339	3.470200E+01	  0.054669339	-4.513000E+01
175	  0.054869737	-6.086000E+00	  0.054869737	-8.210700E+01	  0.054869737	3.395300E+01	  0.054869737	-4.428300E+01
176	  0.055070139	-6.089000E+00	  0.055070139	-8.351600E+01	  0.055070139	3.324100E+01	  0.055070139	-4.346100E+01
177	  0.055270538	-6.094000E+00	  0.055270538	-8.491400E+01	  0.055270538	3.256900E+01	  0.055270538	-4.264600E+01
178	  0.055470940	-6.099000E+00	  0.055470940	-8.636100E+01	  0.055470940	3.189900E+01	  0.055470940	-4.181200E+01
179	  0.055671342	-6.101000E+00	  0.055671342	-8.777500E+01	  0.055671342	3.126100E+01	  0.055671342	-4.101200E+01
180	  0.055871744	-6.111000E+00	  0.055871744	-8.918100E+01	  0.055871744	3.068000E+01	  0.055871744	-4.020100E+01
181	  0.056072142	-6.114000E+00	  0.056072142	-9.058400E+01	  0.056072142	3.009800E+01	  0.056072142	-3.941800E+01
182	  0.056272544	-6.122000E+00	  0.056272544	-9.198000E+01	  0.056272544	2.956100E+01	  0.056272544	-3.863300E+01
183	  0.056472946	-6.124000E+00	  0.056472946	-9.339000E+01	  0.056472946	2.901500E+01	  0.056472946	-3.786500E+01
184	  0.056673344	-6.127000E+00	  0.056673344	-9.477600E+01	  0.056673344	2.850600E+01	  0.056673344	-3.711100E+01
185	  0.056873746	-6.127000E+00	  0.056873746	-9.616900E+01	  0.056873746	2.800000E+01	  0.056873746	-3.637000E+01
186	  0.057074148	-6.124000E+00	  0.057074148	-9.756200E+01	  0.057074148	2.750500E+01	  0.057074148	-3.564100E+01
187	  0.057274550	-6.119000E+00	  0.057274550	-9.893300E+01	  0.057274550	2.702500E+01	  0.057274550	-3.493400E+01
188	  0.057474948	-6.120000E+00	  0.057474948	-1.002710E+02	  0.057474948	2.659900E+01	  0.057474948	-3.423500E+01
189	  0.057675350	-6.122000E+00	  0.057675350	-1.016040E+02	  0.057675350	2.618900E+01	  0.057675350	-3.354500E+01
190	  0.057875752	-6.122000E+00	  0.057875752	-1.029210E+02	  0.057875752	2.578900E+01	  0.057875752	-3.287300E+01
191	  0.058076151	-6.119000E+00	  0.058076151	-1.042330E+02	  0.058076151	2.540100E+01	  0.058076151	-3.221200E+01
192	  0.058276553	-6.120000E+00	  0.058276553	-1.054810E+02	  0.058276553	2.505200E+01	  0.058276553	-3.158400E+01
193	  0.058476955	-6.124000E+00	  0.058476955	-1.067860E+02	  0.058476955	2.471000E+01	  0.058476955	-3.092700E+01
194	  0.058677353	-6.124000E+00	  0.058677353	-1.080730E+02	  0.058677353	2.437400E+01	  0.058677353	-3.028900E+01
195	  0.058877755	-6.125000E+00	  0.058877755	-1.093480E+02	  0.058877755	2.405500E+01	  0.058877755	-2.966100E+01
196	  0.059078157	-6.130000E+00	  0.059078157	-1.106350E+02	  0.059078157	2.375400E+01	  0.059078157	-2.902700E+01
197	  0.059278559	-6.133000E+00	  0.059278559	-1.119360E+02	  0.059278559	2.345700E+01	  0.059278559	-2.839300E+01
198	  0.059478957	-6.137000E+00	  0.059478957	-1.132210E+02	  0.059478957	2.317700E+01	  0.059478957	-2.777200E+01
199	  0.059679359	-6.139000E+00	  0.059679359	-1.144920E+02	  0.059679359	2.290200E+01	  0.059679359	-2.716400E+01
200	  0.059879761	-6.142000E+00	  0.059879761	-1.157600E+02	  0.059879761	2.264100E+01	  0.059879761	-2.656200E+01
201	  0.060080159	-6.139000E+00	  0.060080159	-1.170150E+02	  0.060080159	2.237200E+01	  0.060080159	-2.597800E+01
202	  0.060280561	-6.141000E+00	  0.060280561	-1.182840E+02	  0.060280561	2.212400E+01	  0.060280561	-2.538600E+01
203	  0.060480963	-6.140000E+00	  0.060480963	-1.195350E+02	  0.060480963	2.188000E+01	  0.060480963	-2.480900E+01
204	  0.060681365	-6.141000E+00	  0.060681365	-1.207980E+02	  0.060681365	2.164800E+01	  0.060681365	-2.422900E+01
205	  0.060881764	-6.137000E+00	  0.060881764	-1.220060E+02	  0.060881764	2.141900E+01	  0.060881764	-2.368300E+01
206	  0.061082166	-6.135000E+00	  0.061082166	-1.232270E+02	  0.061082166	2.120100E+01	  0.061082166	-2.313200E+01
207	  0.061282568	-6.136000E+00	  0.061282568	-1.244380E+02	  0.061282568	2.100000E+01	  0.061282568	-2.258700E+01
208	  0.061482966	-6.134000E+00	  0.061482966	-1.256220E+02	  0.061482966	2.079900E+01	  0.061482966	-2.206000E+01
209	  0.061683368	-6.133000E+00	  0.061683368	-1.268000E+02	  0.061683368	2.061100E+01	  0.061683368	-2.153800E+01
210	  0.061883770	-6.132000E+00	  0.061883770	-1.279560E+02	  0.061883770	2.043100E+01	  0.061883770	-2.102800E+01
211	  0.062084168	-6.132000E+00	  0.062084168	-1.291080E+02	  0.062084168	2.026300E+01	  0.062084168	-2.052100E+01
212	  0.062284570	-6.135000E+00	  0.062284570	-1.302880E+02	  0.062284570	2.010400E+01	  0.062284570	-2.000300E+01
213	  0.062484972	-6.129000E+00	  0.062484972	-1.313840E+02	  0.062484972	1.993400E+01	  0.062484972	-1.953200E+01
214	  0.062685370	-6.133000E+00	  0.062685370	-1.325720E+02	  0.062685370	1.978600E+01	  0.062685370	-1.901500E+01
215	  0.062885776	-6.134000E+00	  0.062885776	-1.337050E+02	  0.062885776	1.964400E+01	  0.062885776	-1.852600E+01
216	  0.063086174	-6.140000E+00	  0.063086174	-1.348630E+02	  0.063086174	1.951500E+01	  0.063086174	-1.802700E+01
217	  0.063286573	-6.140000E+00	  0.063286573	-1.360060E+02	  0.063286573	1.937800E+01	  0.063286573	-1.754000E+01
218	  0.063486971	-6.140000E+00	  0.063486971	-1.371760E+02	  0.063486971	1.924200E+01	  0.063486971	-1.704500E+01
219	  0.063687377	-6.141000E+00	  0.063687377	-1.383210E+02	  0.063687377	1.911600E+01	  0.063687377	-1.656100E+01
220	  0.063887775	-6.140000E+00	  0.063887775	-1.394540E+02	  0.063887775	1.899000E+01	  0.063887775	-1.608700E+01
221	  0.064088173	-6.140000E+00	  0.064088173	-1.406170E+02	  0.064088173	1.886700E+01	  0.064088173	-1.560200E+01
222	  0.064288579	-6.142000E+00	  0.064288579	-1.417620E+02	  0.064288579	1.875800E+01	  0.064288579	-1.512400E+01
223	  0.064488977	-6.143000E+00	  0.064488977	-1.428590E+02	  0.064488977	1.865300E+01	  0.064488977	-1.466900E+01
224	  0.064689375	-6.142000E+00	  0.064689375	-1.439520E+02	  0.064689375	1.854700E+01	  0.064689375	-1.421900E+01
225	  0.064889781	-6.142000E+00	  0.064889781	-1.450350E+02	  0.064889781	1.845200E+01	  0.064889781	-1.377400E+01
226	  0.065090179	-6.142000E+00	  0.065090179	-1.461190E+02	  0.065090179	1.835500E+01	  0.065090179	-1.333100E+01
227	  0.065290578	-6.146000E+00	  0.065290578	-1.472190E+02	  0.065290578	1.827500E+01	  0.065290578	-1.288000E+01
228	  0.065490983	-6.149000E+00	  0.065490983	-1.483060E+02	  0.065490983	1.819600E+01	  0.065490983	-1.243600E+01
229	  0.065691382	-6.147000E+00	  0.065691382	-1.493910E+02	  0.065691382	1.810500E+01	  0.065691382	-1.199800E+01
230	  0.065891780	-6.148000E+00	  0.065891780	-1.504870E+02	  0.065891780	1.802800E+01	  0.065891780	-1.155500E+01
231	  0.066092186	-6.158000E+00	  0.066092186	-1.515470E+02	  0.066092186	1.797700E+01	  0.066092186	-1.112500E+01
232	  0.066292584	-6.153000E+00	  0.066292584	-1.526270E+02	  0.066292584	1.789200E+01	  0.066292584	-1.069400E+01
233	  0.066492982	-6.155000E+00	  0.066492982	-1.536930E+02	  0.066492982	1.782700E+01	  0.066492982	-1.026700E+01
234	  0.066693388	-6.155000E+00	  0.066693388	-1.547440E+02	  0.066693388	1.776200E+01	  0.066693388	-9.847000E+00
235	  0.066893786	-6.161000E+00	  0.066893786	-1.557830E+02	  0.066893786	1.771500E+01	  0.066893786	-9.432000E+00
236	  0.067094192	-6.159000E+00	  0.067094192	-1.568740E+02	  0.067094192	1.764900E+01	  0.067094192	-9.000000E+00
237	  0.067294590	-6.167000E+00	  0.067294590	-1.579100E+02	  0.067294590	1.761200E+01	  0.067294590	-8.588000E+00
238	  0.067494988	-6.166000E+00	  0.067494988	-1.589160E+02	  0.067494988	1.755900E+01	  0.067494988	-8.191000E+00
239	  0.067695394	-6.166000E+00	  0.067695394	-1.599870E+02	  0.067695394	1.750500E+01	  0.067695394	-7.769000E+00
240	  0.067895792	-6.172000E+00	  0.067895792	-1.610160E+02	  0.067895792	1.747300E+01	  0.067895792	-7.363000E+00
241	  0.068096191	-6.175000E+00	  0.068096191	-1.620330E+02	  0.068096191	1.743800E+01	  0.068096191	-6.963000E+00
242	  0.068296596	-6.175000E+00	  0.068296596	-1.630480E+02	  0.068296596	1.739500E+01	  0.068296596	-6.566000E+00
243	  0.068496995	-6.177000E+00	  0.068496995	-1.640520E+02	  0.068496995	1.736300E+01	  0.068496995	-6.173000E+00
244	  0.068697393	-6.181000E+00	  0.068697393	-1.650670E+02	  0.068697393	1.733400E+01	  0.068697393	-5.776000E+00
245	  0.068897791	-6.181000E+00	  0.068897791	-1.660700E+02	  0.068897791	1.730100E+01	  0.068897791	-5.386000E+00
246	  0.069098189	-6.185000E+00	  0.069098189	-1.670490E+02	  0.069098189	1.728000E+01	  0.069098189	-5.004000E+00
247	  0.069298595	-6.190000E+00	  0.069298595	-1.680410E+02	  0.069298595	1.726400E+01	  0.069298595	-4.618000E+00
248	  0.069498993	-6.193000E+00	  0.069498993	-1.690600E+02	  0.069498993	1.724500E+01	  0.069498993	-4.222000E+00
249	  0.069699399	-6.199000E+00	  0.069699399	-1.700400E+02	  0.069699399	1.723600E+01	  0.069699399	-3.842000E+00
250	  0.069899797	-6.202000E+00	  0.069899797	-1.710100E+02	  0.069899797	1.722400E+01	  0.069899797	-3.466000E+00
251	  0.070100196	-6.212000E+00	  0.070100196	-1.719910E+02	  0.070100196	1.723100E+01	  0.070100196	-3.086000E+00
252	  0.070300601	-6.214000E+00	  0.070300601	-1.729830E+02	  0.070300601	1.721700E+01	  0.070300601	-2.703000E+00
253	  0.070501000	-6.218000E+00	  0.070501000	-1.739930E+02	  0.070501000	1.721100E+01	  0.070501000	-2.312000E+00
254	  0.070701398	-6.225000E+00	  0.070701398	-1.749270E+02	  0.070701398	1.721700E+01	  0.070701398	-1.952000E+00
255	  0.070901804	-6.229000E+00	  0.070901804	-1.759170E+02	  0.070901804	1.721900E+01	  0.070901804	-1.570000E+00
256	  0.071102202	-6.236000E+00	  0.071102202	-1.769270E+02	  0.071102202	1.722600E+01	  0.071102202	-1.181000E+00
257	  0.071302600	-6.246000E+00	  0.071302600	-1.778590E+02	  0.071302600	1.724700E+01	  0.071302600	-8.220000E-01
258	  0.071503006	-6.253000E+00	  0.071503006	-1.787910E+02	  0.071503006	1.726100E+01	  0.071503006	-4.640000E-01
259	  0.071703404	-6.257000E+00	  0.071703404	-1.797400E+02	  0.071703404	1.727000E+01	  0.071703404	-9.900000E-02
260	  0.071903802	-6.266000E+00	  0.071903802	1.792790E+02	  0.071903802	1.729300E+01	  0.071903802	2.760000E-01
261	  0.072104208	-6.272000E+00	  0.072104208	1.783380E+02	  0.072104208	1.731100E+01	  0.072104208	6.380000E-01
262	  0.072304606	-6.282000E+00	  0.072304606	1.773840E+02	  0.072304606	1.734100E+01	  0.072304606	1.004000E+00
263	  0.072505005	-6.287000E+00	  0.072505005	1.764560E+02	  0.072505005	1.736000E+01	  0.072505005	1.360000E+00
264	  0.072705410	-6.294000E+00	  0.072705410	1.755220E+02	  0.072705410	1.738700E+01	  0.072705410	1.718000E+00
265	  0.072905809	-6.296000E+00	  0.072905809	1.746030E+02	  0.072905809	1.740300E+01	  0.072905809	2.071000E+00
266	  0.073106214	-6.308000E+00	  0.073106214	1.736640E+02	  0.073106214	1.744500E+01	  0.073106214	2.431000E+00
267	  0.073306613	-6.312000E+00	  0.073306613	1.727560E+02	  0.073306613	1.747100E+01	  0.073306613	2.779000E+00
268	  0.073507011	-6.319000E+00	  0.073507011	1.718000E+02	  0.073507011	1.750500E+01	  0.073507011	3.146000E+00
269	  0.073707417	-6.327000E+00	  0.073707417	1.709050E+02	  0.073707417	1.754400E+01	  0.073707417	3.489000E+00
270	  0.073907815	-6.335000E+00	  0.073907815	1.699840E+02	  0.073907815	1.758500E+01	  0.073907815	3.842000E+00
271	  0.074108213	-6.344000E+00	  0.074108213	1.690900E+02	  0.074108213	1.762900E+01	  0.074108213	4.185000E+00
272	  0.074308619	-6.349000E+00	  0.074308619	1.681750E+02	  0.074308619	1.766700E+01	  0.074308619	4.537000E+00
273	  0.074509017	-6.355000E+00	  0.074509017	1.672670E+02	  0.074509017	1.770900E+01	  0.074509017	4.886000E+00
274	  0.074709415	-6.365000E+00	  0.074709415	1.663790E+02	  0.074709415	1.776300E+01	  0.074709415	5.226000E+00
275	  0.074909821	-6.376000E+00	  0.074909821	1.654940E+02	  0.074909821	1.781800E+01	  0.074909821	5.566000E+00
276	  0.075110219	-6.384000E+00	  0.075110219	1.646190E+02	  0.075110219	1.787100E+01	  0.075110219	5.902000E+00
277	  0.075310618	-6.395000E+00	  0.075310618	1.637700E+02	  0.075310618	1.793000E+01	  0.075310618	6.228000E+00
278	  0.075511023	-6.405000E+00	  0.075511023	1.629000E+02	  0.075511023	1.799200E+01	  0.075511023	6.562000E+00
279	  0.075711422	-6.418000E+00	  0.075711422	1.620170E+02	  0.075711422	1.806200E+01	  0.075711422	6.901000E+00
280	  0.075911827	-6.428000E+00	  0.075911827	1.611240E+02	  0.075911827	1.812700E+01	  0.075911827	7.244000E+00
281	  0.076112226	-6.438000E+00	  0.076112226	1.602680E+02	  0.076112226	1.819300E+01	  0.076112226	7.573000E+00
282	  0.076312624	-6.451000E+00	  0.076312624	1.593680E+02	  0.076312624	1.827200E+01	  0.076312624	7.919000E+00
283	  0.076513030	-6.462000E+00	  0.076513030	1.585060E+02	  0.076513030	1.834300E+01	  0.076513030	8.251000E+00
284	  0.076713428	-6.472000E+00	  0.076713428	1.576120E+02	  0.076713428	1.841800E+01	  0.076713428	8.596000E+00
285	  0.076913826	-6.482000E+00	  0.076913826	1.567610E+02	  0.076913826	1.849300E+01	  0.076913826	8.924000E+00
286	  0.077114232	-6.494000E+00	  0.077114232	1.559200E+02	  0.077114232	1.857300E+01	  0.077114232	9.248000E+00
287	  0.077314630	-6.502000E+00	  0.077314630	1.551020E+02	  0.077314630	1.864400E+01	  0.077314630	9.565000E+00
288	  0.077515028	-6.514000E+00	  0.077515028	1.542070E+02	  0.077515028	1.873100E+01	  0.077515028	9.911000E+00
289	  0.077715434	-6.527000E+00	  0.077715434	1.533560E+02	  0.077715434	1.882100E+01	  0.077715434	1.023900E+01
290	  0.077915832	-6.543000E+00	  0.077915832	1.525090E+02	  0.077915832	1.892100E+01	  0.077915832	1.056500E+01
291	  0.078116231	-6.559000E+00	  0.078116231	1.516860E+02	  0.078116231	1.901900E+01	  0.078116231	1.088100E+01
292	  0.078316636	-6.573000E+00	  0.078316636	1.507900E+02	  0.078316636	1.912300E+01	  0.078316636	1.122700E+01
293	  0.078517035	-6.589000E+00	  0.078517035	1.499570E+02	  0.078517035	1.922600E+01	  0.078517035	1.154800E+01
294	  0.078717433	-6.602000E+00	  0.078717433	1.491390E+02	  0.078717433	1.932600E+01	  0.078717433	1.186500E+01
295	  0.078917839	-6.617000E+00	  0.078917839	1.482970E+02	  0.078917839	1.943300E+01	  0.078917839	1.219100E+01
296	  0.079118237	-6.630000E+00	  0.079118237	1.474570E+02	  0.079118237	1.953800E+01	  0.079118237	1.251700E+01
297	  0.079318643	-6.645000E+00	  0.079318643	1.466140E+02	  0.079318643	1.965200E+01	  0.079318643	1.284300E+01
298	  0.079519041	-6.664000E+00	  0.079519041	1.458220E+02	  0.079519041	1.977100E+01	  0.079519041	1.314700E+01
299	  0.079719439	-6.675000E+00	  0.079719439	1.449980E+02	  0.079719439	1.987700E+01	  0.079719439	1.346900E+01
300	  0.079919845	-6.692000E+00	  0.079919845	1.441400E+02	  0.079919845	2.000300E+01	  0.079919845	1.380100E+01
301	  0.080120243	-6.705000E+00	  0.080120243	1.433180E+02	  0.080120243	2.011700E+01	  0.080120243	1.412100E+01
302	  0.080320641	-6.722000E+00	  0.080320641	1.425190E+02	  0.080320641	2.024300E+01	  0.080320641	1.443000E+01
303	  0.080521047	-6.737000E+00	  0.080521047	1.416970E+02	  0.080521047	2.036600E+01	  0.080521047	1.475000E+01
304	  0.080721445	-6.756000E+00	  0.080721445	1.408970E+02	  0.080721445	2.050300E+01	  0.080721445	1.505900E+01
305	  0.080921844	-6.770000E+00	  0.080921844	1.401080E+02	  0.080921844	2.062500E+01	  0.080921844	1.536700E+01
306	  0.081122249	-6.787000E+00	  0.081122249	1.393250E+02	  0.081122249	2.076000E+01	  0.081122249	1.566900E+01
307	  0.081322648	-6.806000E+00	  0.081322648	1.385120E+02	  0.081322648	2.090400E+01	  0.081322648	1.598400E+01
308	  0.081523046	-6.824000E+00	  0.081523046	1.377480E+02	  0.081523046	2.104100E+01	  0.081523046	1.628000E+01
309	  0.081723452	-6.843000E+00	  0.081723452	1.369620E+02	  0.081723452	2.118700E+01	  0.081723452	1.658300E+01
310	  0.081923850	-6.862000E+00	  0.081923850	1.362320E+02	  0.081923850	2.132900E+01	  0.081923850	1.686400E+01
311	  0.082124248	-6.887000E+00	  0.082124248	1.354860E+02	  0.082124248	2.149000E+01	  0.082124248	1.714700E+01
312	  0.082324654	-6.910000E+00	  0.082324654	1.347290E+02	  0.082324654	2.165100E+01	  0.082324654	1.743500E+01
313	  0.082525052	-6.929000E+00	  0.082525052	1.339940E+02	  0.082525052	2.180000E+01	  0.082525052	1.771900E+01
314	  0.082725458	-6.952000E+00	  0.082725458	1.332240E+02	  0.082725458	2.196900E+01	  0.082725458	1.801200E+01
315	  0.082925856	-6.977000E+00	  0.082925856	1.324540E+02	  0.082925856	2.214200E+01	  0.082925856	1.830400E+01
316	  0.083126254	-6.998000E+00	  0.083126254	1.317000E+02	  0.083126254	2.230700E+01	  0.083126254	1.859300E+01
317	  0.083326660	-7.023000E+00	  0.083326660	1.309310E+02	  0.083326660	2.248900E+01	  0.083326660	1.888400E+01
318	  0.083527058	-7.044000E+00	  0.083527058	1.301940E+02	  0.083527058	2.265600E+01	  0.083527058	1.916600E+01
319	  0.083727457	-7.067000E+00	  0.083727457	1.294270E+02	  0.083727457	2.283500E+01	  0.083727457	1.945800E+01
320	  0.083927862	-7.093000E+00	  0.083927862	1.287110E+02	  0.083927862	2.301800E+01	  0.083927862	1.972500E+01
321	  0.084128261	-7.111000E+00	  0.084128261	1.279640E+02	  0.084128261	2.318600E+01	  0.084128261	2.001500E+01
322	  0.084328659	-7.130000E+00	  0.084328659	1.272890E+02	  0.084328659	2.335000E+01	  0.084328659	2.027200E+01
323	  0.084529065	-7.158000E+00	  0.084529065	1.265570E+02	  0.084529065	2.354700E+01	  0.084529065	2.054400E+01
324	  0.084729463	-7.180000E+00	  0.084729463	1.257950E+02	  0.084729463	2.373900E+01	  0.084729463	2.083400E+01
325	  0.084929861	-7.204000E+00	  0.084929861	1.251130E+02	  0.084929861	2.392100E+01	  0.084929861	2.109000E+01
326	  0.085130267	-7.225000E+00	  0.085130267	1.243820E+02	  0.085130267	2.410900E+01	  0.085130267	2.136700E+01
327	  0.085330658	-7.251000E+00	  0.085330658	1.237090E+02	  0.085330658	2.430200E+01	  0.085330658	2.161600E+01
328	  0.085531056	-7.276000E+00	  0.085531056	1.229830E+02	  0.085531056	2.450500E+01	  0.085531056	2.188700E+01
329	  0.085731462	-7.301000E+00	  0.085731462	1.223030E+02	  0.085731462	2.470200E+01	  0.085731462	2.213700E+01
330	  0.085931860	-7.326000E+00	  0.085931860	1.216150E+02	  0.085931860	2.490400E+01	  0.085931860	2.239100E+01
331	  0.086132258	-7.349000E+00	  0.086132258	1.209390E+02	  0.086132258	2.509900E+01	  0.086132258	2.264300E+01
332	  0.086332664	-7.380000E+00	  0.086332664	1.202200E+02	  0.086332664	2.532900E+01	  0.086332664	2.290100E+01
333	  0.086533062	-7.399000E+00	  0.086533062	1.195150E+02	  0.086533062	2.552600E+01	  0.086533062	2.316800E+01
334	  0.086733460	-7.422000E+00	  0.086733460	1.188420E+02	  0.086733460	2.572800E+01	  0.086733460	2.341700E+01
335	  0.086933866	-7.445000E+00	  0.086933866	1.181520E+02	  0.086933866	2.593800E+01	  0.086933866	2.367200E+01
336	  0.087134264	-7.465000E+00	  0.087134264	1.174380E+02	  0.087134264	2.614900E+01	  0.087134264	2.394100E+01
337	  0.087334670	-7.491000E+00	  0.087334670	1.168060E+02	  0.087334670	2.635700E+01	  0.087334670	2.416700E+01
338	  0.087535068	-7.515000E+00	  0.087535068	1.161430E+02	  0.087535068	2.657500E+01	  0.087535068	2.440700E+01
339	  0.087735467	-7.541000E+00	  0.087735467	1.154910E+02	  0.087735467	2.679300E+01	  0.087735467	2.464100E+01
340	  0.087935872	-7.559000E+00	  0.087935872	1.148550E+02	  0.087935872	2.699300E+01	  0.087935872	2.487800E+01
341	  0.088136271	-7.584000E+00	  0.088136271	1.142010E+02	  0.088136271	2.721600E+01	  0.088136271	2.511100E+01
342	  0.088336669	-7.607000E+00	  0.088336669	1.135580E+02	  0.088336669	2.743200E+01	  0.088336669	2.534400E+01
343	  0.088537075	-7.629000E+00	  0.088537075	1.129470E+02	  0.088537075	2.764200E+01	  0.088537075	2.556400E+01
344	  0.088737473	-7.658000E+00	  0.088737473	1.123400E+02	  0.088737473	2.787300E+01	  0.088737473	2.576900E+01
345	  0.088937871	-7.683000E+00	  0.088937871	1.117310E+02	  0.088937871	2.809500E+01	  0.088937871	2.598100E+01
346	  0.089138277	-7.710000E+00	  0.089138277	1.111440E+02	  0.089138277	2.832100E+01	  0.089138277	2.617900E+01
347	  0.089338675	-7.737000E+00	  0.089338675	1.105150E+02	  0.089338675	2.855800E+01	  0.089338675	2.639500E+01
348	  0.089539073	-7.771000E+00	  0.089539073	1.099060E+02	  0.089539073	2.881400E+01	  0.089539073	2.658800E+01
349	  0.089739479	-7.797000E+00	  0.089739479	1.092950E+02	  0.089739479	2.904900E+01	  0.089739479	2.679500E+01
350	  0.089939877	-7.826000E+00	  0.089939877	1.086860E+02	  0.089939877	2.929500E+01	  0.089939877	2.699400E+01
351	  0.090140276	-7.849000E+00	  0.090140276	1.080970E+02	  0.090140276	2.952200E+01	  0.090140276	2.719500E+01
352	  0.090340681	-7.881000E+00	  0.090340681	1.074980E+02	  0.090340681	2.978000E+01	  0.090340681	2.738300E+01
353	  0.090541080	-7.903000E+00	  0.090541080	1.068900E+02	  0.090541080	3.001300E+01	  0.090541080	2.759200E+01
354	  0.090741485	-7.939000E+00	  0.090741485	1.062750E+02	  0.090741485	3.028900E+01	  0.090741485	2.777700E+01
355	  0.090941884	-7.965000E+00	  0.090941884	1.056900E+02	  0.090941884	3.053200E+01	  0.090941884	2.796600E+01
356	  0.091142282	-7.992000E+00	  0.091142282	1.051220E+02	  0.091142282	3.077500E+01	  0.091142282	2.814600E+01
357	  0.091342688	-8.016000E+00	  0.091342688	1.045600E+02	  0.091342688	3.101300E+01	  0.091342688	2.832600E+01
358	  0.091543086	-8.043000E+00	  0.091543086	1.039840E+02	  0.091543086	3.126200E+01	  0.091543086	2.850700E+01
359	  0.091743484	-8.068000E+00	  0.091743484	1.034360E+02	  0.091743484	3.150200E+01	  0.091743484	2.867800E+01
360	  0.091943890	-8.093000E+00	  0.091943890	1.028660E+02	  0.091943890	3.174900E+01	  0.091943890	2.885800E+01
361	  0.092144288	-8.122000E+00	  0.092144288	1.023050E+02	  0.092144288	3.200700E+01	  0.092144288	2.902300E+01
362	  0.092344686	-8.148000E+00	  0.092344686	1.017830E+02	  0.092344686	3.224800E+01	  0.092344686	2.917700E+01
363	  0.092545092	-8.181000E+00	  0.092545092	1.012630E+02	  0.092545092	3.250600E+01	  0.092545092	2.931600E+01
364	  0.092745490	-8.206000E+00	  0.092745490	1.007300E+02	  0.092745490	3.275200E+01	  0.092745490	2.947400E+01
365	  0.092945889	-8.235000E+00	  0.092945889	1.002320E+02	  0.092945889	3.299700E+01	  0.092945889	2.960800E+01
366	  0.093146294	-8.260000E+00	  0.093146294	9.966800E+01	  0.093146294	3.325600E+01	  0.093146294	2.977700E+01
367	  0.093346693	-8.290000E+00	  0.093346693	9.920300E+01	  0.093346693	3.349600E+01	  0.093346693	2.989300E+01
368	  0.093547091	-8.310000E+00	  0.093547091	9.865600E+01	  0.093547091	3.374000E+01	  0.093547091	3.006300E+01
369	  0.093747497	-8.338000E+00	  0.093747497	9.812600E+01	  0.093747497	3.400200E+01	  0.093747497	3.020600E+01
370	  0.093947895	-8.359000E+00	  0.093947895	9.761200E+01	  0.093947895	3.424200E+01	  0.093947895	3.035900E+01
371	  0.094148301	-8.389000E+00	  0.094148301	9.712600E+01	  0.094148301	3.449900E+01	  0.094148301	3.047500E+01
372	  0.094348699	-8.409000E+00	  0.094348699	9.664400E+01	  0.094348699	3.472600E+01	  0.094348699	3.061600E+01
373	  0.094549097	-8.431000E+00	  0.094549097	9.619500E+01	  0.094549097	3.495000E+01	  0.094549097	3.073700E+01
374	  0.094749503	-8.454000E+00	  0.094749503	9.569100E+01	  0.094749503	3.520000E+01	  0.094749503	3.087400E+01
375	  0.094949901	-8.470000E+00	  0.094949901	9.524900E+01	  0.094949901	3.541000E+01	  0.094949901	3.100400E+01
376	  0.095150299	-8.494000E+00	  0.095150299	9.475800E+01	  0.095150299	3.566100E+01	  0.095150299	3.113100E+01
377	  0.095350705	-8.515000E+00	  0.095350705	9.430800E+01	  0.095350705	3.588900E+01	  0.095350705	3.124900E+01
378	  0.095551103	-8.537000E+00	  0.095551103	9.388400E+01	  0.095551103	3.611000E+01	  0.095551103	3.135500E+01
379	  0.095751502	-8.556000E+00	  0.095751502	9.345400E+01	  0.095751502	3.632800E+01	  0.095751502	3.146800E+01
380	  0.095951907	-8.575000E+00	  0.095951907	9.304600E+01	  0.095951907	3.653900E+01	  0.095951907	3.157200E+01
381	  0.096152306	-8.595000E+00	  0.096152306	9.258500E+01	  0.096152306	3.677400E+01	  0.096152306	3.169300E+01
382	  0.096352704	-8.616000E+00	  0.096352704	9.216600E+01	  0.096352704	3.699900E+01	  0.096352704	3.179200E+01
383	  0.096553110	-8.633000E+00	  0.096553110	9.174300E+01	  0.096553110	3.721500E+01	  0.096553110	3.190400E+01
384	  0.096753508	-8.648000E+00	  0.096753508	9.132700E+01	  0.096753508	3.742500E+01	  0.096753508	3.201700E+01
385	  0.096953906	-8.664000E+00	  0.096953906	9.091100E+01	  0.096953906	3.763800E+01	  0.096953906	3.212800E+01
386	  0.097154312	-8.682000E+00	  0.097154312	9.045700E+01	  0.097154312	3.787400E+01	  0.097154312	3.224500E+01
387	  0.097354710	-8.700000E+00	  0.097354710	9.007200E+01	  0.097354710	3.808200E+01	  0.097354710	3.233500E+01
388	  0.097555116	-8.715000E+00	  0.097555116	8.964400E+01	  0.097555116	3.830300E+01	  0.097555116	3.244900E+01
389	  0.097755514	-8.731000E+00	  0.097755514	8.923300E+01	  0.097755514	3.852100E+01	  0.097755514	3.255200E+01
390	  0.097955912	-8.734000E+00	  0.097955912	8.878900E+01	  0.097955912	3.872500E+01	  0.097955912	3.270200E+01
391	  0.098156318	-8.741000E+00	  0.098156318	8.839000E+01	  0.098156318	3.891900E+01	  0.098156318	3.282500E+01
392	  0.098356716	-8.750000E+00	  0.098356716	8.797700E+01	  0.098356716	3.912400E+01	  0.098356716	3.294800E+01
393	  0.098557115	-8.759000E+00	  0.098557115	8.757200E+01	  0.098557115	3.932900E+01	  0.098557115	3.306600E+01
394	  0.098757520	-8.760000E+00	  0.098757520	8.718900E+01	  0.098757520	3.950600E+01	  0.098757520	3.319900E+01
395	  0.098957919	-8.764000E+00	  0.098957919	8.677500E+01	  0.098957919	3.970400E+01	  0.098957919	3.333600E+01
396	  0.099158317	-8.772000E+00	  0.099158317	8.637000E+01	  0.099158317	3.991200E+01	  0.099158317	3.345400E+01
397	  0.099358723	-8.775000E+00	  0.099358723	8.597200E+01	  0.099358723	4.010400E+01	  0.099358723	3.358600E+01
398	  0.099559121	-8.781000E+00	  0.099559121	8.558000E+01	  0.099559121	4.030500E+01	  0.099559121	3.370400E+01
399	  0.099759519	-8.779000E+00	  0.099759519	8.517900E+01	  0.099759519	4.049100E+01	  0.099759519	3.385100E+01
400	  0.099959925	-8.777000E+00	  0.099959925	8.478900E+01	  0.099959925	4.067400E+01	  0.099959925	3.399400E+01
401	  0.100160323	-8.771000E+00	  0.100160323	8.436600E+01	  0.100160323	4.086600E+01	  0.100160323	3.416000E+01
402	  0.100360721	-8.766000E+00	  0.100360721	8.397900E+01	  0.100360721	4.104200E+01	  0.100360721	3.431200E+01
403	  0.100561127	-8.772000E+00	  0.100561127	8.358300E+01	  0.100561127	4.125300E+01	  0.100561127	3.442900E+01
404	  0.100761525	-8.768000E+00	  0.100761525	8.317700E+01	  0.100761525	4.144500E+01	  0.100761525	3.458400E+01
405	  0.100961931	-8.763000E+00	  0.100961931	8.272800E+01	  0.100961931	4.165900E+01	  0.100961931	3.475500E+01
406	  0.101162329	-8.755000E+00	  0.101162329	8.232800E+01	  0.101162329	4.184600E+01	  0.101162329	3.491800E+01
407	  0.101362728	-8.749000E+00	  0.101362728	8.189700E+01	  0.101362728	4.205200E+01	  0.101362728	3.508800E+01
408	  0.101563133	-8.743000E+00	  0.101563133	8.151100E+01	  0.101563133	4.223800E+01	  0.101563133	3.523900E+01
409	  0.101763532	-8.738000E+00	  0.101763532	8.106000E+01	  0.101763532	4.246200E+01	  0.101763532	3.541000E+01
410	  0.101963930	-8.729000E+00	  0.101963930	8.070400E+01	  0.101963930	4.263000E+01	  0.101963930	3.556200E+01
411	  0.102164336	-8.712000E+00	  0.102164336	8.020900E+01	  0.102164336	4.285500E+01	  0.102164336	3.579100E+01
412	  0.102364734	-8.707000E+00	  0.102364734	7.976000E+01	  0.102364734	4.308600E+01	  0.102364734	3.596000E+01
413	  0.102565132	-8.696000E+00	  0.102565132	7.934200E+01	  0.102565132	4.328700E+01	  0.102565132	3.614300E+01
414	  0.102765530	-8.694000E+00	  0.102765530	7.893400E+01	  0.102765530	4.350700E+01	  0.102765530	3.628600E+01
415	  0.102965929	-8.666000E+00	  0.102965929	7.845700E+01	  0.102965929	4.371100E+01	  0.102965929	3.654700E+01
416	  0.103166327	-8.660000E+00	  0.103166327	7.798200E+01	  0.103166327	4.396300E+01	  0.103166327	3.673000E+01
417	  0.103366733	-8.644000E+00	  0.103366733	7.756800E+01	  0.103366733	4.416100E+01	  0.103366733	3.693000E+01
418	  0.103567131	-8.646000E+00	  0.103567131	7.707500E+01	  0.103567131	4.444900E+01	  0.103567131	3.708400E+01
419	  0.103767529	-8.617000E+00	  0.103767529	7.660300E+01	  0.103767529	4.466000E+01	  0.103767529	3.735000E+01
420	  0.103967935	-8.606000E+00	  0.103967935	7.609000E+01	  0.103967935	4.493500E+01	  0.103967935	3.756400E+01
421	  0.104168333	-8.593000E+00	  0.104168333	7.561700E+01	  0.104168333	4.518600E+01	  0.104168333	3.777200E+01
422	  0.104368731	-8.584000E+00	  0.104368731	7.509500E+01	  0.104368731	4.548100E+01	  0.104368731	3.797600E+01
423	  0.104569137	-8.568000E+00	  0.104569137	7.454400E+01	  0.104569137	4.578000E+01	  0.104569137	3.822200E+01
424	  0.104769535	-8.552000E+00	  0.104769535	7.404400E+01	  0.104769535	4.605400E+01	  0.104769535	3.844700E+01
425	  0.104969934	-8.538000E+00	  0.104969934	7.351000E+01	  0.104969934	4.635500E+01	  0.104969934	3.868000E+01
426	  0.105170339	-8.520000E+00	  0.105170339	7.294700E+01	  0.105170339	4.667300E+01	  0.105170339	3.893400E+01
427	  0.105370738	-8.504000E+00	  0.105370738	7.243500E+01	  0.105370738	4.696600E+01	  0.105370738	3.916500E+01
428	  0.105571143	-8.484000E+00	  0.105571143	7.185200E+01	  0.105571143	4.730000E+01	  0.105571143	3.943600E+01
429	  0.105771542	-8.465000E+00	  0.105771542	7.129900E+01	  0.105771542	4.762300E+01	  0.105771542	3.969300E+01
430	  0.105971940	-8.446000E+00	  0.105971940	7.075900E+01	  0.105971940	4.794300E+01	  0.105971940	3.994500E+01
431	  0.106172346	-8.431000E+00	  0.106172346	7.022300E+01	  0.106172346	4.827300E+01	  0.106172346	4.017900E+01
432	  0.106372744	-8.412000E+00	  0.106372744	6.964800E+01	  0.106372744	4.862400E+01	  0.106372744	4.044500E+01
433	  0.106573142	-8.392000E+00	  0.106573142	6.906800E+01	  0.106573142	4.898600E+01	  0.106573142	4.071300E+01
434	  0.106773548	-8.368000E+00	  0.106773548	6.845400E+01	  0.106773548	4.936800E+01	  0.106773548	4.101100E+01
435	  0.106973946	-8.352000E+00	  0.106973946	6.787400E+01	  0.106973946	4.974800E+01	  0.106973946	4.126500E+01
436	  0.107174344	-8.334000E+00	  0.107174344	6.727200E+01	  0.107174344	5.014600E+01	  0.107174344	4.153200E+01
437	  0.107374750	-8.319000E+00	  0.107374750	6.667000E+01	  0.107374750	5.055900E+01	  0.107374750	4.178000E+01
438	  0.107575148	-8.297000E+00	  0.107575148	6.608200E+01	  0.107575148	5.095300E+01	  0.107575148	4.206300E+01
439	  0.107775547	-8.280000E+00	  0.107775547	6.544700E+01	  0.107775547	5.139900E+01	  0.107775547	4.233200E+01
440	  0.107975952	-8.266000E+00	  0.107975952	6.487500E+01	  0.107975952	5.181000E+01	  0.107975952	4.256300E+01
441	  0.108176351	-8.254000E+00	  0.108176351	6.424900E+01	  0.108176351	5.227300E+01	  0.108176351	4.280300E+01
442	  0.108376749	-8.232000E+00	  0.108376749	6.359900E+01	  0.108376749	5.274400E+01	  0.108376749	4.309900E+01
443	  0.108577155	-8.216000E+00	  0.108577155	6.296400E+01	  0.108577155	5.322400E+01	  0.108577155	4.335300E+01
444	  0.108777553	-8.201000E+00	  0.108777553	6.230400E+01	  0.108777553	5.373300E+01	  0.108777553	4.361000E+01
445	  0.108977959	-8.182000E+00	  0.108977959	6.164700E+01	  0.108977959	5.424100E+01	  0.108977959	4.388800E+01
446	  0.109178357	-8.171000E+00	  0.109178357	6.098000E+01	  0.109178357	5.478100E+01	  0.109178357	4.411900E+01
447	  0.109378755	-8.157000E+00	  0.109378755	6.025100E+01	  0.109378755	5.537900E+01	  0.109378755	4.437500E+01
448	  0.109579161	-8.142000E+00	  0.109579161	5.956300E+01	  0.109579161	5.594900E+01	  0.109579161	4.463000E+01
449	  0.109779559	-8.123000E+00	  0.109779559	5.890500E+01	  0.109779559	5.649800E+01	  0.109779559	4.489400E+01
450	  0.109979957	-8.120000E+00	  0.109979957	5.819000E+01	  0.109979957	5.713200E+01	  0.109979957	4.507100E+01
451	  0.110180363	-8.101000E+00	  0.110180363	5.744400E+01	  0.110180363	5.778100E+01	  0.110180363	4.534800E+01
452	  0.110380761	-8.101000E+00	  0.110380761	5.674700E+01	  0.110380761	5.842400E+01	  0.110380761	4.549000E+01
453	  0.110581160	-8.086000E+00	  0.110581160	5.597200E+01	  0.110581160	5.912800E+01	  0.110581160	4.573900E+01
454	  0.110781565	-8.078000E+00	  0.110781565	5.524500E+01	  0.110781565	5.981000E+01	  0.110781565	4.592500E+01
455	  0.110981964	-8.074000E+00	  0.110981964	5.447500E+01	  0.110981964	6.055000E+01	  0.110981964	4.608300E+01
456	  0.111182362	-8.063000E+00	  0.111182362	5.372400E+01	  0.111182362	6.127600E+01	  0.111182362	4.627600E+01
457	  0.111382768	-8.057000E+00	  0.111382768	5.289200E+01	  0.111382768	6.210100E+01	  0.111382768	4.643300E+01
458	  0.111583166	-8.049000E+00	  0.111583166	5.212000E+01	  0.111583166	6.287700E+01	  0.111583166	4.659200E+01
459	  0.111783572	-8.048000E+00	  0.111783572	5.129900E+01	  0.111783572	6.372200E+01	  0.111783572	4.669400E+01
460	  0.111983970	-8.039000E+00	  0.111983970	5.046600E+01	  0.111983970	6.458900E+01	  0.111983970	4.684200E+01
461	  0.112184368	-8.040000E+00	  0.112184368	4.967800E+01	  0.112184368	6.542800E+01	  0.112184368	4.689700E+01
462	  0.112384774	-8.040000E+00	  0.112384774	4.881700E+01	  0.112384774	6.635700E+01	  0.112384774	4.695400E+01
463	  0.112585172	-8.034000E+00	  0.112585172	4.801300E+01	  0.112585172	6.723600E+01	  0.112585172	4.703100E+01
464	  0.112785570	-8.035000E+00	  0.112785570	4.716600E+01	  0.112785570	6.817800E+01	  0.112785570	4.704200E+01
465	  0.112985976	-8.034000E+00	  0.112985976	4.629400E+01	  0.112985976	6.916100E+01	  0.112985976	4.704600E+01
466	  0.113186374	-8.039000E+00	  0.113186374	4.546900E+01	  0.113186374	7.010300E+01	  0.113186374	4.699200E+01
467	  0.113386773	-8.039000E+00	  0.113386773	4.456000E+01	  0.113386773	7.115600E+01	  0.113386773	4.694200E+01
468	  0.113587178	-8.041000E+00	  0.113587178	4.370300E+01	  0.113587178	7.216100E+01	  0.113587178	4.686700E+01
469	  0.113787577	-8.050000E+00	  0.113787577	4.284100E+01	  0.113787577	7.317800E+01	  0.113787577	4.670700E+01
470	  0.113987975	-8.058000E+00	  0.113987975	4.193500E+01	  0.113987975	7.425700E+01	  0.113987975	4.651900E+01
471	  0.114188381	-8.070000E+00	  0.114188381	4.104500E+01	  0.114188381	7.532300E+01	  0.114188381	4.628100E+01
472	  0.114388779	-8.083000E+00	  0.114388779	4.017800E+01	  0.114388779	7.636500E+01	  0.114388779	4.600700E+01
473	  0.114589177	-8.092000E+00	  0.114589177	3.926000E+01	  0.114589177	7.748200E+01	  0.114589177	4.572200E+01
474	  0.114789583	-8.108000E+00	  0.114789583	3.832600E+01	  0.114789583	7.861200E+01	  0.114789583	4.534500E+01
475	  0.114989981	-8.122000E+00	  0.114989981	3.740600E+01	  0.114989981	7.973400E+01	  0.114989981	4.495300E+01
476	  0.115190387	-8.144000E+00	  0.115190387	3.646800E+01	  0.115190387	8.085900E+01	  0.115190387	4.445300E+01
477	  0.115390785	-8.160000E+00	  0.115390785	3.554500E+01	  0.115390785	8.197800E+01	  0.115390785	4.396800E+01
478	  0.115591183	-8.177000E+00	  0.115591183	3.455000E+01	  0.115591183	8.318500E+01	  0.115591183	4.341100E+01
479	  0.115791589	-8.204000E+00	  0.115791589	3.361000E+01	  0.115791589	8.428500E+01	  0.115791589	4.274600E+01
480	  0.115991987	-8.233000E+00	  0.115991987	3.260800E+01	  0.115991987	8.544400E+01	  0.115991987	4.199500E+01
481	  0.116192386	-8.258000E+00	  0.116192386	3.164000E+01	  0.116192386	8.656400E+01	  0.116192386	4.125500E+01
482	  0.116392791	-8.287000E+00	  0.116392791	3.059000E+01	  0.116392791	8.775500E+01	  0.116392791	4.039200E+01
483	  0.116593190	-8.319000E+00	  0.116593190	2.958600E+01	  0.116593190	8.885400E+01	  0.116593190	3.948200E+01
484	  0.116793588	-8.354000E+00	  0.116793588	2.852800E+01	  0.116793588	8.998100E+01	  0.116793588	3.846700E+01
485	  0.116993994	-8.393000E+00	  0.116993994	2.754300E+01	  0.116993994	9.097300E+01	  0.116993994	3.743100E+01
486	  0.117194392	-8.434000E+00	  0.117194392	2.650300E+01	  0.117194392	9.198100E+01	  0.117194392	3.628900E+01
487	  0.117394790	-8.472000E+00	  0.117394790	2.545700E+01	  0.117394790	9.297700E+01	  0.117394790	3.512900E+01
488	  0.117595196	-8.512000E+00	  0.117595196	2.435300E+01	  0.117595196	9.399200E+01	  0.117595196	3.386200E+01
489	  0.117795594	-8.559000E+00	  0.117795594	2.327100E+01	  0.117795594	9.488800E+01	  0.117795594	3.252000E+01
490	  0.117995992	-8.598000E+00	  0.117995992	2.216400E+01	  0.117995992	9.580800E+01	  0.117995992	3.116500E+01
491	  0.118196398	-8.653000E+00	  0.118196398	2.103800E+01	  0.118196398	9.659100E+01	  0.118196398	2.965200E+01
492	  0.118396796	-8.706000E+00	  0.118396796	1.993000E+01	  0.118396796	9.730300E+01	  0.118396796	2.813700E+01
493	  0.118597202	-8.756000E+00	  0.118597202	1.879200E+01	  0.118597202	9.800200E+01	  0.118597202	2.657800E+01
494	  0.118797600	-8.816000E+00	  0.118797600	1.763400E+01	  0.118797600	9.857800E+01	  0.118797600	2.491700E+01
495	  0.118997999	-8.878000E+00	  0.118997999	1.649900E+01	  0.118997999	9.904100E+01	  0.118997999	2.325100E+01
496	  0.119198404	-8.944000E+00	  0.119198404	1.529100E+01	  0.119198404	9.946000E+01	  0.119198404	2.147100E+01
497	  0.119398803	-9.009000E+00	  0.119398803	1.410000E+01	  0.119398803	9.979000E+01	  0.119398803	1.971000E+01
498	  0.119599201	-9.076000E+00	  0.119599201	1.289500E+01	  0.119599201	1.000250E+02	  0.119599201	1.791800E+01
499	  0.119799607	-9.150000E+00	  0.119799607	1.166900E+01	  0.119799607	1.001370E+02	  0.119799607	1.608100E+01
500	  0.120000005	-9.225000E+00	  0.120000005	1.047500E+01	  0.120000005	1.001400E+02	  0.120000005	1.429700E+01
