! Anritsu VNA Master:             	Model: MS2036C/10/77
! SN:             	1601066
! /bd0/18may09/252.ew.m4.txt
! Existing Calibration Information:
! TYPE:             	Current Settings	Active Cal Settings
! TIME:             	05/09/2018 08:12:18 AM	05/09/2018 08:04:56 AM
! INTERNAL TEMP:    	41.8 C	42.3 C
! # POINTS:         	500	500
! START FREQ:       	20.000 MHz	20.000 MHz
! STOP FREQ:        	120.000 MHz	120.000 MHz
! SOURCE POWER:     	High	High
! IFBW:             	50 Hz	50 Hz
! AVG FACTOR:       	  1 	  1 
! REF PLANE 1:      	0 mm	0 mm
! REF PLANE 2:      	0 mm	0 mm
! CAL TYPE:         	Full S11	Full S11
! CAL METHOD:       	SOLT	SOLT
! CAL LINE TYPE:    	Coax	Coax
! DUT PORT 1:       	K-Conn(F)	K-Conn(F)
! DUT PORT 2:       	K-Conn(F)	K-Conn(F)
! CAL STATUS:       	OK: Accuracy High	--
! PROP-V:       	0.700
! CABLE LOSS:       	0.000 dB/m
! REF IMPEDANCE:       	50.0
! Trace Specific Parameters:	TR1	TR2	TR3	TR4
! TRACE.#.Y (GRAPH TYPE)	LOG MAG	PHASE	REAL IMPEDANCE	IMAGINARY IMPEDANCE
! TRACE.#.X 	FREQ.GHZ	FREQ.GHZ	FREQ.GHZ	FREQ.GHZ
! S-PARAMETER	S11	S11	S11	S11
! SMOOTH/APERTURE %	0	0	0	0
! WINDOW	NSL	NSL	NSL	NSL
! GATING	OFF	OFF	OFF	OFF
! FGTD	OFF	OFF	OFF	OFF
Marker Information per Trace:	TR1	TR2	TR3	TR4
!MK1	--	"MK1 TR2:  20.000 MHz,PH:-124.22°"	--	--
!MK2	--	--	"MK2 TR3:  70.100 200 MHz,Z:(17.226 ohm, -3.065 ohm)"	--
!MK3	--	--	--	--
!MK4	--	--	--	--
!MK5	--	--	--	--
!MK6	--	--	--	--
!MK7	--	--	--	--
!MK8	--	--	--	--
PNT	TR1.FREQ.GHZ	TR1.LOG MAG.dB	TR2.FREQ.GHZ	TR2.PHASE.deg	TR3.FREQ.GHZ	TR3.REAL IMPEDANCE.ohm	TR4.FREQ.GHZ	TR4.IMAGINARY IMPEDANCE.ohm
1	  0.020000000	-5.960000E-01	  0.020000000	-1.242160E+02	  0.020000000	2.195000E+00	  0.020000000	-2.642400E+01
2	  0.020200402	-5.950000E-01	  0.020200402	-1.256740E+02	  0.020200402	2.162000E+00	  0.020200402	-2.561700E+01
3	  0.020400802	-5.950000E-01	  0.020400802	-1.271020E+02	  0.020400802	2.137000E+00	  0.020400802	-2.483700E+01
4	  0.020601204	-5.960000E-01	  0.020601204	-1.285560E+02	  0.020601204	2.115000E+00	  0.020601204	-2.405100E+01
5	  0.020801604	-6.000000E-01	  0.020801604	-1.300330E+02	  0.020801604	2.102000E+00	  0.020801604	-2.326300E+01
6	  0.021002004	-6.060000E-01	  0.021002004	-1.315310E+02	  0.021002004	2.099000E+00	  0.021002004	-2.247300E+01
7	  0.021202406	-6.120000E-01	  0.021202406	-1.330570E+02	  0.021202406	2.093000E+00	  0.021202406	-2.167800E+01
8	  0.021402806	-6.150000E-01	  0.021402806	-1.345710E+02	  0.021402806	2.082000E+00	  0.021402806	-2.089800E+01
9	  0.021603208	-6.190000E-01	  0.021603208	-1.360780E+02	  0.021603208	2.070000E+00	  0.021603208	-2.013100E+01
10	  0.021803608	-6.230000E-01	  0.021803608	-1.375920E+02	  0.021803608	2.063000E+00	  0.021803608	-1.936900E+01
11	  0.022004008	-6.270000E-01	  0.022004008	-1.391320E+02	  0.022004008	2.055000E+00	  0.022004008	-1.860000E+01
12	  0.022204408	-6.300000E-01	  0.022204408	-1.406670E+02	  0.022204408	2.044000E+00	  0.022204408	-1.784200E+01
13	  0.022404809	-6.340000E-01	  0.022404809	-1.422130E+02	  0.022404809	2.038000E+00	  0.022404809	-1.708600E+01
14	  0.022605211	-6.380000E-01	  0.022605211	-1.438020E+02	  0.022605211	2.032000E+00	  0.022605211	-1.631600E+01
15	  0.022805611	-6.440000E-01	  0.022805611	-1.453750E+02	  0.022805611	2.033000E+00	  0.022805611	-1.556100E+01
16	  0.023006011	-6.460000E-01	  0.023006011	-1.469440E+02	  0.023006011	2.024000E+00	  0.023006011	-1.481400E+01
17	  0.023206413	-6.460000E-01	  0.023206413	-1.485160E+02	  0.023206413	2.008000E+00	  0.023206413	-1.407200E+01
18	  0.023406813	-6.490000E-01	  0.023406813	-1.500840E+02	  0.023406813	2.001000E+00	  0.023406813	-1.333800E+01
19	  0.023607215	-6.520000E-01	  0.023607215	-1.516770E+02	  0.023607215	1.996000E+00	  0.023607215	-1.259700E+01
20	  0.023807615	-6.600000E-01	  0.023807615	-1.532630E+02	  0.023807615	2.007000E+00	  0.023807615	-1.186400E+01
21	  0.024008015	-6.710000E-01	  0.024008015	-1.548790E+02	  0.024008015	2.026000E+00	  0.024008015	-1.112200E+01
22	  0.024208417	-6.790000E-01	  0.024208417	-1.565070E+02	  0.024208417	2.040000E+00	  0.024208417	-1.037900E+01
23	  0.024408817	-6.880000E-01	  0.024408817	-1.581540E+02	  0.024408817	2.054000E+00	  0.024408817	-9.633000E+00
24	  0.024609219	-6.960000E-01	  0.024609219	-1.597840E+02	  0.024609219	2.068000E+00	  0.024609219	-8.898000E+00
25	  0.024809619	-7.060000E-01	  0.024809619	-1.614200E+02	  0.024809619	2.086000E+00	  0.024809619	-8.164000E+00
26	  0.025010020	-7.170000E-01	  0.025010020	-1.630640E+02	  0.025010020	2.110000E+00	  0.025010020	-7.430000E+00
27	  0.025210422	-7.300000E-01	  0.025210422	-1.647260E+02	  0.025210422	2.138000E+00	  0.025210422	-6.691000E+00
28	  0.025410822	-7.440000E-01	  0.025410822	-1.664010E+02	  0.025410822	2.171000E+00	  0.025410822	-5.950000E+00
29	  0.025611224	-7.580000E-01	  0.025611224	-1.680980E+02	  0.025611224	2.204000E+00	  0.025611224	-5.201000E+00
30	  0.025811624	-7.680000E-01	  0.025811624	-1.698120E+02	  0.025811624	2.229000E+00	  0.025811624	-4.448000E+00
31	  0.026012026	-7.760000E-01	  0.026012026	-1.715080E+02	  0.026012026	2.246000E+00	  0.026012026	-3.704000E+00
32	  0.026212426	-7.880000E-01	  0.026212426	-1.732260E+02	  0.026212426	2.276000E+00	  0.026212426	-2.952000E+00
33	  0.026412826	-8.010000E-01	  0.026412826	-1.749460E+02	  0.026412826	2.309000E+00	  0.026412826	-2.201000E+00
34	  0.026613226	-8.150000E-01	  0.026613226	-1.766780E+02	  0.026613226	2.347000E+00	  0.026613226	-1.446000E+00
35	  0.026813626	-8.310000E-01	  0.026813626	-1.784180E+02	  0.026813626	2.391000E+00	  0.026813626	-6.880000E-01
36	  0.027014028	-8.480000E-01	  0.027014028	1.798310E+02	  0.027014028	2.441000E+00	  0.027014028	7.300000E-02
37	  0.027214428	-8.630000E-01	  0.027214428	1.780510E+02	  0.027214428	2.484000E+00	  0.027214428	8.480000E-01
38	  0.027414829	-8.780000E-01	  0.027414829	1.762660E+02	  0.027414829	2.530000E+00	  0.027414829	1.625000E+00
39	  0.027615231	-8.960000E-01	  0.027615231	1.744730E+02	  0.027615231	2.583000E+00	  0.027615231	2.407000E+00
40	  0.027815631	-9.150000E-01	  0.027815631	1.726820E+02	  0.027815631	2.643000E+00	  0.027815631	3.188000E+00
41	  0.028016033	-9.360000E-01	  0.028016033	1.708630E+02	  0.028016033	2.709000E+00	  0.028016033	3.983000E+00
42	  0.028216433	-9.590000E-01	  0.028216433	1.690520E+02	  0.028216433	2.785000E+00	  0.028216433	4.776000E+00
43	  0.028416833	-9.780000E-01	  0.028416833	1.672290E+02	  0.028416833	2.849000E+00	  0.028416833	5.577000E+00
44	  0.028617235	-9.990000E-01	  0.028617235	1.654050E+02	  0.028617235	2.919000E+00	  0.028617235	6.381000E+00
45	  0.028817635	-1.018000E+00	  0.028817635	1.635840E+02	  0.028817635	2.989000E+00	  0.028817635	7.186000E+00
46	  0.029018037	-1.039000E+00	  0.029018037	1.617840E+02	  0.029018037	3.065000E+00	  0.029018037	7.986000E+00
47	  0.029218437	-1.061000E+00	  0.029218437	1.599600E+02	  0.029218437	3.145000E+00	  0.029218437	8.800000E+00
48	  0.029418837	-1.085000E+00	  0.029418837	1.581230E+02	  0.029418837	3.237000E+00	  0.029418837	9.624000E+00
49	  0.029619239	-1.114000E+00	  0.029619239	1.562630E+02	  0.029619239	3.343000E+00	  0.029619239	1.046200E+01
50	  0.029819639	-1.144000E+00	  0.029819639	1.543980E+02	  0.029819639	3.457000E+00	  0.029819639	1.130800E+01
51	  0.030020041	-1.174000E+00	  0.030020041	1.524760E+02	  0.030020041	3.575000E+00	  0.030020041	1.218600E+01
52	  0.030220442	-1.203000E+00	  0.030220442	1.505540E+02	  0.030220442	3.696000E+00	  0.030220442	1.307100E+01
53	  0.030420844	-1.235000E+00	  0.030420844	1.486400E+02	  0.030420844	3.828000E+00	  0.030420844	1.395900E+01
54	  0.030621244	-1.265000E+00	  0.030621244	1.467400E+02	  0.030621244	3.957000E+00	  0.030621244	1.484700E+01
55	  0.030821644	-1.300000E+00	  0.030821644	1.448120E+02	  0.030821644	4.110000E+00	  0.030821644	1.575700E+01
56	  0.031022044	-1.336000E+00	  0.031022044	1.428820E+02	  0.031022044	4.269000E+00	  0.031022044	1.667600E+01
57	  0.031222444	-1.369000E+00	  0.031222444	1.409510E+02	  0.031222444	4.426000E+00	  0.031222444	1.760600E+01
58	  0.031422846	-1.407000E+00	  0.031422846	1.389630E+02	  0.031422846	4.604000E+00	  0.031422846	1.857200E+01
59	  0.031623244	-1.443000E+00	  0.031623244	1.369700E+02	  0.031623244	4.785000E+00	  0.031623244	1.955300E+01
60	  0.031823646	-1.479000E+00	  0.031823646	1.349530E+02	  0.031823646	4.972000E+00	  0.031823646	2.055900E+01
61	  0.032024048	-1.515000E+00	  0.032024048	1.329710E+02	  0.032024048	5.166000E+00	  0.032024048	2.155900E+01
62	  0.032224450	-1.550000E+00	  0.032224450	1.309760E+02	  0.032224450	5.368000E+00	  0.032224450	2.258100E+01
63	  0.032424849	-1.587000E+00	  0.032424849	1.290010E+02	  0.032424849	5.583000E+00	  0.032424849	2.360500E+01
64	  0.032625251	-1.626000E+00	  0.032625251	1.270250E+02	  0.032625251	5.815000E+00	  0.032625251	2.464400E+01
65	  0.032825653	-1.668000E+00	  0.032825653	1.250420E+02	  0.032825653	6.069000E+00	  0.032825653	2.570200E+01
66	  0.033026051	-1.713000E+00	  0.033026051	1.230750E+02	  0.033026051	6.343000E+00	  0.033026051	2.676600E+01
67	  0.033226453	-1.767000E+00	  0.033226453	1.210810E+02	  0.033226453	6.664000E+00	  0.033226453	2.786000E+01
68	  0.033426855	-1.819000E+00	  0.033426855	1.190560E+02	  0.033426855	6.999000E+00	  0.033426855	2.898900E+01
69	  0.033627257	-1.876000E+00	  0.033627257	1.170380E+02	  0.033627257	7.363000E+00	  0.033627257	3.013200E+01
70	  0.033827655	-1.932000E+00	  0.033827655	1.149730E+02	  0.033827655	7.752000E+00	  0.033827655	3.132200E+01
71	  0.034028057	-1.984000E+00	  0.034028057	1.128680E+02	  0.034028057	8.144000E+00	  0.034028057	3.256100E+01
72	  0.034228459	-2.035000E+00	  0.034228459	1.107340E+02	  0.034228459	8.558000E+00	  0.034228459	3.384500E+01
73	  0.034428857	-2.086000E+00	  0.034428857	1.086080E+02	  0.034428857	8.995000E+00	  0.034428857	3.515000E+01
74	  0.034629259	-2.132000E+00	  0.034629259	1.064920E+02	  0.034629259	9.434000E+00	  0.034629259	3.648100E+01
75	  0.034829661	-2.178000E+00	  0.034829661	1.043890E+02	  0.034829661	9.899000E+00	  0.034829661	3.783200E+01
76	  0.035030060	-2.225000E+00	  0.035030060	1.022810E+02	  0.035030060	1.039700E+01	  0.035030060	3.921800E+01
77	  0.035230462	-2.270000E+00	  0.035230462	1.001930E+02	  0.035230462	1.091100E+01	  0.035230462	4.062500E+01
78	  0.035430863	-2.316000E+00	  0.035430863	9.809700E+01	  0.035430863	1.146800E+01	  0.035430863	4.207000E+01
79	  0.035631265	-2.363000E+00	  0.035631265	9.602800E+01	  0.035631265	1.205600E+01	  0.035631265	4.353000E+01
80	  0.035831664	-2.412000E+00	  0.035831664	9.397000E+01	  0.035831664	1.269500E+01	  0.035831664	4.501500E+01
81	  0.036032066	-2.460000E+00	  0.036032066	9.192600E+01	  0.036032066	1.336600E+01	  0.036032066	4.652700E+01
82	  0.036232468	-2.510000E+00	  0.036232468	8.990600E+01	  0.036232468	1.408600E+01	  0.036232468	4.805500E+01
83	  0.036432866	-2.569000E+00	  0.036432866	8.787500E+01	  0.036432866	1.490100E+01	  0.036432866	4.961800E+01
84	  0.036633268	-2.626000E+00	  0.036633268	8.584600E+01	  0.036633268	1.576600E+01	  0.036633268	5.121800E+01
85	  0.036833670	-2.686000E+00	  0.036833670	8.380700E+01	  0.036833670	1.670600E+01	  0.036833670	5.286200E+01
86	  0.037034072	-2.753000E+00	  0.037034072	8.174100E+01	  0.037034072	1.777100E+01	  0.037034072	5.455200E+01
87	  0.037234470	-2.818000E+00	  0.037234470	7.966900E+01	  0.037234470	1.889800E+01	  0.037234470	5.629300E+01
88	  0.037434869	-2.884000E+00	  0.037434869	7.756200E+01	  0.037434869	2.012300E+01	  0.037434869	5.810800E+01
89	  0.037635271	-2.946000E+00	  0.037635271	7.545800E+01	  0.037635271	2.142500E+01	  0.037635271	5.997000E+01
90	  0.037835669	-3.007000E+00	  0.037835669	7.332100E+01	  0.037835669	2.283100E+01	  0.037835669	6.191800E+01
91	  0.038036071	-3.064000E+00	  0.038036071	7.116200E+01	  0.038036071	2.433800E+01	  0.038036071	6.394600E+01
92	  0.038236473	-3.124000E+00	  0.038236473	6.896000E+01	  0.038236473	2.601200E+01	  0.038236473	6.606500E+01
93	  0.038436871	-3.185000E+00	  0.038436871	6.680700E+01	  0.038436871	2.781300E+01	  0.038436871	6.816900E+01
94	  0.038637273	-3.242000E+00	  0.038637273	6.468400E+01	  0.038637273	2.971400E+01	  0.038637273	7.030400E+01
95	  0.038837675	-3.299000E+00	  0.038837675	6.258000E+01	  0.038837675	3.175700E+01	  0.038837675	7.246100E+01
96	  0.039038073	-3.351000E+00	  0.039038073	6.054100E+01	  0.039038073	3.388700E+01	  0.039038073	7.460000E+01
97	  0.039238475	-3.409000E+00	  0.039238475	5.850600E+01	  0.039238475	3.623400E+01	  0.039238475	7.673400E+01
98	  0.039438877	-3.468000E+00	  0.039438877	5.648900E+01	  0.039438877	3.877900E+01	  0.039438877	7.884800E+01
99	  0.039639279	-3.533000E+00	  0.039639279	5.444700E+01	  0.039639279	4.161100E+01	  0.039639279	8.095900E+01
100	  0.039839678	-3.599000E+00	  0.039839678	5.241800E+01	  0.039839678	4.467200E+01	  0.039839678	8.303400E+01
101	  0.040040080	-3.667000E+00	  0.040040080	5.034900E+01	  0.040040080	4.806800E+01	  0.040040080	8.510300E+01
102	  0.040240481	-3.735000E+00	  0.040240481	4.826700E+01	  0.040240481	5.177300E+01	  0.040240481	8.712700E+01
103	  0.040440880	-3.801000E+00	  0.040440880	4.620100E+01	  0.040440880	5.574600E+01	  0.040440880	8.906800E+01
104	  0.040641282	-3.868000E+00	  0.040641282	4.412500E+01	  0.040641282	6.008100E+01	  0.040641282	9.089000E+01
105	  0.040841684	-3.927000E+00	  0.040841684	4.204700E+01	  0.040841684	6.471700E+01	  0.040841684	9.265500E+01
106	  0.041042086	-3.994000E+00	  0.041042086	3.997800E+01	  0.041042086	6.976000E+01	  0.041042086	9.412000E+01
107	  0.041242484	-4.057000E+00	  0.041242484	3.789700E+01	  0.041242484	7.520600E+01	  0.041242484	9.537400E+01
108	  0.041442886	-4.117000E+00	  0.041442886	3.580300E+01	  0.041442886	8.106800E+01	  0.041442886	9.638600E+01
109	  0.041643288	-4.174000E+00	  0.041643288	3.374500E+01	  0.041643288	8.722400E+01	  0.041643288	9.704800E+01
110	  0.041843686	-4.228000E+00	  0.041843686	3.166000E+01	  0.041843686	9.386400E+01	  0.041843686	9.732000E+01
111	  0.042044088	-4.283000E+00	  0.042044088	2.963300E+01	  0.042044088	1.007110E+02	  0.042044088	9.700100E+01
112	  0.042244490	-4.336000E+00	  0.042244490	2.762000E+01	  0.042244490	1.078450E+02	  0.042244490	9.609600E+01
113	  0.042444889	-4.392000E+00	  0.042444889	2.560200E+01	  0.042444889	1.152820E+02	  0.042444889	9.444000E+01
114	  0.042645290	-4.441000E+00	  0.042645290	2.360500E+01	  0.042645290	1.228620E+02	  0.042645290	9.215300E+01
115	  0.042845692	-4.496000E+00	  0.042845692	2.161100E+01	  0.042845692	1.305080E+02	  0.042845692	8.884100E+01
116	  0.043046094	-4.546000E+00	  0.043046094	1.959400E+01	  0.043046094	1.382550E+02	  0.043046094	8.465000E+01
117	  0.043246493	-4.596000E+00	  0.043246493	1.761900E+01	  0.043246493	1.456660E+02	  0.043246493	7.954900E+01
118	  0.043446895	-4.647000E+00	  0.043446895	1.563900E+01	  0.043446895	1.527550E+02	  0.043446895	7.340800E+01
119	  0.043647297	-4.700000E+00	  0.043647297	1.365300E+01	  0.043647297	1.592750E+02	  0.043647297	6.619400E+01
120	  0.043847695	-4.751000E+00	  0.043847695	1.170500E+01	  0.043847695	1.649610E+02	  0.043847695	5.822300E+01
121	  0.044048097	-4.804000E+00	  0.044048097	9.744000E+00	  0.044048097	1.697740E+02	  0.044048097	4.939400E+01
122	  0.044248499	-4.855000E+00	  0.044248499	7.785000E+00	  0.044248499	1.735570E+02	  0.044248499	3.994600E+01
123	  0.044448901	-4.901000E+00	  0.044448901	5.841000E+00	  0.044448901	1.762810E+02	  0.044448901	3.016700E+01
124	  0.044649299	-4.949000E+00	  0.044649299	3.891000E+00	  0.044649299	1.777470E+02	  0.044649299	2.006600E+01
125	  0.044849701	-4.993000E+00	  0.044849701	1.961000E+00	  0.044849701	1.781090E+02	  0.044849701	1.004300E+01
126	  0.045050103	-5.037000E+00	  0.045050103	1.800000E-02	  0.045050103	1.772320E+02	  0.045050103	9.200000E-02
127	  0.045250501	-5.080000E+00	  0.045250501	-1.864000E+00	  0.045250501	1.752780E+02	  0.045250501	-9.216000E+00
128	  0.045450903	-5.123000E+00	  0.045450903	-3.746000E+00	  0.045450903	1.723510E+02	  0.045450903	-1.802800E+01
129	  0.045651305	-5.170000E+00	  0.045651305	-5.639000E+00	  0.045651305	1.684540E+02	  0.045651305	-2.623200E+01
130	  0.045851704	-5.210000E+00	  0.045851704	-7.510000E+00	  0.045851704	1.640710E+02	  0.045851704	-3.369000E+01
131	  0.046052106	-5.249000E+00	  0.046052106	-9.401000E+00	  0.046052106	1.591020E+02	  0.046052106	-4.048800E+01
132	  0.046252504	-5.291000E+00	  0.046252504	-1.125300E+01	  0.046252504	1.537520E+02	  0.046252504	-4.633400E+01
133	  0.046452906	-5.330000E+00	  0.046452906	-1.313000E+01	  0.046452906	1.481070E+02	  0.046452906	-5.153100E+01
134	  0.046653304	-5.364000E+00	  0.046653304	-1.499500E+01	  0.046653304	1.423960E+02	  0.046653304	-5.602300E+01
135	  0.046853706	-5.400000E+00	  0.046853706	-1.684300E+01	  0.046853706	1.366240E+02	  0.046853706	-5.975100E+01
136	  0.047054108	-5.434000E+00	  0.047054108	-1.868100E+01	  0.047054108	1.308990E+02	  0.047054108	-6.283100E+01
137	  0.047254506	-5.466000E+00	  0.047254506	-2.051100E+01	  0.047254506	1.252930E+02	  0.047254506	-6.535400E+01
138	  0.047454908	-5.501000E+00	  0.047454908	-2.230300E+01	  0.047454908	1.198790E+02	  0.047454908	-6.724200E+01
139	  0.047655310	-5.530000E+00	  0.047655310	-2.408500E+01	  0.047655310	1.146940E+02	  0.047655310	-6.876900E+01
140	  0.047855709	-5.563000E+00	  0.047855709	-2.585600E+01	  0.047855709	1.096840E+02	  0.047855709	-6.980600E+01
141	  0.048056111	-5.591000E+00	  0.048056111	-2.762900E+01	  0.048056111	1.048920E+02	  0.048056111	-7.058300E+01
142	  0.048256513	-5.623000E+00	  0.048256513	-2.937300E+01	  0.048256513	1.003600E+02	  0.048256513	-7.097700E+01
143	  0.048456915	-5.650000E+00	  0.048456915	-3.111900E+01	  0.048456915	9.604000E+01	  0.048456915	-7.117500E+01
144	  0.048657313	-5.675000E+00	  0.048657313	-3.286700E+01	  0.048657313	9.192300E+01	  0.048657313	-7.117900E+01
145	  0.048857715	-5.703000E+00	  0.048857715	-3.461500E+01	  0.048857715	8.800400E+01	  0.048857715	-7.091900E+01
146	  0.049058117	-5.726000E+00	  0.049058117	-3.634500E+01	  0.049058117	8.432500E+01	  0.049058117	-7.058200E+01
147	  0.049258515	-5.751000E+00	  0.049258515	-3.803900E+01	  0.049258515	8.090700E+01	  0.049258515	-7.005900E+01
148	  0.049458917	-5.772000E+00	  0.049458917	-3.975300E+01	  0.049458917	7.762600E+01	  0.049458917	-6.947000E+01
149	  0.049659319	-5.796000E+00	  0.049659319	-4.142900E+01	  0.049659319	7.459000E+01	  0.049659319	-6.873700E+01
150	  0.049859721	-5.818000E+00	  0.049859721	-4.312200E+01	  0.049859721	7.168100E+01	  0.049859721	-6.795300E+01
151	  0.050060119	-5.837000E+00	  0.050060119	-4.480800E+01	  0.050060119	6.893300E+01	  0.050060119	-6.712100E+01
152	  0.050260521	-5.856000E+00	  0.050260521	-4.648700E+01	  0.050260521	6.634500E+01	  0.050260521	-6.622100E+01
153	  0.050460923	-5.873000E+00	  0.050460923	-4.818000E+01	  0.050460923	6.386500E+01	  0.050460923	-6.529100E+01
154	  0.050661322	-5.886000E+00	  0.050661322	-4.982900E+01	  0.050661322	6.156700E+01	  0.050661322	-6.437100E+01
155	  0.050861724	-5.898000E+00	  0.050861724	-5.146900E+01	  0.050861724	5.939100E+01	  0.050861724	-6.343300E+01
156	  0.051062126	-5.913000E+00	  0.051062126	-5.307200E+01	  0.051062126	5.739100E+01	  0.051062126	-6.244700E+01
157	  0.051262524	-5.924000E+00	  0.051262524	-5.466800E+01	  0.051262524	5.548000E+01	  0.051262524	-6.148400E+01
158	  0.051462926	-5.938000E+00	  0.051462926	-5.620200E+01	  0.051462926	5.374800E+01	  0.051462926	-6.050900E+01
159	  0.051663328	-5.949000E+00	  0.051663328	-5.776200E+01	  0.051663328	5.206300E+01	  0.051663328	-5.952700E+01
160	  0.051863730	-5.965000E+00	  0.051863730	-5.931800E+01	  0.051863730	5.048000E+01	  0.051863730	-5.850600E+01
161	  0.052064128	-5.980000E+00	  0.052064128	-6.087700E+01	  0.052064128	4.897300E+01	  0.052064128	-5.747900E+01
162	  0.052264530	-5.994000E+00	  0.052264530	-6.243000E+01	  0.052264530	4.753700E+01	  0.052264530	-5.646300E+01
163	  0.052464932	-6.011000E+00	  0.052464932	-6.399000E+01	  0.052464932	4.617400E+01	  0.052464932	-5.543000E+01
164	  0.052665330	-6.027000E+00	  0.052665330	-6.554700E+01	  0.052665330	4.488000E+01	  0.052665330	-5.440200E+01
165	  0.052865732	-6.037000E+00	  0.052865732	-6.711400E+01	  0.052865732	4.361500E+01	  0.052865732	-5.340300E+01
166	  0.053066134	-6.047000E+00	  0.053066134	-6.863500E+01	  0.053066134	4.244500E+01	  0.053066134	-5.243700E+01
167	  0.053266536	-6.057000E+00	  0.053266536	-7.021000E+01	  0.053266536	4.129200E+01	  0.053266536	-5.143600E+01
168	  0.053466935	-6.062000E+00	  0.053466935	-7.177200E+01	  0.053466935	4.017900E+01	  0.053466935	-5.047500E+01
169	  0.053667337	-6.065000E+00	  0.053667337	-7.329000E+01	  0.053667337	3.913700E+01	  0.053667337	-4.955700E+01
170	  0.053867739	-6.069000E+00	  0.053867739	-7.482100E+01	  0.053867739	3.814000E+01	  0.053867739	-4.862500E+01
171	  0.054068137	-6.073000E+00	  0.054068137	-7.631100E+01	  0.054068137	3.721300E+01	  0.054068137	-4.772300E+01
172	  0.054268539	-6.072000E+00	  0.054268539	-7.778000E+01	  0.054268539	3.631800E+01	  0.054268539	-4.686000E+01
173	  0.054468941	-6.080000E+00	  0.054468941	-7.922200E+01	  0.054468941	3.550800E+01	  0.054468941	-4.598300E+01
174	  0.054669339	-6.084000E+00	  0.054669339	-8.067900E+01	  0.054669339	3.471000E+01	  0.054669339	-4.511800E+01
175	  0.054869737	-6.087000E+00	  0.054869737	-8.212500E+01	  0.054869737	3.394800E+01	  0.054869737	-4.426800E+01
176	  0.055070139	-6.089000E+00	  0.055070139	-8.353400E+01	  0.055070139	3.323200E+01	  0.055070139	-4.345100E+01
177	  0.055270538	-6.096000E+00	  0.055270538	-8.493200E+01	  0.055270538	3.256600E+01	  0.055270538	-4.263100E+01
178	  0.055470940	-6.101000E+00	  0.055470940	-8.636700E+01	  0.055470940	3.190300E+01	  0.055470940	-4.180300E+01
179	  0.055671342	-6.102000E+00	  0.055671342	-8.778900E+01	  0.055671342	3.125700E+01	  0.055671342	-4.100200E+01
180	  0.055871744	-6.113000E+00	  0.055871744	-8.919900E+01	  0.055871744	3.067900E+01	  0.055871744	-4.018600E+01
181	  0.056072142	-6.115000E+00	  0.056072142	-9.059800E+01	  0.056072142	3.009900E+01	  0.056072142	-3.940600E+01
182	  0.056272544	-6.122000E+00	  0.056272544	-9.200300E+01	  0.056272544	2.955300E+01	  0.056272544	-3.861900E+01
183	  0.056472946	-6.127000E+00	  0.056472946	-9.341100E+01	  0.056472946	2.901800E+01	  0.056472946	-3.784600E+01
184	  0.056673344	-6.129000E+00	  0.056673344	-9.478300E+01	  0.056673344	2.850800E+01	  0.056673344	-3.710400E+01
185	  0.056873746	-6.128000E+00	  0.056873746	-9.617700E+01	  0.056873746	2.800300E+01	  0.056873746	-3.636200E+01
186	  0.057074148	-6.125000E+00	  0.057074148	-9.757600E+01	  0.057074148	2.750300E+01	  0.057074148	-3.563100E+01
187	  0.057274550	-6.121000E+00	  0.057274550	-9.895000E+01	  0.057274550	2.702700E+01	  0.057274550	-3.492100E+01
188	  0.057474948	-6.123000E+00	  0.057474948	-1.002900E+02	  0.057474948	2.660100E+01	  0.057474948	-3.422000E+01
189	  0.057675350	-6.123000E+00	  0.057675350	-1.016190E+02	  0.057675350	2.618500E+01	  0.057675350	-3.353600E+01
190	  0.057875752	-6.126000E+00	  0.057875752	-1.029240E+02	  0.057875752	2.580400E+01	  0.057875752	-3.286300E+01
191	  0.058076151	-6.120000E+00	  0.058076151	-1.042300E+02	  0.058076151	2.540400E+01	  0.058076151	-3.221200E+01
192	  0.058276553	-6.121000E+00	  0.058276553	-1.055120E+02	  0.058276553	2.504700E+01	  0.058276553	-3.156600E+01
193	  0.058476955	-6.127000E+00	  0.058476955	-1.068000E+02	  0.058476955	2.471600E+01	  0.058476955	-3.091400E+01
194	  0.058677353	-6.126000E+00	  0.058677353	-1.080970E+02	  0.058677353	2.437400E+01	  0.058677353	-3.027300E+01
195	  0.058877755	-6.129000E+00	  0.058877755	-1.093640E+02	  0.058877755	2.406400E+01	  0.058877755	-2.964600E+01
196	  0.059078157	-6.132000E+00	  0.059078157	-1.106610E+02	  0.059078157	2.375500E+01	  0.059078157	-2.901100E+01
197	  0.059278559	-6.137000E+00	  0.059278559	-1.119480E+02	  0.059278559	2.346700E+01	  0.059278559	-2.838100E+01
198	  0.059478957	-6.139000E+00	  0.059478957	-1.132390E+02	  0.059478957	2.317800E+01	  0.059478957	-2.776000E+01
199	  0.059679359	-6.142000E+00	  0.059679359	-1.145070E+02	  0.059679359	2.290600E+01	  0.059679359	-2.715400E+01
200	  0.059879761	-6.144000E+00	  0.059879761	-1.157860E+02	  0.059879761	2.264100E+01	  0.059879761	-2.654700E+01
201	  0.060080159	-6.142000E+00	  0.060080159	-1.170450E+02	  0.060080159	2.237400E+01	  0.060080159	-2.596100E+01
202	  0.060280561	-6.144000E+00	  0.060280561	-1.183170E+02	  0.060280561	2.212700E+01	  0.060280561	-2.536600E+01
203	  0.060480963	-6.143000E+00	  0.060480963	-1.195710E+02	  0.060480963	2.188200E+01	  0.060480963	-2.478900E+01
204	  0.060681365	-6.141000E+00	  0.060681365	-1.208230E+02	  0.060681365	2.164400E+01	  0.060681365	-2.421700E+01
205	  0.060881764	-6.138000E+00	  0.060881764	-1.220410E+02	  0.060881764	2.141600E+01	  0.060881764	-2.366600E+01
206	  0.061082166	-6.138000E+00	  0.061082166	-1.232660E+02	  0.061082166	2.120300E+01	  0.061082166	-2.311100E+01
207	  0.061282568	-6.140000E+00	  0.061282568	-1.244630E+02	  0.061282568	2.100500E+01	  0.061282568	-2.257200E+01
208	  0.061482966	-6.136000E+00	  0.061482966	-1.256540E+02	  0.061482966	2.080100E+01	  0.061482966	-2.204300E+01
209	  0.061683368	-6.134000E+00	  0.061683368	-1.268340E+02	  0.061683368	2.061100E+01	  0.061683368	-2.152100E+01
210	  0.061883770	-6.131000E+00	  0.061883770	-1.279870E+02	  0.061883770	2.042500E+01	  0.061883770	-2.101500E+01
211	  0.062084168	-6.135000E+00	  0.062084168	-1.291470E+02	  0.062084168	2.026400E+01	  0.062084168	-2.050100E+01
212	  0.062284570	-6.136000E+00	  0.062284570	-1.303260E+02	  0.062284570	2.010100E+01	  0.062284570	-1.998500E+01
213	  0.062484972	-6.129000E+00	  0.062484972	-1.314250E+02	  0.062484972	1.992900E+01	  0.062484972	-1.951400E+01
214	  0.062685370	-6.132000E+00	  0.062685370	-1.325900E+02	  0.062685370	1.978300E+01	  0.062685370	-1.900800E+01
215	  0.062885776	-6.136000E+00	  0.062885776	-1.337330E+02	  0.062885776	1.964500E+01	  0.062885776	-1.851300E+01
216	  0.063086174	-6.139000E+00	  0.063086174	-1.349150E+02	  0.063086174	1.950700E+01	  0.063086174	-1.800500E+01
217	  0.063286573	-6.140000E+00	  0.063286573	-1.360400E+02	  0.063286573	1.937300E+01	  0.063286573	-1.752600E+01
218	  0.063486971	-6.143000E+00	  0.063486971	-1.372000E+02	  0.063486971	1.924600E+01	  0.063486971	-1.703300E+01
219	  0.063687377	-6.141000E+00	  0.063687377	-1.383550E+02	  0.063687377	1.911200E+01	  0.063687377	-1.654700E+01
220	  0.063887775	-6.141000E+00	  0.063887775	-1.395000E+02	  0.063887775	1.898800E+01	  0.063887775	-1.606700E+01
221	  0.064088173	-6.140000E+00	  0.064088173	-1.406480E+02	  0.064088173	1.886300E+01	  0.064088173	-1.558900E+01
222	  0.064288579	-6.145000E+00	  0.064288579	-1.417850E+02	  0.064288579	1.876400E+01	  0.064288579	-1.511200E+01
223	  0.064488977	-6.139000E+00	  0.064488977	-1.428830E+02	  0.064488977	1.864000E+01	  0.064488977	-1.466200E+01
224	  0.064689375	-6.141000E+00	  0.064689375	-1.439920E+02	  0.064689375	1.854200E+01	  0.064689375	-1.420300E+01
225	  0.064889781	-6.144000E+00	  0.064889781	-1.450690E+02	  0.064889781	1.845400E+01	  0.064889781	-1.375900E+01
226	  0.065090179	-6.142000E+00	  0.065090179	-1.461760E+02	  0.065090179	1.835100E+01	  0.065090179	-1.330700E+01
227	  0.065290578	-6.145000E+00	  0.065290578	-1.472740E+02	  0.065290578	1.826600E+01	  0.065290578	-1.285800E+01
228	  0.065490983	-6.149000E+00	  0.065490983	-1.483380E+02	  0.065490983	1.819400E+01	  0.065490983	-1.242300E+01
229	  0.065691382	-6.149000E+00	  0.065691382	-1.494380E+02	  0.065691382	1.810800E+01	  0.065691382	-1.197800E+01
230	  0.065891780	-6.151000E+00	  0.065891780	-1.505420E+02	  0.065891780	1.803200E+01	  0.065891780	-1.153200E+01
231	  0.066092186	-6.155000E+00	  0.066092186	-1.515960E+02	  0.066092186	1.796600E+01	  0.066092186	-1.110600E+01
232	  0.066292584	-6.156000E+00	  0.066292584	-1.526630E+02	  0.066292584	1.789700E+01	  0.066292584	-1.067800E+01
233	  0.066492982	-6.158000E+00	  0.066492982	-1.537480E+02	  0.066492982	1.783000E+01	  0.066492982	-1.024300E+01
234	  0.066693388	-6.156000E+00	  0.066693388	-1.547740E+02	  0.066693388	1.776200E+01	  0.066693388	-9.835000E+00
235	  0.066893786	-6.161000E+00	  0.066893786	-1.558360E+02	  0.066893786	1.771100E+01	  0.066893786	-9.411000E+00
236	  0.067094192	-6.159000E+00	  0.067094192	-1.569240E+02	  0.067094192	1.764500E+01	  0.067094192	-8.980000E+00
237	  0.067294590	-6.166000E+00	  0.067294590	-1.579750E+02	  0.067294590	1.760600E+01	  0.067294590	-8.562000E+00
238	  0.067494988	-6.165000E+00	  0.067494988	-1.589770E+02	  0.067494988	1.755300E+01	  0.067494988	-8.167000E+00
239	  0.067695394	-6.168000E+00	  0.067695394	-1.600190E+02	  0.067695394	1.751000E+01	  0.067695394	-7.755000E+00
240	  0.067895792	-6.172000E+00	  0.067895792	-1.610870E+02	  0.067895792	1.747100E+01	  0.067895792	-7.335000E+00
241	  0.068096191	-6.175000E+00	  0.068096191	-1.620940E+02	  0.068096191	1.743600E+01	  0.068096191	-6.939000E+00
242	  0.068296596	-6.174000E+00	  0.068296596	-1.631090E+02	  0.068296596	1.739000E+01	  0.068296596	-6.542000E+00
243	  0.068496995	-6.177000E+00	  0.068496995	-1.641060E+02	  0.068496995	1.736000E+01	  0.068496995	-6.152000E+00
244	  0.068697393	-6.180000E+00	  0.068697393	-1.651210E+02	  0.068697393	1.733100E+01	  0.068697393	-5.755000E+00
245	  0.068897791	-6.180000E+00	  0.068897791	-1.661010E+02	  0.068897791	1.729800E+01	  0.068897791	-5.374000E+00
246	  0.069098189	-6.183000E+00	  0.069098189	-1.670820E+02	  0.069098189	1.727500E+01	  0.069098189	-4.991000E+00
247	  0.069298595	-6.188000E+00	  0.069298595	-1.680800E+02	  0.069298595	1.725900E+01	  0.069298595	-4.603000E+00
248	  0.069498993	-6.192000E+00	  0.069498993	-1.691080E+02	  0.069498993	1.724100E+01	  0.069498993	-4.204000E+00
249	  0.069699399	-6.199000E+00	  0.069699399	-1.701020E+02	  0.069699399	1.723600E+01	  0.069699399	-3.818000E+00
250	  0.069899797	-6.205000E+00	  0.069899797	-1.710510E+02	  0.069899797	1.723000E+01	  0.069899797	-3.450000E+00
251	  0.070100196	-6.211000E+00	  0.070100196	-1.720450E+02	  0.070100196	1.722500E+01	  0.070100196	-3.065000E+00
252	  0.070300601	-6.214000E+00	  0.070300601	-1.730380E+02	  0.070300601	1.721700E+01	  0.070300601	-2.682000E+00
253	  0.070501000	-6.215000E+00	  0.070501000	-1.740360E+02	  0.070501000	1.720300E+01	  0.070501000	-2.296000E+00
254	  0.070701398	-6.223000E+00	  0.070701398	-1.749840E+02	  0.070701398	1.721100E+01	  0.070701398	-1.930000E+00
255	  0.070901804	-6.231000E+00	  0.070901804	-1.759530E+02	  0.070901804	1.722100E+01	  0.070901804	-1.557000E+00
256	  0.071102202	-6.234000E+00	  0.071102202	-1.769560E+02	  0.071102202	1.722200E+01	  0.071102202	-1.170000E+00
257	  0.071302600	-6.248000E+00	  0.071302600	-1.779000E+02	  0.071302600	1.725200E+01	  0.071302600	-8.070000E-01
258	  0.071503006	-6.252000E+00	  0.071503006	-1.788330E+02	  0.071503006	1.726000E+01	  0.071503006	-4.480000E-01
259	  0.071703404	-6.259000E+00	  0.071703404	-1.797980E+02	  0.071703404	1.727400E+01	  0.071703404	-7.700000E-02
260	  0.071903802	-6.266000E+00	  0.071903802	1.792470E+02	  0.071903802	1.729400E+01	  0.071903802	2.890000E-01
261	  0.072104208	-6.269000E+00	  0.072104208	1.783010E+02	  0.072104208	1.730400E+01	  0.072104208	6.520000E-01
262	  0.072304606	-6.279000E+00	  0.072304606	1.773400E+02	  0.072304606	1.733300E+01	  0.072304606	1.021000E+00
263	  0.072505005	-6.286000E+00	  0.072505005	1.764110E+02	  0.072505005	1.735700E+01	  0.072505005	1.377000E+00
264	  0.072705410	-6.292000E+00	  0.072705410	1.754620E+02	  0.072705410	1.738200E+01	  0.072705410	1.741000E+00
265	  0.072905809	-6.297000E+00	  0.072905809	1.745280E+02	  0.072905809	1.740600E+01	  0.072905809	2.100000E+00
266	  0.073106214	-6.308000E+00	  0.073106214	1.736060E+02	  0.073106214	1.744500E+01	  0.073106214	2.453000E+00
267	  0.073306613	-6.313000E+00	  0.073306613	1.727060E+02	  0.073306613	1.747200E+01	  0.073306613	2.798000E+00
268	  0.073507011	-6.320000E+00	  0.073507011	1.717450E+02	  0.073507011	1.750700E+01	  0.073507011	3.167000E+00
269	  0.073707417	-6.327000E+00	  0.073707417	1.708470E+02	  0.073707417	1.754400E+01	  0.073707417	3.512000E+00
270	  0.073907815	-6.335000E+00	  0.073907815	1.699310E+02	  0.073907815	1.758600E+01	  0.073907815	3.863000E+00
271	  0.074108213	-6.341000E+00	  0.074108213	1.690400E+02	  0.074108213	1.762400E+01	  0.074108213	4.205000E+00
272	  0.074308619	-6.348000E+00	  0.074308619	1.681140E+02	  0.074308619	1.766600E+01	  0.074308619	4.560000E+00
273	  0.074509017	-6.351000E+00	  0.074509017	1.672130E+02	  0.074509017	1.770100E+01	  0.074509017	4.907000E+00
274	  0.074709415	-6.365000E+00	  0.074709415	1.663370E+02	  0.074709415	1.776200E+01	  0.074709415	5.243000E+00
275	  0.074909821	-6.373000E+00	  0.074909821	1.654400E+02	  0.074909821	1.781300E+01	  0.074909821	5.587000E+00
276	  0.075110219	-6.383000E+00	  0.075110219	1.645570E+02	  0.075110219	1.787000E+01	  0.075110219	5.927000E+00
277	  0.075310618	-6.389000E+00	  0.075310618	1.637090E+02	  0.075310618	1.791800E+01	  0.075310618	6.253000E+00
278	  0.075511023	-6.402000E+00	  0.075511023	1.628480E+02	  0.075511023	1.798500E+01	  0.075511023	6.583000E+00
279	  0.075711422	-6.415000E+00	  0.075711422	1.619490E+02	  0.075711422	1.805700E+01	  0.075711422	6.928000E+00
280	  0.075911827	-6.423000E+00	  0.075911827	1.610570E+02	  0.075911827	1.811800E+01	  0.075911827	7.271000E+00
281	  0.076112226	-6.435000E+00	  0.076112226	1.602060E+02	  0.076112226	1.818800E+01	  0.076112226	7.599000E+00
282	  0.076312624	-6.450000E+00	  0.076312624	1.593080E+02	  0.076312624	1.827300E+01	  0.076312624	7.943000E+00
283	  0.076513030	-6.459000E+00	  0.076513030	1.584440E+02	  0.076513030	1.833900E+01	  0.076513030	8.276000E+00
284	  0.076713428	-6.470000E+00	  0.076713428	1.575720E+02	  0.076713428	1.841600E+01	  0.076713428	8.612000E+00
285	  0.076913826	-6.483000E+00	  0.076913826	1.567100E+02	  0.076913826	1.849700E+01	  0.076913826	8.944000E+00
286	  0.077114232	-6.494000E+00	  0.077114232	1.558740E+02	  0.077114232	1.857400E+01	  0.077114232	9.266000E+00
287	  0.077314630	-6.501000E+00	  0.077314630	1.550300E+02	  0.077314630	1.864500E+01	  0.077314630	9.594000E+00
288	  0.077515028	-6.513000E+00	  0.077515028	1.541470E+02	  0.077515028	1.873100E+01	  0.077515028	9.935000E+00
289	  0.077715434	-6.526000E+00	  0.077715434	1.533070E+02	  0.077715434	1.882000E+01	  0.077715434	1.025900E+01
290	  0.077915832	-6.541000E+00	  0.077915832	1.524640E+02	  0.077915832	1.891800E+01	  0.077915832	1.058300E+01
291	  0.078116231	-6.554000E+00	  0.078116231	1.516020E+02	  0.078116231	1.901300E+01	  0.078116231	1.091700E+01
292	  0.078316636	-6.570000E+00	  0.078316636	1.507430E+02	  0.078316636	1.911700E+01	  0.078316636	1.124800E+01
293	  0.078517035	-6.585000E+00	  0.078517035	1.499160E+02	  0.078517035	1.922100E+01	  0.078517035	1.156700E+01
294	  0.078717433	-6.599000E+00	  0.078717433	1.490650E+02	  0.078717433	1.932500E+01	  0.078717433	1.189600E+01
295	  0.078917839	-6.613000E+00	  0.078917839	1.482390E+02	  0.078917839	1.942800E+01	  0.078917839	1.221600E+01
296	  0.079118237	-6.630000E+00	  0.079118237	1.474220E+02	  0.079118237	1.954200E+01	  0.079118237	1.253000E+01
297	  0.079318643	-6.645000E+00	  0.079318643	1.465600E+02	  0.079318643	1.965500E+01	  0.079318643	1.286400E+01
298	  0.079519041	-6.659000E+00	  0.079519041	1.457420E+02	  0.079519041	1.976500E+01	  0.079519041	1.318200E+01
299	  0.079719439	-6.675000E+00	  0.079719439	1.449190E+02	  0.079719439	1.988400E+01	  0.079719439	1.350000E+01
300	  0.079919845	-6.691000E+00	  0.079919845	1.440680E+02	  0.079919845	2.000700E+01	  0.079919845	1.383000E+01
301	  0.080120243	-6.703000E+00	  0.080120243	1.432540E+02	  0.080120243	2.011700E+01	  0.080120243	1.414900E+01
302	  0.080320641	-6.719000E+00	  0.080320641	1.424280E+02	  0.080320641	2.024400E+01	  0.080320641	1.446900E+01
303	  0.080521047	-6.735000E+00	  0.080521047	1.416340E+02	  0.080521047	2.037000E+01	  0.080521047	1.477700E+01
304	  0.080721445	-6.752000E+00	  0.080721445	1.408310E+02	  0.080721445	2.049800E+01	  0.080721445	1.508800E+01
305	  0.080921844	-6.769000E+00	  0.080921844	1.400470E+02	  0.080921844	2.062900E+01	  0.080921844	1.539200E+01
306	  0.081122249	-6.785000E+00	  0.081122249	1.392720E+02	  0.081122249	2.076100E+01	  0.081122249	1.569200E+01
307	  0.081322648	-6.800000E+00	  0.081322648	1.384550E+02	  0.081322648	2.089300E+01	  0.081322648	1.601200E+01
308	  0.081523046	-6.820000E+00	  0.081523046	1.376800E+02	  0.081523046	2.103800E+01	  0.081523046	1.631000E+01
309	  0.081723452	-6.838000E+00	  0.081723452	1.368820E+02	  0.081723452	2.118300E+01	  0.081723452	1.662000E+01
310	  0.081923850	-6.853000E+00	  0.081923850	1.361730E+02	  0.081923850	2.131200E+01	  0.081923850	1.689600E+01
311	  0.082124248	-6.882000E+00	  0.082124248	1.354140E+02	  0.082124248	2.148600E+01	  0.082124248	1.718100E+01
312	  0.082324654	-6.904000E+00	  0.082324654	1.346770E+02	  0.082324654	2.164200E+01	  0.082324654	1.746200E+01
313	  0.082525052	-6.926000E+00	  0.082525052	1.339370E+02	  0.082525052	2.180100E+01	  0.082525052	1.774400E+01
314	  0.082725458	-6.950000E+00	  0.082725458	1.331450E+02	  0.082725458	2.197300E+01	  0.082725458	1.804600E+01
315	  0.082925856	-6.973000E+00	  0.082925856	1.323890E+02	  0.082925856	2.214100E+01	  0.082925856	1.833400E+01
316	  0.083126254	-6.996000E+00	  0.083126254	1.316360E+02	  0.083126254	2.231100E+01	  0.083126254	1.862100E+01
317	  0.083326660	-7.021000E+00	  0.083326660	1.308590E+02	  0.083326660	2.249300E+01	  0.083326660	1.891600E+01
318	  0.083527058	-7.040000E+00	  0.083527058	1.301320E+02	  0.083527058	2.265300E+01	  0.083527058	1.919600E+01
319	  0.083727457	-7.064000E+00	  0.083727457	1.293710E+02	  0.083727457	2.283500E+01	  0.083727457	1.948400E+01
320	  0.083927862	-7.087000E+00	  0.083927862	1.286450E+02	  0.083927862	2.301100E+01	  0.083927862	1.976000E+01
321	  0.084128261	-7.107000E+00	  0.084128261	1.279110E+02	  0.084128261	2.318500E+01	  0.084128261	2.004000E+01
322	  0.084328659	-7.128000E+00	  0.084328659	1.272030E+02	  0.084328659	2.335700E+01	  0.084328659	2.031100E+01
323	  0.084529065	-7.155000E+00	  0.084529065	1.264940E+02	  0.084529065	2.354800E+01	  0.084529065	2.057400E+01
324	  0.084729463	-7.175000E+00	  0.084729463	1.257400E+02	  0.084729463	2.373400E+01	  0.084729463	2.086300E+01
325	  0.084929861	-7.199000E+00	  0.084929861	1.250450E+02	  0.084929861	2.392100E+01	  0.084929861	2.112300E+01
326	  0.085130267	-7.223000E+00	  0.085130267	1.243000E+02	  0.085130267	2.411900E+01	  0.085130267	2.140300E+01
327	  0.085330658	-7.247000E+00	  0.085330658	1.236380E+02	  0.085330658	2.430500E+01	  0.085330658	2.164900E+01
328	  0.085531056	-7.273000E+00	  0.085531056	1.229250E+02	  0.085531056	2.450700E+01	  0.085531056	2.191400E+01
329	  0.085731462	-7.297000E+00	  0.085731462	1.222350E+02	  0.085731462	2.470400E+01	  0.085731462	2.217100E+01
330	  0.085931860	-7.320000E+00	  0.085931860	1.215500E+02	  0.085931860	2.489900E+01	  0.085931860	2.242600E+01
331	  0.086132258	-7.344000E+00	  0.086132258	1.208760E+02	  0.086132258	2.509800E+01	  0.086132258	2.267500E+01
332	  0.086332664	-7.370000E+00	  0.086332664	1.201530E+02	  0.086332664	2.531500E+01	  0.086332664	2.294200E+01
333	  0.086533062	-7.395000E+00	  0.086533062	1.194570E+02	  0.086533062	2.552600E+01	  0.086533062	2.319800E+01
334	  0.086733460	-7.415000E+00	  0.086733460	1.187670E+02	  0.086733460	2.572500E+01	  0.086733460	2.345800E+01
335	  0.086933866	-7.436000E+00	  0.086933866	1.180900E+02	  0.086933866	2.592800E+01	  0.086933866	2.371000E+01
336	  0.087134264	-7.458000E+00	  0.087134264	1.173910E+02	  0.087134264	2.614000E+01	  0.087134264	2.397000E+01
337	  0.087334670	-7.486000E+00	  0.087334670	1.167080E+02	  0.087334670	2.636700E+01	  0.087334670	2.421500E+01
338	  0.087535068	-7.506000E+00	  0.087535068	1.160800E+02	  0.087535068	2.656400E+01	  0.087535068	2.444700E+01
339	  0.087735467	-7.532000E+00	  0.087735467	1.154090E+02	  0.087735467	2.678700E+01	  0.087735467	2.468900E+01
340	  0.087935872	-7.553000E+00	  0.087935872	1.147700E+02	  0.087935872	2.699300E+01	  0.087935872	2.492400E+01
341	  0.088136271	-7.576000E+00	  0.088136271	1.141220E+02	  0.088136271	2.721100E+01	  0.088136271	2.515800E+01
342	  0.088336669	-7.597000E+00	  0.088336669	1.134830E+02	  0.088336669	2.742300E+01	  0.088336669	2.539100E+01
343	  0.088537075	-7.620000E+00	  0.088537075	1.128590E+02	  0.088537075	2.764100E+01	  0.088537075	2.561400E+01
344	  0.088737473	-7.648000E+00	  0.088737473	1.122660E+02	  0.088737473	2.786400E+01	  0.088737473	2.581600E+01
345	  0.088937871	-7.672000E+00	  0.088937871	1.116470E+02	  0.088937871	2.808800E+01	  0.088937871	2.603300E+01
346	  0.089138277	-7.704000E+00	  0.089138277	1.110660E+02	  0.089138277	2.832400E+01	  0.089138277	2.622200E+01
347	  0.089338675	-7.729000E+00	  0.089338675	1.104570E+02	  0.089338675	2.855200E+01	  0.089338675	2.643200E+01
348	  0.089539073	-7.760000E+00	  0.089539073	1.098640E+02	  0.089539073	2.879400E+01	  0.089539073	2.662500E+01
349	  0.089739479	-7.790000E+00	  0.089739479	1.092360E+02	  0.089739479	2.904500E+01	  0.089739479	2.683200E+01
350	  0.089939877	-7.815000E+00	  0.089939877	1.086180E+02	  0.089939877	2.928400E+01	  0.089939877	2.704300E+01
351	  0.090140276	-7.844000E+00	  0.090140276	1.080330E+02	  0.090140276	2.952600E+01	  0.090140276	2.723100E+01
352	  0.090340681	-7.875000E+00	  0.090340681	1.074350E+02	  0.090340681	2.978000E+01	  0.090340681	2.742100E+01
353	  0.090541080	-7.899000E+00	  0.090541080	1.068050E+02	  0.090541080	3.002700E+01	  0.090541080	2.763500E+01
354	  0.090741485	-7.933000E+00	  0.090741485	1.062130E+02	  0.090741485	3.029300E+01	  0.090741485	2.781300E+01
355	  0.090941884	-7.956000E+00	  0.090941884	1.056300E+02	  0.090941884	3.052700E+01	  0.090941884	2.800800E+01
356	  0.091142282	-7.985000E+00	  0.091142282	1.050650E+02	  0.091142282	3.077600E+01	  0.091142282	2.818200E+01
357	  0.091342688	-8.011000E+00	  0.091342688	1.044970E+02	  0.091342688	3.101700E+01	  0.091342688	2.836300E+01
358	  0.091543086	-8.039000E+00	  0.091543086	1.039110E+02	  0.091543086	3.127400E+01	  0.091543086	2.854500E+01
359	  0.091743484	-8.061000E+00	  0.091743484	1.033600E+02	  0.091743484	3.150600E+01	  0.091743484	2.872400E+01
360	  0.091943890	-8.087000E+00	  0.091943890	1.028060E+02	  0.091943890	3.175400E+01	  0.091943890	2.889400E+01
361	  0.092144288	-8.114000E+00	  0.092144288	1.022540E+02	  0.092144288	3.200400E+01	  0.092144288	2.906000E+01
362	  0.092344686	-8.142000E+00	  0.092344686	1.017140E+02	  0.092344686	3.225400E+01	  0.092344686	2.921900E+01
363	  0.092545092	-8.175000E+00	  0.092545092	1.012050E+02	  0.092545092	3.251000E+01	  0.092545092	2.935200E+01
364	  0.092745490	-8.195000E+00	  0.092745490	1.006510E+02	  0.092745490	3.274800E+01	  0.092745490	2.953100E+01
365	  0.092945889	-8.229000E+00	  0.092945889	1.001510E+02	  0.092945889	3.301000E+01	  0.092945889	2.965300E+01
366	  0.093146294	-8.248000E+00	  0.093146294	9.959600E+01	  0.093146294	3.324900E+01	  0.093146294	2.983300E+01
367	  0.093346693	-8.280000E+00	  0.093346693	9.911600E+01	  0.093346693	3.350000E+01	  0.093346693	2.995100E+01
368	  0.093547091	-8.299000E+00	  0.093547091	9.857500E+01	  0.093547091	3.374100E+01	  0.093547091	3.012000E+01
369	  0.093747497	-8.327000E+00	  0.093747497	9.804000E+01	  0.093747497	3.400500E+01	  0.093747497	3.026600E+01
370	  0.093947895	-8.353000E+00	  0.093947895	9.752200E+01	  0.093947895	3.426100E+01	  0.093947895	3.040700E+01
371	  0.094148301	-8.384000E+00	  0.094148301	9.705200E+01	  0.094148301	3.451200E+01	  0.094148301	3.051700E+01
372	  0.094348699	-8.397000E+00	  0.094348699	9.659200E+01	  0.094348699	3.471600E+01	  0.094348699	3.066400E+01
373	  0.094549097	-8.425000E+00	  0.094549097	9.611300E+01	  0.094549097	3.496700E+01	  0.094549097	3.078200E+01
374	  0.094749503	-8.446000E+00	  0.094749503	9.561500E+01	  0.094749503	3.521000E+01	  0.094749503	3.092200E+01
375	  0.094949901	-8.465000E+00	  0.094949901	9.517000E+01	  0.094949901	3.542600E+01	  0.094949901	3.104800E+01
376	  0.095150299	-8.485000E+00	  0.095150299	9.467800E+01	  0.095150299	3.566700E+01	  0.095150299	3.118600E+01
377	  0.095350705	-8.506000E+00	  0.095350705	9.423600E+01	  0.095350705	3.589300E+01	  0.095350705	3.130100E+01
378	  0.095551103	-8.527000E+00	  0.095551103	9.380200E+01	  0.095551103	3.611600E+01	  0.095551103	3.141300E+01
379	  0.095751502	-8.544000E+00	  0.095751502	9.337000E+01	  0.095751502	3.633200E+01	  0.095751502	3.153100E+01
380	  0.095951907	-8.569000E+00	  0.095951907	9.295700E+01	  0.095951907	3.655900E+01	  0.095951907	3.162300E+01
381	  0.096152306	-8.587000E+00	  0.096152306	9.249300E+01	  0.096152306	3.679200E+01	  0.096152306	3.174900E+01
382	  0.096352704	-8.604000E+00	  0.096352704	9.207300E+01	  0.096352704	3.700700E+01	  0.096352704	3.186000E+01
383	  0.096553110	-8.623000E+00	  0.096553110	9.166100E+01	  0.096553110	3.722400E+01	  0.096553110	3.196200E+01
384	  0.096753508	-8.637000E+00	  0.096753508	9.124400E+01	  0.096753508	3.743400E+01	  0.096753508	3.207800E+01
385	  0.096953906	-8.657000E+00	  0.096953906	9.083200E+01	  0.096953906	3.765500E+01	  0.096953906	3.217600E+01
386	  0.097154312	-8.674000E+00	  0.097154312	9.036100E+01	  0.097154312	3.789700E+01	  0.097154312	3.230100E+01
387	  0.097354710	-8.690000E+00	  0.097354710	8.999600E+01	  0.097354710	3.809100E+01	  0.097354710	3.239200E+01
388	  0.097555116	-8.704000E+00	  0.097555116	8.956000E+01	  0.097555116	3.831300E+01	  0.097555116	3.251100E+01
389	  0.097755514	-8.722000E+00	  0.097755514	8.914300E+01	  0.097755514	3.853900E+01	  0.097755514	3.261100E+01
390	  0.097955912	-8.725000E+00	  0.097955912	8.873200E+01	  0.097955912	3.872800E+01	  0.097955912	3.274900E+01
391	  0.098156318	-8.734000E+00	  0.098156318	8.831500E+01	  0.098156318	3.893600E+01	  0.098156318	3.287300E+01
392	  0.098356716	-8.738000E+00	  0.098356716	8.791300E+01	  0.098356716	3.912600E+01	  0.098356716	3.300500E+01
393	  0.098557115	-8.749000E+00	  0.098557115	8.750600E+01	  0.098557115	3.933600E+01	  0.098557115	3.311900E+01
394	  0.098757520	-8.752000E+00	  0.098757520	8.709000E+01	  0.098757520	3.953100E+01	  0.098757520	3.326000E+01
395	  0.098957919	-8.755000E+00	  0.098957919	8.669200E+01	  0.098957919	3.972200E+01	  0.098957919	3.339200E+01
396	  0.099158317	-8.762000E+00	  0.099158317	8.628500E+01	  0.099158317	3.992800E+01	  0.099158317	3.351600E+01
397	  0.099358723	-8.768000E+00	  0.099358723	8.587200E+01	  0.099358723	4.013700E+01	  0.099358723	3.364100E+01
398	  0.099559121	-8.771000E+00	  0.099559121	8.548100E+01	  0.099559121	4.032800E+01	  0.099559121	3.377100E+01
399	  0.099759519	-8.771000E+00	  0.099759519	8.508700E+01	  0.099759519	4.051500E+01	  0.099759519	3.391000E+01
400	  0.099959925	-8.762000E+00	  0.099959925	8.469800E+01	  0.099959925	4.068400E+01	  0.099959925	3.407300E+01
401	  0.100160323	-8.755000E+00	  0.100160323	8.425600E+01	  0.100160323	4.088200E+01	  0.100160323	3.425000E+01
402	  0.100360721	-8.755000E+00	  0.100360721	8.389300E+01	  0.100360721	4.106000E+01	  0.100360721	3.437700E+01
403	  0.100561127	-8.764000E+00	  0.100561127	8.346100E+01	  0.100561127	4.129300E+01	  0.100561127	3.449900E+01
404	  0.100761525	-8.750000E+00	  0.100761525	8.312000E+01	  0.100761525	4.143200E+01	  0.100761525	3.466400E+01
405	  0.100961931	-8.756000E+00	  0.100961931	8.263000E+01	  0.100961931	4.169400E+01	  0.100961931	3.481000E+01
406	  0.101162329	-8.741000E+00	  0.101162329	8.226600E+01	  0.101162329	4.184500E+01	  0.101162329	3.498700E+01
407	  0.101362728	-8.736000E+00	  0.101362728	8.182200E+01	  0.101362728	4.206200E+01	  0.101362728	3.515500E+01
408	  0.101563133	-8.730000E+00	  0.101563133	8.147300E+01	  0.101563133	4.222800E+01	  0.101563133	3.529900E+01
409	  0.101763532	-8.726000E+00	  0.101763532	8.094000E+01	  0.101763532	4.249800E+01	  0.101763532	3.549300E+01
410	  0.101963930	-8.714000E+00	  0.101963930	8.058300E+01	  0.101963930	4.265900E+01	  0.101963930	3.565700E+01
411	  0.102164336	-8.700000E+00	  0.102164336	8.011300E+01	  0.102164336	4.288000E+01	  0.102164336	3.586500E+01
412	  0.102364734	-8.694000E+00	  0.102364734	7.967600E+01	  0.102364734	4.310300E+01	  0.102364734	3.603500E+01
413	  0.102565132	-8.688000E+00	  0.102565132	7.927600E+01	  0.102565132	4.330700E+01	  0.102565132	3.619100E+01
414	  0.102765530	-8.677000E+00	  0.102765530	7.880600E+01	  0.102765530	4.354100E+01	  0.102765530	3.638900E+01
415	  0.102965929	-8.658000E+00	  0.102965929	7.836800E+01	  0.102965929	4.374200E+01	  0.102965929	3.660700E+01
416	  0.103166327	-8.650000E+00	  0.103166327	7.789400E+01	  0.103166327	4.399100E+01	  0.103166327	3.679500E+01
417	  0.103366733	-8.629000E+00	  0.103366733	7.746800E+01	  0.103366733	4.418700E+01	  0.103366733	3.701700E+01
418	  0.103567131	-8.628000E+00	  0.103567131	7.698900E+01	  0.103567131	4.446000E+01	  0.103567131	3.718000E+01
419	  0.103767529	-8.613000E+00	  0.103767529	7.651300E+01	  0.103767529	4.470300E+01	  0.103767529	3.739500E+01
420	  0.103967935	-8.606000E+00	  0.103967935	7.600900E+01	  0.103967935	4.498200E+01	  0.103967935	3.759200E+01
421	  0.104168333	-8.588000E+00	  0.104168333	7.553000E+01	  0.104168333	4.522700E+01	  0.104168333	3.782000E+01
422	  0.104368731	-8.573000E+00	  0.104368731	7.502200E+01	  0.104368731	4.550100E+01	  0.104368731	3.804500E+01
423	  0.104569137	-8.559000E+00	  0.104569137	7.446400E+01	  0.104569137	4.580900E+01	  0.104569137	3.828500E+01
424	  0.104769535	-8.538000E+00	  0.104769535	7.394800E+01	  0.104769535	4.608300E+01	  0.104769535	3.853700E+01
425	  0.104969934	-8.532000E+00	  0.104969934	7.343600E+01	  0.104969934	4.638900E+01	  0.104969934	3.872800E+01
426	  0.105170339	-8.514000E+00	  0.105170339	7.287000E+01	  0.105170339	4.670900E+01	  0.105170339	3.898400E+01
427	  0.105370738	-8.495000E+00	  0.105370738	7.231900E+01	  0.105370738	4.702000E+01	  0.105370738	3.924300E+01
428	  0.105571143	-8.474000E+00	  0.105571143	7.177200E+01	  0.105571143	4.733100E+01	  0.105571143	3.950600E+01
429	  0.105771542	-8.459000E+00	  0.105771542	7.118000E+01	  0.105771542	4.768900E+01	  0.105771542	3.975700E+01
430	  0.105971940	-8.444000E+00	  0.105971940	7.068500E+01	  0.105971940	4.798700E+01	  0.105971940	3.997900E+01
431	  0.106172346	-8.418000E+00	  0.106172346	7.011900E+01	  0.106172346	4.831600E+01	  0.106172346	4.027000E+01
432	  0.106372744	-8.403000E+00	  0.106372744	6.953300E+01	  0.106372744	4.868600E+01	  0.106372744	4.051900E+01
433	  0.106573142	-8.385000E+00	  0.106573142	6.897900E+01	  0.106573142	4.903300E+01	  0.106573142	4.077300E+01
434	  0.106773548	-8.357000E+00	  0.106773548	6.837800E+01	  0.106773548	4.940000E+01	  0.106773548	4.108500E+01
435	  0.106973946	-8.348000E+00	  0.106973946	6.776500E+01	  0.106973946	4.981900E+01	  0.106973946	4.131600E+01
436	  0.107174344	-8.319000E+00	  0.107174344	6.717800E+01	  0.107174344	5.018500E+01	  0.107174344	4.163100E+01
437	  0.107374750	-8.305000E+00	  0.107374750	6.656200E+01	  0.107374750	5.061100E+01	  0.107374750	4.188100E+01
438	  0.107575148	-8.284000E+00	  0.107575148	6.599800E+01	  0.107575148	5.099200E+01	  0.107575148	4.214900E+01
439	  0.107775547	-8.268000E+00	  0.107775547	6.536300E+01	  0.107775547	5.144000E+01	  0.107775547	4.241500E+01
440	  0.107975952	-8.255000E+00	  0.107975952	6.474700E+01	  0.107975952	5.188900E+01	  0.107975952	4.265500E+01
441	  0.108176351	-8.241000E+00	  0.108176351	6.417300E+01	  0.108176351	5.231000E+01	  0.108176351	4.288900E+01
442	  0.108376749	-8.224000E+00	  0.108376749	6.349100E+01	  0.108376749	5.281600E+01	  0.108376749	4.316600E+01
443	  0.108577155	-8.202000E+00	  0.108577155	6.287600E+01	  0.108577155	5.327000E+01	  0.108577155	4.345200E+01
444	  0.108777553	-8.189000E+00	  0.108777553	6.221400E+01	  0.108777553	5.378500E+01	  0.108777553	4.370200E+01
445	  0.108977959	-8.174000E+00	  0.108977959	6.153300E+01	  0.108977959	5.432300E+01	  0.108977959	4.395800E+01
446	  0.109178357	-8.159000E+00	  0.109178357	6.087700E+01	  0.109178357	5.484800E+01	  0.109178357	4.421300E+01
447	  0.109378755	-8.146000E+00	  0.109378755	6.016200E+01	  0.109378755	5.543800E+01	  0.109378755	4.446100E+01
448	  0.109579161	-8.132000E+00	  0.109579161	5.949900E+01	  0.109579161	5.598900E+01	  0.109579161	4.470400E+01
449	  0.109779559	-8.114000E+00	  0.109779559	5.880500E+01	  0.109779559	5.657300E+01	  0.109779559	4.497200E+01
450	  0.109979957	-8.111000E+00	  0.109979957	5.810800E+01	  0.109979957	5.719300E+01	  0.109979957	4.514400E+01
451	  0.110180363	-8.089000E+00	  0.110180363	5.737700E+01	  0.110180363	5.782500E+01	  0.110180363	4.543500E+01
452	  0.110380761	-8.092000E+00	  0.110380761	5.666500E+01	  0.110380761	5.848800E+01	  0.110380761	4.556200E+01
453	  0.110581160	-8.074000E+00	  0.110581160	5.592600E+01	  0.110581160	5.915700E+01	  0.110581160	4.582100E+01
454	  0.110781565	-8.072000E+00	  0.110781565	5.517500E+01	  0.110781565	5.987100E+01	  0.110781565	4.597300E+01
455	  0.110981964	-8.064000E+00	  0.110981964	5.440100E+01	  0.110981964	6.061200E+01	  0.110981964	4.615500E+01
456	  0.111182362	-8.055000E+00	  0.111182362	5.363100E+01	  0.111182362	6.136100E+01	  0.111182362	4.633700E+01
457	  0.111382768	-8.047000E+00	  0.111382768	5.281500E+01	  0.111382768	6.217000E+01	  0.111382768	4.651000E+01
458	  0.111583166	-8.040000E+00	  0.111583166	5.206600E+01	  0.111583166	6.292500E+01	  0.111583166	4.665900E+01
459	  0.111783572	-8.040000E+00	  0.111783572	5.124300E+01	  0.111783572	6.377500E+01	  0.111783572	4.675800E+01
460	  0.111983970	-8.033000E+00	  0.111983970	5.037500E+01	  0.111983970	6.468200E+01	  0.111983970	4.689100E+01
461	  0.112184368	-8.030000E+00	  0.112184368	4.959200E+01	  0.112184368	6.551500E+01	  0.112184368	4.697700E+01
462	  0.112384774	-8.029000E+00	  0.112384774	4.877100E+01	  0.112384774	6.640400E+01	  0.112384774	4.703200E+01
463	  0.112585172	-8.027000E+00	  0.112585172	4.790400E+01	  0.112585172	6.735600E+01	  0.112585172	4.708700E+01
464	  0.112785570	-8.023000E+00	  0.112785570	4.710500E+01	  0.112785570	6.824600E+01	  0.112785570	4.713100E+01
465	  0.112985976	-8.027000E+00	  0.112985976	4.625300E+01	  0.112985976	6.920900E+01	  0.112985976	4.710200E+01
466	  0.113186374	-8.029000E+00	  0.113186374	4.540400E+01	  0.113186374	7.018100E+01	  0.113186374	4.706400E+01
467	  0.113386773	-8.032000E+00	  0.113386773	4.448800E+01	  0.113386773	7.124300E+01	  0.113386773	4.699800E+01
468	  0.113587178	-8.030000E+00	  0.113587178	4.362000E+01	  0.113587178	7.226500E+01	  0.113587178	4.694700E+01
469	  0.113787577	-8.043000E+00	  0.113787577	4.275200E+01	  0.113787577	7.328900E+01	  0.113787577	4.674800E+01
470	  0.113987975	-8.051000E+00	  0.113987975	4.185400E+01	  0.113987975	7.436200E+01	  0.113987975	4.656600E+01
471	  0.114188381	-8.052000E+00	  0.114188381	4.098400E+01	  0.114188381	7.541800E+01	  0.114188381	4.641100E+01
472	  0.114388779	-8.071000E+00	  0.114388779	4.010500E+01	  0.114388779	7.647200E+01	  0.114388779	4.609000E+01
473	  0.114589177	-8.081000E+00	  0.114589177	3.920000E+01	  0.114589177	7.757400E+01	  0.114589177	4.579700E+01
474	  0.114789583	-8.096000E+00	  0.114789583	3.823300E+01	  0.114789583	7.875100E+01	  0.114789583	4.541500E+01
475	  0.114989981	-8.109000E+00	  0.114989981	3.732800E+01	  0.114989981	7.985900E+01	  0.114989981	4.503400E+01
476	  0.115190387	-8.132000E+00	  0.115190387	3.640600E+01	  0.115190387	8.096500E+01	  0.115190387	4.452800E+01
477	  0.115390785	-8.146000E+00	  0.115390785	3.544900E+01	  0.115390785	8.213600E+01	  0.115390785	4.404400E+01
478	  0.115591183	-8.171000E+00	  0.115591183	3.450100E+01	  0.115591183	8.326200E+01	  0.115591183	4.343100E+01
479	  0.115791589	-8.194000E+00	  0.115791589	3.352500E+01	  0.115791589	8.442400E+01	  0.115791589	4.278600E+01
480	  0.115991987	-8.224000E+00	  0.115991987	3.252300E+01	  0.115991987	8.558600E+01	  0.115991987	4.203100E+01
481	  0.116192386	-8.250000E+00	  0.116192386	3.157300E+01	  0.116192386	8.667900E+01	  0.116192386	4.128500E+01
482	  0.116392791	-8.280000E+00	  0.116392791	3.050300E+01	  0.116392791	8.789200E+01	  0.116392791	4.039500E+01
483	  0.116593190	-8.310000E+00	  0.116593190	2.951800E+01	  0.116593190	8.897900E+01	  0.116593190	3.951200E+01
484	  0.116793588	-8.344000E+00	  0.116793588	2.849100E+01	  0.116793588	9.007300E+01	  0.116793588	3.852100E+01
485	  0.116993994	-8.384000E+00	  0.116993994	2.749500E+01	  0.116993994	9.107300E+01	  0.116993994	3.746100E+01
486	  0.117194392	-8.427000E+00	  0.117194392	2.644900E+01	  0.117194392	9.208600E+01	  0.117194392	3.630600E+01
487	  0.117394790	-8.462000E+00	  0.117394790	2.538000E+01	  0.117394790	9.312700E+01	  0.117394790	3.514200E+01
488	  0.117595196	-8.506000E+00	  0.117595196	2.430800E+01	  0.117595196	9.407400E+01	  0.117595196	3.386000E+01
489	  0.117795594	-8.547000E+00	  0.117795594	2.321900E+01	  0.117795594	9.501500E+01	  0.117795594	3.255000E+01
490	  0.117995992	-8.590000E+00	  0.117995992	2.211400E+01	  0.117995992	9.591100E+01	  0.117995992	3.116900E+01
491	  0.118196398	-8.643000E+00	  0.118196398	2.096900E+01	  0.118196398	9.672700E+01	  0.118196398	2.964500E+01
492	  0.118396796	-8.697000E+00	  0.118396796	1.988600E+01	  0.118396796	9.740600E+01	  0.118396796	2.814200E+01
493	  0.118597202	-8.748000E+00	  0.118597202	1.871500E+01	  0.118597202	9.813500E+01	  0.118597202	2.654300E+01
494	  0.118797600	-8.811000E+00	  0.118797600	1.760400E+01	  0.118797600	9.864100E+01	  0.118797600	2.491000E+01
495	  0.118997999	-8.868000E+00	  0.118997999	1.642600E+01	  0.118997999	9.917600E+01	  0.118997999	2.321600E+01
496	  0.119198404	-8.926000E+00	  0.119198404	1.523200E+01	  0.119198404	9.964200E+01	  0.119198404	2.148600E+01
497	  0.119398803	-8.997000E+00	  0.119398803	1.407100E+01	  0.119398803	9.990600E+01	  0.119398803	1.972600E+01
498	  0.119599201	-9.066000E+00	  0.119599201	1.287600E+01	  0.119599201	1.001240E+02	  0.119599201	1.793700E+01
499	  0.119799607	-9.134000E+00	  0.119799607	1.162400E+01	  0.119799607	1.002980E+02	  0.119799607	1.608400E+01
500	  0.120000005	-9.210000E+00	  0.120000005	1.040700E+01	  0.120000005	1.003060E+02	  0.120000005	1.426100E+01
