! Anritsu VNA Master:             	Model: MS2036C/10/77
! SN:             	1601066
! /bd0/18may09/252.ew.m6.txt
! Existing Calibration Information:
! TYPE:             	Current Settings	Active Cal Settings
! TIME:             	05/09/2018 08:20:53 AM	05/09/2018 08:17:55 AM
! INTERNAL TEMP:    	41.3 C	41.3 C
! # POINTS:         	500	500
! START FREQ:       	20.000 MHz	20.000 MHz
! STOP FREQ:        	120.000 MHz	120.000 MHz
! SOURCE POWER:     	High	High
! IFBW:             	50 Hz	50 Hz
! AVG FACTOR:       	  1 	  1 
! REF PLANE 1:      	0 mm	0 mm
! REF PLANE 2:      	0 mm	0 mm
! CAL TYPE:         	Full S11	Full S11
! CAL METHOD:       	SOLT	SOLT
! CAL LINE TYPE:    	Coax	Coax
! DUT PORT 1:       	K-Conn(F)	K-Conn(F)
! DUT PORT 2:       	K-Conn(F)	K-Conn(F)
! CAL STATUS:       	OK: Accuracy High	--
! PROP-V:       	0.700
! CABLE LOSS:       	0.000 dB/m
! REF IMPEDANCE:       	50.0
! Trace Specific Parameters:	TR1	TR2	TR3	TR4
! TRACE.#.Y (GRAPH TYPE)	LOG MAG	PHASE	REAL IMPEDANCE	IMAGINARY IMPEDANCE
! TRACE.#.X 	FREQ.GHZ	FREQ.GHZ	FREQ.GHZ	FREQ.GHZ
! S-PARAMETER	S11	S11	S11	S11
! SMOOTH/APERTURE %	0	0	0	0
! WINDOW	NSL	NSL	NSL	NSL
! GATING	OFF	OFF	OFF	OFF
! FGTD	OFF	OFF	OFF	OFF
Marker Information per Trace:	TR1	TR2	TR3	TR4
!MK1	--	"MK1 TR2:  20.000 MHz,PH:-124.32°"	--	--
!MK2	--	--	"MK2 TR3:  70.100 200 MHz,Z:(17.296 ohm, -3.018 ohm)"	--
!MK3	--	--	--	--
!MK4	--	--	--	--
!MK5	--	--	--	--
!MK6	--	--	--	--
!MK7	--	--	--	--
!MK8	--	--	--	--
PNT	TR1.FREQ.GHZ	TR1.LOG MAG.dB	TR2.FREQ.GHZ	TR2.PHASE.deg	TR3.FREQ.GHZ	TR3.REAL IMPEDANCE.ohm	TR4.FREQ.GHZ	TR4.IMAGINARY IMPEDANCE.ohm
1	  0.020000000	-6.040000E-01	  0.020000000	-1.243200E+02	  0.020000000	2.222000E+00	  0.020000000	-2.636500E+01
2	  0.020200402	-6.040000E-01	  0.020200402	-1.257650E+02	  0.020200402	2.193000E+00	  0.020200402	-2.556600E+01
3	  0.020400802	-6.040000E-01	  0.020400802	-1.272100E+02	  0.020400802	2.167000E+00	  0.020400802	-2.477700E+01
4	  0.020601204	-6.050000E-01	  0.020601204	-1.286440E+02	  0.020601204	2.142000E+00	  0.020601204	-2.400300E+01
5	  0.020801604	-6.100000E-01	  0.020801604	-1.301360E+02	  0.020801604	2.136000E+00	  0.020801604	-2.320700E+01
6	  0.021002004	-6.170000E-01	  0.021002004	-1.316470E+02	  0.021002004	2.132000E+00	  0.021002004	-2.241100E+01
7	  0.021202406	-6.220000E-01	  0.021202406	-1.331570E+02	  0.021202406	2.125000E+00	  0.021202406	-2.162600E+01
8	  0.021402806	-6.260000E-01	  0.021402806	-1.346740E+02	  0.021402806	2.114000E+00	  0.021402806	-2.084500E+01
9	  0.021603208	-6.290000E-01	  0.021603208	-1.361840E+02	  0.021603208	2.102000E+00	  0.021603208	-2.007700E+01
10	  0.021803608	-6.320000E-01	  0.021803608	-1.377040E+02	  0.021803608	2.092000E+00	  0.021803608	-1.931100E+01
11	  0.022004008	-6.380000E-01	  0.022004008	-1.392300E+02	  0.022004008	2.091000E+00	  0.022004008	-1.855000E+01
12	  0.022204408	-6.420000E-01	  0.022204408	-1.407700E+02	  0.022204408	2.081000E+00	  0.022204408	-1.779100E+01
13	  0.022404809	-6.470000E-01	  0.022404809	-1.423250E+02	  0.022404809	2.079000E+00	  0.022404809	-1.703100E+01
14	  0.022605211	-6.500000E-01	  0.022605211	-1.439000E+02	  0.022605211	2.068000E+00	  0.022605211	-1.626800E+01
15	  0.022805611	-6.520000E-01	  0.022805611	-1.454780E+02	  0.022805611	2.057000E+00	  0.022805611	-1.551100E+01
16	  0.023006011	-6.550000E-01	  0.023006011	-1.470460E+02	  0.023006011	2.050000E+00	  0.023006011	-1.476500E+01
17	  0.023206413	-6.570000E-01	  0.023206413	-1.486240E+02	  0.023206413	2.039000E+00	  0.023206413	-1.402000E+01
18	  0.023406813	-6.610000E-01	  0.023406813	-1.501960E+02	  0.023406813	2.036000E+00	  0.023406813	-1.328500E+01
19	  0.023607215	-6.650000E-01	  0.023607215	-1.517720E+02	  0.023607215	2.034000E+00	  0.023607215	-1.255200E+01
20	  0.023807615	-6.730000E-01	  0.023807615	-1.533790E+02	  0.023807615	2.045000E+00	  0.023807615	-1.181000E+01
21	  0.024008015	-6.830000E-01	  0.024008015	-1.549860E+02	  0.024008015	2.062000E+00	  0.024008015	-1.107300E+01
22	  0.024208417	-6.920000E-01	  0.024208417	-1.566230E+02	  0.024208417	2.077000E+00	  0.024208417	-1.032600E+01
23	  0.024408817	-7.020000E-01	  0.024408817	-1.582520E+02	  0.024408817	2.094000E+00	  0.024408817	-9.588000E+00
24	  0.024609219	-7.090000E-01	  0.024609219	-1.598860E+02	  0.024609219	2.105000E+00	  0.024609219	-8.852000E+00
25	  0.024809619	-7.190000E-01	  0.024809619	-1.615260E+02	  0.024809619	2.125000E+00	  0.024809619	-8.117000E+00
26	  0.025010020	-7.290000E-01	  0.025010020	-1.631740E+02	  0.025010020	2.145000E+00	  0.025010020	-7.381000E+00
27	  0.025210422	-7.430000E-01	  0.025210422	-1.648270E+02	  0.025210422	2.175000E+00	  0.025210422	-6.646000E+00
28	  0.025410822	-7.570000E-01	  0.025410822	-1.665000E+02	  0.025410822	2.209000E+00	  0.025410822	-5.906000E+00
29	  0.025611224	-7.710000E-01	  0.025611224	-1.682020E+02	  0.025611224	2.242000E+00	  0.025611224	-5.155000E+00
30	  0.025811624	-7.820000E-01	  0.025811624	-1.699020E+02	  0.025811624	2.267000E+00	  0.025811624	-4.408000E+00
31	  0.026012026	-7.900000E-01	  0.026012026	-1.716080E+02	  0.026012026	2.285000E+00	  0.026012026	-3.660000E+00
32	  0.026212426	-8.020000E-01	  0.026212426	-1.733300E+02	  0.026212426	2.317000E+00	  0.026212426	-2.907000E+00
33	  0.026412826	-8.180000E-01	  0.026412826	-1.750540E+02	  0.026412826	2.357000E+00	  0.026412826	-2.154000E+00
34	  0.026613226	-8.310000E-01	  0.026613226	-1.767840E+02	  0.026613226	2.393000E+00	  0.026613226	-1.400000E+00
35	  0.026813626	-8.470000E-01	  0.026813626	-1.785270E+02	  0.026813626	2.436000E+00	  0.026813626	-6.400000E-01
36	  0.027014028	-8.640000E-01	  0.027014028	1.797120E+02	  0.027014028	2.486000E+00	  0.027014028	1.250000E-01
37	  0.027214428	-8.790000E-01	  0.027214428	1.779450E+02	  0.027214428	2.530000E+00	  0.027214428	8.940000E-01
38	  0.027414829	-8.950000E-01	  0.027414829	1.761610E+02	  0.027414829	2.578000E+00	  0.027414829	1.671000E+00
39	  0.027615231	-9.120000E-01	  0.027615231	1.743650E+02	  0.027615231	2.629000E+00	  0.027615231	2.453000E+00
40	  0.027815631	-9.330000E-01	  0.027815631	1.725780E+02	  0.027815631	2.695000E+00	  0.027815631	3.233000E+00
41	  0.028016033	-9.550000E-01	  0.028016033	1.707630E+02	  0.028016033	2.765000E+00	  0.028016033	4.026000E+00
42	  0.028216433	-9.770000E-01	  0.028216433	1.689540E+02	  0.028216433	2.836000E+00	  0.028216433	4.819000E+00
43	  0.028416833	-9.970000E-01	  0.028416833	1.671220E+02	  0.028416833	2.905000E+00	  0.028416833	5.623000E+00
44	  0.028617235	-1.016000E+00	  0.028617235	1.653020E+02	  0.028617235	2.972000E+00	  0.028617235	6.425000E+00
45	  0.028817635	-1.037000E+00	  0.028817635	1.634840E+02	  0.028817635	3.044000E+00	  0.028817635	7.230000E+00
46	  0.029018037	-1.057000E+00	  0.029018037	1.616800E+02	  0.029018037	3.118000E+00	  0.029018037	8.031000E+00
47	  0.029218437	-1.080000E+00	  0.029218437	1.598530E+02	  0.029218437	3.202000E+00	  0.029218437	8.846000E+00
48	  0.029418837	-1.104000E+00	  0.029418837	1.580240E+02	  0.029418837	3.293000E+00	  0.029418837	9.667000E+00
49	  0.029619239	-1.133000E+00	  0.029619239	1.561690E+02	  0.029619239	3.401000E+00	  0.029619239	1.050300E+01
50	  0.029819639	-1.161000E+00	  0.029819639	1.543000E+02	  0.029819639	3.511000E+00	  0.029819639	1.135100E+01
51	  0.030020041	-1.192000E+00	  0.030020041	1.523930E+02	  0.030020041	3.631000E+00	  0.030020041	1.222200E+01
52	  0.030220442	-1.222000E+00	  0.030220442	1.504670E+02	  0.030220442	3.756000E+00	  0.030220442	1.310900E+01
53	  0.030420844	-1.253000E+00	  0.030420844	1.485560E+02	  0.030420844	3.886000E+00	  0.030420844	1.399500E+01
54	  0.030621244	-1.286000E+00	  0.030621244	1.466520E+02	  0.030621244	4.025000E+00	  0.030621244	1.488600E+01
55	  0.030821644	-1.320000E+00	  0.030821644	1.447300E+02	  0.030821644	4.174000E+00	  0.030821644	1.579300E+01
56	  0.031022044	-1.355000E+00	  0.031022044	1.427970E+02	  0.031022044	4.333000E+00	  0.031022044	1.671400E+01
57	  0.031222444	-1.390000E+00	  0.031222444	1.408790E+02	  0.031222444	4.492000E+00	  0.031222444	1.763700E+01
58	  0.031422846	-1.428000E+00	  0.031422846	1.388740E+02	  0.031422846	4.673000E+00	  0.031422846	1.861200E+01
59	  0.031623244	-1.465000E+00	  0.031623244	1.368770E+02	  0.031623244	4.858000E+00	  0.031623244	1.959500E+01
60	  0.031823646	-1.500000E+00	  0.031823646	1.348830E+02	  0.031823646	5.045000E+00	  0.031823646	2.058900E+01
61	  0.032024048	-1.535000E+00	  0.032024048	1.328900E+02	  0.032024048	5.239000E+00	  0.032024048	2.159600E+01
62	  0.032224450	-1.570000E+00	  0.032224450	1.309070E+02	  0.032224450	5.439000E+00	  0.032224450	2.261100E+01
63	  0.032424849	-1.607000E+00	  0.032424849	1.289430E+02	  0.032424849	5.655000E+00	  0.032424849	2.362900E+01
64	  0.032625251	-1.646000E+00	  0.032625251	1.269700E+02	  0.032625251	5.887000E+00	  0.032625251	2.466700E+01
65	  0.032825653	-1.689000E+00	  0.032825653	1.249890E+02	  0.032825653	6.147000E+00	  0.032825653	2.572300E+01
66	  0.033026051	-1.735000E+00	  0.033026051	1.230120E+02	  0.033026051	6.427000E+00	  0.033026051	2.679300E+01
67	  0.033226453	-1.786000E+00	  0.033226453	1.210050E+02	  0.033226453	6.742000E+00	  0.033226453	2.789400E+01
68	  0.033426855	-1.842000E+00	  0.033426855	1.190070E+02	  0.033426855	7.089000E+00	  0.033426855	2.900600E+01
69	  0.033627257	-1.897000E+00	  0.033627257	1.169820E+02	  0.033627257	7.451000E+00	  0.033627257	3.015300E+01
70	  0.033827655	-1.951000E+00	  0.033827655	1.149100E+02	  0.033827655	7.832000E+00	  0.033827655	3.134900E+01
71	  0.034028057	-2.003000E+00	  0.034028057	1.127950E+02	  0.034028057	8.227000E+00	  0.034028057	3.259500E+01
72	  0.034228459	-2.055000E+00	  0.034228459	1.106830E+02	  0.034228459	8.644000E+00	  0.034228459	3.386300E+01
73	  0.034428857	-2.106000E+00	  0.034428857	1.085350E+02	  0.034428857	9.086000E+00	  0.034428857	3.518200E+01
74	  0.034629259	-2.151000E+00	  0.034629259	1.064330E+02	  0.034629259	9.525000E+00	  0.034629259	3.650400E+01
75	  0.034829661	-2.197000E+00	  0.034829661	1.043120E+02	  0.034829661	9.991000E+00	  0.034829661	3.786800E+01
76	  0.035030060	-2.241000E+00	  0.035030060	1.022270E+02	  0.035030060	1.047500E+01	  0.035030060	3.924000E+01
77	  0.035230462	-2.287000E+00	  0.035230462	1.001380E+02	  0.035230462	1.099800E+01	  0.035230462	4.064700E+01
78	  0.035430863	-2.332000E+00	  0.035430863	9.806500E+01	  0.035430863	1.154800E+01	  0.035430863	4.207500E+01
79	  0.035631265	-2.379000E+00	  0.035631265	9.598600E+01	  0.035631265	1.214200E+01	  0.035631265	4.354200E+01
80	  0.035831664	-2.427000E+00	  0.035831664	9.393400E+01	  0.035831664	1.277600E+01	  0.035831664	4.502300E+01
81	  0.036032066	-2.476000E+00	  0.036032066	9.190300E+01	  0.036032066	1.345300E+01	  0.036032066	4.652300E+01
82	  0.036232468	-2.526000E+00	  0.036232468	8.987300E+01	  0.036232468	1.417800E+01	  0.036232468	4.805700E+01
83	  0.036432866	-2.580000E+00	  0.036432866	8.785300E+01	  0.036432866	1.497100E+01	  0.036432866	4.961700E+01
84	  0.036633268	-2.639000E+00	  0.036633268	8.582600E+01	  0.036633268	1.584700E+01	  0.036633268	5.121100E+01
85	  0.036833670	-2.702000E+00	  0.036833670	8.379900E+01	  0.036833670	1.680400E+01	  0.036833670	5.283500E+01
86	  0.037034072	-2.768000E+00	  0.037034072	8.172500E+01	  0.037034072	1.786100E+01	  0.037034072	5.453500E+01
87	  0.037234470	-2.832000E+00	  0.037234470	7.962900E+01	  0.037234470	1.899300E+01	  0.037234470	5.629800E+01
88	  0.037434869	-2.897000E+00	  0.037434869	7.754500E+01	  0.037434869	2.021400E+01	  0.037434869	5.808900E+01
89	  0.037635271	-2.959000E+00	  0.037635271	7.543900E+01	  0.037635271	2.151500E+01	  0.037635271	5.995200E+01
90	  0.037835669	-3.020000E+00	  0.037835669	7.330800E+01	  0.037835669	2.292600E+01	  0.037835669	6.188700E+01
91	  0.038036071	-3.078000E+00	  0.038036071	7.113900E+01	  0.038036071	2.444800E+01	  0.038036071	6.392000E+01
92	  0.038236473	-3.137000E+00	  0.038236473	6.893600E+01	  0.038236473	2.612400E+01	  0.038236473	6.603600E+01
93	  0.038436871	-3.197000E+00	  0.038436871	6.677500E+01	  0.038436871	2.792200E+01	  0.038436871	6.815300E+01
94	  0.038637273	-3.255000E+00	  0.038637273	6.466500E+01	  0.038637273	2.982700E+01	  0.038637273	7.026200E+01
95	  0.038837675	-3.308000E+00	  0.038837675	6.257000E+01	  0.038837675	3.183400E+01	  0.038837675	7.242600E+01
96	  0.039038073	-3.360000E+00	  0.039038073	6.052000E+01	  0.039038073	3.397700E+01	  0.039038073	7.457300E+01
97	  0.039238475	-3.417000E+00	  0.039238475	5.848500E+01	  0.039238475	3.632000E+01	  0.039238475	7.670800E+01
98	  0.039438877	-3.477000E+00	  0.039438877	5.646800E+01	  0.039438877	3.887500E+01	  0.039438877	7.881200E+01
99	  0.039639279	-3.542000E+00	  0.039639279	5.443200E+01	  0.039639279	4.169800E+01	  0.039639279	8.091400E+01
100	  0.039839678	-3.604000E+00	  0.039839678	5.238300E+01	  0.039839678	4.476400E+01	  0.039839678	8.303200E+01
101	  0.040040080	-3.675000E+00	  0.040040080	5.032100E+01	  0.040040080	4.817900E+01	  0.040040080	8.505800E+01
102	  0.040240481	-3.739000E+00	  0.040240481	4.824900E+01	  0.040240481	5.183500E+01	  0.040240481	8.710900E+01
103	  0.040440880	-3.809000E+00	  0.040440880	4.618000E+01	  0.040440880	5.585100E+01	  0.040440880	8.900400E+01
104	  0.040641282	-3.875000E+00	  0.040641282	4.410700E+01	  0.040641282	6.017400E+01	  0.040641282	9.082300E+01
105	  0.040841684	-3.936000E+00	  0.040841684	4.203500E+01	  0.040841684	6.480700E+01	  0.040841684	9.255500E+01
106	  0.041042086	-3.999000E+00	  0.041042086	3.996700E+01	  0.041042086	6.982500E+01	  0.041042086	9.405400E+01
107	  0.041242484	-4.060000E+00	  0.041242484	3.789200E+01	  0.041242484	7.524000E+01	  0.041242484	9.533500E+01
108	  0.041442886	-4.121000E+00	  0.041442886	3.581100E+01	  0.041442886	8.106600E+01	  0.041442886	9.632100E+01
109	  0.041643288	-4.179000E+00	  0.041643288	3.373500E+01	  0.041643288	8.727900E+01	  0.041643288	9.695700E+01
110	  0.041843686	-4.232000E+00	  0.041843686	3.166600E+01	  0.041843686	9.386200E+01	  0.041843686	9.722400E+01
111	  0.042044088	-4.284000E+00	  0.042044088	2.964800E+01	  0.042044088	1.006620E+02	  0.042044088	9.697100E+01
112	  0.042244490	-4.341000E+00	  0.042244490	2.760900E+01	  0.042244490	1.078890E+02	  0.042244490	9.599300E+01
113	  0.042444889	-4.391000E+00	  0.042444889	2.560700E+01	  0.042444889	1.152630E+02	  0.042444889	9.444700E+01
114	  0.042645290	-4.444000E+00	  0.042645290	2.360200E+01	  0.042645290	1.228580E+02	  0.042645290	9.206300E+01
115	  0.042845692	-4.498000E+00	  0.042845692	2.160800E+01	  0.042845692	1.305060E+02	  0.042845692	8.878100E+01
116	  0.043046094	-4.549000E+00	  0.043046094	1.961600E+01	  0.043046094	1.381420E+02	  0.043046094	8.462900E+01
117	  0.043246493	-4.600000E+00	  0.043246493	1.762600E+01	  0.043246493	1.455930E+02	  0.043246493	7.947800E+01
118	  0.043446895	-4.651000E+00	  0.043446895	1.563400E+01	  0.043446895	1.526980E+02	  0.043446895	7.328600E+01
119	  0.043647297	-4.703000E+00	  0.043647297	1.365800E+01	  0.043647297	1.591870E+02	  0.043647297	6.613500E+01
120	  0.043847695	-4.755000E+00	  0.043847695	1.170100E+01	  0.043847695	1.648800E+02	  0.043847695	5.812600E+01
121	  0.044048097	-4.805000E+00	  0.044048097	9.720000E+00	  0.044048097	1.698130E+02	  0.044048097	4.927400E+01
122	  0.044248499	-4.855000E+00	  0.044248499	7.778000E+00	  0.044248499	1.735720E+02	  0.044248499	3.991300E+01
123	  0.044448901	-4.904000E+00	  0.044448901	5.824000E+00	  0.044448901	1.762180E+02	  0.044448901	3.004800E+01
124	  0.044649299	-4.951000E+00	  0.044649299	3.881000E+00	  0.044649299	1.777160E+02	  0.044649299	2.000400E+01
125	  0.044849701	-4.995000E+00	  0.044849701	1.938000E+00	  0.044849701	1.780410E+02	  0.044849701	9.914000E+00
126	  0.045050103	-5.038000E+00	  0.045050103	2.000000E-03	  0.045050103	1.771830E+02	  0.045050103	1.000000E-02
127	  0.045250501	-5.080000E+00	  0.045250501	-1.910000E+00	  0.045250501	1.752650E+02	  0.045250501	-9.441000E+00
128	  0.045450903	-5.124000E+00	  0.045450903	-3.793000E+00	  0.045450903	1.722660E+02	  0.045450903	-1.823700E+01
129	  0.045651305	-5.167000E+00	  0.045651305	-5.681000E+00	  0.045651305	1.684610E+02	  0.045651305	-2.644200E+01
130	  0.045851704	-5.213000E+00	  0.045851704	-7.541000E+00	  0.045851704	1.639310E+02	  0.045851704	-3.377700E+01
131	  0.046052106	-5.253000E+00	  0.046052106	-9.418000E+00	  0.046052106	1.589890E+02	  0.046052106	-4.050300E+01
132	  0.046252504	-5.294000E+00	  0.046252504	-1.130900E+01	  0.046252504	1.535480E+02	  0.046252504	-4.647000E+01
133	  0.046452906	-5.329000E+00	  0.046452906	-1.314900E+01	  0.046452906	1.480680E+02	  0.046452906	-5.159900E+01
134	  0.046653304	-5.366000E+00	  0.046653304	-1.502000E+01	  0.046653304	1.423000E+02	  0.046653304	-5.605900E+01
135	  0.046853706	-5.402000E+00	  0.046853706	-1.686500E+01	  0.046853706	1.365290E+02	  0.046853706	-5.975500E+01
136	  0.047054108	-5.436000E+00	  0.047054108	-1.871100E+01	  0.047054108	1.307920E+02	  0.047054108	-6.285400E+01
137	  0.047254506	-5.465000E+00	  0.047254506	-2.054500E+01	  0.047254506	1.252040E+02	  0.047254506	-6.542200E+01
138	  0.047454908	-5.497000E+00	  0.047454908	-2.236000E+01	  0.047454908	1.197520E+02	  0.047454908	-6.738700E+01
139	  0.047655310	-5.528000E+00	  0.047655310	-2.412500E+01	  0.047655310	1.146000E+02	  0.047655310	-6.885500E+01
140	  0.047855709	-5.560000E+00	  0.047855709	-2.587300E+01	  0.047855709	1.096590E+02	  0.047855709	-6.987900E+01
141	  0.048056111	-5.591000E+00	  0.048056111	-2.764800E+01	  0.048056111	1.048450E+02	  0.048056111	-7.060300E+01
142	  0.048256513	-5.621000E+00	  0.048256513	-2.941300E+01	  0.048256513	1.002670E+02	  0.048256513	-7.102500E+01
143	  0.048456915	-5.651000E+00	  0.048456915	-3.114700E+01	  0.048456915	9.597200E+01	  0.048456915	-7.116300E+01
144	  0.048657313	-5.675000E+00	  0.048657313	-3.289300E+01	  0.048657313	9.186200E+01	  0.048657313	-7.117200E+01
145	  0.048857715	-5.702000E+00	  0.048857715	-3.463800E+01	  0.048857715	8.795400E+01	  0.048857715	-7.093800E+01
146	  0.049058117	-5.725000E+00	  0.049058117	-3.637200E+01	  0.049058117	8.426800E+01	  0.049058117	-7.058300E+01
147	  0.049258515	-5.750000E+00	  0.049258515	-3.806000E+01	  0.049258515	8.086500E+01	  0.049258515	-7.007300E+01
148	  0.049458917	-5.772000E+00	  0.049458917	-3.980400E+01	  0.049458917	7.753100E+01	  0.049458917	-6.945000E+01
149	  0.049659319	-5.798000E+00	  0.049659319	-4.146700E+01	  0.049659319	7.452500E+01	  0.049659319	-6.871100E+01
150	  0.049859721	-5.821000E+00	  0.049859721	-4.315800E+01	  0.049859721	7.162700E+01	  0.049859721	-6.790600E+01
151	  0.050060119	-5.843000E+00	  0.050060119	-4.485600E+01	  0.050060119	6.887200E+01	  0.050060119	-6.703800E+01
152	  0.050260521	-5.859000E+00	  0.050260521	-4.652400E+01	  0.050260521	6.629400E+01	  0.050260521	-6.618100E+01
153	  0.050460923	-5.874000E+00	  0.050460923	-4.822900E+01	  0.050460923	6.379800E+01	  0.050460923	-6.525700E+01
154	  0.050661322	-5.887000E+00	  0.050661322	-4.985200E+01	  0.050661322	6.153800E+01	  0.050661322	-6.435100E+01
155	  0.050861724	-5.903000E+00	  0.050861724	-5.151200E+01	  0.050861724	5.935300E+01	  0.050861724	-6.336500E+01
156	  0.051062126	-5.915000E+00	  0.051062126	-5.312800E+01	  0.051062126	5.732500E+01	  0.051062126	-6.240500E+01
157	  0.051262524	-5.927000E+00	  0.051262524	-5.468000E+01	  0.051262524	5.547700E+01	  0.051262524	-6.145300E+01
158	  0.051462926	-5.940000E+00	  0.051462926	-5.626100E+01	  0.051462926	5.369300E+01	  0.051462926	-6.045400E+01
159	  0.051663328	-5.953000E+00	  0.051663328	-5.781800E+01	  0.051663328	5.201900E+01	  0.051663328	-5.946300E+01
160	  0.051863730	-5.968000E+00	  0.051863730	-5.936600E+01	  0.051863730	5.044200E+01	  0.051863730	-5.845700E+01
161	  0.052064128	-5.981000E+00	  0.052064128	-6.093400E+01	  0.052064128	4.891800E+01	  0.052064128	-5.744300E+01
162	  0.052264530	-5.996000E+00	  0.052264530	-6.249500E+01	  0.052264530	4.748400E+01	  0.052264530	-5.641300E+01
163	  0.052464932	-6.010000E+00	  0.052464932	-6.406600E+01	  0.052464932	4.610200E+01	  0.052464932	-5.539100E+01
164	  0.052665330	-6.026000E+00	  0.052665330	-6.563000E+01	  0.052665330	4.480500E+01	  0.052665330	-5.435800E+01
165	  0.052865732	-6.039000E+00	  0.052865732	-6.717900E+01	  0.052865732	4.357000E+01	  0.052865732	-5.335400E+01
166	  0.053066134	-6.049000E+00	  0.053066134	-6.872800E+01	  0.053066134	4.238100E+01	  0.053066134	-5.237000E+01
167	  0.053266536	-6.057000E+00	  0.053266536	-7.026600E+01	  0.053266536	4.124800E+01	  0.053266536	-5.140500E+01
168	  0.053466935	-6.065000E+00	  0.053466935	-7.182000E+01	  0.053466935	4.015600E+01	  0.053466935	-5.043400E+01
169	  0.053667337	-6.066000E+00	  0.053667337	-7.335200E+01	  0.053667337	3.910300E+01	  0.053667337	-4.951100E+01
170	  0.053867739	-6.071000E+00	  0.053867739	-7.486600E+01	  0.053867739	3.811900E+01	  0.053867739	-4.859000E+01
171	  0.054068137	-6.075000E+00	  0.054068137	-7.637700E+01	  0.054068137	3.717800E+01	  0.054068137	-4.767700E+01
172	  0.054268539	-6.078000E+00	  0.054268539	-7.784000E+01	  0.054268539	3.630500E+01	  0.054268539	-4.680000E+01
173	  0.054468941	-6.081000E+00	  0.054468941	-7.931100E+01	  0.054468941	3.546400E+01	  0.054468941	-4.592500E+01
174	  0.054669339	-6.085000E+00	  0.054669339	-8.073500E+01	  0.054669339	3.468500E+01	  0.054669339	-4.508100E+01
175	  0.054869737	-6.093000E+00	  0.054869737	-8.215700E+01	  0.054869737	3.395600E+01	  0.054869737	-4.422800E+01
176	  0.055070139	-6.094000E+00	  0.055070139	-8.358100E+01	  0.055070139	3.322700E+01	  0.055070139	-4.340700E+01
177	  0.055270538	-6.101000E+00	  0.055270538	-8.500200E+01	  0.055270538	3.255100E+01	  0.055270538	-4.257500E+01
178	  0.055470940	-6.109000E+00	  0.055470940	-8.642300E+01	  0.055470940	3.190700E+01	  0.055470940	-4.174600E+01
179	  0.055671342	-6.111000E+00	  0.055671342	-8.783700E+01	  0.055671342	3.127000E+01	  0.055671342	-4.094800E+01
180	  0.055871744	-6.117000E+00	  0.055871744	-8.925500E+01	  0.055871744	3.067000E+01	  0.055871744	-4.014300E+01
181	  0.056072142	-6.123000E+00	  0.056072142	-9.065700E+01	  0.056072142	3.010300E+01	  0.056072142	-3.935200E+01
182	  0.056272544	-6.130000E+00	  0.056272544	-9.206900E+01	  0.056272544	2.955600E+01	  0.056272544	-3.856200E+01
183	  0.056472946	-6.131000E+00	  0.056472946	-9.347000E+01	  0.056472946	2.901000E+01	  0.056472946	-3.780300E+01
184	  0.056673344	-6.129000E+00	  0.056673344	-9.486900E+01	  0.056673344	2.847900E+01	  0.056673344	-3.705600E+01
185	  0.056873746	-6.136000E+00	  0.056873746	-9.625700E+01	  0.056873746	2.800200E+01	  0.056873746	-3.630100E+01
186	  0.057074148	-6.132000E+00	  0.057074148	-9.764900E+01	  0.057074148	2.750100E+01	  0.057074148	-3.557800E+01
187	  0.057274550	-6.131000E+00	  0.057274550	-9.902200E+01	  0.057274550	2.704000E+01	  0.057274550	-3.486000E+01
188	  0.057474948	-6.134000E+00	  0.057474948	-1.003800E+02	  0.057474948	2.660900E+01	  0.057474948	-3.415100E+01
189	  0.057675350	-6.132000E+00	  0.057675350	-1.017100E+02	  0.057675350	2.618900E+01	  0.057675350	-3.347100E+01
190	  0.057875752	-6.129000E+00	  0.057875752	-1.030370E+02	  0.057875752	2.578100E+01	  0.057875752	-3.279900E+01
191	  0.058076151	-6.129000E+00	  0.058076151	-1.043250E+02	  0.058076151	2.540700E+01	  0.058076151	-3.214700E+01
192	  0.058276553	-6.132000E+00	  0.058276553	-1.056090E+02	  0.058276553	2.505500E+01	  0.058276553	-3.149800E+01
193	  0.058476955	-6.133000E+00	  0.058476955	-1.069070E+02	  0.058476955	2.470800E+01	  0.058476955	-3.085000E+01
194	  0.058677353	-6.137000E+00	  0.058677353	-1.082010E+02	  0.058677353	2.438100E+01	  0.058677353	-3.020500E+01
195	  0.058877755	-6.135000E+00	  0.058877755	-1.094810E+02	  0.058877755	2.405200E+01	  0.058877755	-2.958000E+01
196	  0.059078157	-6.140000E+00	  0.059078157	-1.107490E+02	  0.059078157	2.375800E+01	  0.059078157	-2.895600E+01
197	  0.059278559	-6.145000E+00	  0.059278559	-1.120240E+02	  0.059278559	2.347400E+01	  0.059278559	-2.833300E+01
198	  0.059478957	-6.151000E+00	  0.059478957	-1.133260E+02	  0.059478957	2.319500E+01	  0.059478957	-2.770200E+01
199	  0.059679359	-6.152000E+00	  0.059679359	-1.146100E+02	  0.059679359	2.291600E+01	  0.059679359	-2.709000E+01
200	  0.059879761	-6.151000E+00	  0.059879761	-1.158600E+02	  0.059879761	2.264600E+01	  0.059879761	-2.650300E+01
201	  0.060080159	-6.155000E+00	  0.060080159	-1.171400E+02	  0.060080159	2.239500E+01	  0.060080159	-2.589900E+01
202	  0.060280561	-6.158000E+00	  0.060280561	-1.183810E+02	  0.060280561	2.215600E+01	  0.060280561	-2.531900E+01
203	  0.060480963	-6.156000E+00	  0.060480963	-1.196240E+02	  0.060480963	2.191200E+01	  0.060480963	-2.474900E+01
204	  0.060681365	-6.154000E+00	  0.060681365	-1.208630E+02	  0.060681365	2.167500E+01	  0.060681365	-2.418300E+01
205	  0.060881764	-6.156000E+00	  0.060881764	-1.220970E+02	  0.060881764	2.145800E+01	  0.060881764	-2.362000E+01
206	  0.061082166	-6.155000E+00	  0.061082166	-1.233500E+02	  0.061082166	2.123800E+01	  0.061082166	-2.305500E+01
207	  0.061282568	-6.155000E+00	  0.061282568	-1.245380E+02	  0.061282568	2.103800E+01	  0.061282568	-2.252200E+01
208	  0.061482966	-6.150000E+00	  0.061482966	-1.257080E+02	  0.061482966	2.083500E+01	  0.061482966	-2.200400E+01
209	  0.061683368	-6.150000E+00	  0.061683368	-1.268990E+02	  0.061683368	2.064600E+01	  0.061683368	-2.147600E+01
210	  0.061883770	-6.150000E+00	  0.061883770	-1.280530E+02	  0.061883770	2.047100E+01	  0.061883770	-2.096600E+01
211	  0.062084168	-6.153000E+00	  0.062084168	-1.292110E+02	  0.062084168	2.030900E+01	  0.062084168	-2.045600E+01
212	  0.062284570	-6.155000E+00	  0.062284570	-1.304090E+02	  0.062284570	2.014300E+01	  0.062284570	-1.993200E+01
213	  0.062484972	-6.150000E+00	  0.062484972	-1.315220E+02	  0.062484972	1.997500E+01	  0.062484972	-1.945400E+01
214	  0.062685370	-6.158000E+00	  0.062685370	-1.326850E+02	  0.062685370	1.984300E+01	  0.062685370	-1.894500E+01
215	  0.062885776	-6.157000E+00	  0.062885776	-1.338500E+02	  0.062885776	1.968800E+01	  0.062885776	-1.844600E+01
216	  0.063086174	-6.164000E+00	  0.063086174	-1.350020E+02	  0.063086174	1.956600E+01	  0.063086174	-1.794800E+01
217	  0.063286573	-6.163000E+00	  0.063286573	-1.361770E+02	  0.063286573	1.942200E+01	  0.063286573	-1.745000E+01
218	  0.063486971	-6.165000E+00	  0.063486971	-1.373140E+02	  0.063486971	1.929400E+01	  0.063486971	-1.696800E+01
219	  0.063687377	-6.159000E+00	  0.063687377	-1.384850E+02	  0.063687377	1.914600E+01	  0.063687377	-1.648000E+01
220	  0.063887775	-6.158000E+00	  0.063887775	-1.396300E+02	  0.063887775	1.901900E+01	  0.063887775	-1.600100E+01
221	  0.064088173	-6.163000E+00	  0.064088173	-1.407750E+02	  0.064088173	1.891400E+01	  0.064088173	-1.552000E+01
222	  0.064288579	-6.163000E+00	  0.064288579	-1.418920E+02	  0.064288579	1.880300E+01	  0.064288579	-1.505600E+01
223	  0.064488977	-6.160000E+00	  0.064488977	-1.429960E+02	  0.064488977	1.868600E+01	  0.064488977	-1.460200E+01
224	  0.064689375	-6.162000E+00	  0.064689375	-1.440980E+02	  0.064689375	1.859000E+01	  0.064689375	-1.414600E+01
225	  0.064889781	-6.158000E+00	  0.064889781	-1.452000E+02	  0.064889781	1.848000E+01	  0.064889781	-1.369700E+01
226	  0.065090179	-6.163000E+00	  0.065090179	-1.463000E+02	  0.065090179	1.839700E+01	  0.065090179	-1.324500E+01
227	  0.065290578	-6.166000E+00	  0.065290578	-1.473520E+02	  0.065290578	1.831600E+01	  0.065290578	-1.281500E+01
228	  0.065490983	-6.166000E+00	  0.065490983	-1.484320E+02	  0.065490983	1.823000E+01	  0.065490983	-1.237600E+01
229	  0.065691382	-6.168000E+00	  0.065691382	-1.495260E+02	  0.065691382	1.815200E+01	  0.065691382	-1.193300E+01
230	  0.065891780	-6.172000E+00	  0.065891780	-1.505890E+02	  0.065891780	1.808300E+01	  0.065891780	-1.150300E+01
231	  0.066092186	-6.174000E+00	  0.066092186	-1.516720E+02	  0.066092186	1.801100E+01	  0.066092186	-1.106700E+01
232	  0.066292584	-6.179000E+00	  0.066292584	-1.527380E+02	  0.066292584	1.795300E+01	  0.066292584	-1.063800E+01
233	  0.066492982	-6.179000E+00	  0.066492982	-1.537960E+02	  0.066492982	1.788400E+01	  0.066492982	-1.021500E+01
234	  0.066693388	-6.180000E+00	  0.066693388	-1.548490E+02	  0.066693388	1.781900E+01	  0.066693388	-9.796000E+00
235	  0.066893786	-6.183000E+00	  0.066893786	-1.559180E+02	  0.066893786	1.776500E+01	  0.066893786	-9.370000E+00
236	  0.067094192	-6.187000E+00	  0.067094192	-1.569710E+02	  0.067094192	1.771500E+01	  0.067094192	-8.951000E+00
237	  0.067294590	-6.191000E+00	  0.067294590	-1.580140E+02	  0.067294590	1.766900E+01	  0.067294590	-8.538000E+00
238	  0.067494988	-6.190000E+00	  0.067494988	-1.590530E+02	  0.067494988	1.761200E+01	  0.067494988	-8.129000E+00
239	  0.067695394	-6.194000E+00	  0.067695394	-1.600970E+02	  0.067695394	1.757300E+01	  0.067695394	-7.717000E+00
240	  0.067895792	-6.196000E+00	  0.067895792	-1.611250E+02	  0.067895792	1.753100E+01	  0.067895792	-7.313000E+00
241	  0.068096191	-6.200000E+00	  0.068096191	-1.621580E+02	  0.068096191	1.749700E+01	  0.068096191	-6.907000E+00
242	  0.068296596	-6.203000E+00	  0.068296596	-1.631760E+02	  0.068296596	1.746100E+01	  0.068296596	-6.508000E+00
243	  0.068496995	-6.207000E+00	  0.068496995	-1.641850E+02	  0.068496995	1.743300E+01	  0.068496995	-6.114000E+00
244	  0.068697393	-6.210000E+00	  0.068697393	-1.651860E+02	  0.068697393	1.740500E+01	  0.068697393	-5.723000E+00
245	  0.068897791	-6.210000E+00	  0.068897791	-1.661970E+02	  0.068897791	1.737300E+01	  0.068897791	-5.330000E+00
246	  0.069098189	-6.214000E+00	  0.069098189	-1.671850E+02	  0.069098189	1.735200E+01	  0.069098189	-4.946000E+00
247	  0.069298595	-6.218000E+00	  0.069298595	-1.681850E+02	  0.069298595	1.733400E+01	  0.069298595	-4.557000E+00
248	  0.069498993	-6.225000E+00	  0.069498993	-1.691680E+02	  0.069498993	1.732300E+01	  0.069498993	-4.175000E+00
249	  0.069699399	-6.233000E+00	  0.069699399	-1.701680E+02	  0.069699399	1.732000E+01	  0.069699399	-3.787000E+00
250	  0.069899797	-6.235000E+00	  0.069899797	-1.711720E+02	  0.069899797	1.730500E+01	  0.069899797	-3.399000E+00
251	  0.070100196	-6.239000E+00	  0.070100196	-1.721580E+02	  0.070100196	1.729500E+01	  0.070100196	-3.018000E+00
252	  0.070300601	-6.245000E+00	  0.070300601	-1.731450E+02	  0.070300601	1.729400E+01	  0.070300601	-2.637000E+00
253	  0.070501000	-6.248000E+00	  0.070501000	-1.741070E+02	  0.070501000	1.728800E+01	  0.070501000	-2.266000E+00
254	  0.070701398	-6.250000E+00	  0.070701398	-1.750850E+02	  0.070701398	1.728100E+01	  0.070701398	-1.889000E+00
255	  0.070901804	-6.259000E+00	  0.070901804	-1.760650E+02	  0.070901804	1.729200E+01	  0.070901804	-1.512000E+00
256	  0.071102202	-6.262000E+00	  0.071102202	-1.770570E+02	  0.071102202	1.729300E+01	  0.071102202	-1.130000E+00
257	  0.071302600	-6.271000E+00	  0.071302600	-1.780040E+02	  0.071302600	1.730900E+01	  0.071302600	-7.660000E-01
258	  0.071503006	-6.278000E+00	  0.071503006	-1.789630E+02	  0.071503006	1.732500E+01	  0.071503006	-3.970000E-01
259	  0.071703404	-6.286000E+00	  0.071703404	-1.798710E+02	  0.071703404	1.734200E+01	  0.071703404	-4.900000E-02
260	  0.071903802	-6.289000E+00	  0.071903802	1.791730E+02	  0.071903802	1.735200E+01	  0.071903802	3.170000E-01
261	  0.072104208	-6.299000E+00	  0.072104208	1.781950E+02	  0.072104208	1.738000E+01	  0.072104208	6.920000E-01
262	  0.072304606	-6.308000E+00	  0.072304606	1.772760E+02	  0.072304606	1.740800E+01	  0.072304606	1.044000E+00
263	  0.072505005	-6.311000E+00	  0.072505005	1.763690E+02	  0.072505005	1.742300E+01	  0.072505005	1.392000E+00
264	  0.072705410	-6.319000E+00	  0.072705410	1.753910E+02	  0.072705410	1.745100E+01	  0.072705410	1.767000E+00
265	  0.072905809	-6.329000E+00	  0.072905809	1.744690E+02	  0.072905809	1.748700E+01	  0.072905809	2.120000E+00
266	  0.073106214	-6.334000E+00	  0.073106214	1.735330E+02	  0.073106214	1.751300E+01	  0.073106214	2.478000E+00
267	  0.073306613	-6.341000E+00	  0.073306613	1.726370E+02	  0.073306613	1.754600E+01	  0.073306613	2.822000E+00
268	  0.073507011	-6.349000E+00	  0.073507011	1.716930E+02	  0.073507011	1.758400E+01	  0.073507011	3.183000E+00
269	  0.073707417	-6.353000E+00	  0.073707417	1.707850E+02	  0.073707417	1.761100E+01	  0.073707417	3.532000E+00
270	  0.073907815	-6.365000E+00	  0.073907815	1.698940E+02	  0.073907815	1.766400E+01	  0.073907815	3.872000E+00
271	  0.074108213	-6.373000E+00	  0.074108213	1.689690E+02	  0.074108213	1.770500E+01	  0.074108213	4.227000E+00
272	  0.074308619	-6.379000E+00	  0.074308619	1.680610E+02	  0.074308619	1.774600E+01	  0.074308619	4.575000E+00
273	  0.074509017	-6.390000E+00	  0.074509017	1.671530E+02	  0.074509017	1.780100E+01	  0.074509017	4.923000E+00
274	  0.074709415	-6.398000E+00	  0.074709415	1.662650E+02	  0.074709415	1.784900E+01	  0.074709415	5.263000E+00
275	  0.074909821	-6.411000E+00	  0.074909821	1.653990E+02	  0.074909821	1.791200E+01	  0.074909821	5.594000E+00
276	  0.075110219	-6.420000E+00	  0.075110219	1.644990E+02	  0.075110219	1.796700E+01	  0.075110219	5.940000E+00
277	  0.075310618	-6.428000E+00	  0.075310618	1.636380E+02	  0.075310618	1.802100E+01	  0.075310618	6.270000E+00
278	  0.075511023	-6.438000E+00	  0.075511023	1.627390E+02	  0.075511023	1.808400E+01	  0.075511023	6.615000E+00
279	  0.075711422	-6.451000E+00	  0.075711422	1.618710E+02	  0.075711422	1.815400E+01	  0.075711422	6.947000E+00
280	  0.075911827	-6.460000E+00	  0.075911827	1.609890E+02	  0.075911827	1.821700E+01	  0.075911827	7.286000E+00
281	  0.076112226	-6.471000E+00	  0.076112226	1.601050E+02	  0.076112226	1.828700E+01	  0.076112226	7.626000E+00
282	  0.076312624	-6.484000E+00	  0.076312624	1.592300E+02	  0.076312624	1.836200E+01	  0.076312624	7.962000E+00
283	  0.076513030	-6.494000E+00	  0.076513030	1.583520E+02	  0.076513030	1.843600E+01	  0.076513030	8.299000E+00
284	  0.076713428	-6.501000E+00	  0.076713428	1.575010E+02	  0.076713428	1.850000E+01	  0.076713428	8.628000E+00
285	  0.076913826	-6.514000E+00	  0.076913826	1.566500E+02	  0.076913826	1.858200E+01	  0.076913826	8.955000E+00
286	  0.077114232	-6.522000E+00	  0.077114232	1.558010E+02	  0.077114232	1.865300E+01	  0.077114232	9.283000E+00
287	  0.077314630	-6.535000E+00	  0.077314630	1.549460E+02	  0.077314630	1.873800E+01	  0.077314630	9.612000E+00
288	  0.077515028	-6.548000E+00	  0.077515028	1.540850E+02	  0.077515028	1.882700E+01	  0.077515028	9.944000E+00
289	  0.077715434	-6.560000E+00	  0.077715434	1.532330E+02	  0.077715434	1.891600E+01	  0.077715434	1.027200E+01
290	  0.077915832	-6.573000E+00	  0.077915832	1.523920E+02	  0.077915832	1.900500E+01	  0.077915832	1.059700E+01
291	  0.078116231	-6.588000E+00	  0.078116231	1.515460E+02	  0.078116231	1.910500E+01	  0.078116231	1.092300E+01
292	  0.078316636	-6.601000E+00	  0.078316636	1.506860E+02	  0.078316636	1.920300E+01	  0.078316636	1.125500E+01
293	  0.078517035	-6.613000E+00	  0.078517035	1.498780E+02	  0.078517035	1.929700E+01	  0.078517035	1.156700E+01
294	  0.078717433	-6.634000E+00	  0.078717433	1.490440E+02	  0.078717433	1.941800E+01	  0.078717433	1.188500E+01
295	  0.078917839	-6.644000E+00	  0.078917839	1.482300E+02	  0.078917839	1.951100E+01	  0.078917839	1.220200E+01
296	  0.079118237	-6.666000E+00	  0.079118237	1.473810E+02	  0.079118237	1.963900E+01	  0.079118237	1.252600E+01
297	  0.079318643	-6.679000E+00	  0.079318643	1.465580E+02	  0.079318643	1.974400E+01	  0.079318643	1.284600E+01
298	  0.079519041	-6.694000E+00	  0.079519041	1.457160E+02	  0.079519041	1.985900E+01	  0.079519041	1.317200E+01
299	  0.079719439	-6.711000E+00	  0.079719439	1.448830E+02	  0.079719439	1.998200E+01	  0.079719439	1.349200E+01
300	  0.079919845	-6.721000E+00	  0.079919845	1.440770E+02	  0.079919845	2.008600E+01	  0.079919845	1.380700E+01
301	  0.080120243	-6.739000E+00	  0.080120243	1.432300E+02	  0.080120243	2.021500E+01	  0.080120243	1.413400E+01
302	  0.080320641	-6.754000E+00	  0.080320641	1.424100E+02	  0.080320641	2.033700E+01	  0.080320641	1.445300E+01
303	  0.080521047	-6.774000E+00	  0.080521047	1.416000E+02	  0.080521047	2.047500E+01	  0.080521047	1.476300E+01
304	  0.080721445	-6.792000E+00	  0.080721445	1.408050E+02	  0.080721445	2.060900E+01	  0.080721445	1.507000E+01
305	  0.080921844	-6.806000E+00	  0.080921844	1.400270E+02	  0.080921844	2.073100E+01	  0.080921844	1.537300E+01
306	  0.081122249	-6.824000E+00	  0.081122249	1.392460E+02	  0.081122249	2.086600E+01	  0.081122249	1.567400E+01
307	  0.081322648	-6.843000E+00	  0.081322648	1.384500E+02	  0.081322648	2.101100E+01	  0.081322648	1.598000E+01
308	  0.081523046	-6.861000E+00	  0.081523046	1.376560E+02	  0.081523046	2.115000E+01	  0.081523046	1.628800E+01
309	  0.081723452	-6.881000E+00	  0.081723452	1.368770E+02	  0.081723452	2.130000E+01	  0.081723452	1.658700E+01
310	  0.081923850	-6.900000E+00	  0.081923850	1.360940E+02	  0.081923850	2.144800E+01	  0.081923850	1.688900E+01
311	  0.082124248	-6.925000E+00	  0.082124248	1.353680E+02	  0.082124248	2.160800E+01	  0.082124248	1.716200E+01
312	  0.082324654	-6.941000E+00	  0.082324654	1.346060E+02	  0.082324654	2.175000E+01	  0.082324654	1.745900E+01
313	  0.082525052	-6.966000E+00	  0.082525052	1.338810E+02	  0.082525052	2.191500E+01	  0.082525052	1.773100E+01
314	  0.082725458	-6.990000E+00	  0.082725458	1.331030E+02	  0.082725458	2.208600E+01	  0.082725458	1.802700E+01
315	  0.082925856	-7.013000E+00	  0.082925856	1.323330E+02	  0.082925856	2.225700E+01	  0.082925856	1.832000E+01
316	  0.083126254	-7.036000E+00	  0.083126254	1.315820E+02	  0.083126254	2.242800E+01	  0.083126254	1.860400E+01
317	  0.083326660	-7.055000E+00	  0.083326660	1.308010E+02	  0.083326660	2.259500E+01	  0.083326660	1.890600E+01
318	  0.083527058	-7.079000E+00	  0.083527058	1.300680E+02	  0.083527058	2.276900E+01	  0.083527058	1.918300E+01
319	  0.083727457	-7.098000E+00	  0.083727457	1.293310E+02	  0.083727457	2.293300E+01	  0.083727457	1.946600E+01
320	  0.083927862	-7.119000E+00	  0.083927862	1.286040E+02	  0.083927862	2.310700E+01	  0.083927862	1.974200E+01
321	  0.084128261	-7.140000E+00	  0.084128261	1.278960E+02	  0.084128261	2.327500E+01	  0.084128261	2.001200E+01
322	  0.084328659	-7.163000E+00	  0.084328659	1.271620E+02	  0.084328659	2.346000E+01	  0.084328659	2.028900E+01
323	  0.084529065	-7.190000E+00	  0.084529065	1.264680E+02	  0.084529065	2.365000E+01	  0.084529065	2.054500E+01
324	  0.084729463	-7.208000E+00	  0.084729463	1.257270E+02	  0.084729463	2.382700E+01	  0.084729463	2.083000E+01
325	  0.084929861	-7.233000E+00	  0.084929861	1.250180E+02	  0.084929861	2.401800E+01	  0.084929861	2.109500E+01
326	  0.085130267	-7.257000E+00	  0.085130267	1.243310E+02	  0.085130267	2.420600E+01	  0.085130267	2.135000E+01
327	  0.085330658	-7.279000E+00	  0.085330658	1.236190E+02	  0.085330658	2.439600E+01	  0.085330658	2.161800E+01
328	  0.085531056	-7.304000E+00	  0.085531056	1.229430E+02	  0.085531056	2.459000E+01	  0.085531056	2.186800E+01
329	  0.085731462	-7.331000E+00	  0.085731462	1.222550E+02	  0.085731462	2.479500E+01	  0.085731462	2.211900E+01
330	  0.085931860	-7.357000E+00	  0.085931860	1.215690E+02	  0.085931860	2.499600E+01	  0.085931860	2.237100E+01
331	  0.086132258	-7.383000E+00	  0.086132258	1.208940E+02	  0.086132258	2.520000E+01	  0.086132258	2.261700E+01
332	  0.086332664	-7.410000E+00	  0.086332664	1.201780E+02	  0.086332664	2.542100E+01	  0.086332664	2.287700E+01
333	  0.086533062	-7.433000E+00	  0.086533062	1.194940E+02	  0.086533062	2.562300E+01	  0.086533062	2.313000E+01
334	  0.086733460	-7.454000E+00	  0.086733460	1.188220E+02	  0.086733460	2.582000E+01	  0.086733460	2.338100E+01
335	  0.086933866	-7.475000E+00	  0.086933866	1.181270E+02	  0.086933866	2.602500E+01	  0.086933866	2.364100E+01
336	  0.087134264	-7.502000E+00	  0.087134264	1.174240E+02	  0.087134264	2.625400E+01	  0.087134264	2.389300E+01
337	  0.087334670	-7.523000E+00	  0.087334670	1.167510E+02	  0.087334670	2.645800E+01	  0.087334670	2.414300E+01
338	  0.087535068	-7.553000E+00	  0.087535068	1.161250E+02	  0.087535068	2.668100E+01	  0.087535068	2.435900E+01
339	  0.087735467	-7.576000E+00	  0.087735467	1.154800E+02	  0.087735467	2.689100E+01	  0.087735467	2.459200E+01
340	  0.087935872	-7.599000E+00	  0.087935872	1.148110E+02	  0.087935872	2.711200E+01	  0.087935872	2.483500E+01
341	  0.088136271	-7.623000E+00	  0.088136271	1.141690E+02	  0.088136271	2.732900E+01	  0.088136271	2.506400E+01
342	  0.088336669	-7.643000E+00	  0.088336669	1.135090E+02	  0.088336669	2.754300E+01	  0.088336669	2.530700E+01
343	  0.088537075	-7.667000E+00	  0.088537075	1.128790E+02	  0.088537075	2.776500E+01	  0.088537075	2.552900E+01
344	  0.088737473	-7.692000E+00	  0.088737473	1.122480E+02	  0.088737473	2.799100E+01	  0.088737473	2.575000E+01
345	  0.088937871	-7.720000E+00	  0.088937871	1.116320E+02	  0.088937871	2.822200E+01	  0.088937871	2.596000E+01
346	  0.089138277	-7.740000E+00	  0.089138277	1.110480E+02	  0.089138277	2.842900E+01	  0.089138277	2.616700E+01
347	  0.089338675	-7.777000E+00	  0.089338675	1.104580E+02	  0.089338675	2.868400E+01	  0.089338675	2.634800E+01
348	  0.089539073	-7.802000E+00	  0.089539073	1.098140E+02	  0.089539073	2.892300E+01	  0.089539073	2.657100E+01
349	  0.089739479	-7.830000E+00	  0.089739479	1.092100E+02	  0.089739479	2.916200E+01	  0.089739479	2.677100E+01
350	  0.089939877	-7.855000E+00	  0.089939877	1.085730E+02	  0.089939877	2.940500E+01	  0.089939877	2.698900E+01
351	  0.090140276	-7.884000E+00	  0.090140276	1.079770E+02	  0.090140276	2.965100E+01	  0.090140276	2.718100E+01
352	  0.090340681	-7.906000E+00	  0.090340681	1.073560E+02	  0.090340681	2.988700E+01	  0.090340681	2.739500E+01
353	  0.090541080	-7.940000E+00	  0.090541080	1.067740E+02	  0.090541080	3.014600E+01	  0.090541080	2.757000E+01
354	  0.090741485	-7.965000E+00	  0.090741485	1.061900E+02	  0.090741485	3.038600E+01	  0.090741485	2.776000E+01
355	  0.090941884	-7.994000E+00	  0.090941884	1.056260E+02	  0.090941884	3.063000E+01	  0.090941884	2.793500E+01
356	  0.091142282	-8.022000E+00	  0.091142282	1.050300E+02	  0.091142282	3.088600E+01	  0.091142282	2.812200E+01
357	  0.091342688	-8.041000E+00	  0.091342688	1.044680E+02	  0.091342688	3.110800E+01	  0.091342688	2.831300E+01
358	  0.091543086	-8.072000E+00	  0.091543086	1.038920E+02	  0.091543086	3.136900E+01	  0.091543086	2.848400E+01
359	  0.091743484	-8.095000E+00	  0.091743484	1.033460E+02	  0.091743484	3.160200E+01	  0.091743484	2.865900E+01
360	  0.091943890	-8.122000E+00	  0.091943890	1.027800E+02	  0.091943890	3.185600E+01	  0.091943890	2.883000E+01
361	  0.092144288	-8.148000E+00	  0.092144288	1.022640E+02	  0.092144288	3.209100E+01	  0.092144288	2.898300E+01
362	  0.092344686	-8.177000E+00	  0.092344686	1.017540E+02	  0.092344686	3.233500E+01	  0.092344686	2.912600E+01
363	  0.092545092	-8.203000E+00	  0.092545092	1.012400E+02	  0.092545092	3.257300E+01	  0.092545092	2.927600E+01
364	  0.092745490	-8.234000E+00	  0.092745490	1.007200E+02	  0.092745490	3.282800E+01	  0.092745490	2.941600E+01
365	  0.092945889	-8.261000E+00	  0.092945889	1.001910E+02	  0.092945889	3.308100E+01	  0.092945889	2.956500E+01
366	  0.093146294	-8.291000E+00	  0.093146294	9.964300E+01	  0.093146294	3.334700E+01	  0.093146294	2.971600E+01
367	  0.093346693	-8.317000E+00	  0.093346693	9.915300E+01	  0.093346693	3.358400E+01	  0.093346693	2.985000E+01
368	  0.093547091	-8.338000E+00	  0.093547091	9.862200E+01	  0.093547091	3.382600E+01	  0.093547091	3.001000E+01
369	  0.093747497	-8.365000E+00	  0.093747497	9.809800E+01	  0.093747497	3.408300E+01	  0.093747497	3.015300E+01
370	  0.093947895	-8.393000E+00	  0.093947895	9.759900E+01	  0.093947895	3.433500E+01	  0.093947895	3.028200E+01
371	  0.094148301	-8.417000E+00	  0.094148301	9.709600E+01	  0.094148301	3.458100E+01	  0.094148301	3.042000E+01
372	  0.094348699	-8.439000E+00	  0.094348699	9.662300E+01	  0.094348699	3.481300E+01	  0.094348699	3.054900E+01
373	  0.094549097	-8.466000E+00	  0.094549097	9.614100E+01	  0.094549097	3.505900E+01	  0.094549097	3.067100E+01
374	  0.094749503	-8.489000E+00	  0.094749503	9.569600E+01	  0.094749503	3.528600E+01	  0.094749503	3.078500E+01
375	  0.094949901	-8.512000E+00	  0.094949901	9.520000E+01	  0.094949901	3.553500E+01	  0.094949901	3.091600E+01
376	  0.095150299	-8.526000E+00	  0.095150299	9.474600E+01	  0.095150299	3.574400E+01	  0.095150299	3.105500E+01
377	  0.095350705	-8.544000E+00	  0.095350705	9.427500E+01	  0.095350705	3.597400E+01	  0.095350705	3.118700E+01
378	  0.095551103	-8.565000E+00	  0.095551103	9.383500E+01	  0.095551103	3.619800E+01	  0.095551103	3.130100E+01
379	  0.095751502	-8.587000E+00	  0.095751502	9.341300E+01	  0.095751502	3.642300E+01	  0.095751502	3.140100E+01
380	  0.095951907	-8.607000E+00	  0.095951907	9.295400E+01	  0.095951907	3.665500E+01	  0.095951907	3.152200E+01
381	  0.096152306	-8.626000E+00	  0.096152306	9.251500E+01	  0.096152306	3.688100E+01	  0.096152306	3.163500E+01
382	  0.096352704	-8.644000E+00	  0.096352704	9.210400E+01	  0.096352704	3.709400E+01	  0.096352704	3.173900E+01
383	  0.096553110	-8.658000E+00	  0.096553110	9.169700E+01	  0.096553110	3.729600E+01	  0.096553110	3.185100E+01
384	  0.096753508	-8.677000E+00	  0.096753508	9.125700E+01	  0.096753508	3.752600E+01	  0.096753508	3.196200E+01
385	  0.096953906	-8.693000E+00	  0.096953906	9.081100E+01	  0.096953906	3.775300E+01	  0.096953906	3.208200E+01
386	  0.097154312	-8.709000E+00	  0.097154312	9.038300E+01	  0.097154312	3.797300E+01	  0.097154312	3.219400E+01
387	  0.097354710	-8.722000E+00	  0.097354710	8.997600E+01	  0.097354710	3.817700E+01	  0.097354710	3.230700E+01
388	  0.097555116	-8.744000E+00	  0.097555116	8.956800E+01	  0.097555116	3.840700E+01	  0.097555116	3.239200E+01
389	  0.097755514	-8.752000E+00	  0.097755514	8.915800E+01	  0.097755514	3.860600E+01	  0.097755514	3.251600E+01
390	  0.097955912	-8.761000E+00	  0.097955912	8.876100E+01	  0.097955912	3.880100E+01	  0.097955912	3.263300E+01
391	  0.098156318	-8.771000E+00	  0.098156318	8.834300E+01	  0.098156318	3.901100E+01	  0.098156318	3.275400E+01
392	  0.098356716	-8.773000E+00	  0.098356716	8.793900E+01	  0.098356716	3.919500E+01	  0.098356716	3.289400E+01
393	  0.098557115	-8.780000E+00	  0.098557115	8.751700E+01	  0.098557115	3.940300E+01	  0.098557115	3.302200E+01
394	  0.098757520	-8.784000E+00	  0.098757520	8.710300E+01	  0.098757520	3.960100E+01	  0.098757520	3.315800E+01
395	  0.098957919	-8.794000E+00	  0.098957919	8.671100E+01	  0.098957919	3.980400E+01	  0.098957919	3.326700E+01
396	  0.099158317	-8.801000E+00	  0.099158317	8.632100E+01	  0.099158317	4.000200E+01	  0.099158317	3.338200E+01
397	  0.099358723	-8.800000E+00	  0.099358723	8.593100E+01	  0.099358723	4.018300E+01	  0.099358723	3.352200E+01
398	  0.099559121	-8.803000E+00	  0.099559121	8.557500E+01	  0.099559121	4.035700E+01	  0.099559121	3.363800E+01
399	  0.099759519	-8.804000E+00	  0.099759519	8.517400E+01	  0.099759519	4.055000E+01	  0.099759519	3.377400E+01
400	  0.099959925	-8.801000E+00	  0.099959925	8.476800E+01	  0.099959925	4.073900E+01	  0.099959925	3.392400E+01
401	  0.100160323	-8.804000E+00	  0.100160323	8.439200E+01	  0.100160323	4.092800E+01	  0.100160323	3.404500E+01
402	  0.100360721	-8.797000E+00	  0.100360721	8.395500E+01	  0.100360721	4.112500E+01	  0.100360721	3.422000E+01
403	  0.100561127	-8.804000E+00	  0.100561127	8.357500E+01	  0.100561127	4.132900E+01	  0.100561127	3.432800E+01
404	  0.100761525	-8.795000E+00	  0.100761525	8.314200E+01	  0.100761525	4.152500E+01	  0.100761525	3.450500E+01
405	  0.100961931	-8.796000E+00	  0.100961931	8.270700E+01	  0.100961931	4.174400E+01	  0.100961931	3.465300E+01
406	  0.101162329	-8.782000E+00	  0.101162329	8.231500E+01	  0.101162329	4.191300E+01	  0.101162329	3.483200E+01
407	  0.101362728	-8.787000E+00	  0.101362728	8.190000E+01	  0.101362728	4.213600E+01	  0.101362728	3.495600E+01
408	  0.101563133	-8.778000E+00	  0.101563133	8.145200E+01	  0.101563133	4.234700E+01	  0.101563133	3.514000E+01
409	  0.101763532	-8.769000E+00	  0.101763532	8.098200E+01	  0.101763532	4.257300E+01	  0.101763532	3.532900E+01
410	  0.101963930	-8.761000E+00	  0.101963930	8.053800E+01	  0.101963930	4.278900E+01	  0.101963930	3.550600E+01
411	  0.102164336	-8.748000E+00	  0.102164336	8.015300E+01	  0.102164336	4.296600E+01	  0.102164336	3.568200E+01
412	  0.102364734	-8.738000E+00	  0.102364734	7.976500E+01	  0.102364734	4.315200E+01	  0.102364734	3.584800E+01
413	  0.102565132	-8.732000E+00	  0.102565132	7.922600E+01	  0.102565132	4.343000E+01	  0.102565132	3.605200E+01
414	  0.102765530	-8.716000E+00	  0.102765530	7.885600E+01	  0.102765530	4.360000E+01	  0.102765530	3.623100E+01
415	  0.102965929	-8.710000E+00	  0.102965929	7.836900E+01	  0.102965929	4.385600E+01	  0.102965929	3.641500E+01
416	  0.103166327	-8.688000E+00	  0.103166327	7.792400E+01	  0.103166327	4.405700E+01	  0.103166327	3.664600E+01
417	  0.103366733	-8.675000E+00	  0.103366733	7.747700E+01	  0.103366733	4.428100E+01	  0.103366733	3.684300E+01
418	  0.103567131	-8.660000E+00	  0.103567131	7.697300E+01	  0.103567131	4.453700E+01	  0.103567131	3.706700E+01
419	  0.103767529	-8.652000E+00	  0.103767529	7.650300E+01	  0.103767529	4.479300E+01	  0.103767529	3.725000E+01
420	  0.103967935	-8.637000E+00	  0.103967935	7.604200E+01	  0.103967935	4.502900E+01	  0.103967935	3.746100E+01
421	  0.104168333	-8.617000E+00	  0.104168333	7.554100E+01	  0.104168333	4.528400E+01	  0.104168333	3.770100E+01
422	  0.104368731	-8.612000E+00	  0.104368731	7.501800E+01	  0.104368731	4.558800E+01	  0.104368731	3.789000E+01
423	  0.104569137	-8.595000E+00	  0.104569137	7.448000E+01	  0.104569137	4.587800E+01	  0.104569137	3.813200E+01
424	  0.104769535	-8.577000E+00	  0.104769535	7.402400E+01	  0.104769535	4.611800E+01	  0.104769535	3.835400E+01
425	  0.104969934	-8.557000E+00	  0.104969934	7.349200E+01	  0.104969934	4.640600E+01	  0.104969934	3.860800E+01
426	  0.105170339	-8.544000E+00	  0.105170339	7.295900E+01	  0.105170339	4.671500E+01	  0.105170339	3.883000E+01
427	  0.105370738	-8.524000E+00	  0.105370738	7.243500E+01	  0.105370738	4.700800E+01	  0.105370738	3.908000E+01
428	  0.105571143	-8.505000E+00	  0.105571143	7.189200E+01	  0.105571143	4.731700E+01	  0.105571143	3.933400E+01
429	  0.105771542	-8.488000E+00	  0.105771542	7.134300E+01	  0.105771542	4.764200E+01	  0.105771542	3.957900E+01
430	  0.105971940	-8.472000E+00	  0.105971940	7.078300E+01	  0.105971940	4.797900E+01	  0.105971940	3.982600E+01
431	  0.106172346	-8.458000E+00	  0.106172346	7.019300E+01	  0.106172346	4.834600E+01	  0.106172346	4.007200E+01
432	  0.106372744	-8.436000E+00	  0.106372744	6.963500E+01	  0.106372744	4.868300E+01	  0.106372744	4.033900E+01
433	  0.106573142	-8.414000E+00	  0.106573142	6.904500E+01	  0.106573142	4.904600E+01	  0.106573142	4.061900E+01
434	  0.106773548	-8.399000E+00	  0.106773548	6.851000E+01	  0.106773548	4.939100E+01	  0.106773548	4.085100E+01
435	  0.106973946	-8.384000E+00	  0.106973946	6.790100E+01	  0.106973946	4.979300E+01	  0.106973946	4.110400E+01
436	  0.107174344	-8.369000E+00	  0.107174344	6.728400E+01	  0.107174344	5.020700E+01	  0.107174344	4.136000E+01
437	  0.107374750	-8.347000E+00	  0.107374750	6.670800E+01	  0.107374750	5.058600E+01	  0.107374750	4.163200E+01
438	  0.107575148	-8.337000E+00	  0.107575148	6.611600E+01	  0.107575148	5.100400E+01	  0.107575148	4.185400E+01
439	  0.107775547	-8.314000E+00	  0.107775547	6.545700E+01	  0.107775547	5.145500E+01	  0.107775547	4.215900E+01
440	  0.107975952	-8.302000E+00	  0.107975952	6.488600E+01	  0.107975952	5.186800E+01	  0.107975952	4.238000E+01
441	  0.108176351	-8.279000E+00	  0.108176351	6.421100E+01	  0.108176351	5.234900E+01	  0.108176351	4.268300E+01
442	  0.108376749	-8.266000E+00	  0.108376749	6.354900E+01	  0.108376749	5.284500E+01	  0.108376749	4.293200E+01
443	  0.108577155	-8.254000E+00	  0.108577155	6.287900E+01	  0.108577155	5.335900E+01	  0.108577155	4.317600E+01
444	  0.108777553	-8.236000E+00	  0.108777553	6.224200E+01	  0.108777553	5.384400E+01	  0.108777553	4.344100E+01
445	  0.108977959	-8.223000E+00	  0.108977959	6.157300E+01	  0.108977959	5.437300E+01	  0.108977959	4.367800E+01
446	  0.109178357	-8.203000E+00	  0.109178357	6.089200E+01	  0.109178357	5.490900E+01	  0.109178357	4.395900E+01
447	  0.109378755	-8.190000E+00	  0.109378755	6.021800E+01	  0.109378755	5.545900E+01	  0.109378755	4.420100E+01
448	  0.109579161	-8.185000E+00	  0.109579161	5.953700E+01	  0.109579161	5.603800E+01	  0.109579161	4.439100E+01
449	  0.109779559	-8.163000E+00	  0.109779559	5.877800E+01	  0.109779559	5.667100E+01	  0.109779559	4.468700E+01
450	  0.109979957	-8.145000E+00	  0.109979957	5.815200E+01	  0.109979957	5.720200E+01	  0.109979957	4.493300E+01
451	  0.110180363	-8.135000E+00	  0.110180363	5.740200E+01	  0.110180363	5.786700E+01	  0.110180363	4.515000E+01
452	  0.110380761	-8.123000E+00	  0.110380761	5.668300E+01	  0.110380761	5.851200E+01	  0.110380761	4.537200E+01
453	  0.110581160	-8.109000E+00	  0.110581160	5.591500E+01	  0.110581160	5.921100E+01	  0.110581160	4.560500E+01
454	  0.110781565	-8.108000E+00	  0.110781565	5.518500E+01	  0.110781565	5.990400E+01	  0.110781565	4.574200E+01
455	  0.110981964	-8.097000E+00	  0.110981964	5.442900E+01	  0.110981964	6.062100E+01	  0.110981964	4.594100E+01
456	  0.111182362	-8.088000E+00	  0.111182362	5.364600E+01	  0.111182362	6.137900E+01	  0.111182362	4.612500E+01
457	  0.111382768	-8.081000E+00	  0.111382768	5.284600E+01	  0.111382768	6.216800E+01	  0.111382768	4.628500E+01
458	  0.111583166	-8.075000E+00	  0.111583166	5.206700E+01	  0.111583166	6.295200E+01	  0.111583166	4.642000E+01
459	  0.111783572	-8.074000E+00	  0.111783572	5.125300E+01	  0.111783572	6.378900E+01	  0.111783572	4.652400E+01
460	  0.111983970	-8.069000E+00	  0.111983970	5.044600E+01	  0.111983970	6.462800E+01	  0.111983970	4.663000E+01
461	  0.112184368	-8.066000E+00	  0.112184368	4.964300E+01	  0.112184368	6.547700E+01	  0.112184368	4.671800E+01
462	  0.112384774	-8.069000E+00	  0.112384774	4.882500E+01	  0.112384774	6.635800E+01	  0.112384774	4.674500E+01
463	  0.112585172	-8.057000E+00	  0.112585172	4.800200E+01	  0.112585172	6.725400E+01	  0.112585172	4.685900E+01
464	  0.112785570	-8.068000E+00	  0.112785570	4.717500E+01	  0.112785570	6.816900E+01	  0.112785570	4.680100E+01
465	  0.112985976	-8.065000E+00	  0.112985976	4.629700E+01	  0.112985976	6.915500E+01	  0.112985976	4.681600E+01
466	  0.113186374	-8.072000E+00	  0.113186374	4.547800E+01	  0.113186374	7.008500E+01	  0.113186374	4.674000E+01
467	  0.113386773	-8.075000E+00	  0.113386773	4.462600E+01	  0.113386773	7.106500E+01	  0.113386773	4.667100E+01
468	  0.113587178	-8.082000E+00	  0.113587178	4.374900E+01	  0.113587178	7.208200E+01	  0.113587178	4.654900E+01
469	  0.113787577	-8.085000E+00	  0.113787577	4.285200E+01	  0.113787577	7.313700E+01	  0.113787577	4.643100E+01
470	  0.113987975	-8.101000E+00	  0.113987975	4.197500E+01	  0.113987975	7.416600E+01	  0.113987975	4.618600E+01
471	  0.114188381	-8.107000E+00	  0.114188381	4.106100E+01	  0.114188381	7.525800E+01	  0.114188381	4.598700E+01
472	  0.114388779	-8.114000E+00	  0.114388779	4.022300E+01	  0.114388779	7.626600E+01	  0.114388779	4.576100E+01
473	  0.114589177	-8.127000E+00	  0.114589177	3.926600E+01	  0.114589177	7.741700E+01	  0.114589177	4.543500E+01
474	  0.114789583	-8.143000E+00	  0.114789583	3.831500E+01	  0.114789583	7.856000E+01	  0.114789583	4.505500E+01
475	  0.114989981	-8.152000E+00	  0.114989981	3.738600E+01	  0.114989981	7.969300E+01	  0.114989981	4.469400E+01
476	  0.115190387	-8.173000E+00	  0.115190387	3.643700E+01	  0.115190387	8.082800E+01	  0.115190387	4.419700E+01
477	  0.115390785	-8.202000E+00	  0.115390785	3.551500E+01	  0.115390785	8.190500E+01	  0.115390785	4.360700E+01
478	  0.115591183	-8.220000E+00	  0.115591183	3.452000E+01	  0.115591183	8.309700E+01	  0.115591183	4.304100E+01
479	  0.115791589	-8.244000E+00	  0.115791589	3.354600E+01	  0.115791589	8.423600E+01	  0.115791589	4.238100E+01
480	  0.115991987	-8.271000E+00	  0.115991987	3.257200E+01	  0.115991987	8.535700E+01	  0.115991987	4.166500E+01
481	  0.116192386	-8.292000E+00	  0.116192386	3.158400E+01	  0.116192386	8.650500E+01	  0.116192386	4.094700E+01
482	  0.116392791	-8.324000E+00	  0.116392791	3.058000E+01	  0.116392791	8.761600E+01	  0.116392791	4.008700E+01
483	  0.116593190	-8.349000E+00	  0.116593190	2.956800E+01	  0.116593190	8.874200E+01	  0.116593190	3.922600E+01
484	  0.116793588	-8.386000E+00	  0.116793588	2.853200E+01	  0.116793588	8.982300E+01	  0.116793588	3.821200E+01
485	  0.116993994	-8.422000E+00	  0.116993994	2.748200E+01	  0.116993994	9.089600E+01	  0.116993994	3.715400E+01
486	  0.117194392	-8.464000E+00	  0.117194392	2.649500E+01	  0.117194392	9.183300E+01	  0.117194392	3.605800E+01
487	  0.117394790	-8.501000E+00	  0.117394790	2.540300E+01	  0.117394790	9.287700E+01	  0.117394790	3.486800E+01
488	  0.117595196	-8.542000E+00	  0.117595196	2.432800E+01	  0.117595196	9.384000E+01	  0.117595196	3.362000E+01
489	  0.117795594	-8.591000E+00	  0.117795594	2.322500E+01	  0.117795594	9.473700E+01	  0.117795594	3.225000E+01
490	  0.117995992	-8.635000E+00	  0.117995992	2.218000E+01	  0.117995992	9.555300E+01	  0.117995992	3.093200E+01
491	  0.118196398	-8.686000E+00	  0.118196398	2.104600E+01	  0.118196398	9.635500E+01	  0.118196398	2.944100E+01
492	  0.118396796	-8.733000E+00	  0.118396796	1.995300E+01	  0.118396796	9.709100E+01	  0.118396796	2.799100E+01
493	  0.118597202	-8.789000E+00	  0.118597202	1.881900E+01	  0.118597202	9.773900E+01	  0.118597202	2.641400E+01
494	  0.118797600	-8.853000E+00	  0.118797600	1.765600E+01	  0.118797600	9.827900E+01	  0.118797600	2.473300E+01
495	  0.118997999	-8.915000E+00	  0.118997999	1.650700E+01	  0.118997999	9.875000E+01	  0.118997999	2.306700E+01
496	  0.119198404	-8.976000E+00	  0.119198404	1.533800E+01	  0.119198404	9.916800E+01	  0.119198404	2.136900E+01
497	  0.119398803	-9.045000E+00	  0.119398803	1.413700E+01	  0.119398803	9.946900E+01	  0.119398803	1.959000E+01
498	  0.119599201	-9.115000E+00	  0.119599201	1.294000E+01	  0.119599201	9.967900E+01	  0.119599201	1.781500E+01
499	  0.119799607	-9.188000E+00	  0.119799607	1.167100E+01	  0.119799607	9.982200E+01	  0.119799607	1.594400E+01
500	  0.120000005	-9.267000E+00	  0.120000005	1.047700E+01	  0.120000005	9.979200E+01	  0.120000005	1.416400E+01
