! Anritsu VNA Master:             	Model: MS2036C/10/77
! SN:             	1601066
! /bd0/18may09/252.ew.m8.txt
! Existing Calibration Information:
! TYPE:             	Current Settings	Active Cal Settings
! TIME:             	05/09/2018 08:24:10 AM	05/09/2018 08:17:55 AM
! INTERNAL TEMP:    	41.0 C	41.3 C
! # POINTS:         	500	500
! START FREQ:       	20.000 MHz	20.000 MHz
! STOP FREQ:        	120.000 MHz	120.000 MHz
! SOURCE POWER:     	High	High
! IFBW:             	50 Hz	50 Hz
! AVG FACTOR:       	  1 	  1 
! REF PLANE 1:      	0 mm	0 mm
! REF PLANE 2:      	0 mm	0 mm
! CAL TYPE:         	Full S11	Full S11
! CAL METHOD:       	SOLT	SOLT
! CAL LINE TYPE:    	Coax	Coax
! DUT PORT 1:       	K-Conn(F)	K-Conn(F)
! DUT PORT 2:       	K-Conn(F)	K-Conn(F)
! CAL STATUS:       	OK: Accuracy High	--
! PROP-V:       	0.700
! CABLE LOSS:       	0.000 dB/m
! REF IMPEDANCE:       	50.0
! Trace Specific Parameters:	TR1	TR2	TR3	TR4
! TRACE.#.Y (GRAPH TYPE)	LOG MAG	PHASE	REAL IMPEDANCE	IMAGINARY IMPEDANCE
! TRACE.#.X 	FREQ.GHZ	FREQ.GHZ	FREQ.GHZ	FREQ.GHZ
! S-PARAMETER	S11	S11	S11	S11
! SMOOTH/APERTURE %	0	0	0	0
! WINDOW	NSL	NSL	NSL	NSL
! GATING	OFF	OFF	OFF	OFF
! FGTD	OFF	OFF	OFF	OFF
Marker Information per Trace:	TR1	TR2	TR3	TR4
!MK1	--	"MK1 TR2:  20.000 MHz,PH:-124.30°"	--	--
!MK2	--	--	"MK2 TR3:  70.100 200 MHz,Z:(17.318 ohm, -3.043 ohm)"	--
!MK3	--	--	--	--
!MK4	--	--	--	--
!MK5	--	--	--	--
!MK6	--	--	--	--
!MK7	--	--	--	--
!MK8	--	--	--	--
PNT	TR1.FREQ.GHZ	TR1.LOG MAG.dB	TR2.FREQ.GHZ	TR2.PHASE.deg	TR3.FREQ.GHZ	TR3.REAL IMPEDANCE.ohm	TR4.FREQ.GHZ	TR4.IMAGINARY IMPEDANCE.ohm
1	  0.020000000	-6.150000E-01	  0.020000000	-1.243010E+02	  0.020000000	2.264000E+00	  0.020000000	-2.637400E+01
2	  0.020200402	-6.140000E-01	  0.020200402	-1.257440E+02	  0.020200402	2.230000E+00	  0.020200402	-2.557600E+01
3	  0.020400802	-6.160000E-01	  0.020400802	-1.271960E+02	  0.020400802	2.208000E+00	  0.020400802	-2.478300E+01
4	  0.020601204	-6.160000E-01	  0.020601204	-1.286300E+02	  0.020601204	2.182000E+00	  0.020601204	-2.400900E+01
5	  0.020801604	-6.220000E-01	  0.020801604	-1.301200E+02	  0.020801604	2.177000E+00	  0.020801604	-2.321500E+01
6	  0.021002004	-6.270000E-01	  0.021002004	-1.316340E+02	  0.021002004	2.169000E+00	  0.021002004	-2.241700E+01
7	  0.021202406	-6.330000E-01	  0.021202406	-1.331470E+02	  0.021202406	2.164000E+00	  0.021202406	-2.162900E+01
8	  0.021402806	-6.370000E-01	  0.021402806	-1.346590E+02	  0.021402806	2.155000E+00	  0.021402806	-2.085100E+01
9	  0.021603208	-6.410000E-01	  0.021603208	-1.361740E+02	  0.021603208	2.142000E+00	  0.021603208	-2.008100E+01
10	  0.021803608	-6.440000E-01	  0.021803608	-1.376900E+02	  0.021803608	2.130000E+00	  0.021803608	-1.931700E+01
11	  0.022004008	-6.500000E-01	  0.022004008	-1.392140E+02	  0.022004008	2.130000E+00	  0.022004008	-1.855700E+01
12	  0.022204408	-6.540000E-01	  0.022204408	-1.407530E+02	  0.022204408	2.122000E+00	  0.022204408	-1.779800E+01
13	  0.022404809	-6.590000E-01	  0.022404809	-1.423150E+02	  0.022404809	2.117000E+00	  0.022404809	-1.703500E+01
14	  0.022605211	-6.630000E-01	  0.022605211	-1.438850E+02	  0.022605211	2.112000E+00	  0.022605211	-1.627400E+01
15	  0.022805611	-6.640000E-01	  0.022805611	-1.454680E+02	  0.022805611	2.094000E+00	  0.022805611	-1.551500E+01
16	  0.023006011	-6.680000E-01	  0.023006011	-1.470420E+02	  0.023006011	2.091000E+00	  0.023006011	-1.476600E+01
17	  0.023206413	-6.690000E-01	  0.023206413	-1.486120E+02	  0.023206413	2.078000E+00	  0.023206413	-1.402600E+01
18	  0.023406813	-6.740000E-01	  0.023406813	-1.501780E+02	  0.023406813	2.078000E+00	  0.023406813	-1.329200E+01
19	  0.023607215	-6.790000E-01	  0.023607215	-1.517540E+02	  0.023607215	2.077000E+00	  0.023607215	-1.255900E+01
20	  0.023807615	-6.870000E-01	  0.023807615	-1.533570E+02	  0.023807615	2.087000E+00	  0.023807615	-1.181900E+01
21	  0.024008015	-6.960000E-01	  0.024008015	-1.549750E+02	  0.024008015	2.103000E+00	  0.024008015	-1.107700E+01
22	  0.024208417	-7.060000E-01	  0.024208417	-1.566050E+02	  0.024208417	2.120000E+00	  0.024208417	-1.033400E+01
23	  0.024408817	-7.150000E-01	  0.024408817	-1.582400E+02	  0.024408817	2.134000E+00	  0.024408817	-9.593000E+00
24	  0.024609219	-7.240000E-01	  0.024609219	-1.598790E+02	  0.024609219	2.148000E+00	  0.024609219	-8.854000E+00
25	  0.024809619	-7.330000E-01	  0.024809619	-1.615120E+02	  0.024809619	2.167000E+00	  0.024809619	-8.122000E+00
26	  0.025010020	-7.450000E-01	  0.025010020	-1.631590E+02	  0.025010020	2.190000E+00	  0.025010020	-7.387000E+00
27	  0.025210422	-7.570000E-01	  0.025210422	-1.648180E+02	  0.025210422	2.218000E+00	  0.025210422	-6.650000E+00
28	  0.025410822	-7.720000E-01	  0.025410822	-1.664880E+02	  0.025410822	2.252000E+00	  0.025410822	-5.911000E+00
29	  0.025611224	-7.840000E-01	  0.025611224	-1.681880E+02	  0.025611224	2.281000E+00	  0.025611224	-5.161000E+00
30	  0.025811624	-7.970000E-01	  0.025811624	-1.698900E+02	  0.025811624	2.311000E+00	  0.025811624	-4.413000E+00
31	  0.026012026	-8.060000E-01	  0.026012026	-1.715970E+02	  0.026012026	2.331000E+00	  0.026012026	-3.664000E+00
32	  0.026212426	-8.180000E-01	  0.026212426	-1.733150E+02	  0.026212426	2.362000E+00	  0.026212426	-2.913000E+00
33	  0.026412826	-8.320000E-01	  0.026412826	-1.750340E+02	  0.026412826	2.398000E+00	  0.026412826	-2.162000E+00
34	  0.026613226	-8.460000E-01	  0.026613226	-1.767600E+02	  0.026613226	2.437000E+00	  0.026613226	-1.410000E+00
35	  0.026813626	-8.620000E-01	  0.026813626	-1.785140E+02	  0.026813626	2.481000E+00	  0.026813626	-6.460000E-01
36	  0.027014028	-8.790000E-01	  0.027014028	1.797230E+02	  0.027014028	2.528000E+00	  0.027014028	1.200000E-01
37	  0.027214428	-8.950000E-01	  0.027214428	1.779570E+02	  0.027214428	2.575000E+00	  0.027214428	8.880000E-01
38	  0.027414829	-9.110000E-01	  0.027414829	1.761790E+02	  0.027414829	2.624000E+00	  0.027414829	1.662000E+00
39	  0.027615231	-9.280000E-01	  0.027615231	1.743780E+02	  0.027615231	2.676000E+00	  0.027615231	2.447000E+00
40	  0.027815631	-9.490000E-01	  0.027815631	1.725850E+02	  0.027815631	2.742000E+00	  0.027815631	3.229000E+00
41	  0.028016033	-9.710000E-01	  0.028016033	1.707700E+02	  0.028016033	2.810000E+00	  0.028016033	4.023000E+00
42	  0.028216433	-9.920000E-01	  0.028216433	1.689600E+02	  0.028216433	2.879000E+00	  0.028216433	4.815000E+00
43	  0.028416833	-1.013000E+00	  0.028416833	1.671450E+02	  0.028416833	2.951000E+00	  0.028416833	5.613000E+00
44	  0.028617235	-1.033000E+00	  0.028617235	1.653170E+02	  0.028617235	3.020000E+00	  0.028617235	6.418000E+00
45	  0.028817635	-1.053000E+00	  0.028817635	1.634930E+02	  0.028817635	3.090000E+00	  0.028817635	7.225000E+00
46	  0.029018037	-1.073000E+00	  0.029018037	1.616920E+02	  0.029018037	3.166000E+00	  0.029018037	8.025000E+00
47	  0.029218437	-1.096000E+00	  0.029218437	1.598660E+02	  0.029218437	3.249000E+00	  0.029218437	8.840000E+00
48	  0.029418837	-1.120000E+00	  0.029418837	1.580340E+02	  0.029418837	3.342000E+00	  0.029418837	9.661000E+00
49	  0.029619239	-1.149000E+00	  0.029619239	1.561810E+02	  0.029619239	3.451000E+00	  0.029619239	1.049600E+01
50	  0.029819639	-1.178000E+00	  0.029819639	1.543100E+02	  0.029819639	3.561000E+00	  0.029819639	1.134500E+01
51	  0.030020041	-1.209000E+00	  0.030020041	1.523990E+02	  0.030020041	3.683000E+00	  0.030020041	1.221800E+01
52	  0.030220442	-1.239000E+00	  0.030220442	1.504740E+02	  0.030220442	3.808000E+00	  0.030220442	1.310400E+01
53	  0.030420844	-1.270000E+00	  0.030420844	1.485640E+02	  0.030420844	3.937000E+00	  0.030420844	1.399000E+01
54	  0.030621244	-1.303000E+00	  0.030621244	1.466550E+02	  0.030621244	4.077000E+00	  0.030621244	1.488200E+01
55	  0.030821644	-1.335000E+00	  0.030821644	1.447400E+02	  0.030821644	4.222000E+00	  0.030821644	1.578600E+01
56	  0.031022044	-1.371000E+00	  0.031022044	1.428040E+02	  0.031022044	4.382000E+00	  0.031022044	1.670800E+01
57	  0.031222444	-1.406000E+00	  0.031222444	1.408810E+02	  0.031222444	4.546000E+00	  0.031222444	1.763300E+01
58	  0.031422846	-1.444000E+00	  0.031422846	1.388840E+02	  0.031422846	4.726000E+00	  0.031422846	1.860400E+01
59	  0.031623244	-1.481000E+00	  0.031623244	1.368870E+02	  0.031623244	4.910000E+00	  0.031623244	1.958700E+01
60	  0.031823646	-1.516000E+00	  0.031823646	1.348890E+02	  0.031823646	5.098000E+00	  0.031823646	2.058200E+01
61	  0.032024048	-1.551000E+00	  0.032024048	1.328910E+02	  0.032024048	5.291000E+00	  0.032024048	2.159100E+01
62	  0.032224450	-1.587000E+00	  0.032224450	1.309170E+02	  0.032224450	5.496000E+00	  0.032224450	2.260100E+01
63	  0.032424849	-1.624000E+00	  0.032424849	1.289520E+02	  0.032424849	5.712000E+00	  0.032424849	2.362000E+01
64	  0.032625251	-1.661000E+00	  0.032625251	1.269790E+02	  0.032625251	5.941000E+00	  0.032625251	2.465700E+01
65	  0.032825653	-1.704000E+00	  0.032825653	1.250010E+02	  0.032825653	6.200000E+00	  0.032825653	2.571100E+01
66	  0.033026051	-1.751000E+00	  0.033026051	1.230140E+02	  0.033026051	6.486000E+00	  0.033026051	2.678500E+01
67	  0.033226453	-1.801000E+00	  0.033226453	1.210180E+02	  0.033226453	6.794000E+00	  0.033226453	2.788100E+01
68	  0.033426855	-1.859000E+00	  0.033426855	1.190170E+02	  0.033426855	7.151000E+00	  0.033426855	2.899200E+01
69	  0.033627257	-1.912000E+00	  0.033627257	1.169890E+02	  0.033627257	7.509000E+00	  0.033627257	3.014100E+01
70	  0.033827655	-1.966000E+00	  0.033827655	1.149020E+02	  0.033827655	7.892000E+00	  0.033827655	3.134500E+01
71	  0.034028057	-2.019000E+00	  0.034028057	1.128010E+02	  0.034028057	8.292000E+00	  0.034028057	3.258100E+01
72	  0.034228459	-2.071000E+00	  0.034228459	1.106880E+02	  0.034228459	8.709000E+00	  0.034228459	3.384900E+01
73	  0.034428857	-2.121000E+00	  0.034428857	1.085360E+02	  0.034428857	9.149000E+00	  0.034428857	3.517000E+01
74	  0.034629259	-2.167000E+00	  0.034629259	1.064390E+02	  0.034629259	9.590000E+00	  0.034629259	3.648800E+01
75	  0.034829661	-2.212000E+00	  0.034829661	1.043190E+02	  0.034829661	1.005700E+01	  0.034829661	3.785000E+01
76	  0.035030060	-2.255000E+00	  0.035030060	1.022290E+02	  0.035030060	1.054100E+01	  0.035030060	3.922500E+01
77	  0.035230462	-2.302000E+00	  0.035230462	1.001370E+02	  0.035230462	1.107100E+01	  0.035230462	4.063100E+01
78	  0.035430863	-2.348000E+00	  0.035430863	9.806200E+01	  0.035430863	1.162400E+01	  0.035430863	4.206000E+01
79	  0.035631265	-2.392000E+00	  0.035631265	9.598400E+01	  0.035631265	1.220800E+01	  0.035631265	4.352700E+01
80	  0.035831664	-2.441000E+00	  0.035831664	9.392400E+01	  0.035831664	1.284700E+01	  0.035831664	4.501200E+01
81	  0.036032066	-2.491000E+00	  0.036032066	9.189600E+01	  0.036032066	1.353000E+01	  0.036032066	4.650700E+01
82	  0.036232468	-2.539000E+00	  0.036232468	8.985800E+01	  0.036232468	1.425000E+01	  0.036232468	4.805000E+01
83	  0.036432866	-2.594000E+00	  0.036432866	8.784500E+01	  0.036432866	1.504800E+01	  0.036432866	4.960000E+01
84	  0.036633268	-2.654000E+00	  0.036633268	8.582400E+01	  0.036633268	1.592900E+01	  0.036633268	5.118500E+01
85	  0.036833670	-2.717000E+00	  0.036833670	8.379000E+01	  0.036833670	1.689300E+01	  0.036833670	5.281300E+01
86	  0.037034072	-2.780000E+00	  0.037034072	8.171500E+01	  0.037034072	1.793800E+01	  0.037034072	5.451600E+01
87	  0.037234470	-2.845000E+00	  0.037234470	7.961500E+01	  0.037234470	1.907800E+01	  0.037234470	5.627900E+01
88	  0.037434869	-2.911000E+00	  0.037434869	7.753100E+01	  0.037434869	2.030800E+01	  0.037434869	5.806400E+01
89	  0.037635271	-2.970000E+00	  0.037635271	7.542700E+01	  0.037635271	2.159500E+01	  0.037635271	5.993000E+01
90	  0.037835669	-3.033000E+00	  0.037835669	7.330500E+01	  0.037835669	2.301200E+01	  0.037835669	6.184900E+01
91	  0.038036071	-3.088000E+00	  0.038036071	7.113700E+01	  0.038036071	2.451600E+01	  0.038036071	6.388700E+01
92	  0.038236473	-3.147000E+00	  0.038236473	6.893100E+01	  0.038236473	2.619800E+01	  0.038236473	6.600200E+01
93	  0.038436871	-3.207000E+00	  0.038436871	6.676000E+01	  0.038436871	2.800800E+01	  0.038436871	6.812400E+01
94	  0.038637273	-3.265000E+00	  0.038637273	6.465300E+01	  0.038637273	2.991100E+01	  0.038637273	7.022700E+01
95	  0.038837675	-3.317000E+00	  0.038837675	6.257300E+01	  0.038837675	3.190600E+01	  0.038837675	7.237100E+01
96	  0.039038073	-3.370000E+00	  0.039038073	6.050800E+01	  0.039038073	3.406100E+01	  0.039038073	7.453200E+01
97	  0.039238475	-3.426000E+00	  0.039238475	5.846900E+01	  0.039238475	3.640700E+01	  0.039238475	7.667200E+01
98	  0.039438877	-3.485000E+00	  0.039438877	5.646200E+01	  0.039438877	3.894600E+01	  0.039438877	7.876300E+01
99	  0.039639279	-3.550000E+00	  0.039639279	5.441300E+01	  0.039639279	4.179400E+01	  0.039639279	8.087200E+01
100	  0.039839678	-3.610000E+00	  0.039839678	5.237300E+01	  0.039839678	4.482600E+01	  0.039839678	8.299600E+01
101	  0.040040080	-3.683000E+00	  0.040040080	5.030800E+01	  0.040040080	4.825900E+01	  0.040040080	8.500700E+01
102	  0.040240481	-3.747000E+00	  0.040240481	4.823100E+01	  0.040240481	5.193000E+01	  0.040240481	8.704900E+01
103	  0.040440880	-3.815000E+00	  0.040440880	4.616400E+01	  0.040440880	5.593400E+01	  0.040440880	8.894900E+01
104	  0.040641282	-3.882000E+00	  0.040641282	4.409100E+01	  0.040641282	6.026300E+01	  0.040641282	9.075100E+01
105	  0.040841684	-3.942000E+00	  0.040841684	4.202800E+01	  0.040841684	6.487400E+01	  0.040841684	9.247100E+01
106	  0.041042086	-4.006000E+00	  0.041042086	3.994900E+01	  0.041042086	6.991800E+01	  0.041042086	9.397300E+01
107	  0.041242484	-4.068000E+00	  0.041242484	3.787100E+01	  0.041242484	7.534700E+01	  0.041242484	9.522200E+01
108	  0.041442886	-4.126000E+00	  0.041442886	3.579200E+01	  0.041442886	8.115400E+01	  0.041442886	9.623200E+01
109	  0.041643288	-4.185000E+00	  0.041643288	3.372100E+01	  0.041643288	8.735400E+01	  0.041643288	9.684600E+01
110	  0.041843686	-4.236000E+00	  0.041843686	3.164900E+01	  0.041843686	9.392800E+01	  0.041843686	9.714700E+01
111	  0.042044088	-4.290000E+00	  0.042044088	2.961700E+01	  0.042044088	1.007800E+02	  0.042044088	9.684700E+01
112	  0.042244490	-4.343000E+00	  0.042244490	2.760300E+01	  0.042244490	1.079090E+02	  0.042244490	9.593200E+01
113	  0.042444889	-4.396000E+00	  0.042444889	2.557500E+01	  0.042444889	1.153740E+02	  0.042444889	9.432800E+01
114	  0.042645290	-4.448000E+00	  0.042645290	2.357800E+01	  0.042645290	1.229370E+02	  0.042645290	9.195000E+01
115	  0.042845692	-4.501000E+00	  0.042845692	2.158200E+01	  0.042845692	1.305870E+02	  0.042845692	8.866400E+01
116	  0.043046094	-4.551000E+00	  0.043046094	1.958900E+01	  0.043046094	1.382220E+02	  0.043046094	8.451200E+01
117	  0.043246493	-4.602000E+00	  0.043246493	1.760300E+01	  0.043246493	1.456510E+02	  0.043246493	7.936500E+01
118	  0.043446895	-4.654000E+00	  0.043446895	1.560800E+01	  0.043446895	1.527460E+02	  0.043446895	7.314000E+01
119	  0.043647297	-4.704000E+00	  0.043647297	1.364600E+01	  0.043647297	1.592210E+02	  0.043647297	6.608500E+01
120	  0.043847695	-4.756000E+00	  0.043847695	1.167100E+01	  0.043847695	1.649640E+02	  0.043847695	5.800000E+01
121	  0.044048097	-4.808000E+00	  0.044048097	9.703000E+00	  0.044048097	1.697790E+02	  0.044048097	4.914600E+01
122	  0.044248499	-4.856000E+00	  0.044248499	7.746000E+00	  0.044248499	1.736010E+02	  0.044248499	3.974500E+01
123	  0.044448901	-4.906000E+00	  0.044448901	5.809000E+00	  0.044448901	1.762010E+02	  0.044448901	2.995700E+01
124	  0.044649299	-4.951000E+00	  0.044649299	3.858000E+00	  0.044649299	1.777190E+02	  0.044649299	1.988000E+01
125	  0.044849701	-4.999000E+00	  0.044849701	1.920000E+00	  0.044849701	1.779320E+02	  0.044849701	9.810000E+00
126	  0.045050103	-5.040000E+00	  0.045050103	-8.000000E-03	  0.045050103	1.771460E+02	  0.045050103	-4.000000E-02
127	  0.045250501	-5.082000E+00	  0.045250501	-1.902000E+00	  0.045250501	1.752030E+02	  0.045250501	-9.394000E+00
128	  0.045450903	-5.124000E+00	  0.045450903	-3.809000E+00	  0.045450903	1.722630E+02	  0.045450903	-1.831600E+01
129	  0.045651305	-5.167000E+00	  0.045651305	-5.691000E+00	  0.045651305	1.684470E+02	  0.045651305	-2.648400E+01
130	  0.045851704	-5.212000E+00	  0.045851704	-7.561000E+00	  0.045851704	1.639210E+02	  0.045851704	-3.387400E+01
131	  0.046052106	-5.254000E+00	  0.046052106	-9.436000E+00	  0.046052106	1.589180E+02	  0.046052106	-4.055200E+01
132	  0.046252504	-5.294000E+00	  0.046252504	-1.131300E+01	  0.046252504	1.535240E+02	  0.046252504	-4.647600E+01
133	  0.046452906	-5.333000E+00	  0.046452906	-1.315200E+01	  0.046452906	1.479940E+02	  0.046452906	-5.154400E+01
134	  0.046653304	-5.367000E+00	  0.046653304	-1.502000E+01	  0.046653304	1.422810E+02	  0.046653304	-5.603700E+01
135	  0.046853706	-5.403000E+00	  0.046853706	-1.687000E+01	  0.046853706	1.365020E+02	  0.046853706	-5.974900E+01
136	  0.047054108	-5.437000E+00	  0.047054108	-1.871200E+01	  0.047054108	1.307680E+02	  0.047054108	-6.282600E+01
137	  0.047254506	-5.467000E+00	  0.047254506	-2.055700E+01	  0.047254506	1.251480E+02	  0.047254506	-6.540100E+01
138	  0.047454908	-5.499000E+00	  0.047454908	-2.235400E+01	  0.047454908	1.197510E+02	  0.047454908	-6.734000E+01
139	  0.047655310	-5.528000E+00	  0.047655310	-2.413500E+01	  0.047655310	1.145720E+02	  0.047655310	-6.885900E+01
140	  0.047855709	-5.558000E+00	  0.047855709	-2.588700E+01	  0.047855709	1.096340E+02	  0.047855709	-6.993200E+01
141	  0.048056111	-5.589000E+00	  0.048056111	-2.764700E+01	  0.048056111	1.048550E+02	  0.048056111	-7.063700E+01
142	  0.048256513	-5.620000E+00	  0.048256513	-2.941700E+01	  0.048256513	1.002590E+02	  0.048256513	-7.103700E+01
143	  0.048456915	-5.651000E+00	  0.048456915	-3.114500E+01	  0.048456915	9.597700E+01	  0.048456915	-7.116600E+01
144	  0.048657313	-5.675000E+00	  0.048657313	-3.289500E+01	  0.048657313	9.185800E+01	  0.048657313	-7.118400E+01
145	  0.048857715	-5.699000E+00	  0.048857715	-3.464700E+01	  0.048857715	8.793600E+01	  0.048857715	-7.098100E+01
146	  0.049058117	-5.725000E+00	  0.049058117	-3.637100E+01	  0.049058117	8.427100E+01	  0.049058117	-7.059100E+01
147	  0.049258515	-5.748000E+00	  0.049258515	-3.806400E+01	  0.049258515	8.085500E+01	  0.049258515	-7.009200E+01
148	  0.049458917	-5.770000E+00	  0.049458917	-3.979200E+01	  0.049458917	7.755000E+01	  0.049458917	-6.947600E+01
149	  0.049659319	-5.796000E+00	  0.049659319	-4.146000E+01	  0.049659319	7.453400E+01	  0.049659319	-6.873300E+01
150	  0.049859721	-5.819000E+00	  0.049859721	-4.314200E+01	  0.049859721	7.164900E+01	  0.049859721	-6.793500E+01
151	  0.050060119	-5.838000E+00	  0.050060119	-4.484900E+01	  0.050060119	6.887000E+01	  0.050060119	-6.709100E+01
152	  0.050260521	-5.857000E+00	  0.050260521	-4.652000E+01	  0.050260521	6.629400E+01	  0.050260521	-6.620300E+01
153	  0.050460923	-5.873000E+00	  0.050460923	-4.822100E+01	  0.050460923	6.380300E+01	  0.050460923	-6.527700E+01
154	  0.050661322	-5.884000E+00	  0.050661322	-4.984700E+01	  0.050661322	6.153400E+01	  0.050661322	-6.438000E+01
155	  0.050861724	-5.901000E+00	  0.050861724	-5.149400E+01	  0.050861724	5.937100E+01	  0.050861724	-6.339000E+01
156	  0.051062126	-5.912000E+00	  0.051062126	-5.311100E+01	  0.051062126	5.733600E+01	  0.051062126	-6.243900E+01
157	  0.051262524	-5.923000E+00	  0.051262524	-5.468400E+01	  0.051262524	5.546000E+01	  0.051262524	-6.147600E+01
158	  0.051462926	-5.938000E+00	  0.051462926	-5.624600E+01	  0.051462926	5.369900E+01	  0.051462926	-6.048300E+01
159	  0.051663328	-5.950000E+00	  0.051663328	-5.780400E+01	  0.051663328	5.202200E+01	  0.051663328	-5.949500E+01
160	  0.051863730	-5.968000E+00	  0.051863730	-5.934900E+01	  0.051863730	5.046200E+01	  0.051863730	-5.846200E+01
161	  0.052064128	-5.981000E+00	  0.052064128	-6.090800E+01	  0.052064128	4.894500E+01	  0.052064128	-5.745500E+01
162	  0.052264530	-5.994000E+00	  0.052264530	-6.247500E+01	  0.052264530	4.749400E+01	  0.052264530	-5.643800E+01
163	  0.052464932	-6.010000E+00	  0.052464932	-6.404600E+01	  0.052464932	4.612100E+01	  0.052464932	-5.540100E+01
164	  0.052665330	-6.025000E+00	  0.052665330	-6.559700E+01	  0.052665330	4.483100E+01	  0.052665330	-5.437900E+01
165	  0.052865732	-6.038000E+00	  0.052865732	-6.714500E+01	  0.052865732	4.359400E+01	  0.052865732	-5.337900E+01
166	  0.053066134	-6.048000E+00	  0.053066134	-6.869200E+01	  0.053066134	4.240500E+01	  0.053066134	-5.239700E+01
167	  0.053266536	-6.059000E+00	  0.053266536	-7.025100E+01	  0.053266536	4.126900E+01	  0.053266536	-5.140200E+01
168	  0.053466935	-6.063000E+00	  0.053466935	-7.178200E+01	  0.053466935	4.017600E+01	  0.053466935	-5.046600E+01
169	  0.053667337	-6.068000E+00	  0.053667337	-7.332400E+01	  0.053667337	3.912800E+01	  0.053667337	-4.952100E+01
170	  0.053867739	-6.071000E+00	  0.053867739	-7.484800E+01	  0.053867739	3.813300E+01	  0.053867739	-4.859900E+01
171	  0.054068137	-6.075000E+00	  0.054068137	-7.634800E+01	  0.054068137	3.719700E+01	  0.054068137	-4.769400E+01
172	  0.054268539	-6.079000E+00	  0.054268539	-7.781300E+01	  0.054268539	3.632400E+01	  0.054268539	-4.681300E+01
173	  0.054468941	-6.080000E+00	  0.054468941	-7.927000E+01	  0.054468941	3.548300E+01	  0.054468941	-4.595200E+01
174	  0.054669339	-6.085000E+00	  0.054669339	-8.070200E+01	  0.054669339	3.470200E+01	  0.054669339	-4.510000E+01
175	  0.054869737	-6.092000E+00	  0.054869737	-8.212900E+01	  0.054869737	3.396700E+01	  0.054869737	-4.424800E+01
176	  0.055070139	-6.094000E+00	  0.055070139	-8.354000E+01	  0.055070139	3.324600E+01	  0.055070139	-4.343200E+01
177	  0.055270538	-6.102000E+00	  0.055270538	-8.498000E+01	  0.055270538	3.256800E+01	  0.055270538	-4.258300E+01
178	  0.055470940	-6.108000E+00	  0.055470940	-8.638600E+01	  0.055470940	3.192100E+01	  0.055470940	-4.177000E+01
179	  0.055671342	-6.110000E+00	  0.055671342	-8.779300E+01	  0.055671342	3.128500E+01	  0.055671342	-4.097600E+01
180	  0.055871744	-6.117000E+00	  0.055871744	-8.922500E+01	  0.055871744	3.068300E+01	  0.055871744	-4.015900E+01
181	  0.056072142	-6.122000E+00	  0.056072142	-9.060800E+01	  0.056072142	3.011800E+01	  0.056072142	-3.938300E+01
182	  0.056272544	-6.127000E+00	  0.056272544	-9.201800E+01	  0.056272544	2.956400E+01	  0.056272544	-3.859800E+01
183	  0.056472946	-6.130000E+00	  0.056472946	-9.344000E+01	  0.056472946	2.901800E+01	  0.056472946	-3.782200E+01
184	  0.056673344	-6.129000E+00	  0.056673344	-9.482600E+01	  0.056673344	2.849400E+01	  0.056673344	-3.708000E+01
185	  0.056873746	-6.135000E+00	  0.056873746	-9.622500E+01	  0.056873746	2.800800E+01	  0.056873746	-3.632200E+01
186	  0.057074148	-6.132000E+00	  0.057074148	-9.760200E+01	  0.057074148	2.751900E+01	  0.057074148	-3.560100E+01
187	  0.057274550	-6.131000E+00	  0.057274550	-9.898000E+01	  0.057274550	2.705200E+01	  0.057274550	-3.488300E+01
188	  0.057474948	-6.133000E+00	  0.057474948	-1.003280E+02	  0.057474948	2.662500E+01	  0.057474948	-3.417900E+01
189	  0.057675350	-6.133000E+00	  0.057675350	-1.016540E+02	  0.057675350	2.620900E+01	  0.057675350	-3.349700E+01
190	  0.057875752	-6.132000E+00	  0.057875752	-1.029790E+02	  0.057875752	2.580900E+01	  0.057875752	-3.282300E+01
191	  0.058076151	-6.133000E+00	  0.058076151	-1.042650E+02	  0.058076151	2.543700E+01	  0.058076151	-3.217000E+01
192	  0.058276553	-6.134000E+00	  0.058276553	-1.055600E+02	  0.058276553	2.507800E+01	  0.058276553	-3.151800E+01
193	  0.058476955	-6.135000E+00	  0.058476955	-1.068410E+02	  0.058476955	2.473100E+01	  0.058476955	-3.088000E+01
194	  0.058677353	-6.140000E+00	  0.058677353	-1.081370E+02	  0.058677353	2.440800E+01	  0.058677353	-3.023100E+01
195	  0.058877755	-6.137000E+00	  0.058877755	-1.094280E+02	  0.058877755	2.407300E+01	  0.058877755	-2.960200E+01
196	  0.059078157	-6.140000E+00	  0.059078157	-1.106970E+02	  0.059078157	2.377200E+01	  0.059078157	-2.898000E+01
197	  0.059278559	-6.148000E+00	  0.059278559	-1.119780E+02	  0.059278559	2.349400E+01	  0.059278559	-2.835100E+01
198	  0.059478957	-6.152000E+00	  0.059478957	-1.132820E+02	  0.059478957	2.320900E+01	  0.059478957	-2.772100E+01
199	  0.059679359	-6.154000E+00	  0.059679359	-1.145640E+02	  0.059679359	2.293100E+01	  0.059679359	-2.711000E+01
200	  0.059879761	-6.153000E+00	  0.059879761	-1.158210E+02	  0.059879761	2.266200E+01	  0.059879761	-2.651800E+01
201	  0.060080159	-6.156000E+00	  0.060080159	-1.170960E+02	  0.060080159	2.240600E+01	  0.060080159	-2.591800E+01
202	  0.060280561	-6.158000E+00	  0.060280561	-1.183390E+02	  0.060280561	2.216600E+01	  0.060280561	-2.533800E+01
203	  0.060480963	-6.158000E+00	  0.060480963	-1.196020E+02	  0.060480963	2.192300E+01	  0.060480963	-2.475600E+01
204	  0.060681365	-6.158000E+00	  0.060681365	-1.208170E+02	  0.060681365	2.169500E+01	  0.060681365	-2.420000E+01
205	  0.060881764	-6.156000E+00	  0.060881764	-1.220510E+02	  0.060881764	2.146800E+01	  0.060881764	-2.364100E+01
206	  0.061082166	-6.157000E+00	  0.061082166	-1.232970E+02	  0.061082166	2.125400E+01	  0.061082166	-2.307600E+01
207	  0.061282568	-6.155000E+00	  0.061282568	-1.244960E+02	  0.061282568	2.104500E+01	  0.061282568	-2.254000E+01
208	  0.061482966	-6.151000E+00	  0.061482966	-1.256600E+02	  0.061482966	2.084400E+01	  0.061482966	-2.202500E+01
209	  0.061683368	-6.152000E+00	  0.061683368	-1.268480E+02	  0.061683368	2.065900E+01	  0.061683368	-2.149700E+01
210	  0.061883770	-6.155000E+00	  0.061883770	-1.280040E+02	  0.061883770	2.049100E+01	  0.061883770	-2.098400E+01
211	  0.062084168	-6.154000E+00	  0.062084168	-1.291680E+02	  0.062084168	2.031600E+01	  0.062084168	-2.047400E+01
212	  0.062284570	-6.159000E+00	  0.062284570	-1.303380E+02	  0.062284570	2.016400E+01	  0.062284570	-1.995900E+01
213	  0.062484972	-6.153000E+00	  0.062484972	-1.314520E+02	  0.062484972	1.999400E+01	  0.062484972	-1.948100E+01
214	  0.062685370	-6.158000E+00	  0.062685370	-1.326280E+02	  0.062685370	1.985100E+01	  0.062685370	-1.896900E+01
215	  0.062885776	-6.160000E+00	  0.062885776	-1.337920E+02	  0.062885776	1.970500E+01	  0.062885776	-1.846800E+01
216	  0.063086174	-6.165000E+00	  0.063086174	-1.349300E+02	  0.063086174	1.957700E+01	  0.063086174	-1.797800E+01
217	  0.063286573	-6.167000E+00	  0.063286573	-1.361170E+02	  0.063286573	1.943900E+01	  0.063286573	-1.747300E+01
218	  0.063486971	-6.169000E+00	  0.063486971	-1.372700E+02	  0.063486971	1.931200E+01	  0.063486971	-1.698300E+01
219	  0.063687377	-6.163000E+00	  0.063687377	-1.384170E+02	  0.063687377	1.916500E+01	  0.063687377	-1.650500E+01
220	  0.063887775	-6.164000E+00	  0.063887775	-1.395760E+02	  0.063887775	1.904300E+01	  0.063887775	-1.601900E+01
221	  0.064088173	-6.165000E+00	  0.064088173	-1.407050E+02	  0.064088173	1.892800E+01	  0.064088173	-1.554800E+01
222	  0.064288579	-6.168000E+00	  0.064288579	-1.418360E+02	  0.064288579	1.882100E+01	  0.064288579	-1.507600E+01
223	  0.064488977	-6.166000E+00	  0.064488977	-1.429440E+02	  0.064488977	1.870800E+01	  0.064488977	-1.462000E+01
224	  0.064689375	-6.169000E+00	  0.064689375	-1.440370E+02	  0.064689375	1.861300E+01	  0.064689375	-1.416800E+01
225	  0.064889781	-6.165000E+00	  0.064889781	-1.451420E+02	  0.064889781	1.850300E+01	  0.064889781	-1.371700E+01
226	  0.065090179	-6.167000E+00	  0.065090179	-1.462340E+02	  0.065090179	1.841500E+01	  0.065090179	-1.326900E+01
227	  0.065290578	-6.173000E+00	  0.065290578	-1.473060E+02	  0.065290578	1.834100E+01	  0.065290578	-1.283000E+01
228	  0.065490983	-6.169000E+00	  0.065490983	-1.483900E+02	  0.065490983	1.824300E+01	  0.065490983	-1.239200E+01
229	  0.065691382	-6.174000E+00	  0.065691382	-1.494780E+02	  0.065691382	1.817100E+01	  0.065691382	-1.194900E+01
230	  0.065891780	-6.180000E+00	  0.065891780	-1.505440E+02	  0.065891780	1.810800E+01	  0.065891780	-1.151700E+01
231	  0.066092186	-6.182000E+00	  0.066092186	-1.516370E+02	  0.066092186	1.803500E+01	  0.066092186	-1.107700E+01
232	  0.066292584	-6.184000E+00	  0.066292584	-1.527050E+02	  0.066292584	1.796700E+01	  0.066292584	-1.064900E+01
233	  0.066492982	-6.185000E+00	  0.066492982	-1.537550E+02	  0.066492982	1.790100E+01	  0.066492982	-1.022900E+01
234	  0.066693388	-6.188000E+00	  0.066693388	-1.548170E+02	  0.066693388	1.784300E+01	  0.066693388	-9.805000E+00
235	  0.066893786	-6.190000E+00	  0.066893786	-1.558590E+02	  0.066893786	1.778600E+01	  0.066893786	-9.391000E+00
236	  0.067094192	-6.193000E+00	  0.067094192	-1.569170E+02	  0.067094192	1.773300E+01	  0.067094192	-8.971000E+00
237	  0.067294590	-6.197000E+00	  0.067294590	-1.579730E+02	  0.067294590	1.768700E+01	  0.067294590	-8.552000E+00
238	  0.067494988	-6.195000E+00	  0.067494988	-1.590210E+02	  0.067494988	1.762700E+01	  0.067494988	-8.140000E+00
239	  0.067695394	-6.200000E+00	  0.067695394	-1.600410E+02	  0.067695394	1.759000E+01	  0.067695394	-7.737000E+00
240	  0.067895792	-6.205000E+00	  0.067895792	-1.610720E+02	  0.067895792	1.755500E+01	  0.067895792	-7.331000E+00
241	  0.068096191	-6.207000E+00	  0.068096191	-1.620910E+02	  0.068096191	1.751600E+01	  0.068096191	-6.932000E+00
242	  0.068296596	-6.211000E+00	  0.068296596	-1.631210E+02	  0.068296596	1.748600E+01	  0.068296596	-6.528000E+00
243	  0.068496995	-6.212000E+00	  0.068496995	-1.641150E+02	  0.068496995	1.744900E+01	  0.068496995	-6.140000E+00
244	  0.068697393	-6.215000E+00	  0.068697393	-1.651570E+02	  0.068697393	1.742000E+01	  0.068697393	-5.733000E+00
245	  0.068897791	-6.219000E+00	  0.068897791	-1.661220E+02	  0.068897791	1.739700E+01	  0.068897791	-5.357000E+00
246	  0.069098189	-6.220000E+00	  0.069098189	-1.671370E+02	  0.069098189	1.736700E+01	  0.069098189	-4.963000E+00
247	  0.069298595	-6.222000E+00	  0.069298595	-1.681390E+02	  0.069298595	1.734400E+01	  0.069298595	-4.574000E+00
248	  0.069498993	-6.232000E+00	  0.069498993	-1.691280E+02	  0.069498993	1.734400E+01	  0.069498993	-4.189000E+00
249	  0.069699399	-6.241000E+00	  0.069699399	-1.701030E+02	  0.069699399	1.734300E+01	  0.069699399	-3.811000E+00
250	  0.069899797	-6.245000E+00	  0.069899797	-1.711100E+02	  0.069899797	1.733000E+01	  0.069899797	-3.422000E+00
251	  0.070100196	-6.247000E+00	  0.070100196	-1.720930E+02	  0.070100196	1.731700E+01	  0.070100196	-3.042000E+00
252	  0.070300601	-6.252000E+00	  0.070300601	-1.730740E+02	  0.070300601	1.731300E+01	  0.070300601	-2.664000E+00
253	  0.070501000	-6.256000E+00	  0.070501000	-1.740550E+02	  0.070501000	1.730900E+01	  0.070501000	-2.285000E+00
254	  0.070701398	-6.259000E+00	  0.070701398	-1.750090E+02	  0.070701398	1.730500E+01	  0.070701398	-1.918000E+00
255	  0.070901804	-6.267000E+00	  0.070901804	-1.759950E+02	  0.070901804	1.731400E+01	  0.070901804	-1.538000E+00
256	  0.071102202	-6.274000E+00	  0.071102202	-1.769840E+02	  0.071102202	1.732300E+01	  0.071102202	-1.158000E+00
257	  0.071302600	-6.280000E+00	  0.071302600	-1.779360E+02	  0.071302600	1.733200E+01	  0.071302600	-7.920000E-01
258	  0.071503006	-6.289000E+00	  0.071503006	-1.788980E+02	  0.071503006	1.735200E+01	  0.071503006	-4.220000E-01
259	  0.071703404	-6.295000E+00	  0.071703404	-1.798280E+02	  0.071703404	1.736600E+01	  0.071703404	-6.500000E-02
260	  0.071903802	-6.302000E+00	  0.071903802	1.792170E+02	  0.071903802	1.738400E+01	  0.071903802	3.000000E-01
261	  0.072104208	-6.309000E+00	  0.072104208	1.782510E+02	  0.072104208	1.740600E+01	  0.072104208	6.700000E-01
262	  0.072304606	-6.318000E+00	  0.072304606	1.773330E+02	  0.072304606	1.743300E+01	  0.072304606	1.022000E+00
263	  0.072505005	-6.322000E+00	  0.072505005	1.763980E+02	  0.072505005	1.744900E+01	  0.072505005	1.380000E+00
264	  0.072705410	-6.330000E+00	  0.072705410	1.754370E+02	  0.072705410	1.747800E+01	  0.072705410	1.748000E+00
265	  0.072905809	-6.339000E+00	  0.072905809	1.745150E+02	  0.072905809	1.751300E+01	  0.072905809	2.101000E+00
266	  0.073106214	-6.346000E+00	  0.073106214	1.735820E+02	  0.073106214	1.754300E+01	  0.073106214	2.459000E+00
267	  0.073306613	-6.353000E+00	  0.073306613	1.726810E+02	  0.073306613	1.757500E+01	  0.073306613	2.803000E+00
268	  0.073507011	-6.359000E+00	  0.073507011	1.717320E+02	  0.073507011	1.760700E+01	  0.073507011	3.167000E+00
269	  0.073707417	-6.369000E+00	  0.073707417	1.708390E+02	  0.073707417	1.765100E+01	  0.073707417	3.508000E+00
270	  0.073907815	-6.375000E+00	  0.073907815	1.699490E+02	  0.073907815	1.768700E+01	  0.073907815	3.850000E+00
271	  0.074108213	-6.382000E+00	  0.074108213	1.690210E+02	  0.074108213	1.772800E+01	  0.074108213	4.205000E+00
272	  0.074308619	-6.392000E+00	  0.074308619	1.681080E+02	  0.074308619	1.777700E+01	  0.074308619	4.555000E+00
273	  0.074509017	-6.401000E+00	  0.074509017	1.672170E+02	  0.074509017	1.782700E+01	  0.074509017	4.896000E+00
274	  0.074709415	-6.406000E+00	  0.074709415	1.663160E+02	  0.074709415	1.786900E+01	  0.074709415	5.242000E+00
275	  0.074909821	-6.420000E+00	  0.074909821	1.654330E+02	  0.074909821	1.793400E+01	  0.074909821	5.579000E+00
276	  0.075110219	-6.429000E+00	  0.075110219	1.645560E+02	  0.075110219	1.798900E+01	  0.075110219	5.915000E+00
277	  0.075310618	-6.439000E+00	  0.075310618	1.636770E+02	  0.075310618	1.804600E+01	  0.075310618	6.253000E+00
278	  0.075511023	-6.448000E+00	  0.075511023	1.628190E+02	  0.075511023	1.810600E+01	  0.075511023	6.581000E+00
279	  0.075711422	-6.461000E+00	  0.075711422	1.619060E+02	  0.075711422	1.817800E+01	  0.075711422	6.931000E+00
280	  0.075911827	-6.472000E+00	  0.075911827	1.610570E+02	  0.075911827	1.824300E+01	  0.075911827	7.257000E+00
281	  0.076112226	-6.482000E+00	  0.076112226	1.601920E+02	  0.076112226	1.831000E+01	  0.076112226	7.589000E+00
282	  0.076312624	-6.495000E+00	  0.076312624	1.592960E+02	  0.076312624	1.838700E+01	  0.076312624	7.932000E+00
283	  0.076513030	-6.507000E+00	  0.076513030	1.584230E+02	  0.076513030	1.846300E+01	  0.076513030	8.267000E+00
284	  0.076713428	-6.513000E+00	  0.076713428	1.575560E+02	  0.076713428	1.852600E+01	  0.076713428	8.602000E+00
285	  0.076913826	-6.525000E+00	  0.076913826	1.566980E+02	  0.076913826	1.860600E+01	  0.076913826	8.932000E+00
286	  0.077114232	-6.538000E+00	  0.077114232	1.558450E+02	  0.077114232	1.869000E+01	  0.077114232	9.260000E+00
287	  0.077314630	-6.549000E+00	  0.077314630	1.550100E+02	  0.077314630	1.877100E+01	  0.077314630	9.581000E+00
288	  0.077515028	-6.560000E+00	  0.077515028	1.541470E+02	  0.077515028	1.885300E+01	  0.077515028	9.915000E+00
289	  0.077715434	-6.573000E+00	  0.077715434	1.533020E+02	  0.077715434	1.894200E+01	  0.077715434	1.024000E+01
290	  0.077915832	-6.585000E+00	  0.077915832	1.524620E+02	  0.077915832	1.903300E+01	  0.077915832	1.056300E+01
291	  0.078116231	-6.600000E+00	  0.078116231	1.516170E+02	  0.078116231	1.913300E+01	  0.078116231	1.088900E+01
292	  0.078316636	-6.613000E+00	  0.078316636	1.507380E+02	  0.078316636	1.923000E+01	  0.078316636	1.122800E+01
293	  0.078517035	-6.629000E+00	  0.078517035	1.499270E+02	  0.078517035	1.933500E+01	  0.078517035	1.154000E+01
294	  0.078717433	-6.646000E+00	  0.078717433	1.490920E+02	  0.078717433	1.944400E+01	  0.078717433	1.186000E+01
295	  0.078917839	-6.658000E+00	  0.078917839	1.482690E+02	  0.078917839	1.954200E+01	  0.078917839	1.217900E+01
296	  0.079118237	-6.675000E+00	  0.079118237	1.474120E+02	  0.079118237	1.966000E+01	  0.079118237	1.250900E+01
297	  0.079318643	-6.692000E+00	  0.079318643	1.465940E+02	  0.079318643	1.977500E+01	  0.079318643	1.282400E+01
298	  0.079519041	-6.706000E+00	  0.079519041	1.457650E+02	  0.079519041	1.988800E+01	  0.079519041	1.314400E+01
299	  0.079719439	-6.720000E+00	  0.079719439	1.449250E+02	  0.079719439	2.000200E+01	  0.079719439	1.347000E+01
300	  0.079919845	-6.733000E+00	  0.079919845	1.441130E+02	  0.079919845	2.011300E+01	  0.079919845	1.378600E+01
301	  0.080120243	-6.751000E+00	  0.080120243	1.432650E+02	  0.080120243	2.024300E+01	  0.080120243	1.411300E+01
302	  0.080320641	-6.765000E+00	  0.080320641	1.424520E+02	  0.080320641	2.036300E+01	  0.080320641	1.442800E+01
303	  0.080521047	-6.784000E+00	  0.080521047	1.416440E+02	  0.080521047	2.049900E+01	  0.080521047	1.473800E+01
304	  0.080721445	-6.804000E+00	  0.080721445	1.408560E+02	  0.080721445	2.063500E+01	  0.080721445	1.504100E+01
305	  0.080921844	-6.819000E+00	  0.080921844	1.400710E+02	  0.080921844	2.076100E+01	  0.080921844	1.534500E+01
306	  0.081122249	-6.834000E+00	  0.081122249	1.392680E+02	  0.081122249	2.089000E+01	  0.081122249	1.565800E+01
307	  0.081322648	-6.856000E+00	  0.081322648	1.384980E+02	  0.081322648	2.103900E+01	  0.081322648	1.595100E+01
308	  0.081523046	-6.872000E+00	  0.081523046	1.377210E+02	  0.081523046	2.117300E+01	  0.081523046	1.625200E+01
309	  0.081723452	-6.893000E+00	  0.081723452	1.369370E+02	  0.081723452	2.132300E+01	  0.081723452	1.655300E+01
310	  0.081923850	-6.910000E+00	  0.081923850	1.361700E+02	  0.081923850	2.146400E+01	  0.081923850	1.685000E+01
311	  0.082124248	-6.935000E+00	  0.082124248	1.354200E+02	  0.082124248	2.162800E+01	  0.082124248	1.713300E+01
312	  0.082324654	-6.952000E+00	  0.082324654	1.346670E+02	  0.082324654	2.177200E+01	  0.082324654	1.742400E+01
313	  0.082525052	-6.976000E+00	  0.082525052	1.339270E+02	  0.082525052	2.193500E+01	  0.082525052	1.770400E+01
314	  0.082725458	-7.003000E+00	  0.082725458	1.331850E+02	  0.082725458	2.211100E+01	  0.082725458	1.798100E+01
315	  0.082925856	-7.028000E+00	  0.082925856	1.323920E+02	  0.082925856	2.228800E+01	  0.082925856	1.828200E+01
316	  0.083126254	-7.049000E+00	  0.083126254	1.316170E+02	  0.083126254	2.245700E+01	  0.083126254	1.857800E+01
317	  0.083326660	-7.071000E+00	  0.083326660	1.308880E+02	  0.083326660	2.262300E+01	  0.083326660	1.885500E+01
318	  0.083527058	-7.092000E+00	  0.083527058	1.301340E+02	  0.083527058	2.279500E+01	  0.083527058	1.914200E+01
319	  0.083727457	-7.116000E+00	  0.083727457	1.293770E+02	  0.083727457	2.297400E+01	  0.083727457	1.942900E+01
320	  0.083927862	-7.132000E+00	  0.083927862	1.286570E+02	  0.083927862	2.313400E+01	  0.083927862	1.970700E+01
321	  0.084128261	-7.157000E+00	  0.084128261	1.279450E+02	  0.084128261	2.331500E+01	  0.084128261	1.997300E+01
322	  0.084328659	-7.178000E+00	  0.084328659	1.272240E+02	  0.084328659	2.349100E+01	  0.084328659	2.024700E+01
323	  0.084529065	-7.205000E+00	  0.084529065	1.264990E+02	  0.084529065	2.368400E+01	  0.084529065	2.051600E+01
324	  0.084729463	-7.225000E+00	  0.084729463	1.257570E+02	  0.084729463	2.386600E+01	  0.084729463	2.079900E+01
325	  0.084929861	-7.249000E+00	  0.084929861	1.250550E+02	  0.084929861	2.405500E+01	  0.084929861	2.106100E+01
326	  0.085130267	-7.273000E+00	  0.085130267	1.243900E+02	  0.085130267	2.424000E+01	  0.085130267	2.130700E+01
327	  0.085330658	-7.295000E+00	  0.085330658	1.236840E+02	  0.085330658	2.442700E+01	  0.085330658	2.157300E+01
328	  0.085531056	-7.320000E+00	  0.085531056	1.229860E+02	  0.085531056	2.462500E+01	  0.085531056	2.183100E+01
329	  0.085731462	-7.346000E+00	  0.085731462	1.222940E+02	  0.085731462	2.482700E+01	  0.085731462	2.208500E+01
330	  0.085931860	-7.371000E+00	  0.085931860	1.216130E+02	  0.085931860	2.502800E+01	  0.085931860	2.233400E+01
331	  0.086132258	-7.395000E+00	  0.086132258	1.209480E+02	  0.086132258	2.522500E+01	  0.086132258	2.257800E+01
332	  0.086332664	-7.425000E+00	  0.086332664	1.202200E+02	  0.086332664	2.545100E+01	  0.086332664	2.284100E+01
333	  0.086533062	-7.444000E+00	  0.086533062	1.195290E+02	  0.086533062	2.564600E+01	  0.086533062	2.310100E+01
334	  0.086733460	-7.465000E+00	  0.086733460	1.188320E+02	  0.086733460	2.584900E+01	  0.086733460	2.336100E+01
335	  0.086933866	-7.487000E+00	  0.086933866	1.181620E+02	  0.086933866	2.605200E+01	  0.086933866	2.360800E+01
336	  0.087134264	-7.515000E+00	  0.087134264	1.174740E+02	  0.087134264	2.627700E+01	  0.087134264	2.385400E+01
337	  0.087334670	-7.533000E+00	  0.087334670	1.167990E+02	  0.087334670	2.647400E+01	  0.087334670	2.410900E+01
338	  0.087535068	-7.564000E+00	  0.087535068	1.161640E+02	  0.087535068	2.670400E+01	  0.087535068	2.432600E+01
339	  0.087735467	-7.584000E+00	  0.087735467	1.154920E+02	  0.087735467	2.691300E+01	  0.087735467	2.457400E+01
340	  0.087935872	-7.613000E+00	  0.087935872	1.148620E+02	  0.087935872	2.713800E+01	  0.087935872	2.479200E+01
341	  0.088136271	-7.635000E+00	  0.088136271	1.141990E+02	  0.088136271	2.735500E+01	  0.088136271	2.503300E+01
342	  0.088336669	-7.654000E+00	  0.088336669	1.135500E+02	  0.088336669	2.756300E+01	  0.088336669	2.527200E+01
343	  0.088537075	-7.682000E+00	  0.088537075	1.129270E+02	  0.088537075	2.779400E+01	  0.088537075	2.548500E+01
344	  0.088737473	-7.703000E+00	  0.088737473	1.122990E+02	  0.088737473	2.800800E+01	  0.088737473	2.571100E+01
345	  0.088937871	-7.735000E+00	  0.088937871	1.117010E+02	  0.088937871	2.824500E+01	  0.088937871	2.590600E+01
346	  0.089138277	-7.754000E+00	  0.089138277	1.110930E+02	  0.089138277	2.845600E+01	  0.089138277	2.612400E+01
347	  0.089338675	-7.794000E+00	  0.089338675	1.105370E+02	  0.089338675	2.870800E+01	  0.089338675	2.628600E+01
348	  0.089539073	-7.814000E+00	  0.089539073	1.098880E+02	  0.089539073	2.893600E+01	  0.089539073	2.651900E+01
349	  0.089739479	-7.846000E+00	  0.089739479	1.092670E+02	  0.089739479	2.919200E+01	  0.089739479	2.671700E+01
350	  0.089939877	-7.869000E+00	  0.089939877	1.086540E+02	  0.089939877	2.942200E+01	  0.089939877	2.692900E+01
351	  0.090140276	-7.901000E+00	  0.090140276	1.080360E+02	  0.090140276	2.968000E+01	  0.090140276	2.712500E+01
352	  0.090340681	-7.922000E+00	  0.090340681	1.074370E+02	  0.090340681	2.990800E+01	  0.090340681	2.733100E+01
353	  0.090541080	-7.956000E+00	  0.090541080	1.068410E+02	  0.090541080	3.017200E+01	  0.090541080	2.751100E+01
354	  0.090741485	-7.981000E+00	  0.090741485	1.062650E+02	  0.090741485	3.040700E+01	  0.090741485	2.769800E+01
355	  0.090941884	-8.012000E+00	  0.090941884	1.056740E+02	  0.090941884	3.066500E+01	  0.090941884	2.787900E+01
356	  0.091142282	-8.037000E+00	  0.091142282	1.050960E+02	  0.091142282	3.090600E+01	  0.091142282	2.806500E+01
357	  0.091342688	-8.061000E+00	  0.091342688	1.045130E+02	  0.091342688	3.114900E+01	  0.091342688	2.825400E+01
358	  0.091543086	-8.087000E+00	  0.091543086	1.039380E+02	  0.091543086	3.139500E+01	  0.091543086	2.843500E+01
359	  0.091743484	-8.111000E+00	  0.091743484	1.033830E+02	  0.091743484	3.163400E+01	  0.091743484	2.861000E+01
360	  0.091943890	-8.142000E+00	  0.091943890	1.028290E+02	  0.091943890	3.189200E+01	  0.091943890	2.876900E+01
361	  0.092144288	-8.165000E+00	  0.092144288	1.023030E+02	  0.092144288	3.212300E+01	  0.092144288	2.893200E+01
362	  0.092344686	-8.192000E+00	  0.092344686	1.017900E+02	  0.092344686	3.236100E+01	  0.092344686	2.908000E+01
363	  0.092545092	-8.220000E+00	  0.092545092	1.012700E+02	  0.092545092	3.260800E+01	  0.092545092	2.922700E+01
364	  0.092745490	-8.248000E+00	  0.092745490	1.007680E+02	  0.092745490	3.285100E+01	  0.092745490	2.936500E+01
365	  0.092945889	-8.277000E+00	  0.092945889	1.002160E+02	  0.092945889	3.311300E+01	  0.092945889	2.952000E+01
366	  0.093146294	-8.309000E+00	  0.093146294	9.969800E+01	  0.093146294	3.337400E+01	  0.093146294	2.965300E+01
367	  0.093346693	-8.334000E+00	  0.093346693	9.917400E+01	  0.093346693	3.362300E+01	  0.093346693	2.980100E+01
368	  0.093547091	-8.352000E+00	  0.093547091	9.865300E+01	  0.093547091	3.385100E+01	  0.093547091	2.996700E+01
369	  0.093747497	-8.379000E+00	  0.093747497	9.810100E+01	  0.093747497	3.411900E+01	  0.093747497	3.011900E+01
370	  0.093947895	-8.407000E+00	  0.093947895	9.762200E+01	  0.093947895	3.436300E+01	  0.093947895	3.023900E+01
371	  0.094148301	-8.434000E+00	  0.094148301	9.710000E+01	  0.094148301	3.462300E+01	  0.094148301	3.037700E+01
372	  0.094348699	-8.457000E+00	  0.094348699	9.662400E+01	  0.094348699	3.485700E+01	  0.094348699	3.050600E+01
373	  0.094549097	-8.480000E+00	  0.094549097	9.615700E+01	  0.094549097	3.509100E+01	  0.094549097	3.062900E+01
374	  0.094749503	-8.501000E+00	  0.094749503	9.572100E+01	  0.094749503	3.530800E+01	  0.094749503	3.074500E+01
375	  0.094949901	-8.522000E+00	  0.094949901	9.521500E+01	  0.094949901	3.555400E+01	  0.094949901	3.088600E+01
376	  0.095150299	-8.543000E+00	  0.095150299	9.478300E+01	  0.095150299	3.577300E+01	  0.095150299	3.099700E+01
377	  0.095350705	-8.560000E+00	  0.095350705	9.431600E+01	  0.095350705	3.599700E+01	  0.095350705	3.113100E+01
378	  0.095551103	-8.579000E+00	  0.095551103	9.389300E+01	  0.095551103	3.621100E+01	  0.095551103	3.124200E+01
379	  0.095751502	-8.604000E+00	  0.095751502	9.343800E+01	  0.095751502	3.645400E+01	  0.095751502	3.134800E+01
380	  0.095951907	-8.624000E+00	  0.095951907	9.302200E+01	  0.095951907	3.667100E+01	  0.095951907	3.145000E+01
381	  0.096152306	-8.644000E+00	  0.096152306	9.257400E+01	  0.096152306	3.690100E+01	  0.096152306	3.156500E+01
382	  0.096352704	-8.662000E+00	  0.096352704	9.215800E+01	  0.096352704	3.711600E+01	  0.096352704	3.167000E+01
383	  0.096553110	-8.678000E+00	  0.096553110	9.173500E+01	  0.096553110	3.732900E+01	  0.096553110	3.178300E+01
384	  0.096753508	-8.693000E+00	  0.096753508	9.129200E+01	  0.096753508	3.754800E+01	  0.096753508	3.190700E+01
385	  0.096953906	-8.711000E+00	  0.096953906	9.086200E+01	  0.096953906	3.777200E+01	  0.096953906	3.201500E+01
386	  0.097154312	-8.728000E+00	  0.097154312	9.043400E+01	  0.097154312	3.799600E+01	  0.097154312	3.212300E+01
387	  0.097354710	-8.743000E+00	  0.097354710	9.001900E+01	  0.097354710	3.821000E+01	  0.097354710	3.223000E+01
388	  0.097555116	-8.763000E+00	  0.097555116	8.961900E+01	  0.097555116	3.842900E+01	  0.097555116	3.232100E+01
389	  0.097755514	-8.769000E+00	  0.097755514	8.920400E+01	  0.097755514	3.862600E+01	  0.097755514	3.245100E+01
390	  0.097955912	-8.781000E+00	  0.097955912	8.877800E+01	  0.097955912	3.884000E+01	  0.097955912	3.257000E+01
391	  0.098156318	-8.792000E+00	  0.098156318	8.838400E+01	  0.098156318	3.904100E+01	  0.098156318	3.267800E+01
392	  0.098356716	-8.795000E+00	  0.098356716	8.796300E+01	  0.098356716	3.923600E+01	  0.098356716	3.282000E+01
393	  0.098557115	-8.801000E+00	  0.098557115	8.753800E+01	  0.098557115	3.944400E+01	  0.098557115	3.295100E+01
394	  0.098757520	-8.805000E+00	  0.098757520	8.712400E+01	  0.098757520	3.964000E+01	  0.098757520	3.308700E+01
395	  0.098957919	-8.812000E+00	  0.098957919	8.673700E+01	  0.098957919	3.983600E+01	  0.098957919	3.320100E+01
396	  0.099158317	-8.818000E+00	  0.099158317	8.634300E+01	  0.099158317	4.003200E+01	  0.099158317	3.332100E+01
397	  0.099358723	-8.819000E+00	  0.099358723	8.595200E+01	  0.099358723	4.021700E+01	  0.099358723	3.345500E+01
398	  0.099559121	-8.822000E+00	  0.099559121	8.556300E+01	  0.099559121	4.040700E+01	  0.099559121	3.358200E+01
399	  0.099759519	-8.823000E+00	  0.099759519	8.517100E+01	  0.099759519	4.059500E+01	  0.099759519	3.371600E+01
400	  0.099959925	-8.816000E+00	  0.099959925	8.477700E+01	  0.099959925	4.076800E+01	  0.099959925	3.387500E+01
401	  0.100160323	-8.821000E+00	  0.100160323	8.437900E+01	  0.100160323	4.097300E+01	  0.100160323	3.399600E+01
402	  0.100360721	-8.813000E+00	  0.100360721	8.398900E+01	  0.100360721	4.114600E+01	  0.100360721	3.415400E+01
403	  0.100561127	-8.810000E+00	  0.100561127	8.358700E+01	  0.100561127	4.133700E+01	  0.100561127	3.430300E+01
404	  0.100761525	-8.808000E+00	  0.100761525	8.320200E+01	  0.100761525	4.152400E+01	  0.100761525	3.444200E+01
405	  0.100961931	-8.806000E+00	  0.100961931	8.272700E+01	  0.100961931	4.175700E+01	  0.100961931	3.461200E+01
406	  0.101162329	-8.800000E+00	  0.101162329	8.238100E+01	  0.101162329	4.191900E+01	  0.101162329	3.474900E+01
407	  0.101362728	-8.795000E+00	  0.101362728	8.195200E+01	  0.101362728	4.212800E+01	  0.101362728	3.491100E+01
408	  0.101563133	-8.787000E+00	  0.101563133	8.149800E+01	  0.101563133	4.234300E+01	  0.101563133	3.509400E+01
409	  0.101763532	-8.783000E+00	  0.101763532	8.107100E+01	  0.101763532	4.255600E+01	  0.101763532	3.525300E+01
410	  0.101963930	-8.774000E+00	  0.101963930	8.062100E+01	  0.101963930	4.277300E+01	  0.101963930	3.543500E+01
411	  0.102164336	-8.766000E+00	  0.102164336	8.022100E+01	  0.102164336	4.296900E+01	  0.102164336	3.559600E+01
412	  0.102364734	-8.755000E+00	  0.102364734	7.977200E+01	  0.102364734	4.318600E+01	  0.102364734	3.578500E+01
413	  0.102565132	-8.745000E+00	  0.102565132	7.928600E+01	  0.102565132	4.342800E+01	  0.102565132	3.598300E+01
414	  0.102765530	-8.728000E+00	  0.102765530	7.893600E+01	  0.102765530	4.358200E+01	  0.102765530	3.616100E+01
415	  0.102965929	-8.728000E+00	  0.102965929	7.847800E+01	  0.102965929	4.383400E+01	  0.102965929	3.631400E+01
416	  0.103166327	-8.707000E+00	  0.103166327	7.799600E+01	  0.103166327	4.405700E+01	  0.103166327	3.655300E+01
417	  0.103366733	-8.688000E+00	  0.103366733	7.750900E+01	  0.103366733	4.429300E+01	  0.103366733	3.678200E+01
418	  0.103567131	-8.678000E+00	  0.103567131	7.702900E+01	  0.103567131	4.454400E+01	  0.103567131	3.698000E+01
419	  0.103767529	-8.669000E+00	  0.103767529	7.657600E+01	  0.103767529	4.478800E+01	  0.103767529	3.715900E+01
420	  0.103967935	-8.652000E+00	  0.103967935	7.609300E+01	  0.103967935	4.503300E+01	  0.103967935	3.738400E+01
421	  0.104168333	-8.637000E+00	  0.104168333	7.557800E+01	  0.104168333	4.530600E+01	  0.104168333	3.760900E+01
422	  0.104368731	-8.630000E+00	  0.104368731	7.508700E+01	  0.104368731	4.558400E+01	  0.104368731	3.779600E+01
423	  0.104569137	-8.612000E+00	  0.104569137	7.456700E+01	  0.104569137	4.586000E+01	  0.104569137	3.803600E+01
424	  0.104769535	-8.601000E+00	  0.104769535	7.407500E+01	  0.104769535	4.613900E+01	  0.104769535	3.823900E+01
425	  0.104969934	-8.577000E+00	  0.104969934	7.353800E+01	  0.104969934	4.642200E+01	  0.104969934	3.850700E+01
426	  0.105170339	-8.558000E+00	  0.105170339	7.299400E+01	  0.105170339	4.672300E+01	  0.105170339	3.875900E+01
427	  0.105370738	-8.549000E+00	  0.105370738	7.244900E+01	  0.105370738	4.705000E+01	  0.105370738	3.897200E+01
428	  0.105571143	-8.519000E+00	  0.105571143	7.188500E+01	  0.105571143	4.735200E+01	  0.105571143	3.927600E+01
429	  0.105771542	-8.507000E+00	  0.105771542	7.133900E+01	  0.105771542	4.768300E+01	  0.105771542	3.949800E+01
430	  0.105971940	-8.488000E+00	  0.105971940	7.078200E+01	  0.105971940	4.801400E+01	  0.105971940	3.975300E+01
431	  0.106172346	-8.474000E+00	  0.106172346	7.024400E+01	  0.106172346	4.834500E+01	  0.106172346	3.998300E+01
432	  0.106372744	-8.451000E+00	  0.106372744	6.966000E+01	  0.106372744	4.869500E+01	  0.106372744	4.026600E+01
433	  0.106573142	-8.433000E+00	  0.106573142	6.907500E+01	  0.106573142	4.906200E+01	  0.106573142	4.052500E+01
434	  0.106773548	-8.421000E+00	  0.106773548	6.853300E+01	  0.106773548	4.941800E+01	  0.106773548	4.074300E+01
435	  0.106973946	-8.398000E+00	  0.106973946	6.793700E+01	  0.106973946	4.979400E+01	  0.106973946	4.103000E+01
436	  0.107174344	-8.385000E+00	  0.107174344	6.729000E+01	  0.107174344	5.023300E+01	  0.107174344	4.128300E+01
437	  0.107374750	-8.357000E+00	  0.107374750	6.675400E+01	  0.107374750	5.057100E+01	  0.107374750	4.157200E+01
438	  0.107575148	-8.348000E+00	  0.107575148	6.612500E+01	  0.107575148	5.101900E+01	  0.107575148	4.179600E+01
439	  0.107775547	-8.331000E+00	  0.107775547	6.548000E+01	  0.107775547	5.147000E+01	  0.107775547	4.206700E+01
440	  0.107975952	-8.319000E+00	  0.107975952	6.491200E+01	  0.107975952	5.188000E+01	  0.107975952	4.228500E+01
441	  0.108176351	-8.295000E+00	  0.108176351	6.425800E+01	  0.108176351	5.234000E+01	  0.108176351	4.259100E+01
442	  0.108376749	-8.283000E+00	  0.108376749	6.362100E+01	  0.108376749	5.281800E+01	  0.108376749	4.282600E+01
443	  0.108577155	-8.269000E+00	  0.108577155	6.295500E+01	  0.108577155	5.332300E+01	  0.108577155	4.307800E+01
444	  0.108777553	-8.247000E+00	  0.108777553	6.229600E+01	  0.108777553	5.381900E+01	  0.108777553	4.336300E+01
445	  0.108977959	-8.234000E+00	  0.108977959	6.159600E+01	  0.108977959	5.437100E+01	  0.108977959	4.361400E+01
446	  0.109178357	-8.218000E+00	  0.109178357	6.098500E+01	  0.109178357	5.485400E+01	  0.109178357	4.385700E+01
447	  0.109378755	-8.202000E+00	  0.109378755	6.029000E+01	  0.109378755	5.541800E+01	  0.109378755	4.411100E+01
448	  0.109579161	-8.193000E+00	  0.109579161	5.963100E+01	  0.109579161	5.596900E+01	  0.109579161	4.432300E+01
449	  0.109779559	-8.177000E+00	  0.109779559	5.882500E+01	  0.109779559	5.665100E+01	  0.109779559	4.459400E+01
450	  0.109979957	-8.161000E+00	  0.109979957	5.816700E+01	  0.109979957	5.721100E+01	  0.109979957	4.483500E+01
451	  0.110180363	-8.151000E+00	  0.110180363	5.743900E+01	  0.110180363	5.785500E+01	  0.110180363	4.505000E+01
452	  0.110380761	-8.137000E+00	  0.110380761	5.673500E+01	  0.110380761	5.848200E+01	  0.110380761	4.527200E+01
453	  0.110581160	-8.131000E+00	  0.110581160	5.595900E+01	  0.110581160	5.919800E+01	  0.110581160	4.545800E+01
454	  0.110781565	-8.119000E+00	  0.110781565	5.520300E+01	  0.110781565	5.990000E+01	  0.110781565	4.566800E+01
455	  0.110981964	-8.113000E+00	  0.110981964	5.446400E+01	  0.110981964	6.060400E+01	  0.110981964	4.583300E+01
456	  0.111182362	-8.105000E+00	  0.111182362	5.367300E+01	  0.111182362	6.136800E+01	  0.111182362	4.601000E+01
457	  0.111382768	-8.099000E+00	  0.111382768	5.288500E+01	  0.111382768	6.214600E+01	  0.111382768	4.615600E+01
458	  0.111583166	-8.091000E+00	  0.111583166	5.209400E+01	  0.111583166	6.293800E+01	  0.111583166	4.631000E+01
459	  0.111783572	-8.092000E+00	  0.111783572	5.127600E+01	  0.111783572	6.377700E+01	  0.111783572	4.639400E+01
460	  0.111983970	-8.089000E+00	  0.111983970	5.048600E+01	  0.111983970	6.459800E+01	  0.111983970	4.649100E+01
461	  0.112184368	-8.083000E+00	  0.112184368	4.967300E+01	  0.112184368	6.545300E+01	  0.112184368	4.659200E+01
462	  0.112384774	-8.084000E+00	  0.112384774	4.882000E+01	  0.112384774	6.636800E+01	  0.112384774	4.663500E+01
463	  0.112585172	-8.076000E+00	  0.112585172	4.801100E+01	  0.112585172	6.724700E+01	  0.112585172	4.672600E+01
464	  0.112785570	-8.084000E+00	  0.112785570	4.721400E+01	  0.112785570	6.812700E+01	  0.112785570	4.668200E+01
465	  0.112985976	-8.077000E+00	  0.112985976	4.634600E+01	  0.112985976	6.909900E+01	  0.112985976	4.672900E+01
466	  0.113186374	-8.087000E+00	  0.113186374	4.549900E+01	  0.113186374	7.005700E+01	  0.113186374	4.662800E+01
467	  0.113386773	-8.086000E+00	  0.113386773	4.461200E+01	  0.113386773	7.107600E+01	  0.113386773	4.658700E+01
468	  0.113587178	-8.093000E+00	  0.113587178	4.376200E+01	  0.113587178	7.206000E+01	  0.113587178	4.646900E+01
469	  0.113787577	-8.095000E+00	  0.113787577	4.290100E+01	  0.113787577	7.307100E+01	  0.113787577	4.636000E+01
470	  0.113987975	-8.108000E+00	  0.113987975	4.199400E+01	  0.113987975	7.413700E+01	  0.113987975	4.613100E+01
471	  0.114188381	-8.117000E+00	  0.114188381	4.108900E+01	  0.114188381	7.521300E+01	  0.114188381	4.591100E+01
472	  0.114388779	-8.123000E+00	  0.114388779	4.025600E+01	  0.114388779	7.621300E+01	  0.114388779	4.569900E+01
473	  0.114589177	-8.138000E+00	  0.114589177	3.932500E+01	  0.114589177	7.732600E+01	  0.114589177	4.536400E+01
474	  0.114789583	-8.152000E+00	  0.114789583	3.836600E+01	  0.114789583	7.847900E+01	  0.114789583	4.499300E+01
475	  0.114989981	-8.167000E+00	  0.114989981	3.742800E+01	  0.114989981	7.960900E+01	  0.114989981	4.458800E+01
476	  0.115190387	-8.184000E+00	  0.115190387	3.648300E+01	  0.115190387	8.074500E+01	  0.115190387	4.412900E+01
477	  0.115390785	-8.214000E+00	  0.115390785	3.555500E+01	  0.115390785	8.182300E+01	  0.115390785	4.352500E+01
478	  0.115591183	-8.227000E+00	  0.115591183	3.455400E+01	  0.115591183	8.303300E+01	  0.115591183	4.299500E+01
479	  0.115791589	-8.257000E+00	  0.115791589	3.361700E+01	  0.115791589	8.410700E+01	  0.115791589	4.231300E+01
480	  0.115991987	-8.281000E+00	  0.115991987	3.260400E+01	  0.115991987	8.528500E+01	  0.115991987	4.160500E+01
481	  0.116192386	-8.305000E+00	  0.116192386	3.161600E+01	  0.116192386	8.641500E+01	  0.116192386	4.085800E+01
482	  0.116392791	-8.338000E+00	  0.116392791	3.060100E+01	  0.116392791	8.753100E+01	  0.116392791	3.998300E+01
483	  0.116593190	-8.364000E+00	  0.116593190	2.962900E+01	  0.116593190	8.860600E+01	  0.116593190	3.915200E+01
484	  0.116793588	-8.397000E+00	  0.116793588	2.856800E+01	  0.116793588	8.972800E+01	  0.116793588	3.815100E+01
485	  0.116993994	-8.434000E+00	  0.116993994	2.752700E+01	  0.116993994	9.078500E+01	  0.116993994	3.709900E+01
486	  0.117194392	-8.477000E+00	  0.117194392	2.650900E+01	  0.117194392	9.174700E+01	  0.117194392	3.596900E+01
487	  0.117394790	-8.517000E+00	  0.117394790	2.546200E+01	  0.117394790	9.271800E+01	  0.117394790	3.479600E+01
488	  0.117595196	-8.558000E+00	  0.117595196	2.436000E+01	  0.117595196	9.370700E+01	  0.117595196	3.353000E+01
489	  0.117795594	-8.604000E+00	  0.117795594	2.330500E+01	  0.117795594	9.456900E+01	  0.117795594	3.223100E+01
490	  0.117995992	-8.647000E+00	  0.117995992	2.219700E+01	  0.117995992	9.545400E+01	  0.117995992	3.086500E+01
491	  0.118196398	-8.697000E+00	  0.118196398	2.107600E+01	  0.118196398	9.625000E+01	  0.118196398	2.939900E+01
492	  0.118396796	-8.743000E+00	  0.118396796	1.994500E+01	  0.118396796	9.702500E+01	  0.118396796	2.791800E+01
493	  0.118597202	-8.804000E+00	  0.118597202	1.886400E+01	  0.118597202	9.758900E+01	  0.118597202	2.637600E+01
494	  0.118797600	-8.863000E+00	  0.118797600	1.767700E+01	  0.118797600	9.818500E+01	  0.118797600	2.470200E+01
495	  0.118997999	-8.924000E+00	  0.118997999	1.654300E+01	  0.118997999	9.865500E+01	  0.118997999	2.306400E+01
496	  0.119198404	-8.985000E+00	  0.119198404	1.534300E+01	  0.119198404	9.909600E+01	  0.119198404	2.133300E+01
497	  0.119398803	-9.055000E+00	  0.119398803	1.416900E+01	  0.119398803	9.936400E+01	  0.119398803	1.958400E+01
498	  0.119599201	-9.122000E+00	  0.119599201	1.294100E+01	  0.119599201	9.961800E+01	  0.119599201	1.778500E+01
499	  0.119799607	-9.198000E+00	  0.119799607	1.171300E+01	  0.119799607	9.971300E+01	  0.119799607	1.595900E+01
500	  0.120000005	-9.274000E+00	  0.120000005	1.050200E+01	  0.120000005	9.971700E+01	  0.120000005	1.417100E+01
