! Anritsu VNA Master:             	Model: MS2036C/10/77
! SN:             	1601066
! /bd0/18may09/252.ew.m5.txt
! Existing Calibration Information:
! TYPE:             	Current Settings	Active Cal Settings
! TIME:             	05/09/2018 08:14:19 AM	05/09/2018 08:04:56 AM
! INTERNAL TEMP:    	41.5 C	42.3 C
! # POINTS:         	500	500
! START FREQ:       	20.000 MHz	20.000 MHz
! STOP FREQ:        	120.000 MHz	120.000 MHz
! SOURCE POWER:     	High	High
! IFBW:             	50 Hz	50 Hz
! AVG FACTOR:       	  1 	  1 
! REF PLANE 1:      	0 mm	0 mm
! REF PLANE 2:      	0 mm	0 mm
! CAL TYPE:         	Full S11	Full S11
! CAL METHOD:       	SOLT	SOLT
! CAL LINE TYPE:    	Coax	Coax
! DUT PORT 1:       	K-Conn(F)	K-Conn(F)
! DUT PORT 2:       	K-Conn(F)	K-Conn(F)
! CAL STATUS:       	OK: Accuracy High	--
! PROP-V:       	0.700
! CABLE LOSS:       	0.000 dB/m
! REF IMPEDANCE:       	50.0
! Trace Specific Parameters:	TR1	TR2	TR3	TR4
! TRACE.#.Y (GRAPH TYPE)	LOG MAG	PHASE	REAL IMPEDANCE	IMAGINARY IMPEDANCE
! TRACE.#.X 	FREQ.GHZ	FREQ.GHZ	FREQ.GHZ	FREQ.GHZ
! S-PARAMETER	S11	S11	S11	S11
! SMOOTH/APERTURE %	0	0	0	0
! WINDOW	NSL	NSL	NSL	NSL
! GATING	OFF	OFF	OFF	OFF
! FGTD	OFF	OFF	OFF	OFF
Marker Information per Trace:	TR1	TR2	TR3	TR4
!MK1	--	"MK1 TR2:  20.000 MHz,PH:-124.23°"	--	--
!MK2	--	--	"MK2 TR3:  70.100 200 MHz,Z:(17.242 ohm, -3.083 ohm)"	--
!MK3	--	--	--	--
!MK4	--	--	--	--
!MK5	--	--	--	--
!MK6	--	--	--	--
!MK7	--	--	--	--
!MK8	--	--	--	--
PNT	TR1.FREQ.GHZ	TR1.LOG MAG.dB	TR2.FREQ.GHZ	TR2.PHASE.deg	TR3.FREQ.GHZ	TR3.REAL IMPEDANCE.ohm	TR4.FREQ.GHZ	TR4.IMAGINARY IMPEDANCE.ohm
1	  0.020000000	-5.910000E-01	  0.020000000	-1.242290E+02	  0.020000000	2.179000E+00	  0.020000000	-2.641700E+01
2	  0.020200402	-5.900000E-01	  0.020200402	-1.256810E+02	  0.020200402	2.143000E+00	  0.020200402	-2.561300E+01
3	  0.020400802	-5.920000E-01	  0.020400802	-1.271080E+02	  0.020400802	2.124000E+00	  0.020400802	-2.483300E+01
4	  0.020601204	-5.930000E-01	  0.020601204	-1.285600E+02	  0.020601204	2.103000E+00	  0.020601204	-2.404900E+01
5	  0.020801604	-5.970000E-01	  0.020801604	-1.300430E+02	  0.020801604	2.090000E+00	  0.020801604	-2.325800E+01
6	  0.021002004	-6.030000E-01	  0.021002004	-1.315460E+02	  0.021002004	2.088000E+00	  0.021002004	-2.246600E+01
7	  0.021202406	-6.090000E-01	  0.021202406	-1.330660E+02	  0.021202406	2.085000E+00	  0.021202406	-2.167400E+01
8	  0.021402806	-6.130000E-01	  0.021402806	-1.345860E+02	  0.021402806	2.072000E+00	  0.021402806	-2.089100E+01
9	  0.021603208	-6.160000E-01	  0.021603208	-1.360830E+02	  0.021603208	2.061000E+00	  0.021603208	-2.012900E+01
10	  0.021803608	-6.200000E-01	  0.021803608	-1.376040E+02	  0.021803608	2.053000E+00	  0.021803608	-1.936300E+01
11	  0.022004008	-6.250000E-01	  0.022004008	-1.391380E+02	  0.022004008	2.048000E+00	  0.022004008	-1.859800E+01
12	  0.022204408	-6.290000E-01	  0.022204408	-1.406710E+02	  0.022204408	2.040000E+00	  0.022204408	-1.784100E+01
13	  0.022404809	-6.330000E-01	  0.022404809	-1.422280E+02	  0.022404809	2.035000E+00	  0.022404809	-1.707900E+01
14	  0.022605211	-6.350000E-01	  0.022605211	-1.438110E+02	  0.022605211	2.024000E+00	  0.022605211	-1.631200E+01
15	  0.022805611	-6.410000E-01	  0.022805611	-1.453890E+02	  0.022805611	2.025000E+00	  0.022805611	-1.555500E+01
16	  0.023006011	-6.460000E-01	  0.023006011	-1.469470E+02	  0.023006011	2.022000E+00	  0.023006011	-1.481300E+01
17	  0.023206413	-6.460000E-01	  0.023206413	-1.485280E+02	  0.023206413	2.006000E+00	  0.023206413	-1.406700E+01
18	  0.023406813	-6.480000E-01	  0.023406813	-1.500970E+02	  0.023406813	1.998000E+00	  0.023406813	-1.333200E+01
19	  0.023607215	-6.510000E-01	  0.023607215	-1.516880E+02	  0.023607215	1.991000E+00	  0.023607215	-1.259200E+01
20	  0.023807615	-6.580000E-01	  0.023807615	-1.532720E+02	  0.023807615	2.001000E+00	  0.023807615	-1.186000E+01
21	  0.024008015	-6.690000E-01	  0.024008015	-1.548960E+02	  0.024008015	2.022000E+00	  0.024008015	-1.111400E+01
22	  0.024208417	-6.790000E-01	  0.024208417	-1.565150E+02	  0.024208417	2.038000E+00	  0.024208417	-1.037600E+01
23	  0.024408817	-6.870000E-01	  0.024408817	-1.581660E+02	  0.024408817	2.051000E+00	  0.024408817	-9.627000E+00
24	  0.024609219	-6.960000E-01	  0.024609219	-1.597990E+02	  0.024609219	2.066000E+00	  0.024609219	-8.891000E+00
25	  0.024809619	-7.050000E-01	  0.024809619	-1.614360E+02	  0.024809619	2.084000E+00	  0.024809619	-8.157000E+00
26	  0.025010020	-7.160000E-01	  0.025010020	-1.630780E+02	  0.025010020	2.106000E+00	  0.025010020	-7.424000E+00
27	  0.025210422	-7.280000E-01	  0.025210422	-1.647330E+02	  0.025210422	2.131000E+00	  0.025210422	-6.688000E+00
28	  0.025410822	-7.420000E-01	  0.025410822	-1.664160E+02	  0.025410822	2.165000E+00	  0.025410822	-5.943000E+00
29	  0.025611224	-7.570000E-01	  0.025611224	-1.681060E+02	  0.025611224	2.201000E+00	  0.025611224	-5.198000E+00
30	  0.025811624	-7.680000E-01	  0.025811624	-1.698220E+02	  0.025811624	2.226000E+00	  0.025811624	-4.443000E+00
31	  0.026012026	-7.750000E-01	  0.026012026	-1.715160E+02	  0.026012026	2.244000E+00	  0.026012026	-3.700000E+00
32	  0.026212426	-7.870000E-01	  0.026212426	-1.732370E+02	  0.026212426	2.272000E+00	  0.026212426	-2.947000E+00
33	  0.026412826	-8.000000E-01	  0.026412826	-1.749580E+02	  0.026412826	2.307000E+00	  0.026412826	-2.196000E+00
34	  0.026613226	-8.150000E-01	  0.026613226	-1.766900E+02	  0.026613226	2.346000E+00	  0.026613226	-1.441000E+00
35	  0.026813626	-8.300000E-01	  0.026813626	-1.784320E+02	  0.026813626	2.389000E+00	  0.026813626	-6.820000E-01
36	  0.027014028	-8.460000E-01	  0.027014028	1.798030E+02	  0.027014028	2.434000E+00	  0.027014028	8.500000E-02
37	  0.027214428	-8.630000E-01	  0.027214428	1.780390E+02	  0.027214428	2.483000E+00	  0.027214428	8.530000E-01
38	  0.027414829	-8.780000E-01	  0.027414829	1.762530E+02	  0.027414829	2.527000E+00	  0.027414829	1.631000E+00
39	  0.027615231	-8.950000E-01	  0.027615231	1.744520E+02	  0.027615231	2.580000E+00	  0.027615231	2.416000E+00
40	  0.027815631	-9.150000E-01	  0.027815631	1.726640E+02	  0.027815631	2.642000E+00	  0.027815631	3.196000E+00
41	  0.028016033	-9.360000E-01	  0.028016033	1.708460E+02	  0.028016033	2.710000E+00	  0.028016033	3.990000E+00
42	  0.028216433	-9.580000E-01	  0.028216433	1.690340E+02	  0.028216433	2.781000E+00	  0.028216433	4.784000E+00
43	  0.028416833	-9.780000E-01	  0.028416833	1.672130E+02	  0.028416833	2.847000E+00	  0.028416833	5.584000E+00
44	  0.028617235	-9.980000E-01	  0.028617235	1.653870E+02	  0.028617235	2.916000E+00	  0.028617235	6.389000E+00
45	  0.028817635	-1.018000E+00	  0.028817635	1.635610E+02	  0.028817635	2.988000E+00	  0.028817635	7.197000E+00
46	  0.029018037	-1.038000E+00	  0.029018037	1.617630E+02	  0.029018037	3.061000E+00	  0.029018037	7.995000E+00
47	  0.029218437	-1.060000E+00	  0.029218437	1.599380E+02	  0.029218437	3.142000E+00	  0.029218437	8.810000E+00
48	  0.029418837	-1.085000E+00	  0.029418837	1.580990E+02	  0.029418837	3.235000E+00	  0.029418837	9.635000E+00
49	  0.029619239	-1.113000E+00	  0.029619239	1.562390E+02	  0.029619239	3.341000E+00	  0.029619239	1.047300E+01
50	  0.029819639	-1.143000E+00	  0.029819639	1.543740E+02	  0.029819639	3.455000E+00	  0.029819639	1.131900E+01
51	  0.030020041	-1.172000E+00	  0.030020041	1.524530E+02	  0.030020041	3.571000E+00	  0.030020041	1.219700E+01
52	  0.030220442	-1.203000E+00	  0.030220442	1.505280E+02	  0.030220442	3.695000E+00	  0.030220442	1.308300E+01
53	  0.030420844	-1.233000E+00	  0.030420844	1.486170E+02	  0.030420844	3.823000E+00	  0.030420844	1.396900E+01
54	  0.030621244	-1.264000E+00	  0.030621244	1.467130E+02	  0.030621244	3.957000E+00	  0.030621244	1.486000E+01
55	  0.030821644	-1.300000E+00	  0.030821644	1.447920E+02	  0.030821644	4.109000E+00	  0.030821644	1.576700E+01
56	  0.031022044	-1.335000E+00	  0.031022044	1.428640E+02	  0.031022044	4.267000E+00	  0.031022044	1.668500E+01
57	  0.031222444	-1.368000E+00	  0.031222444	1.409380E+02	  0.031222444	4.420000E+00	  0.031222444	1.761200E+01
58	  0.031422846	-1.405000E+00	  0.031422846	1.389460E+02	  0.031422846	4.597000E+00	  0.031422846	1.858200E+01
59	  0.031623244	-1.441000E+00	  0.031623244	1.369410E+02	  0.031623244	4.778000E+00	  0.031623244	1.956900E+01
60	  0.031823646	-1.478000E+00	  0.031823646	1.349310E+02	  0.031823646	4.968000E+00	  0.031823646	2.057000E+01
61	  0.032024048	-1.513000E+00	  0.032024048	1.329520E+02	  0.032024048	5.159000E+00	  0.032024048	2.157000E+01
62	  0.032224450	-1.548000E+00	  0.032224450	1.309560E+02	  0.032224450	5.360000E+00	  0.032224450	2.259100E+01
63	  0.032424849	-1.586000E+00	  0.032424849	1.289840E+02	  0.032424849	5.578000E+00	  0.032424849	2.361400E+01
64	  0.032625251	-1.624000E+00	  0.032625251	1.269990E+02	  0.032625251	5.807000E+00	  0.032625251	2.465900E+01
65	  0.032825653	-1.665000E+00	  0.032825653	1.250230E+02	  0.032825653	6.057000E+00	  0.032825653	2.571300E+01
66	  0.033026051	-1.711000E+00	  0.033026051	1.230460E+02	  0.033026051	6.336000E+00	  0.033026051	2.678300E+01
67	  0.033226453	-1.763000E+00	  0.033226453	1.210630E+02	  0.033226453	6.652000E+00	  0.033226453	2.787100E+01
68	  0.033426855	-1.817000E+00	  0.033426855	1.190320E+02	  0.033426855	6.992000E+00	  0.033426855	2.900400E+01
69	  0.033627257	-1.871000E+00	  0.033627257	1.170120E+02	  0.033627257	7.346000E+00	  0.033627257	3.014900E+01
70	  0.033827655	-1.928000E+00	  0.033827655	1.149500E+02	  0.033827655	7.736000E+00	  0.033827655	3.133800E+01
71	  0.034028057	-1.982000E+00	  0.034028057	1.128400E+02	  0.034028057	8.137000E+00	  0.034028057	3.258000E+01
72	  0.034228459	-2.030000E+00	  0.034228459	1.107130E+02	  0.034228459	8.542000E+00	  0.034228459	3.386100E+01
73	  0.034428857	-2.081000E+00	  0.034428857	1.085810E+02	  0.034428857	8.975000E+00	  0.034428857	3.517100E+01
74	  0.034629259	-2.128000E+00	  0.034629259	1.064740E+02	  0.034629259	9.419000E+00	  0.034629259	3.649600E+01
75	  0.034829661	-2.173000E+00	  0.034829661	1.043610E+02	  0.034829661	9.882000E+00	  0.034829661	3.785500E+01
76	  0.035030060	-2.221000E+00	  0.035030060	1.022570E+02	  0.035030060	1.038400E+01	  0.035030060	3.923800E+01
77	  0.035230462	-2.266000E+00	  0.035230462	1.001790E+02	  0.035230462	1.089600E+01	  0.035230462	4.063900E+01
78	  0.035430863	-2.309000E+00	  0.035430863	9.807700E+01	  0.035430863	1.143900E+01	  0.035430863	4.209200E+01
79	  0.035631265	-2.358000E+00	  0.035631265	9.600400E+01	  0.035631265	1.203600E+01	  0.035631265	4.355400E+01
80	  0.035831664	-2.407000E+00	  0.035831664	9.395700E+01	  0.035831664	1.267100E+01	  0.035831664	4.503200E+01
81	  0.036032066	-2.455000E+00	  0.036032066	9.190600E+01	  0.036032066	1.334200E+01	  0.036032066	4.655100E+01
82	  0.036232468	-2.505000E+00	  0.036232468	8.987600E+01	  0.036232468	1.406600E+01	  0.036232468	4.808800E+01
83	  0.036432866	-2.564000E+00	  0.036432866	8.784200E+01	  0.036432866	1.488300E+01	  0.036432866	4.965400E+01
84	  0.036633268	-2.622000E+00	  0.036633268	8.583100E+01	  0.036633268	1.574700E+01	  0.036633268	5.123900E+01
85	  0.036833670	-2.681000E+00	  0.036833670	8.378800E+01	  0.036833670	1.668800E+01	  0.036833670	5.288800E+01
86	  0.037034072	-2.750000E+00	  0.037034072	8.172100E+01	  0.037034072	1.775500E+01	  0.037034072	5.457900E+01
87	  0.037234470	-2.814000E+00	  0.037234470	7.963300E+01	  0.037234470	1.888600E+01	  0.037234470	5.633600E+01
88	  0.037434869	-2.877000E+00	  0.037434869	7.753800E+01	  0.037434869	2.009400E+01	  0.037434869	5.814800E+01
89	  0.037635271	-2.942000E+00	  0.037635271	7.543400E+01	  0.037635271	2.140900E+01	  0.037635271	6.000700E+01
90	  0.037835669	-3.002000E+00	  0.037835669	7.331100E+01	  0.037835669	2.280300E+01	  0.037835669	6.194300E+01
91	  0.038036071	-3.058000E+00	  0.038036071	7.114900E+01	  0.038036071	2.430200E+01	  0.038036071	6.398300E+01
92	  0.038236473	-3.120000E+00	  0.038236473	6.894400E+01	  0.038236473	2.599700E+01	  0.038236473	6.609600E+01
93	  0.038436871	-3.179000E+00	  0.038436871	6.680200E+01	  0.038436871	2.776900E+01	  0.038436871	6.820200E+01
94	  0.038637273	-3.236000E+00	  0.038637273	6.467700E+01	  0.038637273	2.967100E+01	  0.038637273	7.034100E+01
95	  0.038837675	-3.291000E+00	  0.038837675	6.256900E+01	  0.038837675	3.170700E+01	  0.038837675	7.251400E+01
96	  0.039038073	-3.344000E+00	  0.039038073	6.052300E+01	  0.039038073	3.384800E+01	  0.039038073	7.466200E+01
97	  0.039238475	-3.401000E+00	  0.039238475	5.849100E+01	  0.039238475	3.619000E+01	  0.039238475	7.679800E+01
98	  0.039438877	-3.462000E+00	  0.039438877	5.648900E+01	  0.039438877	3.872300E+01	  0.039438877	7.889600E+01
99	  0.039639279	-3.526000E+00	  0.039639279	5.444200E+01	  0.039639279	4.155500E+01	  0.039639279	8.102200E+01
100	  0.039839678	-3.593000E+00	  0.039839678	5.240800E+01	  0.039839678	4.463700E+01	  0.039839678	8.309300E+01
101	  0.040040080	-3.661000E+00	  0.040040080	5.033900E+01	  0.040040080	4.802700E+01	  0.040040080	8.517400E+01
102	  0.040240481	-3.730000E+00	  0.040240481	4.826200E+01	  0.040240481	5.173600E+01	  0.040240481	8.718900E+01
103	  0.040440880	-3.794000E+00	  0.040440880	4.618800E+01	  0.040440880	5.570700E+01	  0.040440880	8.916800E+01
104	  0.040641282	-3.861000E+00	  0.040641282	4.412200E+01	  0.040641282	6.002800E+01	  0.040641282	9.098100E+01
105	  0.040841684	-3.922000E+00	  0.040841684	4.204600E+01	  0.040841684	6.467900E+01	  0.040841684	9.272600E+01
106	  0.041042086	-3.985000E+00	  0.041042086	3.996400E+01	  0.041042086	6.973100E+01	  0.041042086	9.426200E+01
107	  0.041242484	-4.050000E+00	  0.041242484	3.790200E+01	  0.041242484	7.514200E+01	  0.041242484	9.549300E+01
108	  0.041442886	-4.111000E+00	  0.041442886	3.580400E+01	  0.041442886	8.102600E+01	  0.041442886	9.650700E+01
109	  0.041643288	-4.166000E+00	  0.041643288	3.373700E+01	  0.041643288	8.721100E+01	  0.041643288	9.720100E+01
110	  0.041843686	-4.220000E+00	  0.041843686	3.166600E+01	  0.041843686	9.381600E+01	  0.041843686	9.748500E+01
111	  0.042044088	-4.276000E+00	  0.042044088	2.963900E+01	  0.042044088	1.006760E+02	  0.042044088	9.716000E+01
112	  0.042244490	-4.328000E+00	  0.042244490	2.762700E+01	  0.042244490	1.078220E+02	  0.042244490	9.628400E+01
113	  0.042444889	-4.382000E+00	  0.042444889	2.559800E+01	  0.042444889	1.153170E+02	  0.042444889	9.467300E+01
114	  0.042645290	-4.433000E+00	  0.042645290	2.360400E+01	  0.042645290	1.229020E+02	  0.042645290	9.235600E+01
115	  0.042845692	-4.486000E+00	  0.042845692	2.161400E+01	  0.042845692	1.305730E+02	  0.042845692	8.910700E+01
116	  0.043046094	-4.539000E+00	  0.043046094	1.960800E+01	  0.043046094	1.382730E+02	  0.043046094	8.486700E+01
117	  0.043246493	-4.588000E+00	  0.043246493	1.763100E+01	  0.043246493	1.457320E+02	  0.043246493	7.978800E+01
118	  0.043446895	-4.639000E+00	  0.043446895	1.563900E+01	  0.043446895	1.528950E+02	  0.043446895	7.361600E+01
119	  0.043647297	-4.690000E+00	  0.043647297	1.366600E+01	  0.043647297	1.594390E+02	  0.043647297	6.647600E+01
120	  0.043847695	-4.744000E+00	  0.043847695	1.170900E+01	  0.043847695	1.651400E+02	  0.043847695	5.841700E+01
121	  0.044048097	-4.794000E+00	  0.044048097	9.739000E+00	  0.044048097	1.700500E+02	  0.044048097	4.955900E+01
122	  0.044248499	-4.844000E+00	  0.044248499	7.798000E+00	  0.044248499	1.738520E+02	  0.044248499	4.018000E+01
123	  0.044448901	-4.893000E+00	  0.044448901	5.847000E+00	  0.044448901	1.765370E+02	  0.044448901	3.029800E+01
124	  0.044649299	-4.940000E+00	  0.044649299	3.911000E+00	  0.044649299	1.780200E+02	  0.044649299	2.023900E+01
125	  0.044849701	-4.983000E+00	  0.044849701	1.995000E+00	  0.044849701	1.783960E+02	  0.044849701	1.025300E+01
126	  0.045050103	-5.027000E+00	  0.045050103	5.800000E-02	  0.045050103	1.775790E+02	  0.045050103	2.960000E-01
127	  0.045250501	-5.071000E+00	  0.045250501	-1.841000E+00	  0.045250501	1.755840E+02	  0.045250501	-9.136000E+00
128	  0.045450903	-5.113000E+00	  0.045450903	-3.717000E+00	  0.045450903	1.727170E+02	  0.045450903	-1.796700E+01
129	  0.045651305	-5.159000E+00	  0.045651305	-5.605000E+00	  0.045651305	1.688140E+02	  0.045651305	-2.618700E+01
130	  0.045851704	-5.201000E+00	  0.045851704	-7.485000E+00	  0.045851704	1.643630E+02	  0.045851704	-3.370200E+01
131	  0.046052106	-5.240000E+00	  0.046052106	-9.371000E+00	  0.046052106	1.594090E+02	  0.046052106	-4.052000E+01
132	  0.046252504	-5.282000E+00	  0.046252504	-1.123800E+01	  0.046252504	1.539880E+02	  0.046252504	-4.643400E+01
133	  0.046452906	-5.321000E+00	  0.046452906	-1.310200E+01	  0.046452906	1.483540E+02	  0.046452906	-5.160500E+01
134	  0.046653304	-5.353000E+00	  0.046653304	-1.495200E+01	  0.046653304	1.426930E+02	  0.046653304	-5.611000E+01
135	  0.046853706	-5.390000E+00	  0.046853706	-1.680100E+01	  0.046853706	1.368900E+02	  0.046853706	-5.984600E+01
136	  0.047054108	-5.425000E+00	  0.047054108	-1.863400E+01	  0.047054108	1.311510E+02	  0.047054108	-6.292000E+01
137	  0.047254506	-5.461000E+00	  0.047254506	-2.045900E+01	  0.047254506	1.254920E+02	  0.047254506	-6.537200E+01
138	  0.047454908	-5.491000E+00	  0.047454908	-2.226800E+01	  0.047454908	1.200650E+02	  0.047454908	-6.739000E+01
139	  0.047655310	-5.521000E+00	  0.047655310	-2.404300E+01	  0.047655310	1.148700E+02	  0.047655310	-6.888700E+01
140	  0.047855709	-5.555000E+00	  0.047855709	-2.581300E+01	  0.047855709	1.098460E+02	  0.047855709	-6.992100E+01
141	  0.048056111	-5.584000E+00	  0.048056111	-2.757300E+01	  0.048056111	1.050680E+02	  0.048056111	-7.067900E+01
142	  0.048256513	-5.612000E+00	  0.048256513	-2.932500E+01	  0.048256513	1.005100E+02	  0.048256513	-7.113200E+01
143	  0.048456915	-5.642000E+00	  0.048456915	-3.107200E+01	  0.048456915	9.616700E+01	  0.048456915	-7.128100E+01
144	  0.048657313	-5.667000E+00	  0.048657313	-3.282900E+01	  0.048657313	9.201700E+01	  0.048657313	-7.128600E+01
145	  0.048857715	-5.693000E+00	  0.048857715	-3.457000E+01	  0.048857715	8.810400E+01	  0.048857715	-7.107500E+01
146	  0.049058117	-5.717000E+00	  0.049058117	-3.629300E+01	  0.049058117	8.442900E+01	  0.049058117	-7.070600E+01
147	  0.049258515	-5.741000E+00	  0.049258515	-3.797900E+01	  0.049258515	8.101600E+01	  0.049258515	-7.019500E+01
148	  0.049458917	-5.765000E+00	  0.049458917	-3.970100E+01	  0.049458917	7.771300E+01	  0.049458917	-6.956900E+01
149	  0.049659319	-5.786000E+00	  0.049659319	-4.137400E+01	  0.049659319	7.467100E+01	  0.049659319	-6.887000E+01
150	  0.049859721	-5.810000E+00	  0.049859721	-4.307100E+01	  0.049859721	7.175200E+01	  0.049859721	-6.805100E+01
151	  0.050060119	-5.829000E+00	  0.050060119	-4.475600E+01	  0.050060119	6.899700E+01	  0.050060119	-6.722200E+01
152	  0.050260521	-5.849000E+00	  0.050260521	-4.643700E+01	  0.050260521	6.639800E+01	  0.050260521	-6.632300E+01
153	  0.050460923	-5.866000E+00	  0.050460923	-4.811700E+01	  0.050460923	6.393400E+01	  0.050460923	-6.539400E+01
154	  0.050661322	-5.876000E+00	  0.050661322	-4.974400E+01	  0.050661322	6.165100E+01	  0.050661322	-6.450600E+01
155	  0.050861724	-5.889000E+00	  0.050861724	-5.139500E+01	  0.050861724	5.945900E+01	  0.050861724	-6.354900E+01
156	  0.051062126	-5.904000E+00	  0.051062126	-5.300700E+01	  0.051062126	5.744000E+01	  0.051062126	-6.255400E+01
157	  0.051262524	-5.915000E+00	  0.051262524	-5.459600E+01	  0.051262524	5.553400E+01	  0.051262524	-6.159400E+01
158	  0.051462926	-5.931000E+00	  0.051462926	-5.614400E+01	  0.051462926	5.378900E+01	  0.051462926	-6.059200E+01
159	  0.051663328	-5.943000E+00	  0.051663328	-5.768600E+01	  0.051663328	5.212300E+01	  0.051663328	-5.961200E+01
160	  0.051863730	-5.955000E+00	  0.051863730	-5.925000E+01	  0.051863730	5.051500E+01	  0.051863730	-5.861000E+01
161	  0.052064128	-5.972000E+00	  0.052064128	-6.081300E+01	  0.052064128	4.900400E+01	  0.052064128	-5.756800E+01
162	  0.052264530	-5.988000E+00	  0.052264530	-6.235500E+01	  0.052264530	4.758400E+01	  0.052264530	-5.654700E+01
163	  0.052464932	-6.004000E+00	  0.052464932	-6.392700E+01	  0.052464932	4.620300E+01	  0.052464932	-5.550900E+01
164	  0.052665330	-6.017000E+00	  0.052665330	-6.548000E+01	  0.052665330	4.489900E+01	  0.052665330	-5.449500E+01
165	  0.052865732	-6.031000E+00	  0.052865732	-6.703900E+01	  0.052865732	4.365300E+01	  0.052865732	-5.347900E+01
166	  0.053066134	-6.041000E+00	  0.053066134	-6.856200E+01	  0.053066134	4.247900E+01	  0.053066134	-5.250900E+01
167	  0.053266536	-6.051000E+00	  0.053266536	-7.013300E+01	  0.053266536	4.132200E+01	  0.053266536	-5.151600E+01
168	  0.053466935	-6.059000E+00	  0.053466935	-7.168500E+01	  0.053466935	4.022700E+01	  0.053466935	-5.054400E+01
169	  0.053667337	-6.060000E+00	  0.053667337	-7.320700E+01	  0.053667337	3.917400E+01	  0.053667337	-4.962800E+01
170	  0.053867739	-6.064000E+00	  0.053867739	-7.474000E+01	  0.053867739	3.817200E+01	  0.053867739	-4.869500E+01
171	  0.054068137	-6.068000E+00	  0.054068137	-7.623200E+01	  0.054068137	3.724300E+01	  0.054068137	-4.779000E+01
172	  0.054268539	-6.068000E+00	  0.054268539	-7.770700E+01	  0.054268539	3.634400E+01	  0.054268539	-4.691900E+01
173	  0.054468941	-6.076000E+00	  0.054468941	-7.916000E+01	  0.054468941	3.552800E+01	  0.054468941	-4.603300E+01
174	  0.054669339	-6.079000E+00	  0.054669339	-8.059200E+01	  0.054669339	3.474100E+01	  0.054669339	-4.518400E+01
175	  0.054869737	-6.084000E+00	  0.054869737	-8.205000E+01	  0.054869737	3.397600E+01	  0.054869737	-4.432300E+01
176	  0.055070139	-6.086000E+00	  0.055070139	-8.345800E+01	  0.055070139	3.325900E+01	  0.055070139	-4.350400E+01
177	  0.055270538	-6.093000E+00	  0.055270538	-8.486200E+01	  0.055270538	3.259100E+01	  0.055270538	-4.267900E+01
178	  0.055470940	-6.098000E+00	  0.055470940	-8.630100E+01	  0.055470940	3.192400E+01	  0.055470940	-4.184800E+01
179	  0.055671342	-6.100000E+00	  0.055671342	-8.770200E+01	  0.055671342	3.129100E+01	  0.055671342	-4.105500E+01
180	  0.055871744	-6.110000E+00	  0.055871744	-8.912700E+01	  0.055871744	3.070200E+01	  0.055871744	-4.023200E+01
181	  0.056072142	-6.114000E+00	  0.056072142	-9.052600E+01	  0.056072142	3.012300E+01	  0.056072142	-3.945000E+01
182	  0.056272544	-6.121000E+00	  0.056272544	-9.191900E+01	  0.056272544	2.958200E+01	  0.056272544	-3.866900E+01
183	  0.056472946	-6.124000E+00	  0.056472946	-9.333900E+01	  0.056472946	2.903600E+01	  0.056472946	-3.789100E+01
184	  0.056673344	-6.125000E+00	  0.056673344	-9.472000E+01	  0.056673344	2.851900E+01	  0.056673344	-3.714700E+01
185	  0.056873746	-6.127000E+00	  0.056873746	-9.609900E+01	  0.056873746	2.802400E+01	  0.056873746	-3.640700E+01
186	  0.057074148	-6.126000E+00	  0.057074148	-9.750300E+01	  0.057074148	2.753200E+01	  0.057074148	-3.566700E+01
187	  0.057274550	-6.120000E+00	  0.057274550	-9.886700E+01	  0.057274550	2.705200E+01	  0.057274550	-3.496500E+01
188	  0.057474948	-6.121000E+00	  0.057474948	-1.002030E+02	  0.057474948	2.662200E+01	  0.057474948	-3.427000E+01
189	  0.057675350	-6.125000E+00	  0.057675350	-1.015360E+02	  0.057675350	2.621900E+01	  0.057675350	-3.357400E+01
190	  0.057875752	-6.122000E+00	  0.057875752	-1.028440E+02	  0.057875752	2.581400E+01	  0.057875752	-3.291100E+01
191	  0.058076151	-6.121000E+00	  0.058076151	-1.041500E+02	  0.058076151	2.543100E+01	  0.058076151	-3.225100E+01
192	  0.058276553	-6.124000E+00	  0.058276553	-1.054240E+02	  0.058276553	2.508000E+01	  0.058276553	-3.160600E+01
193	  0.058476955	-6.126000E+00	  0.058476955	-1.067310E+02	  0.058476955	2.473200E+01	  0.058476955	-3.095000E+01
194	  0.058677353	-6.127000E+00	  0.058677353	-1.080170E+02	  0.058677353	2.439800E+01	  0.058677353	-3.031100E+01
195	  0.058877755	-6.130000E+00	  0.058877755	-1.092970E+02	  0.058877755	2.408300E+01	  0.058877755	-2.967800E+01
196	  0.059078157	-6.132000E+00	  0.059078157	-1.105750E+02	  0.059078157	2.377600E+01	  0.059078157	-2.905300E+01
197	  0.059278559	-6.137000E+00	  0.059278559	-1.118720E+02	  0.059278559	2.348500E+01	  0.059278559	-2.841800E+01
198	  0.059478957	-6.139000E+00	  0.059478957	-1.131550E+02	  0.059478957	2.319800E+01	  0.059478957	-2.780000E+01
199	  0.059679359	-6.141000E+00	  0.059679359	-1.144340E+02	  0.059679359	2.292100E+01	  0.059679359	-2.718900E+01
200	  0.059879761	-6.145000E+00	  0.059879761	-1.157150E+02	  0.059879761	2.265800E+01	  0.059879761	-2.658000E+01
201	  0.060080159	-6.144000E+00	  0.060080159	-1.169590E+02	  0.060080159	2.239800E+01	  0.060080159	-2.599800E+01
202	  0.060280561	-6.145000E+00	  0.060280561	-1.182480E+02	  0.060280561	2.214200E+01	  0.060280561	-2.539800E+01
203	  0.060480963	-6.143000E+00	  0.060480963	-1.194870E+02	  0.060480963	2.189700E+01	  0.060480963	-2.482800E+01
204	  0.060681365	-6.144000E+00	  0.060681365	-1.207390E+02	  0.060681365	2.166700E+01	  0.060681365	-2.425200E+01
205	  0.060881764	-6.141000E+00	  0.060881764	-1.219610E+02	  0.060881764	2.143900E+01	  0.060881764	-2.369900E+01
206	  0.061082166	-6.139000E+00	  0.061082166	-1.231930E+02	  0.061082166	2.121800E+01	  0.061082166	-2.314400E+01
207	  0.061282568	-6.139000E+00	  0.061282568	-1.243960E+02	  0.061282568	2.101500E+01	  0.061282568	-2.260200E+01
208	  0.061482966	-6.138000E+00	  0.061482966	-1.255840E+02	  0.061482966	2.081800E+01	  0.061482966	-2.207200E+01
209	  0.061683368	-6.136000E+00	  0.061683368	-1.267500E+02	  0.061683368	2.062900E+01	  0.061683368	-2.155600E+01
210	  0.061883770	-6.134000E+00	  0.061883770	-1.279140E+02	  0.061883770	2.044500E+01	  0.061883770	-2.104400E+01
211	  0.062084168	-6.136000E+00	  0.062084168	-1.290690E+02	  0.062084168	2.027800E+01	  0.062084168	-2.053500E+01
212	  0.062284570	-6.139000E+00	  0.062284570	-1.302330E+02	  0.062284570	2.012200E+01	  0.062284570	-2.002300E+01
213	  0.062484972	-6.132000E+00	  0.062484972	-1.313520E+02	  0.062484972	1.994800E+01	  0.062484972	-1.954300E+01
214	  0.062685370	-6.136000E+00	  0.062685370	-1.325150E+02	  0.062685370	1.980300E+01	  0.062685370	-1.903700E+01
215	  0.062885776	-6.139000E+00	  0.062885776	-1.336490E+02	  0.062885776	1.966400E+01	  0.062885776	-1.854700E+01
216	  0.063086174	-6.142000E+00	  0.063086174	-1.348360E+02	  0.063086174	1.952400E+01	  0.063086174	-1.803700E+01
217	  0.063286573	-6.145000E+00	  0.063286573	-1.359730E+02	  0.063286573	1.939600E+01	  0.063286573	-1.755000E+01
218	  0.063486971	-6.146000E+00	  0.063486971	-1.371420E+02	  0.063486971	1.926100E+01	  0.063486971	-1.705500E+01
219	  0.063687377	-6.147000E+00	  0.063687377	-1.382700E+02	  0.063687377	1.913700E+01	  0.063687377	-1.657900E+01
220	  0.063887775	-6.145000E+00	  0.063887775	-1.394310E+02	  0.063887775	1.900600E+01	  0.063887775	-1.609300E+01
221	  0.064088173	-6.144000E+00	  0.064088173	-1.405820E+02	  0.064088173	1.888200E+01	  0.064088173	-1.561300E+01
222	  0.064288579	-6.149000E+00	  0.064288579	-1.417000E+02	  0.064288579	1.878200E+01	  0.064288579	-1.514500E+01
223	  0.064488977	-6.148000E+00	  0.064488977	-1.428090E+02	  0.064488977	1.867300E+01	  0.064488977	-1.468600E+01
224	  0.064689375	-6.149000E+00	  0.064689375	-1.439050E+02	  0.064689375	1.857200E+01	  0.064689375	-1.423400E+01
225	  0.064889781	-6.149000E+00	  0.064889781	-1.450050E+02	  0.064889781	1.847100E+01	  0.064889781	-1.378300E+01
226	  0.065090179	-6.151000E+00	  0.065090179	-1.460880E+02	  0.065090179	1.838400E+01	  0.065090179	-1.333800E+01
227	  0.065290578	-6.152000E+00	  0.065290578	-1.471760E+02	  0.065290578	1.829400E+01	  0.065290578	-1.289400E+01
228	  0.065490983	-6.155000E+00	  0.065490983	-1.482680E+02	  0.065490983	1.821500E+01	  0.065490983	-1.244900E+01
229	  0.065691382	-6.156000E+00	  0.065691382	-1.493730E+02	  0.065691382	1.813100E+01	  0.065691382	-1.200100E+01
230	  0.065891780	-6.158000E+00	  0.065891780	-1.504590E+02	  0.065891780	1.805700E+01	  0.065891780	-1.156200E+01
231	  0.066092186	-6.164000E+00	  0.066092186	-1.515310E+02	  0.066092186	1.799400E+01	  0.066092186	-1.112800E+01
232	  0.066292584	-6.159000E+00	  0.066292584	-1.525970E+02	  0.066292584	1.791000E+01	  0.066292584	-1.070300E+01
233	  0.066492982	-6.162000E+00	  0.066492982	-1.536830E+02	  0.066492982	1.784600E+01	  0.066492982	-1.026700E+01
234	  0.066693388	-6.163000E+00	  0.066693388	-1.547120E+02	  0.066693388	1.778300E+01	  0.066693388	-9.857000E+00
235	  0.066893786	-6.165000E+00	  0.066893786	-1.557610E+02	  0.066893786	1.772700E+01	  0.066893786	-9.439000E+00
236	  0.067094192	-6.169000E+00	  0.067094192	-1.568460E+02	  0.067094192	1.767500E+01	  0.067094192	-9.007000E+00
237	  0.067294590	-6.175000E+00	  0.067294590	-1.578620E+02	  0.067294590	1.763700E+01	  0.067294590	-8.603000E+00
238	  0.067494988	-6.175000E+00	  0.067494988	-1.588660E+02	  0.067494988	1.758300E+01	  0.067494988	-8.208000E+00
239	  0.067695394	-6.175000E+00	  0.067695394	-1.599270E+02	  0.067695394	1.753300E+01	  0.067695394	-7.789000E+00
240	  0.067895792	-6.177000E+00	  0.067895792	-1.609600E+02	  0.067895792	1.749000E+01	  0.067895792	-7.383000E+00
241	  0.068096191	-6.178000E+00	  0.068096191	-1.619750E+02	  0.068096191	1.744800E+01	  0.068096191	-6.985000E+00
242	  0.068296596	-6.177000E+00	  0.068296596	-1.630160E+02	  0.068296596	1.740300E+01	  0.068296596	-6.578000E+00
243	  0.068496995	-6.180000E+00	  0.068496995	-1.640250E+02	  0.068496995	1.737000E+01	  0.068496995	-6.183000E+00
244	  0.068697393	-6.183000E+00	  0.068697393	-1.650270E+02	  0.068697393	1.734200E+01	  0.068697393	-5.791000E+00
245	  0.068897791	-6.184000E+00	  0.068897791	-1.660420E+02	  0.068897791	1.730900E+01	  0.068897791	-5.396000E+00
246	  0.069098189	-6.188000E+00	  0.069098189	-1.670290E+02	  0.069098189	1.728800E+01	  0.069098189	-5.011000E+00
247	  0.069298595	-6.191000E+00	  0.069298595	-1.680250E+02	  0.069298595	1.726800E+01	  0.069298595	-4.624000E+00
248	  0.069498993	-6.197000E+00	  0.069498993	-1.690480E+02	  0.069498993	1.725500E+01	  0.069498993	-4.226000E+00
249	  0.069699399	-6.205000E+00	  0.069699399	-1.700270E+02	  0.069699399	1.725100E+01	  0.069699399	-3.846000E+00
250	  0.069899797	-6.209000E+00	  0.069899797	-1.710120E+02	  0.069899797	1.724000E+01	  0.069899797	-3.464000E+00
251	  0.070100196	-6.217000E+00	  0.070100196	-1.719980E+02	  0.070100196	1.724100E+01	  0.070100196	-3.082000E+00
252	  0.070300601	-6.219000E+00	  0.070300601	-1.729840E+02	  0.070300601	1.723000E+01	  0.070300601	-2.702000E+00
253	  0.070501000	-6.222000E+00	  0.070501000	-1.739720E+02	  0.070501000	1.722200E+01	  0.070501000	-2.321000E+00
254	  0.070701398	-6.231000E+00	  0.070701398	-1.749540E+02	  0.070701398	1.723200E+01	  0.070701398	-1.941000E+00
255	  0.070901804	-6.238000E+00	  0.070901804	-1.759310E+02	  0.070901804	1.724000E+01	  0.070901804	-1.565000E+00
256	  0.071102202	-6.242000E+00	  0.071102202	-1.769270E+02	  0.071102202	1.724300E+01	  0.071102202	-1.181000E+00
257	  0.071302600	-6.254000E+00	  0.071302600	-1.778600E+02	  0.071302600	1.726800E+01	  0.071302600	-8.220000E-01
258	  0.071503006	-6.260000E+00	  0.071503006	-1.788220E+02	  0.071503006	1.727900E+01	  0.071503006	-4.520000E-01
259	  0.071703404	-6.268000E+00	  0.071703404	-1.797740E+02	  0.071703404	1.729800E+01	  0.071703404	-8.600000E-02
260	  0.071903802	-6.277000E+00	  0.071903802	1.792640E+02	  0.071903802	1.732000E+01	  0.071903802	2.820000E-01
261	  0.072104208	-6.282000E+00	  0.072104208	1.783230E+02	  0.072104208	1.733700E+01	  0.072104208	6.430000E-01
262	  0.072304606	-6.291000E+00	  0.072304606	1.773440E+02	  0.072304606	1.736500E+01	  0.072304606	1.018000E+00
263	  0.072505005	-6.296000E+00	  0.072505005	1.764240E+02	  0.072505005	1.738400E+01	  0.072505005	1.372000E+00
264	  0.072705410	-6.305000E+00	  0.072705410	1.754910E+02	  0.072705410	1.741500E+01	  0.072705410	1.729000E+00
265	  0.072905809	-6.310000E+00	  0.072905809	1.745640E+02	  0.072905809	1.743800E+01	  0.072905809	2.085000E+00
266	  0.073106214	-6.321000E+00	  0.073106214	1.736380E+02	  0.073106214	1.747800E+01	  0.073106214	2.439000E+00
267	  0.073306613	-6.323000E+00	  0.073306613	1.727310E+02	  0.073306613	1.750000E+01	  0.073306613	2.788000E+00
268	  0.073507011	-6.331000E+00	  0.073507011	1.717690E+02	  0.073507011	1.753700E+01	  0.073507011	3.156000E+00
269	  0.073707417	-6.340000E+00	  0.073707417	1.708620E+02	  0.073707417	1.757800E+01	  0.073707417	3.504000E+00
270	  0.073907815	-6.346000E+00	  0.073907815	1.699640E+02	  0.073907815	1.761400E+01	  0.073907815	3.848000E+00
271	  0.074108213	-6.352000E+00	  0.074108213	1.690750E+02	  0.074108213	1.765000E+01	  0.074108213	4.190000E+00
272	  0.074308619	-6.362000E+00	  0.074308619	1.681610E+02	  0.074308619	1.770100E+01	  0.074308619	4.540000E+00
273	  0.074509017	-6.365000E+00	  0.074509017	1.672410E+02	  0.074509017	1.773500E+01	  0.074509017	4.894000E+00
274	  0.074709415	-6.377000E+00	  0.074709415	1.663690E+02	  0.074709415	1.779200E+01	  0.074709415	5.228000E+00
275	  0.074909821	-6.384000E+00	  0.074909821	1.654790E+02	  0.074909821	1.784100E+01	  0.074909821	5.570000E+00
276	  0.075110219	-6.394000E+00	  0.075110219	1.646120E+02	  0.075110219	1.789700E+01	  0.075110219	5.902000E+00
277	  0.075310618	-6.402000E+00	  0.075310618	1.637520E+02	  0.075310618	1.795000E+01	  0.075310618	6.233000E+00
278	  0.075511023	-6.412000E+00	  0.075511023	1.628940E+02	  0.075511023	1.800900E+01	  0.075511023	6.562000E+00
279	  0.075711422	-6.426000E+00	  0.075711422	1.620020E+02	  0.075711422	1.808400E+01	  0.075711422	6.904000E+00
280	  0.075911827	-6.434000E+00	  0.075911827	1.611070E+02	  0.075911827	1.814500E+01	  0.075911827	7.249000E+00
281	  0.076112226	-6.447000E+00	  0.076112226	1.602520E+02	  0.076112226	1.821800E+01	  0.076112226	7.577000E+00
282	  0.076312624	-6.458000E+00	  0.076312624	1.593820E+02	  0.076312624	1.829000E+01	  0.076312624	7.911000E+00
283	  0.076513030	-6.471000E+00	  0.076513030	1.584970E+02	  0.076513030	1.836800E+01	  0.076513030	8.251000E+00
284	  0.076713428	-6.482000E+00	  0.076713428	1.576110E+02	  0.076713428	1.844500E+01	  0.076713428	8.592000E+00
285	  0.076913826	-6.491000E+00	  0.076913826	1.567620E+02	  0.076913826	1.851600E+01	  0.076913826	8.920000E+00
286	  0.077114232	-6.502000E+00	  0.077114232	1.559220E+02	  0.077114232	1.859300E+01	  0.077114232	9.244000E+00
287	  0.077314630	-6.511000E+00	  0.077314630	1.550540E+02	  0.077314630	1.866900E+01	  0.077314630	9.580000E+00
288	  0.077515028	-6.524000E+00	  0.077515028	1.541890E+02	  0.077515028	1.875700E+01	  0.077515028	9.913000E+00
289	  0.077715434	-6.538000E+00	  0.077715434	1.533380E+02	  0.077715434	1.884900E+01	  0.077715434	1.024100E+01
290	  0.077915832	-6.552000E+00	  0.077915832	1.524780E+02	  0.077915832	1.894700E+01	  0.077915832	1.057300E+01
291	  0.078116231	-6.566000E+00	  0.078116231	1.516260E+02	  0.078116231	1.904400E+01	  0.078116231	1.090100E+01
292	  0.078316636	-6.582000E+00	  0.078316636	1.507780E+02	  0.078316636	1.914800E+01	  0.078316636	1.122800E+01
293	  0.078517035	-6.597000E+00	  0.078517035	1.499290E+02	  0.078517035	1.925100E+01	  0.078517035	1.155500E+01
294	  0.078717433	-6.612000E+00	  0.078717433	1.490880E+02	  0.078717433	1.935700E+01	  0.078717433	1.188000E+01
295	  0.078917839	-6.626000E+00	  0.078917839	1.482400E+02	  0.078917839	1.946200E+01	  0.078917839	1.220800E+01
296	  0.079118237	-6.639000E+00	  0.079118237	1.474120E+02	  0.079118237	1.956700E+01	  0.079118237	1.252900E+01
297	  0.079318643	-6.657000E+00	  0.079318643	1.465790E+02	  0.079318643	1.968500E+01	  0.079318643	1.285000E+01
298	  0.079519041	-6.671000E+00	  0.079519041	1.457570E+02	  0.079519041	1.979700E+01	  0.079519041	1.316800E+01
299	  0.079719439	-6.686000E+00	  0.079719439	1.449290E+02	  0.079719439	1.991100E+01	  0.079719439	1.348900E+01
300	  0.079919845	-6.701000E+00	  0.079919845	1.440800E+02	  0.079919845	2.003200E+01	  0.079919845	1.381900E+01
301	  0.080120243	-6.714000E+00	  0.080120243	1.432670E+02	  0.080120243	2.014500E+01	  0.080120243	1.413600E+01
302	  0.080320641	-6.731000E+00	  0.080320641	1.424530E+02	  0.080320641	2.027200E+01	  0.080320641	1.445100E+01
303	  0.080521047	-6.746000E+00	  0.080521047	1.416280E+02	  0.080521047	2.039800E+01	  0.080521047	1.477200E+01
304	  0.080721445	-6.764000E+00	  0.080721445	1.408440E+02	  0.080721445	2.052900E+01	  0.080721445	1.507400E+01
305	  0.080921844	-6.780000E+00	  0.080921844	1.400670E+02	  0.080921844	2.065600E+01	  0.080921844	1.537600E+01
306	  0.081122249	-6.798000E+00	  0.081122249	1.392620E+02	  0.081122249	2.079400E+01	  0.081122249	1.568700E+01
307	  0.081322648	-6.814000E+00	  0.081322648	1.384730E+02	  0.081322648	2.092800E+01	  0.081322648	1.599400E+01
308	  0.081523046	-6.833000E+00	  0.081523046	1.376850E+02	  0.081523046	2.107400E+01	  0.081523046	1.629700E+01
309	  0.081723452	-6.855000E+00	  0.081723452	1.369160E+02	  0.081723452	2.122600E+01	  0.081723452	1.659200E+01
310	  0.081923850	-6.868000E+00	  0.081923850	1.361980E+02	  0.081923850	2.134800E+01	  0.081923850	1.687300E+01
311	  0.082124248	-6.896000E+00	  0.082124248	1.354380E+02	  0.082124248	2.152200E+01	  0.082124248	1.715800E+01
312	  0.082324654	-6.915000E+00	  0.082324654	1.346890E+02	  0.082324654	2.167000E+01	  0.082324654	1.744700E+01
313	  0.082525052	-6.939000E+00	  0.082525052	1.339620E+02	  0.082525052	2.183200E+01	  0.082525052	1.772300E+01
314	  0.082725458	-6.965000E+00	  0.082725458	1.332050E+02	  0.082725458	2.200400E+01	  0.082725458	1.800900E+01
315	  0.082925856	-6.988000E+00	  0.082925856	1.324300E+02	  0.082925856	2.217700E+01	  0.082925856	1.830300E+01
316	  0.083126254	-7.012000E+00	  0.083126254	1.316640E+02	  0.083126254	2.234900E+01	  0.083126254	1.859500E+01
317	  0.083326660	-7.035000E+00	  0.083326660	1.309040E+02	  0.083326660	2.252500E+01	  0.083326660	1.888300E+01
318	  0.083527058	-7.058000E+00	  0.083527058	1.301510E+02	  0.083527058	2.270000E+01	  0.083527058	1.917000E+01
319	  0.083727457	-7.077000E+00	  0.083727457	1.293990E+02	  0.083727457	2.286600E+01	  0.083727457	1.945900E+01
320	  0.083927862	-7.102000E+00	  0.083927862	1.286630E+02	  0.083927862	2.305000E+01	  0.083927862	1.973600E+01
321	  0.084128261	-7.123000E+00	  0.084128261	1.279120E+02	  0.084128261	2.322600E+01	  0.084128261	2.002400E+01
322	  0.084328659	-7.143000E+00	  0.084328659	1.272230E+02	  0.084328659	2.339500E+01	  0.084328659	2.028600E+01
323	  0.084529065	-7.167000E+00	  0.084529065	1.265070E+02	  0.084529065	2.357900E+01	  0.084529065	2.055500E+01
324	  0.084729463	-7.192000E+00	  0.084729463	1.257400E+02	  0.084729463	2.377900E+01	  0.084729463	2.084400E+01
325	  0.084929861	-7.213000E+00	  0.084929861	1.250510E+02	  0.084929861	2.395700E+01	  0.084929861	2.110400E+01
326	  0.085130267	-7.234000E+00	  0.085130267	1.243070E+02	  0.085130267	2.414800E+01	  0.085130267	2.138800E+01
327	  0.085330658	-7.262000E+00	  0.085330658	1.236450E+02	  0.085330658	2.434400E+01	  0.085330658	2.162900E+01
328	  0.085531056	-7.284000E+00	  0.085531056	1.229080E+02	  0.085531056	2.454200E+01	  0.085531056	2.190700E+01
329	  0.085731462	-7.311000E+00	  0.085731462	1.222410E+02	  0.085731462	2.474200E+01	  0.085731462	2.215000E+01
330	  0.085931860	-7.335000E+00	  0.085931860	1.215570E+02	  0.085931860	2.493900E+01	  0.085931860	2.240400E+01
331	  0.086132258	-7.357000E+00	  0.086132258	1.208760E+02	  0.086132258	2.513500E+01	  0.086132258	2.265800E+01
332	  0.086332664	-7.387000E+00	  0.086332664	1.201520E+02	  0.086332664	2.536100E+01	  0.086332664	2.292000E+01
333	  0.086533062	-7.408000E+00	  0.086533062	1.194310E+02	  0.086533062	2.556700E+01	  0.086533062	2.319100E+01
334	  0.086733460	-7.431000E+00	  0.086733460	1.187680E+02	  0.086733460	2.576800E+01	  0.086733460	2.343600E+01
335	  0.086933866	-7.453000E+00	  0.086933866	1.180840E+02	  0.086933866	2.597500E+01	  0.086933866	2.368900E+01
336	  0.087134264	-7.473000E+00	  0.087134264	1.173720E+02	  0.087134264	2.618300E+01	  0.087134264	2.395800E+01
337	  0.087334670	-7.496000E+00	  0.087334670	1.167230E+02	  0.087334670	2.639100E+01	  0.087334670	2.419400E+01
338	  0.087535068	-7.521000E+00	  0.087535068	1.160620E+02	  0.087535068	2.660800E+01	  0.087535068	2.443300E+01
339	  0.087735467	-7.547000E+00	  0.087735467	1.154000E+02	  0.087735467	2.683100E+01	  0.087735467	2.467000E+01
340	  0.087935872	-7.568000E+00	  0.087935872	1.147700E+02	  0.087935872	2.703700E+01	  0.087935872	2.490000E+01
341	  0.088136271	-7.589000E+00	  0.088136271	1.141330E+02	  0.088136271	2.724400E+01	  0.088136271	2.513300E+01
342	  0.088336669	-7.614000E+00	  0.088336669	1.134890E+02	  0.088336669	2.746800E+01	  0.088336669	2.536200E+01
343	  0.088537075	-7.635000E+00	  0.088537075	1.128640E+02	  0.088537075	2.767800E+01	  0.088537075	2.558900E+01
344	  0.088737473	-7.662000E+00	  0.088737473	1.122710E+02	  0.088737473	2.790300E+01	  0.088737473	2.579000E+01
345	  0.088937871	-7.685000E+00	  0.088937871	1.116560E+02	  0.088937871	2.812100E+01	  0.088937871	2.600800E+01
346	  0.089138277	-7.716000E+00	  0.089138277	1.110670E+02	  0.089138277	2.835800E+01	  0.089138277	2.620100E+01
347	  0.089338675	-7.743000E+00	  0.089338675	1.104670E+02	  0.089338675	2.858900E+01	  0.089338675	2.640300E+01
348	  0.089539073	-7.775000E+00	  0.089539073	1.098610E+02	  0.089539073	2.883800E+01	  0.089539073	2.659800E+01
349	  0.089739479	-7.803000E+00	  0.089739479	1.092430E+02	  0.089739479	2.907900E+01	  0.089739479	2.680600E+01
350	  0.089939877	-7.830000E+00	  0.089939877	1.086300E+02	  0.089939877	2.932200E+01	  0.089939877	2.701000E+01
351	  0.090140276	-7.859000E+00	  0.090140276	1.080330E+02	  0.090140276	2.956600E+01	  0.090140276	2.720400E+01
352	  0.090340681	-7.888000E+00	  0.090340681	1.074390E+02	  0.090340681	2.981400E+01	  0.090340681	2.739500E+01
353	  0.090541080	-7.914000E+00	  0.090541080	1.067930E+02	  0.090541080	3.007000E+01	  0.090541080	2.761200E+01
354	  0.090741485	-7.948000E+00	  0.090741485	1.062050E+02	  0.090741485	3.033400E+01	  0.090741485	2.778800E+01
355	  0.090941884	-7.969000E+00	  0.090941884	1.056230E+02	  0.090941884	3.056400E+01	  0.090941884	2.798500E+01
356	  0.091142282	-8.002000E+00	  0.091142282	1.050460E+02	  0.091142282	3.082700E+01	  0.091142282	2.815600E+01
357	  0.091342688	-8.026000E+00	  0.091342688	1.044680E+02	  0.091342688	3.106600E+01	  0.091342688	2.834400E+01
358	  0.091543086	-8.053000E+00	  0.091543086	1.038980E+02	  0.091543086	3.131700E+01	  0.091543086	2.852100E+01
359	  0.091743484	-8.074000E+00	  0.091743484	1.033430E+02	  0.091743484	3.154800E+01	  0.091743484	2.870200E+01
360	  0.091943890	-8.103000E+00	  0.091943890	1.027830E+02	  0.091943890	3.180300E+01	  0.091943890	2.887000E+01
361	  0.092144288	-8.131000E+00	  0.092144288	1.022160E+02	  0.092144288	3.206100E+01	  0.092144288	2.904000E+01
362	  0.092344686	-8.156000E+00	  0.092344686	1.016730E+02	  0.092344686	3.230600E+01	  0.092344686	2.920400E+01
363	  0.092545092	-8.189000E+00	  0.092545092	1.011680E+02	  0.092545092	3.256100E+01	  0.092545092	2.933500E+01
364	  0.092745490	-8.212000E+00	  0.092745490	1.006320E+02	  0.092745490	3.280100E+01	  0.092745490	2.949900E+01
365	  0.092945889	-8.244000E+00	  0.092945889	1.001370E+02	  0.092945889	3.305400E+01	  0.092945889	2.962500E+01
366	  0.093146294	-8.263000E+00	  0.093146294	9.956900E+01	  0.093146294	3.329800E+01	  0.093146294	2.981000E+01
367	  0.093346693	-8.297000E+00	  0.093346693	9.908600E+01	  0.093346693	3.355600E+01	  0.093346693	2.992300E+01
368	  0.093547091	-8.312000E+00	  0.093547091	9.854300E+01	  0.093547091	3.378700E+01	  0.093547091	3.010200E+01
369	  0.093747497	-8.341000E+00	  0.093747497	9.801600E+01	  0.093747497	3.405100E+01	  0.093747497	3.024200E+01
370	  0.093947895	-8.367000E+00	  0.093947895	9.750000E+01	  0.093947895	3.430500E+01	  0.093947895	3.038300E+01
371	  0.094148301	-8.396000E+00	  0.094148301	9.702100E+01	  0.094148301	3.455400E+01	  0.094148301	3.050000E+01
372	  0.094348699	-8.413000E+00	  0.094348699	9.654300E+01	  0.094348699	3.477600E+01	  0.094348699	3.064400E+01
373	  0.094549097	-8.440000E+00	  0.094549097	9.607600E+01	  0.094549097	3.501900E+01	  0.094549097	3.075900E+01
374	  0.094749503	-8.464000E+00	  0.094749503	9.560700E+01	  0.094749503	3.525700E+01	  0.094749503	3.088200E+01
375	  0.094949901	-8.479000E+00	  0.094949901	9.516500E+01	  0.094949901	3.546600E+01	  0.094949901	3.101300E+01
376	  0.095150299	-8.503000E+00	  0.095150299	9.466300E+01	  0.095150299	3.571900E+01	  0.095150299	3.114500E+01
377	  0.095350705	-8.521000E+00	  0.095350705	9.422600E+01	  0.095350705	3.593600E+01	  0.095350705	3.126500E+01
378	  0.095551103	-8.543000E+00	  0.095551103	9.380500E+01	  0.095551103	3.615500E+01	  0.095551103	3.137000E+01
379	  0.095751502	-8.564000E+00	  0.095751502	9.334600E+01	  0.095751502	3.639000E+01	  0.095751502	3.148900E+01
380	  0.095951907	-8.581000E+00	  0.095951907	9.294200E+01	  0.095951907	3.659700E+01	  0.095951907	3.159400E+01
381	  0.096152306	-8.600000E+00	  0.096152306	9.251500E+01	  0.096152306	3.681600E+01	  0.096152306	3.170500E+01
382	  0.096352704	-8.620000E+00	  0.096352704	9.207700E+01	  0.096352704	3.704600E+01	  0.096352704	3.181400E+01
383	  0.096553110	-8.638000E+00	  0.096553110	9.165900E+01	  0.096553110	3.726200E+01	  0.096553110	3.192200E+01
384	  0.096753508	-8.654000E+00	  0.096753508	9.122600E+01	  0.096753508	3.748200E+01	  0.096753508	3.203800E+01
385	  0.096953906	-8.672000E+00	  0.096953906	9.077900E+01	  0.096953906	3.771300E+01	  0.096953906	3.215500E+01
386	  0.097154312	-8.692000E+00	  0.097154312	9.034400E+01	  0.097154312	3.794700E+01	  0.097154312	3.225700E+01
387	  0.097354710	-8.708000E+00	  0.097354710	8.995100E+01	  0.097354710	3.815500E+01	  0.097354710	3.235600E+01
388	  0.097555116	-8.722000E+00	  0.097555116	8.954900E+01	  0.097555116	3.836200E+01	  0.097555116	3.246200E+01
389	  0.097755514	-8.734000E+00	  0.097755514	8.909800E+01	  0.097755514	3.858900E+01	  0.097755514	3.259000E+01
390	  0.097955912	-8.746000E+00	  0.097955912	8.867400E+01	  0.097955912	3.880200E+01	  0.097955912	3.271000E+01
391	  0.098156318	-8.750000E+00	  0.098156318	8.826600E+01	  0.098156318	3.899500E+01	  0.098156318	3.284400E+01
392	  0.098356716	-8.756000E+00	  0.098356716	8.786200E+01	  0.098356716	3.919000E+01	  0.098356716	3.297200E+01
393	  0.098557115	-8.769000E+00	  0.098557115	8.745100E+01	  0.098557115	3.940700E+01	  0.098557115	3.307900E+01
394	  0.098757520	-8.770000E+00	  0.098757520	8.705900E+01	  0.098757520	3.958800E+01	  0.098757520	3.321700E+01
395	  0.098957919	-8.775000E+00	  0.098957919	8.663700E+01	  0.098957919	3.979500E+01	  0.098957919	3.335000E+01
396	  0.099158317	-8.782000E+00	  0.099158317	8.622500E+01	  0.099158317	4.000200E+01	  0.099158317	3.347500E+01
397	  0.099358723	-8.783000E+00	  0.099358723	8.583100E+01	  0.099358723	4.019000E+01	  0.099358723	3.361000E+01
398	  0.099559121	-8.787000E+00	  0.099559121	8.545600E+01	  0.099559121	4.037600E+01	  0.099559121	3.373100E+01
399	  0.099759519	-8.787000E+00	  0.099759519	8.504000E+01	  0.099759519	4.057600E+01	  0.099759519	3.387500E+01
400	  0.099959925	-8.782000E+00	  0.099959925	8.465600E+01	  0.099959925	4.074800E+01	  0.099959925	3.402600E+01
401	  0.100160323	-8.773000E+00	  0.100160323	8.424900E+01	  0.100160323	4.092700E+01	  0.100160323	3.419500E+01
402	  0.100360721	-8.772000E+00	  0.100360721	8.388300E+01	  0.100360721	4.110400E+01	  0.100360721	3.432500E+01
403	  0.100561127	-8.775000E+00	  0.100561127	8.343100E+01	  0.100561127	4.133500E+01	  0.100561127	3.447200E+01
404	  0.100761525	-8.766000E+00	  0.100761525	8.304400E+01	  0.100761525	4.150800E+01	  0.100761525	3.463500E+01
405	  0.100961931	-8.767000E+00	  0.100961931	8.263300E+01	  0.100961931	4.171600E+01	  0.100961931	3.477400E+01
406	  0.101162329	-8.757000E+00	  0.101162329	8.224500E+01	  0.101162329	4.189000E+01	  0.101162329	3.494200E+01
407	  0.101362728	-8.757000E+00	  0.101362728	8.178600E+01	  0.101362728	4.212700E+01	  0.101362728	3.509900E+01
408	  0.101563133	-8.748000E+00	  0.101563133	8.141900E+01	  0.101563133	4.229800E+01	  0.101563133	3.525300E+01
409	  0.101763532	-8.737000E+00	  0.101763532	8.096800E+01	  0.101763532	4.250900E+01	  0.101763532	3.544400E+01
410	  0.101963930	-8.729000E+00	  0.101963930	8.057000E+01	  0.101963930	4.270100E+01	  0.101963930	3.560800E+01
411	  0.102164336	-8.713000E+00	  0.102164336	8.008700E+01	  0.102164336	4.292400E+01	  0.102164336	3.582700E+01
412	  0.102364734	-8.719000E+00	  0.102364734	7.961600E+01	  0.102364734	4.319000E+01	  0.102364734	3.596700E+01
413	  0.102565132	-8.703000E+00	  0.102565132	7.923600E+01	  0.102565132	4.336100E+01	  0.102565132	3.615300E+01
414	  0.102765530	-8.693000E+00	  0.102765530	7.878300E+01	  0.102765530	4.358800E+01	  0.102765530	3.634000E+01
415	  0.102965929	-8.676000E+00	  0.102965929	7.833800E+01	  0.102965929	4.379800E+01	  0.102965929	3.655200E+01
416	  0.103166327	-8.668000E+00	  0.103166327	7.784800E+01	  0.103166327	4.405700E+01	  0.103166327	3.674300E+01
417	  0.103366733	-8.648000E+00	  0.103366733	7.743400E+01	  0.103366733	4.424700E+01	  0.103366733	3.695800E+01
418	  0.103567131	-8.641000E+00	  0.103567131	7.693600E+01	  0.103567131	4.451900E+01	  0.103567131	3.714800E+01
419	  0.103767529	-8.631000E+00	  0.103767529	7.646300E+01	  0.103767529	4.477000E+01	  0.103767529	3.734600E+01
420	  0.103967935	-8.620000E+00	  0.103967935	7.597400E+01	  0.103967935	4.503300E+01	  0.103967935	3.754900E+01
421	  0.104168333	-8.606000E+00	  0.104168333	7.548600E+01	  0.104168333	4.529400E+01	  0.104168333	3.776200E+01
422	  0.104368731	-8.594000E+00	  0.104368731	7.496100E+01	  0.104368731	4.558300E+01	  0.104368731	3.798100E+01
423	  0.104569137	-8.580000E+00	  0.104569137	7.442800E+01	  0.104569137	4.587700E+01	  0.104569137	3.821000E+01
424	  0.104769535	-8.562000E+00	  0.104769535	7.389500E+01	  0.104769535	4.616700E+01	  0.104769535	3.845500E+01
425	  0.104969934	-8.548000E+00	  0.104969934	7.340000E+01	  0.104969934	4.644700E+01	  0.104969934	3.867100E+01
426	  0.105170339	-8.526000E+00	  0.105170339	7.282200E+01	  0.105170339	4.676400E+01	  0.105170339	3.895000E+01
427	  0.105370738	-8.513000E+00	  0.105370738	7.227000E+01	  0.105370738	4.709000E+01	  0.105370738	3.918000E+01
428	  0.105571143	-8.491000E+00	  0.105571143	7.171500E+01	  0.105571143	4.740400E+01	  0.105571143	3.944900E+01
429	  0.105771542	-8.477000E+00	  0.105771542	7.114400E+01	  0.105771542	4.775100E+01	  0.105771542	3.968900E+01
430	  0.105971940	-8.457000E+00	  0.105971940	7.064100E+01	  0.105971940	4.804400E+01	  0.105971940	3.993400E+01
431	  0.106172346	-8.441000E+00	  0.106172346	7.002000E+01	  0.106172346	4.843000E+01	  0.106172346	4.020000E+01
432	  0.106372744	-8.420000E+00	  0.106372744	6.951300E+01	  0.106372744	4.873500E+01	  0.106372744	4.044800E+01
433	  0.106573142	-8.402000E+00	  0.106573142	6.891400E+01	  0.106573142	4.911300E+01	  0.106573142	4.071400E+01
434	  0.106773548	-8.371000E+00	  0.106773548	6.827800E+01	  0.106773548	4.949800E+01	  0.106773548	4.105400E+01
435	  0.106973946	-8.363000E+00	  0.106973946	6.772000E+01	  0.106973946	4.988100E+01	  0.106973946	4.125700E+01
436	  0.107174344	-8.340000E+00	  0.107174344	6.711300E+01	  0.107174344	5.027500E+01	  0.107174344	4.154700E+01
437	  0.107374750	-8.318000E+00	  0.107374750	6.646000E+01	  0.107374750	5.071200E+01	  0.107374750	4.184900E+01
438	  0.107575148	-8.305000E+00	  0.107575148	6.591000E+01	  0.107575148	5.109700E+01	  0.107575148	4.207400E+01
439	  0.107775547	-8.287000E+00	  0.107775547	6.530900E+01	  0.107775547	5.151800E+01	  0.107775547	4.233300E+01
440	  0.107975952	-8.276000E+00	  0.107975952	6.466100E+01	  0.107975952	5.199400E+01	  0.107975952	4.257400E+01
441	  0.108176351	-8.262000E+00	  0.108176351	6.407600E+01	  0.108176351	5.242300E+01	  0.108176351	4.281100E+01
442	  0.108376749	-8.241000E+00	  0.108376749	6.344500E+01	  0.108376749	5.288300E+01	  0.108376749	4.309100E+01
443	  0.108577155	-8.223000E+00	  0.108577155	6.279500E+01	  0.108577155	5.337200E+01	  0.108577155	4.336100E+01
444	  0.108777553	-8.211000E+00	  0.108777553	6.212700E+01	  0.108777553	5.389500E+01	  0.108777553	4.360200E+01
445	  0.108977959	-8.192000E+00	  0.108977959	6.148700E+01	  0.108977959	5.439200E+01	  0.108977959	4.387100E+01
446	  0.109178357	-8.178000E+00	  0.109178357	6.083100E+01	  0.109178357	5.491900E+01	  0.109178357	4.411600E+01
447	  0.109378755	-8.162000E+00	  0.109378755	6.009600E+01	  0.109378755	5.552000E+01	  0.109378755	4.438600E+01
448	  0.109579161	-8.150000E+00	  0.109579161	5.943600E+01	  0.109579161	5.607400E+01	  0.109579161	4.461000E+01
449	  0.109779559	-8.131000E+00	  0.109779559	5.872500E+01	  0.109779559	5.667100E+01	  0.109779559	4.488600E+01
450	  0.109979957	-8.131000E+00	  0.109979957	5.805400E+01	  0.109979957	5.727000E+01	  0.109979957	4.503800E+01
451	  0.110180363	-8.110000E+00	  0.110180363	5.730500E+01	  0.110180363	5.792100E+01	  0.110180363	4.532300E+01
452	  0.110380761	-8.110000E+00	  0.110380761	5.661200E+01	  0.110380761	5.856000E+01	  0.110380761	4.546300E+01
453	  0.110581160	-8.094000E+00	  0.110581160	5.583700E+01	  0.110581160	5.926600E+01	  0.110581160	4.571300E+01
454	  0.110781565	-8.090000E+00	  0.110781565	5.507200E+01	  0.110781565	5.999200E+01	  0.110781565	4.587500E+01
455	  0.110981964	-8.087000E+00	  0.110981964	5.432600E+01	  0.110981964	6.071000E+01	  0.110981964	4.602200E+01
456	  0.111182362	-8.076000E+00	  0.111182362	5.357400E+01	  0.111182362	6.143800E+01	  0.111182362	4.621200E+01
457	  0.111382768	-8.070000E+00	  0.111382768	5.275700E+01	  0.111382768	6.224900E+01	  0.111382768	4.636900E+01
458	  0.111583166	-8.064000E+00	  0.111583166	5.197700E+01	  0.111583166	6.303500E+01	  0.111583166	4.650700E+01
459	  0.111783572	-8.058000E+00	  0.111783572	5.115000E+01	  0.111783572	6.388400E+01	  0.111783572	4.663900E+01
460	  0.111983970	-8.052000E+00	  0.111983970	5.031900E+01	  0.111983970	6.475200E+01	  0.111983970	4.676000E+01
461	  0.112184368	-8.046000E+00	  0.112184368	4.951400E+01	  0.112184368	6.560700E+01	  0.112184368	4.686400E+01
462	  0.112384774	-8.049000E+00	  0.112384774	4.866900E+01	  0.112384774	6.652200E+01	  0.112384774	4.689100E+01
463	  0.112585172	-8.042000E+00	  0.112585172	4.781400E+01	  0.112585172	6.745700E+01	  0.112585172	4.697500E+01
464	  0.112785570	-8.047000E+00	  0.112785570	4.700100E+01	  0.112785570	6.836300E+01	  0.112785570	4.695400E+01
465	  0.112985976	-8.045000E+00	  0.112985976	4.613000E+01	  0.112985976	6.934700E+01	  0.112985976	4.696300E+01
466	  0.113186374	-8.047000E+00	  0.113186374	4.530800E+01	  0.113186374	7.028600E+01	  0.113186374	4.692700E+01
467	  0.113386773	-8.053000E+00	  0.113386773	4.439400E+01	  0.113386773	7.134300E+01	  0.113386773	4.682500E+01
468	  0.113587178	-8.055000E+00	  0.113587178	4.353300E+01	  0.113587178	7.235300E+01	  0.113587178	4.673800E+01
469	  0.113787577	-8.061000E+00	  0.113787577	4.265000E+01	  0.113787577	7.339700E+01	  0.113787577	4.659400E+01
470	  0.113987975	-8.071000E+00	  0.113987975	4.175600E+01	  0.113987975	7.446000E+01	  0.113987975	4.639100E+01
471	  0.114188381	-8.079000E+00	  0.114188381	4.087300E+01	  0.114188381	7.552000E+01	  0.114188381	4.617500E+01
472	  0.114388779	-8.093000E+00	  0.114388779	4.000900E+01	  0.114388779	7.655700E+01	  0.114388779	4.588400E+01
473	  0.114589177	-8.104000E+00	  0.114589177	3.907300E+01	  0.114589177	7.769300E+01	  0.114589177	4.557700E+01
474	  0.114789583	-8.117000E+00	  0.114789583	3.815100E+01	  0.114789583	7.881200E+01	  0.114789583	4.521600E+01
475	  0.114989981	-8.130000E+00	  0.114989981	3.722000E+01	  0.114989981	7.994800E+01	  0.114989981	4.482300E+01
476	  0.115190387	-8.151000E+00	  0.115190387	3.628400E+01	  0.115190387	8.107200E+01	  0.115190387	4.432300E+01
477	  0.115390785	-8.171000E+00	  0.115390785	3.537600E+01	  0.115390785	8.216100E+01	  0.115390785	4.380400E+01
478	  0.115591183	-8.191000E+00	  0.115591183	3.439900E+01	  0.115591183	8.333300E+01	  0.115591183	4.322200E+01
479	  0.115791589	-8.219000E+00	  0.115791589	3.342900E+01	  0.115791589	8.446300E+01	  0.115791589	4.253100E+01
480	  0.115991987	-8.245000E+00	  0.115991987	3.245100E+01	  0.115991987	8.560100E+01	  0.115991987	4.181700E+01
481	  0.116192386	-8.270000E+00	  0.116192386	3.145600E+01	  0.116192386	8.674800E+01	  0.116192386	4.105300E+01
482	  0.116392791	-8.303000E+00	  0.116392791	3.040300E+01	  0.116392791	8.791800E+01	  0.116392791	4.013900E+01
483	  0.116593190	-8.336000E+00	  0.116593190	2.941900E+01	  0.116593190	8.898200E+01	  0.116593190	3.923200E+01
484	  0.116793588	-8.370000E+00	  0.116793588	2.838900E+01	  0.116793588	9.007500E+01	  0.116793588	3.824300E+01
485	  0.116993994	-8.409000E+00	  0.116993994	2.736300E+01	  0.116993994	9.110400E+01	  0.116993994	3.716700E+01
486	  0.117194392	-8.446000E+00	  0.117194392	2.632400E+01	  0.117194392	9.212400E+01	  0.117194392	3.605000E+01
487	  0.117394790	-8.490000E+00	  0.117394790	2.529100E+01	  0.117394790	9.306300E+01	  0.117394790	3.485000E+01
488	  0.117595196	-8.529000E+00	  0.117595196	2.420200E+01	  0.117595196	9.405200E+01	  0.117595196	3.359600E+01
489	  0.117795594	-8.574000E+00	  0.117795594	2.308000E+01	  0.117795594	9.499800E+01	  0.117795594	3.222900E+01
490	  0.117995992	-8.614000E+00	  0.117995992	2.200100E+01	  0.117995992	9.587500E+01	  0.117995992	3.089600E+01
491	  0.118196398	-8.668000E+00	  0.118196398	2.088400E+01	  0.118196398	9.664300E+01	  0.118196398	2.939500E+01
492	  0.118396796	-8.720000E+00	  0.118396796	1.975800E+01	  0.118396796	9.736900E+01	  0.118396796	2.786300E+01
493	  0.118597202	-8.775000E+00	  0.118597202	1.858800E+01	  0.118597202	9.804500E+01	  0.118597202	2.623600E+01
494	  0.118797600	-8.834000E+00	  0.118797600	1.747100E+01	  0.118797600	9.858100E+01	  0.118797600	2.462900E+01
495	  0.118997999	-8.891000E+00	  0.118997999	1.631400E+01	  0.118997999	9.909100E+01	  0.118997999	2.296700E+01
496	  0.119198404	-8.957000E+00	  0.119198404	1.511800E+01	  0.119198404	9.948500E+01	  0.119198404	2.119900E+01
497	  0.119398803	-9.022000E+00	  0.119398803	1.393000E+01	  0.119398803	9.980000E+01	  0.119398803	1.944200E+01
498	  0.119599201	-9.087000E+00	  0.119599201	1.271000E+01	  0.119599201	1.000500E+02	  0.119599201	1.764100E+01
499	  0.119799607	-9.165000E+00	  0.119799607	1.149400E+01	  0.119799607	1.001100E+02	  0.119799607	1.580300E+01
500	  0.120000005	-9.237000E+00	  0.120000005	1.030500E+01	  0.120000005	1.001290E+02	  0.120000005	1.404200E+01
