! Anritsu VNA Master:             	Model: MS2036C/10/77
! SN:             	1601066
! /bd0/18may09/252.ew.m2.txt
! Existing Calibration Information:
! TYPE:             	Current Settings	Active Cal Settings
! TIME:             	05/09/2018 08:08:55 AM	05/09/2018 08:04:56 AM
! INTERNAL TEMP:    	42.0 C	42.3 C
! # POINTS:         	500	500
! START FREQ:       	20.000 MHz	20.000 MHz
! STOP FREQ:        	120.000 MHz	120.000 MHz
! SOURCE POWER:     	High	High
! IFBW:             	50 Hz	50 Hz
! AVG FACTOR:       	  1 	  1 
! REF PLANE 1:      	0 mm	0 mm
! REF PLANE 2:      	0 mm	0 mm
! CAL TYPE:         	Full S11	Full S11
! CAL METHOD:       	SOLT	SOLT
! CAL LINE TYPE:    	Coax	Coax
! DUT PORT 1:       	K-Conn(F)	K-Conn(F)
! DUT PORT 2:       	K-Conn(F)	K-Conn(F)
! CAL STATUS:       	OK: Accuracy High	--
! PROP-V:       	0.700
! CABLE LOSS:       	0.000 dB/m
! REF IMPEDANCE:       	50.0
! Trace Specific Parameters:	TR1	TR2	TR3	TR4
! TRACE.#.Y (GRAPH TYPE)	LOG MAG	PHASE	REAL IMPEDANCE	IMAGINARY IMPEDANCE
! TRACE.#.X 	FREQ.GHZ	FREQ.GHZ	FREQ.GHZ	FREQ.GHZ
! S-PARAMETER	S11	S11	S11	S11
! SMOOTH/APERTURE %	0	0	0	0
! WINDOW	NSL	NSL	NSL	NSL
! GATING	OFF	OFF	OFF	OFF
! FGTD	OFF	OFF	OFF	OFF
Marker Information per Trace:	TR1	TR2	TR3	TR4
!MK1	--	"MK1 TR2:  20.000 MHz,PH:-124.20°"	--	--
!MK2	--	--	"MK2 TR3:  70.100 200 MHz,Z:(17.267 ohm, -3.097 ohm)"	--
!MK3	--	--	--	--
!MK4	--	--	--	--
!MK5	--	--	--	--
!MK6	--	--	--	--
!MK7	--	--	--	--
!MK8	--	--	--	--
PNT	TR1.FREQ.GHZ	TR1.LOG MAG.dB	TR2.FREQ.GHZ	TR2.PHASE.deg	TR3.FREQ.GHZ	TR3.REAL IMPEDANCE.ohm	TR4.FREQ.GHZ	TR4.IMAGINARY IMPEDANCE.ohm
1	  0.020000000	-6.110000E-01	  0.020000000	-1.242000E+02	  0.020000000	2.252000E+00	  0.020000000	-2.643100E+01
2	  0.020200402	-6.090000E-01	  0.020200402	-1.256510E+02	  0.020200402	2.215000E+00	  0.020200402	-2.562800E+01
3	  0.020400802	-6.120000E-01	  0.020400802	-1.270800E+02	  0.020400802	2.196000E+00	  0.020400802	-2.484600E+01
4	  0.020601204	-6.120000E-01	  0.020601204	-1.285290E+02	  0.020601204	2.170000E+00	  0.020601204	-2.406400E+01
5	  0.020801604	-6.160000E-01	  0.020801604	-1.300220E+02	  0.020801604	2.157000E+00	  0.020801604	-2.326700E+01
6	  0.021002004	-6.230000E-01	  0.021002004	-1.315160E+02	  0.021002004	2.157000E+00	  0.021002004	-2.247900E+01
7	  0.021202406	-6.290000E-01	  0.021202406	-1.330350E+02	  0.021202406	2.153000E+00	  0.021202406	-2.168800E+01
8	  0.021402806	-6.320000E-01	  0.021402806	-1.345600E+02	  0.021402806	2.138000E+00	  0.021402806	-2.090300E+01
9	  0.021603208	-6.350000E-01	  0.021603208	-1.360610E+02	  0.021603208	2.126000E+00	  0.021603208	-2.013800E+01
10	  0.021803608	-6.390000E-01	  0.021803608	-1.375740E+02	  0.021803608	2.117000E+00	  0.021803608	-1.937600E+01
11	  0.022004008	-6.450000E-01	  0.022004008	-1.391060E+02	  0.022004008	2.114000E+00	  0.022004008	-1.861200E+01
12	  0.022204408	-6.490000E-01	  0.022204408	-1.406400E+02	  0.022204408	2.107000E+00	  0.022204408	-1.785400E+01
13	  0.022404809	-6.520000E-01	  0.022404809	-1.422020E+02	  0.022404809	2.095000E+00	  0.022404809	-1.709000E+01
14	  0.022605211	-6.570000E-01	  0.022605211	-1.437760E+02	  0.022605211	2.093000E+00	  0.022605211	-1.632800E+01
15	  0.022805611	-6.610000E-01	  0.022805611	-1.453570E+02	  0.022805611	2.086000E+00	  0.022805611	-1.556800E+01
16	  0.023006011	-6.630000E-01	  0.023006011	-1.469240E+02	  0.023006011	2.075000E+00	  0.023006011	-1.482300E+01
17	  0.023206413	-6.630000E-01	  0.023206413	-1.485020E+02	  0.023206413	2.059000E+00	  0.023206413	-1.407800E+01
18	  0.023406813	-6.670000E-01	  0.023406813	-1.500670E+02	  0.023406813	2.056000E+00	  0.023406813	-1.334400E+01
19	  0.023607215	-6.710000E-01	  0.023607215	-1.516530E+02	  0.023607215	2.056000E+00	  0.023607215	-1.260700E+01
20	  0.023807615	-6.800000E-01	  0.023807615	-1.532390E+02	  0.023807615	2.067000E+00	  0.023807615	-1.187400E+01
21	  0.024008015	-6.890000E-01	  0.024008015	-1.548530E+02	  0.024008015	2.082000E+00	  0.024008015	-1.113300E+01
22	  0.024208417	-6.980000E-01	  0.024208417	-1.564900E+02	  0.024208417	2.097000E+00	  0.024208417	-1.038600E+01
23	  0.024408817	-7.070000E-01	  0.024408817	-1.581340E+02	  0.024408817	2.110000E+00	  0.024408817	-9.641000E+00
24	  0.024609219	-7.160000E-01	  0.024609219	-1.597620E+02	  0.024609219	2.125000E+00	  0.024609219	-8.907000E+00
25	  0.024809619	-7.250000E-01	  0.024809619	-1.614000E+02	  0.024809619	2.143000E+00	  0.024809619	-8.173000E+00
26	  0.025010020	-7.360000E-01	  0.025010020	-1.630410E+02	  0.025010020	2.164000E+00	  0.025010020	-7.440000E+00
27	  0.025210422	-7.480000E-01	  0.025210422	-1.646990E+02	  0.025210422	2.192000E+00	  0.025210422	-6.703000E+00
28	  0.025410822	-7.620000E-01	  0.025410822	-1.663750E+02	  0.025410822	2.225000E+00	  0.025410822	-5.961000E+00
29	  0.025611224	-7.760000E-01	  0.025611224	-1.680710E+02	  0.025611224	2.258000E+00	  0.025611224	-5.213000E+00
30	  0.025811624	-7.880000E-01	  0.025811624	-1.697860E+02	  0.025811624	2.286000E+00	  0.025811624	-4.459000E+00
31	  0.026012026	-7.960000E-01	  0.026012026	-1.714810E+02	  0.026012026	2.302000E+00	  0.026012026	-3.716000E+00
32	  0.026212426	-8.080000E-01	  0.026212426	-1.732040E+02	  0.026212426	2.334000E+00	  0.026212426	-2.962000E+00
33	  0.026412826	-8.210000E-01	  0.026412826	-1.749280E+02	  0.026412826	2.366000E+00	  0.026412826	-2.209000E+00
34	  0.026613226	-8.360000E-01	  0.026613226	-1.766580E+02	  0.026613226	2.407000E+00	  0.026613226	-1.455000E+00
35	  0.026813626	-8.510000E-01	  0.026813626	-1.784020E+02	  0.026813626	2.449000E+00	  0.026813626	-6.950000E-01
36	  0.027014028	-8.680000E-01	  0.027014028	1.798370E+02	  0.027014028	2.496000E+00	  0.027014028	7.000000E-02
37	  0.027214428	-8.830000E-01	  0.027214428	1.780720E+02	  0.027214428	2.541000E+00	  0.027214428	8.390000E-01
38	  0.027414829	-8.980000E-01	  0.027414829	1.762960E+02	  0.027414829	2.587000E+00	  0.027414829	1.612000E+00
39	  0.027615231	-9.160000E-01	  0.027615231	1.744930E+02	  0.027615231	2.642000E+00	  0.027615231	2.397000E+00
40	  0.027815631	-9.360000E-01	  0.027815631	1.727030E+02	  0.027815631	2.703000E+00	  0.027815631	3.178000E+00
41	  0.028016033	-9.570000E-01	  0.028016033	1.708890E+02	  0.028016033	2.771000E+00	  0.028016033	3.971000E+00
42	  0.028216433	-9.800000E-01	  0.028216433	1.690730E+02	  0.028216433	2.845000E+00	  0.028216433	4.766000E+00
43	  0.028416833	-1.000000E+00	  0.028416833	1.672460E+02	  0.028416833	2.911000E+00	  0.028416833	5.568000E+00
44	  0.028617235	-1.019000E+00	  0.028617235	1.654210E+02	  0.028617235	2.980000E+00	  0.028617235	6.373000E+00
45	  0.028817635	-1.040000E+00	  0.028817635	1.636010E+02	  0.028817635	3.052000E+00	  0.028817635	7.178000E+00
46	  0.029018037	-1.060000E+00	  0.029018037	1.618000E+02	  0.029018037	3.125000E+00	  0.029018037	7.978000E+00
47	  0.029218437	-1.081000E+00	  0.029218437	1.599820E+02	  0.029218437	3.206000E+00	  0.029218437	8.789000E+00
48	  0.029418837	-1.106000E+00	  0.029418837	1.581420E+02	  0.029418837	3.298000E+00	  0.029418837	9.614000E+00
49	  0.029619239	-1.135000E+00	  0.029619239	1.562840E+02	  0.029619239	3.405000E+00	  0.029619239	1.045100E+01
50	  0.029819639	-1.165000E+00	  0.029819639	1.544210E+02	  0.029819639	3.520000E+00	  0.029819639	1.129600E+01
51	  0.030020041	-1.194000E+00	  0.030020041	1.524990E+02	  0.030020041	3.638000E+00	  0.030020041	1.217300E+01
52	  0.030220442	-1.224000E+00	  0.030220442	1.505790E+02	  0.030220442	3.759000E+00	  0.030220442	1.305700E+01
53	  0.030420844	-1.256000E+00	  0.030420844	1.486600E+02	  0.030420844	3.892000E+00	  0.030420844	1.394700E+01
54	  0.030621244	-1.286000E+00	  0.030621244	1.467580E+02	  0.030621244	4.023000E+00	  0.030621244	1.483600E+01
55	  0.030821644	-1.321000E+00	  0.030821644	1.448320E+02	  0.030821644	4.176000E+00	  0.030821644	1.574400E+01
56	  0.031022044	-1.357000E+00	  0.031022044	1.428990E+02	  0.031022044	4.335000E+00	  0.031022044	1.666500E+01
57	  0.031222444	-1.391000E+00	  0.031222444	1.409780E+02	  0.031222444	4.494000E+00	  0.031222444	1.758900E+01
58	  0.031422846	-1.428000E+00	  0.031422846	1.389840E+02	  0.031422846	4.672000E+00	  0.031422846	1.855800E+01
59	  0.031623244	-1.464000E+00	  0.031623244	1.369880E+02	  0.031623244	4.854000E+00	  0.031623244	1.954000E+01
60	  0.031823646	-1.501000E+00	  0.031823646	1.349690E+02	  0.031823646	5.044000E+00	  0.031823646	2.054600E+01
61	  0.032024048	-1.537000E+00	  0.032024048	1.329920E+02	  0.032024048	5.241000E+00	  0.032024048	2.154300E+01
62	  0.032224450	-1.572000E+00	  0.032224450	1.309970E+02	  0.032224450	5.440000E+00	  0.032224450	2.256300E+01
63	  0.032424849	-1.609000E+00	  0.032424849	1.290270E+02	  0.032424849	5.657000E+00	  0.032424849	2.358500E+01
64	  0.032625251	-1.647000E+00	  0.032625251	1.270450E+02	  0.032625251	5.887000E+00	  0.032625251	2.462600E+01
65	  0.032825653	-1.690000E+00	  0.032825653	1.250640E+02	  0.032825653	6.144000E+00	  0.032825653	2.568200E+01
66	  0.033026051	-1.734000E+00	  0.033026051	1.230910E+02	  0.033026051	6.419000E+00	  0.033026051	2.674900E+01
67	  0.033226453	-1.786000E+00	  0.033226453	1.211050E+02	  0.033226453	6.735000E+00	  0.033226453	2.783800E+01
68	  0.033426855	-1.841000E+00	  0.033426855	1.190790E+02	  0.033426855	7.080000E+00	  0.033426855	2.896500E+01
69	  0.033627257	-1.896000E+00	  0.033627257	1.170550E+02	  0.033627257	7.441000E+00	  0.033627257	3.011100E+01
70	  0.033827655	-1.952000E+00	  0.033827655	1.149820E+02	  0.033827655	7.829000E+00	  0.033827655	3.130600E+01
71	  0.034028057	-2.004000E+00	  0.034028057	1.128770E+02	  0.034028057	8.225000E+00	  0.034028057	3.254400E+01
72	  0.034228459	-2.056000E+00	  0.034228459	1.107460E+02	  0.034228459	8.642000E+00	  0.034228459	3.382300E+01
73	  0.034428857	-2.106000E+00	  0.034428857	1.086180E+02	  0.034428857	9.078000E+00	  0.034428857	3.512900E+01
74	  0.034629259	-2.152000E+00	  0.034629259	1.065010E+02	  0.034629259	9.519000E+00	  0.034629259	3.645900E+01
75	  0.034829661	-2.199000E+00	  0.034829661	1.043890E+02	  0.034829661	9.990000E+00	  0.034829661	3.781500E+01
76	  0.035030060	-2.244000E+00	  0.035030060	1.022820E+02	  0.035030060	1.048400E+01	  0.035030060	3.920000E+01
77	  0.035230462	-2.289000E+00	  0.035230462	1.001960E+02	  0.035230462	1.099900E+01	  0.035230462	4.060400E+01
78	  0.035430863	-2.335000E+00	  0.035430863	9.810200E+01	  0.035430863	1.155600E+01	  0.035430863	4.204500E+01
79	  0.035631265	-2.382000E+00	  0.035631265	9.603400E+01	  0.035631265	1.215100E+01	  0.035631265	4.350200E+01
80	  0.035831664	-2.430000E+00	  0.035831664	9.397300E+01	  0.035831664	1.278200E+01	  0.035831664	4.498900E+01
81	  0.036032066	-2.478000E+00	  0.036032066	9.193300E+01	  0.036032066	1.345600E+01	  0.036032066	4.649600E+01
82	  0.036232468	-2.530000E+00	  0.036232468	8.990600E+01	  0.036232468	1.418900E+01	  0.036232468	4.802500E+01
83	  0.036432866	-2.586000E+00	  0.036432866	8.787600E+01	  0.036432866	1.499300E+01	  0.036432866	4.958800E+01
84	  0.036633268	-2.643000E+00	  0.036633268	8.585100E+01	  0.036633268	1.585900E+01	  0.036633268	5.118300E+01
85	  0.036833670	-2.703000E+00	  0.036833670	8.381200E+01	  0.036833670	1.680500E+01	  0.036833670	5.282200E+01
86	  0.037034072	-2.772000E+00	  0.037034072	8.175500E+01	  0.037034072	1.787800E+01	  0.037034072	5.449700E+01
87	  0.037234470	-2.837000E+00	  0.037234470	7.967500E+01	  0.037234470	1.900900E+01	  0.037234470	5.624200E+01
88	  0.037434869	-2.901000E+00	  0.037434869	7.756800E+01	  0.037434869	2.023000E+01	  0.037434869	5.805600E+01
89	  0.037635271	-2.963000E+00	  0.037635271	7.545900E+01	  0.037635271	2.153500E+01	  0.037635271	5.991900E+01
90	  0.037835669	-3.024000E+00	  0.037835669	7.331700E+01	  0.037835669	2.294600E+01	  0.037835669	6.186600E+01
91	  0.038036071	-3.082000E+00	  0.038036071	7.116200E+01	  0.038036071	2.445700E+01	  0.038036071	6.388400E+01
92	  0.038236473	-3.140000E+00	  0.038236473	6.895700E+01	  0.038236473	2.613200E+01	  0.038236473	6.600200E+01
93	  0.038436871	-3.200000E+00	  0.038436871	6.680200E+01	  0.038436871	2.792600E+01	  0.038436871	6.810900E+01
94	  0.038637273	-3.258000E+00	  0.038637273	6.466900E+01	  0.038637273	2.984200E+01	  0.038637273	7.024600E+01
95	  0.038837675	-3.315000E+00	  0.038837675	6.257600E+01	  0.038837675	3.188500E+01	  0.038837675	7.238000E+01
96	  0.039038073	-3.368000E+00	  0.039038073	6.053300E+01	  0.039038073	3.402800E+01	  0.039038073	7.451100E+01
97	  0.039238475	-3.424000E+00	  0.039238475	5.849600E+01	  0.039238475	3.637100E+01	  0.039238475	7.664600E+01
98	  0.039438877	-3.483000E+00	  0.039438877	5.647700E+01	  0.039438877	3.891200E+01	  0.039438877	7.876200E+01
99	  0.039639279	-3.547000E+00	  0.039639279	5.443500E+01	  0.039639279	4.174000E+01	  0.039639279	8.086900E+01
100	  0.039839678	-3.612000E+00	  0.039839678	5.240200E+01	  0.039839678	4.480800E+01	  0.039839678	8.293800E+01
101	  0.040040080	-3.681000E+00	  0.040040080	5.034100E+01	  0.040040080	4.819600E+01	  0.040040080	8.498200E+01
102	  0.040240481	-3.749000E+00	  0.040240481	4.825600E+01	  0.040240481	5.191200E+01	  0.040240481	8.699100E+01
103	  0.040440880	-3.812000E+00	  0.040440880	4.619500E+01	  0.040440880	5.585100E+01	  0.040440880	8.895000E+01
104	  0.040641282	-3.879000E+00	  0.040641282	4.412200E+01	  0.040641282	6.018000E+01	  0.040641282	9.075100E+01
105	  0.040841684	-3.941000E+00	  0.040841684	4.203600E+01	  0.040841684	6.484500E+01	  0.040841684	9.248500E+01
106	  0.041042086	-4.004000E+00	  0.041042086	3.997100E+01	  0.041042086	6.985300E+01	  0.041042086	9.397200E+01
107	  0.041242484	-4.067000E+00	  0.041242484	3.788900E+01	  0.041242484	7.529500E+01	  0.041242484	9.521800E+01
108	  0.041442886	-4.127000E+00	  0.041442886	3.580400E+01	  0.041442886	8.112300E+01	  0.041442886	9.621100E+01
109	  0.041643288	-4.181000E+00	  0.041643288	3.372700E+01	  0.041643288	8.731700E+01	  0.041643288	9.691000E+01
110	  0.041843686	-4.237000E+00	  0.041843686	3.166200E+01	  0.041843686	9.389300E+01	  0.041843686	9.711400E+01
111	  0.042044088	-4.291000E+00	  0.042044088	2.963400E+01	  0.042044088	1.007260E+02	  0.042044088	9.681100E+01
112	  0.042244490	-4.345000E+00	  0.042244490	2.762100E+01	  0.042244490	1.078460E+02	  0.042244490	9.589700E+01
113	  0.042444889	-4.399000E+00	  0.042444889	2.559800E+01	  0.042444889	1.152830E+02	  0.042444889	9.425500E+01
114	  0.042645290	-4.450000E+00	  0.042645290	2.360800E+01	  0.042645290	1.228090E+02	  0.042645290	9.192500E+01
115	  0.042845692	-4.503000E+00	  0.042845692	2.160900E+01	  0.042845692	1.304660E+02	  0.042845692	8.865300E+01
116	  0.043046094	-4.553000E+00	  0.043046094	1.959100E+01	  0.043046094	1.381960E+02	  0.043046094	8.446700E+01
117	  0.043246493	-4.604000E+00	  0.043246493	1.762600E+01	  0.043246493	1.455270E+02	  0.043246493	7.934900E+01
118	  0.043446895	-4.654000E+00	  0.043446895	1.564200E+01	  0.043446895	1.526170E+02	  0.043446895	7.323600E+01
119	  0.043647297	-4.708000E+00	  0.043647297	1.366200E+01	  0.043647297	1.590730E+02	  0.043647297	6.602800E+01
120	  0.043847695	-4.758000E+00	  0.043847695	1.169600E+01	  0.043847695	1.648210E+02	  0.043847695	5.803900E+01
121	  0.044048097	-4.809000E+00	  0.044048097	9.730000E+00	  0.044048097	1.696800E+02	  0.044048097	4.924500E+01
122	  0.044248499	-4.861000E+00	  0.044248499	7.783000E+00	  0.044248499	1.733740E+02	  0.044248499	3.984100E+01
123	  0.044448901	-4.910000E+00	  0.044448901	5.843000E+00	  0.044448901	1.760070E+02	  0.044448901	3.006900E+01
124	  0.044649299	-4.957000E+00	  0.044649299	3.903000E+00	  0.044649299	1.774840E+02	  0.044649299	2.006100E+01
125	  0.044849701	-5.000000E+00	  0.044849701	1.966000E+00	  0.044849701	1.778400E+02	  0.044849701	1.003500E+01
126	  0.045050103	-5.045000E+00	  0.045050103	2.900000E-02	  0.045050103	1.769700E+02	  0.045050103	1.480000E-01
127	  0.045250501	-5.085000E+00	  0.045250501	-1.875000E+00	  0.045250501	1.751050E+02	  0.045250501	-9.251000E+00
128	  0.045450903	-5.127000E+00	  0.045450903	-3.761000E+00	  0.045450903	1.722290E+02	  0.045450903	-1.807500E+01
129	  0.045651305	-5.171000E+00	  0.045651305	-5.652000E+00	  0.045651305	1.684000E+02	  0.045651305	-2.627800E+01
130	  0.045851704	-5.213000E+00	  0.045851704	-7.536000E+00	  0.045851704	1.639470E+02	  0.045851704	-3.376000E+01
131	  0.046052106	-5.253000E+00	  0.046052106	-9.418000E+00	  0.046052106	1.589700E+02	  0.046052106	-4.049200E+01
132	  0.046252504	-5.295000E+00	  0.046252504	-1.126800E+01	  0.046252504	1.536310E+02	  0.046252504	-4.632100E+01
133	  0.046452906	-5.334000E+00	  0.046452906	-1.313400E+01	  0.046452906	1.480140E+02	  0.046452906	-5.147000E+01
134	  0.046653304	-5.368000E+00	  0.046653304	-1.500600E+01	  0.046653304	1.422940E+02	  0.046653304	-5.597700E+01
135	  0.046853706	-5.403000E+00	  0.046853706	-1.684500E+01	  0.046853706	1.365650E+02	  0.046853706	-5.968300E+01
136	  0.047054108	-5.438000E+00	  0.047054108	-1.867900E+01	  0.047054108	1.308630E+02	  0.047054108	-6.276200E+01
137	  0.047254506	-5.471000E+00	  0.047254506	-2.050300E+01	  0.047254506	1.252650E+02	  0.047254506	-6.524800E+01
138	  0.047454908	-5.501000E+00	  0.047454908	-2.231000E+01	  0.047454908	1.198580E+02	  0.047454908	-6.725200E+01
139	  0.047655310	-5.531000E+00	  0.047655310	-2.408100E+01	  0.047655310	1.146960E+02	  0.047655310	-6.874200E+01
140	  0.047855709	-5.561000E+00	  0.047855709	-2.585500E+01	  0.047855709	1.096970E+02	  0.047855709	-6.983700E+01
141	  0.048056111	-5.592000E+00	  0.048056111	-2.762400E+01	  0.048056111	1.049020E+02	  0.048056111	-7.056200E+01
142	  0.048256513	-5.620000E+00	  0.048256513	-2.936900E+01	  0.048256513	1.003770E+02	  0.048256513	-7.101100E+01
143	  0.048456915	-5.651000E+00	  0.048456915	-3.110600E+01	  0.048456915	9.606900E+01	  0.048456915	-7.115900E+01
144	  0.048657313	-5.676000E+00	  0.048657313	-3.286800E+01	  0.048657313	9.191800E+01	  0.048657313	-7.115500E+01
145	  0.048857715	-5.702000E+00	  0.048857715	-3.460300E+01	  0.048857715	8.803100E+01	  0.048857715	-7.093600E+01
146	  0.049058117	-5.726000E+00	  0.049058117	-3.633000E+01	  0.049058117	8.435600E+01	  0.049058117	-7.058100E+01
147	  0.049258515	-5.749000E+00	  0.049258515	-3.801800E+01	  0.049258515	8.094800E+01	  0.049258515	-7.008900E+01
148	  0.049458917	-5.772000E+00	  0.049458917	-3.973400E+01	  0.049458917	7.766100E+01	  0.049458917	-6.946900E+01
149	  0.049659319	-5.797000E+00	  0.049659319	-4.141300E+01	  0.049659319	7.462000E+01	  0.049659319	-6.873600E+01
150	  0.049859721	-5.818000E+00	  0.049859721	-4.310700E+01	  0.049859721	7.170700E+01	  0.049859721	-6.795800E+01
151	  0.050060119	-5.837000E+00	  0.050060119	-4.478500E+01	  0.050060119	6.897300E+01	  0.050060119	-6.712500E+01
152	  0.050260521	-5.857000E+00	  0.050260521	-4.646800E+01	  0.050260521	6.637500E+01	  0.050260521	-6.622300E+01
153	  0.050460923	-5.873000E+00	  0.050460923	-4.816200E+01	  0.050460923	6.389100E+01	  0.050460923	-6.529700E+01
154	  0.050661322	-5.885000E+00	  0.050661322	-4.979800E+01	  0.050661322	6.160700E+01	  0.050661322	-6.439400E+01
155	  0.050861724	-5.896000E+00	  0.050861724	-5.144600E+01	  0.050861724	5.941800E+01	  0.050861724	-6.345700E+01
156	  0.051062126	-5.911000E+00	  0.051062126	-5.306300E+01	  0.051062126	5.739500E+01	  0.051062126	-6.246600E+01
157	  0.051262524	-5.924000E+00	  0.051262524	-5.463300E+01	  0.051262524	5.552300E+01	  0.051262524	-6.150200E+01
158	  0.051462926	-5.938000E+00	  0.051462926	-5.619600E+01	  0.051462926	5.375800E+01	  0.051462926	-6.050700E+01
159	  0.051663328	-5.950000E+00	  0.051663328	-5.774600E+01	  0.051663328	5.208400E+01	  0.051663328	-5.952900E+01
160	  0.051863730	-5.963000E+00	  0.051863730	-5.930000E+01	  0.051863730	5.049200E+01	  0.051863730	-5.852900E+01
161	  0.052064128	-5.976000E+00	  0.052064128	-6.086300E+01	  0.052064128	4.897000E+01	  0.052064128	-5.751400E+01
162	  0.052264530	-5.991000E+00	  0.052264530	-6.242000E+01	  0.052264530	4.753300E+01	  0.052264530	-5.649000E+01
163	  0.052464932	-6.007000E+00	  0.052464932	-6.398200E+01	  0.052464932	4.616800E+01	  0.052464932	-5.545500E+01
164	  0.052665330	-6.024000E+00	  0.052665330	-6.554200E+01	  0.052665330	4.487200E+01	  0.052665330	-5.442200E+01
165	  0.052865732	-6.033000E+00	  0.052865732	-6.709700E+01	  0.052865732	4.361400E+01	  0.052865732	-5.343400E+01
166	  0.053066134	-6.045000E+00	  0.053066134	-6.861700E+01	  0.053066134	4.245100E+01	  0.053066134	-5.245800E+01
167	  0.053266536	-6.052000E+00	  0.053266536	-7.019600E+01	  0.053266536	4.128200E+01	  0.053266536	-5.146900E+01
168	  0.053466935	-6.062000E+00	  0.053466935	-7.173100E+01	  0.053466935	4.020600E+01	  0.053466935	-5.050300E+01
169	  0.053667337	-6.064000E+00	  0.053667337	-7.326200E+01	  0.053667337	3.915300E+01	  0.053667337	-4.957700E+01
170	  0.053867739	-6.069000E+00	  0.053867739	-7.478900E+01	  0.053867739	3.816100E+01	  0.053867739	-4.864500E+01
171	  0.054068137	-6.069000E+00	  0.054068137	-7.626700E+01	  0.054068137	3.722400E+01	  0.054068137	-4.776500E+01
172	  0.054268539	-6.070000E+00	  0.054268539	-7.775100E+01	  0.054268539	3.632800E+01	  0.054268539	-4.688300E+01
173	  0.054468941	-6.077000E+00	  0.054468941	-7.919300E+01	  0.054468941	3.551500E+01	  0.054468941	-4.600800E+01
174	  0.054669339	-6.082000E+00	  0.054669339	-8.063300E+01	  0.054669339	3.472900E+01	  0.054669339	-4.515100E+01
175	  0.054869737	-6.084000E+00	  0.054869737	-8.207600E+01	  0.054869737	3.396100E+01	  0.054869737	-4.430800E+01
176	  0.055070139	-6.090000E+00	  0.055070139	-8.349200E+01	  0.055070139	3.325600E+01	  0.055070139	-4.347300E+01
177	  0.055270538	-6.096000E+00	  0.055270538	-8.487200E+01	  0.055270538	3.259700E+01	  0.055270538	-4.266400E+01
178	  0.055470940	-6.101000E+00	  0.055470940	-8.632600E+01	  0.055470940	3.192100E+01	  0.055470940	-4.182700E+01
179	  0.055671342	-6.104000E+00	  0.055671342	-8.773800E+01	  0.055671342	3.128800E+01	  0.055671342	-4.102500E+01
180	  0.055871744	-6.116000E+00	  0.055871744	-8.914200E+01	  0.055871744	3.071400E+01	  0.055871744	-4.020900E+01
181	  0.056072142	-6.117000E+00	  0.056072142	-9.054200E+01	  0.056072142	3.012700E+01	  0.056072142	-3.943300E+01
182	  0.056272544	-6.125000E+00	  0.056272544	-9.194400E+01	  0.056272544	2.958600E+01	  0.056272544	-3.864500E+01
183	  0.056472946	-6.126000E+00	  0.056472946	-9.335000E+01	  0.056472946	2.903800E+01	  0.056472946	-3.788100E+01
184	  0.056673344	-6.129000E+00	  0.056673344	-9.473600E+01	  0.056673344	2.852600E+01	  0.056673344	-3.712900E+01
185	  0.056873746	-6.129000E+00	  0.056873746	-9.612600E+01	  0.056873746	2.802400E+01	  0.056873746	-3.638700E+01
186	  0.057074148	-6.127000E+00	  0.057074148	-9.751900E+01	  0.057074148	2.752900E+01	  0.057074148	-3.565700E+01
187	  0.057274550	-6.121000E+00	  0.057274550	-9.889700E+01	  0.057274550	2.704600E+01	  0.057274550	-3.494800E+01
188	  0.057474948	-6.124000E+00	  0.057474948	-1.002370E+02	  0.057474948	2.662000E+01	  0.057474948	-3.424600E+01
189	  0.057675350	-6.125000E+00	  0.057675350	-1.015660E+02	  0.057675350	2.621100E+01	  0.057675350	-3.355800E+01
190	  0.057875752	-6.124000E+00	  0.057875752	-1.028730E+02	  0.057875752	2.581300E+01	  0.057875752	-3.289200E+01
191	  0.058076151	-6.122000E+00	  0.058076151	-1.041960E+02	  0.058076151	2.542200E+01	  0.058076151	-3.222500E+01
192	  0.058276553	-6.122000E+00	  0.058276553	-1.054480E+02	  0.058276553	2.506600E+01	  0.058276553	-3.159700E+01
193	  0.058476955	-6.125000E+00	  0.058476955	-1.067480E+02	  0.058476955	2.472500E+01	  0.058476955	-3.094300E+01
194	  0.058677353	-6.127000E+00	  0.058677353	-1.080470E+02	  0.058677353	2.438900E+01	  0.058677353	-3.029700E+01
195	  0.058877755	-6.129000E+00	  0.058877755	-1.093130E+02	  0.058877755	2.407600E+01	  0.058877755	-2.967200E+01
196	  0.059078157	-6.133000E+00	  0.059078157	-1.105980E+02	  0.059078157	2.377300E+01	  0.059078157	-2.904000E+01
197	  0.059278559	-6.137000E+00	  0.059278559	-1.118920E+02	  0.059278559	2.347800E+01	  0.059278559	-2.840900E+01
198	  0.059478957	-6.139000E+00	  0.059478957	-1.131880E+02	  0.059478957	2.318800E+01	  0.059478957	-2.778500E+01
199	  0.059679359	-6.142000E+00	  0.059679359	-1.144370E+02	  0.059679359	2.292200E+01	  0.059679359	-2.718700E+01
200	  0.059879761	-6.144000E+00	  0.059879761	-1.157100E+02	  0.059879761	2.265600E+01	  0.059879761	-2.658300E+01
201	  0.060080159	-6.142000E+00	  0.060080159	-1.169690E+02	  0.060080159	2.238900E+01	  0.060080159	-2.599600E+01
202	  0.060280561	-6.145000E+00	  0.060280561	-1.182410E+02	  0.060280561	2.214600E+01	  0.060280561	-2.540000E+01
203	  0.060480963	-6.144000E+00	  0.060480963	-1.194940E+02	  0.060480963	2.189900E+01	  0.060480963	-2.482400E+01
204	  0.060681365	-6.144000E+00	  0.060681365	-1.207410E+02	  0.060681365	2.166800E+01	  0.060681365	-2.425100E+01
205	  0.060881764	-6.142000E+00	  0.060881764	-1.219630E+02	  0.060881764	2.144200E+01	  0.060881764	-2.369700E+01
206	  0.061082166	-6.141000E+00	  0.061082166	-1.231830E+02	  0.061082166	2.122600E+01	  0.061082166	-2.314600E+01
207	  0.061282568	-6.142000E+00	  0.061282568	-1.243870E+02	  0.061282568	2.102600E+01	  0.061282568	-2.260300E+01
208	  0.061482966	-6.141000E+00	  0.061482966	-1.255650E+02	  0.061482966	2.082900E+01	  0.061482966	-2.207800E+01
209	  0.061683368	-6.138000E+00	  0.061683368	-1.267380E+02	  0.061683368	2.063700E+01	  0.061683368	-2.155900E+01
210	  0.061883770	-6.137000E+00	  0.061883770	-1.278990E+02	  0.061883770	2.045700E+01	  0.061883770	-2.104700E+01
211	  0.062084168	-6.139000E+00	  0.062084168	-1.290500E+02	  0.062084168	2.029100E+01	  0.062084168	-2.054000E+01
212	  0.062284570	-6.141000E+00	  0.062284570	-1.302430E+02	  0.062284570	2.012800E+01	  0.062284570	-2.001600E+01
213	  0.062484972	-6.134000E+00	  0.062484972	-1.313290E+02	  0.062484972	1.995600E+01	  0.062484972	-1.955200E+01
214	  0.062685370	-6.141000E+00	  0.062685370	-1.325090E+02	  0.062685370	1.981800E+01	  0.062685370	-1.903500E+01
215	  0.062885776	-6.143000E+00	  0.062885776	-1.336560E+02	  0.062885776	1.967600E+01	  0.062885776	-1.854000E+01
216	  0.063086174	-6.148000E+00	  0.063086174	-1.348230E+02	  0.063086174	1.954200E+01	  0.063086174	-1.803700E+01
217	  0.063286573	-6.147000E+00	  0.063286573	-1.359550E+02	  0.063286573	1.940200E+01	  0.063286573	-1.755700E+01
218	  0.063486971	-6.149000E+00	  0.063486971	-1.371300E+02	  0.063486971	1.927200E+01	  0.063486971	-1.705700E+01
219	  0.063687377	-6.150000E+00	  0.063687377	-1.382740E+02	  0.063687377	1.914500E+01	  0.063687377	-1.657500E+01
220	  0.063887775	-6.150000E+00	  0.063887775	-1.394030E+02	  0.063887775	1.902200E+01	  0.063887775	-1.610100E+01
221	  0.064088173	-6.146000E+00	  0.064088173	-1.405680E+02	  0.064088173	1.888900E+01	  0.064088173	-1.561800E+01
222	  0.064288579	-6.151000E+00	  0.064288579	-1.416980E+02	  0.064288579	1.878800E+01	  0.064288579	-1.514500E+01
223	  0.064488977	-6.147000E+00	  0.064488977	-1.428120E+02	  0.064488977	1.867000E+01	  0.064488977	-1.468600E+01
224	  0.064689375	-6.149000E+00	  0.064689375	-1.438760E+02	  0.064689375	1.857400E+01	  0.064689375	-1.424600E+01
225	  0.064889781	-6.151000E+00	  0.064889781	-1.450060E+02	  0.064889781	1.847600E+01	  0.064889781	-1.378100E+01
226	  0.065090179	-6.150000E+00	  0.065090179	-1.460670E+02	  0.065090179	1.838100E+01	  0.065090179	-1.334700E+01
227	  0.065290578	-6.154000E+00	  0.065290578	-1.471550E+02	  0.065290578	1.830200E+01	  0.065290578	-1.290100E+01
228	  0.065490983	-6.158000E+00	  0.065490983	-1.482520E+02	  0.065490983	1.822500E+01	  0.065490983	-1.245400E+01
229	  0.065691382	-6.157000E+00	  0.065691382	-1.493540E+02	  0.065691382	1.813500E+01	  0.065691382	-1.200800E+01
230	  0.065891780	-6.161000E+00	  0.065891780	-1.504360E+02	  0.065891780	1.806500E+01	  0.065891780	-1.157000E+01
231	  0.066092186	-6.164000E+00	  0.066092186	-1.514870E+02	  0.066092186	1.799700E+01	  0.066092186	-1.114600E+01
232	  0.066292584	-6.164000E+00	  0.066292584	-1.525470E+02	  0.066292584	1.792700E+01	  0.066292584	-1.072100E+01
233	  0.066492982	-6.167000E+00	  0.066492982	-1.536310E+02	  0.066492982	1.786300E+01	  0.066492982	-1.028600E+01
234	  0.066693388	-6.165000E+00	  0.066693388	-1.546680E+02	  0.066693388	1.779200E+01	  0.066693388	-9.874000E+00
235	  0.066893786	-6.168000E+00	  0.066893786	-1.557370E+02	  0.066893786	1.773600E+01	  0.066893786	-9.447000E+00
236	  0.067094192	-6.170000E+00	  0.067094192	-1.567880E+02	  0.067094192	1.768000E+01	  0.067094192	-9.030000E+00
237	  0.067294590	-6.172000E+00	  0.067294590	-1.578460E+02	  0.067294590	1.762900E+01	  0.067294590	-8.611000E+00
238	  0.067494988	-6.175000E+00	  0.067494988	-1.588550E+02	  0.067494988	1.758500E+01	  0.067494988	-8.211000E+00
239	  0.067695394	-6.180000E+00	  0.067695394	-1.598990E+02	  0.067695394	1.754500E+01	  0.067695394	-7.799000E+00
240	  0.067895792	-6.181000E+00	  0.067895792	-1.609570E+02	  0.067895792	1.750000E+01	  0.067895792	-7.383000E+00
241	  0.068096191	-6.186000E+00	  0.068096191	-1.619780E+02	  0.068096191	1.746900E+01	  0.068096191	-6.982000E+00
242	  0.068296596	-6.187000E+00	  0.068296596	-1.630150E+02	  0.068296596	1.742900E+01	  0.068296596	-6.575000E+00
243	  0.068496995	-6.188000E+00	  0.068496995	-1.639860E+02	  0.068496995	1.739200E+01	  0.068496995	-6.196000E+00
244	  0.068697393	-6.194000E+00	  0.068697393	-1.650030E+02	  0.068697393	1.737100E+01	  0.068697393	-5.798000E+00
245	  0.068897791	-6.194000E+00	  0.068897791	-1.659890E+02	  0.068897791	1.733800E+01	  0.068897791	-5.414000E+00
246	  0.069098189	-6.197000E+00	  0.069098189	-1.669910E+02	  0.069098189	1.731400E+01	  0.069098189	-5.024000E+00
247	  0.069298595	-6.203000E+00	  0.069298595	-1.679850E+02	  0.069298595	1.730000E+01	  0.069298595	-4.637000E+00
248	  0.069498993	-6.209000E+00	  0.069498993	-1.689930E+02	  0.069498993	1.728700E+01	  0.069498993	-4.245000E+00
249	  0.069699399	-6.214000E+00	  0.069699399	-1.699880E+02	  0.069699399	1.727600E+01	  0.069699399	-3.860000E+00
250	  0.069899797	-6.219000E+00	  0.069899797	-1.709700E+02	  0.069899797	1.726800E+01	  0.069899797	-3.479000E+00
251	  0.070100196	-6.226000E+00	  0.070100196	-1.719580E+02	  0.070100196	1.726700E+01	  0.070100196	-3.097000E+00
252	  0.070300601	-6.231000E+00	  0.070300601	-1.729510E+02	  0.070300601	1.726100E+01	  0.070300601	-2.713000E+00
253	  0.070501000	-6.231000E+00	  0.070501000	-1.739170E+02	  0.070501000	1.724600E+01	  0.070501000	-2.341000E+00
254	  0.070701398	-6.237000E+00	  0.070701398	-1.748940E+02	  0.070701398	1.724800E+01	  0.070701398	-1.964000E+00
255	  0.070901804	-6.244000E+00	  0.070901804	-1.758660E+02	  0.070901804	1.725600E+01	  0.070901804	-1.589000E+00
256	  0.071102202	-6.251000E+00	  0.071102202	-1.768640E+02	  0.071102202	1.726500E+01	  0.071102202	-1.205000E+00
257	  0.071302600	-6.262000E+00	  0.071302600	-1.778020E+02	  0.071302600	1.728900E+01	  0.071302600	-8.440000E-01
258	  0.071503006	-6.266000E+00	  0.071503006	-1.787540E+02	  0.071503006	1.729500E+01	  0.071503006	-4.780000E-01
259	  0.071703404	-6.273000E+00	  0.071703404	-1.796820E+02	  0.071703404	1.730900E+01	  0.071703404	-1.210000E-01
260	  0.071903802	-6.277000E+00	  0.071903802	1.793370E+02	  0.071903802	1.732100E+01	  0.071903802	2.540000E-01
261	  0.072104208	-6.284000E+00	  0.072104208	1.784030E+02	  0.072104208	1.734000E+01	  0.072104208	6.120000E-01
262	  0.072304606	-6.295000E+00	  0.072304606	1.774370E+02	  0.072304606	1.737200E+01	  0.072304606	9.830000E-01
263	  0.072505005	-6.299000E+00	  0.072505005	1.765100E+02	  0.072505005	1.739100E+01	  0.072505005	1.338000E+00
264	  0.072705410	-6.308000E+00	  0.072705410	1.755600E+02	  0.072705410	1.742200E+01	  0.072705410	1.702000E+00
265	  0.072905809	-6.312000E+00	  0.072905809	1.746350E+02	  0.072905809	1.744300E+01	  0.072905809	2.058000E+00
266	  0.073106214	-6.320000E+00	  0.073106214	1.737200E+02	  0.073106214	1.747400E+01	  0.073106214	2.408000E+00
267	  0.073306613	-6.329000E+00	  0.073306613	1.728080E+02	  0.073306613	1.751100E+01	  0.073306613	2.758000E+00
268	  0.073507011	-6.336000E+00	  0.073507011	1.718550E+02	  0.073507011	1.754700E+01	  0.073507011	3.123000E+00
269	  0.073707417	-6.342000E+00	  0.073707417	1.709480E+02	  0.073707417	1.758000E+01	  0.073707417	3.471000E+00
270	  0.073907815	-6.351000E+00	  0.073907815	1.700440E+02	  0.073907815	1.762400E+01	  0.073907815	3.817000E+00
271	  0.074108213	-6.356000E+00	  0.074108213	1.691430E+02	  0.074108213	1.765800E+01	  0.074108213	4.163000E+00
272	  0.074308619	-6.368000E+00	  0.074308619	1.682370E+02	  0.074308619	1.771200E+01	  0.074308619	4.510000E+00
273	  0.074509017	-6.371000E+00	  0.074509017	1.673180E+02	  0.074509017	1.774700E+01	  0.074509017	4.863000E+00
274	  0.074709415	-6.381000E+00	  0.074709415	1.664570E+02	  0.074709415	1.780100E+01	  0.074709415	5.193000E+00
275	  0.074909821	-6.392000E+00	  0.074909821	1.655620E+02	  0.074909821	1.785900E+01	  0.074909821	5.536000E+00
276	  0.075110219	-6.403000E+00	  0.075110219	1.646560E+02	  0.075110219	1.791700E+01	  0.075110219	5.883000E+00
277	  0.075310618	-6.410000E+00	  0.075310618	1.638270E+02	  0.075310618	1.796800E+01	  0.075310618	6.202000E+00
278	  0.075511023	-6.422000E+00	  0.075511023	1.629400E+02	  0.075511023	1.803200E+01	  0.075511023	6.542000E+00
279	  0.075711422	-6.435000E+00	  0.075711422	1.620550E+02	  0.075711422	1.810500E+01	  0.075711422	6.881000E+00
280	  0.075911827	-6.445000E+00	  0.075911827	1.611670E+02	  0.075911827	1.817000E+01	  0.075911827	7.222000E+00
281	  0.076112226	-6.456000E+00	  0.076112226	1.603010E+02	  0.076112226	1.823900E+01	  0.076112226	7.554000E+00
282	  0.076312624	-6.471000E+00	  0.076312624	1.594320E+02	  0.076312624	1.832000E+01	  0.076312624	7.887000E+00
283	  0.076513030	-6.478000E+00	  0.076513030	1.585440E+02	  0.076513030	1.838400E+01	  0.076513030	8.230000E+00
284	  0.076713428	-6.488000E+00	  0.076713428	1.576560E+02	  0.076713428	1.845600E+01	  0.076713428	8.573000E+00
285	  0.076913826	-6.501000E+00	  0.076913826	1.568080E+02	  0.076913826	1.853900E+01	  0.076913826	8.898000E+00
286	  0.077114232	-6.513000E+00	  0.077114232	1.559670E+02	  0.077114232	1.861700E+01	  0.077114232	9.222000E+00
287	  0.077314630	-6.521000E+00	  0.077314630	1.551210E+02	  0.077314630	1.869100E+01	  0.077314630	9.550000E+00
288	  0.077515028	-6.532000E+00	  0.077515028	1.542480E+02	  0.077515028	1.877600E+01	  0.077515028	9.887000E+00
289	  0.077715434	-6.544000E+00	  0.077715434	1.534040E+02	  0.077715434	1.886100E+01	  0.077715434	1.021300E+01
290	  0.077915832	-6.559000E+00	  0.077915832	1.525600E+02	  0.077915832	1.895800E+01	  0.077915832	1.053700E+01
291	  0.078116231	-6.576000E+00	  0.078116231	1.516970E+02	  0.078116231	1.906300E+01	  0.078116231	1.086900E+01
292	  0.078316636	-6.589000E+00	  0.078316636	1.508510E+02	  0.078316636	1.916000E+01	  0.078316636	1.119500E+01
293	  0.078517035	-6.607000E+00	  0.078517035	1.500130E+02	  0.078517035	1.927000E+01	  0.078517035	1.151700E+01
294	  0.078717433	-6.618000E+00	  0.078717433	1.491760E+02	  0.078717433	1.936400E+01	  0.078717433	1.184200E+01
295	  0.078917839	-6.632000E+00	  0.078917839	1.483460E+02	  0.078917839	1.946900E+01	  0.078917839	1.216300E+01
296	  0.079118237	-6.648000E+00	  0.079118237	1.475130E+02	  0.079118237	1.958000E+01	  0.079118237	1.248400E+01
297	  0.079318643	-6.663000E+00	  0.079318643	1.466740E+02	  0.079318643	1.969300E+01	  0.079318643	1.280900E+01
298	  0.079519041	-6.680000E+00	  0.079519041	1.458710E+02	  0.079519041	1.980900E+01	  0.079519041	1.311800E+01
299	  0.079719439	-6.695000E+00	  0.079719439	1.450420E+02	  0.079719439	1.992600E+01	  0.079719439	1.343900E+01
300	  0.079919845	-6.712000E+00	  0.079919845	1.441890E+02	  0.079919845	2.004900E+01	  0.079919845	1.376900E+01
301	  0.080120243	-6.724000E+00	  0.080120243	1.433700E+02	  0.080120243	2.016200E+01	  0.080120243	1.408800E+01
302	  0.080320641	-6.742000E+00	  0.080320641	1.425650E+02	  0.080320641	2.029100E+01	  0.080320641	1.439800E+01
303	  0.080521047	-6.757000E+00	  0.080521047	1.417590E+02	  0.080521047	2.041300E+01	  0.080521047	1.471100E+01
304	  0.080721445	-6.777000E+00	  0.080721445	1.409380E+02	  0.080721445	2.055400E+01	  0.080721445	1.502700E+01
305	  0.080921844	-6.793000E+00	  0.080921844	1.401710E+02	  0.080921844	2.067900E+01	  0.080921844	1.532400E+01
306	  0.081122249	-6.810000E+00	  0.081122249	1.393810E+02	  0.081122249	2.081300E+01	  0.081122249	1.563000E+01
307	  0.081322648	-6.825000E+00	  0.081322648	1.385670E+02	  0.081322648	2.094800E+01	  0.081322648	1.594700E+01
308	  0.081523046	-6.844000E+00	  0.081523046	1.378050E+02	  0.081523046	2.108900E+01	  0.081523046	1.624000E+01
309	  0.081723452	-6.866000E+00	  0.081723452	1.370120E+02	  0.081723452	2.124400E+01	  0.081723452	1.654400E+01
310	  0.081923850	-6.883000E+00	  0.081923850	1.362880E+02	  0.081923850	2.137800E+01	  0.081923850	1.682400E+01
311	  0.082124248	-6.907000E+00	  0.082124248	1.355140E+02	  0.082124248	2.154200E+01	  0.082124248	1.711800E+01
312	  0.082324654	-6.929000E+00	  0.082324654	1.347770E+02	  0.082324654	2.169600E+01	  0.082324654	1.739900E+01
313	  0.082525052	-6.953000E+00	  0.082525052	1.340450E+02	  0.082525052	2.185900E+01	  0.082525052	1.767600E+01
314	  0.082725458	-6.972000E+00	  0.082725458	1.332710E+02	  0.082725458	2.201600E+01	  0.082725458	1.797400E+01
315	  0.082925856	-7.000000E+00	  0.082925856	1.324810E+02	  0.082925856	2.220100E+01	  0.082925856	1.827200E+01
316	  0.083126254	-7.020000E+00	  0.083126254	1.317250E+02	  0.083126254	2.236300E+01	  0.083126254	1.856200E+01
317	  0.083326660	-7.046000E+00	  0.083326660	1.309640E+02	  0.083326660	2.254600E+01	  0.083326660	1.884800E+01
318	  0.083527058	-7.066000E+00	  0.083527058	1.302330E+02	  0.083527058	2.270900E+01	  0.083527058	1.912800E+01
319	  0.083727457	-7.088000E+00	  0.083727457	1.294620E+02	  0.083727457	2.288500E+01	  0.083727457	1.942300E+01
320	  0.083927862	-7.113000E+00	  0.083927862	1.287430E+02	  0.083927862	2.306600E+01	  0.083927862	1.969200E+01
321	  0.084128261	-7.133000E+00	  0.084128261	1.280060E+02	  0.084128261	2.323900E+01	  0.084128261	1.997400E+01
322	  0.084328659	-7.154000E+00	  0.084328659	1.273140E+02	  0.084328659	2.341000E+01	  0.084328659	2.023600E+01
323	  0.084529065	-7.179000E+00	  0.084529065	1.265980E+02	  0.084529065	2.359800E+01	  0.084529065	2.050400E+01
324	  0.084729463	-7.203000E+00	  0.084729463	1.258380E+02	  0.084729463	2.379300E+01	  0.084729463	2.079000E+01
325	  0.084929861	-7.225000E+00	  0.084929861	1.251340E+02	  0.084929861	2.397400E+01	  0.084929861	2.105600E+01
326	  0.085130267	-7.246000E+00	  0.085130267	1.244140E+02	  0.085130267	2.416100E+01	  0.085130267	2.132900E+01
327	  0.085330658	-7.273000E+00	  0.085330658	1.237620E+02	  0.085330658	2.435300E+01	  0.085330658	2.156700E+01
328	  0.085531056	-7.297000E+00	  0.085531056	1.230280E+02	  0.085531056	2.455500E+01	  0.085531056	2.184100E+01
329	  0.085731462	-7.322000E+00	  0.085731462	1.223540E+02	  0.085731462	2.475200E+01	  0.085731462	2.208900E+01
330	  0.085931860	-7.344000E+00	  0.085931860	1.216680E+02	  0.085931860	2.494300E+01	  0.085931860	2.234600E+01
331	  0.086132258	-7.373000E+00	  0.086132258	1.210010E+02	  0.086132258	2.515400E+01	  0.086132258	2.258500E+01
332	  0.086332664	-7.398000E+00	  0.086332664	1.202680E+02	  0.086332664	2.536900E+01	  0.086332664	2.285700E+01
333	  0.086533062	-7.421000E+00	  0.086533062	1.195730E+02	  0.086533062	2.557300E+01	  0.086533062	2.311400E+01
334	  0.086733460	-7.444000E+00	  0.086733460	1.188930E+02	  0.086733460	2.577700E+01	  0.086733460	2.336500E+01
335	  0.086933866	-7.466000E+00	  0.086933866	1.181930E+02	  0.086933866	2.598800E+01	  0.086933866	2.362500E+01
336	  0.087134264	-7.489000E+00	  0.087134264	1.174920E+02	  0.087134264	2.620100E+01	  0.087134264	2.388400E+01
337	  0.087334670	-7.516000E+00	  0.087334670	1.168470E+02	  0.087334670	2.641700E+01	  0.087334670	2.411400E+01
338	  0.087535068	-7.536000E+00	  0.087535068	1.161970E+02	  0.087535068	2.661800E+01	  0.087535068	2.435500E+01
339	  0.087735467	-7.561000E+00	  0.087735467	1.155360E+02	  0.087735467	2.683900E+01	  0.087735467	2.459200E+01
340	  0.087935872	-7.584000E+00	  0.087935872	1.148880E+02	  0.087935872	2.705200E+01	  0.087935872	2.482600E+01
341	  0.088136271	-7.607000E+00	  0.088136271	1.142370E+02	  0.088136271	2.726800E+01	  0.088136271	2.506200E+01
342	  0.088336669	-7.630000E+00	  0.088336669	1.135800E+02	  0.088336669	2.749000E+01	  0.088336669	2.529800E+01
343	  0.088537075	-7.654000E+00	  0.088537075	1.129740E+02	  0.088537075	2.770500E+01	  0.088537075	2.551100E+01
344	  0.088737473	-7.680000E+00	  0.088737473	1.123580E+02	  0.088737473	2.792800E+01	  0.088737473	2.572500E+01
345	  0.088937871	-7.705000E+00	  0.088937871	1.117650E+02	  0.088937871	2.814700E+01	  0.088937871	2.593000E+01
346	  0.089138277	-7.733000E+00	  0.089138277	1.111640E+02	  0.089138277	2.838000E+01	  0.089138277	2.613100E+01
347	  0.089338675	-7.760000E+00	  0.089338675	1.105340E+02	  0.089338675	2.861800E+01	  0.089338675	2.634600E+01
348	  0.089539073	-7.794000E+00	  0.089539073	1.099260E+02	  0.089539073	2.887300E+01	  0.089539073	2.653800E+01
349	  0.089739479	-7.819000E+00	  0.089739479	1.093110E+02	  0.089739479	2.910600E+01	  0.089739479	2.674900E+01
350	  0.089939877	-7.846000E+00	  0.089939877	1.087120E+02	  0.089939877	2.934300E+01	  0.089939877	2.694700E+01
351	  0.090140276	-7.874000E+00	  0.090140276	1.081110E+02	  0.090140276	2.958500E+01	  0.090140276	2.714400E+01
352	  0.090340681	-7.905000E+00	  0.090340681	1.075110E+02	  0.090340681	2.984000E+01	  0.090340681	2.733300E+01
353	  0.090541080	-7.931000E+00	  0.090541080	1.068910E+02	  0.090541080	3.008900E+01	  0.090541080	2.753800E+01
354	  0.090741485	-7.963000E+00	  0.090741485	1.062960E+02	  0.090741485	3.034700E+01	  0.090741485	2.772200E+01
355	  0.090941884	-7.986000E+00	  0.090941884	1.057210E+02	  0.090941884	3.058000E+01	  0.090941884	2.791200E+01
356	  0.091142282	-8.012000E+00	  0.091142282	1.051270E+02	  0.091142282	3.082900E+01	  0.091142282	2.810300E+01
357	  0.091342688	-8.039000E+00	  0.091342688	1.045900E+02	  0.091342688	3.106600E+01	  0.091342688	2.826700E+01
358	  0.091543086	-8.066000E+00	  0.091543086	1.040110E+02	  0.091543086	3.131600E+01	  0.091543086	2.844900E+01
359	  0.091743484	-8.089000E+00	  0.091743484	1.034410E+02	  0.091743484	3.155800E+01	  0.091743484	2.863100E+01
360	  0.091943890	-8.115000E+00	  0.091943890	1.028900E+02	  0.091943890	3.180200E+01	  0.091943890	2.880000E+01
361	  0.092144288	-8.140000E+00	  0.092144288	1.023400E+02	  0.092144288	3.204600E+01	  0.092144288	2.896900E+01
362	  0.092344686	-8.173000E+00	  0.092344686	1.018070E+02	  0.092344686	3.230700E+01	  0.092344686	2.911400E+01
363	  0.092545092	-8.202000E+00	  0.092545092	1.012960E+02	  0.092545092	3.255200E+01	  0.092545092	2.925600E+01
364	  0.092745490	-8.226000E+00	  0.092745490	1.007520E+02	  0.092745490	3.279800E+01	  0.092745490	2.942100E+01
365	  0.092945889	-8.257000E+00	  0.092945889	1.002540E+02	  0.092945889	3.304800E+01	  0.092945889	2.955000E+01
366	  0.093146294	-8.282000E+00	  0.093146294	9.970800E+01	  0.093146294	3.329900E+01	  0.093146294	2.971100E+01
367	  0.093346693	-8.312000E+00	  0.093346693	9.920500E+01	  0.093346693	3.355300E+01	  0.093346693	2.984200E+01
368	  0.093547091	-8.333000E+00	  0.093547091	9.870200E+01	  0.093547091	3.378600E+01	  0.093547091	2.999000E+01
369	  0.093747497	-8.359000E+00	  0.093747497	9.815100E+01	  0.093747497	3.404800E+01	  0.093747497	3.014700E+01
370	  0.093947895	-8.386000E+00	  0.093947895	9.766000E+01	  0.093947895	3.429600E+01	  0.093947895	3.027400E+01
371	  0.094148301	-8.412000E+00	  0.094148301	9.715200E+01	  0.094148301	3.454700E+01	  0.094148301	3.041100E+01
372	  0.094348699	-8.435000E+00	  0.094348699	9.668700E+01	  0.094348699	3.477900E+01	  0.094348699	3.053400E+01
373	  0.094549097	-8.455000E+00	  0.094549097	9.621600E+01	  0.094549097	3.500500E+01	  0.094549097	3.066800E+01
374	  0.094749503	-8.482000E+00	  0.094749503	9.573100E+01	  0.094749503	3.525700E+01	  0.094749503	3.078800E+01
375	  0.094949901	-8.496000E+00	  0.094949901	9.528200E+01	  0.094949901	3.546200E+01	  0.094949901	3.092700E+01
376	  0.095150299	-8.518000E+00	  0.095150299	9.476400E+01	  0.095150299	3.571700E+01	  0.095150299	3.106900E+01
377	  0.095350705	-8.541000E+00	  0.095350705	9.434200E+01	  0.095350705	3.593900E+01	  0.095350705	3.117100E+01
378	  0.095551103	-8.560000E+00	  0.095551103	9.390000E+01	  0.095551103	3.616200E+01	  0.095551103	3.128800E+01
379	  0.095751502	-8.579000E+00	  0.095751502	9.348800E+01	  0.095751502	3.637300E+01	  0.095751502	3.139400E+01
380	  0.095951907	-8.600000E+00	  0.095951907	9.303700E+01	  0.095951907	3.660400E+01	  0.095951907	3.151000E+01
381	  0.096152306	-8.620000E+00	  0.096152306	9.260500E+01	  0.096152306	3.682800E+01	  0.096152306	3.161900E+01
382	  0.096352704	-8.639000E+00	  0.096352704	9.217500E+01	  0.096352704	3.705000E+01	  0.096352704	3.172800E+01
383	  0.096553110	-8.654000E+00	  0.096553110	9.175600E+01	  0.096553110	3.726100E+01	  0.096553110	3.184200E+01
384	  0.096753508	-8.670000E+00	  0.096753508	9.133600E+01	  0.096753508	3.747500E+01	  0.096753508	3.195300E+01
385	  0.096953906	-8.689000E+00	  0.096953906	9.091300E+01	  0.096953906	3.770000E+01	  0.096953906	3.205500E+01
386	  0.097154312	-8.706000E+00	  0.097154312	9.047900E+01	  0.097154312	3.792500E+01	  0.097154312	3.216700E+01
387	  0.097354710	-8.721000E+00	  0.097354710	9.008800E+01	  0.097354710	3.812700E+01	  0.097354710	3.226900E+01
388	  0.097555116	-8.737000E+00	  0.097555116	8.965700E+01	  0.097555116	3.835100E+01	  0.097555116	3.237900E+01
389	  0.097755514	-8.751000E+00	  0.097755514	8.923400E+01	  0.097755514	3.856900E+01	  0.097755514	3.249300E+01
390	  0.097955912	-8.758000E+00	  0.097955912	8.879600E+01	  0.097955912	3.877800E+01	  0.097955912	3.263000E+01
391	  0.098156318	-8.764000E+00	  0.098156318	8.841800E+01	  0.098156318	3.896000E+01	  0.098156318	3.274800E+01
392	  0.098356716	-8.772000E+00	  0.098356716	8.798900E+01	  0.098356716	3.917000E+01	  0.098356716	3.288000E+01
393	  0.098557115	-8.780000E+00	  0.098557115	8.758200E+01	  0.098557115	3.937400E+01	  0.098557115	3.300000E+01
394	  0.098757520	-8.784000E+00	  0.098757520	8.718800E+01	  0.098757520	3.956300E+01	  0.098757520	3.312700E+01
395	  0.098957919	-8.788000E+00	  0.098957919	8.679300E+01	  0.098957919	3.975300E+01	  0.098957919	3.325500E+01
396	  0.099158317	-8.793000E+00	  0.099158317	8.637900E+01	  0.099158317	3.995600E+01	  0.099158317	3.338700E+01
397	  0.099358723	-8.799000E+00	  0.099358723	8.597100E+01	  0.099358723	4.016100E+01	  0.099358723	3.351200E+01
398	  0.099559121	-8.801000E+00	  0.099559121	8.558100E+01	  0.099559121	4.035100E+01	  0.099559121	3.364100E+01
399	  0.099759519	-8.802000E+00	  0.099759519	8.521200E+01	  0.099759519	4.052700E+01	  0.099759519	3.376800E+01
400	  0.099959925	-8.799000E+00	  0.099959925	8.480300E+01	  0.099959925	4.071700E+01	  0.099959925	3.391900E+01
401	  0.100160323	-8.795000E+00	  0.100160323	8.437200E+01	  0.100160323	4.091700E+01	  0.100160323	3.408200E+01
402	  0.100360721	-8.797000E+00	  0.100360721	8.395800E+01	  0.100360721	4.112300E+01	  0.100360721	3.422000E+01
403	  0.100561127	-8.798000E+00	  0.100561127	8.352600E+01	  0.100561127	4.133900E+01	  0.100561127	3.436500E+01
404	  0.100761525	-8.791000E+00	  0.100761525	8.318300E+01	  0.100761525	4.149400E+01	  0.100761525	3.450500E+01
405	  0.100961931	-8.793000E+00	  0.100961931	8.277700E+01	  0.100961931	4.170200E+01	  0.100961931	3.463800E+01
406	  0.101162329	-8.779000E+00	  0.101162329	8.237300E+01	  0.101162329	4.187500E+01	  0.101162329	3.482300E+01
407	  0.101362728	-8.781000E+00	  0.101362728	8.192900E+01	  0.101362728	4.210800E+01	  0.101362728	3.496600E+01
408	  0.101563133	-8.768000E+00	  0.101563133	8.152700E+01	  0.101563133	4.228700E+01	  0.101563133	3.514700E+01
409	  0.101763532	-8.761000E+00	  0.101763532	8.106900E+01	  0.101763532	4.250900E+01	  0.101763532	3.532900E+01
410	  0.101963930	-8.748000E+00	  0.101963930	8.069800E+01	  0.101963930	4.267600E+01	  0.101963930	3.549800E+01
411	  0.102164336	-8.741000E+00	  0.102164336	8.025400E+01	  0.102164336	4.289600E+01	  0.102164336	3.567300E+01
412	  0.102364734	-8.739000E+00	  0.102364734	7.975900E+01	  0.102364734	4.315600E+01	  0.102364734	3.584800E+01
413	  0.102565132	-8.721000E+00	  0.102565132	7.936100E+01	  0.102565132	4.333400E+01	  0.102565132	3.604300E+01
414	  0.102765530	-8.719000E+00	  0.102765530	7.891200E+01	  0.102765530	4.357600E+01	  0.102765530	3.620100E+01
415	  0.102965929	-8.696000E+00	  0.102965929	7.848100E+01	  0.102965929	4.376200E+01	  0.102965929	3.643200E+01
416	  0.103166327	-8.688000E+00	  0.103166327	7.800000E+01	  0.103166327	4.401400E+01	  0.103166327	3.662200E+01
417	  0.103366733	-8.667000E+00	  0.103366733	7.757700E+01	  0.103366733	4.420700E+01	  0.103366733	3.683900E+01
418	  0.103567131	-8.663000E+00	  0.103567131	7.704400E+01	  0.103567131	4.450300E+01	  0.103567131	3.703200E+01
419	  0.103767529	-8.646000E+00	  0.103767529	7.661300E+01	  0.103767529	4.471600E+01	  0.103767529	3.723700E+01
420	  0.103967935	-8.642000E+00	  0.103967935	7.612400E+01	  0.103967935	4.499400E+01	  0.103967935	3.741200E+01
421	  0.104168333	-8.616000E+00	  0.104168333	7.563600E+01	  0.104168333	4.522500E+01	  0.104168333	3.767400E+01
422	  0.104368731	-8.608000E+00	  0.104368731	7.509100E+01	  0.104368731	4.553500E+01	  0.104368731	3.788200E+01
423	  0.104569137	-8.598000E+00	  0.104569137	7.455700E+01	  0.104569137	4.583600E+01	  0.104569137	3.809800E+01
424	  0.104769535	-8.577000E+00	  0.104769535	7.402500E+01	  0.104769535	4.611700E+01	  0.104769535	3.835400E+01
425	  0.104969934	-8.557000E+00	  0.104969934	7.357500E+01	  0.104969934	4.635500E+01	  0.104969934	3.858000E+01
426	  0.105170339	-8.542000E+00	  0.105170339	7.300300E+01	  0.105170339	4.668300E+01	  0.105170339	3.882500E+01
427	  0.105370738	-8.528000E+00	  0.105370738	7.246000E+01	  0.105370738	4.700100E+01	  0.105370738	3.905400E+01
428	  0.105571143	-8.504000E+00	  0.105571143	7.186900E+01	  0.105571143	4.733100E+01	  0.105571143	3.934400E+01
429	  0.105771542	-8.489000E+00	  0.105771542	7.128700E+01	  0.105771542	4.768000E+01	  0.105771542	3.959400E+01
430	  0.105971940	-8.472000E+00	  0.105971940	7.079000E+01	  0.105971940	4.797500E+01	  0.105971940	3.982200E+01
431	  0.106172346	-8.451000E+00	  0.106172346	7.023100E+01	  0.106172346	4.830700E+01	  0.106172346	4.009000E+01
432	  0.106372744	-8.437000E+00	  0.106372744	6.965300E+01	  0.106372744	4.867200E+01	  0.106372744	4.032900E+01
433	  0.106573142	-8.413000E+00	  0.106573142	6.908600E+01	  0.106573142	4.901600E+01	  0.106573142	4.061100E+01
434	  0.106773548	-8.390000E+00	  0.106773548	6.845900E+01	  0.106773548	4.940700E+01	  0.106773548	4.091200E+01
435	  0.106973946	-8.372000E+00	  0.106973946	6.789000E+01	  0.106973946	4.977700E+01	  0.106973946	4.116400E+01
436	  0.107174344	-8.355000E+00	  0.107174344	6.731700E+01	  0.107174344	5.015600E+01	  0.107174344	4.141800E+01
437	  0.107374750	-8.338000E+00	  0.107374750	6.665800E+01	  0.107374750	5.060300E+01	  0.107374750	4.169500E+01
438	  0.107575148	-8.322000E+00	  0.107575148	6.612700E+01	  0.107575148	5.096800E+01	  0.107575148	4.192500E+01
439	  0.107775547	-8.304000E+00	  0.107775547	6.551600E+01	  0.107775547	5.139200E+01	  0.107775547	4.219100E+01
440	  0.107975952	-8.290000E+00	  0.107975952	6.488200E+01	  0.107975952	5.184900E+01	  0.107975952	4.244200E+01
441	  0.108176351	-8.273000E+00	  0.108176351	6.422600E+01	  0.108176351	5.232500E+01	  0.108176351	4.271100E+01
442	  0.108376749	-8.257000E+00	  0.108376749	6.360900E+01	  0.108376749	5.278200E+01	  0.108376749	4.296100E+01
443	  0.108577155	-8.239000E+00	  0.108577155	6.294200E+01	  0.108577155	5.328300E+01	  0.108577155	4.323600E+01
444	  0.108777553	-8.227000E+00	  0.108777553	6.232400E+01	  0.108777553	5.376300E+01	  0.108777553	4.346300E+01
445	  0.108977959	-8.206000E+00	  0.108977959	6.164300E+01	  0.108977959	5.428500E+01	  0.108977959	4.375800E+01
446	  0.109178357	-8.198000E+00	  0.109178357	6.095900E+01	  0.109178357	5.484400E+01	  0.109178357	4.397300E+01
447	  0.109378755	-8.182000E+00	  0.109378755	6.023800E+01	  0.109378755	5.543100E+01	  0.109378755	4.423700E+01
448	  0.109579161	-8.168000E+00	  0.109579161	5.957000E+01	  0.109579161	5.598500E+01	  0.109579161	4.447600E+01
449	  0.109779559	-8.150000E+00	  0.109779559	5.888800E+01	  0.109779559	5.655500E+01	  0.109779559	4.473700E+01
450	  0.109979957	-8.141000E+00	  0.109979957	5.815700E+01	  0.109979957	5.719200E+01	  0.109979957	4.495400E+01
451	  0.110180363	-8.125000E+00	  0.110180363	5.743700E+01	  0.110180363	5.782100E+01	  0.110180363	4.520300E+01
452	  0.110380761	-8.127000E+00	  0.110380761	5.670900E+01	  0.110380761	5.849200E+01	  0.110380761	4.534300E+01
453	  0.110581160	-8.105000E+00	  0.110581160	5.595100E+01	  0.110581160	5.917200E+01	  0.110581160	4.562300E+01
454	  0.110781565	-8.102000E+00	  0.110781565	5.523400E+01	  0.110781565	5.985000E+01	  0.110781565	4.577400E+01
455	  0.110981964	-8.100000E+00	  0.110981964	5.445400E+01	  0.110981964	6.060000E+01	  0.110981964	4.591600E+01
456	  0.111182362	-8.087000E+00	  0.111182362	5.373000E+01	  0.111182362	6.129500E+01	  0.111182362	4.611300E+01
457	  0.111382768	-8.078000E+00	  0.111382768	5.287200E+01	  0.111382768	6.214000E+01	  0.111382768	4.629900E+01
458	  0.111583166	-8.075000E+00	  0.111583166	5.211700E+01	  0.111583166	6.290100E+01	  0.111583166	4.641900E+01
459	  0.111783572	-8.069000E+00	  0.111783572	5.128500E+01	  0.111783572	6.375200E+01	  0.111783572	4.655100E+01
460	  0.111983970	-8.065000E+00	  0.111983970	5.045700E+01	  0.111983970	6.461400E+01	  0.111983970	4.666100E+01
461	  0.112184368	-8.059000E+00	  0.112184368	4.967700E+01	  0.112184368	6.543800E+01	  0.112184368	4.676100E+01
462	  0.112384774	-8.059000E+00	  0.112384774	4.883300E+01	  0.112384774	6.634600E+01	  0.112384774	4.681600E+01
463	  0.112585172	-8.059000E+00	  0.112585172	4.801600E+01	  0.112585172	6.723800E+01	  0.112585172	4.684800E+01
464	  0.112785570	-8.055000E+00	  0.112785570	4.715900E+01	  0.112785570	6.818700E+01	  0.112785570	4.689100E+01
465	  0.112985976	-8.058000E+00	  0.112985976	4.632400E+01	  0.112985976	6.912500E+01	  0.112985976	4.686800E+01
466	  0.113186374	-8.062000E+00	  0.113186374	4.547300E+01	  0.113186374	7.009300E+01	  0.113186374	4.681700E+01
467	  0.113386773	-8.064000E+00	  0.113386773	4.458000E+01	  0.113386773	7.112200E+01	  0.113386773	4.675800E+01
468	  0.113587178	-8.069000E+00	  0.113587178	4.370700E+01	  0.113587178	7.213900E+01	  0.113587178	4.664600E+01
469	  0.113787577	-8.076000E+00	  0.113787577	4.282200E+01	  0.113787577	7.317900E+01	  0.113787577	4.649500E+01
470	  0.113987975	-8.082000E+00	  0.113987975	4.194900E+01	  0.113987975	7.421700E+01	  0.113987975	4.633100E+01
471	  0.114188381	-8.085000E+00	  0.114188381	4.106000E+01	  0.114188381	7.528600E+01	  0.114188381	4.616400E+01
472	  0.114388779	-8.101000E+00	  0.114388779	4.019200E+01	  0.114388779	7.632200E+01	  0.114388779	4.586000E+01
473	  0.114589177	-8.114000E+00	  0.114589177	3.924500E+01	  0.114589177	7.746400E+01	  0.114589177	4.553800E+01
474	  0.114789583	-8.126000E+00	  0.114789583	3.834000E+01	  0.114789583	7.856200E+01	  0.114789583	4.520300E+01
475	  0.114989981	-8.139000E+00	  0.114989981	3.739400E+01	  0.114989981	7.971100E+01	  0.114989981	4.480300E+01
476	  0.115190387	-8.161000E+00	  0.115190387	3.644500E+01	  0.115190387	8.084800E+01	  0.115190387	4.430400E+01
477	  0.115390785	-8.179000E+00	  0.115390785	3.552200E+01	  0.115390785	8.195800E+01	  0.115390785	4.380100E+01
478	  0.115591183	-8.202000E+00	  0.115591183	3.454700E+01	  0.115591183	8.311600E+01	  0.115591183	4.319900E+01
479	  0.115791589	-8.227000E+00	  0.115791589	3.358300E+01	  0.115791589	8.424400E+01	  0.115791589	4.254100E+01
480	  0.115991987	-8.255000E+00	  0.115991987	3.258800E+01	  0.115991987	8.539500E+01	  0.115991987	4.181000E+01
481	  0.116192386	-8.281000E+00	  0.116192386	3.163800E+01	  0.116192386	8.648100E+01	  0.116192386	4.106700E+01
482	  0.116392791	-8.309000E+00	  0.116392791	3.057700E+01	  0.116392791	8.768200E+01	  0.116392791	4.020500E+01
483	  0.116593190	-8.341000E+00	  0.116593190	2.955600E+01	  0.116593190	8.879500E+01	  0.116593190	3.928800E+01
484	  0.116793588	-8.374000E+00	  0.116793588	2.855700E+01	  0.116793588	8.985000E+01	  0.116793588	3.832800E+01
485	  0.116993994	-8.416000E+00	  0.116993994	2.751500E+01	  0.116993994	9.088600E+01	  0.116993994	3.722400E+01
486	  0.117194392	-8.454000E+00	  0.117194392	2.648000E+01	  0.117194392	9.190100E+01	  0.117194392	3.611700E+01
487	  0.117394790	-8.490000E+00	  0.117394790	2.543600E+01	  0.117394790	9.290000E+01	  0.117394790	3.497500E+01
488	  0.117595196	-8.535000E+00	  0.117595196	2.435300E+01	  0.117595196	9.385000E+01	  0.117595196	3.369100E+01
489	  0.117795594	-8.580000E+00	  0.117795594	2.326000E+01	  0.117795594	9.476600E+01	  0.117795594	3.235800E+01
490	  0.117995992	-8.622000E+00	  0.117995992	2.213900E+01	  0.117995992	9.567800E+01	  0.117995992	3.097700E+01
491	  0.118196398	-8.673000E+00	  0.118196398	2.103000E+01	  0.118196398	9.646400E+01	  0.118196398	2.951300E+01
492	  0.118396796	-8.724000E+00	  0.118396796	1.990800E+01	  0.118396796	9.719900E+01	  0.118396796	2.800200E+01
493	  0.118597202	-8.782000E+00	  0.118597202	1.877500E+01	  0.118597202	9.782400E+01	  0.118597202	2.640300E+01
494	  0.118797600	-8.841000E+00	  0.118797600	1.763500E+01	  0.118797600	9.838900E+01	  0.118797600	2.477800E+01
495	  0.118997999	-8.899000E+00	  0.118997999	1.647600E+01	  0.118997999	9.889600E+01	  0.118997999	2.311300E+01
496	  0.119198404	-8.964000E+00	  0.119198404	1.529600E+01	  0.119198404	9.929700E+01	  0.119198404	2.137900E+01
497	  0.119398803	-9.028000E+00	  0.119398803	1.410100E+01	  0.119398803	9.963200E+01	  0.119398803	1.962400E+01
498	  0.119599201	-9.099000E+00	  0.119599201	1.287500E+01	  0.119599201	9.985400E+01	  0.119599201	1.780000E+01
499	  0.119799607	-9.171000E+00	  0.119799607	1.166100E+01	  0.119799607	9.996500E+01	  0.119799607	1.599300E+01
500	  0.120000005	-9.248000E+00	  0.120000005	1.043800E+01	  0.120000005	9.996600E+01	  0.120000005	1.417400E+01
