! Anritsu VNA Master:             	Model: MS2036C/10/77
! SN:             	1601066
! /bd0/18may09/b252.ew.m3.txt
! Existing Calibration Information:
! TYPE:             	Current Settings	Active Cal Settings
! TIME:             	05/09/2018 09:28:15 PM	05/09/2018 09:20:00 PM
! INTERNAL TEMP:    	50.5 C	51.0 C
! # POINTS:         	494	494
! START FREQ:       	20.000 MHz	20.000 MHz
! STOP FREQ:        	118.797 594 MHz	118.797 594 MHz
! SOURCE POWER:     	High	High
! IFBW:             	50 Hz	50 Hz
! AVG FACTOR:       	  1 	  1 
! REF PLANE 1:      	0 mm	0 mm
! REF PLANE 2:      	0 mm	0 mm
! CAL TYPE:         	Full S22	Full S22
! CAL METHOD:       	SOLT	SOLT
! CAL LINE TYPE:    	Coax	Coax
! DUT PORT 1:       	K-Conn(M)	K-Conn(M)
! DUT PORT 2:       	K-Conn(M)	K-Conn(M)
! CAL STATUS:       	OK: Accuracy High	--
! PROP-V:       	0.700
! CABLE LOSS:       	0.000 dB/m
! REF IMPEDANCE:       	50.0
! Trace Specific Parameters:	TR1	TR2	TR3	TR4
! TRACE.#.Y (GRAPH TYPE)	LOG MAG	PHASE	REAL IMPEDANCE	IMAGINARY IMPEDANCE
! TRACE.#.X 	FREQ.GHZ	FREQ.GHZ	FREQ.GHZ	FREQ.GHZ
! S-PARAMETER	S22	S22	S22	S22
! SMOOTH/APERTURE %	0	0	0	0
! WINDOW	NSL	NSL	NSL	NSL
! GATING	OFF	OFF	OFF	OFF
! FGTD	OFF	OFF	OFF	OFF
Marker Information per Trace:	TR1	TR2	TR3	TR4
!MK1	--	"MK1 TR2:  20.000 MHz,PH:-125.59°"	--	--
!MK2	--	--	"MK2 TR3:  70.100 200 MHz,Z:(17.516 ohm, -1.155 ohm)"	--
!MK3	--	--	--	--
!MK4	--	--	--	--
!MK5	--	--	--	--
!MK6	--	--	--	--
!MK7	--	--	--	--
!MK8	--	--	--	--
PNT	TR1.FREQ.GHZ	TR1.LOG MAG.dB	TR2.FREQ.GHZ	TR2.PHASE.deg	TR3.FREQ.GHZ	TR3.REAL IMPEDANCE.ohm	TR4.FREQ.GHZ	TR4.IMAGINARY IMPEDANCE.ohm
1	  0.020000000	-6.190000E-01	  0.020000000	-1.255870E+02	  0.020000000	2.252000E+00	  0.020000000	-2.566200E+01
2	  0.020200402	-6.210000E-01	  0.020200402	-1.270370E+02	  0.020200402	2.230000E+00	  0.020200402	-2.486900E+01
3	  0.020400802	-6.220000E-01	  0.020400802	-1.285110E+02	  0.020400802	2.206000E+00	  0.020400802	-2.407200E+01
4	  0.020601204	-6.260000E-01	  0.020601204	-1.299930E+02	  0.020601204	2.193000E+00	  0.020601204	-2.328100E+01
5	  0.020801604	-6.290000E-01	  0.020801604	-1.315060E+02	  0.020801604	2.177000E+00	  0.020801604	-2.248400E+01
6	  0.021002004	-6.310000E-01	  0.021002004	-1.330340E+02	  0.021002004	2.159000E+00	  0.021002004	-2.168800E+01
7	  0.021202406	-6.350000E-01	  0.021202406	-1.345630E+02	  0.021202406	2.147000E+00	  0.021202406	-2.090100E+01
8	  0.021402806	-6.360000E-01	  0.021402806	-1.360870E+02	  0.021402806	2.128000E+00	  0.021402806	-2.012500E+01
9	  0.021603208	-6.370000E-01	  0.021603208	-1.376020E+02	  0.021603208	2.111000E+00	  0.021603208	-1.936200E+01
10	  0.021803608	-6.410000E-01	  0.021803608	-1.391210E+02	  0.021803608	2.101000E+00	  0.021803608	-1.860400E+01
11	  0.022004008	-6.460000E-01	  0.022004008	-1.406680E+02	  0.022004008	2.098000E+00	  0.022004008	-1.784100E+01
12	  0.022204408	-6.510000E-01	  0.022204408	-1.422160E+02	  0.022204408	2.092000E+00	  0.022204408	-1.708400E+01
13	  0.022404809	-6.560000E-01	  0.022404809	-1.437840E+02	  0.022404809	2.091000E+00	  0.022404809	-1.632400E+01
14	  0.022605211	-6.590000E-01	  0.022605211	-1.453760E+02	  0.022605211	2.081000E+00	  0.022605211	-1.556000E+01
15	  0.022805611	-6.620000E-01	  0.022805611	-1.469780E+02	  0.022805611	2.072000E+00	  0.022805611	-1.479700E+01
16	  0.023006011	-6.670000E-01	  0.023006011	-1.485520E+02	  0.023006011	2.071000E+00	  0.023006011	-1.405400E+01
17	  0.023206413	-6.700000E-01	  0.023206413	-1.501450E+02	  0.023206413	2.066000E+00	  0.023206413	-1.330800E+01
18	  0.023406813	-6.770000E-01	  0.023406813	-1.517290E+02	  0.023406813	2.071000E+00	  0.023406813	-1.257100E+01
19	  0.023607215	-6.840000E-01	  0.023607215	-1.533250E+02	  0.023607215	2.080000E+00	  0.023607215	-1.183400E+01
20	  0.023807615	-6.930000E-01	  0.023807615	-1.549500E+02	  0.023807615	2.092000E+00	  0.023807615	-1.108800E+01
21	  0.024008015	-7.030000E-01	  0.024008015	-1.565900E+02	  0.024008015	2.110000E+00	  0.024008015	-1.034100E+01
22	  0.024208417	-7.080000E-01	  0.024208417	-1.582450E+02	  0.024208417	2.114000E+00	  0.024208417	-9.591000E+00
23	  0.024408817	-7.150000E-01	  0.024408817	-1.599100E+02	  0.024408817	2.124000E+00	  0.024408817	-8.841000E+00
24	  0.024609219	-7.250000E-01	  0.024609219	-1.615710E+02	  0.024609219	2.140000E+00	  0.024609219	-8.096000E+00
25	  0.024809619	-7.340000E-01	  0.024809619	-1.632320E+02	  0.024809619	2.158000E+00	  0.024809619	-7.355000E+00
26	  0.025010020	-7.440000E-01	  0.025010020	-1.649050E+02	  0.025010020	2.177000E+00	  0.025010020	-6.612000E+00
27	  0.025210422	-7.550000E-01	  0.025210422	-1.665890E+02	  0.025210422	2.202000E+00	  0.025210422	-5.867000E+00
28	  0.025410822	-7.670000E-01	  0.025410822	-1.682740E+02	  0.025410822	2.231000E+00	  0.025410822	-5.124000E+00
29	  0.025611224	-7.790000E-01	  0.025611224	-1.699870E+02	  0.025611224	2.259000E+00	  0.025611224	-4.371000E+00
30	  0.025811624	-7.900000E-01	  0.025811624	-1.717160E+02	  0.025811624	2.286000E+00	  0.025811624	-3.612000E+00
31	  0.026012026	-8.010000E-01	  0.026012026	-1.734440E+02	  0.026012026	2.313000E+00	  0.026012026	-2.857000E+00
32	  0.026212426	-8.140000E-01	  0.026212426	-1.751780E+02	  0.026212426	2.347000E+00	  0.026212426	-2.100000E+00
33	  0.026412826	-8.290000E-01	  0.026412826	-1.769170E+02	  0.026412826	2.386000E+00	  0.026412826	-1.342000E+00
34	  0.026613226	-8.420000E-01	  0.026613226	-1.786640E+02	  0.026613226	2.423000E+00	  0.026613226	-5.810000E-01
35	  0.026813626	-8.580000E-01	  0.026813626	1.795650E+02	  0.026813626	2.470000E+00	  0.026813626	1.890000E-01
36	  0.027014028	-8.750000E-01	  0.027014028	1.778070E+02	  0.027014028	2.518000E+00	  0.027014028	9.540000E-01
37	  0.027214428	-8.920000E-01	  0.027214428	1.760360E+02	  0.027214428	2.568000E+00	  0.027214428	1.725000E+00
38	  0.027414829	-9.090000E-01	  0.027414829	1.742450E+02	  0.027414829	2.621000E+00	  0.027414829	2.506000E+00
39	  0.027615231	-9.260000E-01	  0.027615231	1.724380E+02	  0.027615231	2.676000E+00	  0.027615231	3.294000E+00
40	  0.027815631	-9.450000E-01	  0.027815631	1.706360E+02	  0.027815631	2.735000E+00	  0.027815631	4.082000E+00
41	  0.028016033	-9.630000E-01	  0.028016033	1.688140E+02	  0.028016033	2.797000E+00	  0.028016033	4.881000E+00
42	  0.028216433	-9.840000E-01	  0.028216433	1.669800E+02	  0.028216433	2.868000E+00	  0.028216433	5.687000E+00
43	  0.028416833	-1.005000E+00	  0.028416833	1.651450E+02	  0.028416833	2.939000E+00	  0.028416833	6.495000E+00
44	  0.028617235	-1.026000E+00	  0.028617235	1.633070E+02	  0.028617235	3.014000E+00	  0.028617235	7.309000E+00
45	  0.028817635	-1.048000E+00	  0.028817635	1.614640E+02	  0.028817635	3.094000E+00	  0.028817635	8.128000E+00
46	  0.029018037	-1.071000E+00	  0.029018037	1.596080E+02	  0.029018037	3.180000E+00	  0.029018037	8.957000E+00
47	  0.029218437	-1.096000E+00	  0.029218437	1.577440E+02	  0.029218437	3.274000E+00	  0.029218437	9.794000E+00
48	  0.029418837	-1.122000E+00	  0.029418837	1.558530E+02	  0.029418837	3.373000E+00	  0.029418837	1.064700E+01
49	  0.029619239	-1.148000E+00	  0.029619239	1.539600E+02	  0.029619239	3.477000E+00	  0.029619239	1.150800E+01
50	  0.029819639	-1.176000E+00	  0.029819639	1.520470E+02	  0.029819639	3.588000E+00	  0.029819639	1.238300E+01
51	  0.030020041	-1.204000E+00	  0.030020041	1.501290E+02	  0.030020041	3.705000E+00	  0.030020041	1.326800E+01
52	  0.030220442	-1.231000E+00	  0.030220442	1.482090E+02	  0.030220442	3.823000E+00	  0.030220442	1.416100E+01
53	  0.030420844	-1.260000E+00	  0.030420844	1.462920E+02	  0.030420844	3.952000E+00	  0.030420844	1.506000E+01
54	  0.030621244	-1.292000E+00	  0.030621244	1.443770E+02	  0.030621244	4.092000E+00	  0.030621244	1.596600E+01
55	  0.030821642	-1.325000E+00	  0.030821642	1.424470E+02	  0.030821642	4.245000E+00	  0.030821642	1.688800E+01
56	  0.031022044	-1.359000E+00	  0.031022044	1.404890E+02	  0.031022044	4.403000E+00	  0.031022044	1.783300E+01
57	  0.031222444	-1.383000E+00	  0.031222444	1.385530E+02	  0.031222444	4.537000E+00	  0.031222444	1.878000E+01
58	  0.031422846	-1.419000E+00	  0.031422846	1.365850E+02	  0.031422846	4.719000E+00	  0.031422846	1.975100E+01
59	  0.031623244	-1.455000E+00	  0.031623244	1.345830E+02	  0.031623244	4.906000E+00	  0.031623244	2.075200E+01
60	  0.031823646	-1.493000E+00	  0.031823646	1.325920E+02	  0.031823646	5.108000E+00	  0.031823646	2.175900E+01
61	  0.032024048	-1.532000E+00	  0.032024048	1.306060E+02	  0.032024048	5.319000E+00	  0.032024048	2.277800E+01
62	  0.032224450	-1.570000E+00	  0.032224450	1.285960E+02	  0.032224450	5.541000E+00	  0.032224450	2.382400E+01
63	  0.032424849	-1.611000E+00	  0.032424849	1.265940E+02	  0.032424849	5.781000E+00	  0.032424849	2.488100E+01
64	  0.032625251	-1.650000E+00	  0.032625251	1.245800E+02	  0.032625251	6.029000E+00	  0.032625251	2.596100E+01
65	  0.032825653	-1.693000E+00	  0.032825653	1.225430E+02	  0.032825653	6.301000E+00	  0.032825653	2.707000E+01
66	  0.033026051	-1.733000E+00	  0.033026051	1.204950E+02	  0.033026051	6.578000E+00	  0.033026051	2.820500E+01
67	  0.033226453	-1.776000E+00	  0.033226453	1.184670E+02	  0.033226453	6.877000E+00	  0.033226453	2.934800E+01
68	  0.033426855	-1.819000E+00	  0.033426855	1.164240E+02	  0.033426855	7.190000E+00	  0.033426855	3.052100E+01
69	  0.033627257	-1.862000E+00	  0.033627257	1.144050E+02	  0.033627257	7.522000E+00	  0.033627257	3.170100E+01
70	  0.033827655	-1.910000E+00	  0.033827655	1.123640E+02	  0.033827655	7.892000E+00	  0.033827655	3.291500E+01
71	  0.034028057	-1.957000E+00	  0.034028057	1.103150E+02	  0.034028057	8.278000E+00	  0.034028057	3.415800E+01
72	  0.034228459	-2.003000E+00	  0.034228459	1.082450E+02	  0.034228459	8.683000E+00	  0.034228459	3.544200E+01
73	  0.034428857	-2.052000E+00	  0.034428857	1.061840E+02	  0.034428857	9.125000E+00	  0.034428857	3.674500E+01
74	  0.034629259	-2.100000E+00	  0.034629259	1.041120E+02	  0.034629259	9.589000E+00	  0.034629259	3.808500E+01
75	  0.034829661	-2.151000E+00	  0.034829661	1.020390E+02	  0.034829661	1.009400E+01	  0.034829661	3.945400E+01
76	  0.035030060	-2.201000E+00	  0.035030060	9.994500E+01	  0.035030060	1.063100E+01	  0.035030060	4.086900E+01
77	  0.035230462	-2.253000E+00	  0.035230462	9.787200E+01	  0.035230462	1.120300E+01	  0.035230462	4.230300E+01
78	  0.035430863	-2.308000E+00	  0.035430863	9.580500E+01	  0.035430863	1.183000E+01	  0.035430863	4.376100E+01
79	  0.035631265	-2.362000E+00	  0.035631265	9.372200E+01	  0.035631265	1.249400E+01	  0.035631265	4.527000E+01
80	  0.035831664	-2.416000E+00	  0.035831664	9.163800E+01	  0.035831664	1.319800E+01	  0.035831664	4.681700E+01
81	  0.036032066	-2.471000E+00	  0.036032066	8.955400E+01	  0.036032066	1.395700E+01	  0.036032066	4.840200E+01
82	  0.036232468	-2.527000E+00	  0.036232468	8.747300E+01	  0.036232468	1.477600E+01	  0.036232468	5.002300E+01
83	  0.036432866	-2.580000E+00	  0.036432866	8.536000E+01	  0.036432866	1.564300E+01	  0.036432866	5.172000E+01
84	  0.036633268	-2.638000E+00	  0.036633268	8.327600E+01	  0.036633268	1.659400E+01	  0.036633268	5.342600E+01
85	  0.036833670	-2.697000E+00	  0.036833670	8.118500E+01	  0.036833670	1.762100E+01	  0.036833670	5.518300E+01
86	  0.037034072	-2.756000E+00	  0.037034072	7.907800E+01	  0.037034072	1.873500E+01	  0.037034072	5.699800E+01
87	  0.037234470	-2.815000E+00	  0.037234470	7.698800E+01	  0.037234470	1.992100E+01	  0.037234470	5.884600E+01
88	  0.037434869	-2.876000E+00	  0.037434869	7.488600E+01	  0.037434869	2.121800E+01	  0.037434869	6.074800E+01
89	  0.037635271	-2.932000E+00	  0.037635271	7.281900E+01	  0.037635271	2.257100E+01	  0.037635271	6.267600E+01
90	  0.037835669	-2.993000E+00	  0.037835669	7.072800E+01	  0.037835669	2.407700E+01	  0.037835669	6.466100E+01
91	  0.038036071	-3.052000E+00	  0.038036071	6.861900E+01	  0.038036071	2.570200E+01	  0.038036071	6.671800E+01
92	  0.038236473	-3.109000E+00	  0.038236473	6.646700E+01	  0.038236473	2.747200E+01	  0.038236473	6.888500E+01
93	  0.038436871	-3.173000E+00	  0.038436871	6.433000E+01	  0.038436871	2.944600E+01	  0.038436871	7.104500E+01
94	  0.038637273	-3.238000E+00	  0.038637273	6.221200E+01	  0.038637273	3.158000E+01	  0.038637273	7.321800E+01
95	  0.038837675	-3.298000E+00	  0.038837675	6.010800E+01	  0.038837675	3.384000E+01	  0.038837675	7.544100E+01
96	  0.039038073	-3.360000E+00	  0.039038073	5.802900E+01	  0.039038073	3.629800E+01	  0.039038073	7.764400E+01
97	  0.039238475	-3.421000E+00	  0.039238475	5.592900E+01	  0.039238475	3.898900E+01	  0.039238475	7.989400E+01
98	  0.039438877	-3.484000E+00	  0.039438877	5.385200E+01	  0.039438877	4.189500E+01	  0.039438877	8.211700E+01
99	  0.039639279	-3.546000E+00	  0.039639279	5.175600E+01	  0.039639279	4.508400E+01	  0.039639279	8.435500E+01
100	  0.039839678	-3.607000E+00	  0.039839678	4.967400E+01	  0.039839678	4.852800E+01	  0.039839678	8.655700E+01
101	  0.040040080	-3.669000E+00	  0.040040080	4.757200E+01	  0.040040080	5.231000E+01	  0.040040080	8.873600E+01
102	  0.040240481	-3.727000E+00	  0.040240481	4.549000E+01	  0.040240481	5.636700E+01	  0.040240481	9.084500E+01
103	  0.040440880	-3.789000E+00	  0.040440880	4.340300E+01	  0.040440880	6.082100E+01	  0.040440880	9.281300E+01
104	  0.040641282	-3.851000E+00	  0.040641282	4.133800E+01	  0.040641282	6.561000E+01	  0.040641282	9.459700E+01
105	  0.040841684	-3.910000E+00	  0.040841684	3.928700E+01	  0.040841684	7.073900E+01	  0.040841684	9.619800E+01
106	  0.041042086	-3.973000E+00	  0.041042086	3.725500E+01	  0.041042086	7.625300E+01	  0.041042086	9.747400E+01
107	  0.041242484	-4.033000E+00	  0.041242484	3.518200E+01	  0.041242484	8.227900E+01	  0.041242484	9.849900E+01
108	  0.041442886	-4.096000E+00	  0.041442886	3.312000E+01	  0.041442886	8.871600E+01	  0.041442886	9.907000E+01
109	  0.041643288	-4.155000E+00	  0.041643288	3.106800E+01	  0.041643288	9.551900E+01	  0.041643288	9.921600E+01
110	  0.041843686	-4.212000E+00	  0.041843686	2.901300E+01	  0.041843686	1.027220E+02	  0.041843686	9.882300E+01
111	  0.042044088	-4.272000E+00	  0.042044088	2.697500E+01	  0.042044088	1.102260E+02	  0.042044088	9.766700E+01
112	  0.042244490	-4.331000E+00	  0.042244490	2.494200E+01	  0.042244490	1.179800E+02	  0.042244490	9.576200E+01
113	  0.042444889	-4.387000E+00	  0.042444889	2.292200E+01	  0.042444889	1.258790E+02	  0.042444889	9.305800E+01
114	  0.042645290	-4.446000E+00	  0.042645290	2.091400E+01	  0.042645290	1.337710E+02	  0.042645290	8.931900E+01
115	  0.042845692	-4.504000E+00	  0.042845692	1.889700E+01	  0.042845692	1.416160E+02	  0.042845692	8.458900E+01
116	  0.043046094	-4.560000E+00	  0.043046094	1.689500E+01	  0.043046094	1.491630E+02	  0.043046094	7.889000E+01
117	  0.043246493	-4.619000E+00	  0.043246493	1.488600E+01	  0.043246493	1.562210E+02	  0.043246493	7.201900E+01
118	  0.043446895	-4.671000E+00	  0.043446895	1.290100E+01	  0.043446895	1.626710E+02	  0.043446895	6.438200E+01
119	  0.043647297	-4.725000E+00	  0.043647297	1.090200E+01	  0.043647297	1.682980E+02	  0.043647297	5.572100E+01
120	  0.043847695	-4.779000E+00	  0.043847695	8.954000E+00	  0.043847695	1.727370E+02	  0.043847695	4.648000E+01
121	  0.044048097	-4.834000E+00	  0.044048097	6.974000E+00	  0.044048097	1.760900E+02	  0.044048097	3.650300E+01
122	  0.044248499	-4.886000E+00	  0.044248499	5.039000E+00	  0.044248499	1.781730E+02	  0.044248499	2.640200E+01
123	  0.044448901	-4.940000E+00	  0.044448901	3.089000E+00	  0.044448901	1.789700E+02	  0.044448901	1.607700E+01
124	  0.044649299	-4.991000E+00	  0.044649299	1.177000E+00	  0.044649299	1.785380E+02	  0.044649299	6.047000E+00
125	  0.044849701	-5.042000E+00	  0.044849701	-7.610000E-01	  0.044849701	1.769870E+02	  0.044849701	-3.832000E+00
126	  0.045050103	-5.091000E+00	  0.045050103	-2.680000E+00	  0.045050103	1.743820E+02	  0.045050103	-1.314600E+01
127	  0.045250501	-5.137000E+00	  0.045250501	-4.588000E+00	  0.045250501	1.709180E+02	  0.045250501	-2.182200E+01
128	  0.045450903	-5.184000E+00	  0.045450903	-6.488000E+00	  0.045450903	1.666620E+02	  0.045450903	-2.975300E+01
129	  0.045651305	-5.231000E+00	  0.045651305	-8.375000E+00	  0.045651305	1.617820E+02	  0.045651305	-3.685600E+01
130	  0.045851704	-5.280000E+00	  0.045851704	-1.023500E+01	  0.045851704	1.564580E+02	  0.045851704	-4.303000E+01
131	  0.046052102	-5.322000E+00	  0.046052102	-1.209900E+01	  0.046052102	1.509450E+02	  0.046052102	-4.853400E+01
132	  0.046252504	-5.368000E+00	  0.046252504	-1.393500E+01	  0.046252504	1.452390E+02	  0.046252504	-5.314700E+01
133	  0.046452906	-5.412000E+00	  0.046452906	-1.577000E+01	  0.046452906	1.394570E+02	  0.046452906	-5.705800E+01
134	  0.046653304	-5.455000E+00	  0.046653304	-1.760500E+01	  0.046653304	1.336960E+02	  0.046653304	-6.034100E+01
135	  0.046853706	-5.498000E+00	  0.046853706	-1.942300E+01	  0.046853706	1.280360E+02	  0.046853706	-6.297500E+01
136	  0.047054108	-5.539000E+00	  0.047054108	-2.124200E+01	  0.047054108	1.225110E+02	  0.047054108	-6.510200E+01
137	  0.047254506	-5.576000E+00	  0.047254506	-2.305500E+01	  0.047254506	1.171860E+02	  0.047254506	-6.679800E+01
138	  0.047454908	-5.611000E+00	  0.047454908	-2.484100E+01	  0.047454908	1.121160E+02	  0.047454908	-6.806700E+01
139	  0.047655310	-5.648000E+00	  0.047655310	-2.664200E+01	  0.047655310	1.071860E+02	  0.047655310	-6.894300E+01
140	  0.047855709	-5.683000E+00	  0.047855709	-2.838200E+01	  0.047855709	1.026290E+02	  0.047855709	-6.949400E+01
141	  0.048056111	-5.719000E+00	  0.048056111	-3.014600E+01	  0.048056111	9.820700E+01	  0.048056111	-6.974600E+01
142	  0.048256513	-5.754000E+00	  0.048256513	-3.186500E+01	  0.048256513	9.410700E+01	  0.048256513	-6.977300E+01
143	  0.048456915	-5.786000E+00	  0.048456915	-3.363000E+01	  0.048456915	9.011100E+01	  0.048456915	-6.965100E+01
144	  0.048657313	-5.814000E+00	  0.048657313	-3.535800E+01	  0.048657313	8.639500E+01	  0.048657313	-6.938400E+01
145	  0.048857715	-5.842000E+00	  0.048857715	-3.709500E+01	  0.048857715	8.285000E+01	  0.048857715	-6.896500E+01
146	  0.049058117	-5.868000E+00	  0.049058117	-3.882300E+01	  0.049058117	7.950400E+01	  0.049058117	-6.844000E+01
147	  0.049258515	-5.893000E+00	  0.049258515	-4.049400E+01	  0.049258515	7.643700E+01	  0.049258515	-6.782400E+01
148	  0.049458917	-5.919000E+00	  0.049458917	-4.217100E+01	  0.049458917	7.351800E+01	  0.049458917	-6.710400E+01
149	  0.049659319	-5.945000E+00	  0.049659319	-4.385800E+01	  0.049659319	7.073700E+01	  0.049659319	-6.630300E+01
150	  0.049859721	-5.971000E+00	  0.049859721	-4.552900E+01	  0.049859721	6.812800E+01	  0.049859721	-6.544400E+01
151	  0.050060119	-5.992000E+00	  0.050060119	-4.719000E+01	  0.050060119	6.566300E+01	  0.050060119	-6.457400E+01
152	  0.050260521	-6.012000E+00	  0.050260521	-4.883100E+01	  0.050260521	6.335100E+01	  0.050260521	-6.368000E+01
153	  0.050460923	-6.029000E+00	  0.050460923	-5.048400E+01	  0.050460923	6.113100E+01	  0.050460923	-6.277100E+01
154	  0.050661322	-6.044000E+00	  0.050661322	-5.212800E+01	  0.050661322	5.903000E+01	  0.050661322	-6.185000E+01
155	  0.050861724	-6.061000E+00	  0.050861724	-5.374700E+01	  0.050861724	5.707500E+01	  0.050861724	-6.088700E+01
156	  0.051062126	-6.081000E+00	  0.051062126	-5.538700E+01	  0.051062126	5.520200E+01	  0.051062126	-5.987600E+01
157	  0.051262524	-6.093000E+00	  0.051262524	-5.697000E+01	  0.051262524	5.346200E+01	  0.051262524	-5.893300E+01
158	  0.051462926	-6.110000E+00	  0.051462926	-5.854600E+01	  0.051462926	5.183200E+01	  0.051462926	-5.794800E+01
159	  0.051663328	-6.124000E+00	  0.051663328	-6.013900E+01	  0.051663328	5.025300E+01	  0.051663328	-5.696500E+01
160	  0.051863730	-6.135000E+00	  0.051863730	-6.173400E+01	  0.051863730	4.873800E+01	  0.051863730	-5.599200E+01
161	  0.052064128	-6.148000E+00	  0.052064128	-6.331400E+01	  0.052064128	4.731400E+01	  0.052064128	-5.501400E+01
162	  0.052264530	-6.155000E+00	  0.052264530	-6.488900E+01	  0.052264530	4.594300E+01	  0.052264530	-5.406500E+01
163	  0.052464932	-6.163000E+00	  0.052464932	-6.644600E+01	  0.052464932	4.465700E+01	  0.052464932	-5.311300E+01
164	  0.052665330	-6.174000E+00	  0.052665330	-6.798000E+01	  0.052665330	4.345400E+01	  0.052665330	-5.216700E+01
165	  0.052865732	-6.184000E+00	  0.052865732	-6.951600E+01	  0.052865732	4.230700E+01	  0.052865732	-5.121900E+01
166	  0.053066134	-6.197000E+00	  0.053066134	-7.102800E+01	  0.053066134	4.123700E+01	  0.053066134	-5.027800E+01
167	  0.053266536	-6.201000E+00	  0.053266536	-7.254500E+01	  0.053266536	4.017800E+01	  0.053266536	-4.937900E+01
168	  0.053466935	-6.210000E+00	  0.053466935	-7.408300E+01	  0.053466935	3.917100E+01	  0.053466935	-4.844600E+01
169	  0.053667337	-6.217000E+00	  0.053667337	-7.559900E+01	  0.053667337	3.821500E+01	  0.053667337	-4.754300E+01
170	  0.053867739	-6.218000E+00	  0.053867739	-7.711700E+01	  0.053867739	3.727600E+01	  0.053867739	-4.666600E+01
171	  0.054068137	-6.223000E+00	  0.054068137	-7.861200E+01	  0.054068137	3.640600E+01	  0.054068137	-4.579100E+01
172	  0.054268539	-6.233000E+00	  0.054268539	-8.011200E+01	  0.054268539	3.559000E+01	  0.054268539	-4.489900E+01
173	  0.054468941	-6.237000E+00	  0.054468941	-8.159200E+01	  0.054468941	3.479400E+01	  0.054468941	-4.404900E+01
174	  0.054669335	-6.243000E+00	  0.054669335	-8.306500E+01	  0.054669335	3.404700E+01	  0.054669335	-4.319900E+01
175	  0.054869737	-6.247000E+00	  0.054869737	-8.454100E+01	  0.054869737	3.331800E+01	  0.054869737	-4.236300E+01
176	  0.055070139	-6.251000E+00	  0.055070139	-8.599800E+01	  0.055070139	3.262800E+01	  0.055070139	-4.154500E+01
177	  0.055270538	-6.255000E+00	  0.055270538	-8.745400E+01	  0.055270538	3.196700E+01	  0.055270538	-4.073300E+01
178	  0.055470940	-6.259000E+00	  0.055470940	-8.891100E+01	  0.055470940	3.133400E+01	  0.055470940	-3.992500E+01
179	  0.055671342	-6.256000E+00	  0.055671342	-9.036400E+01	  0.055671342	3.070100E+01	  0.055671342	-3.914700E+01
180	  0.055871744	-6.258000E+00	  0.055871744	-9.181600E+01	  0.055871744	3.011200E+01	  0.055871744	-3.836100E+01
181	  0.056072142	-6.263000E+00	  0.056072142	-9.322600E+01	  0.056072142	2.957000E+01	  0.056072142	-3.759800E+01
182	  0.056272544	-6.266000E+00	  0.056272544	-9.466700E+01	  0.056272544	2.903400E+01	  0.056272544	-3.682800E+01
183	  0.056472946	-6.266000E+00	  0.056472946	-9.606900E+01	  0.056472946	2.851700E+01	  0.056472946	-3.609500E+01
184	  0.056673344	-6.266000E+00	  0.056673344	-9.744500E+01	  0.056673344	2.803300E+01	  0.056673344	-3.537900E+01
185	  0.056873746	-6.268000E+00	  0.056873746	-9.884600E+01	  0.056873746	2.756300E+01	  0.056873746	-3.465300E+01
186	  0.057074148	-6.267000E+00	  0.057074148	-1.002570E+02	  0.057074148	2.710000E+01	  0.057074148	-3.393300E+01
187	  0.057274550	-6.267000E+00	  0.057274550	-1.016380E+02	  0.057274550	2.666500E+01	  0.057274550	-3.323300E+01
188	  0.057474948	-6.267000E+00	  0.057474948	-1.030230E+02	  0.057474948	2.624200E+01	  0.057474948	-3.253700E+01
189	  0.057675350	-6.266000E+00	  0.057675350	-1.044070E+02	  0.057675350	2.583600E+01	  0.057675350	-3.184800E+01
190	  0.057875752	-6.268000E+00	  0.057875752	-1.057690E+02	  0.057875752	2.545900E+01	  0.057875752	-3.117000E+01
191	  0.058076151	-6.272000E+00	  0.058076151	-1.071260E+02	  0.058076151	2.510200E+01	  0.058076151	-3.049700E+01
192	  0.058276553	-6.272000E+00	  0.058276553	-1.084900E+02	  0.058276553	2.474300E+01	  0.058276553	-2.983400E+01
193	  0.058476955	-6.270000E+00	  0.058476955	-1.097940E+02	  0.058476955	2.440700E+01	  0.058476955	-2.920700E+01
194	  0.058677353	-6.271000E+00	  0.058677353	-1.111510E+02	  0.058677353	2.407900E+01	  0.058677353	-2.855400E+01
195	  0.058877755	-6.271000E+00	  0.058877755	-1.124970E+02	  0.058877755	2.376000E+01	  0.058877755	-2.791500E+01
196	  0.059078157	-6.268000E+00	  0.059078157	-1.138170E+02	  0.059078157	2.345200E+01	  0.059078157	-2.729600E+01
197	  0.059278559	-6.267000E+00	  0.059278559	-1.151290E+02	  0.059278559	2.315900E+01	  0.059278559	-2.668300E+01
198	  0.059478957	-6.270000E+00	  0.059478957	-1.164490E+02	  0.059478957	2.288800E+01	  0.059478957	-2.606500E+01
199	  0.059679359	-6.269000E+00	  0.059679359	-1.177510E+02	  0.059679359	2.262000E+01	  0.059679359	-2.546400E+01
200	  0.059879761	-6.268000E+00	  0.059879761	-1.190250E+02	  0.059879761	2.236600E+01	  0.059879761	-2.488100E+01
201	  0.060080159	-6.273000E+00	  0.060080159	-1.203000E+02	  0.060080159	2.213800E+01	  0.060080159	-2.429400E+01
202	  0.060280561	-6.275000E+00	  0.060280561	-1.215940E+02	  0.060280561	2.190400E+01	  0.060280561	-2.370700E+01
203	  0.060480963	-6.273000E+00	  0.060480963	-1.228690E+02	  0.060480963	2.167200E+01	  0.060480963	-2.313600E+01
204	  0.060681365	-6.276000E+00	  0.060681365	-1.241270E+02	  0.060681365	2.146200E+01	  0.060681365	-2.257200E+01
205	  0.060881764	-6.275000E+00	  0.060881764	-1.253980E+02	  0.060881764	2.124900E+01	  0.060881764	-2.200900E+01
206	  0.061082166	-6.274000E+00	  0.061082166	-1.266520E+02	  0.061082166	2.104600E+01	  0.061082166	-2.145700E+01
207	  0.061282568	-6.274000E+00	  0.061282568	-1.278850E+02	  0.061282568	2.085400E+01	  0.061282568	-2.091700E+01
208	  0.061482966	-6.275000E+00	  0.061482966	-1.291190E+02	  0.061482966	2.067100E+01	  0.061482966	-2.037900E+01
209	  0.061683368	-6.278000E+00	  0.061683368	-1.303540E+02	  0.061683368	2.050200E+01	  0.061683368	-1.984100E+01
210	  0.061883770	-6.279000E+00	  0.061883770	-1.315720E+02	  0.061883770	2.033500E+01	  0.061883770	-1.931600E+01
211	  0.062084168	-6.279000E+00	  0.062084168	-1.327790E+02	  0.062084168	2.017300E+01	  0.062084168	-1.879900E+01
212	  0.062284570	-6.279000E+00	  0.062284570	-1.339990E+02	  0.062284570	2.001300E+01	  0.062284570	-1.828000E+01
213	  0.062484972	-6.272000E+00	  0.062484972	-1.351690E+02	  0.062484972	1.984700E+01	  0.062484972	-1.779000E+01
214	  0.062685370	-6.271000E+00	  0.062685370	-1.363460E+02	  0.062685370	1.970200E+01	  0.062685370	-1.729400E+01
215	  0.062885776	-6.268000E+00	  0.062885776	-1.375490E+02	  0.062885776	1.955400E+01	  0.062885776	-1.679100E+01
216	  0.063086174	-6.272000E+00	  0.063086174	-1.387410E+02	  0.063086174	1.943100E+01	  0.063086174	-1.629000E+01
217	  0.063286573	-6.274000E+00	  0.063286573	-1.399300E+02	  0.063286573	1.930800E+01	  0.063286573	-1.579400E+01
218	  0.063486971	-6.274000E+00	  0.063486971	-1.410690E+02	  0.063486971	1.918700E+01	  0.063486971	-1.532300E+01
219	  0.063687377	-6.272000E+00	  0.063687377	-1.422230E+02	  0.063687377	1.906600E+01	  0.063687377	-1.484900E+01
220	  0.063887775	-6.272000E+00	  0.063887775	-1.434040E+02	  0.063887775	1.895200E+01	  0.063887775	-1.436400E+01
221	  0.064088173	-6.276000E+00	  0.064088173	-1.445690E+02	  0.064088173	1.885400E+01	  0.064088173	-1.388500E+01
222	  0.064288579	-6.279000E+00	  0.064288579	-1.457240E+02	  0.064288579	1.875800E+01	  0.064288579	-1.341300E+01
223	  0.064488977	-6.280000E+00	  0.064488977	-1.468710E+02	  0.064488977	1.866200E+01	  0.064488977	-1.294700E+01
224	  0.064689375	-6.281000E+00	  0.064689375	-1.480330E+02	  0.064689375	1.856900E+01	  0.064689375	-1.247800E+01
225	  0.064889781	-6.284000E+00	  0.064889781	-1.491680E+02	  0.064889781	1.848800E+01	  0.064889781	-1.201900E+01
226	  0.065090179	-6.285000E+00	  0.065090179	-1.502900E+02	  0.065090179	1.840500E+01	  0.065090179	-1.156800E+01
227	  0.065290578	-6.286000E+00	  0.065290578	-1.514190E+02	  0.065290578	1.832500E+01	  0.065290578	-1.111600E+01
228	  0.065490983	-6.287000E+00	  0.065490983	-1.525270E+02	  0.065490983	1.825000E+01	  0.065490983	-1.067400E+01
229	  0.065691382	-6.287000E+00	  0.065691382	-1.536810E+02	  0.065691382	1.817400E+01	  0.065691382	-1.021500E+01
230	  0.065891780	-6.291000E+00	  0.065891780	-1.547830E+02	  0.065891780	1.811500E+01	  0.065891780	-9.777000E+00
231	  0.066092186	-6.290000E+00	  0.066092186	-1.558830E+02	  0.066092186	1.804700E+01	  0.066092186	-9.342000E+00
232	  0.066292584	-6.293000E+00	  0.066292584	-1.569680E+02	  0.066292584	1.799200E+01	  0.066292584	-8.913000E+00
233	  0.066492982	-6.295000E+00	  0.066492982	-1.580890E+02	  0.066492982	1.793500E+01	  0.066492982	-8.472000E+00
234	  0.066693388	-6.299000E+00	  0.066693388	-1.591800E+02	  0.066693388	1.788900E+01	  0.066693388	-8.043000E+00
235	  0.066893786	-6.296000E+00	  0.066893786	-1.602420E+02	  0.066893786	1.783000E+01	  0.066893786	-7.628000E+00
236	  0.067094192	-6.299000E+00	  0.067094192	-1.613300E+02	  0.067094192	1.778700E+01	  0.067094192	-7.202000E+00
237	  0.067294590	-6.302000E+00	  0.067294590	-1.623980E+02	  0.067294590	1.775000E+01	  0.067294590	-6.785000E+00
238	  0.067494988	-6.303000E+00	  0.067494988	-1.634960E+02	  0.067494988	1.770700E+01	  0.067494988	-6.358000E+00
239	  0.067695394	-6.305000E+00	  0.067695394	-1.645470E+02	  0.067695394	1.767100E+01	  0.067695394	-5.949000E+00
240	  0.067895792	-6.310000E+00	  0.067895792	-1.656260E+02	  0.067895792	1.764700E+01	  0.067895792	-5.530000E+00
241	  0.068096191	-6.316000E+00	  0.068096191	-1.666660E+02	  0.068096191	1.762800E+01	  0.068096191	-5.126000E+00
242	  0.068296596	-6.314000E+00	  0.068296596	-1.677210E+02	  0.068296596	1.759100E+01	  0.068296596	-4.719000E+00
243	  0.068496995	-6.322000E+00	  0.068496995	-1.687740E+02	  0.068496995	1.758100E+01	  0.068496995	-4.311000E+00
244	  0.068697393	-6.324000E+00	  0.068697393	-1.697960E+02	  0.068697393	1.756100E+01	  0.068697393	-3.916000E+00
245	  0.068897791	-6.324000E+00	  0.068897791	-1.708330E+02	  0.068897791	1.753700E+01	  0.068897791	-3.517000E+00
246	  0.069098189	-6.328000E+00	  0.069098189	-1.718770E+02	  0.069098189	1.752600E+01	  0.069098189	-3.115000E+00
247	  0.069298595	-6.335000E+00	  0.069298595	-1.729260E+02	  0.069298595	1.752500E+01	  0.069298595	-2.711000E+00
248	  0.069498993	-6.335000E+00	  0.069498993	-1.739620E+02	  0.069498993	1.751000E+01	  0.069498993	-2.314000E+00
249	  0.069699399	-6.342000E+00	  0.069699399	-1.749750E+02	  0.069699399	1.751300E+01	  0.069699399	-1.925000E+00
250	  0.069899797	-6.344000E+00	  0.069899797	-1.759860E+02	  0.069899797	1.750900E+01	  0.069899797	-1.537000E+00
251	  0.070100196	-6.350000E+00	  0.070100196	-1.769840E+02	  0.070100196	1.751500E+01	  0.070100196	-1.154000E+00
252	  0.070300601	-6.358000E+00	  0.070300601	-1.779740E+02	  0.070300601	1.753000E+01	  0.070300601	-7.750000E-01
253	  0.070501000	-6.357000E+00	  0.070501000	-1.789610E+02	  0.070501000	1.752300E+01	  0.070501000	-3.970000E-01
254	  0.070701398	-6.364000E+00	  0.070701398	-1.799530E+02	  0.070701398	1.754100E+01	  0.070701398	-1.700000E-02
255	  0.070901804	-6.370000E+00	  0.070901804	1.790380E+02	  0.070901804	1.755700E+01	  0.070901804	3.670000E-01
256	  0.071102202	-6.378000E+00	  0.071102202	1.780410E+02	  0.071102202	1.757900E+01	  0.071102202	7.490000E-01
257	  0.071302600	-6.385000E+00	  0.071302600	1.770670E+02	  0.071302600	1.760400E+01	  0.071302600	1.121000E+00
258	  0.071503006	-6.388000E+00	  0.071503006	1.760920E+02	  0.071503006	1.761900E+01	  0.071503006	1.494000E+00
259	  0.071703404	-6.397000E+00	  0.071703404	1.751300E+02	  0.071703404	1.765100E+01	  0.071703404	1.861000E+00
260	  0.071903802	-6.405000E+00	  0.071903802	1.741470E+02	  0.071903802	1.768300E+01	  0.071903802	2.236000E+00
261	  0.072104208	-6.412000E+00	  0.072104208	1.731900E+02	  0.072104208	1.771700E+01	  0.072104208	2.602000E+00
262	  0.072304606	-6.417000E+00	  0.072304606	1.722380E+02	  0.072304606	1.774400E+01	  0.072304606	2.966000E+00
263	  0.072505005	-6.420000E+00	  0.072505005	1.712790E+02	  0.072505005	1.777200E+01	  0.072505005	3.333000E+00
264	  0.072705410	-6.431000E+00	  0.072705410	1.703170E+02	  0.072705410	1.782000E+01	  0.072705410	3.700000E+00
265	  0.072905809	-6.440000E+00	  0.072905809	1.693400E+02	  0.072905809	1.786700E+01	  0.072905809	4.073000E+00
266	  0.073106214	-6.445000E+00	  0.073106214	1.683940E+02	  0.073106214	1.790400E+01	  0.073106214	4.435000E+00
267	  0.073306613	-6.457000E+00	  0.073306613	1.674650E+02	  0.073306613	1.796100E+01	  0.073306613	4.789000E+00
268	  0.073507011	-6.464000E+00	  0.073507011	1.665090E+02	  0.073507011	1.800800E+01	  0.073507011	5.155000E+00
269	  0.073707417	-6.467000E+00	  0.073707417	1.655900E+02	  0.073707417	1.804800E+01	  0.073707417	5.508000E+00
270	  0.073907815	-6.476000E+00	  0.073907815	1.646640E+02	  0.073907815	1.810300E+01	  0.073907815	5.863000E+00
271	  0.074108213	-6.485000E+00	  0.074108213	1.637480E+02	  0.074108213	1.816100E+01	  0.074108213	6.213000E+00
272	  0.074308619	-6.493000E+00	  0.074308619	1.627950E+02	  0.074308619	1.822000E+01	  0.074308619	6.578000E+00
273	  0.074509017	-6.496000E+00	  0.074509017	1.618930E+02	  0.074509017	1.826800E+01	  0.074509017	6.926000E+00
274	  0.074709415	-6.504000E+00	  0.074709415	1.609660E+02	  0.074709415	1.833000E+01	  0.074709415	7.282000E+00
275	  0.074909821	-6.515000E+00	  0.074909821	1.600510E+02	  0.074909821	1.840100E+01	  0.074909821	7.633000E+00
276	  0.075110219	-6.520000E+00	  0.075110219	1.591430E+02	  0.075110219	1.845900E+01	  0.075110219	7.983000E+00
277	  0.075310618	-6.529000E+00	  0.075310618	1.582340E+02	  0.075310618	1.853200E+01	  0.075310618	8.333000E+00
278	  0.075511023	-6.535000E+00	  0.075511023	1.573700E+02	  0.075511023	1.859400E+01	  0.075511023	8.667000E+00
279	  0.075711422	-6.544000E+00	  0.075711422	1.564840E+02	  0.075711422	1.866600E+01	  0.075711422	9.009000E+00
280	  0.075911827	-6.554000E+00	  0.075911827	1.555730E+02	  0.075911827	1.874700E+01	  0.075911827	9.360000E+00
281	  0.076112226	-6.560000E+00	  0.076112226	1.546710E+02	  0.076112226	1.882000E+01	  0.076112226	9.709000E+00
282	  0.076312624	-6.574000E+00	  0.076312624	1.538000E+02	  0.076312624	1.891300E+01	  0.076312624	1.004400E+01
283	  0.076513030	-6.584000E+00	  0.076513030	1.528920E+02	  0.076513030	1.899900E+01	  0.076513030	1.039600E+01
284	  0.076713428	-6.591000E+00	  0.076713428	1.520070E+02	  0.076713428	1.907900E+01	  0.076713428	1.074000E+01
285	  0.076913826	-6.600000E+00	  0.076913826	1.511580E+02	  0.076913826	1.916400E+01	  0.076913826	1.107000E+01
286	  0.077114232	-6.613000E+00	  0.077114232	1.502600E+02	  0.077114232	1.926700E+01	  0.077114232	1.141700E+01
287	  0.077314630	-6.626000E+00	  0.077314630	1.493930E+02	  0.077314630	1.936700E+01	  0.077314630	1.175200E+01
288	  0.077515028	-6.636000E+00	  0.077515028	1.485170E+02	  0.077515028	1.946600E+01	  0.077515028	1.209300E+01
289	  0.077715434	-6.650000E+00	  0.077715434	1.476540E+02	  0.077715434	1.957400E+01	  0.077715434	1.242700E+01
290	  0.077915832	-6.660000E+00	  0.077915832	1.467820E+02	  0.077915832	1.967500E+01	  0.077915832	1.276800E+01
291	  0.078116231	-6.671000E+00	  0.078116231	1.459040E+02	  0.078116231	1.978300E+01	  0.078116231	1.311000E+01
292	  0.078316636	-6.687000E+00	  0.078316636	1.450510E+02	  0.078316636	1.990300E+01	  0.078316636	1.344000E+01
293	  0.078517035	-6.696000E+00	  0.078517035	1.441940E+02	  0.078517035	2.000800E+01	  0.078517035	1.377700E+01
294	  0.078717433	-6.709000E+00	  0.078717433	1.433260E+02	  0.078717433	2.012700E+01	  0.078717433	1.411500E+01
295	  0.078917839	-6.728000E+00	  0.078917839	1.424720E+02	  0.078917839	2.026200E+01	  0.078917839	1.444500E+01
296	  0.079118237	-6.741000E+00	  0.079118237	1.416330E+02	  0.079118237	2.038400E+01	  0.079118237	1.477300E+01
297	  0.079318643	-6.756000E+00	  0.079318643	1.408030E+02	  0.079318643	2.051400E+01	  0.079318643	1.509600E+01
298	  0.079519041	-6.767000E+00	  0.079519041	1.399530E+02	  0.079519041	2.063500E+01	  0.079519041	1.543100E+01
299	  0.079719439	-6.787000E+00	  0.079719439	1.391020E+02	  0.079719439	2.078400E+01	  0.079719439	1.576000E+01
300	  0.079919845	-6.798000E+00	  0.079919845	1.382840E+02	  0.079919845	2.090900E+01	  0.079919845	1.608200E+01
301	  0.080120243	-6.813000E+00	  0.080120243	1.374310E+02	  0.080120243	2.105100E+01	  0.080120243	1.641600E+01
302	  0.080320641	-6.828000E+00	  0.080320641	1.365960E+02	  0.080320641	2.119300E+01	  0.080320641	1.674400E+01
303	  0.080521047	-6.846000E+00	  0.080521047	1.357800E+02	  0.080521047	2.134400E+01	  0.080521047	1.706100E+01
304	  0.080721445	-6.861000E+00	  0.080721445	1.349790E+02	  0.080721445	2.148800E+01	  0.080721445	1.737500E+01
305	  0.080921844	-6.882000E+00	  0.080921844	1.341590E+02	  0.080921844	2.165200E+01	  0.080921844	1.769200E+01
306	  0.081122249	-6.899000E+00	  0.081122249	1.333500E+02	  0.081122249	2.180800E+01	  0.081122249	1.800900E+01
307	  0.081322648	-6.915000E+00	  0.081322648	1.325600E+02	  0.081322648	2.196100E+01	  0.081322648	1.831800E+01
308	  0.081523046	-6.931000E+00	  0.081523046	1.317270E+02	  0.081523046	2.212200E+01	  0.081523046	1.864600E+01
309	  0.081723452	-6.946000E+00	  0.081723452	1.309250E+02	  0.081723452	2.228000E+01	  0.081723452	1.896100E+01
310	  0.081923850	-6.968000E+00	  0.081923850	1.301390E+02	  0.081923850	2.245600E+01	  0.081923850	1.926500E+01
311	  0.082124248	-6.983000E+00	  0.082124248	1.293720E+02	  0.082124248	2.261500E+01	  0.082124248	1.956600E+01
312	  0.082324654	-7.002000E+00	  0.082324654	1.285920E+02	  0.082324654	2.278900E+01	  0.082324654	1.987000E+01
313	  0.082525052	-7.024000E+00	  0.082525052	1.278410E+02	  0.082525052	2.296800E+01	  0.082525052	2.015800E+01
314	  0.082725458	-7.043000E+00	  0.082725458	1.270750E+02	  0.082725458	2.314700E+01	  0.082725458	2.045600E+01
315	  0.082925856	-7.067000E+00	  0.082925856	1.263140E+02	  0.082925856	2.333800E+01	  0.082925856	2.074700E+01
316	  0.083126254	-7.087000E+00	  0.083126254	1.255340E+02	  0.083126254	2.352700E+01	  0.083126254	2.104900E+01
317	  0.083326660	-7.103000E+00	  0.083326660	1.247850E+02	  0.083326660	2.370300E+01	  0.083326660	2.134300E+01
318	  0.083527058	-7.130000E+00	  0.083527058	1.240610E+02	  0.083527058	2.390600E+01	  0.083527058	2.161400E+01
319	  0.083727457	-7.153000E+00	  0.083727457	1.232930E+02	  0.083727457	2.411000E+01	  0.083727457	2.190700E+01
320	  0.083927862	-7.172000E+00	  0.083927862	1.225750E+02	  0.083927862	2.429600E+01	  0.083927862	2.218500E+01
321	  0.084128261	-7.199000E+00	  0.084128261	1.218180E+02	  0.084128261	2.451400E+01	  0.084128261	2.246900E+01
322	  0.084328659	-7.218000E+00	  0.084328659	1.211020E+02	  0.084328659	2.470600E+01	  0.084328659	2.274500E+01
323	  0.084529065	-7.237000E+00	  0.084529065	1.203490E+02	  0.084529065	2.490900E+01	  0.084529065	2.303600E+01
324	  0.084729463	-7.263000E+00	  0.084729463	1.196600E+02	  0.084729463	2.511900E+01	  0.084729463	2.329200E+01
325	  0.084929854	-7.282000E+00	  0.084929854	1.189050E+02	  0.084929854	2.532900E+01	  0.084929854	2.358400E+01
326	  0.085130259	-7.306000E+00	  0.085130259	1.181840E+02	  0.085130259	2.554800E+01	  0.085130259	2.385400E+01
327	  0.085330658	-7.323000E+00	  0.085330658	1.174860E+02	  0.085330658	2.574500E+01	  0.085330658	2.412500E+01
328	  0.085531056	-7.346000E+00	  0.085531056	1.167550E+02	  0.085531056	2.596700E+01	  0.085531056	2.440100E+01
329	  0.085731462	-7.370000E+00	  0.085731462	1.160440E+02	  0.085731462	2.619500E+01	  0.085731462	2.466500E+01
330	  0.085931860	-7.390000E+00	  0.085931860	1.153340E+02	  0.085931860	2.641000E+01	  0.085931860	2.493700E+01
331	  0.086132258	-7.416000E+00	  0.086132258	1.146660E+02	  0.086132258	2.663800E+01	  0.086132258	2.518000E+01
332	  0.086332664	-7.437000E+00	  0.086332664	1.139500E+02	  0.086332664	2.686600E+01	  0.086332664	2.545000E+01
333	  0.086533062	-7.460000E+00	  0.086533062	1.132700E+02	  0.086533062	2.709500E+01	  0.086533062	2.570100E+01
334	  0.086733460	-7.473000E+00	  0.086733460	1.125560E+02	  0.086733460	2.730600E+01	  0.086733460	2.598200E+01
335	  0.086933866	-7.499000E+00	  0.086933866	1.118550E+02	  0.086933866	2.755500E+01	  0.086933866	2.623600E+01
336	  0.087134264	-7.521000E+00	  0.087134264	1.111940E+02	  0.087134264	2.778400E+01	  0.087134264	2.648000E+01
337	  0.087334670	-7.543000E+00	  0.087334670	1.105120E+02	  0.087334670	2.802300E+01	  0.087334670	2.673100E+01
338	  0.087535068	-7.565000E+00	  0.087535068	1.098380E+02	  0.087535068	2.826200E+01	  0.087535068	2.697900E+01
339	  0.087735467	-7.589000E+00	  0.087735467	1.091780E+02	  0.087735467	2.850600E+01	  0.087735467	2.721600E+01
340	  0.087935872	-7.611000E+00	  0.087935872	1.085310E+02	  0.087935872	2.874600E+01	  0.087935872	2.745000E+01
341	  0.088136271	-7.634000E+00	  0.088136271	1.078410E+02	  0.088136271	2.900100E+01	  0.088136271	2.770000E+01
342	  0.088336669	-7.656000E+00	  0.088336669	1.072030E+02	  0.088336669	2.924200E+01	  0.088336669	2.793000E+01
343	  0.088537075	-7.677000E+00	  0.088537075	1.065480E+02	  0.088537075	2.948800E+01	  0.088537075	2.816700E+01
344	  0.088737473	-7.697000E+00	  0.088737473	1.058950E+02	  0.088737473	2.973600E+01	  0.088737473	2.840500E+01
345	  0.088937871	-7.716000E+00	  0.088937871	1.052610E+02	  0.088937871	2.997700E+01	  0.088937871	2.863500E+01
346	  0.089138277	-7.751000E+00	  0.089138277	1.046260E+02	  0.089138277	3.026700E+01	  0.089138277	2.883300E+01
347	  0.089338675	-7.763000E+00	  0.089338675	1.040260E+02	  0.089338675	3.048600E+01	  0.089338675	2.906100E+01
348	  0.089539073	-7.796000E+00	  0.089539073	1.034010E+02	  0.089539073	3.077200E+01	  0.089539073	2.925700E+01
349	  0.089739479	-7.818000E+00	  0.089739479	1.027450E+02	  0.089739479	3.103900E+01	  0.089739479	2.948700E+01
350	  0.089939877	-7.846000E+00	  0.089939877	1.021590E+02	  0.089939877	3.130700E+01	  0.089939877	2.967300E+01
351	  0.090140276	-7.868000E+00	  0.090140276	1.015540E+02	  0.090140276	3.156400E+01	  0.090140276	2.988000E+01
352	  0.090340681	-7.894000E+00	  0.090340681	1.009390E+02	  0.090340681	3.183900E+01	  0.090340681	3.008000E+01
353	  0.090541080	-7.917000E+00	  0.090541080	1.003580E+02	  0.090541080	3.209800E+01	  0.090541080	3.027100E+01
354	  0.090741485	-7.947000E+00	  0.090741485	9.976900E+01	  0.090741485	3.238300E+01	  0.090741485	3.044700E+01
355	  0.090941884	-7.975000E+00	  0.090941884	9.918200E+01	  0.090941884	3.266300E+01	  0.090941884	3.062600E+01
356	  0.091142282	-8.004000E+00	  0.091142282	9.861700E+01	  0.091142282	3.293900E+01	  0.091142282	3.079400E+01
357	  0.091342688	-8.034000E+00	  0.091342688	9.798500E+01	  0.091342688	3.324800E+01	  0.091342688	3.098100E+01
358	  0.091543086	-8.061000E+00	  0.091543086	9.743300E+01	  0.091543086	3.352000E+01	  0.091543086	3.114500E+01
359	  0.091743484	-8.085000E+00	  0.091743484	9.687200E+01	  0.091743484	3.379000E+01	  0.091743484	3.131600E+01
360	  0.091943890	-8.108000E+00	  0.091943890	9.626100E+01	  0.091943890	3.407900E+01	  0.091943890	3.150900E+01
361	  0.092144288	-8.133000E+00	  0.092144288	9.566900E+01	  0.092144288	3.437100E+01	  0.092144288	3.168600E+01
362	  0.092344686	-8.160000E+00	  0.092344686	9.512500E+01	  0.092344686	3.465000E+01	  0.092344686	3.183900E+01
363	  0.092545092	-8.183000E+00	  0.092545092	9.458300E+01	  0.092545092	3.492200E+01	  0.092545092	3.199800E+01
364	  0.092745490	-8.217000E+00	  0.092745490	9.403500E+01	  0.092745490	3.522800E+01	  0.092745490	3.212900E+01
365	  0.092945889	-8.239000E+00	  0.092945889	9.345900E+01	  0.092945889	3.551400E+01	  0.092945889	3.230200E+01
366	  0.093146294	-8.264000E+00	  0.093146294	9.296200E+01	  0.093146294	3.577900E+01	  0.093146294	3.243300E+01
367	  0.093346693	-8.285000E+00	  0.093346693	9.243000E+01	  0.093346693	3.605000E+01	  0.093346693	3.258800E+01
368	  0.093547091	-8.312000E+00	  0.093547091	9.190800E+01	  0.093547091	3.633500E+01	  0.093547091	3.272100E+01
369	  0.093747497	-8.332000E+00	  0.093747497	9.134400E+01	  0.093747497	3.662300E+01	  0.093747497	3.288600E+01
370	  0.093947895	-8.356000E+00	  0.093947895	9.083600E+01	  0.093947895	3.690000E+01	  0.093947895	3.301700E+01
371	  0.094148301	-8.379000E+00	  0.094148301	9.033100E+01	  0.094148301	3.717600E+01	  0.094148301	3.314700E+01
372	  0.094348699	-8.408000E+00	  0.094348699	8.986300E+01	  0.094348699	3.745200E+01	  0.094348699	3.324400E+01
373	  0.094549097	-8.425000E+00	  0.094549097	8.938500E+01	  0.094549097	3.770200E+01	  0.094549097	3.338100E+01
374	  0.094749503	-8.450000E+00	  0.094749503	8.888500E+01	  0.094749503	3.798700E+01	  0.094749503	3.349800E+01
375	  0.094949901	-8.469000E+00	  0.094949901	8.840400E+01	  0.094949901	3.824900E+01	  0.094949901	3.362500E+01
376	  0.095150299	-8.485000E+00	  0.095150299	8.794100E+01	  0.095150299	3.849700E+01	  0.095150299	3.375200E+01
377	  0.095350705	-8.505000E+00	  0.095350705	8.745500E+01	  0.095350705	3.876800E+01	  0.095350705	3.387400E+01
378	  0.095551103	-8.523000E+00	  0.095551103	8.700000E+01	  0.095551103	3.902200E+01	  0.095551103	3.398900E+01
379	  0.095751502	-8.543000E+00	  0.095751502	8.654300E+01	  0.095751502	3.928400E+01	  0.095751502	3.409800E+01
380	  0.095951907	-8.558000E+00	  0.095951907	8.608600E+01	  0.095951907	3.953700E+01	  0.095951907	3.421800E+01
381	  0.096152306	-8.580000E+00	  0.096152306	8.565200E+01	  0.096152306	3.979400E+01	  0.096152306	3.431000E+01
382	  0.096352704	-8.596000E+00	  0.096352704	8.519000E+01	  0.096352704	4.005500E+01	  0.096352704	3.442600E+01
383	  0.096553110	-8.608000E+00	  0.096553110	8.477400E+01	  0.096553110	4.028500E+01	  0.096553110	3.453900E+01
384	  0.096753508	-8.622000E+00	  0.096753508	8.435900E+01	  0.096753508	4.052000E+01	  0.096753508	3.464500E+01
385	  0.096953906	-8.637000E+00	  0.096953906	8.392000E+01	  0.096953906	4.077200E+01	  0.096953906	3.475200E+01
386	  0.097154312	-8.653000E+00	  0.097154312	8.348300E+01	  0.097154312	4.102700E+01	  0.097154312	3.485500E+01
387	  0.097354710	-8.662000E+00	  0.097354710	8.302500E+01	  0.097354710	4.127800E+01	  0.097354710	3.498700E+01
388	  0.097555116	-8.682000E+00	  0.097555116	8.262100E+01	  0.097555116	4.152900E+01	  0.097555116	3.506200E+01
389	  0.097755514	-8.692000E+00	  0.097755514	8.221800E+01	  0.097755514	4.175800E+01	  0.097755514	3.516800E+01
390	  0.097955912	-8.703000E+00	  0.097955912	8.179700E+01	  0.097955912	4.199800E+01	  0.097955912	3.527900E+01
391	  0.098156318	-8.712000E+00	  0.098156318	8.139200E+01	  0.098156318	4.223000E+01	  0.098156318	3.538800E+01
392	  0.098356716	-8.722000E+00	  0.098356716	8.097600E+01	  0.098356716	4.247000E+01	  0.098356716	3.549500E+01
393	  0.098557115	-8.731000E+00	  0.098557115	8.054000E+01	  0.098557115	4.272200E+01	  0.098557115	3.561000E+01
394	  0.098757520	-8.735000E+00	  0.098757520	8.010800E+01	  0.098757520	4.296000E+01	  0.098757520	3.574500E+01
395	  0.098957919	-8.743000E+00	  0.098957919	7.969400E+01	  0.098957919	4.320100E+01	  0.098957919	3.585400E+01
396	  0.099158317	-8.744000E+00	  0.099158317	7.928700E+01	  0.099158317	4.342500E+01	  0.099158317	3.598600E+01
397	  0.099358723	-8.753000E+00	  0.099358723	7.885600E+01	  0.099358723	4.368000E+01	  0.099358723	3.609700E+01
398	  0.099559121	-8.753000E+00	  0.099559121	7.845200E+01	  0.099559121	4.390400E+01	  0.099559121	3.623000E+01
399	  0.099759519	-8.758000E+00	  0.099759519	7.802200E+01	  0.099759519	4.415300E+01	  0.099759519	3.635500E+01
400	  0.099959925	-8.750000E+00	  0.099959925	7.762600E+01	  0.099959925	4.436100E+01	  0.099959925	3.651000E+01
401	  0.100160323	-8.746000E+00	  0.100160323	7.720700E+01	  0.100160323	4.458900E+01	  0.100160323	3.666500E+01
402	  0.100360721	-8.749000E+00	  0.100360721	7.679500E+01	  0.100360721	4.483200E+01	  0.100360721	3.678400E+01
403	  0.100561127	-8.738000E+00	  0.100561127	7.634000E+01	  0.100561127	4.507200E+01	  0.100561127	3.697300E+01
404	  0.100761525	-8.733000E+00	  0.100761525	7.590700E+01	  0.100761525	4.531300E+01	  0.100761525	3.713200E+01
405	  0.100961931	-8.727000E+00	  0.100961931	7.557300E+01	  0.100961931	4.549900E+01	  0.100961931	3.726000E+01
406	  0.101162329	-8.722000E+00	  0.101162329	7.509700E+01	  0.101162329	4.577200E+01	  0.101162329	3.742900E+01
407	  0.101362728	-8.714000E+00	  0.101362728	7.469100E+01	  0.101362728	4.599900E+01	  0.101362728	3.759100E+01
408	  0.101563133	-8.714000E+00	  0.101563133	7.424300E+01	  0.101563133	4.627100E+01	  0.101563133	3.773000E+01
409	  0.101763532	-8.703000E+00	  0.101763532	7.384900E+01	  0.101763532	4.648800E+01	  0.101763532	3.789800E+01
410	  0.101963930	-8.699000E+00	  0.101963930	7.336200E+01	  0.101963930	4.678200E+01	  0.101963930	3.806200E+01
411	  0.102164328	-8.687000E+00	  0.102164328	7.288700E+01	  0.102164328	4.705400E+01	  0.102164328	3.826000E+01
412	  0.102364726	-8.680000E+00	  0.102364726	7.248800E+01	  0.102364726	4.729200E+01	  0.102364726	3.840900E+01
413	  0.102565125	-8.660000E+00	  0.102565125	7.203900E+01	  0.102565125	4.753900E+01	  0.102565125	3.862800E+01
414	  0.102765530	-8.652000E+00	  0.102765530	7.159800E+01	  0.102765530	4.780600E+01	  0.102765530	3.879700E+01
415	  0.102965929	-8.640000E+00	  0.102965929	7.114700E+01	  0.102965929	4.807700E+01	  0.102965929	3.898100E+01
416	  0.103166327	-8.624000E+00	  0.103166327	7.068500E+01	  0.103166327	4.834900E+01	  0.103166327	3.919000E+01
417	  0.103366733	-8.610000E+00	  0.103366733	7.019500E+01	  0.103366733	4.864800E+01	  0.103366733	3.939500E+01
418	  0.103567131	-8.598000E+00	  0.103567131	6.967600E+01	  0.103567131	4.897400E+01	  0.103567131	3.960100E+01
419	  0.103767529	-8.588000E+00	  0.103767529	6.923200E+01	  0.103767529	4.925700E+01	  0.103767529	3.977500E+01
420	  0.103967935	-8.571000E+00	  0.103967935	6.870400E+01	  0.103967935	4.958800E+01	  0.103967935	4.000400E+01
421	  0.104168333	-8.564000E+00	  0.104168333	6.821600E+01	  0.104168333	4.991600E+01	  0.104168333	4.017200E+01
422	  0.104368731	-8.544000E+00	  0.104368731	6.772200E+01	  0.104368731	5.022500E+01	  0.104368731	4.040700E+01
423	  0.104569137	-8.532000E+00	  0.104569137	6.725700E+01	  0.104569137	5.053400E+01	  0.104569137	4.059400E+01
424	  0.104769535	-8.509000E+00	  0.104769535	6.670100E+01	  0.104769535	5.089200E+01	  0.104769535	4.085800E+01
425	  0.104969934	-8.494000E+00	  0.104969934	6.619000E+01	  0.104969934	5.124000E+01	  0.104969934	4.106600E+01
426	  0.105170339	-8.472000E+00	  0.105170339	6.562100E+01	  0.105170339	5.162100E+01	  0.105170339	4.133000E+01
427	  0.105370738	-8.464000E+00	  0.105370738	6.509800E+01	  0.105370738	5.199900E+01	  0.105370738	4.150800E+01
428	  0.105571143	-8.449000E+00	  0.105571143	6.455600E+01	  0.105571143	5.238400E+01	  0.105571143	4.172700E+01
429	  0.105771542	-8.432000E+00	  0.105771542	6.397800E+01	  0.105771542	5.279900E+01	  0.105771542	4.196100E+01
430	  0.105971940	-8.415000E+00	  0.105971940	6.340600E+01	  0.105971940	5.321500E+01	  0.105971940	4.219700E+01
431	  0.106172346	-8.399000E+00	  0.106172346	6.283000E+01	  0.106172346	5.364400E+01	  0.106172346	4.242100E+01
432	  0.106372744	-8.377000E+00	  0.106372744	6.224000E+01	  0.106372744	5.408000E+01	  0.106372744	4.268300E+01
433	  0.106573142	-8.359000E+00	  0.106573142	6.163100E+01	  0.106573142	5.454500E+01	  0.106573142	4.292800E+01
434	  0.106773548	-8.340000E+00	  0.106773548	6.107900E+01	  0.106773548	5.497000E+01	  0.106773548	4.316200E+01
435	  0.106973946	-8.325000E+00	  0.106973946	6.049100E+01	  0.106973946	5.543700E+01	  0.106973946	4.338000E+01
436	  0.107174344	-8.310000E+00	  0.107174344	5.989400E+01	  0.107174344	5.591900E+01	  0.107174344	4.359800E+01
437	  0.107374750	-8.297000E+00	  0.107374750	5.925700E+01	  0.107374750	5.644700E+01	  0.107374750	4.380900E+01
438	  0.107575148	-8.273000E+00	  0.107575148	5.865500E+01	  0.107575148	5.693700E+01	  0.107575148	4.407500E+01
439	  0.107775547	-8.256000E+00	  0.107775547	5.802600E+01	  0.107775547	5.746800E+01	  0.107775547	4.430700E+01
440	  0.107975952	-8.232000E+00	  0.107975952	5.743000E+01	  0.107975952	5.797100E+01	  0.107975952	4.456400E+01
441	  0.108176351	-8.225000E+00	  0.108176351	5.676700E+01	  0.108176351	5.856300E+01	  0.108176351	4.473500E+01
442	  0.108376749	-8.203000E+00	  0.108376749	5.614000E+01	  0.108376749	5.911500E+01	  0.108376749	4.498200E+01
443	  0.108577155	-8.185000E+00	  0.108577155	5.546500E+01	  0.108577155	5.972500E+01	  0.108577155	4.521500E+01
444	  0.108777553	-8.173000E+00	  0.108777553	5.483000E+01	  0.108777553	6.031500E+01	  0.108777553	4.539200E+01
445	  0.108977959	-8.155000E+00	  0.108977959	5.416800E+01	  0.108977959	6.093400E+01	  0.108977959	4.561100E+01
446	  0.109178357	-8.142000E+00	  0.109178357	5.352000E+01	  0.109178357	6.155500E+01	  0.109178357	4.578900E+01
447	  0.109378755	-8.132000E+00	  0.109378755	5.279100E+01	  0.109378755	6.226800E+01	  0.109378755	4.595600E+01
448	  0.109579161	-8.111000E+00	  0.109579161	5.213900E+01	  0.109579161	6.290700E+01	  0.109579161	4.617500E+01
449	  0.109779559	-8.102000E+00	  0.109779559	5.143100E+01	  0.109779559	6.362400E+01	  0.109779559	4.631300E+01
450	  0.109979957	-8.082000E+00	  0.109979957	5.075200E+01	  0.109979957	6.431500E+01	  0.109979957	4.651500E+01
451	  0.110180363	-8.076000E+00	  0.110180363	5.000600E+01	  0.110180363	6.509500E+01	  0.110180363	4.662200E+01
452	  0.110380761	-8.071000E+00	  0.110380761	4.929800E+01	  0.110380761	6.584800E+01	  0.110380761	4.670200E+01
453	  0.110581160	-8.063000E+00	  0.110581160	4.859400E+01	  0.110581160	6.660700E+01	  0.110581160	4.679800E+01
454	  0.110781565	-8.047000E+00	  0.110781565	4.782200E+01	  0.110781565	6.745000E+01	  0.110781565	4.693800E+01
455	  0.110981964	-8.040000E+00	  0.110981964	4.710400E+01	  0.110981964	6.824800E+01	  0.110981964	4.700800E+01
456	  0.111182362	-8.039000E+00	  0.111182362	4.634600E+01	  0.111182362	6.910200E+01	  0.111182362	4.701100E+01
457	  0.111382768	-8.024000E+00	  0.111382768	4.557000E+01	  0.111382768	6.999100E+01	  0.111382768	4.711100E+01
458	  0.111583166	-8.024000E+00	  0.111583166	4.478900E+01	  0.111583166	7.089500E+01	  0.111583166	4.707500E+01
459	  0.111783572	-8.022000E+00	  0.111783572	4.401900E+01	  0.111783572	7.179900E+01	  0.111783572	4.703900E+01
460	  0.111983970	-8.015000E+00	  0.111983970	4.317200E+01	  0.111983970	7.280800E+01	  0.111983970	4.702100E+01
461	  0.112184368	-8.018000E+00	  0.112184368	4.236300E+01	  0.112184368	7.377600E+01	  0.112184368	4.689700E+01
462	  0.112384774	-8.013000E+00	  0.112384774	4.153200E+01	  0.112384774	7.479300E+01	  0.112384774	4.682300E+01
463	  0.112585172	-8.006000E+00	  0.112585172	4.074400E+01	  0.112585172	7.576900E+01	  0.112585172	4.674000E+01
464	  0.112785570	-8.015000E+00	  0.112785570	3.991400E+01	  0.112785570	7.678600E+01	  0.112785570	4.650200E+01
465	  0.112985976	-8.012000E+00	  0.112985976	3.910400E+01	  0.112985976	7.780600E+01	  0.112985976	4.634000E+01
466	  0.113186374	-8.017000E+00	  0.113186374	3.822800E+01	  0.113186374	7.890500E+01	  0.113186374	4.607300E+01
467	  0.113386773	-8.020000E+00	  0.113386773	3.736100E+01	  0.113386773	8.000300E+01	  0.113386773	4.578700E+01
468	  0.113587178	-8.020000E+00	  0.113587178	3.646100E+01	  0.113587178	8.115900E+01	  0.113587178	4.548800E+01
469	  0.113787577	-8.029000E+00	  0.113787577	3.558500E+01	  0.113787577	8.226900E+01	  0.113787577	4.508800E+01
470	  0.113987975	-8.036000E+00	  0.113987975	3.475100E+01	  0.113987975	8.333200E+01	  0.113987975	4.468600E+01
471	  0.114188381	-8.051000E+00	  0.114188381	3.384200E+01	  0.114188381	8.447100E+01	  0.114188381	4.415200E+01
472	  0.114388779	-8.056000E+00	  0.114388779	3.296900E+01	  0.114388779	8.559100E+01	  0.114388779	4.367700E+01
473	  0.114589177	-8.070000E+00	  0.114589177	3.203200E+01	  0.114589177	8.676500E+01	  0.114589177	4.306000E+01
474	  0.114789583	-8.075000E+00	  0.114789583	3.114100E+01	  0.114789583	8.790800E+01	  0.114789583	4.250500E+01
475	  0.114989981	-8.094000E+00	  0.114989981	3.019900E+01	  0.114989981	8.905700E+01	  0.114989981	4.176000E+01
476	  0.115190387	-8.109000E+00	  0.115190387	2.922900E+01	  0.115190387	9.024600E+01	  0.115190387	4.098100E+01
477	  0.115390785	-8.129000E+00	  0.115390785	2.830600E+01	  0.115390785	9.134000E+01	  0.115390785	4.015600E+01
478	  0.115591183	-8.146000E+00	  0.115591183	2.732300E+01	  0.115591183	9.250600E+01	  0.115591183	3.925900E+01
479	  0.115791589	-8.168000E+00	  0.115791589	2.645400E+01	  0.115791589	9.348200E+01	  0.115791589	3.837100E+01
480	  0.115991987	-8.191000E+00	  0.115991987	2.543500E+01	  0.115991987	9.462100E+01	  0.115991987	3.731200E+01
481	  0.116192386	-8.212000E+00	  0.116192386	2.447000E+01	  0.116192386	9.567100E+01	  0.116192386	3.626100E+01
482	  0.116392791	-8.243000E+00	  0.116392791	2.348100E+01	  0.116392791	9.666400E+01	  0.116392791	3.507800E+01
483	  0.116593190	-8.268000E+00	  0.116593190	2.240600E+01	  0.116593190	9.775000E+01	  0.116593190	3.379800E+01
484	  0.116793588	-8.303000E+00	  0.116793588	2.143200E+01	  0.116793588	9.861800E+01	  0.116793588	3.251400E+01
485	  0.116993994	-8.335000E+00	  0.116993994	2.039200E+01	  0.116993994	9.952500E+01	  0.116993994	3.113200E+01
486	  0.117194392	-8.376000E+00	  0.117194392	1.937000E+01	  0.117194392	1.002990E+02	  0.117194392	2.967400E+01
487	  0.117394790	-8.411000E+00	  0.117394790	1.831000E+01	  0.117394790	1.011040E+02	  0.117394790	2.818100E+01
488	  0.117595196	-8.453000E+00	  0.117595196	1.727700E+01	  0.117595196	1.017670E+02	  0.117595196	2.664500E+01
489	  0.117795594	-8.497000E+00	  0.117795594	1.618600E+01	  0.117795594	1.024080E+02	  0.117795594	2.499900E+01
490	  0.117995992	-8.549000E+00	  0.117995992	1.509900E+01	  0.117995992	1.029030E+02	  0.117995992	2.328800E+01
491	  0.118196398	-8.591000E+00	  0.118196398	1.400900E+01	  0.118196398	1.034120E+02	  0.118196398	2.161000E+01
492	  0.118396796	-8.646000E+00	  0.118396796	1.286400E+01	  0.118396796	1.037700E+02	  0.118396796	1.977500E+01
493	  0.118597202	-8.701000E+00	  0.118597202	1.171700E+01	  0.118597202	1.040560E+02	  0.118597202	1.793900E+01
494	  0.118797600	-8.755000E+00	  0.118797600	1.061200E+01	  0.118797600	1.042380E+02	  0.118797600	1.616400E+01
