! Anritsu VNA Master:             	Model: MS2036C/10/77
! SN:             	1601066
! /bd0/18may09/252.ns.m3.txt
! Existing Calibration Information:
! TYPE:             	Current Settings	Active Cal Settings
! TIME:             	05/09/2018 08:55:27 AM	05/09/2018 08:47:23 AM
! INTERNAL TEMP:    	39.8 C	40.0 C
! # POINTS:         	500	500
! START FREQ:       	20.000 MHz	20.000 MHz
! STOP FREQ:        	120.000 MHz	120.000 MHz
! SOURCE POWER:     	High	High
! IFBW:             	50 Hz	50 Hz
! AVG FACTOR:       	  1 	  1 
! REF PLANE 1:      	0 mm	0 mm
! REF PLANE 2:      	0 mm	0 mm
! CAL TYPE:         	Full S11	Full S11
! CAL METHOD:       	SOLT	SOLT
! CAL LINE TYPE:    	Coax	Coax
! DUT PORT 1:       	K-Conn(F)	K-Conn(F)
! DUT PORT 2:       	K-Conn(F)	K-Conn(F)
! CAL STATUS:       	OK: Accuracy High	--
! PROP-V:       	0.700
! CABLE LOSS:       	0.000 dB/m
! REF IMPEDANCE:       	50.0
! Trace Specific Parameters:	TR1	TR2	TR3	TR4
! TRACE.#.Y (GRAPH TYPE)	LOG MAG	PHASE	REAL IMPEDANCE	IMAGINARY IMPEDANCE
! TRACE.#.X 	FREQ.GHZ	FREQ.GHZ	FREQ.GHZ	FREQ.GHZ
! S-PARAMETER	S11	S11	S11	S11
! SMOOTH/APERTURE %	0	0	0	0
! WINDOW	NSL	NSL	NSL	NSL
! GATING	OFF	OFF	OFF	OFF
! FGTD	OFF	OFF	OFF	OFF
Marker Information per Trace:	TR1	TR2	TR3	TR4
!MK1	--	"MK1 TR2:  20.000 MHz,PH:-124.09°"	--	--
!MK2	--	--	"MK2 TR3:  70.100 200 MHz,Z:(16.445 ohm, -3.353 ohm)"	--
!MK3	--	--	--	--
!MK4	--	--	--	--
!MK5	--	--	--	--
!MK6	--	--	--	--
!MK7	--	--	--	--
!MK8	--	--	--	--
PNT	TR1.FREQ.GHZ	TR1.LOG MAG.dB	TR2.FREQ.GHZ	TR2.PHASE.deg	TR3.FREQ.GHZ	TR3.REAL IMPEDANCE.ohm	TR4.FREQ.GHZ	TR4.IMAGINARY IMPEDANCE.ohm
1	  0.020000000	-5.950000E-01	  0.020000000	-1.240940E+02	  0.020000000	2.195000E+00	  0.020000000	-2.649200E+01
2	  0.020200402	-5.950000E-01	  0.020200402	-1.255070E+02	  0.020200402	2.166000E+00	  0.020200402	-2.570900E+01
3	  0.020400802	-5.960000E-01	  0.020400802	-1.269380E+02	  0.020400802	2.144000E+00	  0.020400802	-2.492500E+01
4	  0.020601204	-5.980000E-01	  0.020601204	-1.283740E+02	  0.020601204	2.123000E+00	  0.020601204	-2.414900E+01
5	  0.020801604	-6.020000E-01	  0.020801604	-1.298380E+02	  0.020801604	2.113000E+00	  0.020801604	-2.336600E+01
6	  0.021002004	-6.100000E-01	  0.021002004	-1.313310E+02	  0.021002004	2.114000E+00	  0.021002004	-2.257800E+01
7	  0.021202406	-6.190000E-01	  0.021202406	-1.328330E+02	  0.021202406	2.119000E+00	  0.021202406	-2.179300E+01
8	  0.021402806	-6.210000E-01	  0.021402806	-1.343160E+02	  0.021402806	2.105000E+00	  0.021402806	-2.102900E+01
9	  0.021603208	-6.270000E-01	  0.021603208	-1.358120E+02	  0.021603208	2.101000E+00	  0.021603208	-2.026600E+01
10	  0.021803608	-6.300000E-01	  0.021803608	-1.373030E+02	  0.021803608	2.090000E+00	  0.021803608	-1.951300E+01
11	  0.022004008	-6.350000E-01	  0.022004008	-1.388130E+02	  0.022004008	2.086000E+00	  0.022004008	-1.875800E+01
12	  0.022204408	-6.410000E-01	  0.022204408	-1.403170E+02	  0.022204408	2.086000E+00	  0.022204408	-1.801300E+01
13	  0.022404809	-6.480000E-01	  0.022404809	-1.418460E+02	  0.022404809	2.087000E+00	  0.022404809	-1.726400E+01
14	  0.022605211	-6.500000E-01	  0.022605211	-1.434100E+02	  0.022605211	2.075000E+00	  0.022605211	-1.650500E+01
15	  0.022805611	-6.530000E-01	  0.022805611	-1.449640E+02	  0.022805611	2.067000E+00	  0.022805611	-1.575700E+01
16	  0.023006011	-6.580000E-01	  0.023006011	-1.464960E+02	  0.023006011	2.066000E+00	  0.023006011	-1.502600E+01
17	  0.023206413	-6.580000E-01	  0.023206413	-1.480210E+02	  0.023206413	2.049000E+00	  0.023206413	-1.430400E+01
18	  0.023406813	-6.620000E-01	  0.023406813	-1.495730E+02	  0.023406813	2.045000E+00	  0.023406813	-1.357500E+01
19	  0.023607215	-6.660000E-01	  0.023607215	-1.511070E+02	  0.023607215	2.045000E+00	  0.023607215	-1.286000E+01
20	  0.023807615	-6.740000E-01	  0.023807615	-1.526740E+02	  0.023807615	2.055000E+00	  0.023807615	-1.213400E+01
21	  0.024008015	-6.820000E-01	  0.024008015	-1.542490E+02	  0.024008015	2.066000E+00	  0.024008015	-1.141000E+01
22	  0.024208417	-6.900000E-01	  0.024208417	-1.558450E+02	  0.024208417	2.078000E+00	  0.024208417	-1.068000E+01
23	  0.024408817	-6.990000E-01	  0.024408817	-1.574510E+02	  0.024408817	2.090000E+00	  0.024408817	-9.950000E+00
24	  0.024609219	-7.070000E-01	  0.024609219	-1.590430E+02	  0.024609219	2.104000E+00	  0.024609219	-9.231000E+00
25	  0.024809619	-7.140000E-01	  0.024809619	-1.606530E+02	  0.024809619	2.115000E+00	  0.024809619	-8.507000E+00
26	  0.025010020	-7.240000E-01	  0.025010020	-1.622640E+02	  0.025010020	2.135000E+00	  0.025010020	-7.787000E+00
27	  0.025210422	-7.360000E-01	  0.025210422	-1.638890E+02	  0.025210422	2.159000E+00	  0.025210422	-7.063000E+00
28	  0.025410822	-7.500000E-01	  0.025410822	-1.655380E+02	  0.025410822	2.192000E+00	  0.025410822	-6.331000E+00
29	  0.025611224	-7.600000E-01	  0.025611224	-1.672020E+02	  0.025611224	2.214000E+00	  0.025611224	-5.596000E+00
30	  0.025811624	-7.710000E-01	  0.025811624	-1.688840E+02	  0.025811624	2.240000E+00	  0.025811624	-4.855000E+00
31	  0.026012026	-7.800000E-01	  0.026012026	-1.705700E+02	  0.026012026	2.259000E+00	  0.026012026	-4.115000E+00
32	  0.026212426	-7.890000E-01	  0.026212426	-1.722680E+02	  0.026212426	2.279000E+00	  0.026212426	-3.371000E+00
33	  0.026412826	-8.020000E-01	  0.026412826	-1.739630E+02	  0.026412826	2.315000E+00	  0.026412826	-2.630000E+00
34	  0.026613226	-8.150000E-01	  0.026613226	-1.756750E+02	  0.026613226	2.348000E+00	  0.026613226	-1.883000E+00
35	  0.026813626	-8.310000E-01	  0.026813626	-1.773970E+02	  0.026813626	2.392000E+00	  0.026813626	-1.133000E+00
36	  0.027014028	-8.460000E-01	  0.027014028	-1.791290E+02	  0.027014028	2.434000E+00	  0.027014028	-3.790000E-01
37	  0.027214428	-8.610000E-01	  0.027214428	1.791220E+02	  0.027214428	2.478000E+00	  0.027214428	3.820000E-01
38	  0.027414829	-8.760000E-01	  0.027414829	1.773600E+02	  0.027414829	2.520000E+00	  0.027414829	1.149000E+00
39	  0.027615231	-8.940000E-01	  0.027615231	1.755920E+02	  0.027615231	2.574000E+00	  0.027615231	1.919000E+00
40	  0.027815631	-9.120000E-01	  0.027815631	1.738150E+02	  0.027815631	2.630000E+00	  0.027815631	2.693000E+00
41	  0.028016033	-9.340000E-01	  0.028016033	1.720310E+02	  0.028016033	2.700000E+00	  0.028016033	3.472000E+00
42	  0.028216433	-9.570000E-01	  0.028216433	1.702330E+02	  0.028216433	2.773000E+00	  0.028216433	4.258000E+00
43	  0.028416833	-9.760000E-01	  0.028416833	1.684370E+02	  0.028416833	2.837000E+00	  0.028416833	5.046000E+00
44	  0.028617235	-9.970000E-01	  0.028617235	1.666360E+02	  0.028617235	2.907000E+00	  0.028617235	5.837000E+00
45	  0.028817635	-1.017000E+00	  0.028817635	1.648550E+02	  0.028817635	2.978000E+00	  0.028817635	6.623000E+00
46	  0.029018037	-1.038000E+00	  0.029018037	1.630620E+02	  0.029018037	3.052000E+00	  0.029018037	7.417000E+00
47	  0.029218437	-1.063000E+00	  0.029218437	1.612690E+02	  0.029218437	3.139000E+00	  0.029218437	8.214000E+00
48	  0.029418837	-1.090000E+00	  0.029418837	1.594670E+02	  0.029418837	3.236000E+00	  0.029418837	9.019000E+00
49	  0.029619239	-1.116000E+00	  0.029619239	1.576580E+02	  0.029619239	3.334000E+00	  0.029619239	9.831000E+00
50	  0.029819639	-1.148000E+00	  0.029819639	1.558190E+02	  0.029819639	3.451000E+00	  0.029819639	1.066100E+01
51	  0.030020041	-1.179000E+00	  0.030020041	1.539570E+02	  0.030020041	3.568000E+00	  0.030020041	1.150600E+01
52	  0.030220442	-1.209000E+00	  0.030220442	1.520840E+02	  0.030220442	3.688000E+00	  0.030220442	1.236300E+01
53	  0.030420844	-1.240000E+00	  0.030420844	1.502160E+02	  0.030420844	3.815000E+00	  0.030420844	1.322300E+01
54	  0.030621244	-1.274000E+00	  0.030621244	1.483570E+02	  0.030621244	3.952000E+00	  0.030621244	1.408600E+01
55	  0.030821644	-1.307000E+00	  0.030821644	1.464920E+02	  0.030821644	4.095000E+00	  0.030821644	1.495900E+01
56	  0.031022044	-1.344000E+00	  0.031022044	1.446150E+02	  0.031022044	4.253000E+00	  0.031022044	1.584400E+01
57	  0.031222444	-1.378000E+00	  0.031222444	1.427470E+02	  0.031222444	4.406000E+00	  0.031222444	1.673400E+01
58	  0.031422846	-1.414000E+00	  0.031422846	1.408170E+02	  0.031422846	4.573000E+00	  0.031422846	1.766300E+01
59	  0.031623244	-1.448000E+00	  0.031623244	1.388830E+02	  0.031623244	4.739000E+00	  0.031623244	1.860400E+01
60	  0.031823646	-1.479000E+00	  0.031823646	1.369190E+02	  0.031823646	4.902000E+00	  0.031823646	1.957100E+01
61	  0.032024048	-1.510000E+00	  0.032024048	1.349890E+02	  0.032024048	5.073000E+00	  0.032024048	2.053300E+01
62	  0.032224450	-1.543000E+00	  0.032224450	1.330500E+02	  0.032224450	5.257000E+00	  0.032224450	2.151200E+01
63	  0.032424849	-1.574000E+00	  0.032424849	1.311320E+02	  0.032424849	5.442000E+00	  0.032424849	2.249300E+01
64	  0.032625251	-1.605000E+00	  0.032625251	1.291830E+02	  0.032625251	5.638000E+00	  0.032625251	2.350300E+01
65	  0.032825653	-1.642000E+00	  0.032825653	1.272570E+02	  0.032825653	5.858000E+00	  0.032825653	2.451500E+01
66	  0.033026051	-1.682000E+00	  0.033026051	1.253050E+02	  0.033026051	6.103000E+00	  0.033026051	2.555400E+01
67	  0.033226453	-1.731000E+00	  0.033226453	1.233310E+02	  0.033226453	6.391000E+00	  0.033226453	2.661800E+01
68	  0.033426855	-1.777000E+00	  0.033426855	1.213580E+02	  0.033426855	6.685000E+00	  0.033426855	2.769900E+01
69	  0.033627257	-1.827000E+00	  0.033627257	1.193290E+02	  0.033627257	7.007000E+00	  0.033627257	2.882900E+01
70	  0.033827655	-1.873000E+00	  0.033827655	1.172560E+02	  0.033827655	7.338000E+00	  0.033827655	3.000500E+01
71	  0.034028057	-1.919000E+00	  0.034028057	1.151720E+02	  0.034028057	7.684000E+00	  0.034028057	3.121000E+01
72	  0.034228459	-1.965000E+00	  0.034228459	1.130610E+02	  0.034228459	8.051000E+00	  0.034228459	3.245600E+01
73	  0.034428857	-2.009000E+00	  0.034428857	1.109300E+02	  0.034428857	8.431000E+00	  0.034428857	3.374000E+01
74	  0.034629259	-2.050000E+00	  0.034629259	1.088150E+02	  0.034629259	8.821000E+00	  0.034629259	3.504400E+01
75	  0.034829661	-2.088000E+00	  0.034829661	1.067100E+02	  0.034829661	9.221000E+00	  0.034829661	3.637300E+01
76	  0.035030060	-2.126000E+00	  0.035030060	1.045360E+02	  0.035030060	9.650000E+00	  0.035030060	3.777900E+01
77	  0.035230462	-2.167000E+00	  0.035230462	1.024310E+02	  0.035230462	1.011200E+01	  0.035230462	3.916900E+01
78	  0.035430863	-2.206000E+00	  0.035430863	1.003670E+02	  0.035430863	1.058800E+01	  0.035430863	4.056700E+01
79	  0.035631265	-2.247000E+00	  0.035631265	9.828600E+01	  0.035631265	1.110900E+01	  0.035631265	4.200900E+01
80	  0.035831664	-2.291000E+00	  0.035831664	9.620900E+01	  0.035831664	1.167300E+01	  0.035831664	4.348100E+01
81	  0.036032066	-2.337000E+00	  0.036032066	9.415000E+01	  0.036032066	1.228300E+01	  0.036032066	4.497400E+01
82	  0.036232468	-2.383000E+00	  0.036232468	9.211300E+01	  0.036232468	1.292900E+01	  0.036232468	4.648900E+01
83	  0.036432866	-2.432000E+00	  0.036432866	9.007800E+01	  0.036432866	1.362900E+01	  0.036432866	4.803700E+01
84	  0.036633268	-2.488000E+00	  0.036633268	8.801600E+01	  0.036633268	1.442700E+01	  0.036633268	4.963600E+01
85	  0.036833670	-2.550000E+00	  0.036833670	8.596600E+01	  0.036833670	1.530700E+01	  0.036833670	5.125500E+01
86	  0.037034072	-2.611000E+00	  0.037034072	8.387200E+01	  0.037034072	1.625700E+01	  0.037034072	5.295400E+01
87	  0.037234470	-2.671000E+00	  0.037234470	8.176200E+01	  0.037234470	1.727200E+01	  0.037234470	5.471500E+01
88	  0.037434869	-2.737000E+00	  0.037434869	7.962100E+01	  0.037434869	1.841400E+01	  0.037434869	5.653600E+01
89	  0.037635271	-2.801000E+00	  0.037635271	7.746300E+01	  0.037635271	1.963700E+01	  0.037635271	5.842500E+01
90	  0.037835669	-2.866000E+00	  0.037835669	7.529200E+01	  0.037835669	2.097700E+01	  0.037835669	6.037000E+01
91	  0.038036071	-2.939000E+00	  0.038036071	7.313200E+01	  0.038036071	2.246300E+01	  0.038036071	6.233200E+01
92	  0.038236473	-2.994000E+00	  0.038236473	7.103300E+01	  0.038236473	2.391700E+01	  0.038236473	6.433400E+01
93	  0.038436871	-3.046000E+00	  0.038436871	6.889300E+01	  0.038436871	2.549400E+01	  0.038436871	6.644300E+01
94	  0.038637273	-3.090000E+00	  0.038637273	6.675400E+01	  0.038637273	2.714100E+01	  0.038637273	6.864100E+01
95	  0.038837675	-3.137000E+00	  0.038837675	6.463100E+01	  0.038837675	2.894900E+01	  0.038837675	7.086800E+01
96	  0.039038073	-3.183000E+00	  0.039038073	6.254100E+01	  0.039038073	3.088400E+01	  0.039038073	7.311200E+01
97	  0.039238475	-3.236000E+00	  0.039238475	6.045400E+01	  0.039238475	3.303300E+01	  0.039238475	7.537300E+01
98	  0.039438877	-3.292000E+00	  0.039438877	5.839400E+01	  0.039438877	3.537500E+01	  0.039438877	7.761900E+01
99	  0.039639279	-3.352000E+00	  0.039639279	5.632300E+01	  0.039639279	3.797200E+01	  0.039639279	7.987800E+01
100	  0.039839678	-3.417000E+00	  0.039839678	5.424300E+01	  0.039839678	4.085000E+01	  0.039839678	8.212800E+01
101	  0.040040080	-3.481000E+00	  0.040040080	5.214300E+01	  0.040040080	4.400100E+01	  0.040040080	8.440500E+01
102	  0.040240481	-3.544000E+00	  0.040240481	5.002700E+01	  0.040240481	4.745700E+01	  0.040240481	8.668500E+01
103	  0.040440880	-3.609000E+00	  0.040440880	4.791700E+01	  0.040440880	5.122600E+01	  0.040440880	8.890600E+01
104	  0.040641282	-3.671000E+00	  0.040641282	4.580100E+01	  0.040641282	5.532400E+01	  0.040641282	9.108500E+01
105	  0.040841684	-3.734000E+00	  0.040841684	4.368900E+01	  0.040841684	5.978600E+01	  0.040841684	9.314700E+01
106	  0.041042086	-3.795000E+00	  0.041042086	4.158200E+01	  0.041042086	6.461600E+01	  0.041042086	9.508400E+01
107	  0.041242484	-3.855000E+00	  0.041242484	3.945000E+01	  0.041242484	6.991500E+01	  0.041242484	9.686800E+01
108	  0.041442886	-3.912000E+00	  0.041442886	3.732100E+01	  0.041442886	7.564300E+01	  0.041442886	9.843900E+01
109	  0.041643288	-3.968000E+00	  0.041643288	3.518500E+01	  0.041643288	8.185400E+01	  0.041643288	9.971500E+01
110	  0.041843686	-4.022000E+00	  0.041843686	3.309400E+01	  0.041843686	8.840300E+01	  0.041843686	1.005950E+02
111	  0.042044088	-4.075000E+00	  0.042044088	3.101800E+01	  0.042044088	9.537300E+01	  0.042044088	1.009970E+02
112	  0.042244490	-4.127000E+00	  0.042244490	2.895100E+01	  0.042244490	1.027600E+02	  0.042244490	1.008360E+02
113	  0.042444889	-4.179000E+00	  0.042444889	2.691000E+01	  0.042444889	1.104610E+02	  0.042444889	9.998700E+01
114	  0.042645290	-4.234000E+00	  0.042645290	2.486000E+01	  0.042645290	1.185410E+02	  0.042645290	9.829800E+01
115	  0.042845692	-4.284000E+00	  0.042845692	2.282700E+01	  0.042845692	1.268110E+02	  0.042845692	9.579400E+01
116	  0.043046094	-4.338000E+00	  0.043046094	2.078600E+01	  0.043046094	1.352380E+02	  0.043046094	9.221500E+01
117	  0.043246493	-4.389000E+00	  0.043246493	1.875500E+01	  0.043246493	1.436080E+02	  0.043246493	8.759600E+01
118	  0.043446895	-4.439000E+00	  0.043446895	1.672200E+01	  0.043446895	1.517890E+02	  0.043446895	8.183300E+01
119	  0.043647297	-4.491000E+00	  0.043647297	1.470000E+01	  0.043647297	1.594770E+02	  0.043647297	7.487000E+01
120	  0.043847695	-4.544000E+00	  0.043847695	1.270400E+01	  0.043847695	1.663870E+02	  0.043847695	6.685600E+01
121	  0.044048097	-4.595000E+00	  0.044048097	1.069000E+01	  0.044048097	1.724840E+02	  0.044048097	5.773700E+01
122	  0.044248499	-4.645000E+00	  0.044248499	8.682000E+00	  0.044248499	1.775160E+02	  0.044248499	4.779200E+01
123	  0.044448901	-4.696000E+00	  0.044448901	6.694000E+00	  0.044448901	1.811850E+02	  0.044448901	3.722300E+01
124	  0.044649299	-4.743000E+00	  0.044649299	4.704000E+00	  0.044649299	1.835920E+02	  0.044649299	2.624700E+01
125	  0.044849701	-4.786000E+00	  0.044849701	2.731000E+00	  0.044849701	1.846930E+02	  0.044849701	1.519000E+01
126	  0.045050103	-4.830000E+00	  0.045050103	7.620000E-01	  0.045050103	1.843040E+02	  0.045050103	4.189000E+00
127	  0.045250501	-4.870000E+00	  0.045250501	-1.180000E+00	  0.045250501	1.827290E+02	  0.045250501	-6.371000E+00
128	  0.045450903	-4.914000E+00	  0.045450903	-3.109000E+00	  0.045450903	1.798240E+02	  0.045450903	-1.635200E+01
129	  0.045651305	-4.955000E+00	  0.045651305	-5.040000E+00	  0.045651305	1.759230E+02	  0.045651305	-2.567500E+01
130	  0.045851704	-4.997000E+00	  0.045851704	-6.930000E+00	  0.045851704	1.712190E+02	  0.045851704	-3.399800E+01
131	  0.046052106	-5.038000E+00	  0.046052106	-8.842000E+00	  0.046052106	1.657990E+02	  0.046052106	-4.156000E+01
132	  0.046252504	-5.076000E+00	  0.046252504	-1.073700E+01	  0.046252504	1.599970E+02	  0.046252504	-4.821000E+01
133	  0.046452906	-5.114000E+00	  0.046452906	-1.261600E+01	  0.046452906	1.538930E+02	  0.046452906	-5.392100E+01
134	  0.046653304	-5.147000E+00	  0.046653304	-1.452500E+01	  0.046653304	1.475650E+02	  0.046653304	-5.894200E+01
135	  0.046853706	-5.180000E+00	  0.046853706	-1.638300E+01	  0.046853706	1.412960E+02	  0.046853706	-6.302400E+01
136	  0.047054108	-5.211000E+00	  0.047054108	-1.825200E+01	  0.047054108	1.350120E+02	  0.047054108	-6.641900E+01
137	  0.047254506	-5.239000E+00	  0.047254506	-2.010300E+01	  0.047254506	1.288950E+02	  0.047254506	-6.917000E+01
138	  0.047454908	-5.267000E+00	  0.047454908	-2.193600E+01	  0.047454908	1.229620E+02	  0.047454908	-7.129800E+01
139	  0.047655310	-5.293000E+00	  0.047655310	-2.374300E+01	  0.047655310	1.172930E+02	  0.047655310	-7.289500E+01
140	  0.047855709	-5.321000E+00	  0.047855709	-2.552500E+01	  0.047855709	1.118900E+02	  0.047855709	-7.398100E+01
141	  0.048056111	-5.350000E+00	  0.048056111	-2.732100E+01	  0.048056111	1.066670E+02	  0.048056111	-7.466900E+01
142	  0.048256513	-5.377000E+00	  0.048256513	-2.908500E+01	  0.048256513	1.017770E+02	  0.048256513	-7.503100E+01
143	  0.048456915	-5.406000E+00	  0.048456915	-3.087300E+01	  0.048456915	9.706300E+01	  0.048456915	-7.507900E+01
144	  0.048657313	-5.427000E+00	  0.048657313	-3.264500E+01	  0.048657313	9.263700E+01	  0.048657313	-7.499200E+01
145	  0.048857715	-5.449000E+00	  0.048857715	-3.442500E+01	  0.048857715	8.842500E+01	  0.048857715	-7.468500E+01
146	  0.049058117	-5.472000E+00	  0.049058117	-3.618400E+01	  0.049058117	8.449000E+01	  0.049058117	-7.416500E+01
147	  0.049258515	-5.492000E+00	  0.049258515	-3.792200E+01	  0.049258515	8.081300E+01	  0.049258515	-7.354300E+01
148	  0.049458917	-5.515000E+00	  0.049458917	-3.965100E+01	  0.049458917	7.736300E+01	  0.049458917	-7.276100E+01
149	  0.049659319	-5.540000E+00	  0.049659319	-4.140100E+01	  0.049659319	7.407800E+01	  0.049659319	-7.182700E+01
150	  0.049859721	-5.557000E+00	  0.049859721	-4.310400E+01	  0.049859721	7.104400E+01	  0.049859721	-7.093300E+01
151	  0.050060119	-5.576000E+00	  0.050060119	-4.484900E+01	  0.050060119	6.811800E+01	  0.050060119	-6.991900E+01
152	  0.050260521	-5.591000E+00	  0.050260521	-4.656100E+01	  0.050260521	6.539800E+01	  0.050260521	-6.890200E+01
153	  0.050460923	-5.609000E+00	  0.050460923	-4.829000E+01	  0.050460923	6.281600E+01	  0.050460923	-6.780300E+01
154	  0.050661322	-5.617000E+00	  0.050661322	-4.999200E+01	  0.050661322	6.038400E+01	  0.050661322	-6.676100E+01
155	  0.050861724	-5.629000E+00	  0.050861724	-5.164900E+01	  0.050861724	5.815900E+01	  0.050861724	-6.568300E+01
156	  0.051062126	-5.640000E+00	  0.051062126	-5.331000E+01	  0.051062126	5.605000E+01	  0.051062126	-6.457200E+01
157	  0.051262524	-5.653000E+00	  0.051262524	-5.492000E+01	  0.051262524	5.411900E+01	  0.051262524	-6.347100E+01
158	  0.051462926	-5.663000E+00	  0.051462926	-5.653100E+01	  0.051462926	5.228200E+01	  0.051462926	-6.236700E+01
159	  0.051663328	-5.674000E+00	  0.051663328	-5.812100E+01	  0.051663328	5.056400E+01	  0.051663328	-6.126700E+01
160	  0.051863730	-5.690000E+00	  0.051863730	-5.971100E+01	  0.051863730	4.895600E+01	  0.051863730	-6.012600E+01
161	  0.052064128	-5.707000E+00	  0.052064128	-6.132000E+01	  0.052064128	4.741400E+01	  0.052064128	-5.897100E+01
162	  0.052264530	-5.718000E+00	  0.052264530	-6.290800E+01	  0.052264530	4.595100E+01	  0.052264530	-5.786700E+01
163	  0.052464932	-5.735000E+00	  0.052464932	-6.450900E+01	  0.052464932	4.457600E+01	  0.052464932	-5.672000E+01
164	  0.052665330	-5.746000E+00	  0.052665330	-6.608000E+01	  0.052665330	4.327100E+01	  0.052665330	-5.563400E+01
165	  0.052865732	-5.759000E+00	  0.052865732	-6.767800E+01	  0.052865732	4.201300E+01	  0.052865732	-5.453100E+01
166	  0.053066134	-5.768000E+00	  0.053066134	-6.923300E+01	  0.053066134	4.083900E+01	  0.053066134	-5.347900E+01
167	  0.053266536	-5.777000E+00	  0.053266536	-7.082100E+01	  0.053266536	3.969700E+01	  0.053266536	-5.241300E+01
168	  0.053466935	-5.783000E+00	  0.053466935	-7.236800E+01	  0.053466935	3.862300E+01	  0.053466935	-5.139800E+01
169	  0.053667337	-5.788000E+00	  0.053667337	-7.392500E+01	  0.053667337	3.759000E+01	  0.053667337	-5.038700E+01
170	  0.053867739	-5.789000E+00	  0.053867739	-7.546800E+01	  0.053867739	3.659600E+01	  0.053867739	-4.941100E+01
171	  0.054068137	-5.796000E+00	  0.054068137	-7.699700E+01	  0.054068137	3.568300E+01	  0.054068137	-4.842300E+01
172	  0.054268539	-5.799000E+00	  0.054268539	-7.845800E+01	  0.054268539	3.483200E+01	  0.054268539	-4.750500E+01
173	  0.054468941	-5.805000E+00	  0.054468941	-7.991800E+01	  0.054468941	3.403300E+01	  0.054468941	-4.658200E+01
174	  0.054669339	-5.809000E+00	  0.054669339	-8.135400E+01	  0.054669339	3.326900E+01	  0.054669339	-4.569300E+01
175	  0.054869737	-5.818000E+00	  0.054869737	-8.279000E+01	  0.054869737	3.255700E+01	  0.054869737	-4.479500E+01
176	  0.055070139	-5.826000E+00	  0.055070139	-8.422500E+01	  0.055070139	3.187500E+01	  0.055070139	-4.390800E+01
177	  0.055270538	-5.833000E+00	  0.055270538	-8.563400E+01	  0.055270538	3.122900E+01	  0.055270538	-4.305000E+01
178	  0.055470940	-5.841000E+00	  0.055470940	-8.707100E+01	  0.055470940	3.059900E+01	  0.055470940	-4.218300E+01
179	  0.055671342	-5.848000E+00	  0.055671342	-8.847800E+01	  0.055671342	3.000100E+01	  0.055671342	-4.134800E+01
180	  0.055871744	-5.860000E+00	  0.055871744	-8.988800E+01	  0.055871744	2.944800E+01	  0.055871744	-4.050500E+01
181	  0.056072142	-5.866000E+00	  0.056072142	-9.129600E+01	  0.056072142	2.889700E+01	  0.056072142	-3.968800E+01
182	  0.056272544	-5.874000E+00	  0.056272544	-9.270000E+01	  0.056272544	2.837400E+01	  0.056272544	-3.887700E+01
183	  0.056472946	-5.882000E+00	  0.056472946	-9.409100E+01	  0.056472946	2.788100E+01	  0.056472946	-3.808100E+01
184	  0.056673344	-5.886000E+00	  0.056673344	-9.546800E+01	  0.056673344	2.739400E+01	  0.056673344	-3.731300E+01
185	  0.056873746	-5.891000E+00	  0.056873746	-9.686900E+01	  0.056873746	2.692000E+01	  0.056873746	-3.653800E+01
186	  0.057074148	-5.887000E+00	  0.057074148	-9.823200E+01	  0.057074148	2.644900E+01	  0.057074148	-3.580900E+01
187	  0.057274550	-5.891000E+00	  0.057274550	-9.958200E+01	  0.057274550	2.602300E+01	  0.057274550	-3.507900E+01
188	  0.057474948	-5.891000E+00	  0.057474948	-1.009150E+02	  0.057474948	2.560700E+01	  0.057474948	-3.437100E+01
189	  0.057675350	-5.893000E+00	  0.057675350	-1.022240E+02	  0.057675350	2.521900E+01	  0.057675350	-3.367900E+01
190	  0.057875752	-5.894000E+00	  0.057875752	-1.035360E+02	  0.057875752	2.484000E+01	  0.057875752	-3.299400E+01
191	  0.058076151	-5.890000E+00	  0.058076151	-1.048210E+02	  0.058076151	2.446500E+01	  0.058076151	-3.233700E+01
192	  0.058276553	-5.890000E+00	  0.058276553	-1.060490E+02	  0.058276553	2.413200E+01	  0.058276553	-3.170800E+01
193	  0.058476955	-5.894000E+00	  0.058476955	-1.073210E+02	  0.058476955	2.381000E+01	  0.058476955	-3.105500E+01
194	  0.058677353	-5.893000E+00	  0.058677353	-1.085910E+02	  0.058677353	2.348400E+01	  0.058677353	-3.041800E+01
195	  0.058877755	-5.897000E+00	  0.058877755	-1.098370E+02	  0.058877755	2.319100E+01	  0.058877755	-2.978900E+01
196	  0.059078157	-5.898000E+00	  0.059078157	-1.111050E+02	  0.059078157	2.289600E+01	  0.059078157	-2.915900E+01
197	  0.059278559	-5.900000E+00	  0.059278559	-1.123520E+02	  0.059278559	2.261500E+01	  0.059278559	-2.854400E+01
198	  0.059478957	-5.902000E+00	  0.059478957	-1.136250E+02	  0.059478957	2.234100E+01	  0.059478957	-2.792000E+01
199	  0.059679359	-5.903000E+00	  0.059679359	-1.148630E+02	  0.059679359	2.207800E+01	  0.059679359	-2.732100E+01
200	  0.059879761	-5.899000E+00	  0.059879761	-1.160880E+02	  0.059879761	2.181300E+01	  0.059879761	-2.673800E+01
201	  0.060080159	-5.898000E+00	  0.060080159	-1.173230E+02	  0.060080159	2.156300E+01	  0.060080159	-2.615100E+01
202	  0.060280561	-5.898000E+00	  0.060280561	-1.185480E+02	  0.060280561	2.132400E+01	  0.060280561	-2.557200E+01
203	  0.060480963	-5.895000E+00	  0.060480963	-1.197570E+02	  0.060480963	2.108700E+01	  0.060480963	-2.500900E+01
204	  0.060681365	-5.890000E+00	  0.060681365	-1.209630E+02	  0.060681365	2.085500E+01	  0.060681365	-2.445200E+01
205	  0.060881764	-5.888000E+00	  0.060881764	-1.221910E+02	  0.060881764	2.063400E+01	  0.060881764	-2.388600E+01
206	  0.061082166	-5.888000E+00	  0.061082166	-1.233730E+02	  0.061082166	2.043500E+01	  0.061082166	-2.334100E+01
207	  0.061282568	-5.881000E+00	  0.061282568	-1.245610E+02	  0.061282568	2.021800E+01	  0.061282568	-2.280600E+01
208	  0.061482966	-5.879000E+00	  0.061482966	-1.257180E+02	  0.061482966	2.002800E+01	  0.061482966	-2.228300E+01
209	  0.061683368	-5.880000E+00	  0.061683368	-1.268720E+02	  0.061683368	1.985500E+01	  0.061683368	-2.176000E+01
210	  0.061883770	-5.876000E+00	  0.061883770	-1.280000E+02	  0.061883770	1.967700E+01	  0.061883770	-2.125800E+01
211	  0.062084168	-5.872000E+00	  0.062084168	-1.291590E+02	  0.062084168	1.949900E+01	  0.062084168	-2.074400E+01
212	  0.062284570	-5.873000E+00	  0.062284570	-1.302930E+02	  0.062284570	1.934400E+01	  0.062284570	-2.024000E+01
213	  0.062484972	-5.871000E+00	  0.062484972	-1.313900E+02	  0.062484972	1.918900E+01	  0.062484972	-1.975800E+01
214	  0.062685370	-5.872000E+00	  0.062685370	-1.325500E+02	  0.062685370	1.904000E+01	  0.062685370	-1.924800E+01
215	  0.062885776	-5.870000E+00	  0.062885776	-1.337070E+02	  0.062885776	1.889100E+01	  0.062885776	-1.874400E+01
216	  0.063086174	-5.876000E+00	  0.063086174	-1.348700E+02	  0.063086174	1.876600E+01	  0.063086174	-1.823500E+01
217	  0.063286573	-5.875000E+00	  0.063286573	-1.360140E+02	  0.063286573	1.862800E+01	  0.063286573	-1.774200E+01
218	  0.063486971	-5.873000E+00	  0.063486971	-1.371510E+02	  0.063486971	1.849500E+01	  0.063486971	-1.725400E+01
219	  0.063687377	-5.868000E+00	  0.063687377	-1.382820E+02	  0.063687377	1.835600E+01	  0.063687377	-1.677400E+01
220	  0.063887775	-5.864000E+00	  0.063887775	-1.394190E+02	  0.063887775	1.822700E+01	  0.063887775	-1.629300E+01
221	  0.064088173	-5.867000E+00	  0.064088173	-1.405410E+02	  0.064088173	1.811900E+01	  0.064088173	-1.581600E+01
222	  0.064288579	-5.864000E+00	  0.064288579	-1.416910E+02	  0.064288579	1.799800E+01	  0.064288579	-1.533300E+01
223	  0.064488977	-5.859000E+00	  0.064488977	-1.427760E+02	  0.064488977	1.788200E+01	  0.064488977	-1.488000E+01
224	  0.064689375	-5.856000E+00	  0.064689375	-1.438660E+02	  0.064689375	1.777500E+01	  0.064689375	-1.442600E+01
225	  0.064889781	-5.855000E+00	  0.064889781	-1.449250E+02	  0.064889781	1.767800E+01	  0.064889781	-1.398500E+01
226	  0.065090179	-5.854000E+00	  0.065090179	-1.460140E+02	  0.065090179	1.758300E+01	  0.065090179	-1.353400E+01
227	  0.065290578	-5.852000E+00	  0.065290578	-1.470630E+02	  0.065290578	1.749200E+01	  0.065290578	-1.310100E+01
228	  0.065490983	-5.853000E+00	  0.065490983	-1.481330E+02	  0.065490983	1.741200E+01	  0.065490983	-1.265900E+01
229	  0.065691382	-5.853000E+00	  0.065691382	-1.491750E+02	  0.065691382	1.733200E+01	  0.065691382	-1.223100E+01
230	  0.065891780	-5.855000E+00	  0.065891780	-1.502660E+02	  0.065891780	1.725700E+01	  0.065891780	-1.178400E+01
231	  0.066092186	-5.855000E+00	  0.066092186	-1.513090E+02	  0.066092186	1.718700E+01	  0.066092186	-1.135900E+01
232	  0.066292584	-5.854000E+00	  0.066292584	-1.523540E+02	  0.066292584	1.711300E+01	  0.066292584	-1.093400E+01
233	  0.066492982	-5.855000E+00	  0.066492982	-1.533940E+02	  0.066492982	1.704900E+01	  0.066492982	-1.051200E+01
234	  0.066693388	-5.857000E+00	  0.066693388	-1.544060E+02	  0.066693388	1.699300E+01	  0.066693388	-1.010200E+01
235	  0.066893786	-5.853000E+00	  0.066893786	-1.554640E+02	  0.066893786	1.692000E+01	  0.066893786	-9.677000E+00
236	  0.067094192	-5.858000E+00	  0.067094192	-1.564610E+02	  0.067094192	1.687900E+01	  0.067094192	-9.274000E+00
237	  0.067294590	-5.859000E+00	  0.067294590	-1.575060E+02	  0.067294590	1.682400E+01	  0.067294590	-8.855000E+00
238	  0.067494988	-5.859000E+00	  0.067494988	-1.585210E+02	  0.067494988	1.677300E+01	  0.067494988	-8.448000E+00
239	  0.067695394	-5.863000E+00	  0.067695394	-1.595430E+02	  0.067695394	1.673500E+01	  0.067695394	-8.039000E+00
240	  0.067895792	-5.864000E+00	  0.067895792	-1.605800E+02	  0.067895792	1.669000E+01	  0.067895792	-7.626000E+00
241	  0.068096191	-5.868000E+00	  0.068096191	-1.615730E+02	  0.068096191	1.665600E+01	  0.068096191	-7.230000E+00
242	  0.068296596	-5.874000E+00	  0.068296596	-1.625590E+02	  0.068296596	1.663300E+01	  0.068296596	-6.837000E+00
243	  0.068496995	-5.872000E+00	  0.068496995	-1.635660E+02	  0.068496995	1.659000E+01	  0.068496995	-6.439000E+00
244	  0.068697393	-5.875000E+00	  0.068697393	-1.645520E+02	  0.068697393	1.656200E+01	  0.068697393	-6.049000E+00
245	  0.068897791	-5.879000E+00	  0.068897791	-1.655340E+02	  0.068897791	1.653900E+01	  0.068897791	-5.661000E+00
246	  0.069098189	-5.881000E+00	  0.069098189	-1.665170E+02	  0.069098189	1.651200E+01	  0.069098189	-5.273000E+00
247	  0.069298595	-5.885000E+00	  0.069298595	-1.675100E+02	  0.069298595	1.649400E+01	  0.069298595	-4.882000E+00
248	  0.069498993	-5.887000E+00	  0.069498993	-1.685090E+02	  0.069498993	1.647300E+01	  0.069498993	-4.489000E+00
249	  0.069699399	-5.893000E+00	  0.069699399	-1.694580E+02	  0.069699399	1.646400E+01	  0.069699399	-4.116000E+00
250	  0.069899797	-5.897000E+00	  0.069899797	-1.704120E+02	  0.069899797	1.645200E+01	  0.069899797	-3.742000E+00
251	  0.070100196	-5.902000E+00	  0.070100196	-1.714030E+02	  0.070100196	1.644500E+01	  0.070100196	-3.353000E+00
252	  0.070300601	-5.903000E+00	  0.070300601	-1.723900E+02	  0.070300601	1.643000E+01	  0.070300601	-2.967000E+00
253	  0.070501000	-5.907000E+00	  0.070501000	-1.733500E+02	  0.070501000	1.642500E+01	  0.070501000	-2.592000E+00
254	  0.070701398	-5.905000E+00	  0.070701398	-1.743110E+02	  0.070701398	1.640800E+01	  0.070701398	-2.217000E+00
255	  0.070901804	-5.911000E+00	  0.070901804	-1.752630E+02	  0.070901804	1.641200E+01	  0.070901804	-1.845000E+00
256	  0.071102202	-5.917000E+00	  0.071102202	-1.762470E+02	  0.071102202	1.641700E+01	  0.071102202	-1.461000E+00
257	  0.071302600	-5.921000E+00	  0.071302600	-1.772070E+02	  0.071302600	1.642200E+01	  0.071302600	-1.087000E+00
258	  0.071503006	-5.925000E+00	  0.071503006	-1.781060E+02	  0.071503006	1.642700E+01	  0.071503006	-7.360000E-01
259	  0.071703404	-5.931000E+00	  0.071703404	-1.790610E+02	  0.071703404	1.643900E+01	  0.071703404	-3.650000E-01
260	  0.071903802	-5.932000E+00	  0.071903802	-1.799810E+02	  0.071903802	1.644000E+01	  0.071903802	-7.000000E-03
261	  0.072104208	-5.940000E+00	  0.072104208	1.790870E+02	  0.072104208	1.646200E+01	  0.072104208	3.550000E-01
262	  0.072304606	-5.942000E+00	  0.072304606	1.781730E+02	  0.072304606	1.647000E+01	  0.072304606	7.100000E-01
263	  0.072505005	-5.948000E+00	  0.072505005	1.772540E+02	  0.072505005	1.649000E+01	  0.072505005	1.068000E+00
264	  0.072705410	-5.951000E+00	  0.072705410	1.763130E+02	  0.072705410	1.650300E+01	  0.072705410	1.433000E+00
265	  0.072905809	-5.956000E+00	  0.072905809	1.754240E+02	  0.072905809	1.652700E+01	  0.072905809	1.779000E+00
266	  0.073106214	-5.960000E+00	  0.073106214	1.745240E+02	  0.073106214	1.654700E+01	  0.073106214	2.129000E+00
267	  0.073306613	-5.966000E+00	  0.073306613	1.736300E+02	  0.073306613	1.657400E+01	  0.073306613	2.477000E+00
268	  0.073507011	-5.971000E+00	  0.073507011	1.727140E+02	  0.073507011	1.660100E+01	  0.073507011	2.833000E+00
269	  0.073707417	-5.979000E+00	  0.073707417	1.718350E+02	  0.073707417	1.663500E+01	  0.073707417	3.175000E+00
270	  0.073907815	-5.985000E+00	  0.073907815	1.709640E+02	  0.073907815	1.666800E+01	  0.073907815	3.514000E+00
271	  0.074108213	-5.987000E+00	  0.074108213	1.700670E+02	  0.074108213	1.669300E+01	  0.074108213	3.863000E+00
272	  0.074308619	-6.000000E+00	  0.074308619	1.691690E+02	  0.074308619	1.674800E+01	  0.074308619	4.212000E+00
273	  0.074509017	-6.005000E+00	  0.074509017	1.682930E+02	  0.074509017	1.678200E+01	  0.074509017	4.553000E+00
274	  0.074709415	-6.012000E+00	  0.074709415	1.674120E+02	  0.074709415	1.682600E+01	  0.074709415	4.896000E+00
275	  0.074909821	-6.024000E+00	  0.074909821	1.665570E+02	  0.074909821	1.688200E+01	  0.074909821	5.229000E+00
276	  0.075110219	-6.033000E+00	  0.075110219	1.656720E+02	  0.075110219	1.693300E+01	  0.075110219	5.573000E+00
277	  0.075310618	-6.042000E+00	  0.075310618	1.648400E+02	  0.075310618	1.698600E+01	  0.075310618	5.897000E+00
278	  0.075511023	-6.052000E+00	  0.075511023	1.639770E+02	  0.075511023	1.704100E+01	  0.075511023	6.233000E+00
279	  0.075711422	-6.063000E+00	  0.075711422	1.631000E+02	  0.075711422	1.710500E+01	  0.075711422	6.574000E+00
280	  0.075911827	-6.072000E+00	  0.075911827	1.622420E+02	  0.075911827	1.716100E+01	  0.075911827	6.909000E+00
281	  0.076112226	-6.084000E+00	  0.076112226	1.613550E+02	  0.076112226	1.723100E+01	  0.076112226	7.255000E+00
282	  0.076312624	-6.094000E+00	  0.076312624	1.604770E+02	  0.076312624	1.729600E+01	  0.076312624	7.598000E+00
283	  0.076513030	-6.104000E+00	  0.076513030	1.595990E+02	  0.076513030	1.736400E+01	  0.076513030	7.941000E+00
284	  0.076713428	-6.114000E+00	  0.076713428	1.587240E+02	  0.076713428	1.743200E+01	  0.076713428	8.284000E+00
285	  0.076913826	-6.119000E+00	  0.076913826	1.578990E+02	  0.076913826	1.748700E+01	  0.076913826	8.609000E+00
286	  0.077114232	-6.128000E+00	  0.077114232	1.570550E+02	  0.077114232	1.755600E+01	  0.077114232	8.939000E+00
287	  0.077314630	-6.137000E+00	  0.077314630	1.562050E+02	  0.077314630	1.762700E+01	  0.077314630	9.274000E+00
288	  0.077515028	-6.143000E+00	  0.077515028	1.553590E+02	  0.077515028	1.769300E+01	  0.077515028	9.607000E+00
289	  0.077715434	-6.157000E+00	  0.077715434	1.545170E+02	  0.077715434	1.778000E+01	  0.077715434	9.937000E+00
290	  0.077915832	-6.168000E+00	  0.077915832	1.536840E+02	  0.077915832	1.786100E+01	  0.077915832	1.026500E+01
291	  0.078116231	-6.178000E+00	  0.078116231	1.528530E+02	  0.078116231	1.794300E+01	  0.078116231	1.059200E+01
292	  0.078316636	-6.187000E+00	  0.078316636	1.520030E+02	  0.078316636	1.802300E+01	  0.078316636	1.092800E+01
293	  0.078517035	-6.202000E+00	  0.078517035	1.511760E+02	  0.078517035	1.812100E+01	  0.078517035	1.125300E+01
294	  0.078717433	-6.212000E+00	  0.078717433	1.503670E+02	  0.078717433	1.820600E+01	  0.078717433	1.157300E+01
295	  0.078917839	-6.225000E+00	  0.078917839	1.495660E+02	  0.078917839	1.829900E+01	  0.078917839	1.188900E+01
296	  0.079118237	-6.239000E+00	  0.079118237	1.487330E+02	  0.079118237	1.840300E+01	  0.079118237	1.221700E+01
297	  0.079318643	-6.253000E+00	  0.079318643	1.479350E+02	  0.079318643	1.850200E+01	  0.079318643	1.253200E+01
298	  0.079519041	-6.266000E+00	  0.079519041	1.471220E+02	  0.079519041	1.860400E+01	  0.079519041	1.285400E+01
299	  0.079719439	-6.276000E+00	  0.079719439	1.463040E+02	  0.079719439	1.869900E+01	  0.079719439	1.318000E+01
300	  0.079919845	-6.292000E+00	  0.079919845	1.454970E+02	  0.079919845	1.881400E+01	  0.079919845	1.349800E+01
301	  0.080120243	-6.302000E+00	  0.080120243	1.446990E+02	  0.080120243	1.891300E+01	  0.080120243	1.381600E+01
302	  0.080320641	-6.317000E+00	  0.080320641	1.438920E+02	  0.080320641	1.902600E+01	  0.080320641	1.413600E+01
303	  0.080521047	-6.333000E+00	  0.080521047	1.431130E+02	  0.080521047	1.914500E+01	  0.080521047	1.444400E+01
304	  0.080721445	-6.344000E+00	  0.080721445	1.422810E+02	  0.080721445	1.925600E+01	  0.080721445	1.477800E+01
305	  0.080921844	-6.362000E+00	  0.080921844	1.415430E+02	  0.080921844	1.937700E+01	  0.080921844	1.506900E+01
306	  0.081122249	-6.380000E+00	  0.081122249	1.407460E+02	  0.081122249	1.951000E+01	  0.081122249	1.538300E+01
307	  0.081322648	-6.394000E+00	  0.081322648	1.399800E+02	  0.081322648	1.962800E+01	  0.081322648	1.568900E+01
308	  0.081523046	-6.410000E+00	  0.081523046	1.391790E+02	  0.081523046	1.976000E+01	  0.081523046	1.600800E+01
309	  0.081723452	-6.424000E+00	  0.081723452	1.384080E+02	  0.081723452	1.988500E+01	  0.081723452	1.631600E+01
310	  0.081923850	-6.447000E+00	  0.081923850	1.376850E+02	  0.081923850	2.002800E+01	  0.081923850	1.659900E+01
311	  0.082124248	-6.466000E+00	  0.082124248	1.368980E+02	  0.082124248	2.017400E+01	  0.082124248	1.691000E+01
312	  0.082324654	-6.484000E+00	  0.082324654	1.361390E+02	  0.082324654	2.031500E+01	  0.082324654	1.721100E+01
313	  0.082525052	-6.504000E+00	  0.082525052	1.353980E+02	  0.082525052	2.046200E+01	  0.082525052	1.750300E+01
314	  0.082725458	-6.525000E+00	  0.082725458	1.346160E+02	  0.082725458	2.061800E+01	  0.082725458	1.781200E+01
315	  0.082925856	-6.545000E+00	  0.082925856	1.338260E+02	  0.082925856	2.077700E+01	  0.082925856	1.812500E+01
316	  0.083126254	-6.568000E+00	  0.083126254	1.330240E+02	  0.083126254	2.094700E+01	  0.083126254	1.844000E+01
317	  0.083326660	-6.585000E+00	  0.083326660	1.322500E+02	  0.083326660	2.109900E+01	  0.083326660	1.875000E+01
318	  0.083527058	-6.604000E+00	  0.083527058	1.314930E+02	  0.083527058	2.125700E+01	  0.083527058	1.905100E+01
319	  0.083727457	-6.624000E+00	  0.083727457	1.307210E+02	  0.083727457	2.142400E+01	  0.083727457	1.935700E+01
320	  0.083927862	-6.641000E+00	  0.083927862	1.299620E+02	  0.083927862	2.158100E+01	  0.083927862	1.966100E+01
321	  0.084128261	-6.659000E+00	  0.084128261	1.292310E+02	  0.084128261	2.174200E+01	  0.084128261	1.995200E+01
322	  0.084328659	-6.682000E+00	  0.084328659	1.284820E+02	  0.084328659	2.192100E+01	  0.084328659	2.024600E+01
323	  0.084529065	-6.700000E+00	  0.084529065	1.277260E+02	  0.084529065	2.208900E+01	  0.084529065	2.054900E+01
324	  0.084729463	-6.720000E+00	  0.084729463	1.269890E+02	  0.084729463	2.226400E+01	  0.084729463	2.084100E+01
325	  0.084929861	-6.738000E+00	  0.084929861	1.262430E+02	  0.084929861	2.243800E+01	  0.084929861	2.113900E+01
326	  0.085130267	-6.762000E+00	  0.085130267	1.255580E+02	  0.085130267	2.261800E+01	  0.085130267	2.140500E+01
327	  0.085330658	-6.781000E+00	  0.085330658	1.248270E+02	  0.085330658	2.279800E+01	  0.085330658	2.169600E+01
328	  0.085531056	-6.804000E+00	  0.085531056	1.241410E+02	  0.085531056	2.298100E+01	  0.085531056	2.196400E+01
329	  0.085731462	-6.824000E+00	  0.085731462	1.234350E+02	  0.085731462	2.316500E+01	  0.085731462	2.224200E+01
330	  0.085931860	-6.849000E+00	  0.085931860	1.227300E+02	  0.085931860	2.336400E+01	  0.085931860	2.251500E+01
331	  0.086132258	-6.874000E+00	  0.086132258	1.220310E+02	  0.086132258	2.356200E+01	  0.086132258	2.278600E+01
332	  0.086332664	-6.897000E+00	  0.086332664	1.213120E+02	  0.086332664	2.376600E+01	  0.086332664	2.306600E+01
333	  0.086533062	-6.917000E+00	  0.086533062	1.206120E+02	  0.086533062	2.395700E+01	  0.086533062	2.334200E+01
334	  0.086733460	-6.937000E+00	  0.086733460	1.198930E+02	  0.086733460	2.415700E+01	  0.086733460	2.362600E+01
335	  0.086933866	-6.964000E+00	  0.086933866	1.192020E+02	  0.086933866	2.437100E+01	  0.086933866	2.388900E+01
336	  0.087134264	-6.987000E+00	  0.087134264	1.184930E+02	  0.087134264	2.458200E+01	  0.087134264	2.416500E+01
337	  0.087334670	-7.011000E+00	  0.087334670	1.178240E+02	  0.087334670	2.479000E+01	  0.087334670	2.442200E+01
338	  0.087535068	-7.035000E+00	  0.087535068	1.171320E+02	  0.087535068	2.500800E+01	  0.087535068	2.468700E+01
339	  0.087735467	-7.063000E+00	  0.087735467	1.164550E+02	  0.087735467	2.523700E+01	  0.087735467	2.494000E+01
340	  0.087935872	-7.085000E+00	  0.087935872	1.157600E+02	  0.087935872	2.545300E+01	  0.087935872	2.520900E+01
341	  0.088136271	-7.111000E+00	  0.088136271	1.150850E+02	  0.088136271	2.567900E+01	  0.088136271	2.546500E+01
342	  0.088336669	-7.137000E+00	  0.088336669	1.144500E+02	  0.088336669	2.590100E+01	  0.088336669	2.570000E+01
343	  0.088537075	-7.161000E+00	  0.088537075	1.137780E+02	  0.088537075	2.612600E+01	  0.088537075	2.595600E+01
344	  0.088737473	-7.189000E+00	  0.088737473	1.131320E+02	  0.088737473	2.636100E+01	  0.088737473	2.619200E+01
345	  0.088937871	-7.221000E+00	  0.088937871	1.124930E+02	  0.088937871	2.660800E+01	  0.088937871	2.641900E+01
346	  0.089138277	-7.252000E+00	  0.089138277	1.118490E+02	  0.089138277	2.685600E+01	  0.089138277	2.664900E+01
347	  0.089338675	-7.283000E+00	  0.089338675	1.111820E+02	  0.089338675	2.711300E+01	  0.089338675	2.688700E+01
348	  0.089539073	-7.314000E+00	  0.089539073	1.105260E+02	  0.089539073	2.737000E+01	  0.089539073	2.711900E+01
349	  0.089739479	-7.345000E+00	  0.089739479	1.098910E+02	  0.089739479	2.762600E+01	  0.089739479	2.734000E+01
350	  0.089939877	-7.375000E+00	  0.089939877	1.092310E+02	  0.089939877	2.788600E+01	  0.089939877	2.757400E+01
351	  0.090140276	-7.408000E+00	  0.090140276	1.085730E+02	  0.090140276	2.816100E+01	  0.090140276	2.779900E+01
352	  0.090340681	-7.438000E+00	  0.090340681	1.079240E+02	  0.090340681	2.842400E+01	  0.090340681	2.802600E+01
353	  0.090541080	-7.468000E+00	  0.090541080	1.072680E+02	  0.090541080	2.869500E+01	  0.090541080	2.825300E+01
354	  0.090741485	-7.497000E+00	  0.090741485	1.066330E+02	  0.090741485	2.895900E+01	  0.090741485	2.847300E+01
355	  0.090941884	-7.535000E+00	  0.090941884	1.060310E+02	  0.090941884	2.924000E+01	  0.090941884	2.866000E+01
356	  0.091142282	-7.559000E+00	  0.091142282	1.053680E+02	  0.091142282	2.950500E+01	  0.091142282	2.889900E+01
357	  0.091342688	-7.592000E+00	  0.091342688	1.047830E+02	  0.091342688	2.977300E+01	  0.091342688	2.908500E+01
358	  0.091543086	-7.620000E+00	  0.091543086	1.041580E+02	  0.091543086	3.004400E+01	  0.091543086	2.929600E+01
359	  0.091743484	-7.646000E+00	  0.091743484	1.035750E+02	  0.091743484	3.029700E+01	  0.091743484	2.949200E+01
360	  0.091943890	-7.680000E+00	  0.091943890	1.029890E+02	  0.091943890	3.057600E+01	  0.091943890	2.967400E+01
361	  0.092144288	-7.706000E+00	  0.092144288	1.024270E+02	  0.092144288	3.082900E+01	  0.092144288	2.985800E+01
362	  0.092344686	-7.742000E+00	  0.092344686	1.018340E+02	  0.092344686	3.112200E+01	  0.092344686	3.003400E+01
363	  0.092545092	-7.776000E+00	  0.092545092	1.013100E+02	  0.092545092	3.139000E+01	  0.092545092	3.018200E+01
364	  0.092745490	-7.811000E+00	  0.092745490	1.007550E+02	  0.092745490	3.167100E+01	  0.092745490	3.034100E+01
365	  0.092945889	-7.844000E+00	  0.092945889	1.002170E+02	  0.092945889	3.194400E+01	  0.092945889	3.049300E+01
366	  0.093146294	-7.878000E+00	  0.093146294	9.967500E+01	  0.093146294	3.222500E+01	  0.093146294	3.064300E+01
367	  0.093346693	-7.908000E+00	  0.093346693	9.912800E+01	  0.093346693	3.249700E+01	  0.093346693	3.080400E+01
368	  0.093547091	-7.943000E+00	  0.093547091	9.859600E+01	  0.093547091	3.278000E+01	  0.093547091	3.094500E+01
369	  0.093747497	-7.974000E+00	  0.093747497	9.806500E+01	  0.093747497	3.305600E+01	  0.093747497	3.109100E+01
370	  0.093947895	-8.011000E+00	  0.093947895	9.754300E+01	  0.093947895	3.334300E+01	  0.093947895	3.122000E+01
371	  0.094148301	-8.043000E+00	  0.094148301	9.703400E+01	  0.094148301	3.361800E+01	  0.094148301	3.135100E+01
372	  0.094348699	-8.081000E+00	  0.094348699	9.654000E+01	  0.094348699	3.390400E+01	  0.094348699	3.146000E+01
373	  0.094549097	-8.110000E+00	  0.094549097	9.604400E+01	  0.094549097	3.416800E+01	  0.094549097	3.159100E+01
374	  0.094749503	-8.150000E+00	  0.094749503	9.556700E+01	  0.094749503	3.445400E+01	  0.094749503	3.168600E+01
375	  0.094949901	-8.179000E+00	  0.094949901	9.508700E+01	  0.094949901	3.471600E+01	  0.094949901	3.180500E+01
376	  0.095150299	-8.210000E+00	  0.095150299	9.455400E+01	  0.095150299	3.500500E+01	  0.095150299	3.193900E+01
377	  0.095350705	-8.247000E+00	  0.095350705	9.407700E+01	  0.095350705	3.528900E+01	  0.095350705	3.203500E+01
378	  0.095551103	-8.276000E+00	  0.095551103	9.363800E+01	  0.095551103	3.554000E+01	  0.095551103	3.213300E+01
379	  0.095751502	-8.310000E+00	  0.095751502	9.317800E+01	  0.095751502	3.581100E+01	  0.095751502	3.222600E+01
380	  0.095951907	-8.345000E+00	  0.095951907	9.273500E+01	  0.095951907	3.608200E+01	  0.095951907	3.230500E+01
381	  0.096152306	-8.376000E+00	  0.096152306	9.232600E+01	  0.096152306	3.633000E+01	  0.096152306	3.238100E+01
382	  0.096352704	-8.406000E+00	  0.096352704	9.185900E+01	  0.096352704	3.660000E+01	  0.096352704	3.248000E+01
383	  0.096553110	-8.435000E+00	  0.096553110	9.142900E+01	  0.096553110	3.685100E+01	  0.096553110	3.256800E+01
384	  0.096753508	-8.468000E+00	  0.096753508	9.096000E+01	  0.096753508	3.713100E+01	  0.096753508	3.265600E+01
385	  0.096953906	-8.496000E+00	  0.096953906	9.053300E+01	  0.096953906	3.738500E+01	  0.096953906	3.273900E+01
386	  0.097154312	-8.524000E+00	  0.097154312	9.010600E+01	  0.097154312	3.763800E+01	  0.097154312	3.282100E+01
387	  0.097354710	-8.551000E+00	  0.097354710	8.969900E+01	  0.097354710	3.788000E+01	  0.097354710	3.289800E+01
388	  0.097555116	-8.582000E+00	  0.097555116	8.924800E+01	  0.097555116	3.815500E+01	  0.097555116	3.297500E+01
389	  0.097755514	-8.607000E+00	  0.097755514	8.884500E+01	  0.097755514	3.839200E+01	  0.097755514	3.305500E+01
390	  0.097955912	-8.628000E+00	  0.097955912	8.840200E+01	  0.097955912	3.864100E+01	  0.097955912	3.315600E+01
391	  0.098156318	-8.652000E+00	  0.098156318	8.802400E+01	  0.098156318	3.887000E+01	  0.098156318	3.322200E+01
392	  0.098356716	-8.672000E+00	  0.098356716	8.762300E+01	  0.098356716	3.909900E+01	  0.098356716	3.330800E+01
393	  0.098557115	-8.694000E+00	  0.098557115	8.723500E+01	  0.098557115	3.932800E+01	  0.098557115	3.338400E+01
394	  0.098757520	-8.708000E+00	  0.098757520	8.686000E+01	  0.098757520	3.953500E+01	  0.098757520	3.347400E+01
395	  0.098957919	-8.730000E+00	  0.098957919	8.648500E+01	  0.098957919	3.976100E+01	  0.098957919	3.354100E+01
396	  0.099158317	-8.748000E+00	  0.099158317	8.612700E+01	  0.099158317	3.997000E+01	  0.099158317	3.361300E+01
397	  0.099358723	-8.764000E+00	  0.099358723	8.577400E+01	  0.099358723	4.017400E+01	  0.099358723	3.368800E+01
398	  0.099559121	-8.782000E+00	  0.099559121	8.541000E+01	  0.099559121	4.038800E+01	  0.099559121	3.376000E+01
399	  0.099759519	-8.792000E+00	  0.099759519	8.506800E+01	  0.099759519	4.057500E+01	  0.099759519	3.384800E+01
400	  0.099959925	-8.800000E+00	  0.099959925	8.476400E+01	  0.099959925	4.073800E+01	  0.099959925	3.393000E+01
401	  0.100160323	-8.821000E+00	  0.100160323	8.441200E+01	  0.100160323	4.095700E+01	  0.100160323	3.398400E+01
402	  0.100360721	-8.834000E+00	  0.100360721	8.408100E+01	  0.100360721	4.114700E+01	  0.100360721	3.405700E+01
403	  0.100561127	-8.845000E+00	  0.100561127	8.373200E+01	  0.100561127	4.134300E+01	  0.100561127	3.414100E+01
404	  0.100761525	-8.854000E+00	  0.100761525	8.339400E+01	  0.100761525	4.153100E+01	  0.100761525	3.422700E+01
405	  0.100961931	-8.865000E+00	  0.100961931	8.307400E+01	  0.100961931	4.171400E+01	  0.100961931	3.430000E+01
406	  0.101162329	-8.867000E+00	  0.101162329	8.271100E+01	  0.101162329	4.190200E+01	  0.101162329	3.441400E+01
407	  0.101362728	-8.881000E+00	  0.101362728	8.238600E+01	  0.101362728	4.209700E+01	  0.101362728	3.447500E+01
408	  0.101563133	-8.887000E+00	  0.101563133	8.202300E+01	  0.101563133	4.229300E+01	  0.101563133	3.457900E+01
409	  0.101763532	-8.893000E+00	  0.101763532	8.167100E+01	  0.101763532	4.248900E+01	  0.101763532	3.467300E+01
410	  0.101963930	-8.905000E+00	  0.101963930	8.127400E+01	  0.101963930	4.271800E+01	  0.101963930	3.476600E+01
411	  0.102164336	-8.893000E+00	  0.102164336	8.096400E+01	  0.102164336	4.285300E+01	  0.102164336	3.490900E+01
412	  0.102364734	-8.887000E+00	  0.102364734	8.062000E+01	  0.102364734	4.302100E+01	  0.102364734	3.504200E+01
413	  0.102565132	-8.899000E+00	  0.102565132	8.024400E+01	  0.102565132	4.324600E+01	  0.102565132	3.512300E+01
414	  0.102765530	-8.896000E+00	  0.102765530	7.989900E+01	  0.102765530	4.342500E+01	  0.102765530	3.524300E+01
415	  0.102965929	-8.900000E+00	  0.102965929	7.949700E+01	  0.102965929	4.364800E+01	  0.102965929	3.536000E+01
416	  0.103166327	-8.893000E+00	  0.103166327	7.913600E+01	  0.103166327	4.382800E+01	  0.103166327	3.550200E+01
417	  0.103366733	-8.897000E+00	  0.103366733	7.875900E+01	  0.103366733	4.404300E+01	  0.103366733	3.560700E+01
418	  0.103567131	-8.888000E+00	  0.103567131	7.837000E+01	  0.103567131	4.423800E+01	  0.103567131	3.576300E+01
419	  0.103767529	-8.884000E+00	  0.103767529	7.798500E+01	  0.103767529	4.444200E+01	  0.103767529	3.590200E+01
420	  0.103967935	-8.872000E+00	  0.103967935	7.753200E+01	  0.103967935	4.467100E+01	  0.103967935	3.608800E+01
421	  0.104168333	-8.880000E+00	  0.104168333	7.715200E+01	  0.104168333	4.490100E+01	  0.104168333	3.617900E+01
422	  0.104368731	-8.867000E+00	  0.104368731	7.672700E+01	  0.104368731	4.511700E+01	  0.104368731	3.636100E+01
423	  0.104569137	-8.864000E+00	  0.104569137	7.625600E+01	  0.104569137	4.538200E+01	  0.104569137	3.651900E+01
424	  0.104769535	-8.848000E+00	  0.104769535	7.581100E+01	  0.104769535	4.560800E+01	  0.104769535	3.671600E+01
425	  0.104969934	-8.833000E+00	  0.104969934	7.538200E+01	  0.104969934	4.583100E+01	  0.104969934	3.690500E+01
426	  0.105170339	-8.823000E+00	  0.105170339	7.490800E+01	  0.105170339	4.609100E+01	  0.105170339	3.709200E+01
427	  0.105370738	-8.807000E+00	  0.105370738	7.446900E+01	  0.105370738	4.632200E+01	  0.105370738	3.729000E+01
428	  0.105571143	-8.797000E+00	  0.105571143	7.402400E+01	  0.105571143	4.657200E+01	  0.105571143	3.746400E+01
429	  0.105771542	-8.786000E+00	  0.105771542	7.356100E+01	  0.105771542	4.683300E+01	  0.105771542	3.764800E+01
430	  0.105971940	-8.763000E+00	  0.105971940	7.305100E+01	  0.105971940	4.710300E+01	  0.105971940	3.789500E+01
431	  0.106172346	-8.752000E+00	  0.106172346	7.258800E+01	  0.106172346	4.737300E+01	  0.106172346	3.807700E+01
432	  0.106372744	-8.736000E+00	  0.106372744	7.213000E+01	  0.106372744	4.763000E+01	  0.106372744	3.828200E+01
433	  0.106573142	-8.721000E+00	  0.106573142	7.164200E+01	  0.106573142	4.791500E+01	  0.106573142	3.848700E+01
434	  0.106773548	-8.703000E+00	  0.106773548	7.112800E+01	  0.106773548	4.821100E+01	  0.106773548	3.871700E+01
435	  0.106973946	-8.687000E+00	  0.106973946	7.063900E+01	  0.106973946	4.850100E+01	  0.106973946	3.893000E+01
436	  0.107174344	-8.672000E+00	  0.107174344	7.008400E+01	  0.107174344	4.884100E+01	  0.107174344	3.915300E+01
437	  0.107374750	-8.652000E+00	  0.107374750	6.960700E+01	  0.107374750	4.912500E+01	  0.107374750	3.937700E+01
438	  0.107575148	-8.643000E+00	  0.107575148	6.909000E+01	  0.107575148	4.945800E+01	  0.107575148	3.956700E+01
439	  0.107775547	-8.630000E+00	  0.107775547	6.852800E+01	  0.107775547	4.982000E+01	  0.107775547	3.978400E+01
440	  0.107975952	-8.619000E+00	  0.107975952	6.803000E+01	  0.107975952	5.014700E+01	  0.107975952	3.997200E+01
441	  0.108176351	-8.602000E+00	  0.108176351	6.745800E+01	  0.108176351	5.051800E+01	  0.108176351	4.020900E+01
442	  0.108376749	-8.594000E+00	  0.108376749	6.691400E+01	  0.108376749	5.089200E+01	  0.108376749	4.039200E+01
443	  0.108577155	-8.583000E+00	  0.108577155	6.639000E+01	  0.108577155	5.125100E+01	  0.108577155	4.058600E+01
444	  0.108777553	-8.573000E+00	  0.108777553	6.572800E+01	  0.108777553	5.171800E+01	  0.108777553	4.080700E+01
445	  0.108977959	-8.564000E+00	  0.108977959	6.518500E+01	  0.108977959	5.210600E+01	  0.108977959	4.099000E+01
446	  0.109178357	-8.555000E+00	  0.109178357	6.455700E+01	  0.109178357	5.256100E+01	  0.109178357	4.119600E+01
447	  0.109378755	-8.559000E+00	  0.109378755	6.404100E+01	  0.109378755	5.296000E+01	  0.109378755	4.130400E+01
448	  0.109579161	-8.545000E+00	  0.109579161	6.338600E+01	  0.109579161	5.344100E+01	  0.109579161	4.153400E+01
449	  0.109779559	-8.531000E+00	  0.109779559	6.283800E+01	  0.109779559	5.384700E+01	  0.109779559	4.173600E+01
450	  0.109979957	-8.530000E+00	  0.109979957	6.224300E+01	  0.109979957	5.431400E+01	  0.109979957	4.187900E+01
451	  0.110180363	-8.525000E+00	  0.110180363	6.160200E+01	  0.110180363	5.481900E+01	  0.110180363	4.204900E+01
452	  0.110380761	-8.515000E+00	  0.110380761	6.096700E+01	  0.110380761	5.531900E+01	  0.110380761	4.224000E+01
453	  0.110581160	-8.515000E+00	  0.110581160	6.032200E+01	  0.110581160	5.584900E+01	  0.110581160	4.237200E+01
454	  0.110781565	-8.502000E+00	  0.110781565	5.971100E+01	  0.110781565	5.634000E+01	  0.110781565	4.256900E+01
455	  0.110981964	-8.497000E+00	  0.110981964	5.906400E+01	  0.110981964	5.687900E+01	  0.110981964	4.272000E+01
456	  0.111182362	-8.494000E+00	  0.111182362	5.834500E+01	  0.111182362	5.749000E+01	  0.111182362	4.287100E+01
457	  0.111382768	-8.490000E+00	  0.111382768	5.767300E+01	  0.111382768	5.806700E+01	  0.111382768	4.301200E+01
458	  0.111583166	-8.478000E+00	  0.111583166	5.704400E+01	  0.111583166	5.860600E+01	  0.111583166	4.318500E+01
459	  0.111783572	-8.473000E+00	  0.111783572	5.638100E+01	  0.111783572	5.919100E+01	  0.111783572	4.332000E+01
460	  0.111983970	-8.464000E+00	  0.111983970	5.564000E+01	  0.111983970	5.985000E+01	  0.111983970	4.348400E+01
461	  0.112184368	-8.464000E+00	  0.112184368	5.495400E+01	  0.112184368	6.047700E+01	  0.112184368	4.357300E+01
462	  0.112384774	-8.457000E+00	  0.112384774	5.423400E+01	  0.112384774	6.113800E+01	  0.112384774	4.370800E+01
463	  0.112585172	-8.450000E+00	  0.112585172	5.354400E+01	  0.112585172	6.178100E+01	  0.112585172	4.382600E+01
464	  0.112785570	-8.443000E+00	  0.112785570	5.279100E+01	  0.112785570	6.249300E+01	  0.112785570	4.394600E+01
465	  0.112985976	-8.435000E+00	  0.112985976	5.205600E+01	  0.112985976	6.319900E+01	  0.112985976	4.405900E+01
466	  0.113186374	-8.435000E+00	  0.113186374	5.134800E+01	  0.113186374	6.389100E+01	  0.113186374	4.410800E+01
467	  0.113386773	-8.429000E+00	  0.113386773	5.060100E+01	  0.113386773	6.462800E+01	  0.113386773	4.419000E+01
468	  0.113587178	-8.422000E+00	  0.113587178	4.985600E+01	  0.113587178	6.537400E+01	  0.113587178	4.426300E+01
469	  0.113787577	-8.426000E+00	  0.113787577	4.903400E+01	  0.113787577	6.621000E+01	  0.113787577	4.426100E+01
470	  0.113987975	-8.424000E+00	  0.113987975	4.824500E+01	  0.113987975	6.702200E+01	  0.113987975	4.427600E+01
471	  0.114188381	-8.421000E+00	  0.114188381	4.748400E+01	  0.114188381	6.781600E+01	  0.114188381	4.428300E+01
472	  0.114388779	-8.422000E+00	  0.114388779	4.670100E+01	  0.114388779	6.864100E+01	  0.114388779	4.425000E+01
473	  0.114589177	-8.427000E+00	  0.114589177	4.584800E+01	  0.114589177	6.954800E+01	  0.114589177	4.416400E+01
474	  0.114789583	-8.434000E+00	  0.114789583	4.503200E+01	  0.114789583	7.042400E+01	  0.114789583	4.405100E+01
475	  0.114989981	-8.442000E+00	  0.114989981	4.418600E+01	  0.114989981	7.134000E+01	  0.114989981	4.391000E+01
476	  0.115190387	-8.452000E+00	  0.115190387	4.331700E+01	  0.115190387	7.228600E+01	  0.115190387	4.372400E+01
477	  0.115390785	-8.464000E+00	  0.115390785	4.245000E+01	  0.115390785	7.323300E+01	  0.115390785	4.350100E+01
478	  0.115591183	-8.478000E+00	  0.115591183	4.157400E+01	  0.115591183	7.419400E+01	  0.115591183	4.323600E+01
479	  0.115791589	-8.496000E+00	  0.115791589	4.063600E+01	  0.115791589	7.522100E+01	  0.115791589	4.290100E+01
480	  0.115991987	-8.509000E+00	  0.115991987	3.973700E+01	  0.115991987	7.621800E+01	  0.115991987	4.258800E+01
481	  0.116192386	-8.530000E+00	  0.116192386	3.882600E+01	  0.116192386	7.721200E+01	  0.116192386	4.217500E+01
482	  0.116392791	-8.544000E+00	  0.116392791	3.790100E+01	  0.116392791	7.823800E+01	  0.116392791	4.178500E+01
483	  0.116593190	-8.569000E+00	  0.116593190	3.686900E+01	  0.116593190	7.935900E+01	  0.116593190	4.123700E+01
484	  0.116793588	-8.591000E+00	  0.116793588	3.594400E+01	  0.116793588	8.035900E+01	  0.116793588	4.071700E+01
485	  0.116993994	-8.619000E+00	  0.116993994	3.495900E+01	  0.116993994	8.140500E+01	  0.116993994	4.008900E+01
486	  0.117194392	-8.649000E+00	  0.117194392	3.390500E+01	  0.117194392	8.251400E+01	  0.117194392	3.938400E+01
487	  0.117394790	-8.682000E+00	  0.117394790	3.290600E+01	  0.117394790	8.353400E+01	  0.117394790	3.863500E+01
488	  0.117595196	-8.721000E+00	  0.117595196	3.187600E+01	  0.117595196	8.455000E+01	  0.117595196	3.779200E+01
489	  0.117795594	-8.753000E+00	  0.117795594	3.084700E+01	  0.117795594	8.556600E+01	  0.117795594	3.695200E+01
490	  0.117995992	-8.785000E+00	  0.117995992	2.975900E+01	  0.117995992	8.663100E+01	  0.117995992	3.604500E+01
491	  0.118196398	-8.831000E+00	  0.118196398	2.866100E+01	  0.118196398	8.761300E+01	  0.118196398	3.498300E+01
492	  0.118396796	-8.874000E+00	  0.118396796	2.755200E+01	  0.118396796	8.858500E+01	  0.118396796	3.389200E+01
493	  0.118597202	-8.919000E+00	  0.118597202	2.645200E+01	  0.118597202	8.950300E+01	  0.118597202	3.275600E+01
494	  0.118797600	-8.971000E+00	  0.118797600	2.530300E+01	  0.118797600	9.038900E+01	  0.118797600	3.149800E+01
495	  0.118997999	-9.024000E+00	  0.118997999	2.413300E+01	  0.118997999	9.124000E+01	  0.118997999	3.017700E+01
496	  0.119198404	-9.077000E+00	  0.119198404	2.299800E+01	  0.119198404	9.200100E+01	  0.119198404	2.884700E+01
497	  0.119398803	-9.139000E+00	  0.119398803	2.180300E+01	  0.119398803	9.271000E+01	  0.119398803	2.738300E+01
498	  0.119599201	-9.204000E+00	  0.119599201	2.059400E+01	  0.119599201	9.335000E+01	  0.119599201	2.586400E+01
499	  0.119799607	-9.271000E+00	  0.119799607	1.937600E+01	  0.119799607	9.391700E+01	  0.119799607	2.430600E+01
500	  0.120000005	-9.342000E+00	  0.120000005	1.811000E+01	  0.120000005	9.441900E+01	  0.120000005	2.265900E+01
