! Anritsu VNA Master:             	Model: MS2036C/10/77
! SN:             	1601066
! /bd0/18may09/252.ns.m5.txt
! Existing Calibration Information:
! TYPE:             	Current Settings	Active Cal Settings
! TIME:             	05/09/2018 08:59:27 AM	05/09/2018 08:47:23 AM
! INTERNAL TEMP:    	40.0 C	40.0 C
! # POINTS:         	500	500
! START FREQ:       	20.000 MHz	20.000 MHz
! STOP FREQ:        	120.000 MHz	120.000 MHz
! SOURCE POWER:     	High	High
! IFBW:             	50 Hz	50 Hz
! AVG FACTOR:       	  1 	  1 
! REF PLANE 1:      	0 mm	0 mm
! REF PLANE 2:      	0 mm	0 mm
! CAL TYPE:         	Full S11	Full S11
! CAL METHOD:       	SOLT	SOLT
! CAL LINE TYPE:    	Coax	Coax
! DUT PORT 1:       	K-Conn(F)	K-Conn(F)
! DUT PORT 2:       	K-Conn(F)	K-Conn(F)
! CAL STATUS:       	OK: Accuracy High	--
! PROP-V:       	0.700
! CABLE LOSS:       	0.000 dB/m
! REF IMPEDANCE:       	50.0
! Trace Specific Parameters:	TR1	TR2	TR3	TR4
! TRACE.#.Y (GRAPH TYPE)	LOG MAG	PHASE	REAL IMPEDANCE	IMAGINARY IMPEDANCE
! TRACE.#.X 	FREQ.GHZ	FREQ.GHZ	FREQ.GHZ	FREQ.GHZ
! S-PARAMETER	S11	S11	S11	S11
! SMOOTH/APERTURE %	0	0	0	0
! WINDOW	NSL	NSL	NSL	NSL
! GATING	OFF	OFF	OFF	OFF
! FGTD	OFF	OFF	OFF	OFF
Marker Information per Trace:	TR1	TR2	TR3	TR4
!MK1	--	"MK1 TR2:  20.000 MHz,PH:-123.91°"	--	--
!MK2	--	--	"MK2 TR3:  70.100 200 MHz,Z:(16.486 ohm, -3.753 ohm)"	--
!MK3	--	--	--	--
!MK4	--	--	--	--
!MK5	--	--	--	--
!MK6	--	--	--	--
!MK7	--	--	--	--
!MK8	--	--	--	--
PNT	TR1.FREQ.GHZ	TR1.LOG MAG.dB	TR2.FREQ.GHZ	TR2.PHASE.deg	TR3.FREQ.GHZ	TR3.REAL IMPEDANCE.ohm	TR4.FREQ.GHZ	TR4.IMAGINARY IMPEDANCE.ohm
1	  0.020000000	-5.910000E-01	  0.020000000	-1.239050E+02	  0.020000000	2.185000E+00	  0.020000000	-2.659800E+01
2	  0.020200402	-5.920000E-01	  0.020200402	-1.253200E+02	  0.020200402	2.158000E+00	  0.020200402	-2.581200E+01
3	  0.020400802	-5.930000E-01	  0.020400802	-1.267600E+02	  0.020400802	2.134000E+00	  0.020400802	-2.502300E+01
4	  0.020601204	-5.970000E-01	  0.020601204	-1.282000E+02	  0.020601204	2.122000E+00	  0.020601204	-2.424200E+01
5	  0.020801604	-6.000000E-01	  0.020801604	-1.296580E+02	  0.020801604	2.107000E+00	  0.020801604	-2.346200E+01
6	  0.021002004	-6.070000E-01	  0.021002004	-1.311570E+02	  0.021002004	2.107000E+00	  0.021002004	-2.266900E+01
7	  0.021202406	-6.160000E-01	  0.021202406	-1.326630E+02	  0.021202406	2.115000E+00	  0.021202406	-2.188200E+01
8	  0.021402806	-6.190000E-01	  0.021402806	-1.341500E+02	  0.021402806	2.101000E+00	  0.021402806	-2.111400E+01
9	  0.021603208	-6.240000E-01	  0.021603208	-1.356540E+02	  0.021603208	2.095000E+00	  0.021603208	-2.034600E+01
10	  0.021803608	-6.270000E-01	  0.021803608	-1.371370E+02	  0.021803608	2.082000E+00	  0.021803608	-1.959600E+01
11	  0.022004008	-6.310000E-01	  0.022004008	-1.386450E+02	  0.022004008	2.074000E+00	  0.022004008	-1.884200E+01
12	  0.022204408	-6.390000E-01	  0.022204408	-1.401610E+02	  0.022204408	2.081000E+00	  0.022204408	-1.809100E+01
13	  0.022404809	-6.440000E-01	  0.022404809	-1.416720E+02	  0.022404809	2.076000E+00	  0.022404809	-1.734900E+01
14	  0.022605211	-6.460000E-01	  0.022605211	-1.432400E+02	  0.022605211	2.065000E+00	  0.022605211	-1.658700E+01
15	  0.022805611	-6.480000E-01	  0.022805611	-1.447920E+02	  0.022805611	2.052000E+00	  0.022805611	-1.584000E+01
16	  0.023006011	-6.510000E-01	  0.023006011	-1.463110E+02	  0.023006011	2.047000E+00	  0.023006011	-1.511400E+01
17	  0.023206413	-6.520000E-01	  0.023206413	-1.478180E+02	  0.023206413	2.033000E+00	  0.023206413	-1.440000E+01
18	  0.023406813	-6.560000E-01	  0.023406813	-1.493560E+02	  0.023406813	2.029000E+00	  0.023406813	-1.367800E+01
19	  0.023607215	-6.610000E-01	  0.023607215	-1.508840E+02	  0.023607215	2.030000E+00	  0.023607215	-1.296400E+01
20	  0.023807615	-6.670000E-01	  0.023807615	-1.524350E+02	  0.023807615	2.036000E+00	  0.023807615	-1.224500E+01
21	  0.024008015	-6.750000E-01	  0.024008015	-1.539940E+02	  0.024008015	2.048000E+00	  0.024008015	-1.152700E+01
22	  0.024208417	-6.830000E-01	  0.024208417	-1.555790E+02	  0.024208417	2.058000E+00	  0.024208417	-1.080200E+01
23	  0.024408817	-6.910000E-01	  0.024408817	-1.571680E+02	  0.024408817	2.070000E+00	  0.024408817	-1.007900E+01
24	  0.024609219	-7.000000E-01	  0.024609219	-1.587430E+02	  0.024609219	2.085000E+00	  0.024609219	-9.367000E+00
25	  0.024809619	-7.090000E-01	  0.024809619	-1.603360E+02	  0.024809619	2.102000E+00	  0.024809619	-8.649000E+00
26	  0.025010020	-7.180000E-01	  0.025010020	-1.619390E+02	  0.025010020	2.119000E+00	  0.025010020	-7.932000E+00
27	  0.025210422	-7.290000E-01	  0.025210422	-1.635500E+02	  0.025210422	2.142000E+00	  0.025210422	-7.214000E+00
28	  0.025410822	-7.430000E-01	  0.025410822	-1.651870E+02	  0.025410822	2.175000E+00	  0.025410822	-6.487000E+00
29	  0.025611224	-7.550000E-01	  0.025611224	-1.668460E+02	  0.025611224	2.201000E+00	  0.025611224	-5.753000E+00
30	  0.025811624	-7.670000E-01	  0.025811624	-1.685200E+02	  0.025811624	2.228000E+00	  0.025811624	-5.016000E+00
31	  0.026012026	-7.750000E-01	  0.026012026	-1.702020E+02	  0.026012026	2.248000E+00	  0.026012026	-4.276000E+00
32	  0.026212426	-7.840000E-01	  0.026212426	-1.718900E+02	  0.026212426	2.269000E+00	  0.026212426	-3.537000E+00
33	  0.026412826	-7.990000E-01	  0.026412826	-1.735840E+02	  0.026412826	2.305000E+00	  0.026412826	-2.796000E+00
34	  0.026613226	-8.120000E-01	  0.026613226	-1.752920E+02	  0.026613226	2.339000E+00	  0.026613226	-2.050000E+00
35	  0.026813626	-8.270000E-01	  0.026813626	-1.770210E+02	  0.026813626	2.381000E+00	  0.026813626	-1.296000E+00
36	  0.027014028	-8.430000E-01	  0.027014028	-1.787500E+02	  0.027014028	2.427000E+00	  0.027014028	-5.440000E-01
37	  0.027214428	-8.590000E-01	  0.027214428	1.794910E+02	  0.027214428	2.471000E+00	  0.027214428	2.210000E-01
38	  0.027414829	-8.730000E-01	  0.027414829	1.777270E+02	  0.027414829	2.511000E+00	  0.027414829	9.890000E-01
39	  0.027615231	-8.900000E-01	  0.027615231	1.759520E+02	  0.027615231	2.563000E+00	  0.027615231	1.762000E+00
40	  0.027815631	-9.090000E-01	  0.027815631	1.741830E+02	  0.027815631	2.622000E+00	  0.027815631	2.533000E+00
41	  0.028016033	-9.310000E-01	  0.028016033	1.723900E+02	  0.028016033	2.689000E+00	  0.028016033	3.315000E+00
42	  0.028216433	-9.530000E-01	  0.028216433	1.706010E+02	  0.028216433	2.759000E+00	  0.028216433	4.097000E+00
43	  0.028416833	-9.730000E-01	  0.028416833	1.688060E+02	  0.028416833	2.825000E+00	  0.028416833	4.884000E+00
44	  0.028617235	-9.920000E-01	  0.028617235	1.670080E+02	  0.028617235	2.889000E+00	  0.028617235	5.674000E+00
45	  0.028817635	-1.012000E+00	  0.028817635	1.652240E+02	  0.028817635	2.960000E+00	  0.028817635	6.460000E+00
46	  0.029018037	-1.032000E+00	  0.029018037	1.634450E+02	  0.029018037	3.030000E+00	  0.029018037	7.247000E+00
47	  0.029218437	-1.057000E+00	  0.029218437	1.616690E+02	  0.029218437	3.117000E+00	  0.029218437	8.036000E+00
48	  0.029418837	-1.082000E+00	  0.029418837	1.598780E+02	  0.029418837	3.209000E+00	  0.029418837	8.835000E+00
49	  0.029619239	-1.110000E+00	  0.029619239	1.580730E+02	  0.029619239	3.310000E+00	  0.029619239	9.645000E+00
50	  0.029819639	-1.140000E+00	  0.029819639	1.562570E+02	  0.029819639	3.421000E+00	  0.029819639	1.046300E+01
51	  0.030020041	-1.170000E+00	  0.030020041	1.544110E+02	  0.030020041	3.537000E+00	  0.030020041	1.130000E+01
52	  0.030220442	-1.200000E+00	  0.030220442	1.525630E+02	  0.030220442	3.655000E+00	  0.030220442	1.214400E+01
53	  0.030420844	-1.232000E+00	  0.030420844	1.507100E+02	  0.030420844	3.781000E+00	  0.030420844	1.299500E+01
54	  0.030621244	-1.264000E+00	  0.030621244	1.488700E+02	  0.030621244	3.914000E+00	  0.030621244	1.384700E+01
55	  0.030821644	-1.300000E+00	  0.030821644	1.470290E+02	  0.030821644	4.060000E+00	  0.030821644	1.470600E+01
56	  0.031022044	-1.336000E+00	  0.031022044	1.451250E+02	  0.031022044	4.215000E+00	  0.031022044	1.560200E+01
57	  0.031222444	-1.370000E+00	  0.031222444	1.432710E+02	  0.031222444	4.366000E+00	  0.031222444	1.648400E+01
58	  0.031422846	-1.407000E+00	  0.031422846	1.413620E+02	  0.031422846	4.533000E+00	  0.031422846	1.739900E+01
59	  0.031623244	-1.443000E+00	  0.031623244	1.394310E+02	  0.031623244	4.705000E+00	  0.031623244	1.833600E+01
60	  0.031823646	-1.473000E+00	  0.031823646	1.374800E+02	  0.031823646	4.866000E+00	  0.031823646	1.929300E+01
61	  0.032024048	-1.504000E+00	  0.032024048	1.355540E+02	  0.032024048	5.034000E+00	  0.032024048	2.024900E+01
62	  0.032224450	-1.537000E+00	  0.032224450	1.336280E+02	  0.032224450	5.215000E+00	  0.032224450	2.121800E+01
63	  0.032424849	-1.570000E+00	  0.032424849	1.317080E+02	  0.032424849	5.403000E+00	  0.032424849	2.219500E+01
64	  0.032625251	-1.602000E+00	  0.032625251	1.297580E+02	  0.032625251	5.601000E+00	  0.032625251	2.320200E+01
65	  0.032825653	-1.639000E+00	  0.032825653	1.278320E+02	  0.032825653	5.820000E+00	  0.032825653	2.420900E+01
66	  0.033026051	-1.679000E+00	  0.033026051	1.258820E+02	  0.033026051	6.061000E+00	  0.033026051	2.524200E+01
67	  0.033226453	-1.727000E+00	  0.033226453	1.239040E+02	  0.033226453	6.345000E+00	  0.033226453	2.630300E+01
68	  0.033426855	-1.774000E+00	  0.033426855	1.219340E+02	  0.033426855	6.637000E+00	  0.033426855	2.737700E+01
69	  0.033627257	-1.824000E+00	  0.033627257	1.198980E+02	  0.033627257	6.956000E+00	  0.033627257	2.850500E+01
70	  0.033827655	-1.871000E+00	  0.033827655	1.178220E+02	  0.033827655	7.287000E+00	  0.033827655	2.967600E+01
71	  0.034028057	-1.918000E+00	  0.034028057	1.157310E+02	  0.034028057	7.632000E+00	  0.034028057	3.087900E+01
72	  0.034228459	-1.963000E+00	  0.034228459	1.136150E+02	  0.034228459	7.990000E+00	  0.034228459	3.212100E+01
73	  0.034428857	-2.006000E+00	  0.034428857	1.114870E+02	  0.034428857	8.365000E+00	  0.034428857	3.339600E+01
74	  0.034629259	-2.048000E+00	  0.034629259	1.093690E+02	  0.034629259	8.754000E+00	  0.034629259	3.469300E+01
75	  0.034829661	-2.085000E+00	  0.034829661	1.072590E+02	  0.034829661	9.145000E+00	  0.034829661	3.601800E+01
76	  0.035030060	-2.124000E+00	  0.035030060	1.051490E+02	  0.035030060	9.564000E+00	  0.035030060	3.737100E+01
77	  0.035230462	-2.166000E+00	  0.035230462	1.030510E+02	  0.035230462	1.002300E+01	  0.035230462	3.874600E+01
78	  0.035430863	-2.204000E+00	  0.035430863	1.009910E+02	  0.035430863	1.048600E+01	  0.035430863	4.013100E+01
79	  0.035631265	-2.245000E+00	  0.035631265	9.891900E+01	  0.035631265	1.099600E+01	  0.035631265	4.155500E+01
80	  0.035831664	-2.290000E+00	  0.035831664	9.684600E+01	  0.035831664	1.155500E+01	  0.035831664	4.301200E+01
81	  0.036032066	-2.336000E+00	  0.036032066	9.479400E+01	  0.036032066	1.215400E+01	  0.036032066	4.448700E+01
82	  0.036232468	-2.382000E+00	  0.036232468	9.275700E+01	  0.036232468	1.278600E+01	  0.036232468	4.598800E+01
83	  0.036432866	-2.431000E+00	  0.036432866	9.074100E+01	  0.036432866	1.347500E+01	  0.036432866	4.750700E+01
84	  0.036633268	-2.488000E+00	  0.036633268	8.866900E+01	  0.036633268	1.426100E+01	  0.036633268	4.909800E+01
85	  0.036833670	-2.550000E+00	  0.036833670	8.662700E+01	  0.036833670	1.512600E+01	  0.036833670	5.069400E+01
86	  0.037034072	-2.612000E+00	  0.037034072	8.454400E+01	  0.037034072	1.605900E+01	  0.037034072	5.236600E+01
87	  0.037234470	-2.673000E+00	  0.037234470	8.243000E+01	  0.037234470	1.706400E+01	  0.037234470	5.410900E+01
88	  0.037434869	-2.739000E+00	  0.037434869	8.029000E+01	  0.037434869	1.818700E+01	  0.037434869	5.590900E+01
89	  0.037635271	-2.804000E+00	  0.037635271	7.811900E+01	  0.037635271	1.940100E+01	  0.037635271	5.778600E+01
90	  0.037835669	-2.870000E+00	  0.037835669	7.595500E+01	  0.037835669	2.071200E+01	  0.037835669	5.970200E+01
91	  0.038036071	-2.943000E+00	  0.038036071	7.378600E+01	  0.038036071	2.217800E+01	  0.038036071	6.165000E+01
92	  0.038236473	-3.000000E+00	  0.038236473	7.167800E+01	  0.038236473	2.362000E+01	  0.038236473	6.363200E+01
93	  0.038436871	-3.053000E+00	  0.038436871	6.953700E+01	  0.038436871	2.516700E+01	  0.038436871	6.571600E+01
94	  0.038637273	-3.098000E+00	  0.038637273	6.737800E+01	  0.038637273	2.680400E+01	  0.038637273	6.790400E+01
95	  0.038837675	-3.146000E+00	  0.038837675	6.523700E+01	  0.038837675	2.858900E+01	  0.038837675	7.012300E+01
96	  0.039038073	-3.193000E+00	  0.039038073	6.314500E+01	  0.039038073	3.048600E+01	  0.039038073	7.234300E+01
97	  0.039238475	-3.244000E+00	  0.039238475	6.103600E+01	  0.039238475	3.259800E+01	  0.039238475	7.461100E+01
98	  0.039438877	-3.297000E+00	  0.039438877	5.896300E+01	  0.039438877	3.488300E+01	  0.039438877	7.686500E+01
99	  0.039639279	-3.358000E+00	  0.039639279	5.687700E+01	  0.039639279	3.744600E+01	  0.039639279	7.911900E+01
100	  0.039839678	-3.423000E+00	  0.039839678	5.478300E+01	  0.039839678	4.028000E+01	  0.039839678	8.136900E+01
101	  0.040040080	-3.486000E+00	  0.040040080	5.268300E+01	  0.040040080	4.335800E+01	  0.040040080	8.363900E+01
102	  0.040240481	-3.551000E+00	  0.040240481	5.054500E+01	  0.040240481	4.678200E+01	  0.040240481	8.592500E+01
103	  0.040440880	-3.614000E+00	  0.040440880	4.843200E+01	  0.040440880	5.045900E+01	  0.040440880	8.815900E+01
104	  0.040641282	-3.675000E+00	  0.040641282	4.633000E+01	  0.040641282	5.443100E+01	  0.040641282	9.033500E+01
105	  0.040841684	-3.737000E+00	  0.040841684	4.421400E+01	  0.040841684	5.880500E+01	  0.040841684	9.241100E+01
106	  0.041042086	-3.797000E+00	  0.041042086	4.211300E+01	  0.041042086	6.350700E+01	  0.041042086	9.437300E+01
107	  0.041242484	-3.855000E+00	  0.041242484	3.999000E+01	  0.041242484	6.865400E+01	  0.041242484	9.620900E+01
108	  0.041442886	-3.913000E+00	  0.041442886	3.786800E+01	  0.041442886	7.424300E+01	  0.041442886	9.780700E+01
109	  0.041643288	-3.969000E+00	  0.041643288	3.576100E+01	  0.041643288	8.023600E+01	  0.041643288	9.912100E+01
110	  0.041843686	-4.022000E+00	  0.041843686	3.367400E+01	  0.041843686	8.662600E+01	  0.041843686	1.000940E+02
111	  0.042044088	-4.077000E+00	  0.042044088	3.160900E+01	  0.042044088	9.342000E+01	  0.042044088	1.005620E+02
112	  0.042244490	-4.129000E+00	  0.042244490	2.954900E+01	  0.042244490	1.006290E+02	  0.042244490	1.005550E+02
113	  0.042444889	-4.182000E+00	  0.042444889	2.752400E+01	  0.042444889	1.081220E+02	  0.042444889	9.987300E+01
114	  0.042645290	-4.237000E+00	  0.042645290	2.548900E+01	  0.042645290	1.160050E+02	  0.042645290	9.837900E+01
115	  0.042845692	-4.291000E+00	  0.042845692	2.345000E+01	  0.042845692	1.241660E+02	  0.042845692	9.606200E+01
116	  0.043046094	-4.342000E+00	  0.043046094	2.142700E+01	  0.043046094	1.324340E+02	  0.043046094	9.285700E+01
117	  0.043246493	-4.397000E+00	  0.043246493	1.940000E+01	  0.043246493	1.407000E+02	  0.043246493	8.848900E+01
118	  0.043446895	-4.448000E+00	  0.043446895	1.735000E+01	  0.043446895	1.489400E+02	  0.043446895	8.303600E+01
119	  0.043647297	-4.503000E+00	  0.043647297	1.533300E+01	  0.043647297	1.566180E+02	  0.043647297	7.641700E+01
120	  0.043847695	-4.557000E+00	  0.043847695	1.332600E+01	  0.043847695	1.636600E+02	  0.043847695	6.870700E+01
121	  0.044048097	-4.608000E+00	  0.044048097	1.129600E+01	  0.044048097	1.700060E+02	  0.044048097	5.990800E+01
122	  0.044248499	-4.662000E+00	  0.044248499	9.296000E+00	  0.044248499	1.751500E+02	  0.044248499	5.026100E+01
123	  0.044448901	-4.711000E+00	  0.044448901	7.283000E+00	  0.044448901	1.792630E+02	  0.044448901	3.991200E+01
124	  0.044649299	-4.760000E+00	  0.044649299	5.280000E+00	  0.044649299	1.819920E+02	  0.044649299	2.908400E+01
125	  0.044849701	-4.803000E+00	  0.044849701	3.286000E+00	  0.044849701	1.834710E+02	  0.044849701	1.807900E+01
126	  0.045050103	-4.844000E+00	  0.045050103	1.291000E+00	  0.045050103	1.836180E+02	  0.045050103	7.048000E+00
127	  0.045250501	-4.885000E+00	  0.045250501	-6.720000E-01	  0.045250501	1.823770E+02	  0.045250501	-3.614000E+00
128	  0.045450903	-4.927000E+00	  0.045450903	-2.613000E+00	  0.045450903	1.798480E+02	  0.045450903	-1.370700E+01
129	  0.045651305	-4.968000E+00	  0.045651305	-4.563000E+00	  0.045651305	1.762500E+02	  0.045651305	-2.323200E+01
130	  0.045851704	-5.009000E+00	  0.045851704	-6.449000E+00	  0.045851704	1.717980E+02	  0.045851704	-3.167400E+01
131	  0.046052106	-5.047000E+00	  0.046052106	-8.378000E+00	  0.046052106	1.666570E+02	  0.046052106	-3.952400E+01
132	  0.046252504	-5.082000E+00	  0.046252504	-1.026300E+01	  0.046252504	1.610990E+02	  0.046252504	-4.635900E+01
133	  0.046452906	-5.118000E+00	  0.046452906	-1.215600E+01	  0.046452906	1.551090E+02	  0.046452906	-5.234200E+01
134	  0.046653304	-5.149000E+00	  0.046653304	-1.404000E+01	  0.046653304	1.489840E+02	  0.046653304	-5.753200E+01
135	  0.046853706	-5.178000E+00	  0.046853706	-1.589300E+01	  0.046853706	1.428330E+02	  0.046853706	-6.186800E+01
136	  0.047054108	-5.209000E+00	  0.047054108	-1.774400E+01	  0.047054108	1.366220E+02	  0.047054108	-6.542600E+01
137	  0.047254506	-5.237000E+00	  0.047254506	-1.958300E+01	  0.047254506	1.305370E+02	  0.047254506	-6.834500E+01
138	  0.047454908	-5.261000E+00	  0.047454908	-2.140000E+01	  0.047454908	1.246550E+02	  0.047454908	-7.067900E+01
139	  0.047655310	-5.287000E+00	  0.047655310	-2.318800E+01	  0.047655310	1.190000E+02	  0.047655310	-7.241200E+01
140	  0.047855709	-5.315000E+00	  0.047855709	-2.495400E+01	  0.047855709	1.135790E+02	  0.047855709	-7.361400E+01
141	  0.048056111	-5.343000E+00	  0.048056111	-2.672600E+01	  0.048056111	1.083620E+02	  0.048056111	-7.444000E+01
142	  0.048256513	-5.371000E+00	  0.048256513	-2.848000E+01	  0.048256513	1.034200E+02	  0.048256513	-7.488800E+01
143	  0.048456915	-5.399000E+00	  0.048456915	-3.022400E+01	  0.048456915	9.873800E+01	  0.048456915	-7.502500E+01
144	  0.048657313	-5.424000E+00	  0.048657313	-3.198200E+01	  0.048657313	9.426300E+01	  0.048657313	-7.496700E+01
145	  0.048857715	-5.446000E+00	  0.048857715	-3.374300E+01	  0.048857715	9.001200E+01	  0.048857715	-7.474900E+01
146	  0.049058117	-5.472000E+00	  0.049058117	-3.548300E+01	  0.049058117	8.603900E+01	  0.049058117	-7.426100E+01
147	  0.049258515	-5.494000E+00	  0.049258515	-3.720900E+01	  0.049258515	8.230900E+01	  0.049258515	-7.366800E+01
148	  0.049458917	-5.520000E+00	  0.049458917	-3.894000E+01	  0.049458917	7.878400E+01	  0.049458917	-7.290700E+01
149	  0.049659319	-5.545000E+00	  0.049659319	-4.067400E+01	  0.049659319	7.545400E+01	  0.049659319	-7.202700E+01
150	  0.049859721	-5.567000E+00	  0.049859721	-4.239200E+01	  0.049859721	7.233700E+01	  0.049859721	-7.111400E+01
151	  0.050060119	-5.590000E+00	  0.050060119	-4.413700E+01	  0.050060119	6.935500E+01	  0.050060119	-7.010500E+01
152	  0.050260521	-5.605000E+00	  0.050260521	-4.588200E+01	  0.050260521	6.652500E+01	  0.050260521	-6.910000E+01
153	  0.050460923	-5.621000E+00	  0.050460923	-4.760800E+01	  0.050460923	6.388200E+01	  0.050460923	-6.805200E+01
154	  0.050661322	-5.633000E+00	  0.050661322	-4.932600E+01	  0.050661322	6.139300E+01	  0.050661322	-6.698800E+01
155	  0.050861724	-5.648000E+00	  0.050861724	-5.102900E+01	  0.050861724	5.906700E+01	  0.050861724	-6.588000E+01
156	  0.051062126	-5.659000E+00	  0.051062126	-5.270800E+01	  0.051062126	5.689000E+01	  0.051062126	-6.478600E+01
157	  0.051262524	-5.670000E+00	  0.051262524	-5.434900E+01	  0.051262524	5.488100E+01	  0.051262524	-6.368700E+01
158	  0.051462926	-5.682000E+00	  0.051462926	-5.596500E+01	  0.051462926	5.300700E+01	  0.051462926	-6.258800E+01
159	  0.051663328	-5.690000E+00	  0.051663328	-5.756400E+01	  0.051663328	5.123700E+01	  0.051663328	-6.151300E+01
160	  0.051863730	-5.705000E+00	  0.051863730	-5.919300E+01	  0.051863730	4.955400E+01	  0.051863730	-6.036000E+01
161	  0.052064128	-5.719000E+00	  0.052064128	-6.081000E+01	  0.052064128	4.796900E+01	  0.052064128	-5.922200E+01
162	  0.052264530	-5.726000E+00	  0.052264530	-6.242500E+01	  0.052264530	4.643900E+01	  0.052264530	-5.813000E+01
163	  0.052464932	-5.740000E+00	  0.052464932	-6.401500E+01	  0.052464932	4.503400E+01	  0.052464932	-5.701500E+01
164	  0.052665330	-5.751000E+00	  0.052665330	-6.559900E+01	  0.052665330	4.369600E+01	  0.052665330	-5.592300E+01
165	  0.052865732	-5.758000E+00	  0.052865732	-6.719300E+01	  0.052865732	4.240300E+01	  0.052865732	-5.484800E+01
166	  0.053066134	-5.765000E+00	  0.053066134	-6.874300E+01	  0.053066134	4.120300E+01	  0.053066134	-5.380900E+01
167	  0.053266536	-5.770000E+00	  0.053266536	-7.030900E+01	  0.053266536	4.004200E+01	  0.053266536	-5.277500E+01
168	  0.053466935	-5.776000E+00	  0.053466935	-7.187100E+01	  0.053466935	3.893900E+01	  0.053466935	-5.174900E+01
169	  0.053667337	-5.777000E+00	  0.053667337	-7.339100E+01	  0.053667337	3.790100E+01	  0.053667337	-5.077200E+01
170	  0.053867739	-5.779000E+00	  0.053867739	-7.491200E+01	  0.053867739	3.690900E+01	  0.053867739	-4.980200E+01
171	  0.054068137	-5.783000E+00	  0.054068137	-7.641500E+01	  0.054068137	3.598300E+01	  0.054068137	-4.884000E+01
172	  0.054268539	-5.785000E+00	  0.054268539	-7.788000E+01	  0.054268539	3.511100E+01	  0.054268539	-4.791800E+01
173	  0.054468941	-5.790000E+00	  0.054468941	-7.930500E+01	  0.054468941	3.431400E+01	  0.054468941	-4.701400E+01
174	  0.054669339	-5.795000E+00	  0.054669339	-8.070600E+01	  0.054669339	3.356100E+01	  0.054669339	-4.613700E+01
175	  0.054869737	-5.805000E+00	  0.054869737	-8.211500E+01	  0.054869737	3.285300E+01	  0.054869737	-4.524600E+01
176	  0.055070139	-5.812000E+00	  0.055070139	-8.353300E+01	  0.055070139	3.216200E+01	  0.055070139	-4.436700E+01
177	  0.055270538	-5.822000E+00	  0.055270538	-8.492400E+01	  0.055270538	3.152000E+01	  0.055270538	-4.350600E+01
178	  0.055470940	-5.830000E+00	  0.055470940	-8.635700E+01	  0.055470940	3.088100E+01	  0.055470940	-4.263400E+01
179	  0.055671342	-5.840000E+00	  0.055671342	-8.774300E+01	  0.055671342	3.029400E+01	  0.055671342	-4.179600E+01
180	  0.055871744	-5.854000E+00	  0.055871744	-8.914100E+01	  0.055871744	2.974000E+01	  0.055871744	-4.094900E+01
181	  0.056072142	-5.861000E+00	  0.056072142	-9.054400E+01	  0.056072142	2.918400E+01	  0.056072142	-4.012700E+01
182	  0.056272544	-5.871000E+00	  0.056272544	-9.195300E+01	  0.056272544	2.865600E+01	  0.056272544	-3.930300E+01
183	  0.056472946	-5.878000E+00	  0.056472946	-9.334500E+01	  0.056472946	2.814400E+01	  0.056472946	-3.850700E+01
184	  0.056673344	-5.886000E+00	  0.056673344	-9.474000E+01	  0.056673344	2.765600E+01	  0.056673344	-3.771400E+01
185	  0.056873746	-5.891000E+00	  0.056873746	-9.612100E+01	  0.056873746	2.718000E+01	  0.056873746	-3.694500E+01
186	  0.057074148	-5.889000E+00	  0.057074148	-9.750600E+01	  0.057074148	2.669600E+01	  0.057074148	-3.619800E+01
187	  0.057274550	-5.893000E+00	  0.057274550	-9.887900E+01	  0.057274550	2.625600E+01	  0.057274550	-3.545000E+01
188	  0.057474948	-5.892000E+00	  0.057474948	-1.002230E+02	  0.057474948	2.582400E+01	  0.057474948	-3.473600E+01
189	  0.057675350	-5.893000E+00	  0.057675350	-1.015720E+02	  0.057675350	2.541500E+01	  0.057675350	-3.402100E+01
190	  0.057875752	-5.894000E+00	  0.057875752	-1.028740E+02	  0.057875752	2.503000E+01	  0.057875752	-3.333900E+01
191	  0.058076151	-5.891000E+00	  0.058076151	-1.041420E+02	  0.058076151	2.465800E+01	  0.058076151	-3.268500E+01
192	  0.058276553	-5.887000E+00	  0.058276553	-1.054080E+02	  0.058276553	2.429400E+01	  0.058276553	-3.204100E+01
193	  0.058476955	-5.889000E+00	  0.058476955	-1.066630E+02	  0.058476955	2.396600E+01	  0.058476955	-3.139800E+01
194	  0.058677353	-5.885000E+00	  0.058677353	-1.079440E+02	  0.058677353	2.362000E+01	  0.058677353	-3.075700E+01
195	  0.058877755	-5.888000E+00	  0.058877755	-1.092040E+02	  0.058877755	2.331600E+01	  0.058877755	-3.011900E+01
196	  0.059078157	-5.884000E+00	  0.059078157	-1.104470E+02	  0.059078157	2.300400E+01	  0.059078157	-2.950600E+01
197	  0.059278559	-5.885000E+00	  0.059278559	-1.116850E+02	  0.059278559	2.271900E+01	  0.059278559	-2.889300E+01
198	  0.059478957	-5.885000E+00	  0.059478957	-1.129450E+02	  0.059478957	2.243600E+01	  0.059478957	-2.827600E+01
199	  0.059679359	-5.883000E+00	  0.059679359	-1.141750E+02	  0.059679359	2.216100E+01	  0.059679359	-2.768100E+01
200	  0.059879761	-5.878000E+00	  0.059879761	-1.153760E+02	  0.059879761	2.189200E+01	  0.059879761	-2.710800E+01
201	  0.060080159	-5.875000E+00	  0.060080159	-1.165960E+02	  0.060080159	2.163400E+01	  0.060080159	-2.652700E+01
202	  0.060280561	-5.871000E+00	  0.060280561	-1.177850E+02	  0.060280561	2.138700E+01	  0.060280561	-2.596700E+01
203	  0.060480963	-5.871000E+00	  0.060480963	-1.189620E+02	  0.060480963	2.116100E+01	  0.060480963	-2.541100E+01
204	  0.060681365	-5.867000E+00	  0.060681365	-1.201350E+02	  0.060681365	2.093400E+01	  0.060681365	-2.486500E+01
205	  0.060881764	-5.863000E+00	  0.060881764	-1.213420E+02	  0.060881764	2.070400E+01	  0.060881764	-2.430800E+01
206	  0.061082166	-5.866000E+00	  0.061082166	-1.225070E+02	  0.061082166	2.051200E+01	  0.061082166	-2.376500E+01
207	  0.061282568	-5.860000E+00	  0.061282568	-1.236610E+02	  0.061282568	2.030200E+01	  0.061282568	-2.324000E+01
208	  0.061482966	-5.860000E+00	  0.061482966	-1.248010E+02	  0.061482966	2.011600E+01	  0.061482966	-2.271900E+01
209	  0.061683368	-5.859000E+00	  0.061683368	-1.259390E+02	  0.061683368	1.993700E+01	  0.061683368	-2.220200E+01
210	  0.061883770	-5.863000E+00	  0.061883770	-1.270600E+02	  0.061883770	1.977700E+01	  0.061883770	-2.169200E+01
211	  0.062084168	-5.858000E+00	  0.062084168	-1.281890E+02	  0.062084168	1.959600E+01	  0.062084168	-2.119100E+01
212	  0.062284570	-5.861000E+00	  0.062284570	-1.293300E+02	  0.062284570	1.944000E+01	  0.062284570	-2.067900E+01
213	  0.062484972	-5.861000E+00	  0.062484972	-1.304250E+02	  0.062484972	1.929100E+01	  0.062484972	-2.019200E+01
214	  0.062685370	-5.867000E+00	  0.062685370	-1.315790E+02	  0.062685370	1.915200E+01	  0.062685370	-1.967800E+01
215	  0.062885776	-5.867000E+00	  0.062885776	-1.327350E+02	  0.062885776	1.900500E+01	  0.062885776	-1.917100E+01
216	  0.063086174	-5.873000E+00	  0.063086174	-1.339240E+02	  0.063086174	1.887100E+01	  0.063086174	-1.864800E+01
217	  0.063286573	-5.871000E+00	  0.063286573	-1.350750E+02	  0.063286573	1.872900E+01	  0.063286573	-1.814900E+01
218	  0.063486971	-5.874000E+00	  0.063486971	-1.362290E+02	  0.063486971	1.860200E+01	  0.063486971	-1.764900E+01
219	  0.063687377	-5.869000E+00	  0.063687377	-1.373680E+02	  0.063687377	1.845800E+01	  0.063687377	-1.716500E+01
220	  0.063887775	-5.871000E+00	  0.063887775	-1.385340E+02	  0.063887775	1.833700E+01	  0.063887775	-1.666500E+01
221	  0.064088173	-5.866000E+00	  0.064088173	-1.396680E+02	  0.064088173	1.820600E+01	  0.064088173	-1.618600E+01
222	  0.064288579	-5.863000E+00	  0.064288579	-1.408100E+02	  0.064288579	1.808100E+01	  0.064288579	-1.570500E+01
223	  0.064488977	-5.859000E+00	  0.064488977	-1.419250E+02	  0.064488977	1.796300E+01	  0.064488977	-1.523700E+01
224	  0.064689375	-5.855000E+00	  0.064689375	-1.430130E+02	  0.064689375	1.784800E+01	  0.064689375	-1.478400E+01
225	  0.064889781	-5.849000E+00	  0.064889781	-1.440940E+02	  0.064889781	1.773600E+01	  0.064889781	-1.433500E+01
226	  0.065090179	-5.847000E+00	  0.065090179	-1.451670E+02	  0.065090179	1.763400E+01	  0.065090179	-1.388900E+01
227	  0.065290578	-5.844000E+00	  0.065290578	-1.462200E+02	  0.065290578	1.754000E+01	  0.065290578	-1.345400E+01
228	  0.065490983	-5.842000E+00	  0.065490983	-1.472790E+02	  0.065490983	1.744700E+01	  0.065490983	-1.301700E+01
229	  0.065691382	-5.838000E+00	  0.065691382	-1.483390E+02	  0.065691382	1.735500E+01	  0.065691382	-1.258200E+01
230	  0.065891780	-5.837000E+00	  0.065891780	-1.494100E+02	  0.065891780	1.727200E+01	  0.065891780	-1.214300E+01
231	  0.066092186	-5.839000E+00	  0.066092186	-1.504250E+02	  0.066092186	1.720500E+01	  0.066092186	-1.172600E+01
232	  0.066292584	-5.837000E+00	  0.066292584	-1.514540E+02	  0.066292584	1.712900E+01	  0.066292584	-1.130700E+01
233	  0.066492982	-5.838000E+00	  0.066492982	-1.524740E+02	  0.066492982	1.706300E+01	  0.066492982	-1.089200E+01
234	  0.066693388	-5.836000E+00	  0.066693388	-1.534530E+02	  0.066693388	1.699500E+01	  0.066693388	-1.049600E+01
235	  0.066893786	-5.833000E+00	  0.066893786	-1.544820E+02	  0.066893786	1.692600E+01	  0.066893786	-1.008100E+01
236	  0.067094192	-5.837000E+00	  0.067094192	-1.554580E+02	  0.067094192	1.687800E+01	  0.067094192	-9.686000E+00
237	  0.067294590	-5.842000E+00	  0.067294590	-1.564950E+02	  0.067294590	1.683300E+01	  0.067294590	-9.266000E+00
238	  0.067494988	-5.842000E+00	  0.067494988	-1.574870E+02	  0.067494988	1.678200E+01	  0.067494988	-8.868000E+00
239	  0.067695394	-5.846000E+00	  0.067695394	-1.584490E+02	  0.067695394	1.674200E+01	  0.067695394	-8.481000E+00
240	  0.067895792	-5.850000E+00	  0.067895792	-1.594880E+02	  0.067895792	1.670400E+01	  0.067895792	-8.065000E+00
241	  0.068096191	-5.857000E+00	  0.068096191	-1.604460E+02	  0.068096191	1.667700E+01	  0.068096191	-7.681000E+00
242	  0.068296596	-5.865000E+00	  0.068296596	-1.614410E+02	  0.068296596	1.665600E+01	  0.068296596	-7.283000E+00
243	  0.068496995	-5.866000E+00	  0.068496995	-1.624460E+02	  0.068496995	1.661700E+01	  0.068496995	-6.884000E+00
244	  0.068697393	-5.871000E+00	  0.068697393	-1.634190E+02	  0.068697393	1.659200E+01	  0.068697393	-6.498000E+00
245	  0.068897791	-5.878000E+00	  0.068897791	-1.643980E+02	  0.068897791	1.657500E+01	  0.068897791	-6.109000E+00
246	  0.069098189	-5.883000E+00	  0.069098189	-1.654020E+02	  0.069098189	1.655200E+01	  0.069098189	-5.712000E+00
247	  0.069298595	-5.889000E+00	  0.069298595	-1.664050E+02	  0.069298595	1.653600E+01	  0.069298595	-5.315000E+00
248	  0.069498993	-5.897000E+00	  0.069498993	-1.673920E+02	  0.069498993	1.652900E+01	  0.069498993	-4.926000E+00
249	  0.069699399	-5.903000E+00	  0.069699399	-1.683620E+02	  0.069699399	1.651800E+01	  0.069699399	-4.544000E+00
250	  0.069899797	-5.907000E+00	  0.069899797	-1.693710E+02	  0.069899797	1.650300E+01	  0.069899797	-4.148000E+00
251	  0.070100196	-5.909000E+00	  0.070100196	-1.703780E+02	  0.070100196	1.648500E+01	  0.070100196	-3.753000E+00
252	  0.070300601	-5.914000E+00	  0.070300601	-1.713740E+02	  0.070300601	1.647800E+01	  0.070300601	-3.363000E+00
253	  0.070501000	-5.914000E+00	  0.070501000	-1.723400E+02	  0.070501000	1.645900E+01	  0.070501000	-2.985000E+00
254	  0.070701398	-5.920000E+00	  0.070701398	-1.733340E+02	  0.070701398	1.645800E+01	  0.070701398	-2.596000E+00
255	  0.070901804	-5.920000E+00	  0.070901804	-1.743120E+02	  0.070901804	1.644600E+01	  0.070901804	-2.215000E+00
256	  0.071102202	-5.923000E+00	  0.071102202	-1.753090E+02	  0.071102202	1.644300E+01	  0.071102202	-1.826000E+00
257	  0.071302600	-5.924000E+00	  0.071302600	-1.762740E+02	  0.071302600	1.643600E+01	  0.071302600	-1.450000E+00
258	  0.071503006	-5.927000E+00	  0.071503006	-1.771830E+02	  0.071503006	1.643600E+01	  0.071503006	-1.096000E+00
259	  0.071703404	-5.929000E+00	  0.071703404	-1.781360E+02	  0.071703404	1.643700E+01	  0.071703404	-7.250000E-01
260	  0.071903802	-5.927000E+00	  0.071903802	-1.790600E+02	  0.071903802	1.642800E+01	  0.071903802	-3.650000E-01
261	  0.072104208	-5.932000E+00	  0.072104208	-1.799870E+02	  0.072104208	1.644200E+01	  0.072104208	-4.000000E-03
262	  0.072304606	-5.932000E+00	  0.072304606	1.791180E+02	  0.072304606	1.644200E+01	  0.072304606	3.430000E-01
263	  0.072505005	-5.934000E+00	  0.072505005	1.782060E+02	  0.072505005	1.644900E+01	  0.072505005	6.980000E-01
264	  0.072705410	-5.938000E+00	  0.072705410	1.772820E+02	  0.072705410	1.646400E+01	  0.072705410	1.057000E+00
265	  0.072905809	-5.939000E+00	  0.072905809	1.764060E+02	  0.072905809	1.647400E+01	  0.072905809	1.398000E+00
266	  0.073106214	-5.943000E+00	  0.073106214	1.755160E+02	  0.073106214	1.649100E+01	  0.073106214	1.744000E+00
267	  0.073306613	-5.950000E+00	  0.073306613	1.746640E+02	  0.073306613	1.651800E+01	  0.073306613	2.075000E+00
268	  0.073507011	-5.952000E+00	  0.073507011	1.737830E+02	  0.073507011	1.653400E+01	  0.073507011	2.419000E+00
269	  0.073707417	-5.961000E+00	  0.073707417	1.729180E+02	  0.073707417	1.657200E+01	  0.073707417	2.755000E+00
270	  0.073907815	-5.967000E+00	  0.073907815	1.720620E+02	  0.073907815	1.660000E+01	  0.073907815	3.088000E+00
271	  0.074108213	-5.971000E+00	  0.074108213	1.712110E+02	  0.074108213	1.662800E+01	  0.074108213	3.419000E+00
272	  0.074308619	-5.985000E+00	  0.074308619	1.703470E+02	  0.074308619	1.668100E+01	  0.074308619	3.754000E+00
273	  0.074509017	-5.996000E+00	  0.074509017	1.694700E+02	  0.074509017	1.672900E+01	  0.074509017	4.095000E+00
274	  0.074709415	-6.001000E+00	  0.074709415	1.686120E+02	  0.074709415	1.676400E+01	  0.074709415	4.429000E+00
275	  0.074909821	-6.017000E+00	  0.074909821	1.677720E+02	  0.074909821	1.682900E+01	  0.074909821	4.754000E+00
276	  0.075110219	-6.030000E+00	  0.075110219	1.668810E+02	  0.075110219	1.688600E+01	  0.075110219	5.101000E+00
277	  0.075310618	-6.039000E+00	  0.075310618	1.660530E+02	  0.075310618	1.693700E+01	  0.075310618	5.422000E+00
278	  0.075511023	-6.053000E+00	  0.075511023	1.652190E+02	  0.075511023	1.700100E+01	  0.075511023	5.746000E+00
279	  0.075711422	-6.069000E+00	  0.075711422	1.643320E+02	  0.075711422	1.707200E+01	  0.075711422	6.090000E+00
280	  0.075911827	-6.079000E+00	  0.075911827	1.634430E+02	  0.075911827	1.713100E+01	  0.075911827	6.436000E+00
281	  0.076112226	-6.095000E+00	  0.076112226	1.625590E+02	  0.076112226	1.720700E+01	  0.076112226	6.779000E+00
282	  0.076312624	-6.107000E+00	  0.076312624	1.616680E+02	  0.076312624	1.727700E+01	  0.076312624	7.125000E+00
283	  0.076513030	-6.114000E+00	  0.076513030	1.607550E+02	  0.076513030	1.733600E+01	  0.076513030	7.483000E+00
284	  0.076713428	-6.127000E+00	  0.076713428	1.598760E+02	  0.076713428	1.740900E+01	  0.076713428	7.825000E+00
285	  0.076913826	-6.131000E+00	  0.076913826	1.590020E+02	  0.076913826	1.746300E+01	  0.076913826	8.168000E+00
286	  0.077114232	-6.142000E+00	  0.077114232	1.581570E+02	  0.077114232	1.753400E+01	  0.077114232	8.498000E+00
287	  0.077314630	-6.150000E+00	  0.077314630	1.572700E+02	  0.077314630	1.760200E+01	  0.077314630	8.847000E+00
288	  0.077515028	-6.157000E+00	  0.077515028	1.564270E+02	  0.077515028	1.766700E+01	  0.077515028	9.178000E+00
289	  0.077715434	-6.167000E+00	  0.077715434	1.555560E+02	  0.077715434	1.774500E+01	  0.077715434	9.520000E+00
290	  0.077915832	-6.174000E+00	  0.077915832	1.547130E+02	  0.077915832	1.781300E+01	  0.077915832	9.852000E+00
291	  0.078116231	-6.184000E+00	  0.078116231	1.538930E+02	  0.078116231	1.789100E+01	  0.078116231	1.017500E+01
292	  0.078316636	-6.189000E+00	  0.078316636	1.530220E+02	  0.078316636	1.795900E+01	  0.078316636	1.052000E+01
293	  0.078517035	-6.200000E+00	  0.078517035	1.521980E+02	  0.078517035	1.804400E+01	  0.078517035	1.084400E+01
294	  0.078717433	-6.211000E+00	  0.078717433	1.514100E+02	  0.078717433	1.812700E+01	  0.078717433	1.115500E+01
295	  0.078917839	-6.219000E+00	  0.078917839	1.506100E+02	  0.078917839	1.820700E+01	  0.078917839	1.147200E+01
296	  0.079118237	-6.230000E+00	  0.079118237	1.498000E+02	  0.079118237	1.829400E+01	  0.079118237	1.179200E+01
297	  0.079318643	-6.241000E+00	  0.079318643	1.490140E+02	  0.079318643	1.838400E+01	  0.079318643	1.210300E+01
298	  0.079519041	-6.253000E+00	  0.079519041	1.482290E+02	  0.079519041	1.847900E+01	  0.079519041	1.241300E+01
299	  0.079719439	-6.265000E+00	  0.079719439	1.474340E+02	  0.079719439	1.857500E+01	  0.079719439	1.272800E+01
300	  0.079919845	-6.280000E+00	  0.079919845	1.466450E+02	  0.079919845	1.868100E+01	  0.079919845	1.303900E+01
301	  0.080120243	-6.290000E+00	  0.080120243	1.458730E+02	  0.080120243	1.877600E+01	  0.080120243	1.334600E+01
302	  0.080320641	-6.307000E+00	  0.080320641	1.451070E+02	  0.080320641	1.888700E+01	  0.080320641	1.364800E+01
303	  0.080521047	-6.327000E+00	  0.080521047	1.443480E+02	  0.080521047	1.901000E+01	  0.080521047	1.394400E+01
304	  0.080721445	-6.339000E+00	  0.080721445	1.435590E+02	  0.080721445	1.911700E+01	  0.080721445	1.425800E+01
305	  0.080921844	-6.358000E+00	  0.080921844	1.428080E+02	  0.080921844	1.924200E+01	  0.080921844	1.455300E+01
306	  0.081122249	-6.374000E+00	  0.081122249	1.420510E+02	  0.081122249	1.936000E+01	  0.081122249	1.485200E+01
307	  0.081322648	-6.394000E+00	  0.081322648	1.412710E+02	  0.081322648	1.949200E+01	  0.081322648	1.515900E+01
308	  0.081523046	-6.415000E+00	  0.081523046	1.404910E+02	  0.081523046	1.963100E+01	  0.081523046	1.546400E+01
309	  0.081723452	-6.431000E+00	  0.081723452	1.397080E+02	  0.081723452	1.976000E+01	  0.081723452	1.577400E+01
310	  0.081923850	-6.457000E+00	  0.081923850	1.389710E+02	  0.081923850	1.991200E+01	  0.081923850	1.605900E+01
311	  0.082124248	-6.481000E+00	  0.082124248	1.381830E+02	  0.082124248	2.006500E+01	  0.082124248	1.636700E+01
312	  0.082324654	-6.504000E+00	  0.082324654	1.374110E+02	  0.082324654	2.021700E+01	  0.082324654	1.666800E+01
313	  0.082525052	-6.527000E+00	  0.082525052	1.366560E+02	  0.082525052	2.036900E+01	  0.082525052	1.696300E+01
314	  0.082725458	-6.550000E+00	  0.082725458	1.358540E+02	  0.082725458	2.053200E+01	  0.082725458	1.727600E+01
315	  0.082925856	-6.574000E+00	  0.082925856	1.350220E+02	  0.082925856	2.070100E+01	  0.082925856	1.760200E+01
316	  0.083126254	-6.598000E+00	  0.083126254	1.342060E+02	  0.083126254	2.087100E+01	  0.083126254	1.792100E+01
317	  0.083326660	-6.617000E+00	  0.083326660	1.333850E+02	  0.083326660	2.103300E+01	  0.083326660	1.824600E+01
318	  0.083527058	-6.635000E+00	  0.083527058	1.325840E+02	  0.083527058	2.119200E+01	  0.083527058	1.856400E+01
319	  0.083727457	-6.653000E+00	  0.083727457	1.317930E+02	  0.083727457	2.135000E+01	  0.083727457	1.888000E+01
320	  0.083927862	-6.668000E+00	  0.083927862	1.309960E+02	  0.083927862	2.150700E+01	  0.083927862	1.919900E+01
321	  0.084128261	-6.688000E+00	  0.084128261	1.302320E+02	  0.084128261	2.167400E+01	  0.084128261	1.950100E+01
322	  0.084328659	-6.704000E+00	  0.084328659	1.294630E+02	  0.084328659	2.183200E+01	  0.084328659	1.981000E+01
323	  0.084529065	-6.724000E+00	  0.084529065	1.286670E+02	  0.084529065	2.200900E+01	  0.084529065	2.012600E+01
324	  0.084729463	-6.736000E+00	  0.084729463	1.279290E+02	  0.084729463	2.215800E+01	  0.084729463	2.042500E+01
325	  0.084929861	-6.752000E+00	  0.084929861	1.271730E+02	  0.084929861	2.232500E+01	  0.084929861	2.072800E+01
326	  0.085130267	-6.769000E+00	  0.085130267	1.264720E+02	  0.085130267	2.248500E+01	  0.085130267	2.100900E+01
327	  0.085330658	-6.787000E+00	  0.085330658	1.257340E+02	  0.085330658	2.265800E+01	  0.085330658	2.130300E+01
328	  0.085531056	-6.804000E+00	  0.085531056	1.250370E+02	  0.085531056	2.282600E+01	  0.085531056	2.158000E+01
329	  0.085731462	-6.819000E+00	  0.085731462	1.243500E+02	  0.085731462	2.298800E+01	  0.085731462	2.185600E+01
330	  0.085931860	-6.841000E+00	  0.085931860	1.236590E+02	  0.085931860	2.317100E+01	  0.085931860	2.212700E+01
331	  0.086132258	-6.859000E+00	  0.086132258	1.229800E+02	  0.086132258	2.334600E+01	  0.086132258	2.239500E+01
332	  0.086332664	-6.880000E+00	  0.086332664	1.222880E+02	  0.086332664	2.353300E+01	  0.086332664	2.266700E+01
333	  0.086533062	-6.904000E+00	  0.086533062	1.216160E+02	  0.086533062	2.372700E+01	  0.086533062	2.292600E+01
334	  0.086733460	-6.921000E+00	  0.086733460	1.209370E+02	  0.086733460	2.390600E+01	  0.086733460	2.319700E+01
335	  0.086933866	-6.945000E+00	  0.086933866	1.202780E+02	  0.086933866	2.410300E+01	  0.086933866	2.344900E+01
336	  0.087134264	-6.967000E+00	  0.087134264	1.195890E+02	  0.087134264	2.430300E+01	  0.087134264	2.371800E+01
337	  0.087334670	-6.988000E+00	  0.087334670	1.189520E+02	  0.087334670	2.449100E+01	  0.087334670	2.396500E+01
338	  0.087535068	-7.015000E+00	  0.087535068	1.183080E+02	  0.087535068	2.470200E+01	  0.087535068	2.420600E+01
339	  0.087735467	-7.046000E+00	  0.087735467	1.176380E+02	  0.087735467	2.493200E+01	  0.087735467	2.445200E+01
340	  0.087935872	-7.075000E+00	  0.087935872	1.169820E+02	  0.087935872	2.515400E+01	  0.087935872	2.469500E+01
341	  0.088136271	-7.099000E+00	  0.088136271	1.163130E+02	  0.088136271	2.536900E+01	  0.088136271	2.495000E+01
342	  0.088336669	-7.126000E+00	  0.088336669	1.156700E+02	  0.088336669	2.559000E+01	  0.088336669	2.518800E+01
343	  0.088537075	-7.160000E+00	  0.088537075	1.150380E+02	  0.088537075	2.582900E+01	  0.088537075	2.541100E+01
344	  0.088737473	-7.188000E+00	  0.088737473	1.143830E+02	  0.088737473	2.606100E+01	  0.088737473	2.565200E+01
345	  0.088937871	-7.223000E+00	  0.088937871	1.137270E+02	  0.088937871	2.631700E+01	  0.088937871	2.588100E+01
346	  0.089138277	-7.258000E+00	  0.089138277	1.130740E+02	  0.089138277	2.657200E+01	  0.089138277	2.610800E+01
347	  0.089338675	-7.292000E+00	  0.089338675	1.124110E+02	  0.089338675	2.683100E+01	  0.089338675	2.633900E+01
348	  0.089539073	-7.326000E+00	  0.089539073	1.117290E+02	  0.089539073	2.709900E+01	  0.089539073	2.657800E+01
349	  0.089739479	-7.359000E+00	  0.089739479	1.110720E+02	  0.089739479	2.735800E+01	  0.089739479	2.680600E+01
350	  0.089939877	-7.388000E+00	  0.089939877	1.103790E+02	  0.089939877	2.762200E+01	  0.089939877	2.705400E+01
351	  0.090140276	-7.420000E+00	  0.090140276	1.096940E+02	  0.090140276	2.789200E+01	  0.090140276	2.729400E+01
352	  0.090340681	-7.452000E+00	  0.090340681	1.090060E+02	  0.090340681	2.816600E+01	  0.090340681	2.753500E+01
353	  0.090541080	-7.482000E+00	  0.090541080	1.083480E+02	  0.090541080	2.843300E+01	  0.090541080	2.776200E+01
354	  0.090741485	-7.509000E+00	  0.090741485	1.076690E+02	  0.090741485	2.869800E+01	  0.090741485	2.800500E+01
355	  0.090941884	-7.543000E+00	  0.090941884	1.070320E+02	  0.090941884	2.897300E+01	  0.090941884	2.821600E+01
356	  0.091142282	-7.566000E+00	  0.091142282	1.063610E+02	  0.091142282	2.923200E+01	  0.091142282	2.845900E+01
357	  0.091342688	-7.592000E+00	  0.091342688	1.057560E+02	  0.091342688	2.948300E+01	  0.091342688	2.866800E+01
358	  0.091543086	-7.615000E+00	  0.091543086	1.051280E+02	  0.091543086	2.973400E+01	  0.091543086	2.889200E+01
359	  0.091743484	-7.638000E+00	  0.091743484	1.045350E+02	  0.091743484	2.997900E+01	  0.091743484	2.909900E+01
360	  0.091943890	-7.665000E+00	  0.091943890	1.039570E+02	  0.091943890	3.023100E+01	  0.091943890	2.929100E+01
361	  0.092144288	-7.686000E+00	  0.092144288	1.034010E+02	  0.092144288	3.046300E+01	  0.092144288	2.948500E+01
362	  0.092344686	-7.717000E+00	  0.092344686	1.028400E+02	  0.092344686	3.072800E+01	  0.092344686	2.966000E+01
363	  0.092545092	-7.746000E+00	  0.092545092	1.023230E+02	  0.092545092	3.097300E+01	  0.092545092	2.981800E+01
364	  0.092745490	-7.776000E+00	  0.092745490	1.018040E+02	  0.092745490	3.122800E+01	  0.092745490	2.997200E+01
365	  0.092945889	-7.807000E+00	  0.092945889	1.013050E+02	  0.092945889	3.147800E+01	  0.092945889	3.011700E+01
366	  0.093146294	-7.834000E+00	  0.093146294	1.007860E+02	  0.093146294	3.172700E+01	  0.093146294	3.027500E+01
367	  0.093346693	-7.864000E+00	  0.093346693	1.002910E+02	  0.093346693	3.197700E+01	  0.093346693	3.041600E+01
368	  0.093547091	-7.900000E+00	  0.093547091	9.979900E+01	  0.093547091	3.224200E+01	  0.093547091	3.054200E+01
369	  0.093747497	-7.929000E+00	  0.093747497	9.931800E+01	  0.093747497	3.249000E+01	  0.093747497	3.067500E+01
370	  0.093947895	-7.966000E+00	  0.093947895	9.882800E+01	  0.093947895	3.276000E+01	  0.093947895	3.079500E+01
371	  0.094148301	-8.001000E+00	  0.094148301	9.836500E+01	  0.094148301	3.302000E+01	  0.094148301	3.090500E+01
372	  0.094348699	-8.039000E+00	  0.094348699	9.792800E+01	  0.094348699	3.328200E+01	  0.094348699	3.099300E+01
373	  0.094549097	-8.075000E+00	  0.094549097	9.744500E+01	  0.094549097	3.355200E+01	  0.094549097	3.110700E+01
374	  0.094749503	-8.111000E+00	  0.094749503	9.701100E+01	  0.094749503	3.381000E+01	  0.094749503	3.119500E+01
375	  0.094949901	-8.147000E+00	  0.094949901	9.655100E+01	  0.094949901	3.407500E+01	  0.094949901	3.129500E+01
376	  0.095150299	-8.179000E+00	  0.095150299	9.609800E+01	  0.095150299	3.433000E+01	  0.095150299	3.139900E+01
377	  0.095350705	-8.223000E+00	  0.095350705	9.564100E+01	  0.095350705	3.461900E+01	  0.095350705	3.147300E+01
378	  0.095551103	-8.258000E+00	  0.095551103	9.518200E+01	  0.095551103	3.488700E+01	  0.095551103	3.156700E+01
379	  0.095751502	-8.298000E+00	  0.095751502	9.473100E+01	  0.095751502	3.516500E+01	  0.095751502	3.164500E+01
380	  0.095951907	-8.342000E+00	  0.095951907	9.430200E+01	  0.095951907	3.544900E+01	  0.095951907	3.169900E+01
381	  0.096152306	-8.375000E+00	  0.096152306	9.384800E+01	  0.096152306	3.571200E+01	  0.096152306	3.179200E+01
382	  0.096352704	-8.410000E+00	  0.096352704	9.338000E+01	  0.096352704	3.598900E+01	  0.096352704	3.188100E+01
383	  0.096553110	-8.443000E+00	  0.096553110	9.292700E+01	  0.096553110	3.625500E+01	  0.096553110	3.196900E+01
384	  0.096753508	-8.479000E+00	  0.096753508	9.244400E+01	  0.096753508	3.654200E+01	  0.096753508	3.205800E+01
385	  0.096953906	-8.511000E+00	  0.096953906	9.198300E+01	  0.096953906	3.681300E+01	  0.096953906	3.214600E+01
386	  0.097154312	-8.539000E+00	  0.097154312	9.150300E+01	  0.097154312	3.708200E+01	  0.097154312	3.225300E+01
387	  0.097354710	-8.567000E+00	  0.097354710	9.108300E+01	  0.097354710	3.732700E+01	  0.097354710	3.233300E+01
388	  0.097555116	-8.597000E+00	  0.097555116	9.062000E+01	  0.097555116	3.759700E+01	  0.097555116	3.242300E+01
389	  0.097755514	-8.620000E+00	  0.097755514	9.017000E+01	  0.097755514	3.784600E+01	  0.097755514	3.252600E+01
390	  0.097955912	-8.637000E+00	  0.097955912	8.970700E+01	  0.097955912	3.808800E+01	  0.097955912	3.264800E+01
391	  0.098156318	-8.656000E+00	  0.098156318	8.930900E+01	  0.098156318	3.830800E+01	  0.098156318	3.274000E+01
392	  0.098356716	-8.676000E+00	  0.098356716	8.888100E+01	  0.098356716	3.854500E+01	  0.098356716	3.283700E+01
393	  0.098557115	-8.690000E+00	  0.098557115	8.848700E+01	  0.098557115	3.875300E+01	  0.098557115	3.294100E+01
394	  0.098757520	-8.695000E+00	  0.098757520	8.809200E+01	  0.098757520	3.894100E+01	  0.098757520	3.307000E+01
395	  0.098957919	-8.714000E+00	  0.098957919	8.773800E+01	  0.098957919	3.914700E+01	  0.098957919	3.314100E+01
396	  0.099158317	-8.726000E+00	  0.099158317	8.738300E+01	  0.099158317	3.933600E+01	  0.099158317	3.323400E+01
397	  0.099358723	-8.736000E+00	  0.099358723	8.705200E+01	  0.099358723	3.951200E+01	  0.099358723	3.332100E+01
398	  0.099559121	-8.746000E+00	  0.099559121	8.669000E+01	  0.099559121	3.970300E+01	  0.099559121	3.342000E+01
399	  0.099759519	-8.753000E+00	  0.099759519	8.639800E+01	  0.099759519	3.985500E+01	  0.099759519	3.350200E+01
400	  0.099959925	-8.752000E+00	  0.099959925	8.612700E+01	  0.099959925	3.997900E+01	  0.099959925	3.360200E+01
401	  0.100160323	-8.781000E+00	  0.100160323	8.580500E+01	  0.100160323	4.019900E+01	  0.100160323	3.362400E+01
402	  0.100360721	-8.781000E+00	  0.100360721	8.550600E+01	  0.100360721	4.033800E+01	  0.100360721	3.373100E+01
403	  0.100561127	-8.795000E+00	  0.100561127	8.523000E+01	  0.100561127	4.050300E+01	  0.100561127	3.378400E+01
404	  0.100761525	-8.796000E+00	  0.100761525	8.492500E+01	  0.100761525	4.065300E+01	  0.100761525	3.388500E+01
405	  0.100961931	-8.810000E+00	  0.100961931	8.465900E+01	  0.100961931	4.081200E+01	  0.100961931	3.393400E+01
406	  0.101162329	-8.824000E+00	  0.101162329	8.433500E+01	  0.101162329	4.100100E+01	  0.101162329	3.400100E+01
407	  0.101362728	-8.834000E+00	  0.101362728	8.406800E+01	  0.101362728	4.115400E+01	  0.101362728	3.406100E+01
408	  0.101563133	-8.840000E+00	  0.101563133	8.374400E+01	  0.101563133	4.132800E+01	  0.101563133	3.415200E+01
409	  0.101763532	-8.859000E+00	  0.101763532	8.344400E+01	  0.101763532	4.151800E+01	  0.101763532	3.419200E+01
410	  0.101963930	-8.869000E+00	  0.101963930	8.308500E+01	  0.101963930	4.171800E+01	  0.101963930	3.428200E+01
411	  0.102164336	-8.876000E+00	  0.102164336	8.275700E+01	  0.102164336	4.189800E+01	  0.102164336	3.437000E+01
412	  0.102364734	-8.874000E+00	  0.102364734	8.241100E+01	  0.102364734	4.206800E+01	  0.102364734	3.449200E+01
413	  0.102565132	-8.890000E+00	  0.102565132	8.204200E+01	  0.102565132	4.229100E+01	  0.102565132	3.456200E+01
414	  0.102765530	-8.893000E+00	  0.102765530	8.174400E+01	  0.102765530	4.245000E+01	  0.102765530	3.465100E+01
415	  0.102965929	-8.900000E+00	  0.102965929	8.136600E+01	  0.102965929	4.266100E+01	  0.102965929	3.475100E+01
416	  0.103166327	-8.904000E+00	  0.103166327	8.097600E+01	  0.103166327	4.287100E+01	  0.103166327	3.486700E+01
417	  0.103366733	-8.911000E+00	  0.103366733	8.058600E+01	  0.103366733	4.309100E+01	  0.103366733	3.496900E+01
418	  0.103567131	-8.912000E+00	  0.103567131	8.011500E+01	  0.103567131	4.334200E+01	  0.103567131	3.511900E+01
419	  0.103767529	-8.907000E+00	  0.103767529	7.965000E+01	  0.103767529	4.358000E+01	  0.103767529	3.528600E+01
420	  0.103967935	-8.904000E+00	  0.103967935	7.922200E+01	  0.103967935	4.380400E+01	  0.103967935	3.543500E+01
421	  0.104168333	-8.909000E+00	  0.104168333	7.882100E+01	  0.104168333	4.403300E+01	  0.104168333	3.554500E+01
422	  0.104368731	-8.898000E+00	  0.104368731	7.831200E+01	  0.104368731	4.429100E+01	  0.104368731	3.574400E+01
423	  0.104569137	-8.899000E+00	  0.104569137	7.782800E+01	  0.104569137	4.456000E+01	  0.104569137	3.589700E+01
424	  0.104769535	-8.882000E+00	  0.104769535	7.735000E+01	  0.104769535	4.479400E+01	  0.104769535	3.610700E+01
425	  0.104969934	-8.862000E+00	  0.104969934	7.687300E+01	  0.104969934	4.502300E+01	  0.104969934	3.633400E+01
426	  0.105170339	-8.845000E+00	  0.105170339	7.631700E+01	  0.105170339	4.530900E+01	  0.105170339	3.656900E+01
427	  0.105370738	-8.828000E+00	  0.105370738	7.583300E+01	  0.105370738	4.555500E+01	  0.105370738	3.678600E+01
428	  0.105571143	-8.810000E+00	  0.105571143	7.536700E+01	  0.105571143	4.579300E+01	  0.105571143	3.699900E+01
429	  0.105771542	-8.794000E+00	  0.105771542	7.490300E+01	  0.105771542	4.603600E+01	  0.105771542	3.720600E+01
430	  0.105971940	-8.772000E+00	  0.105971940	7.439800E+01	  0.105971940	4.629400E+01	  0.105971940	3.744900E+01
431	  0.106172346	-8.755000E+00	  0.106172346	7.387300E+01	  0.106172346	4.657900E+01	  0.106172346	3.768000E+01
432	  0.106372744	-8.728000E+00	  0.106372744	7.343000E+01	  0.106372744	4.679900E+01	  0.106372744	3.792400E+01
433	  0.106573142	-8.708000E+00	  0.106573142	7.295300E+01	  0.106573142	4.705600E+01	  0.106573142	3.815000E+01
434	  0.106773548	-8.691000E+00	  0.106773548	7.247500E+01	  0.106773548	4.732300E+01	  0.106773548	3.836600E+01
435	  0.106973946	-8.665000E+00	  0.106973946	7.199100E+01	  0.106973946	4.758000E+01	  0.106973946	3.862100E+01
436	  0.107174344	-8.648000E+00	  0.107174344	7.145200E+01	  0.107174344	4.789400E+01	  0.107174344	3.885500E+01
437	  0.107374750	-8.622000E+00	  0.107374750	7.098700E+01	  0.107374750	4.814600E+01	  0.107374750	3.910700E+01
438	  0.107575148	-8.606000E+00	  0.107575148	7.052400E+01	  0.107575148	4.842000E+01	  0.107575148	3.931700E+01
439	  0.107775547	-8.597000E+00	  0.107775547	7.002000E+01	  0.107775547	4.874100E+01	  0.107775547	3.950300E+01
440	  0.107975952	-8.588000E+00	  0.107975952	6.953400E+01	  0.107975952	4.905200E+01	  0.107975952	3.968400E+01
441	  0.108176351	-8.573000E+00	  0.108176351	6.901300E+01	  0.108176351	4.937900E+01	  0.108176351	3.990400E+01
442	  0.108376749	-8.564000E+00	  0.108376749	6.851000E+01	  0.108376749	4.971000E+01	  0.108376749	4.008900E+01
443	  0.108577155	-8.555000E+00	  0.108577155	6.805100E+01	  0.108577155	5.001400E+01	  0.108577155	4.026100E+01
444	  0.108777553	-8.548000E+00	  0.108777553	6.741600E+01	  0.108777553	5.045100E+01	  0.108777553	4.047000E+01
445	  0.108977959	-8.545000E+00	  0.108977959	6.686800E+01	  0.108977959	5.083800E+01	  0.108977959	4.063700E+01
446	  0.109178357	-8.542000E+00	  0.109178357	6.631200E+01	  0.109178357	5.123600E+01	  0.109178357	4.080400E+01
447	  0.109378755	-8.544000E+00	  0.109378755	6.579100E+01	  0.109378755	5.162200E+01	  0.109378755	4.093000E+01
448	  0.109579161	-8.536000E+00	  0.109579161	6.516500E+01	  0.109579161	5.207200E+01	  0.109579161	4.113600E+01
449	  0.109779559	-8.529000E+00	  0.109779559	6.464100E+01	  0.109779559	5.245600E+01	  0.109779559	4.130100E+01
450	  0.109979957	-8.531000E+00	  0.109979957	6.398400E+01	  0.109979957	5.295900E+01	  0.109979957	4.145600E+01
451	  0.110180363	-8.529000E+00	  0.110180363	6.341200E+01	  0.110180363	5.339600E+01	  0.110180363	4.161000E+01
452	  0.110380761	-8.525000E+00	  0.110380761	6.274500E+01	  0.110380761	5.391000E+01	  0.110380761	4.178900E+01
453	  0.110581160	-8.529000E+00	  0.110581160	6.207300E+01	  0.110581160	5.444900E+01	  0.110581160	4.191900E+01
454	  0.110781565	-8.522000E+00	  0.110781565	6.141800E+01	  0.110781565	5.496400E+01	  0.110781565	4.210100E+01
455	  0.110981964	-8.514000E+00	  0.110981964	6.074600E+01	  0.110981964	5.549900E+01	  0.110981964	4.229100E+01
456	  0.111182362	-8.515000E+00	  0.111182362	6.005800E+01	  0.111182362	5.606900E+01	  0.111182362	4.242400E+01
457	  0.111382768	-8.516000E+00	  0.111382768	5.934000E+01	  0.111382768	5.667000E+01	  0.111382768	4.256200E+01
458	  0.111583166	-8.499000E+00	  0.111583166	5.867000E+01	  0.111583166	5.721700E+01	  0.111583166	4.278500E+01
459	  0.111783572	-8.495000E+00	  0.111783572	5.796900E+01	  0.111783572	5.781600E+01	  0.111783572	4.293200E+01
460	  0.111983970	-8.486000E+00	  0.111983970	5.719700E+01	  0.111983970	5.848000E+01	  0.111983970	4.311500E+01
461	  0.112184368	-8.479000E+00	  0.112184368	5.649500E+01	  0.112184368	5.909400E+01	  0.112184368	4.326800E+01
462	  0.112384774	-8.473000E+00	  0.112384774	5.575600E+01	  0.112384774	5.975300E+01	  0.112384774	4.341500E+01
463	  0.112585172	-8.464000E+00	  0.112585172	5.503000E+01	  0.112585172	6.040700E+01	  0.112585172	4.356800E+01
464	  0.112785570	-8.449000E+00	  0.112785570	5.430300E+01	  0.112785570	6.106800E+01	  0.112785570	4.374700E+01
465	  0.112985976	-8.440000E+00	  0.112985976	5.350400E+01	  0.112985976	6.181100E+01	  0.112985976	4.389600E+01
466	  0.113186374	-8.431000E+00	  0.113186374	5.279000E+01	  0.113186374	6.248600E+01	  0.113186374	4.402400E+01
467	  0.113386773	-8.422000E+00	  0.113386773	5.205800E+01	  0.113386773	6.318900E+01	  0.113386773	4.414500E+01
468	  0.113587178	-8.416000E+00	  0.113587178	5.129700E+01	  0.113587178	6.393300E+01	  0.113587178	4.423600E+01
469	  0.113787577	-8.410000E+00	  0.113787577	5.051900E+01	  0.113787577	6.470400E+01	  0.113787577	4.431900E+01
470	  0.113987975	-8.407000E+00	  0.113987975	4.970400E+01	  0.113987975	6.552400E+01	  0.113987975	4.436900E+01
471	  0.114188381	-8.402000E+00	  0.114188381	4.899700E+01	  0.114188381	6.624600E+01	  0.114188381	4.442100E+01
472	  0.114388779	-8.403000E+00	  0.114388779	4.820300E+01	  0.114388779	6.706600E+01	  0.114388779	4.441600E+01
473	  0.114589177	-8.403000E+00	  0.114589177	4.738700E+01	  0.114589177	6.792000E+01	  0.114589177	4.440300E+01
474	  0.114789583	-8.414000E+00	  0.114789583	4.662500E+01	  0.114789583	6.872400E+01	  0.114789583	4.430400E+01
475	  0.114989981	-8.420000E+00	  0.114989981	4.580200E+01	  0.114989981	6.960100E+01	  0.114989981	4.421400E+01
476	  0.115190387	-8.426000E+00	  0.115190387	4.494900E+01	  0.115190387	7.051900E+01	  0.115190387	4.410300E+01
477	  0.115390785	-8.441000E+00	  0.115390785	4.409200E+01	  0.115390785	7.144400E+01	  0.115390785	4.390700E+01
478	  0.115591183	-8.452000E+00	  0.115591183	4.326200E+01	  0.115591183	7.234600E+01	  0.115591183	4.371400E+01
479	  0.115791589	-8.468000E+00	  0.115791589	4.236800E+01	  0.115791589	7.332100E+01	  0.115791589	4.346000E+01
480	  0.115991987	-8.490000E+00	  0.115991987	4.148100E+01	  0.115991987	7.428200E+01	  0.115991987	4.313100E+01
481	  0.116192386	-8.506000E+00	  0.116192386	4.059100E+01	  0.116192386	7.525800E+01	  0.116192386	4.281800E+01
482	  0.116392791	-8.528000E+00	  0.116392791	3.965500E+01	  0.116392791	7.627700E+01	  0.116392791	4.242300E+01
483	  0.116593190	-8.553000E+00	  0.116593190	3.868400E+01	  0.116593190	7.732800E+01	  0.116593190	4.195900E+01
484	  0.116793588	-8.577000E+00	  0.116793588	3.770700E+01	  0.116793588	7.838700E+01	  0.116793588	4.147300E+01
485	  0.116993994	-8.609000E+00	  0.116993994	3.675500E+01	  0.116993994	7.939200E+01	  0.116993994	4.089500E+01
486	  0.117194392	-8.645000E+00	  0.117194392	3.571300E+01	  0.117194392	8.047700E+01	  0.117194392	4.021500E+01
487	  0.117394790	-8.675000E+00	  0.117394790	3.467500E+01	  0.117394790	8.156300E+01	  0.117394790	3.954700E+01
488	  0.117595196	-8.711000E+00	  0.117595196	3.364800E+01	  0.117595196	8.260500E+01	  0.117595196	3.879900E+01
489	  0.117795594	-8.749000E+00	  0.117795594	3.261800E+01	  0.117795594	8.362400E+01	  0.117795594	3.799200E+01
490	  0.117995992	-8.782000E+00	  0.117995992	3.152100E+01	  0.117995992	8.471400E+01	  0.117995992	3.714400E+01
491	  0.118196398	-8.826000E+00	  0.118196398	3.042600E+01	  0.118196398	8.573500E+01	  0.118196398	3.617500E+01
492	  0.118396796	-8.866000E+00	  0.118396796	2.929000E+01	  0.118396796	8.678400E+01	  0.118396796	3.515800E+01
493	  0.118597202	-8.914000E+00	  0.118597202	2.820300E+01	  0.118597202	8.771800E+01	  0.118597202	3.408700E+01
494	  0.118797600	-8.963000E+00	  0.118797600	2.704800E+01	  0.118797600	8.867300E+01	  0.118797600	3.291500E+01
495	  0.118997999	-9.016000E+00	  0.118997999	2.588700E+01	  0.118997999	8.957000E+01	  0.118997999	3.166900E+01
496	  0.119198404	-9.069000E+00	  0.119198404	2.470700E+01	  0.119198404	9.043700E+01	  0.119198404	3.037500E+01
497	  0.119398803	-9.125000E+00	  0.119398803	2.352100E+01	  0.119398803	9.123800E+01	  0.119398803	2.901600E+01
498	  0.119599201	-9.189000E+00	  0.119599201	2.235700E+01	  0.119599201	9.191600E+01	  0.119599201	2.760000E+01
499	  0.119799607	-9.249000E+00	  0.119799607	2.112600E+01	  0.119799607	9.261700E+01	  0.119799607	2.612200E+01
500	  0.120000005	-9.323000E+00	  0.120000005	1.990100E+01	  0.120000005	9.315900E+01	  0.120000005	2.455000E+01
