! Anritsu VNA Master:             	Model: MS2036C/10/77
! SN:             	1601066
! /bd0/18may09/252.ns.m4.txt
! Existing Calibration Information:
! TYPE:             	Current Settings	Active Cal Settings
! TIME:             	05/09/2018 08:56:58 AM	05/09/2018 08:47:23 AM
! INTERNAL TEMP:    	39.8 C	40.0 C
! # POINTS:         	500	500
! START FREQ:       	20.000 MHz	20.000 MHz
! STOP FREQ:        	120.000 MHz	120.000 MHz
! SOURCE POWER:     	High	High
! IFBW:             	50 Hz	50 Hz
! AVG FACTOR:       	  1 	  1 
! REF PLANE 1:      	0 mm	0 mm
! REF PLANE 2:      	0 mm	0 mm
! CAL TYPE:         	Full S11	Full S11
! CAL METHOD:       	SOLT	SOLT
! CAL LINE TYPE:    	Coax	Coax
! DUT PORT 1:       	K-Conn(F)	K-Conn(F)
! DUT PORT 2:       	K-Conn(F)	K-Conn(F)
! CAL STATUS:       	OK: Accuracy High	--
! PROP-V:       	0.700
! CABLE LOSS:       	0.000 dB/m
! REF IMPEDANCE:       	50.0
! Trace Specific Parameters:	TR1	TR2	TR3	TR4
! TRACE.#.Y (GRAPH TYPE)	LOG MAG	PHASE	REAL IMPEDANCE	IMAGINARY IMPEDANCE
! TRACE.#.X 	FREQ.GHZ	FREQ.GHZ	FREQ.GHZ	FREQ.GHZ
! S-PARAMETER	S11	S11	S11	S11
! SMOOTH/APERTURE %	0	0	0	0
! WINDOW	NSL	NSL	NSL	NSL
! GATING	OFF	OFF	OFF	OFF
! FGTD	OFF	OFF	OFF	OFF
Marker Information per Trace:	TR1	TR2	TR3	TR4
!MK1	--	"MK1 TR2:  20.000 MHz,PH:-124.03°"	--	--
!MK2	--	--	"MK2 TR3:  70.100 200 MHz,Z:(16.462 ohm, -3.528 ohm)"	--
!MK3	--	--	--	--
!MK4	--	--	--	--
!MK5	--	--	--	--
!MK6	--	--	--	--
!MK7	--	--	--	--
!MK8	--	--	--	--
PNT	TR1.FREQ.GHZ	TR1.LOG MAG.dB	TR2.FREQ.GHZ	TR2.PHASE.deg	TR3.FREQ.GHZ	TR3.REAL IMPEDANCE.ohm	TR4.FREQ.GHZ	TR4.IMAGINARY IMPEDANCE.ohm
1	  0.020000000	-5.900000E-01	  0.020000000	-1.240330E+02	  0.020000000	2.176000E+00	  0.020000000	-2.652700E+01
2	  0.020200402	-5.900000E-01	  0.020200402	-1.254480E+02	  0.020200402	2.150000E+00	  0.020200402	-2.574200E+01
3	  0.020400802	-5.930000E-01	  0.020400802	-1.268830E+02	  0.020400802	2.132000E+00	  0.020400802	-2.495600E+01
4	  0.020601204	-5.950000E-01	  0.020601204	-1.283260E+02	  0.020601204	2.115000E+00	  0.020601204	-2.417500E+01
5	  0.020801604	-6.000000E-01	  0.020801604	-1.297850E+02	  0.020801604	2.105000E+00	  0.020801604	-2.339500E+01
6	  0.021002004	-6.070000E-01	  0.021002004	-1.312850E+02	  0.021002004	2.104000E+00	  0.021002004	-2.260200E+01
7	  0.021202406	-6.150000E-01	  0.021202406	-1.327760E+02	  0.021202406	2.107000E+00	  0.021202406	-2.182400E+01
8	  0.021402806	-6.190000E-01	  0.021402806	-1.342660E+02	  0.021402806	2.099000E+00	  0.021402806	-2.105500E+01
9	  0.021603208	-6.240000E-01	  0.021603208	-1.357670E+02	  0.021603208	2.093000E+00	  0.021603208	-2.028800E+01
10	  0.021803608	-6.280000E-01	  0.021803608	-1.372510E+02	  0.021803608	2.083000E+00	  0.021803608	-1.953900E+01
11	  0.022004008	-6.320000E-01	  0.022004008	-1.387670E+02	  0.022004008	2.077000E+00	  0.022004008	-1.878100E+01
12	  0.022204408	-6.400000E-01	  0.022204408	-1.402690E+02	  0.022204408	2.083000E+00	  0.022204408	-1.803700E+01
13	  0.022404809	-6.460000E-01	  0.022404809	-1.417930E+02	  0.022404809	2.082000E+00	  0.022404809	-1.729000E+01
14	  0.022605211	-6.490000E-01	  0.022605211	-1.433550E+02	  0.022605211	2.072000E+00	  0.022605211	-1.653200E+01
15	  0.022805611	-6.500000E-01	  0.022805611	-1.449130E+02	  0.022805611	2.057000E+00	  0.022805611	-1.578200E+01
16	  0.023006011	-6.530000E-01	  0.023006011	-1.464380E+02	  0.023006011	2.052000E+00	  0.023006011	-1.505400E+01
17	  0.023206413	-6.560000E-01	  0.023206413	-1.479580E+02	  0.023206413	2.043000E+00	  0.023206413	-1.433400E+01
18	  0.023406813	-6.590000E-01	  0.023406813	-1.495030E+02	  0.023406813	2.037000E+00	  0.023406813	-1.360800E+01
19	  0.023607215	-6.630000E-01	  0.023607215	-1.510300E+02	  0.023607215	2.037000E+00	  0.023607215	-1.289600E+01
20	  0.023807615	-6.720000E-01	  0.023807615	-1.525870E+02	  0.023807615	2.048000E+00	  0.023807615	-1.217500E+01
21	  0.024008015	-6.800000E-01	  0.024008015	-1.541620E+02	  0.024008015	2.059000E+00	  0.024008015	-1.145000E+01
22	  0.024208417	-6.880000E-01	  0.024208417	-1.557560E+02	  0.024208417	2.072000E+00	  0.024208417	-1.072100E+01
23	  0.024408817	-6.960000E-01	  0.024408817	-1.573560E+02	  0.024408817	2.084000E+00	  0.024408817	-9.993000E+00
24	  0.024609219	-7.040000E-01	  0.024609219	-1.589370E+02	  0.024609219	2.095000E+00	  0.024609219	-9.279000E+00
25	  0.024809619	-7.130000E-01	  0.024809619	-1.605370E+02	  0.024809619	2.111000E+00	  0.024809619	-8.559000E+00
26	  0.025010020	-7.220000E-01	  0.025010020	-1.621450E+02	  0.025010020	2.129000E+00	  0.025010020	-7.840000E+00
27	  0.025210422	-7.340000E-01	  0.025210422	-1.637710E+02	  0.025210422	2.155000E+00	  0.025210422	-7.115000E+00
28	  0.025410822	-7.470000E-01	  0.025410822	-1.654120E+02	  0.025410822	2.184000E+00	  0.025410822	-6.387000E+00
29	  0.025611224	-7.590000E-01	  0.025611224	-1.670770E+02	  0.025611224	2.211000E+00	  0.025611224	-5.651000E+00
30	  0.025811624	-7.690000E-01	  0.025811624	-1.687510E+02	  0.025811624	2.235000E+00	  0.025811624	-4.914000E+00
31	  0.026012026	-7.780000E-01	  0.026012026	-1.704330E+02	  0.026012026	2.255000E+00	  0.026012026	-4.175000E+00
32	  0.026212426	-7.890000E-01	  0.026212426	-1.721200E+02	  0.026212426	2.280000E+00	  0.026212426	-3.436000E+00
33	  0.026412826	-8.010000E-01	  0.026412826	-1.738230E+02	  0.026412826	2.311000E+00	  0.026412826	-2.692000E+00
34	  0.026613226	-8.140000E-01	  0.026613226	-1.755330E+02	  0.026613226	2.346000E+00	  0.026613226	-1.945000E+00
35	  0.026813626	-8.300000E-01	  0.026813626	-1.772560E+02	  0.026813626	2.389000E+00	  0.026813626	-1.194000E+00
36	  0.027014028	-8.460000E-01	  0.027014028	-1.789870E+02	  0.027014028	2.435000E+00	  0.027014028	-4.400000E-01
37	  0.027214428	-8.610000E-01	  0.027214428	1.792630E+02	  0.027214428	2.478000E+00	  0.027214428	3.200000E-01
38	  0.027414829	-8.760000E-01	  0.027414829	1.775000E+02	  0.027414829	2.520000E+00	  0.027414829	1.087000E+00
39	  0.027615231	-8.930000E-01	  0.027615231	1.757280E+02	  0.027615231	2.572000E+00	  0.027615231	1.859000E+00
40	  0.027815631	-9.120000E-01	  0.027815631	1.739500E+02	  0.027815631	2.632000E+00	  0.027815631	2.634000E+00
41	  0.028016033	-9.340000E-01	  0.028016033	1.721620E+02	  0.028016033	2.698000E+00	  0.028016033	3.414000E+00
42	  0.028216433	-9.550000E-01	  0.028216433	1.703650E+02	  0.028216433	2.766000E+00	  0.028216433	4.200000E+00
43	  0.028416833	-9.760000E-01	  0.028416833	1.685740E+02	  0.028416833	2.834000E+00	  0.028416833	4.985000E+00
44	  0.028617235	-9.960000E-01	  0.028617235	1.667750E+02	  0.028617235	2.904000E+00	  0.028617235	5.776000E+00
45	  0.028817635	-1.017000E+00	  0.028817635	1.649900E+02	  0.028817635	2.976000E+00	  0.028817635	6.563000E+00
46	  0.029018037	-1.037000E+00	  0.029018037	1.632060E+02	  0.029018037	3.048000E+00	  0.029018037	7.353000E+00
47	  0.029218437	-1.062000E+00	  0.029218437	1.614190E+02	  0.029218437	3.134000E+00	  0.029218437	8.147000E+00
48	  0.029418837	-1.088000E+00	  0.029418837	1.596190E+02	  0.029418837	3.228000E+00	  0.029418837	8.951000E+00
49	  0.029619239	-1.115000E+00	  0.029619239	1.578110E+02	  0.029619239	3.328000E+00	  0.029619239	9.762000E+00
50	  0.029819639	-1.146000E+00	  0.029819639	1.559880E+02	  0.029819639	3.443000E+00	  0.029819639	1.058400E+01
51	  0.030020041	-1.177000E+00	  0.030020041	1.541240E+02	  0.030020041	3.560000E+00	  0.030020041	1.143000E+01
52	  0.030220442	-1.207000E+00	  0.030220442	1.522640E+02	  0.030220442	3.680000E+00	  0.030220442	1.228000E+01
53	  0.030420844	-1.238000E+00	  0.030420844	1.504040E+02	  0.030420844	3.806000E+00	  0.030420844	1.313700E+01
54	  0.030621244	-1.271000E+00	  0.030621244	1.485520E+02	  0.030621244	3.941000E+00	  0.030621244	1.399500E+01
55	  0.030821644	-1.306000E+00	  0.030821644	1.466930E+02	  0.030821644	4.086000E+00	  0.030821644	1.486400E+01
56	  0.031022044	-1.342000E+00	  0.031022044	1.448280E+02	  0.031022044	4.241000E+00	  0.031022044	1.574300E+01
57	  0.031222444	-1.376000E+00	  0.031222444	1.429600E+02	  0.031222444	4.394000E+00	  0.031222444	1.663200E+01
58	  0.031422846	-1.412000E+00	  0.031422846	1.410450E+02	  0.031422846	4.561000E+00	  0.031422846	1.755200E+01
59	  0.031623244	-1.447000E+00	  0.031623244	1.391070E+02	  0.031623244	4.730000E+00	  0.031623244	1.849300E+01
60	  0.031823646	-1.477000E+00	  0.031823646	1.371520E+02	  0.031823646	4.889000E+00	  0.031823646	1.945600E+01
61	  0.032024048	-1.508000E+00	  0.032024048	1.352150E+02	  0.032024048	5.059000E+00	  0.032024048	2.041900E+01
62	  0.032224450	-1.541000E+00	  0.032224450	1.332890E+02	  0.032224450	5.243000E+00	  0.032224450	2.139000E+01
63	  0.032424849	-1.572000E+00	  0.032424849	1.313750E+02	  0.032424849	5.427000E+00	  0.032424849	2.236700E+01
64	  0.032625251	-1.605000E+00	  0.032625251	1.294160E+02	  0.032625251	5.625000E+00	  0.032625251	2.338100E+01
65	  0.032825653	-1.641000E+00	  0.032825653	1.274970E+02	  0.032825653	5.844000E+00	  0.032825653	2.438600E+01
66	  0.033026051	-1.681000E+00	  0.033026051	1.255470E+02	  0.033026051	6.085000E+00	  0.033026051	2.542300E+01
67	  0.033226453	-1.729000E+00	  0.033226453	1.235750E+02	  0.033226453	6.371000E+00	  0.033226453	2.648400E+01
68	  0.033426855	-1.777000E+00	  0.033426855	1.215980E+02	  0.033426855	6.668000E+00	  0.033426855	2.756400E+01
69	  0.033627257	-1.826000E+00	  0.033627257	1.195660E+02	  0.033627257	6.989000E+00	  0.033627257	2.869300E+01
70	  0.033827655	-1.872000E+00	  0.033827655	1.174900E+02	  0.033827655	7.316000E+00	  0.033827655	2.986900E+01
71	  0.034028057	-1.920000E+00	  0.034028057	1.153950E+02	  0.034028057	7.668000E+00	  0.034028057	3.107700E+01
72	  0.034228459	-1.966000E+00	  0.034228459	1.132910E+02	  0.034228459	8.031000E+00	  0.034228459	3.231500E+01
73	  0.034428857	-2.009000E+00	  0.034428857	1.111550E+02	  0.034428857	8.407000E+00	  0.034428857	3.360000E+01
74	  0.034629259	-2.048000E+00	  0.034629259	1.090500E+02	  0.034629259	8.788000E+00	  0.034629259	3.489600E+01
75	  0.034829661	-2.087000E+00	  0.034829661	1.069350E+02	  0.034829661	9.188000E+00	  0.034829661	3.622700E+01
76	  0.035030060	-2.126000E+00	  0.035030060	1.048270E+02	  0.035030060	9.615000E+00	  0.035030060	3.758400E+01
77	  0.035230462	-2.168000E+00	  0.035230462	1.027180E+02	  0.035230462	1.007600E+01	  0.035230462	3.897200E+01
78	  0.035430863	-2.207000E+00	  0.035430863	1.006580E+02	  0.035430863	1.055000E+01	  0.035430863	4.036100E+01
79	  0.035631265	-2.247000E+00	  0.035631265	9.858800E+01	  0.035631265	1.106000E+01	  0.035631265	4.179000E+01
80	  0.035831664	-2.292000E+00	  0.035831664	9.651500E+01	  0.035831664	1.162600E+01	  0.035831664	4.325300E+01
81	  0.036032066	-2.337000E+00	  0.036032066	9.445700E+01	  0.036032066	1.222200E+01	  0.036032066	4.474200E+01
82	  0.036232468	-2.383000E+00	  0.036232468	9.242600E+01	  0.036232468	1.286200E+01	  0.036232468	4.624400E+01
83	  0.036432866	-2.433000E+00	  0.036432866	9.038500E+01	  0.036432866	1.356700E+01	  0.036432866	4.778800E+01
84	  0.036633268	-2.489000E+00	  0.036633268	8.832200E+01	  0.036633268	1.435600E+01	  0.036633268	4.938100E+01
85	  0.036833670	-2.550000E+00	  0.036833670	8.627300E+01	  0.036833670	1.522400E+01	  0.036833670	5.099300E+01
86	  0.037034072	-2.612000E+00	  0.037034072	8.418500E+01	  0.037034072	1.616700E+01	  0.037034072	5.267800E+01
87	  0.037234470	-2.673000E+00	  0.037234470	8.207700E+01	  0.037234470	1.718300E+01	  0.037234470	5.442400E+01
88	  0.037434869	-2.738000E+00	  0.037434869	7.993500E+01	  0.037434869	1.831100E+01	  0.037434869	5.623900E+01
89	  0.037635271	-2.804000E+00	  0.037635271	7.778800E+01	  0.037635271	1.952800E+01	  0.037635271	5.810300E+01
90	  0.037835669	-2.870000E+00	  0.037835669	7.560000E+01	  0.037835669	2.086300E+01	  0.037835669	6.005500E+01
91	  0.038036071	-2.941000E+00	  0.038036071	7.344500E+01	  0.038036071	2.232800E+01	  0.038036071	6.200300E+01
92	  0.038236473	-3.000000E+00	  0.038236473	7.134700E+01	  0.038236473	2.379000E+01	  0.038236473	6.398200E+01
93	  0.038436871	-3.051000E+00	  0.038436871	6.919800E+01	  0.038436871	2.535300E+01	  0.038436871	6.609000E+01
94	  0.038637273	-3.095000E+00	  0.038637273	6.704900E+01	  0.038637273	2.698900E+01	  0.038637273	6.828800E+01
95	  0.038837675	-3.142000E+00	  0.038837675	6.491600E+01	  0.038837675	2.878800E+01	  0.038837675	7.050900E+01
96	  0.039038073	-3.190000E+00	  0.039038073	6.282700E+01	  0.039038073	3.071300E+01	  0.039038073	7.273400E+01
97	  0.039238475	-3.241000E+00	  0.039238475	6.073500E+01	  0.039238475	3.282900E+01	  0.039238475	7.499900E+01
98	  0.039438877	-3.297000E+00	  0.039438877	5.865900E+01	  0.039438877	3.516400E+01	  0.039438877	7.725200E+01
99	  0.039639279	-3.355000E+00	  0.039639279	5.659500E+01	  0.039639279	3.771500E+01	  0.039639279	7.950300E+01
100	  0.039839678	-3.421000E+00	  0.039839678	5.450200E+01	  0.039839678	4.058100E+01	  0.039839678	8.175600E+01
101	  0.040040080	-3.484000E+00	  0.040040080	5.240500E+01	  0.040040080	4.369500E+01	  0.040040080	8.402500E+01
102	  0.040240481	-3.548000E+00	  0.040240481	5.027800E+01	  0.040240481	4.712900E+01	  0.040240481	8.631300E+01
103	  0.040440880	-3.612000E+00	  0.040440880	4.816200E+01	  0.040440880	5.086600E+01	  0.040440880	8.854200E+01
104	  0.040641282	-3.674000E+00	  0.040641282	4.605500E+01	  0.040641282	5.490200E+01	  0.040641282	9.071100E+01
105	  0.040841684	-3.737000E+00	  0.040841684	4.394200E+01	  0.040841684	5.932200E+01	  0.040841684	9.277400E+01
106	  0.041042086	-3.797000E+00	  0.041042086	4.182100E+01	  0.041042086	6.412500E+01	  0.041042086	9.474200E+01
107	  0.041242484	-3.855000E+00	  0.041242484	3.969800E+01	  0.041242484	6.933100E+01	  0.041242484	9.657000E+01
108	  0.041442886	-3.914000E+00	  0.041442886	3.758200E+01	  0.041442886	7.498200E+01	  0.041442886	9.811100E+01
109	  0.041643288	-3.970000E+00	  0.041643288	3.546100E+01	  0.041643288	8.108500E+01	  0.041643288	9.940200E+01
110	  0.041843686	-4.024000E+00	  0.041843686	3.336400E+01	  0.041843686	8.757900E+01	  0.041843686	1.003350E+02
111	  0.042044088	-4.077000E+00	  0.042044088	3.128900E+01	  0.042044088	9.447800E+01	  0.042044088	1.007740E+02
112	  0.042244490	-4.129000E+00	  0.042244490	2.923300E+01	  0.042244490	1.017520E+02	  0.042244490	1.006800E+02
113	  0.042444889	-4.181000E+00	  0.042444889	2.720000E+01	  0.042444889	1.093510E+02	  0.042444889	9.991800E+01
114	  0.042645290	-4.236000E+00	  0.042645290	2.515200E+01	  0.042645290	1.173560E+02	  0.042645290	9.831400E+01
115	  0.042845692	-4.289000E+00	  0.042845692	2.310600E+01	  0.042845692	1.256140E+02	  0.042845692	9.588200E+01
116	  0.043046094	-4.340000E+00	  0.043046094	2.108900E+01	  0.043046094	1.339040E+02	  0.043046094	9.251900E+01
117	  0.043246493	-4.393000E+00	  0.043246493	1.905700E+01	  0.043246493	1.422370E+02	  0.043246493	8.800900E+01
118	  0.043446895	-4.445000E+00	  0.043446895	1.701300E+01	  0.043446895	1.504420E+02	  0.043446895	8.236200E+01
119	  0.043647297	-4.497000E+00	  0.043647297	1.500200E+01	  0.043647297	1.581150E+02	  0.043647297	7.563200E+01
120	  0.043847695	-4.551000E+00	  0.043847695	1.298600E+01	  0.043847695	1.651210E+02	  0.043847695	6.767700E+01
121	  0.044048097	-4.602000E+00	  0.044048097	1.097300E+01	  0.044048097	1.713170E+02	  0.044048097	5.875400E+01
122	  0.044248499	-4.654000E+00	  0.044248499	8.969000E+00	  0.044248499	1.763750E+02	  0.044248499	4.893400E+01
123	  0.044448901	-4.705000E+00	  0.044448901	6.980000E+00	  0.044448901	1.802120E+02	  0.044448901	3.852000E+01
124	  0.044649299	-4.752000E+00	  0.044649299	4.981000E+00	  0.044649299	1.827850E+02	  0.044649299	2.760700E+01
125	  0.044849701	-4.796000E+00	  0.044849701	2.985000E+00	  0.044849701	1.840610E+02	  0.044849701	1.650500E+01
126	  0.045050103	-4.839000E+00	  0.045050103	1.010000E+00	  0.045050103	1.839350E+02	  0.045050103	5.533000E+00
127	  0.045250501	-4.880000E+00	  0.045250501	-9.490000E-01	  0.045250501	1.824690E+02	  0.045250501	-5.107000E+00
128	  0.045450903	-4.920000E+00	  0.045450903	-2.866000E+00	  0.045450903	1.798600E+02	  0.045450903	-1.505800E+01
129	  0.045651305	-4.961000E+00	  0.045651305	-4.819000E+00	  0.045651305	1.760770E+02	  0.045651305	-2.453900E+01
130	  0.045851704	-5.004000E+00	  0.045851704	-6.699000E+00	  0.045851704	1.714850E+02	  0.045851704	-3.287500E+01
131	  0.046052106	-5.044000E+00	  0.046052106	-8.633000E+00	  0.046052106	1.661420E+02	  0.046052106	-4.062200E+01
132	  0.046252504	-5.082000E+00	  0.046252504	-1.052200E+01	  0.046252504	1.604240E+02	  0.046252504	-4.731900E+01
133	  0.046452906	-5.117000E+00	  0.046452906	-1.240000E+01	  0.046452906	1.544450E+02	  0.046452906	-5.316500E+01
134	  0.046653304	-5.149000E+00	  0.046653304	-1.429700E+01	  0.046653304	1.482100E+02	  0.046653304	-5.825900E+01
135	  0.046853706	-5.178000E+00	  0.046853706	-1.615600E+01	  0.046853706	1.420300E+02	  0.046853706	-6.252300E+01
136	  0.047054108	-5.212000E+00	  0.047054108	-1.802200E+01	  0.047054108	1.357140E+02	  0.047054108	-6.593700E+01
137	  0.047254506	-5.239000E+00	  0.047254506	-1.986500E+01	  0.047254506	1.296380E+02	  0.047254506	-6.878200E+01
138	  0.047454908	-5.266000E+00	  0.047454908	-2.168400E+01	  0.047454908	1.237440E+02	  0.047454908	-7.098600E+01
139	  0.047655310	-5.289000E+00	  0.047655310	-2.348100E+01	  0.047655310	1.181030E+02	  0.047655310	-7.269200E+01
140	  0.047855709	-5.318000E+00	  0.047855709	-2.526000E+01	  0.047855709	1.126730E+02	  0.047855709	-7.382400E+01
141	  0.048056111	-5.347000E+00	  0.048056111	-2.704900E+01	  0.048056111	1.074400E+02	  0.048056111	-7.456800E+01
142	  0.048256513	-5.374000E+00	  0.048256513	-2.880500E+01	  0.048256513	1.025360E+02	  0.048256513	-7.497500E+01
143	  0.048456915	-5.401000E+00	  0.048456915	-3.057300E+01	  0.048456915	9.783600E+01	  0.048456915	-7.509400E+01
144	  0.048657313	-5.426000E+00	  0.048657313	-3.233400E+01	  0.048657313	9.339600E+01	  0.048657313	-7.498700E+01
145	  0.048857715	-5.448000E+00	  0.048857715	-3.410100E+01	  0.048857715	8.917500E+01	  0.048857715	-7.471300E+01
146	  0.049058117	-5.472000E+00	  0.049058117	-3.585800E+01	  0.049058117	8.520700E+01	  0.049058117	-7.421800E+01
147	  0.049258515	-5.494000E+00	  0.049258515	-3.757600E+01	  0.049258515	8.153800E+01	  0.049258515	-7.359900E+01
148	  0.049458917	-5.516000E+00	  0.049458917	-3.931100E+01	  0.049458917	7.803700E+01	  0.049458917	-7.284800E+01
149	  0.049659319	-5.541000E+00	  0.049659319	-4.104500E+01	  0.049659319	7.474400E+01	  0.049659319	-7.194900E+01
150	  0.049859721	-5.561000E+00	  0.049859721	-4.276100E+01	  0.049859721	7.166300E+01	  0.049859721	-7.102900E+01
151	  0.050060119	-5.581000E+00	  0.050060119	-4.449600E+01	  0.050060119	6.872200E+01	  0.050060119	-7.003300E+01
152	  0.050260521	-5.599000E+00	  0.050260521	-4.623400E+01	  0.050260521	6.594200E+01	  0.050260521	-6.898800E+01
153	  0.050460923	-5.613000E+00	  0.050460923	-4.796500E+01	  0.050460923	6.331700E+01	  0.050460923	-6.793500E+01
154	  0.050661322	-5.625000E+00	  0.050661322	-4.966900E+01	  0.050661322	6.087000E+01	  0.050661322	-6.687500E+01
155	  0.050861724	-5.639000E+00	  0.050861724	-5.135200E+01	  0.050861724	5.859600E+01	  0.050861724	-6.576900E+01
156	  0.051062126	-5.650000E+00	  0.051062126	-5.302100E+01	  0.051062126	5.645600E+01	  0.051062126	-6.466900E+01
157	  0.051262524	-5.662000E+00	  0.051262524	-5.463300E+01	  0.051262524	5.450200E+01	  0.051262524	-6.357700E+01
158	  0.051462926	-5.673000E+00	  0.051462926	-5.625500E+01	  0.051462926	5.263800E+01	  0.051462926	-6.246800E+01
159	  0.051663328	-5.682000E+00	  0.051663328	-5.784300E+01	  0.051663328	5.089500E+01	  0.051663328	-6.139400E+01
160	  0.051863730	-5.699000E+00	  0.051863730	-5.945900E+01	  0.051863730	4.925100E+01	  0.051863730	-6.023300E+01
161	  0.052064128	-5.711000E+00	  0.052064128	-6.107000E+01	  0.052064128	4.767900E+01	  0.052064128	-5.910300E+01
162	  0.052264530	-5.722000E+00	  0.052264530	-6.266700E+01	  0.052264530	4.619100E+01	  0.052264530	-5.800100E+01
163	  0.052464932	-5.736000E+00	  0.052464932	-6.427300E+01	  0.052464932	4.478700E+01	  0.052464932	-5.687100E+01
164	  0.052665330	-5.749000E+00	  0.052665330	-6.585900E+01	  0.052665330	4.346900E+01	  0.052665330	-5.576200E+01
165	  0.052865732	-5.759000E+00	  0.052865732	-6.746300E+01	  0.052865732	4.218900E+01	  0.052865732	-5.466700E+01
166	  0.053066134	-5.768000E+00	  0.053066134	-6.899500E+01	  0.053066134	4.102000E+01	  0.053066134	-5.363400E+01
167	  0.053266536	-5.772000E+00	  0.053266536	-7.057500E+01	  0.053266536	3.985600E+01	  0.053266536	-5.259400E+01
168	  0.053466935	-5.779000E+00	  0.053466935	-7.213700E+01	  0.053466935	3.876800E+01	  0.053466935	-5.156200E+01
169	  0.053667337	-5.783000E+00	  0.053667337	-7.366800E+01	  0.053667337	3.774100E+01	  0.053667337	-5.057000E+01
170	  0.053867739	-5.783000E+00	  0.053867739	-7.520000E+01	  0.053867739	3.674100E+01	  0.053867739	-4.960400E+01
171	  0.054068137	-5.788000E+00	  0.054068137	-7.670700E+01	  0.054068137	3.582400E+01	  0.054068137	-4.863700E+01
172	  0.054268539	-5.792000E+00	  0.054268539	-7.816900E+01	  0.054268539	3.497100E+01	  0.054268539	-4.771000E+01
173	  0.054468941	-5.797000E+00	  0.054468941	-7.961800E+01	  0.054468941	3.416600E+01	  0.054468941	-4.679700E+01
174	  0.054669339	-5.801000E+00	  0.054669339	-8.103600E+01	  0.054669339	3.340700E+01	  0.054669339	-4.591400E+01
175	  0.054869737	-5.812000E+00	  0.054869737	-8.246900E+01	  0.054869737	3.269900E+01	  0.054869737	-4.500700E+01
176	  0.055070139	-5.819000E+00	  0.055070139	-8.387900E+01	  0.055070139	3.201800E+01	  0.055070139	-4.413700E+01
177	  0.055270538	-5.826000E+00	  0.055270538	-8.530200E+01	  0.055270538	3.135600E+01	  0.055270538	-4.326900E+01
178	  0.055470940	-5.836000E+00	  0.055470940	-8.672500E+01	  0.055470940	3.073400E+01	  0.055470940	-4.240200E+01
179	  0.055671342	-5.844000E+00	  0.055671342	-8.812400E+01	  0.055671342	3.014100E+01	  0.055671342	-4.156300E+01
180	  0.055871744	-5.856000E+00	  0.055871744	-8.952200E+01	  0.055871744	2.958900E+01	  0.055871744	-4.072300E+01
181	  0.056072142	-5.863000E+00	  0.056072142	-9.091700E+01	  0.056072142	2.903900E+01	  0.056072142	-3.991000E+01
182	  0.056272544	-5.871000E+00	  0.056272544	-9.234900E+01	  0.056272544	2.850200E+01	  0.056272544	-3.908000E+01
183	  0.056472946	-5.879000E+00	  0.056472946	-9.373200E+01	  0.056472946	2.800100E+01	  0.056472946	-3.829000E+01
184	  0.056673344	-5.886000E+00	  0.056673344	-9.510600E+01	  0.056673344	2.752400E+01	  0.056673344	-3.751200E+01
185	  0.056873746	-5.890000E+00	  0.056873746	-9.650200E+01	  0.056873746	2.704400E+01	  0.056873746	-3.674000E+01
186	  0.057074148	-5.887000E+00	  0.057074148	-9.786800E+01	  0.057074148	2.656700E+01	  0.057074148	-3.600700E+01
187	  0.057274550	-5.893000E+00	  0.057274550	-9.923400E+01	  0.057274550	2.614300E+01	  0.057274550	-3.526000E+01
188	  0.057474948	-5.891000E+00	  0.057474948	-1.005700E+02	  0.057474948	2.571300E+01	  0.057474948	-3.455300E+01
189	  0.057675350	-5.892000E+00	  0.057675350	-1.018920E+02	  0.057675350	2.531400E+01	  0.057675350	-3.385500E+01
190	  0.057875752	-5.893000E+00	  0.057875752	-1.032000E+02	  0.057875752	2.493300E+01	  0.057875752	-3.317000E+01
191	  0.058076151	-5.890000E+00	  0.058076151	-1.044910E+02	  0.058076151	2.455500E+01	  0.058076151	-3.250800E+01
192	  0.058276553	-5.888000E+00	  0.058276553	-1.057280E+02	  0.058276553	2.421100E+01	  0.058276553	-3.187500E+01
193	  0.058476955	-5.893000E+00	  0.058476955	-1.070040E+02	  0.058476955	2.388800E+01	  0.058476955	-3.121800E+01
194	  0.058677353	-5.888000E+00	  0.058677353	-1.082800E+02	  0.058677353	2.354500E+01	  0.058677353	-3.058300E+01
195	  0.058877755	-5.891000E+00	  0.058877755	-1.095220E+02	  0.058877755	2.324900E+01	  0.058877755	-2.995500E+01
196	  0.059078157	-5.892000E+00	  0.059078157	-1.107750E+02	  0.059078157	2.295300E+01	  0.059078157	-2.933100E+01
197	  0.059278559	-5.892000E+00	  0.059278559	-1.120130E+02	  0.059278559	2.266800E+01	  0.059278559	-2.872100E+01
198	  0.059478957	-5.893000E+00	  0.059478957	-1.132830E+02	  0.059478957	2.238600E+01	  0.059478957	-2.809900E+01
199	  0.059679359	-5.893000E+00	  0.059679359	-1.145100E+02	  0.059679359	2.212000E+01	  0.059679359	-2.750600E+01
200	  0.059879761	-5.889000E+00	  0.059879761	-1.157370E+02	  0.059879761	2.185200E+01	  0.059879761	-2.692000E+01
201	  0.060080159	-5.887000E+00	  0.060080159	-1.169570E+02	  0.060080159	2.159800E+01	  0.060080159	-2.634000E+01
202	  0.060280561	-5.884000E+00	  0.060280561	-1.181690E+02	  0.060280561	2.135300E+01	  0.060280561	-2.576900E+01
203	  0.060480963	-5.882000E+00	  0.060480963	-1.193660E+02	  0.060480963	2.112000E+01	  0.060480963	-2.520800E+01
204	  0.060681365	-5.880000E+00	  0.060681365	-1.205500E+02	  0.060681365	2.089800E+01	  0.060681365	-2.465600E+01
205	  0.060881764	-5.876000E+00	  0.060881764	-1.217600E+02	  0.060881764	2.067100E+01	  0.060881764	-2.409900E+01
206	  0.061082166	-5.878000E+00	  0.061082166	-1.229310E+02	  0.061082166	2.047800E+01	  0.061082166	-2.355500E+01
207	  0.061282568	-5.871000E+00	  0.061282568	-1.241080E+02	  0.061282568	2.026100E+01	  0.061282568	-2.302400E+01
208	  0.061482966	-5.867000E+00	  0.061482966	-1.252580E+02	  0.061482966	2.006600E+01	  0.061482966	-2.250300E+01
209	  0.061683368	-5.870000E+00	  0.061683368	-1.263950E+02	  0.061683368	1.989700E+01	  0.061683368	-2.198600E+01
210	  0.061883770	-5.870000E+00	  0.061883770	-1.275280E+02	  0.061883770	1.972700E+01	  0.061883770	-2.147500E+01
211	  0.062084168	-5.866000E+00	  0.062084168	-1.286770E+02	  0.062084168	1.954900E+01	  0.062084168	-2.096500E+01
212	  0.062284570	-5.868000E+00	  0.062284570	-1.298010E+02	  0.062284570	1.939600E+01	  0.062284570	-2.046300E+01
213	  0.062484972	-5.869000E+00	  0.062484972	-1.309080E+02	  0.062484972	1.924800E+01	  0.062484972	-1.997200E+01
214	  0.062685370	-5.871000E+00	  0.062685370	-1.320600E+02	  0.062685370	1.910300E+01	  0.062685370	-1.946300E+01
215	  0.062885776	-5.871000E+00	  0.062885776	-1.332120E+02	  0.062885776	1.895400E+01	  0.062885776	-1.896000E+01
216	  0.063086174	-5.875000E+00	  0.063086174	-1.343990E+02	  0.063086174	1.881900E+01	  0.063086174	-1.844000E+01
217	  0.063286573	-5.873000E+00	  0.063286573	-1.355390E+02	  0.063286573	1.867900E+01	  0.063286573	-1.794800E+01
218	  0.063486971	-5.875000E+00	  0.063486971	-1.366910E+02	  0.063486971	1.855200E+01	  0.063486971	-1.745000E+01
219	  0.063687377	-5.868000E+00	  0.063687377	-1.378180E+02	  0.063687377	1.840800E+01	  0.063687377	-1.697200E+01
220	  0.063887775	-5.868000E+00	  0.063887775	-1.389790E+02	  0.063887775	1.828200E+01	  0.063887775	-1.647800E+01
221	  0.064088173	-5.867000E+00	  0.064088173	-1.401100E+02	  0.064088173	1.816300E+01	  0.064088173	-1.599800E+01
222	  0.064288579	-5.864000E+00	  0.064288579	-1.412520E+02	  0.064288579	1.804100E+01	  0.064288579	-1.551800E+01
223	  0.064488977	-5.861000E+00	  0.064488977	-1.423610E+02	  0.064488977	1.792600E+01	  0.064488977	-1.505300E+01
224	  0.064689375	-5.856000E+00	  0.064689375	-1.434590E+02	  0.064689375	1.781000E+01	  0.064689375	-1.459600E+01
225	  0.064889781	-5.852000E+00	  0.064889781	-1.445230E+02	  0.064889781	1.770500E+01	  0.064889781	-1.415400E+01
226	  0.065090179	-5.852000E+00	  0.065090179	-1.455940E+02	  0.065090179	1.761200E+01	  0.065090179	-1.370900E+01
227	  0.065290578	-5.848000E+00	  0.065290578	-1.466340E+02	  0.065290578	1.751700E+01	  0.065290578	-1.328000E+01
228	  0.065490983	-5.847000E+00	  0.065490983	-1.477150E+02	  0.065490983	1.742800E+01	  0.065490983	-1.283500E+01
229	  0.065691382	-5.846000E+00	  0.065691382	-1.487680E+02	  0.065691382	1.734300E+01	  0.065691382	-1.240200E+01
230	  0.065891780	-5.847000E+00	  0.065891780	-1.498480E+02	  0.065891780	1.726600E+01	  0.065891780	-1.195900E+01
231	  0.066092186	-5.847000E+00	  0.066092186	-1.508720E+02	  0.066092186	1.719400E+01	  0.066092186	-1.154100E+01
232	  0.066292584	-5.844000E+00	  0.066292584	-1.519030E+02	  0.066292584	1.711500E+01	  0.066292584	-1.112200E+01
233	  0.066492982	-5.847000E+00	  0.066492982	-1.529530E+02	  0.066492982	1.705500E+01	  0.066492982	-1.069400E+01
234	  0.066693388	-5.844000E+00	  0.066693388	-1.539590E+02	  0.066693388	1.698600E+01	  0.066693388	-1.028800E+01
235	  0.066893786	-5.845000E+00	  0.066893786	-1.549750E+02	  0.066893786	1.692900E+01	  0.066893786	-9.877000E+00
236	  0.067094192	-5.849000E+00	  0.067094192	-1.559570E+02	  0.067094192	1.688200E+01	  0.067094192	-9.480000E+00
237	  0.067294590	-5.848000E+00	  0.067294590	-1.570030E+02	  0.067294590	1.682300E+01	  0.067294590	-9.060000E+00
238	  0.067494988	-5.851000E+00	  0.067494988	-1.580040E+02	  0.067494988	1.677900E+01	  0.067494988	-8.658000E+00
239	  0.067695394	-5.854000E+00	  0.067695394	-1.589950E+02	  0.067695394	1.673700E+01	  0.067695394	-8.261000E+00
240	  0.067895792	-5.858000E+00	  0.067895792	-1.600130E+02	  0.067895792	1.670100E+01	  0.067895792	-7.853000E+00
241	  0.068096191	-5.863000E+00	  0.068096191	-1.610190E+02	  0.068096191	1.666900E+01	  0.068096191	-7.451000E+00
242	  0.068296596	-5.868000E+00	  0.068296596	-1.620040E+02	  0.068296596	1.664100E+01	  0.068296596	-7.059000E+00
243	  0.068496995	-5.870000E+00	  0.068496995	-1.629950E+02	  0.068496995	1.660500E+01	  0.068496995	-6.666000E+00
244	  0.068697393	-5.875000E+00	  0.068697393	-1.639830E+02	  0.068697393	1.658100E+01	  0.068697393	-6.274000E+00
245	  0.068897791	-5.878000E+00	  0.068897791	-1.649570E+02	  0.068897791	1.655600E+01	  0.068897791	-5.888000E+00
246	  0.069098189	-5.878000E+00	  0.069098189	-1.659480E+02	  0.069098189	1.652200E+01	  0.069098189	-5.498000E+00
247	  0.069298595	-5.883000E+00	  0.069298595	-1.669930E+02	  0.069298595	1.650400E+01	  0.069298595	-5.085000E+00
248	  0.069498993	-5.893000E+00	  0.069498993	-1.679750E+02	  0.069498993	1.650100E+01	  0.069498993	-4.698000E+00
249	  0.069699399	-5.901000E+00	  0.069699399	-1.689540E+02	  0.069699399	1.649600E+01	  0.069699399	-4.312000E+00
250	  0.069899797	-5.902000E+00	  0.069899797	-1.699460E+02	  0.069899797	1.647500E+01	  0.069899797	-3.923000E+00
251	  0.070100196	-5.905000E+00	  0.070100196	-1.709570E+02	  0.070100196	1.646200E+01	  0.070100196	-3.527000E+00
252	  0.070300601	-5.910000E+00	  0.070300601	-1.719260E+02	  0.070300601	1.645800E+01	  0.070300601	-3.147000E+00
253	  0.070501000	-5.909000E+00	  0.070501000	-1.728900E+02	  0.070501000	1.643900E+01	  0.070501000	-2.771000E+00
254	  0.070701398	-5.913000E+00	  0.070701398	-1.739010E+02	  0.070701398	1.643400E+01	  0.070701398	-2.376000E+00
255	  0.070901804	-5.915000E+00	  0.070901804	-1.748590E+02	  0.070901804	1.642700E+01	  0.070901804	-2.002000E+00
256	  0.071102202	-5.923000E+00	  0.071102202	-1.758460E+02	  0.071102202	1.643700E+01	  0.071102202	-1.617000E+00
257	  0.071302600	-5.923000E+00	  0.071302600	-1.768050E+02	  0.071302600	1.642900E+01	  0.071302600	-1.243000E+00
258	  0.071503006	-5.929000E+00	  0.071503006	-1.777330E+02	  0.071503006	1.643800E+01	  0.071503006	-8.820000E-01
259	  0.071703404	-5.933000E+00	  0.071703404	-1.786650E+02	  0.071703404	1.644500E+01	  0.071703404	-5.190000E-01
260	  0.071903802	-5.933000E+00	  0.071903802	-1.795810E+02	  0.071903802	1.644300E+01	  0.071903802	-1.620000E-01
261	  0.072104208	-5.939000E+00	  0.072104208	1.794820E+02	  0.072104208	1.645900E+01	  0.072104208	2.010000E-01
262	  0.072304606	-5.940000E+00	  0.072304606	1.785630E+02	  0.072304606	1.646300E+01	  0.072304606	5.580000E-01
263	  0.072505005	-5.943000E+00	  0.072505005	1.776580E+02	  0.072505005	1.647600E+01	  0.072505005	9.100000E-01
264	  0.072705410	-5.946000E+00	  0.072705410	1.767330E+02	  0.072705410	1.648900E+01	  0.072705410	1.270000E+00
265	  0.072905809	-5.953000E+00	  0.072905809	1.758700E+02	  0.072905809	1.651400E+01	  0.072905809	1.606000E+00
266	  0.073106214	-5.954000E+00	  0.073106214	1.749680E+02	  0.073106214	1.652600E+01	  0.073106214	1.957000E+00
267	  0.073306613	-5.962000E+00	  0.073306613	1.740880E+02	  0.073306613	1.655600E+01	  0.073306613	2.299000E+00
268	  0.073507011	-5.966000E+00	  0.073507011	1.731770E+02	  0.073507011	1.657900E+01	  0.073507011	2.653000E+00
269	  0.073707417	-5.972000E+00	  0.073707417	1.723090E+02	  0.073707417	1.660900E+01	  0.073707417	2.991000E+00
270	  0.073907815	-5.980000E+00	  0.073907815	1.714520E+02	  0.073907815	1.664600E+01	  0.073907815	3.324000E+00
271	  0.074108213	-5.981000E+00	  0.074108213	1.705840E+02	  0.074108213	1.666500E+01	  0.074108213	3.662000E+00
272	  0.074308619	-5.995000E+00	  0.074308619	1.696930E+02	  0.074308619	1.672100E+01	  0.074308619	4.008000E+00
273	  0.074509017	-5.999000E+00	  0.074509017	1.688230E+02	  0.074509017	1.675300E+01	  0.074509017	4.347000E+00
274	  0.074709415	-6.012000E+00	  0.074709415	1.679640E+02	  0.074709415	1.681000E+01	  0.074709415	4.680000E+00
275	  0.074909821	-6.022000E+00	  0.074909821	1.671050E+02	  0.074909821	1.686000E+01	  0.074909821	5.014000E+00
276	  0.075110219	-6.033000E+00	  0.075110219	1.662280E+02	  0.075110219	1.691500E+01	  0.075110219	5.355000E+00
277	  0.075310618	-6.042000E+00	  0.075310618	1.653940E+02	  0.075310618	1.696700E+01	  0.075310618	5.680000E+00
278	  0.075511023	-6.056000E+00	  0.075511023	1.645430E+02	  0.075511023	1.703200E+01	  0.075511023	6.010000E+00
279	  0.075711422	-6.067000E+00	  0.075711422	1.636860E+02	  0.075711422	1.709200E+01	  0.075711422	6.344000E+00
280	  0.075911827	-6.077000E+00	  0.075911827	1.628050E+02	  0.075911827	1.715000E+01	  0.075911827	6.687000E+00
281	  0.076112226	-6.091000E+00	  0.076112226	1.619220E+02	  0.076112226	1.722500E+01	  0.076112226	7.030000E+00
282	  0.076312624	-6.100000E+00	  0.076312624	1.610460E+02	  0.076312624	1.728500E+01	  0.076312624	7.372000E+00
283	  0.076513030	-6.108000E+00	  0.076513030	1.601320E+02	  0.076513030	1.734700E+01	  0.076513030	7.730000E+00
284	  0.076713428	-6.121000E+00	  0.076713428	1.592650E+02	  0.076713428	1.742400E+01	  0.076713428	8.068000E+00
285	  0.076913826	-6.124000E+00	  0.076913826	1.584160E+02	  0.076913826	1.747400E+01	  0.076913826	8.402000E+00
286	  0.077114232	-6.135000E+00	  0.077114232	1.575620E+02	  0.077114232	1.754600E+01	  0.077114232	8.736000E+00
287	  0.077314630	-6.143000E+00	  0.077314630	1.566740E+02	  0.077314630	1.761700E+01	  0.077314630	9.085000E+00
288	  0.077515028	-6.153000E+00	  0.077515028	1.558290E+02	  0.077515028	1.769100E+01	  0.077515028	9.417000E+00
289	  0.077715434	-6.162000E+00	  0.077715434	1.550000E+02	  0.077715434	1.776500E+01	  0.077715434	9.743000E+00
290	  0.077915832	-6.170000E+00	  0.077915832	1.541420E+02	  0.077915832	1.783800E+01	  0.077915832	1.008100E+01
291	  0.078116231	-6.181000E+00	  0.078116231	1.533160E+02	  0.078116231	1.791800E+01	  0.078116231	1.040600E+01
292	  0.078316636	-6.188000E+00	  0.078316636	1.524550E+02	  0.078316636	1.799600E+01	  0.078316636	1.074700E+01
293	  0.078517035	-6.202000E+00	  0.078517035	1.516140E+02	  0.078517035	1.808900E+01	  0.078517035	1.107700E+01
294	  0.078717433	-6.215000E+00	  0.078717433	1.508120E+02	  0.078717433	1.818000E+01	  0.078717433	1.139300E+01
295	  0.078917839	-6.224000E+00	  0.078917839	1.500210E+02	  0.078917839	1.826300E+01	  0.078917839	1.170600E+01
296	  0.079118237	-6.236000E+00	  0.079118237	1.492020E+02	  0.079118237	1.835700E+01	  0.079118237	1.203000E+01
297	  0.079318643	-6.247000E+00	  0.079318643	1.484110E+02	  0.079318643	1.844800E+01	  0.079318643	1.234300E+01
298	  0.079519041	-6.258000E+00	  0.079519041	1.475910E+02	  0.079519041	1.854500E+01	  0.079519041	1.266800E+01
299	  0.079719439	-6.273000E+00	  0.079719439	1.468030E+02	  0.079719439	1.865000E+01	  0.079719439	1.297900E+01
300	  0.079919845	-6.285000E+00	  0.079919845	1.460010E+02	  0.079919845	1.875100E+01	  0.079919845	1.329700E+01
301	  0.080120243	-6.299000E+00	  0.080120243	1.452180E+02	  0.080120243	1.885600E+01	  0.080120243	1.360700E+01
302	  0.080320641	-6.312000E+00	  0.080320641	1.444190E+02	  0.080320641	1.896400E+01	  0.080320641	1.392400E+01
303	  0.080521047	-6.331000E+00	  0.080521047	1.436510E+02	  0.080521047	1.908800E+01	  0.080521047	1.422600E+01
304	  0.080721445	-6.344000E+00	  0.080721445	1.428650E+02	  0.080721445	1.919900E+01	  0.080721445	1.453900E+01
305	  0.080921844	-6.361000E+00	  0.080921844	1.421110E+02	  0.080921844	1.931800E+01	  0.080921844	1.483700E+01
306	  0.081122249	-6.380000E+00	  0.081122249	1.413130E+02	  0.081122249	1.945000E+01	  0.081122249	1.515100E+01
307	  0.081322648	-6.395000E+00	  0.081322648	1.405530E+02	  0.081322648	1.957100E+01	  0.081322648	1.545200E+01
308	  0.081523046	-6.415000E+00	  0.081523046	1.397610E+02	  0.081523046	1.970900E+01	  0.081523046	1.576500E+01
309	  0.081723452	-6.429000E+00	  0.081723452	1.390050E+02	  0.081723452	1.983100E+01	  0.081723452	1.606600E+01
310	  0.081923850	-6.453000E+00	  0.081923850	1.382610E+02	  0.081923850	1.998000E+01	  0.081923850	1.635600E+01
311	  0.082124248	-6.475000E+00	  0.082124248	1.374850E+02	  0.082124248	2.012900E+01	  0.082124248	1.666000E+01
312	  0.082324654	-6.494000E+00	  0.082324654	1.367310E+02	  0.082324654	2.027000E+01	  0.082324654	1.695800E+01
313	  0.082525052	-6.517000E+00	  0.082525052	1.359890E+02	  0.082525052	2.042400E+01	  0.082525052	1.724700E+01
314	  0.082725458	-6.538000E+00	  0.082725458	1.351910E+02	  0.082725458	2.058200E+01	  0.082725458	1.756100E+01
315	  0.082925856	-6.562000E+00	  0.082925856	1.343860E+02	  0.082925856	2.075000E+01	  0.082925856	1.787600E+01
316	  0.083126254	-6.583000E+00	  0.083126254	1.335750E+02	  0.083126254	2.091500E+01	  0.083126254	1.819700E+01
317	  0.083326660	-6.600000E+00	  0.083326660	1.327800E+02	  0.083326660	2.106700E+01	  0.083326660	1.851500E+01
318	  0.083527058	-6.620000E+00	  0.083527058	1.320060E+02	  0.083527058	2.122900E+01	  0.083527058	1.882100E+01
319	  0.083727457	-6.641000E+00	  0.083727457	1.312160E+02	  0.083727457	2.140100E+01	  0.083727457	1.913200E+01
320	  0.083927862	-6.655000E+00	  0.083927862	1.304390E+02	  0.083927862	2.155000E+01	  0.083927862	1.944700E+01
321	  0.084128261	-6.675000E+00	  0.084128261	1.297090E+02	  0.084128261	2.171400E+01	  0.084128261	1.973500E+01
322	  0.084328659	-6.693000E+00	  0.084328659	1.289310E+02	  0.084328659	2.188100E+01	  0.084328659	2.004600E+01
323	  0.084529065	-6.713000E+00	  0.084529065	1.281700E+02	  0.084529065	2.205500E+01	  0.084529065	2.034800E+01
324	  0.084729463	-6.730000E+00	  0.084729463	1.274110E+02	  0.084729463	2.222400E+01	  0.084729463	2.065100E+01
325	  0.084929861	-6.747000E+00	  0.084929861	1.266610E+02	  0.084929861	2.239400E+01	  0.084929861	2.095100E+01
326	  0.085130267	-6.769000E+00	  0.085130267	1.259490E+02	  0.085130267	2.257200E+01	  0.085130267	2.123100E+01
327	  0.085330658	-6.787000E+00	  0.085330658	1.252400E+02	  0.085330658	2.274300E+01	  0.085330658	2.151300E+01
328	  0.085531056	-6.805000E+00	  0.085531056	1.245340E+02	  0.085531056	2.291500E+01	  0.085531056	2.179400E+01
329	  0.085731462	-6.823000E+00	  0.085731462	1.238390E+02	  0.085731462	2.309000E+01	  0.085731462	2.207000E+01
330	  0.085931860	-6.846000E+00	  0.085931860	1.231380E+02	  0.085931860	2.328000E+01	  0.085931860	2.234400E+01
331	  0.086132258	-6.869000E+00	  0.086132258	1.224370E+02	  0.086132258	2.347300E+01	  0.086132258	2.261700E+01
332	  0.086332664	-6.890000E+00	  0.086332664	1.217250E+02	  0.086332664	2.366500E+01	  0.086332664	2.289700E+01
333	  0.086533062	-6.912000E+00	  0.086533062	1.210420E+02	  0.086533062	2.385800E+01	  0.086533062	2.316400E+01
334	  0.086733460	-6.931000E+00	  0.086733460	1.203440E+02	  0.086733460	2.404900E+01	  0.086733460	2.344000E+01
335	  0.086933866	-6.954000E+00	  0.086933866	1.196610E+02	  0.086933866	2.425100E+01	  0.086933866	2.370400E+01
336	  0.087134264	-6.980000E+00	  0.087134264	1.189660E+02	  0.087134264	2.446500E+01	  0.087134264	2.397000E+01
337	  0.087334670	-7.001000E+00	  0.087334670	1.183170E+02	  0.087334670	2.466000E+01	  0.087334670	2.422100E+01
338	  0.087535068	-7.027000E+00	  0.087535068	1.176440E+02	  0.087535068	2.487600E+01	  0.087535068	2.447600E+01
339	  0.087735467	-7.053000E+00	  0.087735467	1.169750E+02	  0.087735467	2.509500E+01	  0.087735467	2.472900E+01
340	  0.087935872	-7.080000E+00	  0.087935872	1.163050E+02	  0.087935872	2.531600E+01	  0.087935872	2.498100E+01
341	  0.088136271	-7.105000E+00	  0.088136271	1.156390E+02	  0.088136271	2.553600E+01	  0.088136271	2.523300E+01
342	  0.088336669	-7.132000E+00	  0.088336669	1.149770E+02	  0.088336669	2.576300E+01	  0.088336669	2.548000E+01
343	  0.088537075	-7.163000E+00	  0.088537075	1.143540E+02	  0.088537075	2.599700E+01	  0.088537075	2.570300E+01
344	  0.088737473	-7.187000E+00	  0.088737473	1.136970E+02	  0.088737473	2.621900E+01	  0.088737473	2.595100E+01
345	  0.088937871	-7.221000E+00	  0.088937871	1.130640E+02	  0.088937871	2.646800E+01	  0.088937871	2.617200E+01
346	  0.089138277	-7.256000E+00	  0.089138277	1.124100E+02	  0.089138277	2.672900E+01	  0.089138277	2.639800E+01
347	  0.089338675	-7.286000E+00	  0.089338675	1.117510E+02	  0.089338675	2.698000E+01	  0.089338675	2.663400E+01
348	  0.089539073	-7.320000E+00	  0.089539073	1.111020E+02	  0.089539073	2.724000E+01	  0.089539073	2.685900E+01
349	  0.089739479	-7.352000E+00	  0.089739479	1.104420E+02	  0.089739479	2.750100E+01	  0.089739479	2.709000E+01
350	  0.089939877	-7.379000E+00	  0.089939877	1.097690E+02	  0.089939877	2.775500E+01	  0.089939877	2.733400E+01
351	  0.090140276	-7.415000E+00	  0.090140276	1.090940E+02	  0.090140276	2.803900E+01	  0.090140276	2.756200E+01
352	  0.090340681	-7.443000E+00	  0.090340681	1.084240E+02	  0.090340681	2.830000E+01	  0.090340681	2.780100E+01
353	  0.090541080	-7.475000E+00	  0.090541080	1.077900E+02	  0.090541080	2.856700E+01	  0.090541080	2.801600E+01
354	  0.090741485	-7.505000E+00	  0.090741485	1.071200E+02	  0.090741485	2.884000E+01	  0.090741485	2.824900E+01
355	  0.090941884	-7.541000E+00	  0.090941884	1.064930E+02	  0.090941884	2.912300E+01	  0.090941884	2.845000E+01
356	  0.091142282	-7.563000E+00	  0.091142282	1.058320E+02	  0.091142282	2.937800E+01	  0.091142282	2.869200E+01
357	  0.091342688	-7.592000E+00	  0.091342688	1.052360E+02	  0.091342688	2.963800E+01	  0.091342688	2.889000E+01
358	  0.091543086	-7.621000E+00	  0.091543086	1.046030E+02	  0.091543086	2.990900E+01	  0.091543086	2.910500E+01
359	  0.091743484	-7.646000E+00	  0.091743484	1.040140E+02	  0.091743484	3.016100E+01	  0.091743484	2.930500E+01
360	  0.091943890	-7.676000E+00	  0.091943890	1.034150E+02	  0.091943890	3.043100E+01	  0.091943890	2.950100E+01
361	  0.092144288	-7.698000E+00	  0.092144288	1.028670E+02	  0.092144288	3.066600E+01	  0.092144288	2.968700E+01
362	  0.092344686	-7.735000E+00	  0.092344686	1.023010E+02	  0.092344686	3.095200E+01	  0.092344686	2.984900E+01
363	  0.092545092	-7.762000E+00	  0.092545092	1.017530E+02	  0.092545092	3.120500E+01	  0.092545092	3.002500E+01
364	  0.092745490	-7.797000E+00	  0.092745490	1.012390E+02	  0.092745490	3.147200E+01	  0.092745490	3.016600E+01
365	  0.092945889	-7.826000E+00	  0.092945889	1.006960E+02	  0.092945889	3.173400E+01	  0.092945889	3.033100E+01
366	  0.093146294	-7.861000E+00	  0.093146294	1.001740E+02	  0.093146294	3.200700E+01	  0.093146294	3.047200E+01
367	  0.093346693	-7.889000E+00	  0.093346693	9.964900E+01	  0.093346693	3.226500E+01	  0.093346693	3.062900E+01
368	  0.093547091	-7.924000E+00	  0.093547091	9.913300E+01	  0.093547091	3.254100E+01	  0.093547091	3.076400E+01
369	  0.093747497	-7.953000E+00	  0.093747497	9.861700E+01	  0.093747497	3.280200E+01	  0.093747497	3.091100E+01
370	  0.093947895	-7.990000E+00	  0.093947895	9.811800E+01	  0.093947895	3.307900E+01	  0.093947895	3.103200E+01
371	  0.094148301	-8.024000E+00	  0.094148301	9.761900E+01	  0.094148301	3.335200E+01	  0.094148301	3.115700E+01
372	  0.094348699	-8.061000E+00	  0.094348699	9.716800E+01	  0.094348699	3.361700E+01	  0.094348699	3.125300E+01
373	  0.094549097	-8.095000E+00	  0.094549097	9.668100E+01	  0.094549097	3.388700E+01	  0.094549097	3.137100E+01
374	  0.094749503	-8.131000E+00	  0.094749503	9.622800E+01	  0.094749503	3.415400E+01	  0.094749503	3.146500E+01
375	  0.094949901	-8.161000E+00	  0.094949901	9.577800E+01	  0.094949901	3.440300E+01	  0.094949901	3.157300E+01
376	  0.095150299	-8.195000E+00	  0.095150299	9.527500E+01	  0.095150299	3.468500E+01	  0.095150299	3.169000E+01
377	  0.095350705	-8.236000E+00	  0.095350705	9.483700E+01	  0.095350705	3.496300E+01	  0.095350705	3.176100E+01
378	  0.095551103	-8.266000E+00	  0.095551103	9.438800E+01	  0.095551103	3.521700E+01	  0.095551103	3.186100E+01
379	  0.095751502	-8.304000E+00	  0.095751502	9.393200E+01	  0.095751502	3.549500E+01	  0.095751502	3.194400E+01
380	  0.095951907	-8.342000E+00	  0.095951907	9.349200E+01	  0.095951907	3.577000E+01	  0.095951907	3.201600E+01
381	  0.096152306	-8.374000E+00	  0.096152306	9.306500E+01	  0.096152306	3.602200E+01	  0.096152306	3.210000E+01
382	  0.096352704	-8.407000E+00	  0.096352704	9.260800E+01	  0.096352704	3.629200E+01	  0.096352704	3.219000E+01
383	  0.096553110	-8.438000E+00	  0.096553110	9.218000E+01	  0.096553110	3.654800E+01	  0.096553110	3.227000E+01
384	  0.096753508	-8.473000E+00	  0.096753508	9.170400E+01	  0.096753508	3.683200E+01	  0.096753508	3.235800E+01
385	  0.096953906	-8.507000E+00	  0.096953906	9.126100E+01	  0.096953906	3.710400E+01	  0.096953906	3.243100E+01
386	  0.097154312	-8.535000E+00	  0.097154312	9.080300E+01	  0.097154312	3.736800E+01	  0.097154312	3.252600E+01
387	  0.097354710	-8.567000E+00	  0.097354710	9.038600E+01	  0.097354710	3.762300E+01	  0.097354710	3.259600E+01
388	  0.097555116	-8.593000E+00	  0.097555116	8.993600E+01	  0.097555116	3.788200E+01	  0.097555116	3.268800E+01
389	  0.097755514	-8.619000E+00	  0.097755514	8.951100E+01	  0.097755514	3.813000E+01	  0.097755514	3.277100E+01
390	  0.097955912	-8.636000E+00	  0.097955912	8.908200E+01	  0.097955912	3.836000E+01	  0.097955912	3.288100E+01
391	  0.098156318	-8.659000E+00	  0.098156318	8.867500E+01	  0.098156318	3.859600E+01	  0.098156318	3.296200E+01
392	  0.098356716	-8.677000E+00	  0.098356716	8.825700E+01	  0.098356716	3.882500E+01	  0.098356716	3.306200E+01
393	  0.098557115	-8.697000E+00	  0.098557115	8.788300E+01	  0.098557115	3.904100E+01	  0.098557115	3.313900E+01
394	  0.098757520	-8.707000E+00	  0.098757520	8.750000E+01	  0.098757520	3.923800E+01	  0.098757520	3.324900E+01
395	  0.098957919	-8.723000E+00	  0.098957919	8.711300E+01	  0.098957919	3.945300E+01	  0.098957919	3.333900E+01
396	  0.099158317	-8.739000E+00	  0.099158317	8.673000E+01	  0.099158317	3.966700E+01	  0.099158317	3.342800E+01
397	  0.099358723	-8.756000E+00	  0.099358723	8.640400E+01	  0.099358723	3.986000E+01	  0.099358723	3.349000E+01
398	  0.099559121	-8.767000E+00	  0.099559121	8.604700E+01	  0.099559121	4.005100E+01	  0.099559121	3.358400E+01
399	  0.099759519	-8.778000E+00	  0.099759519	8.571500E+01	  0.099759519	4.023300E+01	  0.099759519	3.366700E+01
400	  0.099959925	-8.779000E+00	  0.099959925	8.539500E+01	  0.099959925	4.038600E+01	  0.099959925	3.377700E+01
401	  0.100160323	-8.807000E+00	  0.100160323	8.508200E+01	  0.100160323	4.060300E+01	  0.100160323	3.379500E+01
402	  0.100360721	-8.809000E+00	  0.100360721	8.477500E+01	  0.100360721	4.075300E+01	  0.100360721	3.389700E+01
403	  0.100561127	-8.825000E+00	  0.100561127	8.443700E+01	  0.100561127	4.095400E+01	  0.100561127	3.396300E+01
404	  0.100761525	-8.826000E+00	  0.100761525	8.411200E+01	  0.100761525	4.111400E+01	  0.100761525	3.407200E+01
405	  0.100961931	-8.836000E+00	  0.100961931	8.382300E+01	  0.100961931	4.127800E+01	  0.100961931	3.413900E+01
406	  0.101162329	-8.851000E+00	  0.101162329	8.347500E+01	  0.101162329	4.148400E+01	  0.101162329	3.420900E+01
407	  0.101362728	-8.861000E+00	  0.101362728	8.317500E+01	  0.101362728	4.165500E+01	  0.101362728	3.427900E+01
408	  0.101563133	-8.866000E+00	  0.101563133	8.286900E+01	  0.101563133	4.181900E+01	  0.101563133	3.436500E+01
409	  0.101763532	-8.881000E+00	  0.101763532	8.248800E+01	  0.101763532	4.204500E+01	  0.101763532	3.444200E+01
410	  0.101963930	-8.884000E+00	  0.101963930	8.213500E+01	  0.101963930	4.223000E+01	  0.101963930	3.455200E+01
411	  0.102164336	-8.884000E+00	  0.102164336	8.184700E+01	  0.102164336	4.237800E+01	  0.102164336	3.464600E+01
412	  0.102364734	-8.886000E+00	  0.102364734	8.148000E+01	  0.102364734	4.257100E+01	  0.102364734	3.476100E+01
413	  0.102565132	-8.897000E+00	  0.102565132	8.115800E+01	  0.102565132	4.276300E+01	  0.102565132	3.482900E+01
414	  0.102765530	-8.898000E+00	  0.102765530	8.080300E+01	  0.102765530	4.295100E+01	  0.102765530	3.494100E+01
415	  0.102965929	-8.903000E+00	  0.102965929	8.044200E+01	  0.102965929	4.314900E+01	  0.102965929	3.504500E+01
416	  0.103166327	-8.899000E+00	  0.103166327	8.005400E+01	  0.103166327	4.334700E+01	  0.103166327	3.518400E+01
417	  0.103366733	-8.907000E+00	  0.103366733	7.966500E+01	  0.103366733	4.357100E+01	  0.103366733	3.528300E+01
418	  0.103567131	-8.903000E+00	  0.103567131	7.923600E+01	  0.103567131	4.379500E+01	  0.103567131	3.543300E+01
419	  0.103767529	-8.898000E+00	  0.103767529	7.883400E+01	  0.103767529	4.400400E+01	  0.103767529	3.557800E+01
420	  0.103967935	-8.895000E+00	  0.103967935	7.839900E+01	  0.103967935	4.423600E+01	  0.103967935	3.572900E+01
421	  0.104168333	-8.899000E+00	  0.104168333	7.797000E+01	  0.104168333	4.448100E+01	  0.104168333	3.585100E+01
422	  0.104368731	-8.892000E+00	  0.104368731	7.752300E+01	  0.104368731	4.471600E+01	  0.104368731	3.601800E+01
423	  0.104569137	-8.888000E+00	  0.104569137	7.706800E+01	  0.104569137	4.496600E+01	  0.104569137	3.617400E+01
424	  0.104769535	-8.870000E+00	  0.104769535	7.658900E+01	  0.104769535	4.520300E+01	  0.104769535	3.639000E+01
425	  0.104969934	-8.851000E+00	  0.104969934	7.615300E+01	  0.104969934	4.541600E+01	  0.104969934	3.659700E+01
426	  0.105170339	-8.843000E+00	  0.105170339	7.565200E+01	  0.105170339	4.569200E+01	  0.105170339	3.678300E+01
427	  0.105370738	-8.819000E+00	  0.105370738	7.518000E+01	  0.105370738	4.592200E+01	  0.105370738	3.702200E+01
428	  0.105571143	-8.809000E+00	  0.105571143	7.470200E+01	  0.105571143	4.618500E+01	  0.105571143	3.721100E+01
429	  0.105771542	-8.796000E+00	  0.105771542	7.420600E+01	  0.105771542	4.645900E+01	  0.105771542	3.741400E+01
430	  0.105971940	-8.773000E+00	  0.105971940	7.372000E+01	  0.105971940	4.671000E+01	  0.105971940	3.765300E+01
431	  0.106172346	-8.757000E+00	  0.106172346	7.327100E+01	  0.106172346	4.695600E+01	  0.106172346	3.785100E+01
432	  0.106372744	-8.735000E+00	  0.106372744	7.277500E+01	  0.106372744	4.722200E+01	  0.106372744	3.809100E+01
433	  0.106573142	-8.721000E+00	  0.106573142	7.232100E+01	  0.106573142	4.748100E+01	  0.106573142	3.828500E+01
434	  0.106773548	-8.706000E+00	  0.106773548	7.178400E+01	  0.106773548	4.779400E+01	  0.106773548	3.850900E+01
435	  0.106973946	-8.681000E+00	  0.106973946	7.134000E+01	  0.106973946	4.803100E+01	  0.106973946	3.874900E+01
436	  0.107174344	-8.666000E+00	  0.107174344	7.078000E+01	  0.107174344	4.836900E+01	  0.107174344	3.897700E+01
437	  0.107374750	-8.646000E+00	  0.107374750	7.025500E+01	  0.107374750	4.867700E+01	  0.107374750	3.922100E+01
438	  0.107575148	-8.626000E+00	  0.107575148	6.977600E+01	  0.107575148	4.896000E+01	  0.107575148	3.944600E+01
439	  0.107775547	-8.614000E+00	  0.107775547	6.925100E+01	  0.107775547	4.929200E+01	  0.107775547	3.965300E+01
440	  0.107975952	-8.601000E+00	  0.107975952	6.877200E+01	  0.107975952	4.959800E+01	  0.107975952	3.984400E+01
441	  0.108176351	-8.589000E+00	  0.108176351	6.819100E+01	  0.108176351	4.997900E+01	  0.108176351	4.006400E+01
442	  0.108376749	-8.581000E+00	  0.108376749	6.768500E+01	  0.108376749	5.032000E+01	  0.108376749	4.024200E+01
443	  0.108577155	-8.576000E+00	  0.108577155	6.715300E+01	  0.108577155	5.069000E+01	  0.108577155	4.041200E+01
444	  0.108777553	-8.566000E+00	  0.108777553	6.657800E+01	  0.108777553	5.108400E+01	  0.108777553	4.061900E+01
445	  0.108977959	-8.555000E+00	  0.108977959	6.603400E+01	  0.108977959	5.146300E+01	  0.108977959	4.081300E+01
446	  0.109178357	-8.549000E+00	  0.109178357	6.541400E+01	  0.109178357	5.191000E+01	  0.109178357	4.100500E+01
447	  0.109378755	-8.549000E+00	  0.109378755	6.487700E+01	  0.109378755	5.231000E+01	  0.109378755	4.114500E+01
448	  0.109579161	-8.544000E+00	  0.109579161	6.426200E+01	  0.109579161	5.276700E+01	  0.109579161	4.132600E+01
449	  0.109779559	-8.535000E+00	  0.109779559	6.369900E+01	  0.109779559	5.318300E+01	  0.109779559	4.150900E+01
450	  0.109979957	-8.536000E+00	  0.109979957	6.306900E+01	  0.109979957	5.367500E+01	  0.109979957	4.165300E+01
451	  0.110180363	-8.531000E+00	  0.110180363	6.247600E+01	  0.110180363	5.413300E+01	  0.110180363	4.181600E+01
452	  0.110380761	-8.521000E+00	  0.110380761	6.186600E+01	  0.110380761	5.460300E+01	  0.110380761	4.200700E+01
453	  0.110581160	-8.526000E+00	  0.110581160	6.120100E+01	  0.110581160	5.514500E+01	  0.110581160	4.213000E+01
454	  0.110781565	-8.517000E+00	  0.110781565	6.058200E+01	  0.110781565	5.563800E+01	  0.110781565	4.231000E+01
455	  0.110981964	-8.508000E+00	  0.110981964	5.989300E+01	  0.110981964	5.619600E+01	  0.110981964	4.249600E+01
456	  0.111182362	-8.509000E+00	  0.111182362	5.922100E+01	  0.111182362	5.676100E+01	  0.111182362	4.262400E+01
457	  0.111382768	-8.509000E+00	  0.111382768	5.852800E+01	  0.111382768	5.735100E+01	  0.111382768	4.275100E+01
458	  0.111583166	-8.495000E+00	  0.111583166	5.785500E+01	  0.111583166	5.791400E+01	  0.111583166	4.295200E+01
459	  0.111783572	-8.488000E+00	  0.111783572	5.716400E+01	  0.111783572	5.851100E+01	  0.111783572	4.310900E+01
460	  0.111983970	-8.479000E+00	  0.111983970	5.640900E+01	  0.111983970	5.917200E+01	  0.111983970	4.327800E+01
461	  0.112184368	-8.477000E+00	  0.112184368	5.570600E+01	  0.112184368	5.980200E+01	  0.112184368	4.339500E+01
462	  0.112384774	-8.467000E+00	  0.112384774	5.497700E+01	  0.112384774	6.045900E+01	  0.112384774	4.355400E+01
463	  0.112585172	-8.460000E+00	  0.112585172	5.428300E+01	  0.112585172	6.109500E+01	  0.112585172	4.368100E+01
464	  0.112785570	-8.455000E+00	  0.112785570	5.352500E+01	  0.112785570	6.180200E+01	  0.112785570	4.380100E+01
465	  0.112985976	-8.445000E+00	  0.112985976	5.276300E+01	  0.112985976	6.252100E+01	  0.112985976	4.393200E+01
466	  0.113186374	-8.438000E+00	  0.113186374	5.202400E+01	  0.113186374	6.323100E+01	  0.113186374	4.404100E+01
467	  0.113386773	-8.434000E+00	  0.113386773	5.127000E+01	  0.113386773	6.396700E+01	  0.113386773	4.412200E+01
468	  0.113587178	-8.425000E+00	  0.113587178	5.055400E+01	  0.113587178	6.467400E+01	  0.113587178	4.422000E+01
469	  0.113787577	-8.423000E+00	  0.113787577	4.972700E+01	  0.113787577	6.550400E+01	  0.113787577	4.426300E+01
470	  0.113987975	-8.425000E+00	  0.113987975	4.893600E+01	  0.113987975	6.631100E+01	  0.113987975	4.426800E+01
471	  0.114188381	-8.420000E+00	  0.114188381	4.820700E+01	  0.114188381	6.706200E+01	  0.114188381	4.430300E+01
472	  0.114388779	-8.420000E+00	  0.114388779	4.738800E+01	  0.114388779	6.791600E+01	  0.114388779	4.428600E+01
473	  0.114589177	-8.419000E+00	  0.114589177	4.658100E+01	  0.114589177	6.876900E+01	  0.114589177	4.426500E+01
474	  0.114789583	-8.433000E+00	  0.114789583	4.578700E+01	  0.114789583	6.961100E+01	  0.114789583	4.412200E+01
475	  0.114989981	-8.438000E+00	  0.114989981	4.494000E+01	  0.114989981	7.052100E+01	  0.114989981	4.401500E+01
476	  0.115190387	-8.445000E+00	  0.115190387	4.409900E+01	  0.115190387	7.143300E+01	  0.115190387	4.388000E+01
477	  0.115390785	-8.461000E+00	  0.115390785	4.322600E+01	  0.115390785	7.237700E+01	  0.115390785	4.364500E+01
478	  0.115591183	-8.469000E+00	  0.115591183	4.237400E+01	  0.115591183	7.331300E+01	  0.115591183	4.345200E+01
479	  0.115791589	-8.485000E+00	  0.115791589	4.147500E+01	  0.115791589	7.429500E+01	  0.115791589	4.316400E+01
480	  0.115991987	-8.505000E+00	  0.115991987	4.058300E+01	  0.115991987	7.526900E+01	  0.115991987	4.282800E+01
481	  0.116192386	-8.523000E+00	  0.116192386	3.969000E+01	  0.116192386	7.624600E+01	  0.116192386	4.246600E+01
482	  0.116392791	-8.543000E+00	  0.116392791	3.875200E+01	  0.116392791	7.727200E+01	  0.116392791	4.206000E+01
483	  0.116593190	-8.566000E+00	  0.116593190	3.779000E+01	  0.116593190	7.831500E+01	  0.116593190	4.158000E+01
484	  0.116793588	-8.588000E+00	  0.116793588	3.682800E+01	  0.116793588	7.936100E+01	  0.116793588	4.108200E+01
485	  0.116993994	-8.621000E+00	  0.116993994	3.584000E+01	  0.116993994	8.039900E+01	  0.116993994	4.045100E+01
486	  0.117194392	-8.652000E+00	  0.117194392	3.480000E+01	  0.117194392	8.149100E+01	  0.117194392	3.977700E+01
487	  0.117394790	-8.686000E+00	  0.117394790	3.378700E+01	  0.117394790	8.252900E+01	  0.117394790	3.904900E+01
488	  0.117595196	-8.719000E+00	  0.117595196	3.276800E+01	  0.117595196	8.355900E+01	  0.117595196	3.828600E+01
489	  0.117795594	-8.757000E+00	  0.117795594	3.169900E+01	  0.117795594	8.461000E+01	  0.117795594	3.742400E+01
490	  0.117995992	-8.791000E+00	  0.117995992	3.062100E+01	  0.117995992	8.566400E+01	  0.117995992	3.654200E+01
491	  0.118196398	-8.835000E+00	  0.118196398	2.953600E+01	  0.118196398	8.665600E+01	  0.118196398	3.554000E+01
492	  0.118396796	-8.879000E+00	  0.118396796	2.840900E+01	  0.118396796	8.766000E+01	  0.118396796	3.447000E+01
493	  0.118597202	-8.926000E+00	  0.118597202	2.728900E+01	  0.118597202	8.860600E+01	  0.118597202	3.334200E+01
494	  0.118797600	-8.977000E+00	  0.118797600	2.614000E+01	  0.118797600	8.952100E+01	  0.118797600	3.212600E+01
495	  0.118997999	-9.025000E+00	  0.118997999	2.497800E+01	  0.118997999	9.041500E+01	  0.118997999	3.087800E+01
496	  0.119198404	-9.086000E+00	  0.119198404	2.379400E+01	  0.119198404	9.120900E+01	  0.119198404	2.949500E+01
497	  0.119398803	-9.139000E+00	  0.119398803	2.261800E+01	  0.119398803	9.198500E+01	  0.119398803	2.813500E+01
498	  0.119599201	-9.210000E+00	  0.119599201	2.141500E+01	  0.119599201	9.261300E+01	  0.119599201	2.661300E+01
499	  0.119799607	-9.272000E+00	  0.119799607	2.018500E+01	  0.119799607	9.325300E+01	  0.119799607	2.509500E+01
500	  0.120000005	-9.346000E+00	  0.120000005	1.893900E+01	  0.120000005	9.376200E+01	  0.120000005	2.348100E+01
