! Anritsu VNA Master:             	Model: MS2036C/10/77
! SN:             	1601066
! /bd0/18may09/252.ns.m2.txt
! Existing Calibration Information:
! TYPE:             	Current Settings	Active Cal Settings
! TIME:             	05/09/2018 08:52:58 AM	05/09/2018 08:47:23 AM
! INTERNAL TEMP:    	39.8 C	40.0 C
! # POINTS:         	500	500
! START FREQ:       	20.000 MHz	20.000 MHz
! STOP FREQ:        	120.000 MHz	120.000 MHz
! SOURCE POWER:     	High	High
! IFBW:             	50 Hz	50 Hz
! AVG FACTOR:       	  1 	  1 
! REF PLANE 1:      	0 mm	0 mm
! REF PLANE 2:      	0 mm	0 mm
! CAL TYPE:         	Full S11	Full S11
! CAL METHOD:       	SOLT	SOLT
! CAL LINE TYPE:    	Coax	Coax
! DUT PORT 1:       	K-Conn(F)	K-Conn(F)
! DUT PORT 2:       	K-Conn(F)	K-Conn(F)
! CAL STATUS:       	OK: Accuracy High	--
! PROP-V:       	0.700
! CABLE LOSS:       	0.000 dB/m
! REF IMPEDANCE:       	50.0
! Trace Specific Parameters:	TR1	TR2	TR3	TR4
! TRACE.#.Y (GRAPH TYPE)	LOG MAG	PHASE	REAL IMPEDANCE	IMAGINARY IMPEDANCE
! TRACE.#.X 	FREQ.GHZ	FREQ.GHZ	FREQ.GHZ	FREQ.GHZ
! S-PARAMETER	S11	S11	S11	S11
! SMOOTH/APERTURE %	0	0	0	0
! WINDOW	NSL	NSL	NSL	NSL
! GATING	OFF	OFF	OFF	OFF
! FGTD	OFF	OFF	OFF	OFF
Marker Information per Trace:	TR1	TR2	TR3	TR4
!MK1	--	"MK1 TR2:  20.000 MHz,PH:-124.13°"	--	--
!MK2	--	--	"MK2 TR3:  70.100 200 MHz,Z:(16.417 ohm, -3.271 ohm)"	--
!MK3	--	--	--	--
!MK4	--	--	--	--
!MK5	--	--	--	--
!MK6	--	--	--	--
!MK7	--	--	--	--
!MK8	--	--	--	--
PNT	TR1.FREQ.GHZ	TR1.LOG MAG.dB	TR2.FREQ.GHZ	TR2.PHASE.deg	TR3.FREQ.GHZ	TR3.REAL IMPEDANCE.ohm	TR4.FREQ.GHZ	TR4.IMAGINARY IMPEDANCE.ohm
1	  0.020000000	-5.880000E-01	  0.020000000	-1.241300E+02	  0.020000000	2.167000E+00	  0.020000000	-2.647300E+01
2	  0.020200402	-5.890000E-01	  0.020200402	-1.255440E+02	  0.020200402	2.143000E+00	  0.020200402	-2.568900E+01
3	  0.020400802	-5.920000E-01	  0.020400802	-1.269790E+02	  0.020400802	2.126000E+00	  0.020400802	-2.490300E+01
4	  0.020601204	-5.930000E-01	  0.020601204	-1.284210E+02	  0.020601204	2.106000E+00	  0.020601204	-2.412400E+01
5	  0.020801604	-5.960000E-01	  0.020801604	-1.298690E+02	  0.020801604	2.090000E+00	  0.020801604	-2.335100E+01
6	  0.021002004	-6.040000E-01	  0.021002004	-1.313690E+02	  0.021002004	2.093000E+00	  0.021002004	-2.255900E+01
7	  0.021202406	-6.120000E-01	  0.021202406	-1.328670E+02	  0.021202406	2.096000E+00	  0.021202406	-2.177600E+01
8	  0.021402806	-6.170000E-01	  0.021402806	-1.343490E+02	  0.021402806	2.090000E+00	  0.021402806	-2.101200E+01
9	  0.021603208	-6.220000E-01	  0.021603208	-1.358460E+02	  0.021603208	2.083000E+00	  0.021603208	-2.024800E+01
10	  0.021803608	-6.260000E-01	  0.021803608	-1.373350E+02	  0.021803608	2.076000E+00	  0.021803608	-1.949700E+01
11	  0.022004008	-6.310000E-01	  0.022004008	-1.388410E+02	  0.022004008	2.072000E+00	  0.022004008	-1.874400E+01
12	  0.022204408	-6.380000E-01	  0.022204408	-1.403520E+02	  0.022204408	2.075000E+00	  0.022204408	-1.799700E+01
13	  0.022404809	-6.450000E-01	  0.022404809	-1.418730E+02	  0.022404809	2.077000E+00	  0.022404809	-1.725100E+01
14	  0.022605211	-6.480000E-01	  0.022605211	-1.434400E+02	  0.022605211	2.068000E+00	  0.022605211	-1.649000E+01
15	  0.022805611	-6.490000E-01	  0.022805611	-1.449990E+02	  0.022805611	2.055000E+00	  0.022805611	-1.574100E+01
16	  0.023006011	-6.540000E-01	  0.023006011	-1.465370E+02	  0.023006011	2.051000E+00	  0.023006011	-1.500700E+01
17	  0.023206413	-6.560000E-01	  0.023206413	-1.480600E+02	  0.023206413	2.043000E+00	  0.023206413	-1.428600E+01
18	  0.023406813	-6.590000E-01	  0.023406813	-1.496110E+02	  0.023406813	2.037000E+00	  0.023406813	-1.355800E+01
19	  0.023607215	-6.650000E-01	  0.023607215	-1.511560E+02	  0.023607215	2.040000E+00	  0.023607215	-1.283700E+01
20	  0.023807615	-6.720000E-01	  0.023807615	-1.527250E+02	  0.023807615	2.049000E+00	  0.023807615	-1.211100E+01
21	  0.024008015	-6.810000E-01	  0.024008015	-1.543060E+02	  0.024008015	2.062000E+00	  0.024008015	-1.138400E+01
22	  0.024208417	-6.890000E-01	  0.024208417	-1.559140E+02	  0.024208417	2.073000E+00	  0.024208417	-1.064900E+01
23	  0.024408817	-6.970000E-01	  0.024408817	-1.575250E+02	  0.024408817	2.084000E+00	  0.024408817	-9.917000E+00
24	  0.024609219	-7.060000E-01	  0.024609219	-1.591190E+02	  0.024609219	2.100000E+00	  0.024609219	-9.197000E+00
25	  0.024809619	-7.140000E-01	  0.024809619	-1.607310E+02	  0.024809619	2.113000E+00	  0.024809619	-8.473000E+00
26	  0.025010020	-7.240000E-01	  0.025010020	-1.623530E+02	  0.025010020	2.132000E+00	  0.025010020	-7.747000E+00
27	  0.025210422	-7.350000E-01	  0.025210422	-1.639790E+02	  0.025210422	2.157000E+00	  0.025210422	-7.023000E+00
28	  0.025410822	-7.480000E-01	  0.025410822	-1.656310E+02	  0.025410822	2.187000E+00	  0.025410822	-6.290000E+00
29	  0.025611224	-7.590000E-01	  0.025611224	-1.673010E+02	  0.025611224	2.212000E+00	  0.025611224	-5.552000E+00
30	  0.025811624	-7.690000E-01	  0.025811624	-1.689860E+02	  0.025811624	2.234000E+00	  0.025811624	-4.810000E+00
31	  0.026012026	-7.790000E-01	  0.026012026	-1.706690E+02	  0.026012026	2.257000E+00	  0.026012026	-4.071000E+00
32	  0.026212426	-7.890000E-01	  0.026212426	-1.723620E+02	  0.026212426	2.281000E+00	  0.026212426	-3.330000E+00
33	  0.026412826	-8.010000E-01	  0.026412826	-1.740600E+02	  0.026412826	2.311000E+00	  0.026412826	-2.588000E+00
34	  0.026613226	-8.140000E-01	  0.026613226	-1.757690E+02	  0.026613226	2.345000E+00	  0.026613226	-1.842000E+00
35	  0.026813626	-8.300000E-01	  0.026813626	-1.775000E+02	  0.026813626	2.388000E+00	  0.026813626	-1.088000E+00
36	  0.027014028	-8.450000E-01	  0.027014028	-1.792260E+02	  0.027014028	2.431000E+00	  0.027014028	-3.360000E-01
37	  0.027214428	-8.600000E-01	  0.027214428	1.790220E+02	  0.027214428	2.475000E+00	  0.027214428	4.250000E-01
38	  0.027414829	-8.750000E-01	  0.027414829	1.772640E+02	  0.027414829	2.517000E+00	  0.027414829	1.190000E+00
39	  0.027615231	-8.920000E-01	  0.027615231	1.754950E+02	  0.027615231	2.571000E+00	  0.027615231	1.961000E+00
40	  0.027815631	-9.100000E-01	  0.027815631	1.737220E+02	  0.027815631	2.626000E+00	  0.027815631	2.734000E+00
41	  0.028016033	-9.330000E-01	  0.028016033	1.719290E+02	  0.028016033	2.698000E+00	  0.028016033	3.517000E+00
42	  0.028216433	-9.550000E-01	  0.028216433	1.701380E+02	  0.028216433	2.768000E+00	  0.028216433	4.300000E+00
43	  0.028416833	-9.760000E-01	  0.028416833	1.683420E+02	  0.028416833	2.836000E+00	  0.028416833	5.088000E+00
44	  0.028617235	-9.970000E-01	  0.028617235	1.665330E+02	  0.028617235	2.907000E+00	  0.028617235	5.883000E+00
45	  0.028817635	-1.018000E+00	  0.028817635	1.647480E+02	  0.028817635	2.979000E+00	  0.028817635	6.671000E+00
46	  0.029018037	-1.038000E+00	  0.029018037	1.629580E+02	  0.029018037	3.051000E+00	  0.029018037	7.463000E+00
47	  0.029218437	-1.062000E+00	  0.029218437	1.611620E+02	  0.029218437	3.139000E+00	  0.029218437	8.262000E+00
48	  0.029418837	-1.089000E+00	  0.029418837	1.593560E+02	  0.029418837	3.233000E+00	  0.029418837	9.069000E+00
49	  0.029619239	-1.117000E+00	  0.029619239	1.575360E+02	  0.029619239	3.338000E+00	  0.029619239	9.886000E+00
50	  0.029819639	-1.148000E+00	  0.029819639	1.556980E+02	  0.029819639	3.454000E+00	  0.029819639	1.071600E+01
51	  0.030020041	-1.179000E+00	  0.030020041	1.538250E+02	  0.030020041	3.571000E+00	  0.030020041	1.156700E+01
52	  0.030220442	-1.210000E+00	  0.030220442	1.519490E+02	  0.030220442	3.694000E+00	  0.030220442	1.242500E+01
53	  0.030420844	-1.242000E+00	  0.030420844	1.500730E+02	  0.030420844	3.823000E+00	  0.030420844	1.329000E+01
54	  0.030621244	-1.274000E+00	  0.030621244	1.482050E+02	  0.030621244	3.957000E+00	  0.030621244	1.415700E+01
55	  0.030821644	-1.308000E+00	  0.030821644	1.463370E+02	  0.030821644	4.102000E+00	  0.030821644	1.503200E+01
56	  0.031022044	-1.344000E+00	  0.031022044	1.444520E+02	  0.031022044	4.257000E+00	  0.031022044	1.592200E+01
57	  0.031222444	-1.378000E+00	  0.031222444	1.425760E+02	  0.031222444	4.409000E+00	  0.031222444	1.681700E+01
58	  0.031422846	-1.413000E+00	  0.031422846	1.406510E+02	  0.031422846	4.575000E+00	  0.031422846	1.774400E+01
59	  0.031623244	-1.449000E+00	  0.031623244	1.387050E+02	  0.031623244	4.748000E+00	  0.031623244	1.869100E+01
60	  0.031823646	-1.479000E+00	  0.031823646	1.367430E+02	  0.031823646	4.908000E+00	  0.031823646	1.965900E+01
61	  0.032024048	-1.510000E+00	  0.032024048	1.348030E+02	  0.032024048	5.080000E+00	  0.032024048	2.062700E+01
62	  0.032224450	-1.543000E+00	  0.032224450	1.328670E+02	  0.032224450	5.264000E+00	  0.032224450	2.160500E+01
63	  0.032424849	-1.573000E+00	  0.032424849	1.309510E+02	  0.032424849	5.448000E+00	  0.032424849	2.258700E+01
64	  0.032625251	-1.606000E+00	  0.032625251	1.289970E+02	  0.032625251	5.647000E+00	  0.032625251	2.360100E+01
65	  0.032825653	-1.641000E+00	  0.032825653	1.270600E+02	  0.032825653	5.866000E+00	  0.032825653	2.462100E+01
66	  0.033026051	-1.681000E+00	  0.033026051	1.251190E+02	  0.033026051	6.111000E+00	  0.033026051	2.565500E+01
67	  0.033226453	-1.729000E+00	  0.033226453	1.231460E+02	  0.033226453	6.396000E+00	  0.033226453	2.672100E+01
68	  0.033426855	-1.777000E+00	  0.033426855	1.211730E+02	  0.033426855	6.696000E+00	  0.033426855	2.780400E+01
69	  0.033627257	-1.825000E+00	  0.033627257	1.191460E+02	  0.033627257	7.014000E+00	  0.033627257	2.893400E+01
70	  0.033827655	-1.871000E+00	  0.033827655	1.170750E+02	  0.033827655	7.342000E+00	  0.033827655	3.011200E+01
71	  0.034028057	-1.919000E+00	  0.034028057	1.149790E+02	  0.034028057	7.698000E+00	  0.034028057	3.132500E+01
72	  0.034228459	-1.962000E+00	  0.034228459	1.128700E+02	  0.034228459	8.055000E+00	  0.034228459	3.257400E+01
73	  0.034428857	-2.007000E+00	  0.034428857	1.107450E+02	  0.034428857	8.440000E+00	  0.034428857	3.385700E+01
74	  0.034629259	-2.047000E+00	  0.034629259	1.086350E+02	  0.034629259	8.826000E+00	  0.034629259	3.516100E+01
75	  0.034829661	-2.086000E+00	  0.034829661	1.065200E+02	  0.034829661	9.235000E+00	  0.034829661	3.649800E+01
76	  0.035030060	-2.125000E+00	  0.035030060	1.044100E+02	  0.035030060	9.662000E+00	  0.035030060	3.786400E+01
77	  0.035230462	-2.166000E+00	  0.035230462	1.023060E+02	  0.035230462	1.012600E+01	  0.035230462	3.925600E+01
78	  0.035430863	-2.205000E+00	  0.035430863	1.002370E+02	  0.035430863	1.060600E+01	  0.035430863	4.065900E+01
79	  0.035631265	-2.247000E+00	  0.035631265	9.815200E+01	  0.035631265	1.113000E+01	  0.035631265	4.210600E+01
80	  0.035831664	-2.290000E+00	  0.035831664	9.609100E+01	  0.035831664	1.169100E+01	  0.035831664	4.357000E+01
81	  0.036032066	-2.336000E+00	  0.036032066	9.402500E+01	  0.036032066	1.230200E+01	  0.036032066	4.507100E+01
82	  0.036232468	-2.382000E+00	  0.036232468	9.197400E+01	  0.036232468	1.295000E+01	  0.036232468	4.660000E+01
83	  0.036432866	-2.432000E+00	  0.036432866	8.994100E+01	  0.036432866	1.366100E+01	  0.036432866	4.814800E+01
84	  0.036633268	-2.488000E+00	  0.036633268	8.787600E+01	  0.036633268	1.445700E+01	  0.036633268	4.975300E+01
85	  0.036833670	-2.548000E+00	  0.036833670	8.583100E+01	  0.036833670	1.533400E+01	  0.036833670	5.137400E+01
86	  0.037034072	-2.610000E+00	  0.037034072	8.374100E+01	  0.037034072	1.629000E+01	  0.037034072	5.307200E+01
87	  0.037234470	-2.671000E+00	  0.037234470	8.162000E+01	  0.037234470	1.731900E+01	  0.037234470	5.484400E+01
88	  0.037434869	-2.735000E+00	  0.037434869	7.948100E+01	  0.037434869	1.845300E+01	  0.037434869	5.667200E+01
89	  0.037635271	-2.799000E+00	  0.037635271	7.732400E+01	  0.037635271	1.968300E+01	  0.037635271	5.856300E+01
90	  0.037835669	-2.866000E+00	  0.037835669	7.515500E+01	  0.037835669	2.103300E+01	  0.037835669	6.050900E+01
91	  0.038036071	-2.937000E+00	  0.038036071	7.299900E+01	  0.038036071	2.251900E+01	  0.038036071	6.247300E+01
92	  0.038236473	-2.992000E+00	  0.038236473	7.090000E+01	  0.038236473	2.397400E+01	  0.038236473	6.448200E+01
93	  0.038436871	-3.044000E+00	  0.038436871	6.876900E+01	  0.038436871	2.555300E+01	  0.038436871	6.658600E+01
94	  0.038637273	-3.086000E+00	  0.038637273	6.662400E+01	  0.038637273	2.720100E+01	  0.038637273	6.880300E+01
95	  0.038837675	-3.134000E+00	  0.038837675	6.450600E+01	  0.038837675	2.901400E+01	  0.038837675	7.102700E+01
96	  0.039038073	-3.182000E+00	  0.039038073	6.241900E+01	  0.039038073	3.097000E+01	  0.039038073	7.326600E+01
97	  0.039238475	-3.233000E+00	  0.039238475	6.033500E+01	  0.039238475	3.311300E+01	  0.039238475	7.553700E+01
98	  0.039438877	-3.288000E+00	  0.039438877	5.828400E+01	  0.039438877	3.545100E+01	  0.039438877	7.778200E+01
99	  0.039639279	-3.349000E+00	  0.039639279	5.621500E+01	  0.039639279	3.805900E+01	  0.039639279	8.004000E+01
100	  0.039839678	-3.414000E+00	  0.039839678	5.413500E+01	  0.039839678	4.095200E+01	  0.039839678	8.229300E+01
101	  0.040040080	-3.477000E+00	  0.040040080	5.202500E+01	  0.040040080	4.411800E+01	  0.040040080	8.459900E+01
102	  0.040240481	-3.543000E+00	  0.040240481	4.991400E+01	  0.040240481	4.761000E+01	  0.040240481	8.685000E+01
103	  0.040440880	-3.608000E+00	  0.040440880	4.779500E+01	  0.040440880	5.141100E+01	  0.040440880	8.908100E+01
104	  0.040641282	-3.670000E+00	  0.040641282	4.568800E+01	  0.040641282	5.551300E+01	  0.040641282	9.124900E+01
105	  0.040841684	-3.731000E+00	  0.040841684	4.356800E+01	  0.040841684	5.999300E+01	  0.040841684	9.334900E+01
106	  0.041042086	-3.794000E+00	  0.041042086	4.145500E+01	  0.041042086	6.487800E+01	  0.041042086	9.526700E+01
107	  0.041242484	-3.853000E+00	  0.041242484	3.931800E+01	  0.041242484	7.021300E+01	  0.041242484	9.706300E+01
108	  0.041442886	-3.911000E+00	  0.041442886	3.719000E+01	  0.041442886	7.597000E+01	  0.041442886	9.861500E+01
109	  0.041643288	-3.966000E+00	  0.041643288	3.506100E+01	  0.041643288	8.219100E+01	  0.041643288	9.988300E+01
110	  0.041843686	-4.021000E+00	  0.041843686	3.296100E+01	  0.041843686	8.881400E+01	  0.041843686	1.007180E+02
111	  0.042044088	-4.074000E+00	  0.042044088	3.088100E+01	  0.042044088	9.583000E+01	  0.042044088	1.011090E+02
112	  0.042244490	-4.124000E+00	  0.042244490	2.881700E+01	  0.042244490	1.032390E+02	  0.042244490	1.009490E+02
113	  0.042444889	-4.178000E+00	  0.042444889	2.677400E+01	  0.042444889	1.109900E+02	  0.042444889	1.000330E+02
114	  0.042645290	-4.232000E+00	  0.042645290	2.472600E+01	  0.042645290	1.190910E+02	  0.042645290	9.830100E+01
115	  0.042845692	-4.282000E+00	  0.042845692	2.267300E+01	  0.042845692	1.274760E+02	  0.042845692	9.573200E+01
116	  0.043046094	-4.334000E+00	  0.043046094	2.065100E+01	  0.043046094	1.358580E+02	  0.043046094	9.214200E+01
117	  0.043246493	-4.386000E+00	  0.043246493	1.861400E+01	  0.043246493	1.442670E+02	  0.043246493	8.742700E+01
118	  0.043446895	-4.436000E+00	  0.043446895	1.657700E+01	  0.043446895	1.524700E+02	  0.043446895	8.157000E+01
119	  0.043647297	-4.488000E+00	  0.043647297	1.455500E+01	  0.043647297	1.601470E+02	  0.043647297	7.452200E+01
120	  0.043847695	-4.539000E+00	  0.043847695	1.256100E+01	  0.043847695	1.670440E+02	  0.043847695	6.644200E+01
121	  0.044048097	-4.591000E+00	  0.044048097	1.055300E+01	  0.044048097	1.730750E+02	  0.044048097	5.725500E+01
122	  0.044248499	-4.642000E+00	  0.044248499	8.557000E+00	  0.044248499	1.779740E+02	  0.044248499	4.726500E+01
123	  0.044448901	-4.691000E+00	  0.044448901	6.579000E+00	  0.044448901	1.816180E+02	  0.044448901	3.671600E+01
124	  0.044649299	-4.738000E+00	  0.044649299	4.593000E+00	  0.044649299	1.839490E+02	  0.044649299	2.570600E+01
125	  0.044849701	-4.783000E+00	  0.044849701	2.613000E+00	  0.044849701	1.849260E+02	  0.044849701	1.456400E+01
126	  0.045050103	-4.826000E+00	  0.045050103	6.560000E-01	  0.045050103	1.844840E+02	  0.045050103	3.613000E+00
127	  0.045250501	-4.869000E+00	  0.045250501	-1.290000E+00	  0.045250501	1.827470E+02	  0.045250501	-6.973000E+00
128	  0.045450903	-4.910000E+00	  0.045450903	-3.218000E+00	  0.045450903	1.798350E+02	  0.045450903	-1.693900E+01
129	  0.045651305	-4.952000E+00	  0.045651305	-5.137000E+00	  0.045651305	1.758780E+02	  0.045651305	-2.618000E+01
130	  0.045851704	-4.996000E+00	  0.045851704	-7.035000E+00	  0.045851704	1.710480E+02	  0.045851704	-3.449100E+01
131	  0.046052106	-5.036000E+00	  0.046052106	-8.950000E+00	  0.046052106	1.655880E+02	  0.046052106	-4.203000E+01
132	  0.046252504	-5.075000E+00	  0.046252504	-1.083800E+01	  0.046252504	1.597490E+02	  0.046252504	-4.859300E+01
133	  0.046452906	-5.110000E+00	  0.046452906	-1.271600E+01	  0.046452906	1.536690E+02	  0.046452906	-5.430000E+01
134	  0.046653304	-5.144000E+00	  0.046653304	-1.462900E+01	  0.046653304	1.473090E+02	  0.046653304	-5.929300E+01
135	  0.046853706	-5.177000E+00	  0.046853706	-1.648500E+01	  0.046853706	1.410220E+02	  0.046853706	-6.331900E+01
136	  0.047054108	-5.210000E+00	  0.047054108	-1.836500E+01	  0.047054108	1.346650E+02	  0.047054108	-6.665400E+01
137	  0.047254506	-5.240000E+00	  0.047254506	-2.022100E+01	  0.047254506	1.285130E+02	  0.047254506	-6.933900E+01
138	  0.047454908	-5.266000E+00	  0.047454908	-2.206300E+01	  0.047454908	1.225830E+02	  0.047454908	-7.148100E+01
139	  0.047655310	-5.293000E+00	  0.047655310	-2.386800E+01	  0.047655310	1.169200E+02	  0.047655310	-7.302400E+01
140	  0.047855709	-5.322000E+00	  0.047855709	-2.565400E+01	  0.047855709	1.115160E+02	  0.047855709	-7.407100E+01
141	  0.048056111	-5.351000E+00	  0.048056111	-2.747200E+01	  0.048056111	1.062430E+02	  0.048056111	-7.473500E+01
142	  0.048256513	-5.378000E+00	  0.048256513	-2.924300E+01	  0.048256513	1.013540E+02	  0.048256513	-7.506600E+01
143	  0.048456915	-5.405000E+00	  0.048456915	-3.101600E+01	  0.048456915	9.669900E+01	  0.048456915	-7.513100E+01
144	  0.048657313	-5.426000E+00	  0.048657313	-3.279700E+01	  0.048657313	9.227000E+01	  0.048657313	-7.501700E+01
145	  0.048857715	-5.447000E+00	  0.048857715	-3.456300E+01	  0.048857715	8.810700E+01	  0.048857715	-7.471100E+01
146	  0.049058117	-5.473000E+00	  0.049058117	-3.634000E+01	  0.049058117	8.415200E+01	  0.049058117	-7.412200E+01
147	  0.049258515	-5.491000E+00	  0.049258515	-3.807500E+01	  0.049258515	8.049500E+01	  0.049258515	-7.351800E+01
148	  0.049458917	-5.514000E+00	  0.049458917	-3.981600E+01	  0.049458917	7.704000E+01	  0.049458917	-7.270900E+01
149	  0.049659319	-5.536000E+00	  0.049659319	-4.154600E+01	  0.049659319	7.379900E+01	  0.049659319	-7.182200E+01
150	  0.049859721	-5.553000E+00	  0.049859721	-4.326200E+01	  0.049859721	7.075300E+01	  0.049859721	-7.091500E+01
151	  0.050060119	-5.573000E+00	  0.050060119	-4.499200E+01	  0.050060119	6.786800E+01	  0.050060119	-6.988800E+01
152	  0.050260521	-5.587000E+00	  0.050260521	-4.672000E+01	  0.050260521	6.513400E+01	  0.050260521	-6.886300E+01
153	  0.050460923	-5.604000E+00	  0.050460923	-4.844200E+01	  0.050460923	6.257200E+01	  0.050460923	-6.776800E+01
154	  0.050661322	-5.612000E+00	  0.050661322	-5.013000E+01	  0.050661322	6.017300E+01	  0.050661322	-6.672500E+01
155	  0.050861724	-5.624000E+00	  0.050861724	-5.180400E+01	  0.050861724	5.793500E+01	  0.050861724	-6.562700E+01
156	  0.051062126	-5.635000E+00	  0.051062126	-5.344500E+01	  0.051062126	5.585800E+01	  0.051062126	-6.453300E+01
157	  0.051262524	-5.647000E+00	  0.051262524	-5.505200E+01	  0.051262524	5.393800E+01	  0.051262524	-6.343000E+01
158	  0.051462926	-5.659000E+00	  0.051462926	-5.664600E+01	  0.051462926	5.213200E+01	  0.051462926	-6.232500E+01
159	  0.051663328	-5.669000E+00	  0.051663328	-5.823600E+01	  0.051663328	5.041800E+01	  0.051663328	-6.122700E+01
160	  0.051863730	-5.685000E+00	  0.051863730	-5.983400E+01	  0.051863730	4.880700E+01	  0.051863730	-6.008100E+01
161	  0.052064128	-5.702000E+00	  0.052064128	-6.143600E+01	  0.052064128	4.728000E+01	  0.052064128	-5.892800E+01
162	  0.052264530	-5.713000E+00	  0.052264530	-6.302500E+01	  0.052264530	4.582300E+01	  0.052264530	-5.781900E+01
163	  0.052464932	-5.729000E+00	  0.052464932	-6.461100E+01	  0.052464932	4.446100E+01	  0.052464932	-5.668800E+01
164	  0.052665330	-5.745000E+00	  0.052665330	-6.618800E+01	  0.052665330	4.317300E+01	  0.052665330	-5.557400E+01
165	  0.052865732	-5.756000E+00	  0.052865732	-6.778600E+01	  0.052865732	4.191800E+01	  0.052865732	-5.447300E+01
166	  0.053066134	-5.765000E+00	  0.053066134	-6.935300E+01	  0.053066134	4.073300E+01	  0.053066134	-5.341800E+01
167	  0.053266536	-5.774000E+00	  0.053266536	-7.093600E+01	  0.053266536	3.960100E+01	  0.053266536	-5.235300E+01
168	  0.053466935	-5.781000E+00	  0.053466935	-7.250800E+01	  0.053466935	3.851800E+01	  0.053466935	-5.131700E+01
169	  0.053667337	-5.786000E+00	  0.053667337	-7.404200E+01	  0.053667337	3.750300E+01	  0.053667337	-5.032300E+01
170	  0.053867739	-5.788000E+00	  0.053867739	-7.559300E+01	  0.053867739	3.651600E+01	  0.053867739	-4.933300E+01
171	  0.054068137	-5.795000E+00	  0.054068137	-7.710600E+01	  0.054068137	3.561400E+01	  0.054068137	-4.835900E+01
172	  0.054268539	-5.797000E+00	  0.054268539	-7.861400E+01	  0.054268539	3.473600E+01	  0.054268539	-4.741500E+01
173	  0.054468941	-5.805000E+00	  0.054468941	-8.006400E+01	  0.054468941	3.395200E+01	  0.054468941	-4.649300E+01
174	  0.054669339	-5.808000E+00	  0.054669339	-8.150500E+01	  0.054669339	3.318600E+01	  0.054669339	-4.560500E+01
175	  0.054869737	-5.817000E+00	  0.054869737	-8.294800E+01	  0.054869737	3.247300E+01	  0.054869737	-4.470400E+01
176	  0.055070139	-5.825000E+00	  0.055070139	-8.437100E+01	  0.055070139	3.179900E+01	  0.055070139	-4.382600E+01
177	  0.055270538	-5.831000E+00	  0.055270538	-8.580300E+01	  0.055270538	3.113900E+01	  0.055270538	-4.295900E+01
178	  0.055470940	-5.840000E+00	  0.055470940	-8.724700E+01	  0.055470940	3.051400E+01	  0.055470940	-4.208600E+01
179	  0.055671342	-5.846000E+00	  0.055671342	-8.866300E+01	  0.055671342	2.991700E+01	  0.055671342	-4.124500E+01
180	  0.055871744	-5.858000E+00	  0.055871744	-9.005800E+01	  0.055871744	2.937100E+01	  0.055871744	-4.041200E+01
181	  0.056072142	-5.865000E+00	  0.056072142	-9.145900E+01	  0.056072142	2.882700E+01	  0.056072142	-3.959800E+01
182	  0.056272544	-5.871000E+00	  0.056272544	-9.288400E+01	  0.056272544	2.829200E+01	  0.056272544	-3.878200E+01
183	  0.056472946	-5.878000E+00	  0.056472946	-9.426300E+01	  0.056472946	2.780000E+01	  0.056472946	-3.799800E+01
184	  0.056673344	-5.882000E+00	  0.056673344	-9.564800E+01	  0.056673344	2.731500E+01	  0.056673344	-3.722400E+01
185	  0.056873746	-5.883000E+00	  0.056873746	-9.702600E+01	  0.056873746	2.683800E+01	  0.056873746	-3.647000E+01
186	  0.057074148	-5.881000E+00	  0.057074148	-9.838300E+01	  0.057074148	2.637800E+01	  0.057074148	-3.574100E+01
187	  0.057274550	-5.885000E+00	  0.057274550	-9.974100E+01	  0.057274550	2.595100E+01	  0.057274550	-3.500700E+01
188	  0.057474948	-5.884000E+00	  0.057474948	-1.010760E+02	  0.057474948	2.553200E+01	  0.057474948	-3.430100E+01
189	  0.057675350	-5.886000E+00	  0.057675350	-1.023840E+02	  0.057675350	2.514700E+01	  0.057675350	-3.360900E+01
190	  0.057875752	-5.889000E+00	  0.057875752	-1.036960E+02	  0.057875752	2.477700E+01	  0.057875752	-3.292000E+01
191	  0.058076151	-5.887000E+00	  0.058076151	-1.049570E+02	  0.058076151	2.441800E+01	  0.058076151	-3.227200E+01
192	  0.058276553	-5.887000E+00	  0.058276553	-1.062060E+02	  0.058276553	2.408000E+01	  0.058276553	-3.163300E+01
193	  0.058476955	-5.890000E+00	  0.058476955	-1.074600E+02	  0.058476955	2.376200E+01	  0.058476955	-3.099200E+01
194	  0.058677353	-5.890000E+00	  0.058677353	-1.087440E+02	  0.058677353	2.343600E+01	  0.058677353	-3.034600E+01
195	  0.058877755	-5.895000E+00	  0.058877755	-1.099950E+02	  0.058877755	2.314900E+01	  0.058877755	-2.971300E+01
196	  0.059078157	-5.896000E+00	  0.059078157	-1.112400E+02	  0.059078157	2.285600E+01	  0.059078157	-2.909600E+01
197	  0.059278559	-5.898000E+00	  0.059278559	-1.125070E+02	  0.059278559	2.257500E+01	  0.059278559	-2.847100E+01
198	  0.059478957	-5.900000E+00	  0.059478957	-1.137870E+02	  0.059478957	2.229800E+01	  0.059478957	-2.784500E+01
199	  0.059679359	-5.900000E+00	  0.059679359	-1.150210E+02	  0.059679359	2.203500E+01	  0.059679359	-2.724900E+01
200	  0.059879761	-5.898000E+00	  0.059879761	-1.162530E+02	  0.059879761	2.177600E+01	  0.059879761	-2.666100E+01
201	  0.060080159	-5.897000E+00	  0.060080159	-1.175000E+02	  0.060080159	2.152300E+01	  0.060080159	-2.606900E+01
202	  0.060280561	-5.896000E+00	  0.060280561	-1.187330E+02	  0.060280561	2.128400E+01	  0.060280561	-2.548700E+01
203	  0.060480963	-5.894000E+00	  0.060480963	-1.199400E+02	  0.060480963	2.105300E+01	  0.060480963	-2.492400E+01
204	  0.060681365	-5.891000E+00	  0.060681365	-1.211460E+02	  0.060681365	2.082600E+01	  0.060681365	-2.436500E+01
205	  0.060881764	-5.889000E+00	  0.060881764	-1.223810E+02	  0.060881764	2.060300E+01	  0.060881764	-2.379700E+01
206	  0.061082166	-5.889000E+00	  0.061082166	-1.235810E+02	  0.061082166	2.040300E+01	  0.061082166	-2.324500E+01
207	  0.061282568	-5.881000E+00	  0.061282568	-1.247600E+02	  0.061282568	2.018800E+01	  0.061282568	-2.271500E+01
208	  0.061482966	-5.877000E+00	  0.061482966	-1.259230E+02	  0.061482966	1.999100E+01	  0.061482966	-2.219200E+01
209	  0.061683368	-5.877000E+00	  0.061683368	-1.270720E+02	  0.061683368	1.981600E+01	  0.061683368	-2.167400E+01
210	  0.061883770	-5.874000E+00	  0.061883770	-1.282180E+02	  0.061883770	1.963800E+01	  0.061883770	-2.116200E+01
211	  0.062084168	-5.869000E+00	  0.062084168	-1.293660E+02	  0.062084168	1.946000E+01	  0.062084168	-2.065500E+01
212	  0.062284570	-5.869000E+00	  0.062284570	-1.305110E+02	  0.062284570	1.930200E+01	  0.062284570	-2.014700E+01
213	  0.062484972	-5.867000E+00	  0.062484972	-1.316030E+02	  0.062484972	1.914900E+01	  0.062484972	-1.966800E+01
214	  0.062685370	-5.866000E+00	  0.062685370	-1.327490E+02	  0.062685370	1.900000E+01	  0.062685370	-1.916500E+01
215	  0.062885776	-5.866000E+00	  0.062885776	-1.338990E+02	  0.062885776	1.885400E+01	  0.062885776	-1.866400E+01
216	  0.063086174	-5.870000E+00	  0.063086174	-1.350650E+02	  0.063086174	1.872600E+01	  0.063086174	-1.815500E+01
217	  0.063286573	-5.869000E+00	  0.063286573	-1.362050E+02	  0.063286573	1.859000E+01	  0.063286573	-1.766400E+01
218	  0.063486971	-5.868000E+00	  0.063486971	-1.373470E+02	  0.063486971	1.846000E+01	  0.063486971	-1.717400E+01
219	  0.063687377	-5.864000E+00	  0.063687377	-1.384550E+02	  0.063687377	1.832600E+01	  0.063687377	-1.670400E+01
220	  0.063887775	-5.859000E+00	  0.063887775	-1.396190E+02	  0.063887775	1.819200E+01	  0.063887775	-1.621100E+01
221	  0.064088173	-5.860000E+00	  0.064088173	-1.407220E+02	  0.064088173	1.808200E+01	  0.064088173	-1.574400E+01
222	  0.064288579	-5.855000E+00	  0.064288579	-1.418610E+02	  0.064288579	1.795800E+01	  0.064288579	-1.526700E+01
223	  0.064488977	-5.854000E+00	  0.064488977	-1.429460E+02	  0.064488977	1.785100E+01	  0.064488977	-1.481200E+01
224	  0.064689375	-5.852000E+00	  0.064689375	-1.440360E+02	  0.064689375	1.774800E+01	  0.064689375	-1.435800E+01
225	  0.064889781	-5.849000E+00	  0.064889781	-1.450930E+02	  0.064889781	1.764700E+01	  0.064889781	-1.391900E+01
226	  0.065090179	-5.849000E+00	  0.065090179	-1.461770E+02	  0.065090179	1.755700E+01	  0.065090179	-1.346900E+01
227	  0.065290578	-5.849000E+00	  0.065290578	-1.472320E+02	  0.065290578	1.746900E+01	  0.065290578	-1.303300E+01
228	  0.065490983	-5.848000E+00	  0.065490983	-1.482900E+02	  0.065490983	1.738600E+01	  0.065490983	-1.259700E+01
229	  0.065691382	-5.847000E+00	  0.065691382	-1.493550E+02	  0.065691382	1.730200E+01	  0.065691382	-1.216100E+01
230	  0.065891780	-5.852000E+00	  0.065891780	-1.504370E+02	  0.065891780	1.723700E+01	  0.065891780	-1.171600E+01
231	  0.066092186	-5.854000E+00	  0.066092186	-1.514820E+02	  0.066092186	1.717300E+01	  0.066092186	-1.128800E+01
232	  0.066292584	-5.852000E+00	  0.066292584	-1.525510E+02	  0.066292584	1.709700E+01	  0.066292584	-1.085500E+01
233	  0.066492982	-5.854000E+00	  0.066492982	-1.535870E+02	  0.066492982	1.703700E+01	  0.066492982	-1.043400E+01
234	  0.066693388	-5.853000E+00	  0.066693388	-1.546160E+02	  0.066693388	1.696900E+01	  0.066693388	-1.001900E+01
235	  0.066893786	-5.853000E+00	  0.066893786	-1.556650E+02	  0.066893786	1.690800E+01	  0.066893786	-9.596000E+00
236	  0.067094192	-5.856000E+00	  0.067094192	-1.566830E+02	  0.067094192	1.686200E+01	  0.067094192	-9.186000E+00
237	  0.067294590	-5.857000E+00	  0.067294590	-1.577130E+02	  0.067294590	1.680900E+01	  0.067294590	-8.772000E+00
238	  0.067494988	-5.859000E+00	  0.067494988	-1.587520E+02	  0.067494988	1.676300E+01	  0.067494988	-8.356000E+00
239	  0.067695394	-5.860000E+00	  0.067695394	-1.597560E+02	  0.067695394	1.671800E+01	  0.067695394	-7.955000E+00
240	  0.067895792	-5.865000E+00	  0.067895792	-1.607780E+02	  0.067895792	1.668500E+01	  0.067895792	-7.547000E+00
241	  0.068096191	-5.864000E+00	  0.068096191	-1.617950E+02	  0.068096191	1.663900E+01	  0.068096191	-7.143000E+00
242	  0.068296596	-5.868000E+00	  0.068296596	-1.627760E+02	  0.068296596	1.660800E+01	  0.068296596	-6.753000E+00
243	  0.068496995	-5.865000E+00	  0.068496995	-1.637930E+02	  0.068496995	1.656100E+01	  0.068496995	-6.351000E+00
244	  0.068697393	-5.867000E+00	  0.068697393	-1.647750E+02	  0.068697393	1.653300E+01	  0.068697393	-5.963000E+00
245	  0.068897791	-5.872000E+00	  0.068897791	-1.657460E+02	  0.068897791	1.651400E+01	  0.068897791	-5.578000E+00
246	  0.069098189	-5.872000E+00	  0.069098189	-1.667350E+02	  0.069098189	1.648300E+01	  0.069098189	-5.189000E+00
247	  0.069298595	-5.876000E+00	  0.069298595	-1.677220E+02	  0.069298595	1.646400E+01	  0.069298595	-4.800000E+00
248	  0.069498993	-5.881000E+00	  0.069498993	-1.686950E+02	  0.069498993	1.645100E+01	  0.069498993	-4.417000E+00
249	  0.069699399	-5.885000E+00	  0.069699399	-1.696510E+02	  0.069699399	1.644000E+01	  0.069699399	-4.041000E+00
250	  0.069899797	-5.887000E+00	  0.069899797	-1.706220E+02	  0.069899797	1.642200E+01	  0.069899797	-3.660000E+00
251	  0.070100196	-5.892000E+00	  0.070100196	-1.716160E+02	  0.070100196	1.641700E+01	  0.070100196	-3.271000E+00
252	  0.070300601	-5.895000E+00	  0.070300601	-1.725860E+02	  0.070300601	1.640700E+01	  0.070300601	-2.891000E+00
253	  0.070501000	-5.894000E+00	  0.070501000	-1.735190E+02	  0.070501000	1.639000E+01	  0.070501000	-2.527000E+00
254	  0.070701398	-5.900000E+00	  0.070701398	-1.744930E+02	  0.070701398	1.639300E+01	  0.070701398	-2.146000E+00
255	  0.070901804	-5.902000E+00	  0.070901804	-1.754530E+02	  0.070901804	1.638700E+01	  0.070901804	-1.772000E+00
256	  0.071102202	-5.907000E+00	  0.071102202	-1.764070E+02	  0.071102202	1.639100E+01	  0.071102202	-1.399000E+00
257	  0.071302600	-5.913000E+00	  0.071302600	-1.773610E+02	  0.071302600	1.639900E+01	  0.071302600	-1.027000E+00
258	  0.071503006	-5.918000E+00	  0.071503006	-1.782850E+02	  0.071503006	1.640700E+01	  0.071503006	-6.670000E-01
259	  0.071703404	-5.925000E+00	  0.071703404	-1.792290E+02	  0.071703404	1.642400E+01	  0.071703404	-2.990000E-01
260	  0.071903802	-5.926000E+00	  0.071903802	1.798510E+02	  0.071903802	1.642600E+01	  0.071903802	5.700000E-02
261	  0.072104208	-5.935000E+00	  0.072104208	1.789180E+02	  0.072104208	1.645000E+01	  0.072104208	4.200000E-01
262	  0.072304606	-5.937000E+00	  0.072304606	1.780000E+02	  0.072304606	1.645800E+01	  0.072304606	7.780000E-01
263	  0.072505005	-5.943000E+00	  0.072505005	1.770830E+02	  0.072505005	1.647900E+01	  0.072505005	1.134000E+00
264	  0.072705410	-5.948000E+00	  0.072705410	1.761400E+02	  0.072705410	1.649700E+01	  0.072705410	1.501000E+00
265	  0.072905809	-5.956000E+00	  0.072905809	1.752450E+02	  0.072905809	1.652700E+01	  0.072905809	1.849000E+00
266	  0.073106214	-5.959000E+00	  0.073106214	1.743500E+02	  0.073106214	1.654500E+01	  0.073106214	2.197000E+00
267	  0.073306613	-5.964000E+00	  0.073306613	1.734450E+02	  0.073306613	1.657100E+01	  0.073306613	2.549000E+00
268	  0.073507011	-5.973000E+00	  0.073507011	1.725240E+02	  0.073507011	1.660700E+01	  0.073507011	2.907000E+00
269	  0.073707417	-5.978000E+00	  0.073707417	1.716310E+02	  0.073707417	1.663600E+01	  0.073707417	3.254000E+00
270	  0.073907815	-5.983000E+00	  0.073907815	1.707430E+02	  0.073907815	1.666900E+01	  0.073907815	3.600000E+00
271	  0.074108213	-5.985000E+00	  0.074108213	1.698630E+02	  0.074108213	1.669200E+01	  0.074108213	3.943000E+00
272	  0.074308619	-5.998000E+00	  0.074308619	1.689450E+02	  0.074308619	1.674800E+01	  0.074308619	4.300000E+00
273	  0.074509017	-6.004000E+00	  0.074509017	1.680680E+02	  0.074509017	1.678500E+01	  0.074509017	4.641000E+00
274	  0.074709415	-6.010000E+00	  0.074709415	1.671880E+02	  0.074709415	1.682600E+01	  0.074709415	4.984000E+00
275	  0.074909821	-6.020000E+00	  0.074909821	1.663320E+02	  0.074909821	1.687900E+01	  0.074909821	5.317000E+00
276	  0.075110219	-6.029000E+00	  0.075110219	1.654500E+02	  0.075110219	1.693100E+01	  0.075110219	5.661000E+00
277	  0.075310618	-6.035000E+00	  0.075310618	1.646150E+02	  0.075310618	1.697500E+01	  0.075310618	5.987000E+00
278	  0.075511023	-6.046000E+00	  0.075511023	1.637630E+02	  0.075511023	1.703500E+01	  0.075511023	6.319000E+00
279	  0.075711422	-6.057000E+00	  0.075711422	1.628890E+02	  0.075711422	1.709700E+01	  0.075711422	6.659000E+00
280	  0.075911827	-6.065000E+00	  0.075911827	1.620120E+02	  0.075911827	1.715300E+01	  0.075911827	7.002000E+00
281	  0.076112226	-6.077000E+00	  0.076112226	1.611410E+02	  0.076112226	1.722300E+01	  0.076112226	7.341000E+00
282	  0.076312624	-6.084000E+00	  0.076312624	1.602700E+02	  0.076312624	1.728000E+01	  0.076312624	7.683000E+00
283	  0.076513030	-6.095000E+00	  0.076513030	1.593890E+02	  0.076513030	1.735000E+01	  0.076513030	8.027000E+00
284	  0.076713428	-6.104000E+00	  0.076713428	1.585410E+02	  0.076713428	1.741700E+01	  0.076713428	8.359000E+00
285	  0.076913826	-6.114000E+00	  0.076913826	1.577020E+02	  0.076913826	1.748500E+01	  0.076913826	8.688000E+00
286	  0.077114232	-6.122000E+00	  0.077114232	1.568680E+02	  0.077114232	1.755200E+01	  0.077114232	9.016000E+00
287	  0.077314630	-6.129000E+00	  0.077314630	1.559940E+02	  0.077314630	1.761900E+01	  0.077314630	9.360000E+00
288	  0.077515028	-6.136000E+00	  0.077515028	1.551660E+02	  0.077515028	1.768600E+01	  0.077515028	9.687000E+00
289	  0.077715434	-6.148000E+00	  0.077715434	1.543430E+02	  0.077715434	1.776700E+01	  0.077715434	1.001000E+01
290	  0.077915832	-6.161000E+00	  0.077915832	1.535030E+02	  0.077915832	1.785500E+01	  0.077915832	1.034000E+01
291	  0.078116231	-6.173000E+00	  0.078116231	1.526750E+02	  0.078116231	1.794000E+01	  0.078116231	1.066600E+01
292	  0.078316636	-6.182000E+00	  0.078316636	1.518390E+02	  0.078316636	1.802100E+01	  0.078316636	1.099600E+01
293	  0.078517035	-6.198000E+00	  0.078517035	1.509900E+02	  0.078517035	1.812300E+01	  0.078517035	1.132900E+01
294	  0.078717433	-6.209000E+00	  0.078717433	1.501790E+02	  0.078717433	1.821300E+01	  0.078717433	1.165000E+01
295	  0.078917839	-6.224000E+00	  0.078917839	1.493810E+02	  0.078917839	1.831100E+01	  0.078917839	1.196400E+01
296	  0.079118237	-6.237000E+00	  0.079118237	1.485450E+02	  0.079118237	1.841200E+01	  0.079118237	1.229400E+01
297	  0.079318643	-6.248000E+00	  0.079318643	1.477540E+02	  0.079318643	1.850400E+01	  0.079318643	1.260800E+01
298	  0.079519041	-6.261000E+00	  0.079519041	1.469200E+02	  0.079519041	1.860800E+01	  0.079519041	1.293800E+01
299	  0.079719439	-6.277000E+00	  0.079719439	1.461010E+02	  0.079719439	1.871900E+01	  0.079719439	1.326100E+01
300	  0.079919845	-6.290000E+00	  0.079919845	1.452820E+02	  0.079919845	1.882600E+01	  0.079919845	1.358700E+01
301	  0.080120243	-6.302000E+00	  0.080120243	1.444860E+02	  0.080120243	1.893300E+01	  0.080120243	1.390300E+01
302	  0.080320641	-6.318000E+00	  0.080320641	1.436740E+02	  0.080320641	1.905200E+01	  0.080320641	1.422400E+01
303	  0.080521047	-6.332000E+00	  0.080521047	1.428910E+02	  0.080521047	1.916300E+01	  0.080521047	1.453600E+01
304	  0.080721445	-6.343000E+00	  0.080721445	1.420640E+02	  0.080721445	1.927400E+01	  0.080721445	1.486800E+01
305	  0.080921844	-6.358000E+00	  0.080921844	1.412950E+02	  0.080921844	1.939300E+01	  0.080921844	1.517300E+01
306	  0.081122249	-6.373000E+00	  0.081122249	1.405030E+02	  0.081122249	1.951700E+01	  0.081122249	1.548800E+01
307	  0.081322648	-6.390000E+00	  0.081322648	1.397350E+02	  0.081322648	1.964300E+01	  0.081322648	1.579300E+01
308	  0.081523046	-6.404000E+00	  0.081523046	1.389170E+02	  0.081523046	1.977400E+01	  0.081523046	1.612000E+01
309	  0.081723452	-6.416000E+00	  0.081723452	1.381580E+02	  0.081723452	1.989100E+01	  0.081723452	1.642600E+01
310	  0.081923850	-6.438000E+00	  0.081923850	1.374310E+02	  0.081923850	2.003600E+01	  0.081923850	1.671000E+01
311	  0.082124248	-6.457000E+00	  0.082124248	1.366470E+02	  0.082124248	2.017900E+01	  0.082124248	1.702200E+01
312	  0.082324654	-6.475000E+00	  0.082324654	1.359030E+02	  0.082324654	2.031900E+01	  0.082324654	1.731700E+01
313	  0.082525052	-6.494000E+00	  0.082525052	1.351660E+02	  0.082525052	2.046400E+01	  0.082525052	1.760800E+01
314	  0.082725458	-6.513000E+00	  0.082725458	1.343830E+02	  0.082725458	2.061600E+01	  0.082725458	1.792000E+01
315	  0.082925856	-6.534000E+00	  0.082925856	1.336120E+02	  0.082925856	2.077400E+01	  0.082925856	1.822500E+01
316	  0.083126254	-6.558000E+00	  0.083126254	1.328150E+02	  0.083126254	2.094700E+01	  0.083126254	1.853700E+01
317	  0.083326660	-6.572000E+00	  0.083326660	1.320530E+02	  0.083326660	2.109000E+01	  0.083326660	1.884500E+01
318	  0.083527058	-6.594000E+00	  0.083527058	1.312970E+02	  0.083527058	2.125600E+01	  0.083527058	1.914300E+01
319	  0.083727457	-6.612000E+00	  0.083727457	1.305400E+02	  0.083727457	2.141700E+01	  0.083727457	1.944500E+01
320	  0.083927862	-6.630000E+00	  0.083927862	1.297770E+02	  0.083927862	2.157800E+01	  0.083927862	1.975000E+01
321	  0.084128261	-6.651000E+00	  0.084128261	1.290670E+02	  0.084128261	2.174400E+01	  0.084128261	2.003000E+01
322	  0.084328659	-6.669000E+00	  0.084328659	1.283240E+02	  0.084328659	2.191000E+01	  0.084328659	2.032700E+01
323	  0.084529065	-6.693000E+00	  0.084529065	1.275590E+02	  0.084529065	2.209600E+01	  0.084529065	2.062700E+01
324	  0.084729463	-6.710000E+00	  0.084729463	1.268390E+02	  0.084729463	2.226100E+01	  0.084729463	2.091500E+01
325	  0.084929861	-6.734000E+00	  0.084929861	1.260940E+02	  0.084929861	2.245100E+01	  0.084929861	2.120700E+01
326	  0.085130267	-6.756000E+00	  0.085130267	1.253980E+02	  0.085130267	2.263000E+01	  0.085130267	2.148000E+01
327	  0.085330658	-6.777000E+00	  0.085330658	1.246820E+02	  0.085330658	2.281100E+01	  0.085330658	2.176300E+01
328	  0.085531056	-6.802000E+00	  0.085531056	1.239870E+02	  0.085531056	2.300200E+01	  0.085531056	2.203200E+01
329	  0.085731462	-6.823000E+00	  0.085731462	1.232690E+02	  0.085731462	2.319000E+01	  0.085731462	2.231600E+01
330	  0.085931860	-6.847000E+00	  0.085931860	1.225720E+02	  0.085931860	2.338800E+01	  0.085931860	2.258500E+01
331	  0.086132258	-6.871000E+00	  0.086132258	1.218430E+02	  0.086132258	2.359200E+01	  0.086132258	2.286900E+01
332	  0.086332664	-6.897000E+00	  0.086332664	1.211420E+02	  0.086332664	2.379700E+01	  0.086332664	2.313900E+01
333	  0.086533062	-6.921000E+00	  0.086533062	1.204300E+02	  0.086533062	2.400300E+01	  0.086533062	2.341600E+01
334	  0.086733460	-6.940000E+00	  0.086733460	1.196940E+02	  0.086733460	2.420500E+01	  0.086733460	2.370800E+01
335	  0.086933866	-6.963000E+00	  0.086933866	1.190070E+02	  0.086933866	2.440800E+01	  0.086933866	2.397500E+01
336	  0.087134264	-6.989000E+00	  0.087134264	1.182780E+02	  0.087134264	2.463200E+01	  0.087134264	2.425500E+01
337	  0.087334670	-7.013000E+00	  0.087334670	1.176170E+02	  0.087334670	2.484200E+01	  0.087334670	2.450800E+01
338	  0.087535068	-7.037000E+00	  0.087535068	1.169040E+02	  0.087535068	2.506400E+01	  0.087535068	2.478300E+01
339	  0.087735467	-7.063000E+00	  0.087735467	1.162140E+02	  0.087735467	2.528900E+01	  0.087735467	2.504500E+01
340	  0.087935872	-7.087000E+00	  0.087935872	1.155370E+02	  0.087935872	2.550800E+01	  0.087935872	2.530400E+01
341	  0.088136271	-7.109000E+00	  0.088136271	1.148380E+02	  0.088136271	2.573200E+01	  0.088136271	2.557400E+01
342	  0.088336669	-7.134000E+00	  0.088336669	1.141970E+02	  0.088336669	2.595100E+01	  0.088336669	2.581600E+01
343	  0.088537075	-7.162000E+00	  0.088537075	1.135330E+02	  0.088537075	2.618700E+01	  0.088537075	2.606100E+01
344	  0.088737473	-7.184000E+00	  0.088737473	1.128730E+02	  0.088737473	2.641000E+01	  0.088737473	2.631300E+01
345	  0.088937871	-7.215000E+00	  0.088937871	1.122590E+02	  0.088937871	2.664900E+01	  0.088937871	2.653000E+01
346	  0.089138277	-7.248000E+00	  0.089138277	1.116040E+02	  0.089138277	2.690600E+01	  0.089138277	2.676100E+01
347	  0.089338675	-7.277000E+00	  0.089338675	1.109330E+02	  0.089338675	2.716000E+01	  0.089338675	2.700500E+01
348	  0.089539073	-7.310000E+00	  0.089539073	1.102840E+02	  0.089539073	2.742400E+01	  0.089539073	2.723000E+01
349	  0.089739479	-7.338000E+00	  0.089739479	1.096550E+02	  0.089739479	2.767000E+01	  0.089739479	2.745400E+01
350	  0.089939877	-7.370000E+00	  0.089939877	1.089990E+02	  0.089939877	2.793600E+01	  0.089939877	2.768300E+01
351	  0.090140276	-7.402000E+00	  0.090140276	1.083680E+02	  0.090140276	2.819700E+01	  0.090140276	2.790000E+01
352	  0.090340681	-7.431000E+00	  0.090340681	1.077020E+02	  0.090340681	2.846600E+01	  0.090340681	2.813500E+01
353	  0.090541080	-7.461000E+00	  0.090541080	1.070690E+02	  0.090541080	2.873000E+01	  0.090541080	2.835300E+01
354	  0.090741485	-7.493000E+00	  0.090741485	1.064480E+02	  0.090741485	2.899800E+01	  0.090741485	2.856200E+01
355	  0.090941884	-7.531000E+00	  0.090941884	1.058250E+02	  0.090941884	2.928800E+01	  0.090941884	2.875700E+01
356	  0.091142282	-7.553000E+00	  0.091142282	1.051970E+02	  0.091142282	2.953700E+01	  0.091142282	2.898500E+01
357	  0.091342688	-7.588000E+00	  0.091342688	1.045910E+02	  0.091342688	2.982000E+01	  0.091342688	2.917500E+01
358	  0.091543086	-7.619000E+00	  0.091543086	1.039770E+02	  0.091543086	3.009500E+01	  0.091543086	2.937700E+01
359	  0.091743484	-7.646000E+00	  0.091743484	1.033940E+02	  0.091743484	3.035400E+01	  0.091743484	2.957100E+01
360	  0.091943890	-7.680000E+00	  0.091943890	1.027970E+02	  0.091943890	3.063700E+01	  0.091943890	2.975600E+01
361	  0.092144288	-7.707000E+00	  0.092144288	1.022350E+02	  0.092144288	3.089400E+01	  0.092144288	2.993800E+01
362	  0.092344686	-7.746000E+00	  0.092344686	1.016500E+02	  0.092344686	3.119200E+01	  0.092344686	3.010400E+01
363	  0.092545092	-7.779000E+00	  0.092545092	1.011270E+02	  0.092545092	3.146000E+01	  0.092545092	3.025200E+01
364	  0.092745490	-7.815000E+00	  0.092745490	1.005640E+02	  0.092745490	3.174600E+01	  0.092745490	3.041200E+01
365	  0.092945889	-7.847000E+00	  0.092945889	1.000080E+02	  0.092945889	3.202500E+01	  0.092945889	3.057400E+01
366	  0.093146294	-7.884000E+00	  0.093146294	9.945000E+01	  0.093146294	3.231900E+01	  0.093146294	3.072400E+01
367	  0.093346693	-7.916000E+00	  0.093346693	9.889800E+01	  0.093346693	3.260100E+01	  0.093346693	3.088100E+01
368	  0.093547091	-7.948000E+00	  0.093547091	9.834100E+01	  0.093547091	3.288500E+01	  0.093547091	3.103900E+01
369	  0.093747497	-7.982000E+00	  0.093747497	9.779300E+01	  0.093747497	3.317500E+01	  0.093747497	3.118500E+01
370	  0.093947895	-8.017000E+00	  0.093947895	9.725500E+01	  0.093947895	3.346600E+01	  0.093947895	3.132400E+01
371	  0.094148301	-8.051000E+00	  0.094148301	9.675000E+01	  0.094148301	3.374500E+01	  0.094148301	3.144800E+01
372	  0.094348699	-8.088000E+00	  0.094348699	9.625200E+01	  0.094348699	3.402900E+01	  0.094348699	3.156200E+01
373	  0.094549097	-8.119000E+00	  0.094549097	9.572900E+01	  0.094549097	3.431000E+01	  0.094549097	3.169800E+01
374	  0.094749503	-8.154000E+00	  0.094749503	9.523400E+01	  0.094749503	3.459200E+01	  0.094749503	3.181000E+01
375	  0.094949901	-8.181000E+00	  0.094949901	9.475700E+01	  0.094949901	3.484900E+01	  0.094949901	3.193200E+01
376	  0.095150299	-8.210000E+00	  0.095150299	9.424400E+01	  0.095150299	3.512600E+01	  0.095150299	3.206400E+01
377	  0.095350705	-8.247000E+00	  0.095350705	9.378200E+01	  0.095350705	3.540500E+01	  0.095350705	3.215300E+01
378	  0.095551103	-8.277000E+00	  0.095551103	9.333700E+01	  0.095551103	3.566200E+01	  0.095551103	3.225100E+01
379	  0.095751502	-8.309000E+00	  0.095751502	9.289200E+01	  0.095751502	3.592500E+01	  0.095751502	3.234000E+01
380	  0.095951907	-8.341000E+00	  0.095951907	9.243400E+01	  0.095951907	3.619500E+01	  0.095951907	3.243400E+01
381	  0.096152306	-8.372000E+00	  0.096152306	9.202300E+01	  0.096152306	3.644400E+01	  0.096152306	3.251000E+01
382	  0.096352704	-8.404000E+00	  0.096352704	9.156400E+01	  0.096352704	3.671700E+01	  0.096352704	3.260100E+01
383	  0.096553110	-8.431000E+00	  0.096553110	9.114500E+01	  0.096553110	3.696100E+01	  0.096553110	3.268700E+01
384	  0.096753508	-8.465000E+00	  0.096753508	9.068600E+01	  0.096753508	3.724200E+01	  0.096753508	3.276800E+01
385	  0.096953906	-8.494000E+00	  0.096953906	9.026700E+01	  0.096953906	3.749400E+01	  0.096953906	3.284500E+01
386	  0.097154312	-8.521000E+00	  0.097154312	8.982300E+01	  0.097154312	3.775300E+01	  0.097154312	3.293600E+01
387	  0.097354710	-8.549000E+00	  0.097354710	8.941600E+01	  0.097354710	3.800000E+01	  0.097354710	3.300800E+01
388	  0.097555116	-8.581000E+00	  0.097555116	8.901300E+01	  0.097555116	3.825600E+01	  0.097555116	3.306600E+01
389	  0.097755514	-8.604000E+00	  0.097755514	8.860000E+01	  0.097755514	3.849500E+01	  0.097755514	3.315200E+01
390	  0.097955912	-8.628000E+00	  0.097955912	8.817600E+01	  0.097955912	3.874300E+01	  0.097955912	3.323800E+01
391	  0.098156318	-8.652000E+00	  0.098156318	8.780800E+01	  0.098156318	3.896700E+01	  0.098156318	3.330100E+01
392	  0.098356716	-8.672000E+00	  0.098356716	8.738200E+01	  0.098356716	3.921000E+01	  0.098356716	3.339400E+01
393	  0.098557115	-8.696000E+00	  0.098557115	8.701200E+01	  0.098557115	3.943500E+01	  0.098557115	3.345800E+01
394	  0.098757520	-8.711000E+00	  0.098757520	8.663300E+01	  0.098757520	3.964700E+01	  0.098757520	3.354600E+01
395	  0.098957919	-8.734000E+00	  0.098957919	8.627500E+01	  0.098957919	3.986700E+01	  0.098957919	3.360500E+01
396	  0.099158317	-8.753000E+00	  0.099158317	8.588600E+01	  0.099158317	4.009400E+01	  0.099158317	3.368500E+01
397	  0.099358723	-8.769000E+00	  0.099358723	8.553900E+01	  0.099358723	4.029700E+01	  0.099358723	3.375500E+01
398	  0.099559121	-8.785000E+00	  0.099559121	8.516700E+01	  0.099559121	4.051100E+01	  0.099559121	3.383600E+01
399	  0.099759519	-8.799000E+00	  0.099759519	8.480400E+01	  0.099759519	4.071700E+01	  0.099759519	3.391900E+01
400	  0.099959925	-8.808000E+00	  0.099959925	8.450800E+01	  0.099959925	4.088100E+01	  0.099959925	3.399200E+01
401	  0.100160323	-8.827000E+00	  0.100160323	8.412400E+01	  0.100160323	4.111200E+01	  0.100160323	3.406300E+01
402	  0.100360721	-8.843000E+00	  0.100360721	8.375700E+01	  0.100360721	4.132800E+01	  0.100360721	3.413800E+01
403	  0.100561127	-8.853000E+00	  0.100561127	8.347600E+01	  0.100561127	4.148800E+01	  0.100561127	3.420200E+01
404	  0.100761525	-8.859000E+00	  0.100761525	8.308900E+01	  0.100761525	4.169400E+01	  0.100761525	3.431300E+01
405	  0.100961931	-8.868000E+00	  0.100961931	8.274800E+01	  0.100961931	4.188600E+01	  0.100961931	3.439800E+01
406	  0.101162329	-8.877000E+00	  0.101162329	8.238500E+01	  0.101162329	4.208900E+01	  0.101162329	3.449000E+01
407	  0.101362728	-8.887000E+00	  0.101362728	8.202600E+01	  0.101362728	4.229300E+01	  0.101362728	3.457700E+01
408	  0.101563133	-8.890000E+00	  0.101563133	8.167900E+01	  0.101563133	4.247700E+01	  0.101563133	3.468300E+01
409	  0.101763532	-8.898000E+00	  0.101763532	8.130200E+01	  0.101763532	4.269000E+01	  0.101763532	3.477800E+01
410	  0.101963930	-8.904000E+00	  0.101963930	8.092900E+01	  0.101963930	4.289600E+01	  0.101963930	3.488300E+01
411	  0.102164336	-8.903000E+00	  0.102164336	8.059400E+01	  0.102164336	4.307100E+01	  0.102164336	3.499300E+01
412	  0.102364734	-8.891000E+00	  0.102364734	8.021900E+01	  0.102364734	4.324200E+01	  0.102364734	3.515800E+01
413	  0.102565132	-8.904000E+00	  0.102565132	7.988900E+01	  0.102565132	4.344600E+01	  0.102565132	3.521900E+01
414	  0.102765530	-8.896000E+00	  0.102765530	7.951800E+01	  0.102765530	4.362800E+01	  0.102765530	3.536700E+01
415	  0.102965929	-8.899000E+00	  0.102965929	7.916200E+01	  0.102965929	4.382600E+01	  0.102965929	3.547200E+01
416	  0.103166327	-8.892000E+00	  0.103166327	7.877200E+01	  0.103166327	4.402400E+01	  0.103166327	3.562200E+01
417	  0.103366733	-8.895000E+00	  0.103366733	7.841200E+01	  0.103366733	4.422800E+01	  0.103366733	3.572600E+01
418	  0.103567131	-8.886000E+00	  0.103567131	7.798700E+01	  0.103567131	4.444600E+01	  0.103567131	3.589200E+01
419	  0.103767529	-8.880000E+00	  0.103767529	7.758100E+01	  0.103767529	4.465900E+01	  0.103767529	3.604400E+01
420	  0.103967935	-8.869000E+00	  0.103967935	7.718900E+01	  0.103967935	4.485900E+01	  0.103967935	3.620600E+01
421	  0.104168333	-8.870000E+00	  0.104168333	7.679700E+01	  0.104168333	4.508300E+01	  0.104168333	3.632600E+01
422	  0.104368731	-8.867000E+00	  0.104368731	7.637800E+01	  0.104368731	4.531700E+01	  0.104368731	3.647000E+01
423	  0.104569137	-8.858000E+00	  0.104569137	7.596400E+01	  0.104569137	4.553900E+01	  0.104569137	3.663200E+01
424	  0.104769535	-8.842000E+00	  0.104769535	7.549900E+01	  0.104769535	4.577900E+01	  0.104769535	3.683600E+01
425	  0.104969934	-8.828000E+00	  0.104969934	7.506300E+01	  0.104969934	4.600800E+01	  0.104969934	3.702500E+01
426	  0.105170339	-8.819000E+00	  0.105170339	7.458200E+01	  0.105170339	4.627900E+01	  0.105170339	3.720500E+01
427	  0.105370738	-8.807000E+00	  0.105370738	7.415200E+01	  0.105370738	4.651400E+01	  0.105370738	3.738500E+01
428	  0.105571143	-8.792000E+00	  0.105571143	7.373900E+01	  0.105571143	4.673700E+01	  0.105571143	3.756800E+01
429	  0.105771542	-8.785000E+00	  0.105771542	7.327900E+01	  0.105771542	4.700500E+01	  0.105771542	3.773600E+01
430	  0.105971940	-8.767000E+00	  0.105971940	7.277300E+01	  0.105971940	4.728600E+01	  0.105971940	3.796000E+01
431	  0.106172346	-8.755000E+00	  0.106172346	7.232500E+01	  0.106172346	4.754400E+01	  0.106172346	3.814400E+01
432	  0.106372744	-8.732000E+00	  0.106372744	7.186600E+01	  0.106372744	4.779100E+01	  0.106372744	3.837800E+01
433	  0.106573142	-8.726000E+00	  0.106573142	7.136200E+01	  0.106573142	4.810400E+01	  0.106573142	3.855000E+01
434	  0.106773548	-8.710000E+00	  0.106773548	7.085200E+01	  0.106773548	4.840500E+01	  0.106773548	3.876600E+01
435	  0.106973946	-8.688000E+00	  0.106973946	7.036100E+01	  0.106973946	4.868700E+01	  0.106973946	3.900300E+01
436	  0.107174344	-8.679000E+00	  0.107174344	6.979600E+01	  0.107174344	4.904700E+01	  0.107174344	3.920500E+01
437	  0.107374750	-8.660000E+00	  0.107374750	6.929900E+01	  0.107374750	4.934600E+01	  0.107374750	3.943300E+01
438	  0.107575148	-8.654000E+00	  0.107575148	6.875700E+01	  0.107575148	4.970700E+01	  0.107575148	3.960800E+01
439	  0.107775547	-8.634000E+00	  0.107775547	6.823700E+01	  0.107775547	5.002900E+01	  0.107775547	3.984600E+01
440	  0.107975952	-8.628000E+00	  0.107975952	6.770800E+01	  0.107975952	5.038900E+01	  0.107975952	4.001700E+01
441	  0.108176351	-8.616000E+00	  0.108176351	6.714000E+01	  0.108176351	5.076900E+01	  0.108176351	4.023100E+01
442	  0.108376749	-8.607000E+00	  0.108376749	6.658100E+01	  0.108376749	5.115600E+01	  0.108376749	4.041800E+01
443	  0.108577155	-8.588000E+00	  0.108577155	6.604300E+01	  0.108577155	5.151400E+01	  0.108577155	4.065100E+01
444	  0.108777553	-8.577000E+00	  0.108777553	6.538800E+01	  0.108777553	5.197500E+01	  0.108777553	4.087700E+01
445	  0.108977959	-8.566000E+00	  0.108977959	6.480000E+01	  0.108977959	5.239700E+01	  0.108977959	4.107800E+01
446	  0.109178357	-8.561000E+00	  0.109178357	6.423000E+01	  0.109178357	5.281900E+01	  0.109178357	4.124700E+01
447	  0.109378755	-8.563000E+00	  0.109378755	6.368200E+01	  0.109378755	5.324200E+01	  0.109378755	4.136800E+01
448	  0.109579161	-8.546000E+00	  0.109579161	6.304400E+01	  0.109579161	5.371000E+01	  0.109579161	4.160700E+01
449	  0.109779559	-8.536000E+00	  0.109779559	6.245800E+01	  0.109779559	5.415400E+01	  0.109779559	4.179700E+01
450	  0.109979957	-8.532000E+00	  0.109979957	6.183900E+01	  0.109979957	5.464000E+01	  0.109979957	4.195800E+01
451	  0.110180363	-8.522000E+00	  0.110180363	6.124000E+01	  0.110180363	5.510900E+01	  0.110180363	4.213900E+01
452	  0.110380761	-8.515000E+00	  0.110380761	6.062600E+01	  0.110380761	5.559900E+01	  0.110380761	4.231200E+01
453	  0.110581160	-8.512000E+00	  0.110581160	5.996800E+01	  0.110581160	5.613900E+01	  0.110581160	4.246300E+01
454	  0.110781565	-8.506000E+00	  0.110781565	5.936500E+01	  0.110781565	5.663700E+01	  0.110781565	4.261100E+01
455	  0.110981964	-8.496000E+00	  0.110981964	5.871400E+01	  0.110981964	5.717600E+01	  0.110981964	4.279300E+01
456	  0.111182362	-8.492000E+00	  0.111182362	5.802100E+01	  0.111182362	5.776700E+01	  0.111182362	4.293800E+01
457	  0.111382768	-8.492000E+00	  0.111382768	5.738000E+01	  0.111382768	5.832500E+01	  0.111382768	4.305200E+01
458	  0.111583166	-8.472000E+00	  0.111583166	5.674500E+01	  0.111583166	5.886500E+01	  0.111583166	4.327000E+01
459	  0.111783572	-8.471000E+00	  0.111783572	5.605100E+01	  0.111783572	5.948500E+01	  0.111783572	4.337900E+01
460	  0.111983970	-8.462000E+00	  0.111983970	5.534000E+01	  0.111983970	6.012100E+01	  0.111983970	4.353600E+01
461	  0.112184368	-8.460000E+00	  0.112184368	5.467100E+01	  0.112184368	6.073500E+01	  0.112184368	4.363500E+01
462	  0.112384774	-8.453000E+00	  0.112384774	5.399300E+01	  0.112384774	6.136000E+01	  0.112384774	4.376200E+01
463	  0.112585172	-8.450000E+00	  0.112585172	5.327600E+01	  0.112585172	6.203500E+01	  0.112585172	4.385200E+01
464	  0.112785570	-8.442000E+00	  0.112785570	5.252500E+01	  0.112785570	6.274800E+01	  0.112785570	4.397800E+01
465	  0.112985976	-8.438000E+00	  0.112985976	5.178500E+01	  0.112985976	6.346300E+01	  0.112985976	4.406100E+01
466	  0.113186374	-8.433000E+00	  0.113186374	5.104700E+01	  0.113186374	6.418700E+01	  0.113186374	4.414200E+01
467	  0.113386773	-8.431000E+00	  0.113386773	5.031600E+01	  0.113386773	6.491400E+01	  0.113386773	4.419100E+01
468	  0.113587178	-8.422000E+00	  0.113587178	4.955900E+01	  0.113587178	6.567500E+01	  0.113587178	4.427700E+01
469	  0.113787577	-8.426000E+00	  0.113787577	4.873400E+01	  0.113787577	6.651800E+01	  0.113787577	4.425800E+01
470	  0.113987975	-8.429000E+00	  0.113987975	4.796100E+01	  0.113987975	6.731600E+01	  0.113987975	4.423900E+01
471	  0.114188381	-8.422000E+00	  0.114188381	4.718700E+01	  0.114188381	6.812800E+01	  0.114188381	4.427100E+01
472	  0.114388779	-8.425000E+00	  0.114388779	4.637100E+01	  0.114388779	6.899100E+01	  0.114388779	4.421000E+01
473	  0.114589177	-8.428000E+00	  0.114589177	4.555300E+01	  0.114589177	6.986600E+01	  0.114589177	4.414000E+01
474	  0.114789583	-8.440000E+00	  0.114789583	4.471600E+01	  0.114789583	7.076300E+01	  0.114789583	4.398100E+01
475	  0.114989981	-8.447000E+00	  0.114989981	4.386700E+01	  0.114989981	7.168500E+01	  0.114989981	4.383700E+01
476	  0.115190387	-8.457000E+00	  0.115190387	4.299100E+01	  0.115190387	7.264100E+01	  0.115190387	4.364100E+01
477	  0.115390785	-8.472000E+00	  0.115390785	4.210100E+01	  0.115390785	7.361200E+01	  0.115390785	4.337900E+01
478	  0.115591183	-8.475000E+00	  0.115591183	4.123300E+01	  0.115591183	7.458100E+01	  0.115591183	4.318900E+01
479	  0.115791589	-8.494000E+00	  0.115791589	4.029000E+01	  0.115791589	7.561600E+01	  0.115791589	4.283600E+01
480	  0.115991987	-8.508000E+00	  0.115991987	3.936900E+01	  0.115991987	7.663600E+01	  0.115991987	4.249300E+01
481	  0.116192386	-8.529000E+00	  0.116192386	3.847900E+01	  0.116192386	7.761000E+01	  0.116192386	4.208100E+01
482	  0.116392791	-8.544000E+00	  0.116392791	3.754400E+01	  0.116392791	7.864600E+01	  0.116392791	4.166700E+01
483	  0.116593190	-8.568000E+00	  0.116593190	3.653200E+01	  0.116593190	7.974800E+01	  0.116593190	4.112200E+01
484	  0.116793588	-8.590000E+00	  0.116793588	3.557200E+01	  0.116793588	8.078800E+01	  0.116793588	4.057300E+01
485	  0.116993994	-8.617000E+00	  0.116993994	3.459700E+01	  0.116993994	8.182400E+01	  0.116993994	3.994300E+01
486	  0.117194392	-8.647000E+00	  0.117194392	3.358900E+01	  0.117194392	8.288000E+01	  0.117194392	3.924700E+01
487	  0.117394790	-8.676000E+00	  0.117394790	3.256700E+01	  0.117394790	8.393500E+01	  0.117394790	3.849800E+01
488	  0.117595196	-8.714000E+00	  0.117595196	3.153800E+01	  0.117595196	8.495100E+01	  0.117595196	3.764600E+01
489	  0.117795594	-8.750000E+00	  0.117795594	3.052500E+01	  0.117795594	8.593600E+01	  0.117795594	3.678100E+01
490	  0.117995992	-8.784000E+00	  0.117995992	2.940900E+01	  0.117995992	8.701500E+01	  0.117995992	3.582300E+01
491	  0.118196398	-8.828000E+00	  0.118196398	2.831700E+01	  0.118196398	8.799400E+01	  0.118196398	3.476200E+01
492	  0.118396796	-8.868000E+00	  0.118396796	2.723700E+01	  0.118396796	8.894500E+01	  0.118396796	3.370200E+01
493	  0.118597202	-8.916000E+00	  0.118597202	2.613000E+01	  0.118597202	8.984400E+01	  0.118597202	3.252200E+01
494	  0.118797600	-8.965000E+00	  0.118797600	2.498200E+01	  0.118797600	9.074100E+01	  0.118797600	3.127400E+01
495	  0.118997999	-9.018000E+00	  0.118997999	2.382400E+01	  0.118997999	9.157100E+01	  0.118997999	2.994800E+01
496	  0.119198404	-9.081000E+00	  0.119198404	2.266100E+01	  0.119198404	9.228900E+01	  0.119198404	2.851900E+01
497	  0.119398803	-9.136000E+00	  0.119398803	2.144800E+01	  0.119398803	9.304500E+01	  0.119398803	2.707000E+01
498	  0.119599201	-9.200000E+00	  0.119599201	2.025400E+01	  0.119599201	9.366100E+01	  0.119599201	2.555600E+01
499	  0.119799607	-9.271000E+00	  0.119799607	1.898900E+01	  0.119799607	9.422000E+01	  0.119799607	2.391300E+01
500	  0.120000005	-9.346000E+00	  0.120000005	1.778400E+01	  0.120000005	9.463200E+01	  0.120000005	2.230100E+01
