! Anritsu VNA Master:             	Model: MS2036C/10/77
! SN:             	1601066
! /bd0/18may09/252.ns.m9.txt
! Existing Calibration Information:
! TYPE:             	Current Settings	Active Cal Settings
! TIME:             	05/09/2018 09:11:13 AM	05/09/2018 09:02:47 AM
! INTERNAL TEMP:    	41.5 C	40.3 C
! # POINTS:         	500	500
! START FREQ:       	20.000 MHz	20.000 MHz
! STOP FREQ:        	120.000 MHz	120.000 MHz
! SOURCE POWER:     	High	High
! IFBW:             	50 Hz	50 Hz
! AVG FACTOR:       	  1 	  1 
! REF PLANE 1:      	0 mm	0 mm
! REF PLANE 2:      	0 mm	0 mm
! CAL TYPE:         	Full S11	Full S11
! CAL METHOD:       	SOLT	SOLT
! CAL LINE TYPE:    	Coax	Coax
! DUT PORT 1:       	K-Conn(F)	K-Conn(F)
! DUT PORT 2:       	K-Conn(F)	K-Conn(F)
! CAL STATUS:       	OK: Accuracy High	--
! PROP-V:       	0.700
! CABLE LOSS:       	0.000 dB/m
! REF IMPEDANCE:       	50.0
! Trace Specific Parameters:	TR1	TR2	TR3	TR4
! TRACE.#.Y (GRAPH TYPE)	LOG MAG	PHASE	REAL IMPEDANCE	IMAGINARY IMPEDANCE
! TRACE.#.X 	FREQ.GHZ	FREQ.GHZ	FREQ.GHZ	FREQ.GHZ
! S-PARAMETER	S11	S11	S11	S11
! SMOOTH/APERTURE %	0	0	0	0
! WINDOW	NSL	NSL	NSL	NSL
! GATING	OFF	OFF	OFF	OFF
! FGTD	OFF	OFF	OFF	OFF
Marker Information per Trace:	TR1	TR2	TR3	TR4
!MK1	--	"MK1 TR2:  20.000 MHz,PH:-123.71°"	--	--
!MK2	--	--	"MK2 TR3:  70.100 200 MHz,Z:(16.499 ohm, -4.002 ohm)"	--
!MK3	--	--	--	--
!MK4	--	--	--	--
!MK5	--	--	--	--
!MK6	--	--	--	--
!MK7	--	--	--	--
!MK8	--	--	--	--
PNT	TR1.FREQ.GHZ	TR1.LOG MAG.dB	TR2.FREQ.GHZ	TR2.PHASE.deg	TR3.FREQ.GHZ	TR3.REAL IMPEDANCE.ohm	TR4.FREQ.GHZ	TR4.IMAGINARY IMPEDANCE.ohm
1	  0.020000000	-5.920000E-01	  0.020000000	-1.237110E+02	  0.020000000	2.190000E+00	  0.020000000	-2.670700E+01
2	  0.020200402	-5.910000E-01	  0.020200402	-1.251310E+02	  0.020200402	2.160000E+00	  0.020200402	-2.591700E+01
3	  0.020400802	-5.920000E-01	  0.020400802	-1.265570E+02	  0.020400802	2.136000E+00	  0.020400802	-2.513300E+01
4	  0.020601204	-5.950000E-01	  0.020601204	-1.279870E+02	  0.020601204	2.121000E+00	  0.020601204	-2.435700E+01
5	  0.020801604	-6.000000E-01	  0.020801604	-1.294430E+02	  0.020801604	2.111000E+00	  0.020801604	-2.357700E+01
6	  0.021002004	-6.070000E-01	  0.021002004	-1.309330E+02	  0.021002004	2.110000E+00	  0.021002004	-2.278700E+01
7	  0.021202406	-6.140000E-01	  0.021202406	-1.324350E+02	  0.021202406	2.109000E+00	  0.021202406	-2.200100E+01
8	  0.021402806	-6.200000E-01	  0.021402806	-1.339110E+02	  0.021402806	2.109000E+00	  0.021402806	-2.123700E+01
9	  0.021603208	-6.210000E-01	  0.021603208	-1.354030E+02	  0.021603208	2.089000E+00	  0.021603208	-2.047400E+01
10	  0.021803608	-6.280000E-01	  0.021803608	-1.368920E+02	  0.021803608	2.090000E+00	  0.021803608	-1.971900E+01
11	  0.022004008	-6.350000E-01	  0.022004008	-1.383810E+02	  0.022004008	2.091000E+00	  0.022004008	-1.897300E+01
12	  0.022204408	-6.380000E-01	  0.022204408	-1.398970E+02	  0.022204408	2.080000E+00	  0.022204408	-1.822100E+01
13	  0.022404809	-6.420000E-01	  0.022404809	-1.414070E+02	  0.022404809	2.075000E+00	  0.022404809	-1.747900E+01
14	  0.022605211	-6.470000E-01	  0.022605211	-1.429540E+02	  0.022605211	2.071000E+00	  0.022605211	-1.672500E+01
15	  0.022805611	-6.520000E-01	  0.022805611	-1.444920E+02	  0.022805611	2.069000E+00	  0.022805611	-1.598300E+01
16	  0.023006011	-6.550000E-01	  0.023006011	-1.460150E+02	  0.023006011	2.062000E+00	  0.023006011	-1.525500E+01
17	  0.023206413	-6.550000E-01	  0.023206413	-1.475400E+02	  0.023206413	2.045000E+00	  0.023206413	-1.453200E+01
18	  0.023406813	-6.560000E-01	  0.023406813	-1.490630E+02	  0.023406813	2.031000E+00	  0.023406813	-1.381500E+01
19	  0.023607215	-6.620000E-01	  0.023607215	-1.506050E+02	  0.023607215	2.036000E+00	  0.023607215	-1.309400E+01
20	  0.023807615	-6.710000E-01	  0.023807615	-1.521510E+02	  0.023807615	2.048000E+00	  0.023807615	-1.237600E+01
21	  0.024008015	-6.800000E-01	  0.024008015	-1.537210E+02	  0.024008015	2.064000E+00	  0.024008015	-1.165200E+01
22	  0.024208417	-6.880000E-01	  0.024208417	-1.553020E+02	  0.024208417	2.075000E+00	  0.024208417	-1.092800E+01
23	  0.024408817	-6.950000E-01	  0.024408817	-1.568900E+02	  0.024408817	2.083000E+00	  0.024408817	-1.020500E+01
24	  0.024609219	-7.020000E-01	  0.024609219	-1.584850E+02	  0.024609219	2.094000E+00	  0.024609219	-9.483000E+00
25	  0.024809619	-7.100000E-01	  0.024809619	-1.600830E+02	  0.024809619	2.107000E+00	  0.024809619	-8.763000E+00
26	  0.025010020	-7.210000E-01	  0.025010020	-1.616860E+02	  0.025010020	2.129000E+00	  0.025010020	-8.045000E+00
27	  0.025210422	-7.320000E-01	  0.025210422	-1.633100E+02	  0.025210422	2.152000E+00	  0.025210422	-7.320000E+00
28	  0.025410822	-7.440000E-01	  0.025410822	-1.649390E+02	  0.025410822	2.180000E+00	  0.025410822	-6.597000E+00
29	  0.025611224	-7.570000E-01	  0.025611224	-1.666120E+02	  0.025611224	2.210000E+00	  0.025611224	-5.856000E+00
30	  0.025811624	-7.690000E-01	  0.025811624	-1.682910E+02	  0.025811624	2.236000E+00	  0.025811624	-5.116000E+00
31	  0.026012026	-7.770000E-01	  0.026012026	-1.699760E+02	  0.026012026	2.254000E+00	  0.026012026	-4.375000E+00
32	  0.026212426	-7.880000E-01	  0.026212426	-1.716710E+02	  0.026212426	2.279000E+00	  0.026212426	-3.633000E+00
33	  0.026412826	-8.000000E-01	  0.026412826	-1.733720E+02	  0.026412826	2.310000E+00	  0.026412826	-2.888000E+00
34	  0.026613226	-8.130000E-01	  0.026613226	-1.750760E+02	  0.026613226	2.343000E+00	  0.026613226	-2.144000E+00
35	  0.026813626	-8.280000E-01	  0.026813626	-1.768060E+02	  0.026813626	2.385000E+00	  0.026813626	-1.390000E+00
36	  0.027014028	-8.430000E-01	  0.027014028	-1.785310E+02	  0.027014028	2.426000E+00	  0.027014028	-6.390000E-01
37	  0.027214428	-8.580000E-01	  0.027214428	1.797240E+02	  0.027214428	2.467000E+00	  0.027214428	1.200000E-01
38	  0.027414829	-8.720000E-01	  0.027414829	1.779690E+02	  0.027414829	2.510000E+00	  0.027414829	8.830000E-01
39	  0.027615231	-8.890000E-01	  0.027615231	1.761940E+02	  0.027615231	2.560000E+00	  0.027615231	1.656000E+00
40	  0.027815631	-9.080000E-01	  0.027815631	1.744190E+02	  0.027815631	2.620000E+00	  0.027815631	2.430000E+00
41	  0.028016033	-9.310000E-01	  0.028016033	1.726270E+02	  0.028016033	2.688000E+00	  0.028016033	3.211000E+00
42	  0.028216433	-9.510000E-01	  0.028216433	1.708290E+02	  0.028216433	2.754000E+00	  0.028216433	3.997000E+00
43	  0.028416833	-9.730000E-01	  0.028416833	1.690280E+02	  0.028416833	2.823000E+00	  0.028416833	4.786000E+00
44	  0.028617235	-9.930000E-01	  0.028617235	1.672390E+02	  0.028617235	2.892000E+00	  0.028617235	5.572000E+00
45	  0.028817635	-1.013000E+00	  0.028817635	1.654600E+02	  0.028817635	2.959000E+00	  0.028817635	6.356000E+00
46	  0.029018037	-1.033000E+00	  0.029018037	1.636680E+02	  0.029018037	3.033000E+00	  0.029018037	7.148000E+00
47	  0.029218437	-1.054000E+00	  0.029218437	1.618940E+02	  0.029218437	3.108000E+00	  0.029218437	7.936000E+00
48	  0.029418837	-1.080000E+00	  0.029418837	1.601060E+02	  0.029418837	3.200000E+00	  0.029418837	8.733000E+00
49	  0.029619239	-1.108000E+00	  0.029619239	1.583010E+02	  0.029619239	3.304000E+00	  0.029619239	9.542000E+00
50	  0.029819639	-1.137000E+00	  0.029819639	1.564820E+02	  0.029819639	3.410000E+00	  0.029819639	1.036100E+01
51	  0.030020041	-1.169000E+00	  0.030020041	1.546410E+02	  0.030020041	3.529000E+00	  0.030020041	1.119500E+01
52	  0.030220442	-1.198000E+00	  0.030220442	1.527820E+02	  0.030220442	3.645000E+00	  0.030220442	1.204300E+01
53	  0.030420844	-1.228000E+00	  0.030420844	1.509300E+02	  0.030420844	3.765000E+00	  0.030420844	1.289400E+01
54	  0.030621244	-1.262000E+00	  0.030621244	1.490840E+02	  0.030621244	3.904000E+00	  0.030621244	1.374800E+01
55	  0.030821644	-1.296000E+00	  0.030821644	1.472450E+02	  0.030821644	4.043000E+00	  0.030821644	1.460500E+01
56	  0.031022044	-1.331000E+00	  0.031022044	1.453860E+02	  0.031022044	4.193000E+00	  0.031022044	1.547900E+01
57	  0.031222444	-1.367000E+00	  0.031222444	1.435320E+02	  0.031222444	4.350000E+00	  0.031222444	1.635900E+01
58	  0.031422846	-1.401000E+00	  0.031422846	1.416120E+02	  0.031422846	4.510000E+00	  0.031422846	1.727900E+01
59	  0.031623244	-1.437000E+00	  0.031623244	1.396970E+02	  0.031623244	4.678000E+00	  0.031623244	1.820600E+01
60	  0.031823646	-1.469000E+00	  0.031823646	1.377680E+02	  0.031823646	4.844000E+00	  0.031823646	1.915100E+01
61	  0.032024048	-1.499000E+00	  0.032024048	1.358360E+02	  0.032024048	5.008000E+00	  0.032024048	2.010900E+01
62	  0.032224450	-1.532000E+00	  0.032224450	1.339130E+02	  0.032224450	5.188000E+00	  0.032224450	2.107400E+01
63	  0.032424849	-1.564000E+00	  0.032424849	1.319940E+02	  0.032424849	5.373000E+00	  0.032424849	2.204900E+01
64	  0.032625251	-1.598000E+00	  0.032625251	1.300680E+02	  0.032625251	5.570000E+00	  0.032625251	2.304100E+01
65	  0.032825653	-1.635000E+00	  0.032825653	1.281250E+02	  0.032825653	5.791000E+00	  0.032825653	2.405400E+01
66	  0.033026051	-1.674000E+00	  0.033026051	1.261540E+02	  0.033026051	6.029000E+00	  0.033026051	2.509700E+01
67	  0.033226453	-1.719000E+00	  0.033226453	1.242040E+02	  0.033226453	6.296000E+00	  0.033226453	2.614200E+01
68	  0.033426855	-1.766000E+00	  0.033426855	1.222050E+02	  0.033426855	6.590000E+00	  0.033426855	2.722900E+01
69	  0.033627257	-1.816000E+00	  0.033627257	1.201950E+02	  0.033627257	6.907000E+00	  0.033627257	2.833900E+01
70	  0.033827655	-1.866000E+00	  0.033827655	1.181450E+02	  0.033827655	7.241000E+00	  0.033827655	2.949200E+01
71	  0.034028057	-1.912000E+00	  0.034028057	1.160470E+02	  0.034028057	7.585000E+00	  0.034028057	3.069500E+01
72	  0.034228459	-1.958000E+00	  0.034228459	1.139330E+02	  0.034228459	7.944000E+00	  0.034228459	3.193100E+01
73	  0.034428857	-2.001000E+00	  0.034428857	1.118000E+02	  0.034428857	8.314000E+00	  0.034428857	3.320600E+01
74	  0.034629259	-2.044000E+00	  0.034629259	1.096810E+02	  0.034629259	8.704000E+00	  0.034629259	3.449900E+01
75	  0.034829661	-2.084000E+00	  0.034829661	1.075790E+02	  0.034829661	9.102000E+00	  0.034829661	3.581200E+01
76	  0.035030060	-2.126000E+00	  0.035030060	1.054590E+02	  0.035030060	9.535000E+00	  0.035030060	3.716400E+01
77	  0.035230462	-2.163000E+00	  0.035230462	1.033580E+02	  0.035230462	9.968000E+00	  0.035230462	3.854000E+01
78	  0.035430863	-2.202000E+00	  0.035430863	1.012790E+02	  0.035430863	1.043700E+01	  0.035430863	3.993200E+01
79	  0.035631265	-2.246000E+00	  0.035631265	9.920900E+01	  0.035631265	1.095400E+01	  0.035631265	4.134700E+01
80	  0.035831664	-2.290000E+00	  0.035831664	9.712200E+01	  0.035831664	1.150700E+01	  0.035831664	4.280900E+01
81	  0.036032066	-2.333000E+00	  0.036032066	9.507100E+01	  0.036032066	1.208600E+01	  0.036032066	4.428200E+01
82	  0.036232468	-2.378000E+00	  0.036232468	9.299300E+01	  0.036232468	1.271900E+01	  0.036232468	4.581000E+01
83	  0.036432866	-2.429000E+00	  0.036432866	9.096100E+01	  0.036432866	1.341300E+01	  0.036432866	4.733500E+01
84	  0.036633268	-2.487000E+00	  0.036633268	8.892900E+01	  0.036633268	1.419300E+01	  0.036633268	4.888600E+01
85	  0.036833670	-2.547000E+00	  0.036833670	8.685300E+01	  0.036833670	1.504700E+01	  0.036833670	5.050900E+01
86	  0.037034072	-2.606000E+00	  0.037034072	8.475100E+01	  0.037034072	1.596800E+01	  0.037034072	5.219600E+01
87	  0.037234470	-2.671000E+00	  0.037234470	8.263200E+01	  0.037234470	1.698800E+01	  0.037234470	5.393200E+01
88	  0.037434869	-2.734000E+00	  0.037434869	8.048900E+01	  0.037434869	1.808800E+01	  0.037434869	5.573600E+01
89	  0.037635271	-2.798000E+00	  0.037635271	7.831700E+01	  0.037635271	1.928600E+01	  0.037635271	5.761300E+01
90	  0.037835669	-2.867000E+00	  0.037835669	7.614600E+01	  0.037835669	2.060800E+01	  0.037835669	5.952500E+01
91	  0.038036071	-2.935000E+00	  0.038036071	7.398800E+01	  0.038036071	2.202900E+01	  0.038036071	6.147000E+01
92	  0.038236473	-2.995000E+00	  0.038236473	7.188300E+01	  0.038236473	2.347600E+01	  0.038236473	6.343700E+01
93	  0.038436871	-3.041000E+00	  0.038436871	6.974000E+01	  0.038436871	2.496300E+01	  0.038436871	6.554400E+01
94	  0.038637273	-3.086000E+00	  0.038637273	6.761900E+01	  0.038637273	2.656200E+01	  0.038637273	6.768800E+01
95	  0.038837675	-3.133000E+00	  0.038837675	6.547500E+01	  0.038837675	2.832900E+01	  0.038837675	6.990600E+01
96	  0.039038073	-3.178000E+00	  0.039038073	6.337800E+01	  0.039038073	3.019400E+01	  0.039038073	7.213900E+01
97	  0.039238475	-3.227000E+00	  0.039238475	6.131200E+01	  0.039238475	3.223200E+01	  0.039238475	7.436700E+01
98	  0.039438877	-3.282000E+00	  0.039438877	5.925700E+01	  0.039438877	3.448000E+01	  0.039438877	7.659300E+01
99	  0.039639279	-3.338000E+00	  0.039639279	5.720900E+01	  0.039639279	3.693700E+01	  0.039639279	7.882700E+01
100	  0.039839678	-3.404000E+00	  0.039839678	5.515100E+01	  0.039839678	3.970100E+01	  0.039839678	8.102800E+01
101	  0.040040080	-3.465000E+00	  0.040040080	5.306900E+01	  0.040040080	4.268800E+01	  0.040040080	8.330200E+01
102	  0.040240481	-3.529000E+00	  0.040240481	5.097800E+01	  0.040240481	4.598000E+01	  0.040240481	8.554900E+01
103	  0.040440880	-3.593000E+00	  0.040440880	4.887700E+01	  0.040440880	4.959100E+01	  0.040440880	8.776800E+01
104	  0.040641282	-3.655000E+00	  0.040641282	4.680400E+01	  0.040641282	5.345600E+01	  0.040641282	8.991200E+01
105	  0.040841684	-3.716000E+00	  0.040841684	4.470800E+01	  0.040841684	5.768700E+01	  0.040841684	9.202700E+01
106	  0.041042086	-3.779000E+00	  0.041042086	4.262300E+01	  0.041042086	6.229900E+01	  0.041042086	9.395900E+01
107	  0.041242484	-3.838000E+00	  0.041242484	4.053700E+01	  0.041242484	6.727100E+01	  0.041242484	9.578300E+01
108	  0.041442886	-3.895000E+00	  0.041442886	3.844100E+01	  0.041442886	7.267300E+01	  0.041442886	9.743500E+01
109	  0.041643288	-3.952000E+00	  0.041643288	3.636200E+01	  0.041643288	7.847200E+01	  0.041643288	9.879400E+01
110	  0.041843686	-4.011000E+00	  0.041843686	3.427900E+01	  0.041843686	8.475100E+01	  0.041843686	9.977600E+01
111	  0.042044088	-4.065000E+00	  0.042044088	3.222400E+01	  0.042044088	9.136700E+01	  0.042044088	1.003940E+02
112	  0.042244490	-4.117000E+00	  0.042244490	3.018700E+01	  0.042244490	9.836300E+01	  0.042244490	1.005300E+02
113	  0.042444889	-4.172000E+00	  0.042444889	2.816300E+01	  0.042444889	1.057280E+02	  0.042444889	9.999300E+01
114	  0.042645290	-4.225000E+00	  0.042645290	2.610900E+01	  0.042645290	1.135660E+02	  0.042645290	9.880000E+01
115	  0.042845692	-4.280000E+00	  0.042845692	2.408800E+01	  0.042845692	1.215660E+02	  0.042845692	9.671900E+01
116	  0.043046094	-4.335000E+00	  0.043046094	2.205800E+01	  0.043046094	1.297890E+02	  0.043046094	9.372400E+01
117	  0.043246493	-4.391000E+00	  0.043246493	2.003900E+01	  0.043246493	1.379940E+02	  0.043246493	8.965900E+01
118	  0.043446895	-4.443000E+00	  0.043446895	1.800700E+01	  0.043446895	1.461790E+02	  0.043446895	8.459900E+01
119	  0.043647297	-4.498000E+00	  0.043647297	1.597900E+01	  0.043647297	1.539960E+02	  0.043647297	7.831500E+01
120	  0.043847695	-4.553000E+00	  0.043847695	1.395200E+01	  0.043847695	1.612620E+02	  0.043847695	7.088300E+01
121	  0.044048097	-4.606000E+00	  0.044048097	1.194400E+01	  0.044048097	1.677260E+02	  0.044048097	6.248400E+01
122	  0.044248499	-4.658000E+00	  0.044248499	9.934000E+00	  0.044248499	1.732690E+02	  0.044248499	5.315100E+01
123	  0.044448901	-4.710000E+00	  0.044448901	7.909000E+00	  0.044448901	1.776600E+02	  0.044448901	4.293700E+01
124	  0.044649299	-4.757000E+00	  0.044649299	5.899000E+00	  0.044649299	1.808920E+02	  0.044649299	3.230800E+01
125	  0.044849701	-4.803000E+00	  0.044849701	3.899000E+00	  0.044849701	1.827170E+02	  0.044849701	2.136600E+01
126	  0.045050103	-4.844000E+00	  0.045050103	1.902000E+00	  0.045050103	1.832940E+02	  0.045050103	1.036400E+01
127	  0.045250501	-4.883000E+00	  0.045250501	-6.600000E-02	  0.045250501	1.825090E+02	  0.045250501	-3.590000E-01
128	  0.045450903	-4.923000E+00	  0.045450903	-1.990000E+00	  0.045450903	1.804560E+02	  0.045450903	-1.048900E+01
129	  0.045651305	-4.964000E+00	  0.045651305	-3.923000E+00	  0.045651305	1.772270E+02	  0.045651305	-2.010700E+01
130	  0.045851704	-5.002000E+00	  0.045851704	-5.822000E+00	  0.045851704	1.731710E+02	  0.045851704	-2.887800E+01
131	  0.046052106	-5.038000E+00	  0.046052106	-7.731000E+00	  0.046052106	1.683550E+02	  0.046052106	-3.693800E+01
132	  0.046252504	-5.072000E+00	  0.046252504	-9.621000E+00	  0.046252504	1.629960E+02	  0.046252504	-4.409700E+01
133	  0.046452906	-5.106000E+00	  0.046452906	-1.147900E+01	  0.046452906	1.572730E+02	  0.046452906	-5.029000E+01
134	  0.046653304	-5.136000E+00	  0.046653304	-1.336300E+01	  0.046653304	1.512470E+02	  0.046653304	-5.580100E+01
135	  0.046853706	-5.168000E+00	  0.046853706	-1.518600E+01	  0.046853706	1.451730E+02	  0.046853706	-6.028500E+01
136	  0.047054108	-5.196000E+00	  0.047054108	-1.702000E+01	  0.047054108	1.390610E+02	  0.047054108	-6.414000E+01
137	  0.047254506	-5.223000E+00	  0.047254506	-1.883500E+01	  0.047254506	1.330410E+02	  0.047254506	-6.729800E+01
138	  0.047454908	-5.252000E+00	  0.047454908	-2.062400E+01	  0.047454908	1.271420E+02	  0.047454908	-6.972900E+01
139	  0.047655310	-5.278000E+00	  0.047655310	-2.239100E+01	  0.047655310	1.214820E+02	  0.047655310	-7.165600E+01
140	  0.047855709	-5.306000E+00	  0.047855709	-2.412600E+01	  0.047855709	1.160700E+02	  0.047855709	-7.302500E+01
141	  0.048056111	-5.337000E+00	  0.048056111	-2.586700E+01	  0.048056111	1.108260E+02	  0.048056111	-7.395000E+01
142	  0.048256513	-5.364000E+00	  0.048256513	-2.759900E+01	  0.048256513	1.058440E+02	  0.048256513	-7.455900E+01
143	  0.048456915	-5.394000E+00	  0.048456915	-2.935000E+01	  0.048456915	1.010320E+02	  0.048456915	-7.482600E+01
144	  0.048657313	-5.424000E+00	  0.048657313	-3.106600E+01	  0.048657313	9.654700E+01	  0.048657313	-7.481700E+01
145	  0.048857715	-5.451000E+00	  0.048857715	-3.279700E+01	  0.048857715	9.225800E+01	  0.048857715	-7.462000E+01
146	  0.049058117	-5.478000E+00	  0.049058117	-3.455700E+01	  0.049058117	8.813100E+01	  0.049058117	-7.423500E+01
147	  0.049258515	-5.504000E+00	  0.049258515	-3.625400E+01	  0.049258515	8.436800E+01	  0.049258515	-7.369900E+01
148	  0.049458917	-5.529000E+00	  0.049458917	-3.798700E+01	  0.049458917	8.073600E+01	  0.049458917	-7.302400E+01
149	  0.049659319	-5.559000E+00	  0.049659319	-3.970400E+01	  0.049659319	7.735000E+01	  0.049659319	-7.216500E+01
150	  0.049859721	-5.586000E+00	  0.049859721	-4.144500E+01	  0.049859721	7.410700E+01	  0.049859721	-7.125600E+01
151	  0.050060119	-5.609000E+00	  0.050060119	-4.318400E+01	  0.050060119	7.105100E+01	  0.050060119	-7.029400E+01
152	  0.050260521	-5.629000E+00	  0.050260521	-4.494900E+01	  0.050260521	6.811700E+01	  0.050260521	-6.929400E+01
153	  0.050460923	-5.647000E+00	  0.050460923	-4.668100E+01	  0.050460923	6.539600E+01	  0.050460923	-6.826900E+01
154	  0.050661322	-5.664000E+00	  0.050661322	-4.841500E+01	  0.050661322	6.282800E+01	  0.050661322	-6.719400E+01
155	  0.050861724	-5.681000E+00	  0.050861724	-5.014300E+01	  0.050861724	6.041200E+01	  0.050861724	-6.608900E+01
156	  0.051062126	-5.694000E+00	  0.051062126	-5.184700E+01	  0.051062126	5.815000E+01	  0.051062126	-6.499600E+01
157	  0.051262524	-5.711000E+00	  0.051262524	-5.350000E+01	  0.051262524	5.609500E+01	  0.051262524	-6.386900E+01
158	  0.051462926	-5.716000E+00	  0.051462926	-5.516400E+01	  0.051462926	5.408500E+01	  0.051462926	-6.282300E+01
159	  0.051663328	-5.726000E+00	  0.051663328	-5.680200E+01	  0.051663328	5.223400E+01	  0.051663328	-6.173000E+01
160	  0.051863730	-5.740000E+00	  0.051863730	-5.846100E+01	  0.051863730	5.047500E+01	  0.051863730	-6.058300E+01
161	  0.052064128	-5.755000E+00	  0.052064128	-6.010300E+01	  0.052064128	4.882900E+01	  0.052064128	-5.944000E+01
162	  0.052264530	-5.765000E+00	  0.052264530	-6.173200E+01	  0.052264530	4.726300E+01	  0.052264530	-5.833300E+01
163	  0.052464932	-5.772000E+00	  0.052464932	-6.336100E+01	  0.052464932	4.576500E+01	  0.052464932	-5.724300E+01
164	  0.052665330	-5.782000E+00	  0.052665330	-6.498900E+01	  0.052665330	4.435600E+01	  0.052665330	-5.613800E+01
165	  0.052865732	-5.791000E+00	  0.052865732	-6.657600E+01	  0.052865732	4.304800E+01	  0.052865732	-5.506800E+01
166	  0.053066134	-5.796000E+00	  0.053066134	-6.820300E+01	  0.053066134	4.175700E+01	  0.053066134	-5.399600E+01
167	  0.053266536	-5.800000E+00	  0.053266536	-6.977100E+01	  0.053266536	4.056900E+01	  0.053266536	-5.297300E+01
168	  0.053466935	-5.805000E+00	  0.053466935	-7.133900E+01	  0.053466935	3.943800E+01	  0.053466935	-5.195300E+01
169	  0.053667337	-5.805000E+00	  0.053667337	-7.287800E+01	  0.053667337	3.836300E+01	  0.053667337	-5.097500E+01
170	  0.053867739	-5.803000E+00	  0.053867739	-7.441700E+01	  0.053867739	3.733000E+01	  0.053867739	-5.001100E+01
171	  0.054068137	-5.801000E+00	  0.054068137	-7.590900E+01	  0.054068137	3.637000E+01	  0.054068137	-4.908200E+01
172	  0.054268539	-5.801000E+00	  0.054268539	-7.735100E+01	  0.054268539	3.548900E+01	  0.054268539	-4.818500E+01
173	  0.054468941	-5.806000E+00	  0.054468941	-7.879600E+01	  0.054468941	3.466800E+01	  0.054468941	-4.726800E+01
174	  0.054669339	-5.806000E+00	  0.054669339	-8.023500E+01	  0.054669339	3.386100E+01	  0.054669339	-4.638500E+01
175	  0.054869737	-5.814000E+00	  0.054869737	-8.161500E+01	  0.054869737	3.315100E+01	  0.054869737	-4.551700E+01
176	  0.055070139	-5.819000E+00	  0.055070139	-8.301100E+01	  0.055070139	3.244900E+01	  0.055070139	-4.465800E+01
177	  0.055270538	-5.827000E+00	  0.055270538	-8.439700E+01	  0.055270538	3.179500E+01	  0.055270538	-4.380300E+01
178	  0.055470940	-5.834000E+00	  0.055470940	-8.580300E+01	  0.055470940	3.115200E+01	  0.055470940	-4.294900E+01
179	  0.055671342	-5.842000E+00	  0.055671342	-8.718900E+01	  0.055671342	3.054700E+01	  0.055671342	-4.211300E+01
180	  0.055871744	-5.850000E+00	  0.055871744	-8.857500E+01	  0.055871744	2.996800E+01	  0.055871744	-4.128600E+01
181	  0.056072142	-5.864000E+00	  0.056072142	-8.996900E+01	  0.056072142	2.943100E+01	  0.056072142	-4.044600E+01
182	  0.056272544	-5.872000E+00	  0.056272544	-9.134000E+01	  0.056272544	2.890200E+01	  0.056272544	-3.964600E+01
183	  0.056472946	-5.877000E+00	  0.056472946	-9.272100E+01	  0.056472946	2.838000E+01	  0.056472946	-3.885600E+01
184	  0.056673344	-5.885000E+00	  0.056673344	-9.410000E+01	  0.056673344	2.788800E+01	  0.056673344	-3.807000E+01
185	  0.056873746	-5.891000E+00	  0.056873746	-9.546600E+01	  0.056873746	2.741100E+01	  0.056873746	-3.730400E+01
186	  0.057074148	-5.891000E+00	  0.057074148	-9.688200E+01	  0.057074148	2.691700E+01	  0.057074148	-3.653000E+01
187	  0.057274550	-5.893000E+00	  0.057274550	-9.821500E+01	  0.057274550	2.647600E+01	  0.057274550	-3.580500E+01
188	  0.057474948	-5.896000E+00	  0.057474948	-9.955900E+01	  0.057474948	2.604700E+01	  0.057474948	-3.508100E+01
189	  0.057675350	-5.896000E+00	  0.057675350	-1.008620E+02	  0.057675350	2.564100E+01	  0.057675350	-3.438900E+01
190	  0.057875752	-5.896000E+00	  0.057875752	-1.021720E+02	  0.057875752	2.524300E+01	  0.057875752	-3.370100E+01
191	  0.058076151	-5.896000E+00	  0.058076151	-1.034630E+02	  0.058076151	2.486800E+01	  0.058076151	-3.302800E+01
192	  0.058276553	-5.895000E+00	  0.058276553	-1.047360E+02	  0.058276553	2.450500E+01	  0.058276553	-3.237200E+01
193	  0.058476955	-5.897000E+00	  0.058476955	-1.060050E+02	  0.058476955	2.416600E+01	  0.058476955	-3.171900E+01
194	  0.058677353	-5.897000E+00	  0.058677353	-1.072810E+02	  0.058677353	2.383000E+01	  0.058677353	-3.107100E+01
195	  0.058877755	-5.894000E+00	  0.058877755	-1.085420E+02	  0.058877755	2.350200E+01	  0.058877755	-3.044000E+01
196	  0.059078157	-5.895000E+00	  0.059078157	-1.097980E+02	  0.059078157	2.319400E+01	  0.059078157	-2.981200E+01
197	  0.059278559	-5.897000E+00	  0.059278559	-1.110390E+02	  0.059278559	2.290700E+01	  0.059278559	-2.919400E+01
198	  0.059478957	-5.894000E+00	  0.059478957	-1.123150E+02	  0.059478957	2.260600E+01	  0.059478957	-2.857000E+01
199	  0.059679359	-5.893000E+00	  0.059679359	-1.135260E+02	  0.059679359	2.233300E+01	  0.059679359	-2.798100E+01
200	  0.059879761	-5.893000E+00	  0.059879761	-1.147550E+02	  0.059879761	2.206800E+01	  0.059879761	-2.738700E+01
201	  0.060080159	-5.888000E+00	  0.060080159	-1.159560E+02	  0.060080159	2.180500E+01	  0.060080159	-2.681600E+01
202	  0.060280561	-5.886000E+00	  0.060280561	-1.171690E+02	  0.060280561	2.155300E+01	  0.060280561	-2.624100E+01
203	  0.060480963	-5.885000E+00	  0.060480963	-1.183750E+02	  0.060480963	2.131700E+01	  0.060480963	-2.567000E+01
204	  0.060681365	-5.879000E+00	  0.060681365	-1.195550E+02	  0.060681365	2.107700E+01	  0.060681365	-2.512200E+01
205	  0.060881764	-5.871000E+00	  0.060881764	-1.207550E+02	  0.060881764	2.083300E+01	  0.060881764	-2.457100E+01
206	  0.061082166	-5.869000E+00	  0.061082166	-1.219560E+02	  0.061082166	2.061800E+01	  0.061082166	-2.401500E+01
207	  0.061282568	-5.864000E+00	  0.061282568	-1.231050E+02	  0.061282568	2.040700E+01	  0.061282568	-2.349100E+01
208	  0.061482966	-5.858000E+00	  0.061482966	-1.242340E+02	  0.061482966	2.020200E+01	  0.061482966	-2.298000E+01
209	  0.061683368	-5.860000E+00	  0.061683368	-1.253570E+02	  0.061683368	2.002700E+01	  0.061683368	-2.246600E+01
210	  0.061883770	-5.857000E+00	  0.061883770	-1.264920E+02	  0.061883770	1.984300E+01	  0.061883770	-2.195500E+01
211	  0.062084168	-5.851000E+00	  0.062084168	-1.276160E+02	  0.062084168	1.965900E+01	  0.062084168	-2.145400E+01
212	  0.062284570	-5.854000E+00	  0.062284570	-1.287240E+02	  0.062284570	1.950600E+01	  0.062284570	-2.095500E+01
213	  0.062484972	-5.854000E+00	  0.062484972	-1.298370E+02	  0.062484972	1.935000E+01	  0.062484972	-2.046000E+01
214	  0.062685370	-5.854000E+00	  0.062685370	-1.309560E+02	  0.062685370	1.919900E+01	  0.062685370	-1.996400E+01
215	  0.062885776	-5.856000E+00	  0.062885776	-1.320550E+02	  0.062885776	1.906000E+01	  0.062885776	-1.947800E+01
216	  0.063086174	-5.859000E+00	  0.063086174	-1.331950E+02	  0.063086174	1.892200E+01	  0.063086174	-1.897700E+01
217	  0.063286573	-5.864000E+00	  0.063286573	-1.343640E+02	  0.063286573	1.879200E+01	  0.063286573	-1.846300E+01
218	  0.063486971	-5.864000E+00	  0.063486971	-1.354840E+02	  0.063486971	1.865900E+01	  0.063486971	-1.797900E+01
219	  0.063687377	-5.861000E+00	  0.063687377	-1.365830E+02	  0.063687377	1.852500E+01	  0.063687377	-1.750700E+01
220	  0.063887775	-5.858000E+00	  0.063887775	-1.377560E+02	  0.063887775	1.838600E+01	  0.063887775	-1.700600E+01
221	  0.064088173	-5.855000E+00	  0.064088173	-1.388550E+02	  0.064088173	1.825900E+01	  0.064088173	-1.653900E+01
222	  0.064288579	-5.855000E+00	  0.064288579	-1.399760E+02	  0.064288579	1.814200E+01	  0.064288579	-1.606300E+01
223	  0.064488977	-5.856000E+00	  0.064488977	-1.410560E+02	  0.064488977	1.803700E+01	  0.064488977	-1.560600E+01
224	  0.064689375	-5.852000E+00	  0.064689375	-1.421310E+02	  0.064689375	1.792200E+01	  0.064689375	-1.515600E+01
225	  0.064889781	-5.848000E+00	  0.064889781	-1.432210E+02	  0.064889781	1.781000E+01	  0.064889781	-1.470100E+01
226	  0.065090179	-5.848000E+00	  0.065090179	-1.442610E+02	  0.065090179	1.771600E+01	  0.065090179	-1.426600E+01
227	  0.065290578	-5.848000E+00	  0.065290578	-1.453330E+02	  0.065290578	1.762300E+01	  0.065290578	-1.382000E+01
228	  0.065490983	-5.849000E+00	  0.065490983	-1.463980E+02	  0.065490983	1.753900E+01	  0.065490983	-1.337700E+01
229	  0.065691382	-5.849000E+00	  0.065691382	-1.474520E+02	  0.065691382	1.745500E+01	  0.065691382	-1.294200E+01
230	  0.065891780	-5.851000E+00	  0.065891780	-1.484830E+02	  0.065891780	1.737800E+01	  0.065891780	-1.251700E+01
231	  0.066092186	-5.851000E+00	  0.066092186	-1.495450E+02	  0.066092186	1.729900E+01	  0.066092186	-1.208100E+01
232	  0.066292584	-5.851000E+00	  0.066292584	-1.505840E+02	  0.066292584	1.722700E+01	  0.066292584	-1.165600E+01
233	  0.066492982	-5.853000E+00	  0.066492982	-1.516210E+02	  0.066492982	1.716100E+01	  0.066492982	-1.123200E+01
234	  0.066693388	-5.853000E+00	  0.066693388	-1.526440E+02	  0.066693388	1.709300E+01	  0.066693388	-1.081700E+01
235	  0.066893786	-5.855000E+00	  0.066893786	-1.536670E+02	  0.066893786	1.703300E+01	  0.066893786	-1.040100E+01
236	  0.067094192	-5.857000E+00	  0.067094192	-1.546710E+02	  0.067094192	1.697700E+01	  0.067094192	-9.995000E+00
237	  0.067294590	-5.858000E+00	  0.067294590	-1.557320E+02	  0.067294590	1.691700E+01	  0.067294590	-9.567000E+00
238	  0.067494988	-5.864000E+00	  0.067494988	-1.567220E+02	  0.067494988	1.688000E+01	  0.067494988	-9.167000E+00
239	  0.067695394	-5.869000E+00	  0.067695394	-1.577440E+02	  0.067695394	1.684000E+01	  0.067695394	-8.756000E+00
240	  0.067895792	-5.869000E+00	  0.067895792	-1.587770E+02	  0.067895792	1.678600E+01	  0.067895792	-8.343000E+00
241	  0.068096191	-5.875000E+00	  0.068096191	-1.598010E+02	  0.068096191	1.675400E+01	  0.068096191	-7.933000E+00
242	  0.068296596	-5.874000E+00	  0.068296596	-1.608000E+02	  0.068296596	1.670800E+01	  0.068296596	-7.535000E+00
243	  0.068496995	-5.879000E+00	  0.068496995	-1.617710E+02	  0.068496995	1.667900E+01	  0.068496995	-7.148000E+00
244	  0.068697393	-5.886000E+00	  0.068697393	-1.628040E+02	  0.068697393	1.665500E+01	  0.068697393	-6.737000E+00
245	  0.068897791	-5.884000E+00	  0.068897791	-1.637790E+02	  0.068897791	1.661200E+01	  0.068897791	-6.352000E+00
246	  0.069098189	-5.891000E+00	  0.069098189	-1.647720E+02	  0.069098189	1.659400E+01	  0.069098189	-5.959000E+00
247	  0.069298595	-5.896000E+00	  0.069298595	-1.657520E+02	  0.069298595	1.657600E+01	  0.069298595	-5.571000E+00
248	  0.069498993	-5.900000E+00	  0.069498993	-1.667720E+02	  0.069498993	1.655300E+01	  0.069498993	-5.169000E+00
249	  0.069699399	-5.904000E+00	  0.069699399	-1.677650E+02	  0.069699399	1.653700E+01	  0.069699399	-4.778000E+00
250	  0.069899797	-5.908000E+00	  0.069899797	-1.687450E+02	  0.069899797	1.652100E+01	  0.069899797	-4.393000E+00
251	  0.070100196	-5.909000E+00	  0.070100196	-1.697440E+02	  0.070100196	1.649800E+01	  0.070100196	-4.001000E+00
252	  0.070300601	-5.912000E+00	  0.070300601	-1.707360E+02	  0.070300601	1.648500E+01	  0.070300601	-3.612000E+00
253	  0.070501000	-5.914000E+00	  0.070501000	-1.717260E+02	  0.070501000	1.647000E+01	  0.070501000	-3.225000E+00
254	  0.070701398	-5.913000E+00	  0.070701398	-1.726910E+02	  0.070701398	1.645000E+01	  0.070701398	-2.848000E+00
255	  0.070901804	-5.916000E+00	  0.070901804	-1.736580E+02	  0.070901804	1.644500E+01	  0.070901804	-2.470000E+00
256	  0.071102202	-5.919000E+00	  0.071102202	-1.746480E+02	  0.071102202	1.644000E+01	  0.071102202	-2.084000E+00
257	  0.071302600	-5.920000E+00	  0.071302600	-1.755900E+02	  0.071302600	1.643000E+01	  0.071302600	-1.717000E+00
258	  0.071503006	-5.925000E+00	  0.071503006	-1.765190E+02	  0.071503006	1.643600E+01	  0.071503006	-1.355000E+00
259	  0.071703404	-5.927000E+00	  0.071703404	-1.774530E+02	  0.071703404	1.643400E+01	  0.071703404	-9.910000E-01
260	  0.071903802	-5.927000E+00	  0.071903802	-1.783970E+02	  0.071903802	1.643100E+01	  0.071903802	-6.230000E-01
261	  0.072104208	-5.930000E+00	  0.072104208	-1.793210E+02	  0.072104208	1.643600E+01	  0.072104208	-2.640000E-01
262	  0.072304606	-5.932000E+00	  0.072304606	1.797740E+02	  0.072304606	1.644200E+01	  0.072304606	8.700000E-02
263	  0.072505005	-5.937000E+00	  0.072505005	1.788720E+02	  0.072505005	1.645500E+01	  0.072505005	4.380000E-01
264	  0.072705410	-5.938000E+00	  0.072705410	1.779650E+02	  0.072705410	1.646100E+01	  0.072705410	7.910000E-01
265	  0.072905809	-5.941000E+00	  0.072905809	1.770590E+02	  0.072905809	1.647400E+01	  0.072905809	1.144000E+00
266	  0.073106214	-5.948000E+00	  0.073106214	1.762060E+02	  0.073106214	1.649700E+01	  0.073106214	1.475000E+00
267	  0.073306613	-5.949000E+00	  0.073306613	1.753160E+02	  0.073306613	1.650800E+01	  0.073306613	1.822000E+00
268	  0.073507011	-5.958000E+00	  0.073507011	1.744380E+02	  0.073507011	1.654100E+01	  0.073507011	2.163000E+00
269	  0.073707417	-5.962000E+00	  0.073707417	1.735550E+02	  0.073707417	1.656500E+01	  0.073707417	2.506000E+00
270	  0.073907815	-5.969000E+00	  0.073907815	1.727030E+02	  0.073907815	1.659600E+01	  0.073907815	2.838000E+00
271	  0.074108213	-5.973000E+00	  0.074108213	1.718460E+02	  0.074108213	1.662200E+01	  0.074108213	3.171000E+00
272	  0.074308619	-5.983000E+00	  0.074308619	1.709470E+02	  0.074308619	1.666400E+01	  0.074308619	3.520000E+00
273	  0.074509017	-5.993000E+00	  0.074509017	1.700770E+02	  0.074509017	1.670700E+01	  0.074509017	3.859000E+00
274	  0.074709415	-6.004000E+00	  0.074709415	1.692080E+02	  0.074709415	1.675700E+01	  0.074709415	4.196000E+00
275	  0.074909821	-6.013000E+00	  0.074909821	1.683400E+02	  0.074909821	1.680200E+01	  0.074909821	4.533000E+00
276	  0.075110219	-6.021000E+00	  0.075110219	1.674920E+02	  0.075110219	1.684700E+01	  0.075110219	4.863000E+00
277	  0.075310618	-6.032000E+00	  0.075310618	1.666160E+02	  0.075310618	1.690100E+01	  0.075310618	5.204000E+00
278	  0.075511023	-6.043000E+00	  0.075511023	1.657770E+02	  0.075511023	1.695600E+01	  0.075511023	5.530000E+00
279	  0.075711422	-6.054000E+00	  0.075711422	1.649230E+02	  0.075711422	1.701200E+01	  0.075711422	5.862000E+00
280	  0.075911827	-6.065000E+00	  0.075911827	1.640400E+02	  0.075911827	1.707200E+01	  0.075911827	6.205000E+00
281	  0.076112226	-6.080000E+00	  0.076112226	1.631310E+02	  0.076112226	1.714700E+01	  0.076112226	6.558000E+00
282	  0.076312624	-6.089000E+00	  0.076312624	1.622830E+02	  0.076312624	1.720500E+01	  0.076312624	6.889000E+00
283	  0.076513030	-6.096000E+00	  0.076513030	1.614000E+02	  0.076513030	1.725900E+01	  0.076513030	7.234000E+00
284	  0.076713428	-6.110000E+00	  0.076713428	1.605130E+02	  0.076713428	1.733500E+01	  0.076713428	7.579000E+00
285	  0.076913826	-6.118000E+00	  0.076913826	1.596420E+02	  0.076913826	1.739600E+01	  0.076913826	7.920000E+00
286	  0.077114232	-6.124000E+00	  0.077114232	1.588030E+02	  0.077114232	1.745500E+01	  0.077114232	8.249000E+00
287	  0.077314630	-6.133000E+00	  0.077314630	1.579650E+02	  0.077314630	1.752100E+01	  0.077314630	8.577000E+00
288	  0.077515028	-6.142000E+00	  0.077515028	1.571280E+02	  0.077515028	1.759000E+01	  0.077515028	8.905000E+00
289	  0.077715434	-6.154000E+00	  0.077715434	1.562650E+02	  0.077715434	1.766900E+01	  0.077715434	9.243000E+00
290	  0.077915832	-6.161000E+00	  0.077915832	1.554380E+02	  0.077915832	1.773600E+01	  0.077915832	9.569000E+00
291	  0.078116231	-6.175000E+00	  0.078116231	1.545970E+02	  0.078116231	1.782300E+01	  0.078116231	9.898000E+00
292	  0.078316636	-6.182000E+00	  0.078316636	1.537690E+02	  0.078316636	1.789300E+01	  0.078316636	1.022500E+01
293	  0.078517035	-6.195000E+00	  0.078517035	1.529280E+02	  0.078517035	1.798100E+01	  0.078517035	1.055500E+01
294	  0.078717433	-6.204000E+00	  0.078717433	1.521130E+02	  0.078717433	1.806200E+01	  0.078717433	1.087600E+01
295	  0.078917839	-6.215000E+00	  0.078917839	1.512990E+02	  0.078917839	1.814700E+01	  0.078917839	1.119700E+01
296	  0.079118237	-6.225000E+00	  0.079118237	1.505100E+02	  0.079118237	1.822800E+01	  0.079118237	1.151000E+01
297	  0.079318643	-6.240000E+00	  0.079318643	1.496940E+02	  0.079318643	1.833100E+01	  0.079318643	1.182900E+01
298	  0.079519041	-6.247000E+00	  0.079519041	1.488840E+02	  0.079519041	1.841200E+01	  0.079519041	1.215200E+01
299	  0.079719439	-6.265000E+00	  0.079719439	1.481170E+02	  0.079719439	1.851900E+01	  0.079719439	1.245200E+01
300	  0.079919845	-6.280000E+00	  0.079919845	1.472860E+02	  0.079919845	1.862700E+01	  0.079919845	1.278000E+01
301	  0.080120243	-6.289000E+00	  0.080120243	1.465000E+02	  0.080120243	1.871700E+01	  0.080120243	1.309300E+01
302	  0.080320641	-6.303000E+00	  0.080320641	1.457120E+02	  0.080320641	1.882500E+01	  0.080320641	1.340400E+01
303	  0.080521047	-6.320000E+00	  0.080521047	1.449350E+02	  0.080521047	1.893900E+01	  0.080521047	1.371000E+01
304	  0.080721445	-6.331000E+00	  0.080721445	1.441350E+02	  0.080721445	1.904100E+01	  0.080721445	1.402900E+01
305	  0.080921844	-6.351000E+00	  0.080921844	1.433390E+02	  0.080921844	1.917000E+01	  0.080921844	1.434100E+01
306	  0.081122249	-6.366000E+00	  0.081122249	1.425890E+02	  0.081122249	1.928500E+01	  0.081122249	1.463700E+01
307	  0.081322648	-6.385000E+00	  0.081322648	1.417950E+02	  0.081322648	1.941400E+01	  0.081322648	1.495000E+01
308	  0.081523046	-6.401000E+00	  0.081523046	1.409980E+02	  0.081523046	1.954100E+01	  0.081523046	1.526500E+01
309	  0.081723452	-6.420000E+00	  0.081723452	1.402230E+02	  0.081723452	1.967300E+01	  0.081723452	1.557100E+01
310	  0.081923850	-6.436000E+00	  0.081923850	1.394610E+02	  0.081923850	1.979900E+01	  0.081923850	1.587300E+01
311	  0.082124248	-6.456000E+00	  0.082124248	1.386690E+02	  0.082124248	1.994100E+01	  0.082124248	1.618500E+01
312	  0.082324654	-6.476000E+00	  0.082324654	1.379150E+02	  0.082324654	2.008400E+01	  0.082324654	1.648100E+01
313	  0.082525052	-6.496000E+00	  0.082525052	1.371370E+02	  0.082525052	2.022800E+01	  0.082525052	1.678800E+01
314	  0.082725458	-6.522000E+00	  0.082725458	1.363740E+02	  0.082725458	2.039000E+01	  0.082725458	1.708300E+01
315	  0.082925856	-6.539000E+00	  0.082925856	1.355570E+02	  0.082925856	2.053800E+01	  0.082925856	1.740800E+01
316	  0.083126254	-6.558000E+00	  0.083126254	1.347310E+02	  0.083126254	2.069500E+01	  0.083126254	1.773600E+01
317	  0.083326660	-6.577000E+00	  0.083326660	1.339430E+02	  0.083326660	2.084900E+01	  0.083326660	1.804900E+01
318	  0.083527058	-6.597000E+00	  0.083527058	1.331750E+02	  0.083527058	2.100700E+01	  0.083527058	1.835200E+01
319	  0.083727457	-6.613000E+00	  0.083727457	1.324040E+02	  0.083727457	2.115600E+01	  0.083727457	1.866000E+01
320	  0.083927862	-6.624000E+00	  0.083927862	1.316100E+02	  0.083927862	2.129600E+01	  0.083927862	1.898300E+01
321	  0.084128261	-6.644000E+00	  0.084128261	1.308830E+02	  0.084128261	2.145500E+01	  0.084128261	1.927000E+01
322	  0.084328659	-6.659000E+00	  0.084328659	1.301140E+02	  0.084328659	2.161000E+01	  0.084328659	1.957900E+01
323	  0.084529065	-6.678000E+00	  0.084529065	1.293730E+02	  0.084529065	2.177500E+01	  0.084529065	1.987300E+01
324	  0.084729463	-6.694000E+00	  0.084729463	1.286380E+02	  0.084729463	2.193100E+01	  0.084729463	2.016800E+01
325	  0.084929861	-6.711000E+00	  0.084929861	1.279160E+02	  0.084929861	2.209000E+01	  0.084929861	2.045700E+01
326	  0.085130267	-6.731000E+00	  0.085130267	1.271850E+02	  0.085130267	2.226300E+01	  0.085130267	2.074600E+01
327	  0.085330658	-6.746000E+00	  0.085330658	1.264980E+02	  0.085330658	2.241800E+01	  0.085330658	2.102200E+01
328	  0.085531056	-6.764000E+00	  0.085531056	1.257870E+02	  0.085531056	2.258600E+01	  0.085531056	2.130500E+01
329	  0.085731462	-6.785000E+00	  0.085731462	1.251250E+02	  0.085731462	2.275700E+01	  0.085731462	2.156500E+01
330	  0.085931860	-6.808000E+00	  0.085931860	1.244270E+02	  0.085931860	2.294400E+01	  0.085931860	2.183600E+01
331	  0.086132258	-6.829000E+00	  0.086132258	1.237790E+02	  0.086132258	2.311700E+01	  0.086132258	2.208900E+01
332	  0.086332664	-6.852000E+00	  0.086332664	1.230660E+02	  0.086332664	2.331100E+01	  0.086332664	2.236700E+01
333	  0.086533062	-6.873000E+00	  0.086533062	1.223590E+02	  0.086533062	2.349900E+01	  0.086533062	2.264600E+01
334	  0.086733460	-6.897000E+00	  0.086733460	1.217070E+02	  0.086733460	2.369100E+01	  0.086733460	2.289500E+01
335	  0.086933866	-6.922000E+00	  0.086933866	1.210250E+02	  0.086933866	2.389200E+01	  0.086933866	2.315700E+01
336	  0.087134264	-6.944000E+00	  0.087134264	1.203270E+02	  0.087134264	2.408800E+01	  0.087134264	2.343000E+01
337	  0.087334670	-6.968000E+00	  0.087334670	1.196460E+02	  0.087334670	2.429400E+01	  0.087334670	2.369200E+01
338	  0.087535068	-6.996000E+00	  0.087535068	1.189880E+02	  0.087535068	2.450700E+01	  0.087535068	2.393800E+01
339	  0.087735467	-7.019000E+00	  0.087735467	1.183250E+02	  0.087735467	2.471000E+01	  0.087735467	2.419300E+01
340	  0.087935872	-7.046000E+00	  0.087935872	1.176590E+02	  0.087935872	2.492700E+01	  0.087935872	2.444400E+01
341	  0.088136271	-7.070000E+00	  0.088136271	1.169730E+02	  0.088136271	2.514200E+01	  0.088136271	2.470600E+01
342	  0.088336669	-7.096000E+00	  0.088336669	1.163360E+02	  0.088336669	2.535700E+01	  0.088336669	2.494400E+01
343	  0.088537075	-7.127000E+00	  0.088537075	1.156450E+02	  0.088537075	2.559900E+01	  0.088537075	2.519700E+01
344	  0.088737473	-7.155000E+00	  0.088737473	1.149700E+02	  0.088737473	2.583300E+01	  0.088737473	2.544700E+01
345	  0.088937871	-7.182000E+00	  0.088937871	1.143390E+02	  0.088937871	2.605400E+01	  0.088937871	2.568000E+01
346	  0.089138277	-7.215000E+00	  0.089138277	1.136770E+02	  0.089138277	2.630500E+01	  0.089138277	2.591500E+01
347	  0.089338675	-7.246000E+00	  0.089338675	1.130290E+02	  0.089338675	2.655000E+01	  0.089338675	2.614600E+01
348	  0.089539073	-7.281000E+00	  0.089539073	1.123640E+02	  0.089539073	2.681100E+01	  0.089539073	2.637800E+01
349	  0.089739479	-7.307000E+00	  0.089739479	1.117000E+02	  0.089739479	2.705100E+01	  0.089739479	2.662200E+01
350	  0.089939877	-7.335000E+00	  0.089939877	1.110560E+02	  0.089939877	2.729400E+01	  0.089939877	2.685400E+01
351	  0.090140276	-7.364000E+00	  0.090140276	1.103570E+02	  0.090140276	2.755700E+01	  0.090140276	2.710700E+01
352	  0.090340681	-7.393000E+00	  0.090340681	1.097010E+02	  0.090340681	2.781200E+01	  0.090340681	2.734000E+01
353	  0.090541080	-7.422000E+00	  0.090541080	1.090320E+02	  0.090541080	2.807600E+01	  0.090541080	2.757500E+01
354	  0.090741485	-7.448000E+00	  0.090741485	1.084240E+02	  0.090741485	2.831400E+01	  0.090741485	2.779200E+01
355	  0.090941884	-7.472000E+00	  0.090941884	1.077880E+02	  0.090941884	2.855800E+01	  0.090941884	2.802300E+01
356	  0.091142282	-7.504000E+00	  0.091142282	1.071510E+02	  0.091142282	2.883000E+01	  0.091142282	2.823700E+01
357	  0.091342688	-7.524000E+00	  0.091342688	1.065530E+02	  0.091342688	2.905700E+01	  0.091342688	2.845700E+01
358	  0.091543086	-7.552000E+00	  0.091543086	1.059570E+02	  0.091543086	2.930900E+01	  0.091543086	2.866000E+01
359	  0.091743484	-7.575000E+00	  0.091743484	1.053990E+02	  0.091743484	2.954000E+01	  0.091743484	2.885400E+01
360	  0.091943890	-7.597000E+00	  0.091943890	1.048090E+02	  0.091943890	2.977800E+01	  0.091943890	2.906500E+01
361	  0.092144288	-7.628000E+00	  0.092144288	1.042650E+02	  0.092144288	3.003300E+01	  0.092144288	2.923400E+01
362	  0.092344686	-7.650000E+00	  0.092344686	1.037240E+02	  0.092344686	3.026000E+01	  0.092344686	2.942200E+01
363	  0.092545092	-7.683000E+00	  0.092545092	1.032220E+02	  0.092545092	3.051100E+01	  0.092545092	2.956800E+01
364	  0.092745490	-7.712000E+00	  0.092745490	1.026900E+02	  0.092745490	3.076300E+01	  0.092745490	2.973300E+01
365	  0.092945889	-7.744000E+00	  0.092945889	1.022270E+02	  0.092945889	3.099900E+01	  0.092945889	2.986400E+01
366	  0.093146294	-7.772000E+00	  0.093146294	1.017000E+02	  0.093146294	3.125100E+01	  0.093146294	3.002500E+01
367	  0.093346693	-7.809000E+00	  0.093346693	1.012060E+02	  0.093346693	3.151600E+01	  0.093346693	3.015400E+01
368	  0.093547091	-7.842000E+00	  0.093547091	1.007210E+02	  0.093547091	3.176800E+01	  0.093547091	3.028700E+01
369	  0.093747497	-7.876000E+00	  0.093747497	1.002330E+02	  0.093747497	3.202700E+01	  0.093747497	3.041500E+01
370	  0.093947895	-7.911000E+00	  0.093947895	9.976400E+01	  0.093947895	3.228400E+01	  0.093947895	3.053300E+01
371	  0.094148301	-7.948000E+00	  0.094148301	9.928100E+01	  0.094148301	3.255300E+01	  0.094148301	3.064800E+01
372	  0.094348699	-7.988000E+00	  0.094348699	9.879200E+01	  0.094348699	3.283400E+01	  0.094348699	3.075900E+01
373	  0.094549097	-8.021000E+00	  0.094549097	9.836800E+01	  0.094549097	3.307300E+01	  0.094549097	3.085700E+01
374	  0.094749503	-8.054000E+00	  0.094749503	9.791800E+01	  0.094749503	3.332400E+01	  0.094749503	3.096400E+01
375	  0.094949901	-8.090000E+00	  0.094949901	9.743400E+01	  0.094949901	3.359700E+01	  0.094949901	3.107500E+01
376	  0.095150299	-8.125000E+00	  0.095150299	9.695200E+01	  0.095150299	3.386800E+01	  0.095150299	3.118600E+01
377	  0.095350705	-8.165000E+00	  0.095350705	9.646900E+01	  0.095350705	3.415400E+01	  0.095350705	3.128400E+01
378	  0.095551103	-8.199000E+00	  0.095551103	9.602000E+01	  0.095551103	3.441200E+01	  0.095551103	3.138100E+01
379	  0.095751502	-8.238000E+00	  0.095751502	9.557400E+01	  0.095751502	3.468600E+01	  0.095751502	3.146100E+01
380	  0.095951907	-8.277000E+00	  0.095951907	9.513000E+01	  0.095951907	3.495700E+01	  0.095951907	3.154000E+01
381	  0.096152306	-8.314000E+00	  0.096152306	9.467800E+01	  0.096152306	3.522800E+01	  0.096152306	3.162500E+01
382	  0.096352704	-8.351000E+00	  0.096352704	9.419900E+01	  0.096352704	3.551100E+01	  0.096352704	3.171800E+01
383	  0.096553110	-8.384000E+00	  0.096553110	9.371700E+01	  0.096553110	3.578700E+01	  0.096553110	3.182000E+01
384	  0.096753508	-8.415000E+00	  0.096753508	9.326200E+01	  0.096753508	3.604900E+01	  0.096753508	3.191400E+01
385	  0.096953906	-8.447000E+00	  0.096953906	9.279400E+01	  0.096953906	3.632000E+01	  0.096953906	3.200900E+01
386	  0.097154312	-8.479000E+00	  0.097154312	9.235000E+01	  0.097154312	3.658000E+01	  0.097154312	3.209500E+01
387	  0.097354710	-8.498000E+00	  0.097354710	9.188900E+01	  0.097354710	3.681900E+01	  0.097354710	3.221900E+01
388	  0.097555116	-8.529000E+00	  0.097555116	9.141900E+01	  0.097555116	3.709300E+01	  0.097555116	3.231000E+01
389	  0.097755514	-8.555000E+00	  0.097755514	9.098400E+01	  0.097755514	3.733900E+01	  0.097755514	3.240500E+01
390	  0.097955912	-8.573000E+00	  0.097955912	9.053900E+01	  0.097955912	3.757400E+01	  0.097955912	3.251900E+01
391	  0.098156318	-8.593000E+00	  0.098156318	9.012500E+01	  0.098156318	3.780000E+01	  0.098156318	3.261900E+01
392	  0.098356716	-8.612000E+00	  0.098356716	8.973500E+01	  0.098356716	3.801500E+01	  0.098356716	3.271000E+01
393	  0.098557115	-8.623000E+00	  0.098557115	8.932600E+01	  0.098557115	3.821900E+01	  0.098557115	3.283000E+01
394	  0.098757520	-8.639000E+00	  0.098757520	8.892300E+01	  0.098757520	3.843600E+01	  0.098757520	3.293200E+01
395	  0.098957919	-8.648000E+00	  0.098957919	8.855700E+01	  0.098957919	3.862100E+01	  0.098957919	3.303900E+01
396	  0.099158317	-8.662000E+00	  0.099158317	8.820400E+01	  0.099158317	3.881200E+01	  0.099158317	3.312700E+01
397	  0.099358723	-8.677000E+00	  0.099358723	8.786700E+01	  0.099358723	3.899900E+01	  0.099358723	3.320600E+01
398	  0.099559121	-8.690000E+00	  0.099559121	8.756300E+01	  0.099559121	3.916900E+01	  0.099559121	3.327700E+01
399	  0.099759519	-8.695000E+00	  0.099759519	8.723800E+01	  0.099759519	3.933000E+01	  0.099759519	3.337800E+01
400	  0.099959925	-8.710000E+00	  0.099959925	8.693100E+01	  0.099959925	3.950500E+01	  0.099959925	3.344500E+01
401	  0.100160323	-8.719000E+00	  0.100160323	8.659000E+01	  0.100160323	3.968600E+01	  0.100160323	3.353800E+01
402	  0.100360721	-8.733000E+00	  0.100360721	8.633100E+01	  0.100360721	3.983900E+01	  0.100360721	3.358700E+01
403	  0.100561127	-8.735000E+00	  0.100561127	8.605200E+01	  0.100561127	3.997500E+01	  0.100561127	3.368100E+01
404	  0.100761525	-8.751000E+00	  0.100761525	8.564500E+01	  0.100761525	4.020400E+01	  0.100761525	3.377500E+01
405	  0.100961931	-8.761000E+00	  0.100961931	8.544200E+01	  0.100961931	4.032500E+01	  0.100961931	3.381400E+01
406	  0.101162329	-8.771000E+00	  0.101162329	8.514200E+01	  0.101162329	4.048900E+01	  0.101162329	3.389100E+01
407	  0.101362728	-8.785000E+00	  0.101362728	8.486300E+01	  0.101362728	4.065600E+01	  0.101362728	3.394300E+01
408	  0.101563133	-8.796000E+00	  0.101563133	8.456000E+01	  0.101563133	4.082800E+01	  0.101563133	3.401300E+01
409	  0.101763532	-8.801000E+00	  0.101763532	8.430200E+01	  0.101763532	4.096500E+01	  0.101763532	3.408600E+01
410	  0.101963930	-8.811000E+00	  0.101963930	8.389800E+01	  0.101963930	4.118600E+01	  0.101963930	3.419200E+01
411	  0.102164336	-8.821000E+00	  0.102164336	8.365400E+01	  0.102164336	4.132800E+01	  0.102164336	3.424500E+01
412	  0.102364734	-8.831000E+00	  0.102364734	8.323100E+01	  0.102364734	4.156100E+01	  0.102364734	3.435600E+01
413	  0.102565132	-8.845000E+00	  0.102565132	8.293300E+01	  0.102565132	4.174200E+01	  0.102565132	3.441100E+01
414	  0.102765530	-8.845000E+00	  0.102765530	8.253500E+01	  0.102765530	4.194200E+01	  0.102765530	3.454600E+01
415	  0.102965929	-8.850000E+00	  0.102965929	8.219300E+01	  0.102965929	4.212800E+01	  0.102965929	3.464400E+01
416	  0.103166327	-8.854000E+00	  0.103166327	8.177600E+01	  0.103166327	4.234900E+01	  0.103166327	3.477100E+01
417	  0.103366733	-8.858000E+00	  0.103366733	8.144500E+01	  0.103366733	4.252700E+01	  0.103366733	3.486900E+01
418	  0.103567131	-8.867000E+00	  0.103567131	8.096900E+01	  0.103567131	4.279400E+01	  0.103567131	3.499700E+01
419	  0.103767529	-8.859000E+00	  0.103767529	8.057300E+01	  0.103767529	4.298600E+01	  0.103767529	3.515400E+01
420	  0.103967935	-8.865000E+00	  0.103967935	8.005400E+01	  0.103967935	4.327400E+01	  0.103967935	3.530300E+01
421	  0.104168333	-8.854000E+00	  0.104168333	7.964300E+01	  0.104168333	4.347100E+01	  0.104168333	3.547600E+01
422	  0.104368731	-8.856000E+00	  0.104368731	7.919400E+01	  0.104368731	4.371900E+01	  0.104368731	3.561300E+01
423	  0.104569137	-8.851000E+00	  0.104569137	7.870200E+01	  0.104569137	4.397600E+01	  0.104569137	3.579100E+01
424	  0.104769535	-8.838000E+00	  0.104769535	7.813800E+01	  0.104769535	4.426100E+01	  0.104769535	3.602000E+01
425	  0.104969934	-8.832000E+00	  0.104969934	7.774700E+01	  0.104969934	4.446600E+01	  0.104969934	3.616900E+01
426	  0.105170339	-8.811000E+00	  0.105170339	7.721000E+01	  0.105170339	4.472500E+01	  0.105170339	3.641900E+01
427	  0.105370738	-8.794000E+00	  0.105370738	7.673100E+01	  0.105370738	4.496500E+01	  0.105370738	3.663300E+01
428	  0.105571143	-8.779000E+00	  0.105571143	7.620600E+01	  0.105571143	4.523500E+01	  0.105571143	3.685900E+01
429	  0.105771542	-8.763000E+00	  0.105771542	7.568800E+01	  0.105771542	4.550500E+01	  0.105771542	3.708400E+01
430	  0.105971940	-8.742000E+00	  0.105971940	7.514100E+01	  0.105971940	4.578700E+01	  0.105971940	3.733700E+01
431	  0.106172346	-8.722000E+00	  0.106172346	7.462300E+01	  0.106172346	4.605700E+01	  0.106172346	3.757900E+01
432	  0.106372744	-8.708000E+00	  0.106372744	7.415000E+01	  0.106372744	4.631500E+01	  0.106372744	3.778200E+01
433	  0.106573142	-8.688000E+00	  0.106573142	7.364500E+01	  0.106573142	4.658500E+01	  0.106573142	3.802000E+01
434	  0.106773548	-8.667000E+00	  0.106773548	7.313600E+01	  0.106773548	4.685900E+01	  0.106773548	3.826300E+01
435	  0.106973946	-8.648000E+00	  0.106973946	7.270000E+01	  0.106973946	4.709300E+01	  0.106973946	3.847900E+01
436	  0.107174344	-8.622000E+00	  0.107174344	7.212600E+01	  0.107174344	4.740700E+01	  0.107174344	3.876300E+01
437	  0.107374750	-8.601000E+00	  0.107374750	7.163600E+01	  0.107374750	4.768000E+01	  0.107374750	3.900400E+01
438	  0.107575148	-8.583000E+00	  0.107575148	7.112900E+01	  0.107575148	4.797600E+01	  0.107575148	3.923200E+01
439	  0.107775547	-8.568000E+00	  0.107775547	7.064700E+01	  0.107775547	4.826400E+01	  0.107775547	3.944500E+01
440	  0.107975952	-8.552000E+00	  0.107975952	7.014600E+01	  0.107975952	4.856800E+01	  0.107975952	3.966500E+01
441	  0.108176351	-8.542000E+00	  0.108176351	6.963200E+01	  0.108176351	4.889600E+01	  0.108176351	3.986100E+01
442	  0.108376749	-8.533000E+00	  0.108376749	6.914300E+01	  0.108376749	4.921200E+01	  0.108376749	4.004900E+01
443	  0.108577155	-8.514000E+00	  0.108577155	6.861100E+01	  0.108577155	4.954400E+01	  0.108577155	4.029200E+01
444	  0.108777553	-8.511000E+00	  0.108777553	6.809500E+01	  0.108777553	4.990000E+01	  0.108777553	4.045300E+01
445	  0.108977959	-8.496000E+00	  0.108977959	6.754300E+01	  0.108977959	5.026300E+01	  0.108977959	4.068200E+01
446	  0.109178357	-8.496000E+00	  0.109178357	6.703900E+01	  0.109178357	5.062500E+01	  0.109178357	4.082400E+01
447	  0.109378755	-8.486000E+00	  0.109378755	6.648100E+01	  0.109378755	5.101300E+01	  0.109378755	4.102400E+01
448	  0.109579161	-8.483000E+00	  0.109579161	6.592500E+01	  0.109579161	5.141500E+01	  0.109579161	4.119300E+01
449	  0.109779559	-8.484000E+00	  0.109779559	6.538400E+01	  0.109779559	5.182000E+01	  0.109779559	4.133200E+01
450	  0.109979957	-8.478000E+00	  0.109979957	6.480800E+01	  0.109979957	5.224200E+01	  0.109979957	4.151500E+01
451	  0.110180363	-8.478000E+00	  0.110180363	6.420500E+01	  0.110180363	5.270100E+01	  0.110180363	4.167100E+01
452	  0.110380761	-8.474000E+00	  0.110380761	6.361700E+01	  0.110380761	5.314700E+01	  0.110380761	4.184100E+01
453	  0.110581160	-8.472000E+00	  0.110581160	6.297500E+01	  0.110581160	5.364600E+01	  0.110581160	4.200900E+01
454	  0.110781565	-8.461000E+00	  0.110781565	6.236100E+01	  0.110781565	5.411600E+01	  0.110781565	4.221200E+01
455	  0.110981964	-8.459000E+00	  0.110981964	6.171700E+01	  0.110981964	5.463000E+01	  0.110981964	4.237100E+01
456	  0.111182362	-8.458000E+00	  0.111182362	6.108200E+01	  0.111182362	5.514400E+01	  0.111182362	4.252100E+01
457	  0.111382768	-8.454000E+00	  0.111382768	6.036900E+01	  0.111382768	5.572700E+01	  0.111382768	4.269500E+01
458	  0.111583166	-8.455000E+00	  0.111583166	5.967100E+01	  0.111583166	5.631200E+01	  0.111583166	4.283800E+01
459	  0.111783572	-8.443000E+00	  0.111783572	5.902200E+01	  0.111783572	5.684600E+01	  0.111783572	4.303400E+01
460	  0.111983970	-8.434000E+00	  0.111983970	5.828400E+01	  0.111983970	5.747000E+01	  0.111983970	4.322200E+01
461	  0.112184368	-8.431000E+00	  0.112184368	5.756600E+01	  0.112184368	5.809300E+01	  0.112184368	4.337300E+01
462	  0.112384774	-8.421000E+00	  0.112384774	5.681900E+01	  0.112384774	5.874300E+01	  0.112384774	4.356000E+01
463	  0.112585172	-8.419000E+00	  0.112585172	5.608200E+01	  0.112585172	5.940400E+01	  0.112585172	4.368900E+01
464	  0.112785570	-8.404000E+00	  0.112785570	5.534200E+01	  0.112785570	6.006700E+01	  0.112785570	4.388500E+01
465	  0.112985976	-8.406000E+00	  0.112985976	5.455200E+01	  0.112985976	6.080000E+01	  0.112985976	4.398000E+01
466	  0.113186374	-8.394000E+00	  0.113186374	5.380000E+01	  0.113186374	6.149800E+01	  0.113186374	4.415000E+01
467	  0.113386773	-8.390000E+00	  0.113386773	5.303400E+01	  0.113386773	6.222600E+01	  0.113386773	4.425800E+01
468	  0.113587178	-8.384000E+00	  0.113587178	5.223200E+01	  0.113587178	6.299900E+01	  0.113587178	4.437100E+01
469	  0.113787577	-8.375000E+00	  0.113787577	5.144800E+01	  0.113787577	6.376500E+01	  0.113787577	4.448900E+01
470	  0.113987975	-8.371000E+00	  0.113987975	5.061400E+01	  0.113987975	6.459500E+01	  0.113987975	4.457200E+01
471	  0.114188381	-8.373000E+00	  0.114188381	4.984100E+01	  0.114188381	6.537800E+01	  0.114188381	4.459200E+01
472	  0.114388779	-8.368000E+00	  0.114388779	4.899400E+01	  0.114388779	6.624500E+01	  0.114388779	4.464900E+01
473	  0.114589177	-8.367000E+00	  0.114589177	4.821900E+01	  0.114589177	6.705100E+01	  0.114589177	4.466700E+01
474	  0.114789583	-8.362000E+00	  0.114789583	4.743200E+01	  0.114789583	6.787900E+01	  0.114789583	4.469400E+01
475	  0.114989981	-8.368000E+00	  0.114989981	4.655300E+01	  0.114989981	6.881500E+01	  0.114989981	4.462600E+01
476	  0.115190387	-8.372000E+00	  0.115190387	4.570500E+01	  0.115190387	6.972700E+01	  0.115190387	4.455000E+01
477	  0.115390785	-8.382000E+00	  0.115390785	4.485900E+01	  0.115390785	7.064400E+01	  0.115390785	4.441200E+01
478	  0.115591183	-8.392000E+00	  0.115591183	4.400200E+01	  0.115591183	7.158000E+01	  0.115591183	4.424900E+01
479	  0.115791589	-8.399000E+00	  0.115791589	4.311500E+01	  0.115791589	7.255900E+01	  0.115791589	4.408600E+01
480	  0.115991987	-8.412000E+00	  0.115991987	4.224500E+01	  0.115991987	7.352200E+01	  0.115991987	4.385400E+01
481	  0.116192386	-8.427000E+00	  0.116192386	4.133700E+01	  0.116192386	7.452800E+01	  0.116192386	4.356900E+01
482	  0.116392791	-8.444000E+00	  0.116392791	4.042100E+01	  0.116392791	7.554600E+01	  0.116392791	4.324500E+01
483	  0.116593190	-8.468000E+00	  0.116593190	3.951800E+01	  0.116593190	7.653800E+01	  0.116593190	4.283900E+01
484	  0.116793588	-8.483000E+00	  0.116793588	3.854800E+01	  0.116793588	7.762300E+01	  0.116793588	4.244800E+01
485	  0.116993994	-8.511000E+00	  0.116993994	3.760500E+01	  0.116993994	7.864900E+01	  0.116993994	4.193500E+01
486	  0.117194392	-8.542000E+00	  0.117194392	3.662200E+01	  0.117194392	7.970700E+01	  0.117194392	4.134700E+01
487	  0.117394790	-8.573000E+00	  0.117394790	3.566600E+01	  0.117394790	8.072600E+01	  0.117394790	4.073700E+01
488	  0.117595196	-8.605000E+00	  0.117595196	3.466200E+01	  0.117595196	8.178700E+01	  0.117595196	4.006700E+01
489	  0.117795594	-8.638000E+00	  0.117795594	3.364700E+01	  0.117795594	8.284200E+01	  0.117795594	3.933700E+01
490	  0.117995992	-8.674000E+00	  0.117995992	3.260600E+01	  0.117995992	8.390000E+01	  0.117995992	3.853800E+01
491	  0.118196398	-8.719000E+00	  0.118196398	3.156500E+01	  0.118196398	8.490200E+01	  0.118196398	3.762400E+01
492	  0.118396796	-8.764000E+00	  0.118396796	3.050900E+01	  0.118396796	8.589500E+01	  0.118396796	3.666900E+01
493	  0.118597202	-8.813000E+00	  0.118597202	2.940500E+01	  0.118597202	8.689400E+01	  0.118597202	3.561200E+01
494	  0.118797600	-8.863000E+00	  0.118797600	2.830800E+01	  0.118797600	8.784100E+01	  0.118797600	3.451200E+01
495	  0.118997999	-8.916000E+00	  0.118997999	2.716800E+01	  0.118997999	8.878100E+01	  0.118997999	3.332100E+01
496	  0.119198404	-8.977000E+00	  0.119198404	2.605200E+01	  0.119198404	8.961000E+01	  0.119198404	3.205900E+01
497	  0.119398803	-9.036000E+00	  0.119398803	2.489100E+01	  0.119398803	9.043900E+01	  0.119398803	3.073400E+01
498	  0.119599201	-9.105000E+00	  0.119599201	2.372200E+01	  0.119599201	9.117000E+01	  0.119599201	2.931700E+01
499	  0.119799607	-9.170000E+00	  0.119799607	2.252000E+01	  0.119799607	9.188800E+01	  0.119799607	2.786300E+01
500	  0.120000005	-9.248000E+00	  0.120000005	2.125800E+01	  0.120000005	9.251600E+01	  0.120000005	2.625500E+01
