! Anritsu VNA Master:             	Model: MS2036C/10/77
! SN:             	1601066
! /bd0/18may09/252.ns.m1.txt
! Existing Calibration Information:
! TYPE:             	Current Settings	Active Cal Settings
! TIME:             	05/09/2018 08:51:27 AM	05/09/2018 08:47:23 AM
! INTERNAL TEMP:    	40.0 C	40.0 C
! # POINTS:         	500	500
! START FREQ:       	20.000 MHz	20.000 MHz
! STOP FREQ:        	120.000 MHz	120.000 MHz
! SOURCE POWER:     	High	High
! IFBW:             	50 Hz	50 Hz
! AVG FACTOR:       	  1 	  1 
! REF PLANE 1:      	0 mm	0 mm
! REF PLANE 2:      	0 mm	0 mm
! CAL TYPE:         	Full S11	Full S11
! CAL METHOD:       	SOLT	SOLT
! CAL LINE TYPE:    	Coax	Coax
! DUT PORT 1:       	K-Conn(F)	K-Conn(F)
! DUT PORT 2:       	K-Conn(F)	K-Conn(F)
! CAL STATUS:       	OK: Accuracy High	--
! PROP-V:       	0.700
! CABLE LOSS:       	0.000 dB/m
! REF IMPEDANCE:       	50.0
! Trace Specific Parameters:	TR1	TR2	TR3	TR4
! TRACE.#.Y (GRAPH TYPE)	LOG MAG	PHASE	REAL IMPEDANCE	IMAGINARY IMPEDANCE
! TRACE.#.X 	FREQ.GHZ	FREQ.GHZ	FREQ.GHZ	FREQ.GHZ
! S-PARAMETER	S11	S11	S11	S11
! SMOOTH/APERTURE %	0	0	0	0
! WINDOW	NSL	NSL	NSL	NSL
! GATING	OFF	OFF	OFF	OFF
! FGTD	OFF	OFF	OFF	OFF
Marker Information per Trace:	TR1	TR2	TR3	TR4
!MK1	--	"MK1 TR2:  20.000 MHz,PH:-124.14°"	--	--
!MK2	--	--	"MK2 TR3:  70.100 200 MHz,Z:(16.405 ohm, -3.261 ohm)"	--
!MK3	--	--	--	--
!MK4	--	--	--	--
!MK5	--	--	--	--
!MK6	--	--	--	--
!MK7	--	--	--	--
!MK8	--	--	--	--
PNT	TR1.FREQ.GHZ	TR1.LOG MAG.dB	TR2.FREQ.GHZ	TR2.PHASE.deg	TR3.FREQ.GHZ	TR3.REAL IMPEDANCE.ohm	TR4.FREQ.GHZ	TR4.IMAGINARY IMPEDANCE.ohm
1	  0.020000000	-5.840000E-01	  0.020000000	-1.241410E+02	  0.020000000	2.152000E+00	  0.020000000	-2.646700E+01
2	  0.020200402	-5.840000E-01	  0.020200402	-1.255470E+02	  0.020200402	2.125000E+00	  0.020200402	-2.568800E+01
3	  0.020400802	-5.860000E-01	  0.020400802	-1.269830E+02	  0.020400802	2.104000E+00	  0.020400802	-2.490200E+01
4	  0.020601204	-5.890000E-01	  0.020601204	-1.284160E+02	  0.020601204	2.090000E+00	  0.020601204	-2.412700E+01
5	  0.020801604	-5.920000E-01	  0.020801604	-1.298760E+02	  0.020801604	2.078000E+00	  0.020801604	-2.334800E+01
6	  0.021002004	-6.010000E-01	  0.021002004	-1.313680E+02	  0.021002004	2.083000E+00	  0.021002004	-2.255900E+01
7	  0.021202406	-6.090000E-01	  0.021202406	-1.328620E+02	  0.021202406	2.085000E+00	  0.021202406	-2.178000E+01
8	  0.021402806	-6.140000E-01	  0.021402806	-1.343500E+02	  0.021402806	2.079000E+00	  0.021402806	-2.101200E+01
9	  0.021603208	-6.180000E-01	  0.021603208	-1.358390E+02	  0.021603208	2.073000E+00	  0.021603208	-2.025200E+01
10	  0.021803608	-6.220000E-01	  0.021803608	-1.373320E+02	  0.021803608	2.063000E+00	  0.021803608	-1.949900E+01
11	  0.022004008	-6.280000E-01	  0.022004008	-1.388390E+02	  0.022004008	2.061000E+00	  0.022004008	-1.874500E+01
12	  0.022204408	-6.360000E-01	  0.022204408	-1.403460E+02	  0.022204408	2.068000E+00	  0.022204408	-1.800000E+01
13	  0.022404809	-6.410000E-01	  0.022404809	-1.418660E+02	  0.022404809	2.064000E+00	  0.022404809	-1.725500E+01
14	  0.022605211	-6.440000E-01	  0.022605211	-1.434350E+02	  0.022605211	2.057000E+00	  0.022605211	-1.649300E+01
15	  0.022805611	-6.460000E-01	  0.022805611	-1.449960E+02	  0.022805611	2.045000E+00	  0.022805611	-1.574200E+01
16	  0.023006011	-6.510000E-01	  0.023006011	-1.465330E+02	  0.023006011	2.044000E+00	  0.023006011	-1.500900E+01
17	  0.023206413	-6.520000E-01	  0.023206413	-1.480580E+02	  0.023206413	2.030000E+00	  0.023206413	-1.428700E+01
18	  0.023406813	-6.560000E-01	  0.023406813	-1.496110E+02	  0.023406813	2.028000E+00	  0.023406813	-1.355800E+01
19	  0.023607215	-6.620000E-01	  0.023607215	-1.511550E+02	  0.023607215	2.032000E+00	  0.023607215	-1.283800E+01
20	  0.023807615	-6.700000E-01	  0.023807615	-1.527270E+02	  0.023807615	2.041000E+00	  0.023807615	-1.211000E+01
21	  0.024008015	-6.780000E-01	  0.024008015	-1.543080E+02	  0.024008015	2.052000E+00	  0.024008015	-1.138300E+01
22	  0.024208417	-6.860000E-01	  0.024208417	-1.559070E+02	  0.024208417	2.063000E+00	  0.024208417	-1.065200E+01
23	  0.024408817	-6.950000E-01	  0.024408817	-1.575200E+02	  0.024408817	2.078000E+00	  0.024408817	-9.919000E+00
24	  0.024609219	-7.030000E-01	  0.024609219	-1.591120E+02	  0.024609219	2.091000E+00	  0.024609219	-9.200000E+00
25	  0.024809619	-7.110000E-01	  0.024809619	-1.607220E+02	  0.024809619	2.105000E+00	  0.024809619	-8.476000E+00
26	  0.025010020	-7.200000E-01	  0.025010020	-1.623500E+02	  0.025010020	2.121000E+00	  0.025010020	-7.749000E+00
27	  0.025210422	-7.320000E-01	  0.025210422	-1.639730E+02	  0.025210422	2.148000E+00	  0.025210422	-7.026000E+00
28	  0.025410822	-7.450000E-01	  0.025410822	-1.656320E+02	  0.025410822	2.179000E+00	  0.025410822	-6.290000E+00
29	  0.025611224	-7.560000E-01	  0.025611224	-1.672940E+02	  0.025611224	2.203000E+00	  0.025611224	-5.555000E+00
30	  0.025811624	-7.670000E-01	  0.025811624	-1.689780E+02	  0.025811624	2.228000E+00	  0.025811624	-4.814000E+00
31	  0.026012026	-7.770000E-01	  0.026012026	-1.706680E+02	  0.026012026	2.249000E+00	  0.026012026	-4.072000E+00
32	  0.026212426	-7.860000E-01	  0.026212426	-1.723550E+02	  0.026212426	2.272000E+00	  0.026212426	-3.333000E+00
33	  0.026412826	-7.990000E-01	  0.026412826	-1.740570E+02	  0.026412826	2.305000E+00	  0.026412826	-2.589000E+00
34	  0.026613226	-8.110000E-01	  0.026613226	-1.757710E+02	  0.026613226	2.338000E+00	  0.026613226	-1.841000E+00
35	  0.026813626	-8.270000E-01	  0.026813626	-1.774900E+02	  0.026813626	2.381000E+00	  0.026813626	-1.092000E+00
36	  0.027014028	-8.420000E-01	  0.027014028	-1.792230E+02	  0.027014028	2.423000E+00	  0.027014028	-3.370000E-01
37	  0.027214428	-8.580000E-01	  0.027214428	1.790340E+02	  0.027214428	2.467000E+00	  0.027214428	4.200000E-01
38	  0.027414829	-8.730000E-01	  0.027414829	1.772690E+02	  0.027414829	2.513000E+00	  0.027414829	1.188000E+00
39	  0.027615231	-8.890000E-01	  0.027615231	1.755010E+02	  0.027615231	2.561000E+00	  0.027615231	1.958000E+00
40	  0.027815631	-9.090000E-01	  0.027815631	1.737290E+02	  0.027815631	2.623000E+00	  0.027815631	2.731000E+00
41	  0.028016033	-9.300000E-01	  0.028016033	1.719400E+02	  0.028016033	2.690000E+00	  0.028016033	3.512000E+00
42	  0.028216433	-9.540000E-01	  0.028216433	1.701400E+02	  0.028216433	2.763000E+00	  0.028216433	4.299000E+00
43	  0.028416833	-9.740000E-01	  0.028416833	1.683460E+02	  0.028416833	2.829000E+00	  0.028416833	5.086000E+00
44	  0.028617235	-9.940000E-01	  0.028617235	1.665400E+02	  0.028617235	2.899000E+00	  0.028617235	5.880000E+00
45	  0.028817635	-1.016000E+00	  0.028817635	1.647500E+02	  0.028817635	2.974000E+00	  0.028817635	6.670000E+00
46	  0.029018037	-1.036000E+00	  0.029018037	1.629590E+02	  0.029018037	3.046000E+00	  0.029018037	7.463000E+00
47	  0.029218437	-1.060000E+00	  0.029218437	1.611650E+02	  0.029218437	3.131000E+00	  0.029218437	8.261000E+00
48	  0.029418837	-1.087000E+00	  0.029418837	1.593610E+02	  0.029418837	3.230000E+00	  0.029418837	9.067000E+00
49	  0.029619239	-1.115000E+00	  0.029619239	1.575420E+02	  0.029619239	3.332000E+00	  0.029619239	9.883000E+00
50	  0.029819639	-1.146000E+00	  0.029819639	1.557070E+02	  0.029819639	3.445000E+00	  0.029819639	1.071200E+01
51	  0.030020041	-1.178000E+00	  0.030020041	1.538290E+02	  0.030020041	3.568000E+00	  0.030020041	1.156500E+01
52	  0.030220442	-1.208000E+00	  0.030220442	1.519600E+02	  0.030220442	3.687000E+00	  0.030220442	1.242000E+01
53	  0.030420844	-1.239000E+00	  0.030420844	1.500870E+02	  0.030420844	3.814000E+00	  0.030420844	1.328300E+01
54	  0.030621244	-1.272000E+00	  0.030621244	1.482120E+02	  0.030621244	3.951000E+00	  0.030621244	1.415400E+01
55	  0.030821644	-1.307000E+00	  0.030821644	1.463430E+02	  0.030821644	4.099000E+00	  0.030821644	1.502900E+01
56	  0.031022044	-1.343000E+00	  0.031022044	1.444550E+02	  0.031022044	4.254000E+00	  0.031022044	1.592100E+01
57	  0.031222444	-1.376000E+00	  0.031222444	1.425740E+02	  0.031222444	4.403000E+00	  0.031222444	1.681800E+01
58	  0.031422846	-1.412000E+00	  0.031422846	1.406500E+02	  0.031422846	4.570000E+00	  0.031422846	1.774500E+01
59	  0.031623244	-1.446000E+00	  0.031623244	1.387060E+02	  0.031623244	4.738000E+00	  0.031623244	1.869200E+01
60	  0.031823646	-1.477000E+00	  0.031823646	1.367410E+02	  0.031823646	4.903000E+00	  0.031823646	1.966000E+01
61	  0.032024048	-1.507000E+00	  0.032024048	1.347990E+02	  0.032024048	5.070000E+00	  0.032024048	2.063000E+01
62	  0.032224450	-1.539000E+00	  0.032224450	1.328640E+02	  0.032224450	5.254000E+00	  0.032224450	2.160800E+01
63	  0.032424849	-1.571000E+00	  0.032424849	1.309420E+02	  0.032424849	5.440000E+00	  0.032424849	2.259200E+01
64	  0.032625251	-1.604000E+00	  0.032625251	1.289910E+02	  0.032625251	5.640000E+00	  0.032625251	2.360500E+01
65	  0.032825653	-1.638000E+00	  0.032825653	1.270680E+02	  0.032825653	5.856000E+00	  0.032825653	2.461700E+01
66	  0.033026051	-1.678000E+00	  0.033026051	1.251130E+02	  0.033026051	6.099000E+00	  0.033026051	2.566000E+01
67	  0.033226453	-1.726000E+00	  0.033226453	1.231360E+02	  0.033226453	6.386000E+00	  0.033226453	2.672800E+01
68	  0.033426855	-1.774000E+00	  0.033426855	1.211740E+02	  0.033426855	6.683000E+00	  0.033426855	2.780400E+01
69	  0.033627257	-1.823000E+00	  0.033627257	1.191360E+02	  0.033627257	7.006000E+00	  0.033627257	2.894100E+01
70	  0.033827655	-1.869000E+00	  0.033827655	1.170700E+02	  0.033827655	7.336000E+00	  0.033827655	3.011600E+01
71	  0.034028057	-1.916000E+00	  0.034028057	1.149820E+02	  0.034028057	7.687000E+00	  0.034028057	3.132500E+01
72	  0.034228459	-1.960000E+00	  0.034228459	1.128750E+02	  0.034228459	8.048000E+00	  0.034228459	3.257200E+01
73	  0.034428857	-2.005000E+00	  0.034428857	1.107300E+02	  0.034428857	8.435000E+00	  0.034428857	3.386700E+01
74	  0.034629259	-2.046000E+00	  0.034629259	1.086270E+02	  0.034629259	8.822000E+00	  0.034629259	3.516700E+01
75	  0.034829661	-2.085000E+00	  0.034829661	1.065130E+02	  0.034829661	9.229000E+00	  0.034829661	3.650400E+01
76	  0.035030060	-2.124000E+00	  0.035030060	1.044020E+02	  0.035030060	9.659000E+00	  0.035030060	3.787000E+01
77	  0.035230462	-2.165000E+00	  0.035230462	1.022940E+02	  0.035230462	1.012400E+01	  0.035230462	3.926500E+01
78	  0.035430863	-2.205000E+00	  0.035430863	1.002260E+02	  0.035430863	1.060300E+01	  0.035430863	4.066700E+01
79	  0.035631265	-2.246000E+00	  0.035631265	9.814000E+01	  0.035631265	1.112500E+01	  0.035631265	4.211600E+01
80	  0.035831664	-2.289000E+00	  0.035831664	9.608200E+01	  0.035831664	1.168400E+01	  0.035831664	4.357800E+01
81	  0.036032066	-2.335000E+00	  0.036032066	9.401700E+01	  0.036032066	1.229600E+01	  0.036032066	4.507900E+01
82	  0.036232468	-2.380000E+00	  0.036232468	9.197000E+01	  0.036232468	1.294300E+01	  0.036232468	4.660500E+01
83	  0.036432866	-2.431000E+00	  0.036432866	8.993500E+01	  0.036432866	1.365600E+01	  0.036432866	4.815400E+01
84	  0.036633268	-2.487000E+00	  0.036633268	8.786200E+01	  0.036633268	1.445700E+01	  0.036633268	4.976600E+01
85	  0.036833670	-2.549000E+00	  0.036833670	8.581300E+01	  0.036833670	1.534400E+01	  0.036833670	5.138800E+01
86	  0.037034072	-2.609000E+00	  0.037034072	8.371800E+01	  0.037034072	1.628900E+01	  0.037034072	5.309500E+01
87	  0.037234470	-2.669000E+00	  0.037234470	8.160000E+01	  0.037234470	1.731500E+01	  0.037234470	5.486600E+01
88	  0.037434869	-2.733000E+00	  0.037434869	7.946400E+01	  0.037434869	1.845100E+01	  0.037434869	5.669100E+01
89	  0.037635271	-2.799000E+00	  0.037635271	7.731000E+01	  0.037635271	1.968700E+01	  0.037635271	5.857700E+01
90	  0.037835669	-2.865000E+00	  0.037835669	7.513100E+01	  0.037835669	2.103800E+01	  0.037835669	6.053500E+01
91	  0.038036071	-2.935000E+00	  0.038036071	7.298200E+01	  0.038036071	2.251100E+01	  0.038036071	6.249900E+01
92	  0.038236473	-2.992000E+00	  0.038236473	7.088900E+01	  0.038236473	2.398600E+01	  0.038236473	6.449100E+01
93	  0.038436871	-3.042000E+00	  0.038436871	6.875400E+01	  0.038436871	2.554900E+01	  0.038436871	6.661000E+01
94	  0.038637273	-3.086000E+00	  0.038637273	6.660900E+01	  0.038637273	2.720900E+01	  0.038637273	6.882200E+01
95	  0.038837675	-3.133000E+00	  0.038837675	6.448200E+01	  0.038837675	2.902500E+01	  0.038837675	7.106000E+01
96	  0.039038073	-3.182000E+00	  0.039038073	6.239900E+01	  0.039038073	3.098100E+01	  0.039038073	7.329300E+01
97	  0.039238475	-3.231000E+00	  0.039238475	6.031600E+01	  0.039238475	3.311500E+01	  0.039238475	7.557000E+01
98	  0.039438877	-3.287000E+00	  0.039438877	5.825400E+01	  0.039438877	3.547200E+01	  0.039438877	7.782500E+01
99	  0.039639279	-3.348000E+00	  0.039639279	5.619000E+01	  0.039639279	3.808500E+01	  0.039639279	8.007400E+01
100	  0.039839678	-3.412000E+00	  0.039839678	5.411200E+01	  0.039839678	4.096800E+01	  0.039839678	8.233400E+01
101	  0.040040080	-3.476000E+00	  0.040040080	5.201500E+01	  0.040040080	4.412600E+01	  0.040040080	8.461800E+01
102	  0.040240481	-3.543000E+00	  0.040240481	4.989100E+01	  0.040240481	4.764200E+01	  0.040240481	8.688200E+01
103	  0.040440880	-3.605000E+00	  0.040440880	4.777600E+01	  0.040440880	5.141600E+01	  0.040440880	8.913700E+01
104	  0.040641282	-3.668000E+00	  0.040641282	4.566400E+01	  0.040641282	5.553100E+01	  0.040641282	9.131500E+01
105	  0.040841684	-3.732000E+00	  0.040841684	4.354500E+01	  0.040841684	6.004700E+01	  0.040841684	9.336800E+01
106	  0.041042086	-3.794000E+00	  0.041042086	4.143200E+01	  0.041042086	6.493000E+01	  0.041042086	9.529200E+01
107	  0.041242484	-3.852000E+00	  0.041242484	3.928800E+01	  0.041242484	7.027500E+01	  0.041242484	9.711400E+01
108	  0.041442886	-3.909000E+00	  0.041442886	3.716600E+01	  0.041442886	7.602300E+01	  0.041442886	9.866400E+01
109	  0.041643288	-3.965000E+00	  0.041643288	3.504100E+01	  0.041643288	8.224100E+01	  0.041643288	9.992700E+01
110	  0.041843686	-4.018000E+00	  0.041843686	3.293700E+01	  0.041843686	8.887200E+01	  0.041843686	1.008030E+02
111	  0.042044088	-4.073000E+00	  0.042044088	3.085200E+01	  0.042044088	9.592200E+01	  0.042044088	1.011530E+02
112	  0.042244490	-4.124000E+00	  0.042244490	2.877600E+01	  0.042244490	1.033900E+02	  0.042244490	1.009740E+02
113	  0.042444889	-4.177000E+00	  0.042444889	2.674300E+01	  0.042444889	1.111090E+02	  0.042444889	1.000630E+02
114	  0.042645290	-4.231000E+00	  0.042645290	2.468700E+01	  0.042645290	1.192540E+02	  0.042645290	9.831300E+01
115	  0.042845692	-4.283000E+00	  0.042845692	2.264200E+01	  0.042845692	1.276070E+02	  0.042845692	9.569000E+01
116	  0.043046094	-4.333000E+00	  0.043046094	2.059900E+01	  0.043046094	1.360900E+02	  0.043046094	9.209500E+01
117	  0.043246493	-4.386000E+00	  0.043246493	1.857700E+01	  0.043246493	1.444300E+02	  0.043246493	8.735600E+01
118	  0.043446895	-4.436000E+00	  0.043446895	1.653400E+01	  0.043446895	1.526670E+02	  0.043446895	8.148000E+01
119	  0.043647297	-4.489000E+00	  0.043647297	1.453000E+01	  0.043647297	1.602330E+02	  0.043647297	7.442100E+01
120	  0.043847695	-4.540000E+00	  0.043847695	1.251500E+01	  0.043847695	1.671950E+02	  0.043847695	6.624700E+01
121	  0.044048097	-4.591000E+00	  0.044048097	1.051200E+01	  0.044048097	1.732360E+02	  0.044048097	5.710100E+01
122	  0.044248499	-4.642000E+00	  0.044248499	8.518000E+00	  0.044248499	1.781120E+02	  0.044248499	4.709100E+01
123	  0.044448901	-4.692000E+00	  0.044448901	6.535000E+00	  0.044448901	1.816810E+02	  0.044448901	3.647400E+01
124	  0.044649299	-4.740000E+00	  0.044649299	4.558000E+00	  0.044649299	1.839470E+02	  0.044649299	2.550200E+01
125	  0.044849701	-4.785000E+00	  0.044849701	2.566000E+00	  0.044849701	1.848960E+02	  0.044849701	1.429400E+01
126	  0.045050103	-4.825000E+00	  0.045050103	6.120000E-01	  0.045050103	1.845300E+02	  0.045050103	3.372000E+00
127	  0.045250501	-4.867000E+00	  0.045250501	-1.321000E+00	  0.045250501	1.827820E+02	  0.045250501	-7.143000E+00
128	  0.045450903	-4.908000E+00	  0.045450903	-3.254000E+00	  0.045450903	1.798820E+02	  0.045450903	-1.714500E+01
129	  0.045651305	-4.953000E+00	  0.045651305	-5.182000E+00	  0.045651305	1.757900E+02	  0.045651305	-2.639000E+01
130	  0.045851704	-4.994000E+00	  0.045851704	-7.069000E+00	  0.045851704	1.710320E+02	  0.045851704	-3.466700E+01
131	  0.046052106	-5.036000E+00	  0.046052106	-8.976000E+00	  0.046052106	1.655460E+02	  0.046052106	-4.215000E+01
132	  0.046252504	-5.074000E+00	  0.046252504	-1.087500E+01	  0.046252504	1.596850E+02	  0.046252504	-4.875200E+01
133	  0.046452906	-5.110000E+00	  0.046452906	-1.276100E+01	  0.046452906	1.535370E+02	  0.046452906	-5.444500E+01
134	  0.046653304	-5.144000E+00	  0.046653304	-1.466200E+01	  0.046653304	1.472050E+02	  0.046653304	-5.938100E+01
135	  0.046853706	-5.176000E+00	  0.046853706	-1.651100E+01	  0.046853706	1.409510E+02	  0.046853706	-6.339800E+01
136	  0.047054108	-5.210000E+00	  0.047054108	-1.839000E+01	  0.047054108	1.345960E+02	  0.047054108	-6.672200E+01
137	  0.047254506	-5.239000E+00	  0.047254506	-2.025300E+01	  0.047254506	1.284320E+02	  0.047254506	-6.942300E+01
138	  0.047454908	-5.266000E+00	  0.047454908	-2.209400E+01	  0.047454908	1.224880E+02	  0.047454908	-7.152300E+01
139	  0.047655310	-5.293000E+00	  0.047655310	-2.389800E+01	  0.047655310	1.168340E+02	  0.047655310	-7.305600E+01
140	  0.047855709	-5.321000E+00	  0.047855709	-2.569400E+01	  0.047855709	1.114060E+02	  0.047855709	-7.412300E+01
141	  0.048056111	-5.351000E+00	  0.048056111	-2.750300E+01	  0.048056111	1.061590E+02	  0.048056111	-7.475500E+01
142	  0.048256513	-5.377000E+00	  0.048256513	-2.928400E+01	  0.048256513	1.012470E+02	  0.048256513	-7.510900E+01
143	  0.048456915	-5.405000E+00	  0.048456915	-3.105700E+01	  0.048456915	9.659500E+01	  0.048456915	-7.512800E+01
144	  0.048657313	-5.428000E+00	  0.048657313	-3.284600E+01	  0.048657313	9.215100E+01	  0.048657313	-7.499900E+01
145	  0.048857715	-5.448000E+00	  0.048857715	-3.462300E+01	  0.048857715	8.797000E+01	  0.048857715	-7.468700E+01
146	  0.049058117	-5.470000E+00	  0.049058117	-3.637400E+01	  0.049058117	8.407300E+01	  0.049058117	-7.416200E+01
147	  0.049258515	-5.490000E+00	  0.049258515	-3.812300E+01	  0.049258515	8.039300E+01	  0.049258515	-7.352800E+01
148	  0.049458917	-5.511000E+00	  0.049458917	-3.986200E+01	  0.049458917	7.694200E+01	  0.049458917	-7.274000E+01
149	  0.049659319	-5.537000E+00	  0.049659319	-4.159100E+01	  0.049659319	7.371800E+01	  0.049659319	-7.179900E+01
150	  0.049859721	-5.553000E+00	  0.049859721	-4.330700E+01	  0.049859721	7.067600E+01	  0.049859721	-7.089100E+01
151	  0.050060119	-5.573000E+00	  0.050060119	-4.503000E+01	  0.050060119	6.780700E+01	  0.050060119	-6.986800E+01
152	  0.050260521	-5.586000E+00	  0.050260521	-4.676400E+01	  0.050260521	6.506200E+01	  0.050260521	-6.885000E+01
153	  0.050460923	-5.602000E+00	  0.050460923	-4.848000E+01	  0.050460923	6.250900E+01	  0.050460923	-6.776400E+01
154	  0.050661322	-5.610000E+00	  0.050661322	-5.018100E+01	  0.050661322	6.009200E+01	  0.050661322	-6.671900E+01
155	  0.050861724	-5.622000E+00	  0.050861724	-5.183900E+01	  0.050861724	5.788000E+01	  0.050861724	-6.562600E+01
156	  0.051062126	-5.633000E+00	  0.051062126	-5.348200E+01	  0.051062126	5.580100E+01	  0.051062126	-6.453100E+01
157	  0.051262524	-5.645000E+00	  0.051262524	-5.509900E+01	  0.051262524	5.387400E+01	  0.051262524	-6.341500E+01
158	  0.051462926	-5.658000E+00	  0.051462926	-5.669400E+01	  0.051462926	5.207200E+01	  0.051462926	-6.230700E+01
159	  0.051663328	-5.668000E+00	  0.051663328	-5.826700E+01	  0.051663328	5.038000E+01	  0.051663328	-6.121500E+01
160	  0.051863730	-5.684000E+00	  0.051863730	-5.987100E+01	  0.051863730	4.876500E+01	  0.051863730	-6.006400E+01
161	  0.052064128	-5.698000E+00	  0.052064128	-6.146900E+01	  0.052064128	4.723400E+01	  0.052064128	-5.892800E+01
162	  0.052264530	-5.711000E+00	  0.052264530	-6.305300E+01	  0.052264530	4.578500E+01	  0.052264530	-5.781600E+01
163	  0.052464932	-5.725000E+00	  0.052464932	-6.465500E+01	  0.052464932	4.440200E+01	  0.052464932	-5.668500E+01
164	  0.052665330	-5.740000E+00	  0.052665330	-6.622400E+01	  0.052665330	4.312300E+01	  0.052665330	-5.557500E+01
165	  0.052865732	-5.753000E+00	  0.052865732	-6.781900E+01	  0.052865732	4.187800E+01	  0.052865732	-5.446700E+01
166	  0.053066134	-5.764000E+00	  0.053066134	-6.938000E+01	  0.053066134	4.070900E+01	  0.053066134	-5.340600E+01
167	  0.053266536	-5.772000E+00	  0.053266536	-7.097800E+01	  0.053266536	3.956100E+01	  0.053266536	-5.233700E+01
168	  0.053466935	-5.781000E+00	  0.053466935	-7.254100E+01	  0.053466935	3.849500E+01	  0.053466935	-5.129700E+01
169	  0.053667337	-5.783000E+00	  0.053667337	-7.408600E+01	  0.053667337	3.746500E+01	  0.053667337	-5.030500E+01
170	  0.053867739	-5.787000E+00	  0.053867739	-7.564100E+01	  0.053867739	3.647900E+01	  0.053867739	-4.931000E+01
171	  0.054068137	-5.792000E+00	  0.054068137	-7.714900E+01	  0.054068137	3.557700E+01	  0.054068137	-4.834300E+01
172	  0.054268539	-5.796000E+00	  0.054268539	-7.865000E+01	  0.054268539	3.471100E+01	  0.054268539	-4.739700E+01
173	  0.054468941	-5.803000E+00	  0.054468941	-8.010100E+01	  0.054468941	3.392000E+01	  0.054468941	-4.648000E+01
174	  0.054669339	-5.806000E+00	  0.054669339	-8.154500E+01	  0.054669339	3.315700E+01	  0.054669339	-4.558700E+01
175	  0.054869737	-5.814000E+00	  0.054869737	-8.299400E+01	  0.054869737	3.244100E+01	  0.054869737	-4.468300E+01
176	  0.055070139	-5.822000E+00	  0.055070139	-8.441700E+01	  0.055070139	3.176700E+01	  0.055070139	-4.380600E+01
177	  0.055270538	-5.829000E+00	  0.055270538	-8.585000E+01	  0.055270538	3.111100E+01	  0.055270538	-4.293600E+01
178	  0.055470940	-5.838000E+00	  0.055470940	-8.729400E+01	  0.055470940	3.048700E+01	  0.055470940	-4.206200E+01
179	  0.055671342	-5.844000E+00	  0.055671342	-8.870400E+01	  0.055671342	2.988900E+01	  0.055671342	-4.122900E+01
180	  0.055871744	-5.854000E+00	  0.055871744	-9.010700E+01	  0.055871744	2.933500E+01	  0.055871744	-4.039600E+01
181	  0.056072142	-5.860000E+00	  0.056072142	-9.151200E+01	  0.056072142	2.878800E+01	  0.056072142	-3.958100E+01
182	  0.056272544	-5.868000E+00	  0.056272544	-9.292100E+01	  0.056272544	2.826900E+01	  0.056272544	-3.876800E+01
183	  0.056472946	-5.873000E+00	  0.056472946	-9.430500E+01	  0.056472946	2.776700E+01	  0.056472946	-3.798600E+01
184	  0.056673344	-5.878000E+00	  0.056673344	-9.569400E+01	  0.056673344	2.728500E+01	  0.056673344	-3.720800E+01
185	  0.056873746	-5.883000E+00	  0.056873746	-9.708500E+01	  0.056873746	2.681800E+01	  0.056873746	-3.643900E+01
186	  0.057074148	-5.879000E+00	  0.057074148	-9.843400E+01	  0.057074148	2.635100E+01	  0.057074148	-3.572000E+01
187	  0.057274550	-5.882000E+00	  0.057274550	-9.979600E+01	  0.057274550	2.592400E+01	  0.057274550	-3.498300E+01
188	  0.057474948	-5.882000E+00	  0.057474948	-1.011290E+02	  0.057474948	2.551000E+01	  0.057474948	-3.427600E+01
189	  0.057675350	-5.881000E+00	  0.057675350	-1.024380E+02	  0.057675350	2.511500E+01	  0.057675350	-3.359000E+01
190	  0.057875752	-5.884000E+00	  0.057875752	-1.037280E+02	  0.057875752	2.475100E+01	  0.057875752	-3.291300E+01
191	  0.058076151	-5.882000E+00	  0.058076151	-1.049960E+02	  0.058076151	2.439100E+01	  0.058076151	-3.226200E+01
192	  0.058276553	-5.883000E+00	  0.058276553	-1.062470E+02	  0.058276553	2.405300E+01	  0.058276553	-3.162100E+01
193	  0.058476955	-5.887000E+00	  0.058476955	-1.075050E+02	  0.058476955	2.373800E+01	  0.058476955	-3.097500E+01
194	  0.058677353	-5.887000E+00	  0.058677353	-1.087770E+02	  0.058677353	2.341900E+01	  0.058677353	-3.033400E+01
195	  0.058877755	-5.891000E+00	  0.058877755	-1.100210E+02	  0.058877755	2.313000E+01	  0.058877755	-2.970600E+01
196	  0.059078157	-5.891000E+00	  0.059078157	-1.112830E+02	  0.059078157	2.283000E+01	  0.059078157	-2.908300E+01
197	  0.059278559	-5.894000E+00	  0.059278559	-1.125430E+02	  0.059278559	2.255500E+01	  0.059278559	-2.845900E+01
198	  0.059478957	-5.897000E+00	  0.059478957	-1.138090E+02	  0.059478957	2.228600E+01	  0.059478957	-2.783800E+01
199	  0.059679359	-5.899000E+00	  0.059679359	-1.150640E+02	  0.059679359	2.202400E+01	  0.059679359	-2.722900E+01
200	  0.059879761	-5.895000E+00	  0.059879761	-1.162910E+02	  0.059879761	2.175800E+01	  0.059879761	-2.664600E+01
201	  0.060080159	-5.895000E+00	  0.060080159	-1.175320E+02	  0.060080159	2.151200E+01	  0.060080159	-2.605600E+01
202	  0.060280561	-5.892000E+00	  0.060280561	-1.187660E+02	  0.060280561	2.126600E+01	  0.060280561	-2.547700E+01
203	  0.060480963	-5.890000E+00	  0.060480963	-1.199750E+02	  0.060480963	2.103500E+01	  0.060480963	-2.491200E+01
204	  0.060681365	-5.888000E+00	  0.060681365	-1.211800E+02	  0.060681365	2.081200E+01	  0.060681365	-2.435300E+01
205	  0.060881764	-5.886000E+00	  0.060881764	-1.224170E+02	  0.060881764	2.059000E+01	  0.060881764	-2.378300E+01
206	  0.061082166	-5.885000E+00	  0.061082166	-1.236160E+02	  0.061082166	2.038600E+01	  0.061082166	-2.323300E+01
207	  0.061282568	-5.877000E+00	  0.061282568	-1.247940E+02	  0.061282568	2.016800E+01	  0.061282568	-2.270500E+01
208	  0.061482966	-5.875000E+00	  0.061482966	-1.259560E+02	  0.061482966	1.997900E+01	  0.061482966	-2.217900E+01
209	  0.061683368	-5.873000E+00	  0.061683368	-1.271080E+02	  0.061683368	1.980000E+01	  0.061683368	-2.166100E+01
210	  0.061883770	-5.871000E+00	  0.061883770	-1.282460E+02	  0.061883770	1.962700E+01	  0.061883770	-2.115200E+01
211	  0.062084168	-5.865000E+00	  0.062084168	-1.294040E+02	  0.062084168	1.944400E+01	  0.062084168	-2.064200E+01
212	  0.062284570	-5.865000E+00	  0.062284570	-1.305510E+02	  0.062284570	1.928400E+01	  0.062284570	-2.013400E+01
213	  0.062484972	-5.865000E+00	  0.062484972	-1.316420E+02	  0.062484972	1.913800E+01	  0.062484972	-1.965200E+01
214	  0.062685370	-5.865000E+00	  0.062685370	-1.327910E+02	  0.062685370	1.899000E+01	  0.062685370	-1.914900E+01
215	  0.062885776	-5.863000E+00	  0.062885776	-1.339380E+02	  0.062885776	1.884100E+01	  0.062885776	-1.865000E+01
216	  0.063086174	-5.866000E+00	  0.063086174	-1.351060E+02	  0.063086174	1.871000E+01	  0.063086174	-1.814000E+01
217	  0.063286573	-5.863000E+00	  0.063286573	-1.362390E+02	  0.063286573	1.857100E+01	  0.063286573	-1.765400E+01
218	  0.063486971	-5.863000E+00	  0.063486971	-1.373750E+02	  0.063486971	1.844100E+01	  0.063486971	-1.716600E+01
219	  0.063687377	-5.859000E+00	  0.063687377	-1.385030E+02	  0.063687377	1.830700E+01	  0.063687377	-1.668700E+01
220	  0.063887775	-5.854000E+00	  0.063887775	-1.396400E+02	  0.063887775	1.817600E+01	  0.063887775	-1.620600E+01
221	  0.064088173	-5.855000E+00	  0.064088173	-1.407580E+02	  0.064088173	1.806300E+01	  0.064088173	-1.573200E+01
222	  0.064288579	-5.852000E+00	  0.064288579	-1.419020E+02	  0.064288579	1.794400E+01	  0.064288579	-1.525200E+01
223	  0.064488977	-5.849000E+00	  0.064488977	-1.429690E+02	  0.064488977	1.783700E+01	  0.064488977	-1.480500E+01
224	  0.064689375	-5.846000E+00	  0.064689375	-1.440680E+02	  0.064689375	1.772900E+01	  0.064689375	-1.434700E+01
225	  0.064889781	-5.844000E+00	  0.064889781	-1.451190E+02	  0.064889781	1.763100E+01	  0.064889781	-1.391100E+01
226	  0.065090179	-5.843000E+00	  0.065090179	-1.462060E+02	  0.065090179	1.753800E+01	  0.065090179	-1.346000E+01
227	  0.065290578	-5.844000E+00	  0.065290578	-1.472630E+02	  0.065290578	1.745600E+01	  0.065290578	-1.302200E+01
228	  0.065490983	-5.846000E+00	  0.065490983	-1.483220E+02	  0.065490983	1.737900E+01	  0.065490983	-1.258500E+01
229	  0.065691382	-5.846000E+00	  0.065691382	-1.493850E+02	  0.065691382	1.729900E+01	  0.065691382	-1.214900E+01
230	  0.065891780	-5.846000E+00	  0.065891780	-1.504600E+02	  0.065891780	1.722100E+01	  0.065891780	-1.170900E+01
231	  0.066092186	-5.848000E+00	  0.066092186	-1.514970E+02	  0.066092186	1.715600E+01	  0.066092186	-1.128500E+01
232	  0.066292584	-5.847000E+00	  0.066292584	-1.525760E+02	  0.066292584	1.708100E+01	  0.066292584	-1.084700E+01
233	  0.066492982	-5.851000E+00	  0.066492982	-1.535890E+02	  0.066492982	1.702600E+01	  0.066492982	-1.043500E+01
234	  0.066693388	-5.848000E+00	  0.066693388	-1.546340E+02	  0.066693388	1.695700E+01	  0.066693388	-1.001300E+01
235	  0.066893786	-5.848000E+00	  0.066893786	-1.556960E+02	  0.066893786	1.689500E+01	  0.066893786	-9.585000E+00
236	  0.067094192	-5.852000E+00	  0.067094192	-1.566990E+02	  0.067094192	1.684900E+01	  0.067094192	-9.181000E+00
237	  0.067294590	-5.852000E+00	  0.067294590	-1.577500E+02	  0.067294590	1.679400E+01	  0.067294590	-8.759000E+00
238	  0.067494988	-5.855000E+00	  0.067494988	-1.587660E+02	  0.067494988	1.675100E+01	  0.067494988	-8.352000E+00
239	  0.067695394	-5.857000E+00	  0.067695394	-1.597680E+02	  0.067695394	1.670900E+01	  0.067695394	-7.951000E+00
240	  0.067895792	-5.857000E+00	  0.067895792	-1.608220E+02	  0.067895792	1.666000E+01	  0.067895792	-7.532000E+00
241	  0.068096191	-5.861000E+00	  0.068096191	-1.618210E+02	  0.068096191	1.662800E+01	  0.068096191	-7.134000E+00
242	  0.068296596	-5.864000E+00	  0.068296596	-1.628200E+02	  0.068296596	1.659800E+01	  0.068296596	-6.737000E+00
243	  0.068496995	-5.859000E+00	  0.068496995	-1.638210E+02	  0.068496995	1.654700E+01	  0.068496995	-6.341000E+00
244	  0.068697393	-5.863000E+00	  0.068697393	-1.648150E+02	  0.068697393	1.652000E+01	  0.068697393	-5.948000E+00
245	  0.068897791	-5.869000E+00	  0.068897791	-1.657720E+02	  0.068897791	1.650500E+01	  0.068897791	-5.569000E+00
246	  0.069098189	-5.867000E+00	  0.069098189	-1.667620E+02	  0.069098189	1.646800E+01	  0.069098189	-5.180000E+00
247	  0.069298595	-5.867000E+00	  0.069298595	-1.677400E+02	  0.069298595	1.644100E+01	  0.069298595	-4.794000E+00
248	  0.069498993	-5.874000E+00	  0.069498993	-1.687410E+02	  0.069498993	1.643400E+01	  0.069498993	-4.400000E+00
249	  0.069699399	-5.881000E+00	  0.069699399	-1.696900E+02	  0.069699399	1.642700E+01	  0.069699399	-4.027000E+00
250	  0.069899797	-5.884000E+00	  0.069899797	-1.706460E+02	  0.069899797	1.641400E+01	  0.069899797	-3.651000E+00
251	  0.070100196	-5.888000E+00	  0.070100196	-1.716440E+02	  0.070100196	1.640400E+01	  0.070100196	-3.261000E+00
252	  0.070300601	-5.887000E+00	  0.070300601	-1.726180E+02	  0.070300601	1.638600E+01	  0.070300601	-2.880000E+00
253	  0.070501000	-5.889000E+00	  0.070501000	-1.735590E+02	  0.070501000	1.637600E+01	  0.070501000	-2.512000E+00
254	  0.070701398	-5.895000E+00	  0.070701398	-1.745120E+02	  0.070701398	1.637900E+01	  0.070701398	-2.139000E+00
255	  0.070901804	-5.898000E+00	  0.070901804	-1.754730E+02	  0.070901804	1.637600E+01	  0.070901804	-1.764000E+00
256	  0.071102202	-5.902000E+00	  0.071102202	-1.764370E+02	  0.071102202	1.637800E+01	  0.071102202	-1.388000E+00
257	  0.071302600	-5.908000E+00	  0.071302600	-1.773950E+02	  0.071302600	1.638500E+01	  0.071302600	-1.014000E+00
258	  0.071503006	-5.914000E+00	  0.071503006	-1.782920E+02	  0.071503006	1.639700E+01	  0.071503006	-6.640000E-01
259	  0.071703404	-5.918000E+00	  0.071703404	-1.792300E+02	  0.071703404	1.640400E+01	  0.071703404	-2.990000E-01
260	  0.071903802	-5.922000E+00	  0.071903802	1.798430E+02	  0.071903802	1.641600E+01	  0.071903802	6.000000E-02
261	  0.072104208	-5.931000E+00	  0.072104208	1.788940E+02	  0.072104208	1.643800E+01	  0.072104208	4.300000E-01
262	  0.072304606	-5.932000E+00	  0.072304606	1.780030E+02	  0.072304606	1.644500E+01	  0.072304606	7.770000E-01
263	  0.072505005	-5.940000E+00	  0.072505005	1.770740E+02	  0.072505005	1.647100E+01	  0.072505005	1.138000E+00
264	  0.072705410	-5.944000E+00	  0.072705410	1.761430E+02	  0.072705410	1.648900E+01	  0.072705410	1.500000E+00
265	  0.072905809	-5.950000E+00	  0.072905809	1.752290E+02	  0.072905809	1.651100E+01	  0.072905809	1.855000E+00
266	  0.073106214	-5.954000E+00	  0.073106214	1.743210E+02	  0.073106214	1.653200E+01	  0.073106214	2.209000E+00
267	  0.073306613	-5.961000E+00	  0.073306613	1.734130E+02	  0.073306613	1.656300E+01	  0.073306613	2.562000E+00
268	  0.073507011	-5.964000E+00	  0.073507011	1.725040E+02	  0.073507011	1.658700E+01	  0.073507011	2.916000E+00
269	  0.073707417	-5.972000E+00	  0.073707417	1.716160E+02	  0.073707417	1.662300E+01	  0.073707417	3.261000E+00
270	  0.073907815	-5.978000E+00	  0.073907815	1.707210E+02	  0.073907815	1.665500E+01	  0.073907815	3.609000E+00
271	  0.074108213	-5.982000E+00	  0.074108213	1.698420E+02	  0.074108213	1.668600E+01	  0.074108213	3.952000E+00
272	  0.074308619	-5.992000E+00	  0.074308619	1.689340E+02	  0.074308619	1.673400E+01	  0.074308619	4.305000E+00
273	  0.074509017	-5.998000E+00	  0.074509017	1.680430E+02	  0.074509017	1.677200E+01	  0.074509017	4.652000E+00
274	  0.074709415	-6.004000E+00	  0.074709415	1.671720E+02	  0.074709415	1.681200E+01	  0.074709415	4.992000E+00
275	  0.074909821	-6.016000E+00	  0.074909821	1.663010E+02	  0.074909821	1.686900E+01	  0.074909821	5.330000E+00
276	  0.075110219	-6.025000E+00	  0.075110219	1.654160E+02	  0.075110219	1.692200E+01	  0.075110219	5.675000E+00
277	  0.075310618	-6.031000E+00	  0.075310618	1.645730E+02	  0.075310618	1.696400E+01	  0.075310618	6.005000E+00
278	  0.075511023	-6.040000E+00	  0.075511023	1.637180E+02	  0.075511023	1.702000E+01	  0.075511023	6.338000E+00
279	  0.075711422	-6.050000E+00	  0.075711422	1.628430E+02	  0.075711422	1.708100E+01	  0.075711422	6.679000E+00
280	  0.075911827	-6.056000E+00	  0.075911827	1.619780E+02	  0.075911827	1.713200E+01	  0.075911827	7.018000E+00
281	  0.076112226	-6.070000E+00	  0.076112226	1.611100E+02	  0.076112226	1.720500E+01	  0.076112226	7.356000E+00
282	  0.076312624	-6.080000E+00	  0.076312624	1.602450E+02	  0.076312624	1.726900E+01	  0.076312624	7.694000E+00
283	  0.076513030	-6.088000E+00	  0.076513030	1.593580E+02	  0.076513030	1.733300E+01	  0.076513030	8.042000E+00
284	  0.076713428	-6.100000E+00	  0.076713428	1.585040E+02	  0.076713428	1.740600E+01	  0.076713428	8.375000E+00
285	  0.076913826	-6.104000E+00	  0.076913826	1.576920E+02	  0.076913826	1.746000E+01	  0.076913826	8.695000E+00
286	  0.077114232	-6.113000E+00	  0.077114232	1.568400E+02	  0.077114232	1.752900E+01	  0.077114232	9.030000E+00
287	  0.077314630	-6.123000E+00	  0.077314630	1.559800E+02	  0.077314630	1.760500E+01	  0.077314630	9.368000E+00
288	  0.077515028	-6.131000E+00	  0.077515028	1.551550E+02	  0.077515028	1.767300E+01	  0.077515028	9.694000E+00
289	  0.077715434	-6.144000E+00	  0.077715434	1.543260E+02	  0.077715434	1.775800E+01	  0.077715434	1.001900E+01
290	  0.077915832	-6.156000E+00	  0.077915832	1.534900E+02	  0.077915832	1.784100E+01	  0.077915832	1.034700E+01
291	  0.078116231	-6.167000E+00	  0.078116231	1.526770E+02	  0.078116231	1.792500E+01	  0.078116231	1.066700E+01
292	  0.078316636	-6.177000E+00	  0.078316636	1.518150E+02	  0.078316636	1.800900E+01	  0.078316636	1.100800E+01
293	  0.078517035	-6.194000E+00	  0.078517035	1.509900E+02	  0.078517035	1.811200E+01	  0.078517035	1.133100E+01
294	  0.078717433	-6.205000E+00	  0.078717433	1.501850E+02	  0.078717433	1.820100E+01	  0.078717433	1.164900E+01
295	  0.078917839	-6.217000E+00	  0.078917839	1.493870E+02	  0.078917839	1.829100E+01	  0.078917839	1.196500E+01
296	  0.079118237	-6.234000E+00	  0.079118237	1.485510E+02	  0.079118237	1.840300E+01	  0.079118237	1.229300E+01
297	  0.079318643	-6.246000E+00	  0.079318643	1.477520E+02	  0.079318643	1.849700E+01	  0.079318643	1.261000E+01
298	  0.079519041	-6.260000E+00	  0.079519041	1.469180E+02	  0.079519041	1.860600E+01	  0.079519041	1.293900E+01
299	  0.079719439	-6.273000E+00	  0.079719439	1.461010E+02	  0.079719439	1.871000E+01	  0.079719439	1.326300E+01
300	  0.079919845	-6.287000E+00	  0.079919845	1.452860E+02	  0.079919845	1.882000E+01	  0.079919845	1.358600E+01
301	  0.080120243	-6.297000E+00	  0.080120243	1.444650E+02	  0.080120243	1.892100E+01	  0.080120243	1.391500E+01
302	  0.080320641	-6.312000E+00	  0.080320641	1.436740E+02	  0.080320641	1.903500E+01	  0.080320641	1.422800E+01
303	  0.080521047	-6.330000E+00	  0.080521047	1.428680E+02	  0.080521047	1.916000E+01	  0.080521047	1.454700E+01
304	  0.080721445	-6.340000E+00	  0.080721445	1.420560E+02	  0.080721445	1.926600E+01	  0.080721445	1.487300E+01
305	  0.080921844	-6.356000E+00	  0.080921844	1.412750E+02	  0.080921844	1.938900E+01	  0.080921844	1.518300E+01
306	  0.081122249	-6.373000E+00	  0.081122249	1.404720E+02	  0.081122249	1.951900E+01	  0.081122249	1.550100E+01
307	  0.081322648	-6.386000E+00	  0.081322648	1.397000E+02	  0.081322648	1.963900E+01	  0.081322648	1.581000E+01
308	  0.081523046	-6.401000E+00	  0.081523046	1.388980E+02	  0.081523046	1.976500E+01	  0.081523046	1.613100E+01
309	  0.081723452	-6.413000E+00	  0.081723452	1.381190E+02	  0.081723452	1.988800E+01	  0.081723452	1.644400E+01
310	  0.081923850	-6.433000E+00	  0.081923850	1.373950E+02	  0.081923850	2.002400E+01	  0.081923850	1.673000E+01
311	  0.082124248	-6.452000E+00	  0.082124248	1.366070E+02	  0.082124248	2.017100E+01	  0.082124248	1.704200E+01
312	  0.082324654	-6.470000E+00	  0.082324654	1.358710E+02	  0.082324654	2.031000E+01	  0.082324654	1.733400E+01
313	  0.082525052	-6.489000E+00	  0.082525052	1.351260E+02	  0.082525052	2.045500E+01	  0.082525052	1.762900E+01
314	  0.082725458	-6.510000E+00	  0.082725458	1.343540E+02	  0.082725458	2.061100E+01	  0.082725458	1.793400E+01
315	  0.082925856	-6.530000E+00	  0.082925856	1.335690E+02	  0.082925856	2.076700E+01	  0.082925856	1.824600E+01
316	  0.083126254	-6.551000E+00	  0.083126254	1.328020E+02	  0.083126254	2.092900E+01	  0.083126254	1.854900E+01
317	  0.083326660	-6.567000E+00	  0.083326660	1.320310E+02	  0.083326660	2.108000E+01	  0.083326660	1.885900E+01
318	  0.083527058	-6.589000E+00	  0.083527058	1.312580E+02	  0.083527058	2.124800E+01	  0.083527058	1.916400E+01
319	  0.083727457	-6.606000E+00	  0.083727457	1.305190E+02	  0.083727457	2.140100E+01	  0.083727457	1.946000E+01
320	  0.083927862	-6.622000E+00	  0.083927862	1.297900E+02	  0.083927862	2.155600E+01	  0.083927862	1.975200E+01
321	  0.084128261	-6.641000E+00	  0.084128261	1.290450E+02	  0.084128261	2.172000E+01	  0.084128261	2.004900E+01
322	  0.084328659	-6.665000E+00	  0.084328659	1.283170E+02	  0.084328659	2.189900E+01	  0.084328659	2.033400E+01
323	  0.084529065	-6.686000E+00	  0.084529065	1.275590E+02	  0.084529065	2.207800E+01	  0.084529065	2.063400E+01
324	  0.084729463	-6.705000E+00	  0.084729463	1.268340E+02	  0.084729463	2.224800E+01	  0.084729463	2.092300E+01
325	  0.084929861	-6.726000E+00	  0.084929861	1.260970E+02	  0.084929861	2.242800E+01	  0.084929861	2.121400E+01
326	  0.085130267	-6.750000E+00	  0.085130267	1.254210E+02	  0.085130267	2.260700E+01	  0.085130267	2.147800E+01
327	  0.085330658	-6.774000E+00	  0.085330658	1.246850E+02	  0.085330658	2.280200E+01	  0.085330658	2.176500E+01
328	  0.085531056	-6.797000E+00	  0.085531056	1.239830E+02	  0.085531056	2.299000E+01	  0.085531056	2.203900E+01
329	  0.085731462	-6.816000E+00	  0.085731462	1.232840E+02	  0.085731462	2.317000E+01	  0.085731462	2.231600E+01
330	  0.085931860	-6.842000E+00	  0.085931860	1.225820E+02	  0.085931860	2.337100E+01	  0.085931860	2.258700E+01
331	  0.086132258	-6.870000E+00	  0.086132258	1.218670E+02	  0.086132258	2.358400E+01	  0.086132258	2.286000E+01
332	  0.086332664	-6.892000E+00	  0.086332664	1.211400E+02	  0.086332664	2.378500E+01	  0.086332664	2.314600E+01
333	  0.086533062	-6.916000E+00	  0.086533062	1.204350E+02	  0.086533062	2.399000E+01	  0.086533062	2.341900E+01
334	  0.086733460	-6.937000E+00	  0.086733460	1.197100E+02	  0.086733460	2.419200E+01	  0.086733460	2.370600E+01
335	  0.086933866	-6.962000E+00	  0.086933866	1.190000E+02	  0.086933866	2.440800E+01	  0.086933866	2.397900E+01
336	  0.087134264	-6.986000E+00	  0.087134264	1.182750E+02	  0.087134264	2.462600E+01	  0.087134264	2.426000E+01
337	  0.087334670	-7.011000E+00	  0.087334670	1.176040E+02	  0.087334670	2.483800E+01	  0.087334670	2.451600E+01
338	  0.087535068	-7.037000E+00	  0.087535068	1.169090E+02	  0.087535068	2.506200E+01	  0.087535068	2.478100E+01
339	  0.087735467	-7.063000E+00	  0.087735467	1.162140E+02	  0.087735467	2.528800E+01	  0.087735467	2.504600E+01
340	  0.087935872	-7.083000E+00	  0.087935872	1.155140E+02	  0.087935872	2.550300E+01	  0.087935872	2.531900E+01
341	  0.088136271	-7.108000E+00	  0.088136271	1.148210E+02	  0.088136271	2.573100E+01	  0.088136271	2.558400E+01
342	  0.088336669	-7.134000E+00	  0.088336669	1.141830E+02	  0.088336669	2.595300E+01	  0.088336669	2.582200E+01
343	  0.088537075	-7.158000E+00	  0.088537075	1.135150E+02	  0.088537075	2.618200E+01	  0.088537075	2.607400E+01
344	  0.088737473	-7.182000E+00	  0.088737473	1.128640E+02	  0.088737473	2.640600E+01	  0.088737473	2.632000E+01
345	  0.088937871	-7.213000E+00	  0.088937871	1.122240E+02	  0.088937871	2.665100E+01	  0.088937871	2.654900E+01
346	  0.089138277	-7.244000E+00	  0.089138277	1.115880E+02	  0.089138277	2.690000E+01	  0.089138277	2.677400E+01
347	  0.089338675	-7.273000E+00	  0.089338675	1.109210E+02	  0.089338675	2.715300E+01	  0.089338675	2.701600E+01
348	  0.089539073	-7.304000E+00	  0.089539073	1.102790E+02	  0.089539073	2.740600E+01	  0.089539073	2.724300E+01
349	  0.089739479	-7.334000E+00	  0.089739479	1.096350E+02	  0.089739479	2.766100E+01	  0.089739479	2.747200E+01
350	  0.089939877	-7.361000E+00	  0.089939877	1.089790E+02	  0.089939877	2.791600E+01	  0.089939877	2.770700E+01
351	  0.090140276	-7.394000E+00	  0.090140276	1.083270E+02	  0.090140276	2.818800E+01	  0.090140276	2.793100E+01
352	  0.090340681	-7.426000E+00	  0.090340681	1.076810E+02	  0.090340681	2.845700E+01	  0.090340681	2.815400E+01
353	  0.090541080	-7.455000E+00	  0.090541080	1.070640E+02	  0.090541080	2.871400E+01	  0.090541080	2.836700E+01
354	  0.090741485	-7.487000E+00	  0.090741485	1.064250E+02	  0.090741485	2.898900E+01	  0.090741485	2.858200E+01
355	  0.090941884	-7.520000E+00	  0.090941884	1.058220E+02	  0.090941884	2.925900E+01	  0.090941884	2.877900E+01
356	  0.091142282	-7.550000E+00	  0.091142282	1.051840E+02	  0.091142282	2.953200E+01	  0.091142282	2.899700E+01
357	  0.091342688	-7.581000E+00	  0.091342688	1.045850E+02	  0.091342688	2.980100E+01	  0.091342688	2.919200E+01
358	  0.091543086	-7.612000E+00	  0.091543086	1.039700E+02	  0.091543086	3.007700E+01	  0.091543086	2.939400E+01
359	  0.091743484	-7.642000E+00	  0.091743484	1.033930E+02	  0.091743484	3.034200E+01	  0.091743484	2.958000E+01
360	  0.091943890	-7.673000E+00	  0.091943890	1.028120E+02	  0.091943890	3.061200E+01	  0.091943890	2.976400E+01
361	  0.092144288	-7.704000E+00	  0.092144288	1.022540E+02	  0.092144288	3.087900E+01	  0.092144288	2.993600E+01
362	  0.092344686	-7.739000E+00	  0.092344686	1.016760E+02	  0.092344686	3.116500E+01	  0.092344686	3.010800E+01
363	  0.092545092	-7.773000E+00	  0.092545092	1.011280E+02	  0.092545092	3.144100E+01	  0.092545092	3.026600E+01
364	  0.092745490	-7.810000E+00	  0.092745490	1.005600E+02	  0.092745490	3.173600E+01	  0.092745490	3.042300E+01
365	  0.092945889	-7.847000E+00	  0.092945889	1.000080E+02	  0.092945889	3.202400E+01	  0.092945889	3.057500E+01
366	  0.093146294	-7.878000E+00	  0.093146294	9.946000E+01	  0.093146294	3.229800E+01	  0.093146294	3.073400E+01
367	  0.093346693	-7.909000E+00	  0.093346693	9.891300E+01	  0.093346693	3.257500E+01	  0.093346693	3.089200E+01
368	  0.093547091	-7.948000E+00	  0.093547091	9.833600E+01	  0.093547091	3.288600E+01	  0.093547091	3.104100E+01
369	  0.093747497	-7.980000E+00	  0.093747497	9.779100E+01	  0.093747497	3.316900E+01	  0.093747497	3.119200E+01
370	  0.093947895	-8.014000E+00	  0.093947895	9.724500E+01	  0.093947895	3.346200E+01	  0.093947895	3.133500E+01
371	  0.094148301	-8.049000E+00	  0.094148301	9.674100E+01	  0.094148301	3.374200E+01	  0.094148301	3.145700E+01
372	  0.094348699	-8.084000E+00	  0.094348699	9.622100E+01	  0.094348699	3.402900E+01	  0.094348699	3.158500E+01
373	  0.094549097	-8.117000E+00	  0.094549097	9.572000E+01	  0.094549097	3.430900E+01	  0.094549097	3.170500E+01
374	  0.094749503	-8.149000E+00	  0.094749503	9.523100E+01	  0.094749503	3.458000E+01	  0.094749503	3.182400E+01
375	  0.094949901	-8.177000E+00	  0.094949901	9.473200E+01	  0.094949901	3.484700E+01	  0.094949901	3.195400E+01
376	  0.095150299	-8.207000E+00	  0.095150299	9.423100E+01	  0.095150299	3.512200E+01	  0.095150299	3.207800E+01
377	  0.095350705	-8.242000E+00	  0.095350705	9.375400E+01	  0.095350705	3.540300E+01	  0.095350705	3.217800E+01
378	  0.095551103	-8.272000E+00	  0.095551103	9.329700E+01	  0.095551103	3.566600E+01	  0.095551103	3.227800E+01
379	  0.095751502	-8.306000E+00	  0.095751502	9.284400E+01	  0.095751502	3.593600E+01	  0.095751502	3.236800E+01
380	  0.095951907	-8.340000E+00	  0.095951907	9.240600E+01	  0.095951907	3.620400E+01	  0.095951907	3.244800E+01
381	  0.096152306	-8.366000E+00	  0.096152306	9.198300E+01	  0.096152306	3.644500E+01	  0.096152306	3.254200E+01
382	  0.096352704	-8.400000E+00	  0.096352704	9.153200E+01	  0.096352704	3.672000E+01	  0.096352704	3.262300E+01
383	  0.096553110	-8.423000E+00	  0.096553110	9.111500E+01	  0.096553110	3.695400E+01	  0.096553110	3.272000E+01
384	  0.096753508	-8.459000E+00	  0.096753508	9.064000E+01	  0.096753508	3.724600E+01	  0.096753508	3.280300E+01
385	  0.096953906	-8.491000E+00	  0.096953906	9.023200E+01	  0.096953906	3.750100E+01	  0.096953906	3.286700E+01
386	  0.097154312	-8.516000E+00	  0.097154312	8.979900E+01	  0.097154312	3.775000E+01	  0.097154312	3.296100E+01
387	  0.097354710	-8.546000E+00	  0.097354710	8.940200E+01	  0.097354710	3.799700E+01	  0.097354710	3.302400E+01
388	  0.097555116	-8.576000E+00	  0.097555116	8.899200E+01	  0.097555116	3.825300E+01	  0.097555116	3.308800E+01
389	  0.097755514	-8.598000E+00	  0.097755514	8.858600E+01	  0.097755514	3.848600E+01	  0.097755514	3.317500E+01
390	  0.097955912	-8.623000E+00	  0.097955912	8.815400E+01	  0.097955912	3.874000E+01	  0.097955912	3.326100E+01
391	  0.098156318	-8.646000E+00	  0.098156318	8.779700E+01	  0.098156318	3.895800E+01	  0.098156318	3.332200E+01
392	  0.098356716	-8.664000E+00	  0.098356716	8.737100E+01	  0.098356716	3.919500E+01	  0.098356716	3.342300E+01
393	  0.098557115	-8.689000E+00	  0.098557115	8.699300E+01	  0.098557115	3.942800E+01	  0.098557115	3.348500E+01
394	  0.098757520	-8.705000E+00	  0.098757520	8.660100E+01	  0.098757520	3.964600E+01	  0.098757520	3.357800E+01
395	  0.098957919	-8.727000E+00	  0.098957919	8.626300E+01	  0.098957919	3.985600E+01	  0.098957919	3.363200E+01
396	  0.099158317	-8.746000E+00	  0.099158317	8.587600E+01	  0.099158317	4.008200E+01	  0.099158317	3.371100E+01
397	  0.099358723	-8.764000E+00	  0.099358723	8.551400E+01	  0.099358723	4.029500E+01	  0.099358723	3.378200E+01
398	  0.099559121	-8.782000E+00	  0.099559121	8.516100E+01	  0.099559121	4.050700E+01	  0.099559121	3.384700E+01
399	  0.099759519	-8.795000E+00	  0.099759519	8.480800E+01	  0.099759519	4.070600E+01	  0.099759519	3.393100E+01
400	  0.099959925	-8.802000E+00	  0.099959925	8.447200E+01	  0.099959925	4.088400E+01	  0.099959925	3.402500E+01
401	  0.100160323	-8.827000E+00	  0.100160323	8.414300E+01	  0.100160323	4.110000E+01	  0.100160323	3.405900E+01
402	  0.100360721	-8.839000E+00	  0.100360721	8.376200E+01	  0.100360721	4.131500E+01	  0.100360721	3.415000E+01
403	  0.100561127	-8.851000E+00	  0.100561127	8.343000E+01	  0.100561127	4.150600E+01	  0.100561127	3.422500E+01
404	  0.100761525	-8.854000E+00	  0.100761525	8.307900E+01	  0.100761525	4.168900E+01	  0.100761525	3.433200E+01
405	  0.100961931	-8.867000E+00	  0.100961931	8.273400E+01	  0.100961931	4.189000E+01	  0.100961931	3.440700E+01
406	  0.101162329	-8.880000E+00	  0.101162329	8.236000E+01	  0.101162329	4.210800E+01	  0.101162329	3.448800E+01
407	  0.101362728	-8.890000E+00	  0.101362728	8.203100E+01	  0.101362728	4.229600E+01	  0.101362728	3.456600E+01
408	  0.101563133	-8.891000E+00	  0.101563133	8.164700E+01	  0.101563133	4.249700E+01	  0.101563133	3.468800E+01
409	  0.101763532	-8.899000E+00	  0.101763532	8.129800E+01	  0.101763532	4.269300E+01	  0.101763532	3.477900E+01
410	  0.101963930	-8.901000E+00	  0.101963930	8.088200E+01	  0.101963930	4.291500E+01	  0.101963930	3.490600E+01
411	  0.102164336	-8.903000E+00	  0.102164336	8.052100E+01	  0.102164336	4.310900E+01	  0.102164336	3.501700E+01
412	  0.102364734	-8.891000E+00	  0.102364734	8.016700E+01	  0.102364734	4.327000E+01	  0.102364734	3.517400E+01
413	  0.102565132	-8.899000E+00	  0.102565132	7.981400E+01	  0.102565132	4.347500E+01	  0.102565132	3.526200E+01
414	  0.102765530	-8.899000E+00	  0.102765530	7.944600E+01	  0.102765530	4.367400E+01	  0.102765530	3.537900E+01
415	  0.102965929	-8.899000E+00	  0.102965929	7.910800E+01	  0.102965929	4.385600E+01	  0.102965929	3.548900E+01
416	  0.103166327	-8.897000E+00	  0.103166327	7.874700E+01	  0.103166327	4.404800E+01	  0.103166327	3.561300E+01
417	  0.103366733	-8.894000E+00	  0.103366733	7.837500E+01	  0.103366733	4.424700E+01	  0.103366733	3.574000E+01
418	  0.103567131	-8.889000E+00	  0.103567131	7.795500E+01	  0.103567131	4.446800E+01	  0.103567131	3.589400E+01
419	  0.103767529	-8.875000E+00	  0.103767529	7.758400E+01	  0.103767529	4.464700E+01	  0.103767529	3.606100E+01
420	  0.103967935	-8.868000E+00	  0.103967935	7.716300E+01	  0.103967935	4.487000E+01	  0.103967935	3.622100E+01
421	  0.104168333	-8.873000E+00	  0.104168333	7.678700E+01	  0.104168333	4.509500E+01	  0.104168333	3.631900E+01
422	  0.104368731	-8.863000E+00	  0.104368731	7.637300E+01	  0.104368731	4.531200E+01	  0.104368731	3.648700E+01
423	  0.104569137	-8.859000E+00	  0.104569137	7.596800E+01	  0.104569137	4.554000E+01	  0.104569137	3.662400E+01
424	  0.104769535	-8.840000E+00	  0.104769535	7.552200E+01	  0.104769535	4.576200E+01	  0.104769535	3.683700E+01
425	  0.104969934	-8.830000E+00	  0.104969934	7.509500E+01	  0.104969934	4.599500E+01	  0.104969934	3.700500E+01
426	  0.105170339	-8.814000E+00	  0.105170339	7.463700E+01	  0.105170339	4.623500E+01	  0.105170339	3.720900E+01
427	  0.105370738	-8.801000E+00	  0.105370738	7.416900E+01	  0.105370738	4.649300E+01	  0.105370738	3.740200E+01
428	  0.105571143	-8.793000E+00	  0.105571143	7.372400E+01	  0.105571143	4.674800E+01	  0.105571143	3.756900E+01
429	  0.105771542	-8.780000E+00	  0.105771542	7.327600E+01	  0.105771542	4.699800E+01	  0.105771542	3.775600E+01
430	  0.105971940	-8.763000E+00	  0.105971940	7.281200E+01	  0.105971940	4.725400E+01	  0.105971940	3.796400E+01
431	  0.106172346	-8.752000E+00	  0.106172346	7.233600E+01	  0.106172346	4.753200E+01	  0.106172346	3.815100E+01
432	  0.106372744	-8.732000E+00	  0.106372744	7.189400E+01	  0.106372744	4.777400E+01	  0.106372744	3.836600E+01
433	  0.106573142	-8.723000E+00	  0.106573142	7.137800E+01	  0.106573142	4.808900E+01	  0.106573142	3.855600E+01
434	  0.106773548	-8.707000E+00	  0.106773548	7.086500E+01	  0.106773548	4.839200E+01	  0.106773548	3.877400E+01
435	  0.106973946	-8.690000E+00	  0.106973946	7.036900E+01	  0.106973946	4.868500E+01	  0.106973946	3.899400E+01
436	  0.107174344	-8.681000E+00	  0.107174344	6.980700E+01	  0.107174344	4.904400E+01	  0.107174344	3.919300E+01
437	  0.107374750	-8.664000E+00	  0.107374750	6.930800E+01	  0.107374750	4.934800E+01	  0.107374750	3.941100E+01
438	  0.107575148	-8.646000E+00	  0.107575148	6.876500E+01	  0.107575148	4.968700E+01	  0.107575148	3.964200E+01
439	  0.107775547	-8.633000E+00	  0.107775547	6.822300E+01	  0.107775547	5.003700E+01	  0.107775547	3.985500E+01
440	  0.107975952	-8.626000E+00	  0.107975952	6.769900E+01	  0.107975952	5.039200E+01	  0.107975952	4.003100E+01
441	  0.108176351	-8.607000E+00	  0.108176351	6.712100E+01	  0.108176351	5.076700E+01	  0.108176351	4.027500E+01
442	  0.108376749	-8.600000E+00	  0.108376749	6.659500E+01	  0.108376749	5.113300E+01	  0.108376749	4.044800E+01
443	  0.108577155	-8.588000E+00	  0.108577155	6.601700E+01	  0.108577155	5.153200E+01	  0.108577155	4.066000E+01
444	  0.108777553	-8.582000E+00	  0.108777553	6.539400E+01	  0.108777553	5.198000E+01	  0.108777553	4.085200E+01
445	  0.108977959	-8.569000E+00	  0.108977959	6.480600E+01	  0.108977959	5.239700E+01	  0.108977959	4.106300E+01
446	  0.109178357	-8.560000E+00	  0.109178357	6.420600E+01	  0.109178357	5.283600E+01	  0.109178357	4.125700E+01
447	  0.109378755	-8.559000E+00	  0.109378755	6.365800E+01	  0.109378755	5.325300E+01	  0.109378755	4.139700E+01
448	  0.109579161	-8.545000E+00	  0.109579161	6.302100E+01	  0.109579161	5.372500E+01	  0.109579161	4.162000E+01
449	  0.109779559	-8.532000E+00	  0.109779559	6.243500E+01	  0.109779559	5.416700E+01	  0.109779559	4.182000E+01
450	  0.109979957	-8.525000E+00	  0.109979957	6.181300E+01	  0.109979957	5.465100E+01	  0.109979957	4.199700E+01
451	  0.110180363	-8.516000E+00	  0.110180363	6.123900E+01	  0.110180363	5.509900E+01	  0.110180363	4.217600E+01
452	  0.110380761	-8.506000E+00	  0.110380761	6.063700E+01	  0.110380761	5.557800E+01	  0.110380761	4.235600E+01
453	  0.110581160	-8.507000E+00	  0.110581160	5.995200E+01	  0.110581160	5.614600E+01	  0.110581160	4.249100E+01
454	  0.110781565	-8.500000E+00	  0.110781565	5.937300E+01	  0.110781565	5.662200E+01	  0.110781565	4.264400E+01
455	  0.110981964	-8.489000E+00	  0.110981964	5.869600E+01	  0.110981964	5.718300E+01	  0.110981964	4.283300E+01
456	  0.111182362	-8.485000E+00	  0.111182362	5.803200E+01	  0.111182362	5.774900E+01	  0.111182362	4.298000E+01
457	  0.111382768	-8.487000E+00	  0.111382768	5.737400E+01	  0.111382768	5.832500E+01	  0.111382768	4.308200E+01
458	  0.111583166	-8.470000E+00	  0.111583166	5.673400E+01	  0.111583166	5.887200E+01	  0.111583166	4.328300E+01
459	  0.111783572	-8.468000E+00	  0.111783572	5.605900E+01	  0.111783572	5.947400E+01	  0.111783572	4.339700E+01
460	  0.111983970	-8.456000E+00	  0.111983970	5.532400E+01	  0.111983970	6.013100E+01	  0.111983970	4.357300E+01
461	  0.112184368	-8.457000E+00	  0.112184368	5.465500E+01	  0.112184368	6.074700E+01	  0.112184368	4.365800E+01
462	  0.112384774	-8.448000E+00	  0.112384774	5.395100E+01	  0.112384774	6.139600E+01	  0.112384774	4.379300E+01
463	  0.112585172	-8.446000E+00	  0.112585172	5.326000E+01	  0.112585172	6.204700E+01	  0.112585172	4.388300E+01
464	  0.112785570	-8.440000E+00	  0.112785570	5.253300E+01	  0.112785570	6.273900E+01	  0.112785570	4.398700E+01
465	  0.112985976	-8.436000E+00	  0.112985976	5.178900E+01	  0.112985976	6.345900E+01	  0.112985976	4.407400E+01
466	  0.113186374	-8.428000E+00	  0.113186374	5.103700E+01	  0.113186374	6.419500E+01	  0.113186374	4.417000E+01
467	  0.113386773	-8.427000E+00	  0.113386773	5.029600E+01	  0.113386773	6.493200E+01	  0.113386773	4.421500E+01
468	  0.113587178	-8.427000E+00	  0.113587178	4.952700E+01	  0.113587178	6.570800E+01	  0.113587178	4.423900E+01
469	  0.113787577	-8.428000E+00	  0.113787577	4.874200E+01	  0.113787577	6.650900E+01	  0.113787577	4.424700E+01
470	  0.113987975	-8.429000E+00	  0.113987975	4.791500E+01	  0.113987975	6.736500E+01	  0.113987975	4.423400E+01
471	  0.114188381	-8.426000E+00	  0.114188381	4.714900E+01	  0.114188381	6.816600E+01	  0.114188381	4.424000E+01
472	  0.114388779	-8.430000E+00	  0.114388779	4.630600E+01	  0.114388779	6.905800E+01	  0.114388779	4.417200E+01
473	  0.114589177	-8.430000E+00	  0.114589177	4.551200E+01	  0.114589177	6.990800E+01	  0.114589177	4.412300E+01
474	  0.114789583	-8.444000E+00	  0.114789583	4.468600E+01	  0.114789583	7.079400E+01	  0.114789583	4.395200E+01
475	  0.114989981	-8.453000E+00	  0.114989981	4.379800E+01	  0.114989981	7.175500E+01	  0.114989981	4.378300E+01
476	  0.115190387	-8.458000E+00	  0.115190387	4.292100E+01	  0.115190387	7.271700E+01	  0.115190387	4.362500E+01
477	  0.115390785	-8.474000E+00	  0.115390785	4.205700E+01	  0.115390785	7.366000E+01	  0.115390785	4.336100E+01
478	  0.115591183	-8.479000E+00	  0.115591183	4.119000E+01	  0.115591183	7.462400E+01	  0.115591183	4.315300E+01
479	  0.115791589	-8.498000E+00	  0.115791589	4.026700E+01	  0.115791589	7.563500E+01	  0.115791589	4.280000E+01
480	  0.115991987	-8.512000E+00	  0.115991987	3.935700E+01	  0.115991987	7.664300E+01	  0.115991987	4.246100E+01
481	  0.116192386	-8.532000E+00	  0.116192386	3.842800E+01	  0.116192386	7.766200E+01	  0.116192386	4.204400E+01
482	  0.116392791	-8.544000E+00	  0.116392791	3.748700E+01	  0.116392791	7.871000E+01	  0.116392791	4.164500E+01
483	  0.116593190	-8.569000E+00	  0.116593190	3.649100E+01	  0.116593190	7.979100E+01	  0.116593190	4.109800E+01
484	  0.116793588	-8.585000E+00	  0.116793588	3.552300E+01	  0.116793588	8.085900E+01	  0.116793588	4.059300E+01
485	  0.116993994	-8.614000E+00	  0.116993994	3.457700E+01	  0.116993994	8.185600E+01	  0.116993994	3.995800E+01
486	  0.117194392	-8.644000E+00	  0.117194392	3.353600E+01	  0.117194392	8.295000E+01	  0.117194392	3.924200E+01
487	  0.117394790	-8.679000E+00	  0.117394790	3.255600E+01	  0.117394790	8.393900E+01	  0.117394790	3.847300E+01
488	  0.117595196	-8.713000E+00	  0.117595196	3.149300E+01	  0.117595196	8.500700E+01	  0.117595196	3.763000E+01
489	  0.117795594	-8.749000E+00	  0.117795594	3.047000E+01	  0.117795594	8.599900E+01	  0.117795594	3.675200E+01
490	  0.117995992	-8.783000E+00	  0.117995992	2.937700E+01	  0.117995992	8.705500E+01	  0.117995992	3.581000E+01
491	  0.118196398	-8.826000E+00	  0.118196398	2.831100E+01	  0.118196398	8.801200E+01	  0.118196398	3.477500E+01
492	  0.118396796	-8.866000E+00	  0.118396796	2.718600E+01	  0.118396796	8.900900E+01	  0.118396796	3.367700E+01
493	  0.118597202	-8.920000E+00	  0.118597202	2.609700E+01	  0.118597202	8.985800E+01	  0.118597202	3.247200E+01
494	  0.118797600	-8.971000E+00	  0.118797600	2.493900E+01	  0.118797600	9.074900E+01	  0.118797600	3.119800E+01
495	  0.118997999	-9.022000E+00	  0.118997999	2.381100E+01	  0.118997999	9.156100E+01	  0.118997999	2.991100E+01
496	  0.119198404	-9.083000E+00	  0.119198404	2.263300E+01	  0.119198404	9.230600E+01	  0.119198404	2.848600E+01
497	  0.119398803	-9.140000E+00	  0.119398803	2.142900E+01	  0.119398803	9.303800E+01	  0.119398803	2.702900E+01
498	  0.119599201	-9.207000E+00	  0.119599201	2.024800E+01	  0.119599201	9.362500E+01	  0.119599201	2.551400E+01
499	  0.119799607	-9.276000E+00	  0.119799607	1.898900E+01	  0.119799607	9.418800E+01	  0.119799607	2.389000E+01
500	  0.120000005	-9.349000E+00	  0.120000005	1.776000E+01	  0.120000005	9.463100E+01	  0.120000005	2.226300E+01
