! Anritsu VNA Master:             	Model: MS2036C/10/77
! SN:             	1601066
! /bd0/18may10/252.ew.m8.txt
! Existing Calibration Information:
! TYPE:             	Current Settings	Active Cal Settings
! TIME:             	05/10/2018 06:44:05 PM	05/10/2018 06:36:47 PM
! INTERNAL TEMP:    	61.3 C	61.0 C
! # POINTS:         	487	487
! START FREQ:       	20.601 202 MHz	20.601 202 MHz
! STOP FREQ:        	117.995 991 MHz	117.995 991 MHz
! SOURCE POWER:     	High	High
! IFBW:             	50 Hz	50 Hz
! AVG FACTOR:       	  1 	  1 
! REF PLANE 1:      	0 mm	0 mm
! REF PLANE 2:      	0 mm	0 mm
! CAL TYPE:         	Full S22	Full S22
! CAL METHOD:       	SOLT	SOLT
! CAL LINE TYPE:    	Coax	Coax
! DUT PORT 1:       	K-Conn(M)	K-Conn(M)
! DUT PORT 2:       	K-Conn(M)	K-Conn(M)
! CAL STATUS:       	OK: Accuracy High	--
! PROP-V:       	0.700
! CABLE LOSS:       	0.000 dB/m
! REF IMPEDANCE:       	50.0
! Trace Specific Parameters:	TR1	TR2	TR3	TR4
! TRACE.#.Y (GRAPH TYPE)	LOG MAG	PHASE	REAL IMPEDANCE	IMAGINARY IMPEDANCE
! TRACE.#.X 	FREQ.GHZ	FREQ.GHZ	FREQ.GHZ	FREQ.GHZ
! S-PARAMETER	S22	S22	S22	S22
! SMOOTH/APERTURE %	0	0	0	0
! WINDOW	NSL	NSL	NSL	NSL
! GATING	OFF	OFF	OFF	OFF
! FGTD	OFF	OFF	OFF	OFF
Marker Information per Trace:	TR1	TR2	TR3	TR4
!MK1	--	"MK1 TR2:  20.000 MHz,##.##"	--	--
!MK2	--	--	"MK2 TR3:  70.100 200 MHz,Z:(17.606 ohm, -1.291 ohm)"	--
!MK3	--	--	--	--
!MK4	--	--	--	--
!MK5	--	--	--	--
!MK6	--	--	--	--
!MK7	--	--	--	--
!MK8	--	--	--	--
PNT	TR1.FREQ.GHZ	TR1.LOG MAG.dB	TR2.FREQ.GHZ	TR2.PHASE.deg	TR3.FREQ.GHZ	TR3.REAL IMPEDANCE.ohm	TR4.FREQ.GHZ	TR4.IMAGINARY IMPEDANCE.ohm
1	  0.020601204	-6.430000E-01	  0.020601204	-1.299850E+02	  0.020601204	2.254000E+00	  0.020601204	-2.328300E+01
2	  0.020801604	-6.470000E-01	  0.020801604	-1.314970E+02	  0.020801604	2.241000E+00	  0.020801604	-2.248700E+01
3	  0.021002004	-6.490000E-01	  0.021002004	-1.330250E+02	  0.021002004	2.220000E+00	  0.021002004	-2.169100E+01
4	  0.021202406	-6.500000E-01	  0.021202406	-1.345440E+02	  0.021202406	2.199000E+00	  0.021202406	-2.090900E+01
5	  0.021402806	-6.520000E-01	  0.021402806	-1.360790E+02	  0.021402806	2.180000E+00	  0.021402806	-2.012800E+01
6	  0.021603208	-6.520000E-01	  0.021603208	-1.376050E+02	  0.021603208	2.159000E+00	  0.021603208	-1.935900E+01
7	  0.021803608	-6.550000E-01	  0.021803608	-1.391260E+02	  0.021803608	2.146000E+00	  0.021803608	-1.860100E+01
8	  0.022004008	-6.600000E-01	  0.022004008	-1.406520E+02	  0.022004008	2.143000E+00	  0.022004008	-1.784700E+01
9	  0.022204408	-6.650000E-01	  0.022204408	-1.422000E+02	  0.022204408	2.138000E+00	  0.022204408	-1.709000E+01
10	  0.022404809	-6.740000E-01	  0.022404809	-1.437690E+02	  0.022404809	2.148000E+00	  0.022404809	-1.633000E+01
11	  0.022605211	-6.740000E-01	  0.022605211	-1.453610E+02	  0.022605211	2.129000E+00	  0.022605211	-1.556500E+01
12	  0.022805611	-6.770000E-01	  0.022805611	-1.469630E+02	  0.022805611	2.119000E+00	  0.022805611	-1.480300E+01
13	  0.023006011	-6.810000E-01	  0.023006011	-1.485580E+02	  0.023006011	2.114000E+00	  0.023006011	-1.405000E+01
14	  0.023206413	-6.840000E-01	  0.023206413	-1.501480E+02	  0.023206413	2.108000E+00	  0.023206413	-1.330500E+01
15	  0.023406813	-6.920000E-01	  0.023406813	-1.517340E+02	  0.023406813	2.117000E+00	  0.023406813	-1.256800E+01
16	  0.023607215	-6.990000E-01	  0.023607215	-1.533440E+02	  0.023607215	2.124000E+00	  0.023607215	-1.182400E+01
17	  0.023807615	-7.080000E-01	  0.023807615	-1.549710E+02	  0.023807615	2.137000E+00	  0.023807615	-1.107800E+01
18	  0.024008015	-7.160000E-01	  0.024008015	-1.566140E+02	  0.024008015	2.148000E+00	  0.024008015	-1.032900E+01
19	  0.024208417	-7.230000E-01	  0.024208417	-1.582830E+02	  0.024208417	2.159000E+00	  0.024208417	-9.573000E+00
20	  0.024408817	-7.310000E-01	  0.024408817	-1.599520E+02	  0.024408817	2.170000E+00	  0.024408817	-8.821000E+00
21	  0.024609219	-7.380000E-01	  0.024609219	-1.616220E+02	  0.024609219	2.179000E+00	  0.024609219	-8.073000E+00
22	  0.024809619	-7.470000E-01	  0.024809619	-1.632990E+02	  0.024809619	2.197000E+00	  0.024809619	-7.325000E+00
23	  0.025010020	-7.570000E-01	  0.025010020	-1.649910E+02	  0.025010020	2.217000E+00	  0.025010020	-6.573000E+00
24	  0.025210422	-7.690000E-01	  0.025210422	-1.666760E+02	  0.025210422	2.243000E+00	  0.025210422	-5.828000E+00
25	  0.025410822	-7.810000E-01	  0.025410822	-1.683840E+02	  0.025410822	2.271000E+00	  0.025410822	-5.075000E+00
26	  0.025611224	-7.920000E-01	  0.025611224	-1.700930E+02	  0.025611224	2.295000E+00	  0.025611224	-4.324000E+00
27	  0.025811624	-8.030000E-01	  0.025811624	-1.718160E+02	  0.025811624	2.322000E+00	  0.025811624	-3.569000E+00
28	  0.026012026	-8.140000E-01	  0.026012026	-1.735530E+02	  0.026012026	2.351000E+00	  0.026012026	-2.809000E+00
29	  0.026212426	-8.270000E-01	  0.026212426	-1.752910E+02	  0.026212426	2.383000E+00	  0.026212426	-2.050000E+00
30	  0.026412826	-8.400000E-01	  0.026412826	-1.770470E+02	  0.026412826	2.418000E+00	  0.026412826	-1.285000E+00
31	  0.026613226	-8.560000E-01	  0.026613226	-1.787960E+02	  0.026613226	2.462000E+00	  0.026613226	-5.240000E-01
32	  0.026813626	-8.710000E-01	  0.026813626	1.794370E+02	  0.026813626	2.506000E+00	  0.026813626	2.440000E-01
33	  0.027014028	-8.870000E-01	  0.027014028	1.776710E+02	  0.027014028	2.551000E+00	  0.027014028	1.013000E+00
34	  0.027214428	-9.030000E-01	  0.027214428	1.758930E+02	  0.027214428	2.602000E+00	  0.027214428	1.787000E+00
35	  0.027414829	-9.190000E-01	  0.027414829	1.741190E+02	  0.027414829	2.651000E+00	  0.027414829	2.560000E+00
36	  0.027615231	-9.380000E-01	  0.027615231	1.723200E+02	  0.027615231	2.709000E+00	  0.027615231	3.346000E+00
37	  0.027815631	-9.550000E-01	  0.027815631	1.705230E+02	  0.027815631	2.766000E+00	  0.027815631	4.131000E+00
38	  0.028016033	-9.740000E-01	  0.028016033	1.687050E+02	  0.028016033	2.830000E+00	  0.028016033	4.928000E+00
39	  0.028216433	-9.940000E-01	  0.028216433	1.668810E+02	  0.028216433	2.897000E+00	  0.028216433	5.730000E+00
40	  0.028416833	-1.016000E+00	  0.028416833	1.650470E+02	  0.028416833	2.972000E+00	  0.028416833	6.538000E+00
41	  0.028617235	-1.037000E+00	  0.028617235	1.632020E+02	  0.028617235	3.045000E+00	  0.028617235	7.355000E+00
42	  0.028817635	-1.058000E+00	  0.028817635	1.613630E+02	  0.028817635	3.123000E+00	  0.028817635	8.172000E+00
43	  0.029018037	-1.082000E+00	  0.029018037	1.595130E+02	  0.029018037	3.212000E+00	  0.029018037	8.999000E+00
44	  0.029218437	-1.108000E+00	  0.029218437	1.576500E+02	  0.029218437	3.309000E+00	  0.029218437	9.835000E+00
45	  0.029418837	-1.133000E+00	  0.029418837	1.557600E+02	  0.029418837	3.408000E+00	  0.029418837	1.068900E+01
46	  0.029619239	-1.161000E+00	  0.029619239	1.538650E+02	  0.029619239	3.516000E+00	  0.029619239	1.155000E+01
47	  0.029819639	-1.187000E+00	  0.029819639	1.519600E+02	  0.029819639	3.623000E+00	  0.029819639	1.242200E+01
48	  0.030020041	-1.216000E+00	  0.030020041	1.500350E+02	  0.030020041	3.744000E+00	  0.030020041	1.331000E+01
49	  0.030220442	-1.244000E+00	  0.030220442	1.481110E+02	  0.030220442	3.866000E+00	  0.030220442	1.420500E+01
50	  0.030420844	-1.273000E+00	  0.030420844	1.461980E+02	  0.030420844	3.993000E+00	  0.030420844	1.510300E+01
51	  0.030621244	-1.304000E+00	  0.030621244	1.442650E+02	  0.030621244	4.134000E+00	  0.030621244	1.601800E+01
52	  0.030821642	-1.338000E+00	  0.030821642	1.423200E+02	  0.030821642	4.289000E+00	  0.030821642	1.694700E+01
53	  0.031022044	-1.371000E+00	  0.031022044	1.403780E+02	  0.031022044	4.445000E+00	  0.031022044	1.788500E+01
54	  0.031222444	-1.398000E+00	  0.031222444	1.384230E+02	  0.031222444	4.589000E+00	  0.031222444	1.884100E+01
55	  0.031422846	-1.433000E+00	  0.031422846	1.364350E+02	  0.031422846	4.768000E+00	  0.031422846	1.982300E+01
56	  0.031623244	-1.470000E+00	  0.031623244	1.344360E+02	  0.031623244	4.960000E+00	  0.031623244	2.082300E+01
57	  0.031823646	-1.507000E+00	  0.031823646	1.324500E+02	  0.031823646	5.160000E+00	  0.031823646	2.182900E+01
58	  0.032024048	-1.546000E+00	  0.032024048	1.304580E+02	  0.032024048	5.374000E+00	  0.032024048	2.285200E+01
59	  0.032224450	-1.585000E+00	  0.032224450	1.284440E+02	  0.032224450	5.601000E+00	  0.032224450	2.390000E+01
60	  0.032424849	-1.626000E+00	  0.032424849	1.264360E+02	  0.032424849	5.844000E+00	  0.032424849	2.496100E+01
61	  0.032625251	-1.667000E+00	  0.032625251	1.244140E+02	  0.032625251	6.099000E+00	  0.032625251	2.604600E+01
62	  0.032825653	-1.707000E+00	  0.032825653	1.223920E+02	  0.032825653	6.359000E+00	  0.032825653	2.714900E+01
63	  0.033026051	-1.749000E+00	  0.033026051	1.203450E+02	  0.033026051	6.644000E+00	  0.033026051	2.828400E+01
64	  0.033226453	-1.790000E+00	  0.033226453	1.182930E+02	  0.033226453	6.942000E+00	  0.033226453	2.944200E+01
65	  0.033426855	-1.831000E+00	  0.033426855	1.162580E+02	  0.033426855	7.249000E+00	  0.033426855	3.061300E+01
66	  0.033627257	-1.875000E+00	  0.033627257	1.142350E+02	  0.033627257	7.586000E+00	  0.033627257	3.179700E+01
67	  0.033827655	-1.922000E+00	  0.033827655	1.121990E+02	  0.033827655	7.955000E+00	  0.033827655	3.300900E+01
68	  0.034028057	-1.967000E+00	  0.034028057	1.101570E+02	  0.034028057	8.335000E+00	  0.034028057	3.425100E+01
69	  0.034228459	-2.011000E+00	  0.034228459	1.081020E+02	  0.034228459	8.735000E+00	  0.034228459	3.552800E+01
70	  0.034428857	-2.062000E+00	  0.034428857	1.060540E+02	  0.034428857	9.186000E+00	  0.034428857	3.682300E+01
71	  0.034629259	-2.109000E+00	  0.034629259	1.039760E+02	  0.034629259	9.646000E+00	  0.034629259	3.816900E+01
72	  0.034829661	-2.158000E+00	  0.034829661	1.018910E+02	  0.034829661	1.014700E+01	  0.034829661	3.954900E+01
73	  0.035030060	-2.211000E+00	  0.035030060	9.983000E+01	  0.035030060	1.069600E+01	  0.035030060	4.094100E+01
74	  0.035230462	-2.264000E+00	  0.035230462	9.775900E+01	  0.035230462	1.127800E+01	  0.035230462	4.237200E+01
75	  0.035430863	-2.315000E+00	  0.035430863	9.568100E+01	  0.035430863	1.188600E+01	  0.035430863	4.384600E+01
76	  0.035631265	-2.370000E+00	  0.035631265	9.361300E+01	  0.035631265	1.255400E+01	  0.035631265	4.534300E+01
77	  0.035831664	-2.421000E+00	  0.035831664	9.152500E+01	  0.035831664	1.325000E+01	  0.035831664	4.689800E+01
78	  0.036032066	-2.478000E+00	  0.036032066	8.942500E+01	  0.036032066	1.402600E+01	  0.036032066	4.849600E+01
79	  0.036232468	-2.529000E+00	  0.036232468	8.733400E+01	  0.036232468	1.482500E+01	  0.036232468	5.013600E+01
80	  0.036432866	-2.586000E+00	  0.036432866	8.521900E+01	  0.036432866	1.571900E+01	  0.036432866	5.183000E+01
81	  0.036633268	-2.642000E+00	  0.036633268	8.312000E+01	  0.036633268	1.666400E+01	  0.036633268	5.355700E+01
82	  0.036833670	-2.698000E+00	  0.036833670	8.103100E+01	  0.036833670	1.768300E+01	  0.036833670	5.532000E+01
83	  0.037034072	-2.758000E+00	  0.037034072	7.890600E+01	  0.037034072	1.880800E+01	  0.037034072	5.715700E+01
84	  0.037234470	-2.814000E+00	  0.037234470	7.682900E+01	  0.037234470	1.998300E+01	  0.037234470	5.900300E+01
85	  0.037434869	-2.872000E+00	  0.037434869	7.471600E+01	  0.037434869	2.127400E+01	  0.037434869	6.092900E+01
86	  0.037635271	-2.931000E+00	  0.037635271	7.263100E+01	  0.037635271	2.265900E+01	  0.037635271	6.287300E+01
87	  0.037835669	-2.989000E+00	  0.037835669	7.052700E+01	  0.037835669	2.416000E+01	  0.037835669	6.488900E+01
88	  0.038036071	-3.048000E+00	  0.038036071	6.839900E+01	  0.038036071	2.580600E+01	  0.038036071	6.697600E+01
89	  0.038236473	-3.108000E+00	  0.038236473	6.627100E+01	  0.038236473	2.759600E+01	  0.038236473	6.911000E+01
90	  0.038436871	-3.166000E+00	  0.038436871	6.419100E+01	  0.038436871	2.949200E+01	  0.038436871	7.124300E+01
91	  0.038637273	-3.229000E+00	  0.038637273	6.208100E+01	  0.038637273	3.161000E+01	  0.038637273	7.342700E+01
92	  0.038837675	-3.285000E+00	  0.038837675	5.997700E+01	  0.038837675	3.385300E+01	  0.038837675	7.567900E+01
93	  0.039038073	-3.346000E+00	  0.039038073	5.789400E+01	  0.039038073	3.631300E+01	  0.039038073	7.790700E+01
94	  0.039238475	-3.400000E+00	  0.039238475	5.581900E+01	  0.039238475	3.892800E+01	  0.039238475	8.018700E+01
95	  0.039438877	-3.459000E+00	  0.039438877	5.373200E+01	  0.039438877	4.182600E+01	  0.039438877	8.247100E+01
96	  0.039639279	-3.517000E+00	  0.039639279	5.165800E+01	  0.039639279	4.495700E+01	  0.039639279	8.474400E+01
97	  0.039839678	-3.578000E+00	  0.039839678	4.956900E+01	  0.039839678	4.842500E+01	  0.039839678	8.697800E+01
98	  0.040040080	-3.633000E+00	  0.040040080	4.747100E+01	  0.040040080	5.215500E+01	  0.040040080	8.925600E+01
99	  0.040240481	-3.693000E+00	  0.040240481	4.539600E+01	  0.040240481	5.623400E+01	  0.040240481	9.137600E+01
100	  0.040440880	-3.749000E+00	  0.040440880	4.334800E+01	  0.040440880	6.058400E+01	  0.040440880	9.340400E+01
101	  0.040641282	-3.807000E+00	  0.040641282	4.129300E+01	  0.040641282	6.533900E+01	  0.040641282	9.528800E+01
102	  0.040841684	-3.864000E+00	  0.040841684	3.922500E+01	  0.040841684	7.051900E+01	  0.040841684	9.700800E+01
103	  0.041042086	-3.922000E+00	  0.041042086	3.720400E+01	  0.041042086	7.601500E+01	  0.041042086	9.840900E+01
104	  0.041242484	-3.982000E+00	  0.041242484	3.516500E+01	  0.041242484	8.200100E+01	  0.041242484	9.947600E+01
105	  0.041442886	-4.038000E+00	  0.041442886	3.311800E+01	  0.041442886	8.841600E+01	  0.041442886	1.002420E+02
106	  0.041643288	-4.094000E+00	  0.041643288	3.106700E+01	  0.041643288	9.528400E+01	  0.041643288	1.005540E+02
107	  0.041843686	-4.150000E+00	  0.041843686	2.901100E+01	  0.041843686	1.026000E+02	  0.041843686	1.002620E+02
108	  0.042044088	-4.204000E+00	  0.042044088	2.697700E+01	  0.042044088	1.102130E+02	  0.042044088	9.936500E+01
109	  0.042244490	-4.260000E+00	  0.042244490	2.494400E+01	  0.042244490	1.181430E+02	  0.042244490	9.762200E+01
110	  0.042444889	-4.315000E+00	  0.042444889	2.292200E+01	  0.042444889	1.262580E+02	  0.042444889	9.502800E+01
111	  0.042645290	-4.371000E+00	  0.042645290	2.090400E+01	  0.042645290	1.344520E+02	  0.042645290	9.142100E+01
112	  0.042845692	-4.424000E+00	  0.042845692	1.889400E+01	  0.042845692	1.425910E+02	  0.042845692	8.685000E+01
113	  0.043046094	-4.478000E+00	  0.043046094	1.688500E+01	  0.043046094	1.504790E+02	  0.043046094	8.112000E+01
114	  0.043246493	-4.531000E+00	  0.043246493	1.487100E+01	  0.043246493	1.579880E+02	  0.043246493	7.430100E+01
115	  0.043446895	-4.581000E+00	  0.043446895	1.287100E+01	  0.043446895	1.648520E+02	  0.043446895	6.648900E+01
116	  0.043647297	-4.634000E+00	  0.043647297	1.085600E+01	  0.043647297	1.708490E+02	  0.043647297	5.753700E+01
117	  0.043847695	-4.682000E+00	  0.043847695	8.889000E+00	  0.043847695	1.757770E+02	  0.043847695	4.802500E+01
118	  0.044048097	-4.731000E+00	  0.044048097	6.904000E+00	  0.044048097	1.795410E+02	  0.044048097	3.772900E+01
119	  0.044248499	-4.781000E+00	  0.044248499	4.926000E+00	  0.044248499	1.819090E+02	  0.044248499	2.699700E+01
120	  0.044448901	-4.829000E+00	  0.044448901	2.979000E+00	  0.044448901	1.828930E+02	  0.044448901	1.624700E+01
121	  0.044649299	-4.877000E+00	  0.044649299	1.038000E+00	  0.044649299	1.825510E+02	  0.044649299	5.594000E+00
122	  0.044849701	-4.922000E+00	  0.044849701	-8.960000E-01	  0.044849701	1.810040E+02	  0.044849701	-4.737000E+00
123	  0.045050103	-4.969000E+00	  0.045050103	-2.826000E+00	  0.045050103	1.782340E+02	  0.045050103	-1.455600E+01
124	  0.045250501	-5.013000E+00	  0.045250501	-4.750000E+00	  0.045250501	1.745380E+02	  0.045250501	-2.370700E+01
125	  0.045450903	-5.057000E+00	  0.045450903	-6.662000E+00	  0.045450903	1.699900E+02	  0.045450903	-3.203300E+01
126	  0.045651305	-5.100000E+00	  0.045651305	-8.585000E+00	  0.045651305	1.647520E+02	  0.045651305	-3.957000E+01
127	  0.045851704	-5.139000E+00	  0.045851704	-1.047800E+01	  0.045851704	1.591820E+02	  0.045851704	-4.618800E+01
128	  0.046052102	-5.183000E+00	  0.046052102	-1.235000E+01	  0.046052102	1.531870E+02	  0.046052102	-5.177900E+01
129	  0.046252504	-5.222000E+00	  0.046252504	-1.421700E+01	  0.046252504	1.471070E+02	  0.046252504	-5.662000E+01
130	  0.046452906	-5.266000E+00	  0.046452906	-1.607400E+01	  0.046452906	1.408890E+02	  0.046452906	-6.056500E+01
131	  0.046653304	-5.306000E+00	  0.046653304	-1.792300E+01	  0.046653304	1.347710E+02	  0.046653304	-6.384400E+01
132	  0.046853706	-5.348000E+00	  0.046853706	-1.975900E+01	  0.046853706	1.287510E+02	  0.046853706	-6.641300E+01
133	  0.047054108	-5.386000E+00	  0.047054108	-2.162000E+01	  0.047054108	1.228510E+02	  0.047054108	-6.851300E+01
134	  0.047254506	-5.426000E+00	  0.047254506	-2.345400E+01	  0.047254506	1.172020E+02	  0.047254506	-7.003100E+01
135	  0.047454908	-5.462000E+00	  0.047454908	-2.526600E+01	  0.047454908	1.118540E+02	  0.047454908	-7.113800E+01
136	  0.047655310	-5.499000E+00	  0.047655310	-2.709500E+01	  0.047655310	1.066830E+02	  0.047655310	-7.185300E+01
137	  0.047855709	-5.535000E+00	  0.047855709	-2.888700E+01	  0.047855709	1.018500E+02	  0.047855709	-7.222000E+01
138	  0.048056111	-5.572000E+00	  0.048056111	-3.067000E+01	  0.048056111	9.728000E+01	  0.048056111	-7.229000E+01
139	  0.048256513	-5.609000E+00	  0.048256513	-3.244500E+01	  0.048256513	9.296700E+01	  0.048256513	-7.211500E+01
140	  0.048456915	-5.643000E+00	  0.048456915	-3.422700E+01	  0.048456915	8.887500E+01	  0.048456915	-7.178000E+01
141	  0.048657313	-5.676000E+00	  0.048657313	-3.597900E+01	  0.048657313	8.507300E+01	  0.048657313	-7.129800E+01
142	  0.048857715	-5.708000E+00	  0.048857715	-3.774000E+01	  0.048857715	8.146200E+01	  0.048857715	-7.067000E+01
143	  0.049058117	-5.737000E+00	  0.049058117	-3.949000E+01	  0.049058117	7.807100E+01	  0.049058117	-6.996400E+01
144	  0.049258515	-5.764000E+00	  0.049258515	-4.120400E+01	  0.049258515	7.493400E+01	  0.049258515	-6.918300E+01
145	  0.049458917	-5.794000E+00	  0.049458917	-4.294500E+01	  0.049458917	7.193000E+01	  0.049458917	-6.828000E+01
146	  0.049659319	-5.826000E+00	  0.049659319	-4.465400E+01	  0.049659319	6.915400E+01	  0.049659319	-6.729900E+01
147	  0.049859721	-5.854000E+00	  0.049859721	-4.634400E+01	  0.049859721	6.655600E+01	  0.049859721	-6.631100E+01
148	  0.050060119	-5.880000E+00	  0.050060119	-4.800700E+01	  0.050060119	6.413900E+01	  0.050060119	-6.530200E+01
149	  0.050260521	-5.902000E+00	  0.050260521	-4.968900E+01	  0.050260521	6.181100E+01	  0.050260521	-6.429700E+01
150	  0.050460923	-5.928000E+00	  0.050460923	-5.136100E+01	  0.050460923	5.963800E+01	  0.050460923	-6.322200E+01
151	  0.050661322	-5.949000E+00	  0.050661322	-5.300900E+01	  0.050661322	5.759800E+01	  0.050661322	-6.218200E+01
152	  0.050861724	-5.969000E+00	  0.050861724	-5.463000E+01	  0.050861724	5.569100E+01	  0.050861724	-6.114800E+01
153	  0.051062126	-5.995000E+00	  0.051062126	-5.626200E+01	  0.051062126	5.389300E+01	  0.051062126	-6.004800E+01
154	  0.051262524	-6.015000E+00	  0.051262524	-5.788000E+01	  0.051262524	5.218800E+01	  0.051262524	-5.898600E+01
155	  0.051462926	-6.037000E+00	  0.051462926	-5.944900E+01	  0.051462926	5.062300E+01	  0.051462926	-5.793900E+01
156	  0.051663328	-6.057000E+00	  0.051663328	-6.104600E+01	  0.051663328	4.910400E+01	  0.051663328	-5.688600E+01
157	  0.051863730	-6.078000E+00	  0.051863730	-6.261200E+01	  0.051863730	4.769300E+01	  0.051863730	-5.584200E+01
158	  0.052064128	-6.092000E+00	  0.052064128	-6.416900E+01	  0.052064128	4.633200E+01	  0.052064128	-5.484800E+01
159	  0.052264530	-6.109000E+00	  0.052264530	-6.573500E+01	  0.052264530	4.504200E+01	  0.052264530	-5.383100E+01
160	  0.052464932	-6.126000E+00	  0.052464932	-6.726000E+01	  0.052464932	4.384500E+01	  0.052464932	-5.284200E+01
161	  0.052665330	-6.140000E+00	  0.052665330	-6.879100E+01	  0.052665330	4.269000E+01	  0.052665330	-5.186700E+01
162	  0.052865732	-6.157000E+00	  0.052865732	-7.031500E+01	  0.052865732	4.160500E+01	  0.052865732	-5.088600E+01
163	  0.053066134	-6.172000E+00	  0.053066134	-7.183600E+01	  0.053066134	4.056100E+01	  0.053066134	-4.992700E+01
164	  0.053266536	-6.188000E+00	  0.053266536	-7.332400E+01	  0.053266536	3.959600E+01	  0.053266536	-4.898300E+01
165	  0.053466935	-6.205000E+00	  0.053466935	-7.481800E+01	  0.053466935	3.867100E+01	  0.053466935	-4.804300E+01
166	  0.053667337	-6.220000E+00	  0.053667337	-7.631500E+01	  0.053667337	3.777500E+01	  0.053667337	-4.712100E+01
167	  0.053867739	-6.228000E+00	  0.053867739	-7.778100E+01	  0.053867739	3.691600E+01	  0.053867739	-4.624400E+01
168	  0.054068137	-6.239000E+00	  0.054068137	-7.926900E+01	  0.054068137	3.608700E+01	  0.054068137	-4.535500E+01
169	  0.054268539	-6.250000E+00	  0.054268539	-8.071900E+01	  0.054268539	3.531800E+01	  0.054268539	-4.449300E+01
170	  0.054468941	-6.261000E+00	  0.054468941	-8.218300E+01	  0.054468941	3.457000E+01	  0.054468941	-4.363300E+01
171	  0.054669335	-6.272000E+00	  0.054669335	-8.364000E+01	  0.054669335	3.386000E+01	  0.054669335	-4.278100E+01
172	  0.054869737	-6.285000E+00	  0.054869737	-8.509400E+01	  0.054869737	3.318500E+01	  0.054869737	-4.193600E+01
173	  0.055070139	-6.296000E+00	  0.055070139	-8.651900E+01	  0.055070139	3.254600E+01	  0.055070139	-4.111900E+01
174	  0.055270538	-6.303000E+00	  0.055270538	-8.793600E+01	  0.055270538	3.192200E+01	  0.055270538	-4.032600E+01
175	  0.055470940	-6.310000E+00	  0.055470940	-8.934300E+01	  0.055470940	3.132900E+01	  0.055470940	-3.954500E+01
176	  0.055671342	-6.313000E+00	  0.055671342	-9.078000E+01	  0.055671342	3.072900E+01	  0.055671342	-3.876600E+01
177	  0.055871744	-6.319000E+00	  0.055871744	-9.219800E+01	  0.055871744	3.017000E+01	  0.055871744	-3.799800E+01
178	  0.056072142	-6.323000E+00	  0.056072142	-9.358800E+01	  0.056072142	2.964000E+01	  0.056072142	-3.725300E+01
179	  0.056272544	-6.329000E+00	  0.056272544	-9.496300E+01	  0.056272544	2.913800E+01	  0.056272544	-3.652100E+01
180	  0.056472946	-6.332000E+00	  0.056472946	-9.637300E+01	  0.056472946	2.863600E+01	  0.056472946	-3.578100E+01
181	  0.056673344	-6.336000E+00	  0.056673344	-9.771600E+01	  0.056673344	2.817700E+01	  0.056673344	-3.508100E+01
182	  0.056873746	-6.337000E+00	  0.056873746	-9.904500E+01	  0.056873746	2.773100E+01	  0.056873746	-3.439800E+01
183	  0.057074148	-6.338000E+00	  0.057074148	-1.003870E+02	  0.057074148	2.729700E+01	  0.057074148	-3.371600E+01
184	  0.057274550	-6.340000E+00	  0.057274550	-1.017420E+02	  0.057274550	2.687400E+01	  0.057274550	-3.303200E+01
185	  0.057474948	-6.341000E+00	  0.057474948	-1.030980E+02	  0.057474948	2.646500E+01	  0.057474948	-3.235300E+01
186	  0.057675350	-6.339000E+00	  0.057675350	-1.043920E+02	  0.057675350	2.607900E+01	  0.057675350	-3.171600E+01
187	  0.057875752	-6.338000E+00	  0.057875752	-1.057220E+02	  0.057875752	2.569600E+01	  0.057875752	-3.106600E+01
188	  0.058076151	-6.344000E+00	  0.058076151	-1.070160E+02	  0.058076151	2.536200E+01	  0.058076151	-3.042400E+01
189	  0.058276553	-6.339000E+00	  0.058276553	-1.083040E+02	  0.058276553	2.500700E+01	  0.058276553	-2.980800E+01
190	  0.058476955	-6.338000E+00	  0.058476955	-1.095850E+02	  0.058476955	2.467400E+01	  0.058476955	-2.919500E+01
191	  0.058677353	-6.340000E+00	  0.058677353	-1.108580E+02	  0.058677353	2.436500E+01	  0.058677353	-2.858500E+01
192	  0.058877755	-6.336000E+00	  0.058877755	-1.121690E+02	  0.058877755	2.403900E+01	  0.058877755	-2.797000E+01
193	  0.059078157	-6.333000E+00	  0.059078157	-1.134530E+02	  0.059078157	2.373500E+01	  0.059078157	-2.737000E+01
194	  0.059278559	-6.330000E+00	  0.059278559	-1.147220E+02	  0.059278559	2.344300E+01	  0.059278559	-2.678200E+01
195	  0.059478957	-6.327000E+00	  0.059478957	-1.160110E+02	  0.059478957	2.315500E+01	  0.059478957	-2.618800E+01
196	  0.059679359	-6.332000E+00	  0.059679359	-1.172950E+02	  0.059679359	2.290500E+01	  0.059679359	-2.558900E+01
197	  0.059879761	-6.327000E+00	  0.059879761	-1.185730E+02	  0.059879761	2.263200E+01	  0.059879761	-2.501100E+01
198	  0.060080159	-6.328000E+00	  0.060080159	-1.198340E+02	  0.060080159	2.239000E+01	  0.060080159	-2.443700E+01
199	  0.060280561	-6.327000E+00	  0.060280561	-1.210910E+02	  0.060280561	2.215100E+01	  0.060280561	-2.387100E+01
200	  0.060480963	-6.328000E+00	  0.060480963	-1.223620E+02	  0.060480963	2.192400E+01	  0.060480963	-2.329900E+01
201	  0.060681365	-6.328000E+00	  0.060681365	-1.236290E+02	  0.060681365	2.170000E+01	  0.060681365	-2.273500E+01
202	  0.060881764	-6.328000E+00	  0.060881764	-1.248560E+02	  0.060881764	2.149200E+01	  0.060881764	-2.219100E+01
203	  0.061082166	-6.325000E+00	  0.061082166	-1.261620E+02	  0.061082166	2.127100E+01	  0.061082166	-2.161900E+01
204	  0.061282568	-6.326000E+00	  0.061282568	-1.273830E+02	  0.061282568	2.108200E+01	  0.061282568	-2.108300E+01
205	  0.061482966	-6.325000E+00	  0.061482966	-1.286440E+02	  0.061482966	2.088600E+01	  0.061482966	-2.053600E+01
206	  0.061683368	-6.325000E+00	  0.061683368	-1.298960E+02	  0.061683368	2.070300E+01	  0.061683368	-1.999400E+01
207	  0.061883770	-6.325000E+00	  0.061883770	-1.311120E+02	  0.061883770	2.053000E+01	  0.061883770	-1.947100E+01
208	  0.062084168	-6.323000E+00	  0.062084168	-1.323440E+02	  0.062084168	2.035600E+01	  0.062084168	-1.894600E+01
209	  0.062284570	-6.326000E+00	  0.062284570	-1.335540E+02	  0.062284570	2.020200E+01	  0.062284570	-1.842900E+01
210	  0.062484972	-6.314000E+00	  0.062484972	-1.347310E+02	  0.062484972	2.002000E+01	  0.062484972	-1.794000E+01
211	  0.062685370	-6.312000E+00	  0.062685370	-1.359430E+02	  0.062685370	1.986500E+01	  0.062685370	-1.743100E+01
212	  0.062885776	-6.305000E+00	  0.062885776	-1.371730E+02	  0.062885776	1.969800E+01	  0.062885776	-1.692100E+01
213	  0.063086174	-6.307000E+00	  0.063086174	-1.383480E+02	  0.063086174	1.957200E+01	  0.063086174	-1.642800E+01
214	  0.063286573	-6.311000E+00	  0.063286573	-1.395590E+02	  0.063286573	1.944800E+01	  0.063286573	-1.592200E+01
215	  0.063486971	-6.303000E+00	  0.063486971	-1.407150E+02	  0.063486971	1.930500E+01	  0.063486971	-1.544900E+01
216	  0.063687377	-6.301000E+00	  0.063687377	-1.418680E+02	  0.063687377	1.918000E+01	  0.063687377	-1.497600E+01
217	  0.063887775	-6.297000E+00	  0.063887775	-1.430170E+02	  0.063887775	1.905700E+01	  0.063887775	-1.450600E+01
218	  0.064088173	-6.298000E+00	  0.064088173	-1.441850E+02	  0.064088173	1.894800E+01	  0.064088173	-1.402900E+01
219	  0.064288579	-6.299000E+00	  0.064288579	-1.453500E+02	  0.064288579	1.884400E+01	  0.064288579	-1.355400E+01
220	  0.064488977	-6.298000E+00	  0.064488977	-1.464810E+02	  0.064488977	1.874300E+01	  0.064488977	-1.309500E+01
221	  0.064689375	-6.298000E+00	  0.064689375	-1.476210E+02	  0.064689375	1.864700E+01	  0.064689375	-1.263400E+01
222	  0.064889781	-6.300000E+00	  0.064889781	-1.487600E+02	  0.064889781	1.856100E+01	  0.064889781	-1.217500E+01
223	  0.065090179	-6.299000E+00	  0.065090179	-1.498720E+02	  0.065090179	1.847300E+01	  0.065090179	-1.172900E+01
224	  0.065290578	-6.301000E+00	  0.065290578	-1.509750E+02	  0.065290578	1.839700E+01	  0.065290578	-1.128600E+01
225	  0.065490983	-6.301000E+00	  0.065490983	-1.520900E+02	  0.065490983	1.831900E+01	  0.065490983	-1.084100E+01
226	  0.065691382	-6.306000E+00	  0.065691382	-1.531880E+02	  0.065691382	1.825600E+01	  0.065691382	-1.040300E+01
227	  0.065891780	-6.309000E+00	  0.065891780	-1.543030E+02	  0.065891780	1.819100E+01	  0.065891780	-9.960000E+00
228	  0.066092186	-6.306000E+00	  0.066092186	-1.554210E+02	  0.066092186	1.811400E+01	  0.066092186	-9.519000E+00
229	  0.066292584	-6.307000E+00	  0.066292584	-1.565090E+02	  0.066292584	1.805500E+01	  0.066292584	-9.089000E+00
230	  0.066492982	-6.314000E+00	  0.066492982	-1.575940E+02	  0.066492982	1.801100E+01	  0.066492982	-8.660000E+00
231	  0.066693388	-6.319000E+00	  0.066693388	-1.586870E+02	  0.066693388	1.796500E+01	  0.066693388	-8.229000E+00
232	  0.066893786	-6.320000E+00	  0.066893786	-1.597550E+02	  0.066893786	1.791500E+01	  0.066893786	-7.811000E+00
233	  0.067094192	-6.326000E+00	  0.067094192	-1.608080E+02	  0.067094192	1.788200E+01	  0.067094192	-7.398000E+00
234	  0.067294590	-6.329000E+00	  0.067294590	-1.619130E+02	  0.067294590	1.784000E+01	  0.067294590	-6.966000E+00
235	  0.067494988	-6.334000E+00	  0.067494988	-1.630010E+02	  0.067494988	1.780600E+01	  0.067494988	-6.542000E+00
236	  0.067695394	-6.338000E+00	  0.067695394	-1.640450E+02	  0.067695394	1.777500E+01	  0.067695394	-6.136000E+00
237	  0.067895792	-6.341000E+00	  0.067895792	-1.651350E+02	  0.067895792	1.774300E+01	  0.067895792	-5.713000E+00
238	  0.068096191	-6.347000E+00	  0.068096191	-1.662140E+02	  0.068096191	1.772200E+01	  0.068096191	-5.294000E+00
239	  0.068296596	-6.350000E+00	  0.068296596	-1.672710E+02	  0.068296596	1.769600E+01	  0.068296596	-4.885000E+00
240	  0.068496995	-6.354000E+00	  0.068496995	-1.683070E+02	  0.068496995	1.767600E+01	  0.068496995	-4.485000E+00
241	  0.068697393	-6.362000E+00	  0.068697393	-1.693770E+02	  0.068697393	1.766700E+01	  0.068697393	-4.072000E+00
242	  0.068897791	-6.366000E+00	  0.068897791	-1.704190E+02	  0.068897791	1.765400E+01	  0.068897791	-3.670000E+00
243	  0.069098189	-6.365000E+00	  0.069098189	-1.714530E+02	  0.069098189	1.763000E+01	  0.069098189	-3.273000E+00
244	  0.069298595	-6.366000E+00	  0.069298595	-1.724880E+02	  0.069298595	1.761200E+01	  0.069298595	-2.876000E+00
245	  0.069498993	-6.373000E+00	  0.069498993	-1.735440E+02	  0.069498993	1.761200E+01	  0.069498993	-2.470000E+00
246	  0.069699399	-6.379000E+00	  0.069699399	-1.745840E+02	  0.069699399	1.761100E+01	  0.069699399	-2.071000E+00
247	  0.069899797	-6.384000E+00	  0.069899797	-1.755860E+02	  0.069899797	1.761400E+01	  0.069899797	-1.687000E+00
248	  0.070100196	-6.385000E+00	  0.070100196	-1.766230E+02	  0.070100196	1.760600E+01	  0.070100196	-1.291000E+00
249	  0.070300601	-6.394000E+00	  0.070300601	-1.776080E+02	  0.070300601	1.762200E+01	  0.070300601	-9.140000E-01
250	  0.070501000	-6.397000E+00	  0.070501000	-1.786170E+02	  0.070501000	1.762600E+01	  0.070501000	-5.280000E-01
251	  0.070701398	-6.399000E+00	  0.070701398	-1.796120E+02	  0.070701398	1.763000E+01	  0.070701398	-1.480000E-01
252	  0.070901804	-6.403000E+00	  0.070901804	1.794320E+02	  0.070901804	1.763900E+01	  0.070901804	2.160000E-01
253	  0.071102202	-6.411000E+00	  0.071102202	1.784530E+02	  0.071102202	1.766000E+01	  0.071102202	5.900000E-01
254	  0.071302600	-6.418000E+00	  0.071302600	1.774540E+02	  0.071302600	1.768400E+01	  0.071302600	9.710000E-01
255	  0.071503006	-6.425000E+00	  0.071503006	1.764680E+02	  0.071503006	1.770900E+01	  0.071503006	1.348000E+00
256	  0.071703404	-6.431000E+00	  0.071703404	1.755070E+02	  0.071703404	1.773200E+01	  0.071703404	1.714000E+00
257	  0.071903802	-6.442000E+00	  0.071903802	1.745440E+02	  0.071903802	1.777200E+01	  0.071903802	2.081000E+00
258	  0.072104208	-6.450000E+00	  0.072104208	1.736040E+02	  0.072104208	1.780500E+01	  0.072104208	2.440000E+00
259	  0.072304606	-6.457000E+00	  0.072304606	1.726440E+02	  0.072304606	1.783800E+01	  0.072304606	2.806000E+00
260	  0.072505005	-6.465000E+00	  0.072505005	1.716810E+02	  0.072505005	1.787700E+01	  0.072505005	3.173000E+00
261	  0.072705410	-6.472000E+00	  0.072705410	1.707590E+02	  0.072705410	1.791400E+01	  0.072705410	3.524000E+00
262	  0.072905809	-6.486000E+00	  0.072905809	1.697980E+02	  0.072905809	1.797100E+01	  0.072905809	3.890000E+00
263	  0.073106214	-6.493000E+00	  0.073106214	1.688540E+02	  0.073106214	1.801300E+01	  0.073106214	4.250000E+00
264	  0.073306613	-6.501000E+00	  0.073306613	1.678850E+02	  0.073306613	1.806000E+01	  0.073306613	4.620000E+00
265	  0.073507011	-6.518000E+00	  0.073507011	1.669600E+02	  0.073507011	1.813200E+01	  0.073507011	4.971000E+00
266	  0.073707417	-6.528000E+00	  0.073707417	1.660070E+02	  0.073707417	1.818600E+01	  0.073707417	5.334000E+00
267	  0.073907815	-6.534000E+00	  0.073907815	1.650840E+02	  0.073907815	1.823600E+01	  0.073907815	5.687000E+00
268	  0.074108213	-6.545000E+00	  0.074108213	1.641490E+02	  0.074108213	1.829800E+01	  0.074108213	6.043000E+00
269	  0.074308619	-6.557000E+00	  0.074308619	1.632200E+02	  0.074308619	1.836500E+01	  0.074308619	6.397000E+00
270	  0.074509017	-6.563000E+00	  0.074509017	1.622830E+02	  0.074509017	1.842000E+01	  0.074509017	6.756000E+00
271	  0.074709415	-6.573000E+00	  0.074709415	1.613570E+02	  0.074709415	1.848700E+01	  0.074709415	7.110000E+00
272	  0.074909821	-6.585000E+00	  0.074909821	1.603990E+02	  0.074909821	1.856200E+01	  0.074909821	7.476000E+00
273	  0.075110219	-6.598000E+00	  0.075110219	1.594970E+02	  0.075110219	1.864100E+01	  0.075110219	7.820000E+00
274	  0.075310618	-6.603000E+00	  0.075310618	1.585650E+02	  0.075310618	1.870300E+01	  0.075310618	8.178000E+00
275	  0.075511023	-6.615000E+00	  0.075511023	1.576660E+02	  0.075511023	1.878100E+01	  0.075511023	8.522000E+00
276	  0.075711422	-6.622000E+00	  0.075711422	1.567810E+02	  0.075711422	1.885100E+01	  0.075711422	8.863000E+00
277	  0.075911827	-6.629000E+00	  0.075911827	1.558660E+02	  0.075911827	1.892300E+01	  0.075911827	9.215000E+00
278	  0.076112226	-6.639000E+00	  0.076112226	1.549580E+02	  0.076112226	1.900500E+01	  0.076112226	9.564000E+00
279	  0.076312624	-6.649000E+00	  0.076312624	1.540510E+02	  0.076312624	1.908800E+01	  0.076312624	9.914000E+00
280	  0.076513030	-6.659000E+00	  0.076513030	1.531620E+02	  0.076513030	1.917500E+01	  0.076513030	1.025600E+01
281	  0.076713428	-6.671000E+00	  0.076713428	1.522630E+02	  0.076713428	1.926900E+01	  0.076713428	1.060100E+01
282	  0.076913826	-6.681000E+00	  0.076913826	1.513640E+02	  0.076913826	1.936000E+01	  0.076913826	1.094900E+01
283	  0.077114232	-6.690000E+00	  0.077114232	1.505300E+02	  0.077114232	1.944500E+01	  0.077114232	1.127200E+01
284	  0.077314630	-6.700000E+00	  0.077314630	1.496550E+02	  0.077314630	1.954000E+01	  0.077314630	1.161000E+01
285	  0.077515028	-6.708000E+00	  0.077515028	1.488100E+02	  0.077515028	1.962900E+01	  0.077515028	1.193800E+01
286	  0.077715434	-6.723000E+00	  0.077715434	1.479270E+02	  0.077715434	1.974000E+01	  0.077715434	1.227800E+01
287	  0.077915832	-6.734000E+00	  0.077915832	1.470670E+02	  0.077915832	1.984300E+01	  0.077915832	1.261200E+01
288	  0.078116231	-6.748000E+00	  0.078116231	1.462000E+02	  0.078116231	1.995700E+01	  0.078116231	1.294700E+01
289	  0.078316636	-6.759000E+00	  0.078316636	1.453290E+02	  0.078316636	2.006500E+01	  0.078316636	1.328500E+01
290	  0.078517035	-6.774000E+00	  0.078517035	1.444860E+02	  0.078517035	2.018400E+01	  0.078517035	1.361100E+01
291	  0.078717433	-6.788000E+00	  0.078717433	1.436110E+02	  0.078717433	2.030700E+01	  0.078717433	1.395000E+01
292	  0.078917839	-6.801000E+00	  0.078917839	1.427800E+02	  0.078917839	2.042300E+01	  0.078917839	1.427300E+01
293	  0.079118237	-6.819000E+00	  0.079118237	1.419600E+02	  0.079118237	2.055700E+01	  0.079118237	1.458800E+01
294	  0.079318643	-6.836000E+00	  0.079318643	1.411210E+02	  0.079318643	2.069100E+01	  0.079318643	1.491100E+01
295	  0.079519041	-6.852000E+00	  0.079519041	1.402950E+02	  0.079519041	2.082400E+01	  0.079519041	1.523100E+01
296	  0.079719439	-6.868000E+00	  0.079719439	1.394030E+02	  0.079719439	2.096600E+01	  0.079719439	1.557700E+01
297	  0.079919845	-6.884000E+00	  0.079919845	1.386090E+02	  0.079919845	2.110000E+01	  0.079919845	1.588500E+01
298	  0.080120243	-6.903000E+00	  0.080120243	1.377360E+02	  0.080120243	2.125300E+01	  0.080120243	1.622200E+01
299	  0.080320641	-6.922000E+00	  0.080320641	1.368970E+02	  0.080320641	2.140800E+01	  0.080320641	1.654500E+01
300	  0.080521047	-6.938000E+00	  0.080521047	1.360400E+02	  0.080521047	2.155600E+01	  0.080521047	1.687900E+01
301	  0.080721445	-6.956000E+00	  0.080721445	1.352440E+02	  0.080721445	2.170900E+01	  0.080721445	1.718500E+01
302	  0.080921844	-6.980000E+00	  0.080921844	1.343560E+02	  0.080921844	2.188800E+01	  0.080921844	1.752600E+01
303	  0.081122249	-6.997000E+00	  0.081122249	1.335710E+02	  0.081122249	2.204100E+01	  0.081122249	1.783000E+01
304	  0.081322648	-7.015000E+00	  0.081322648	1.327780E+02	  0.081322648	2.219900E+01	  0.081322648	1.813600E+01
305	  0.081523046	-7.035000E+00	  0.081523046	1.319180E+02	  0.081523046	2.237700E+01	  0.081523046	1.846800E+01
306	  0.081723452	-7.052000E+00	  0.081723452	1.311280E+02	  0.081723452	2.253800E+01	  0.081723452	1.877400E+01
307	  0.081923850	-7.065000E+00	  0.081923850	1.302920E+02	  0.081923850	2.269700E+01	  0.081923850	1.910500E+01
308	  0.082124248	-7.088000E+00	  0.082124248	1.295020E+02	  0.082124248	2.288200E+01	  0.082124248	1.940500E+01
309	  0.082324654	-7.104000E+00	  0.082324654	1.286970E+02	  0.082324654	2.305000E+01	  0.082324654	1.972000E+01
310	  0.082525052	-7.124000E+00	  0.082525052	1.279220E+02	  0.082525052	2.322900E+01	  0.082525052	2.001800E+01
311	  0.082725458	-7.142000E+00	  0.082725458	1.271540E+02	  0.082725458	2.340400E+01	  0.082725458	2.031500E+01
312	  0.082925856	-7.156000E+00	  0.082925856	1.263820E+02	  0.082925856	2.357200E+01	  0.082925856	2.061900E+01
313	  0.083126254	-7.179000E+00	  0.083126254	1.256130E+02	  0.083126254	2.376600E+01	  0.083126254	2.091100E+01
314	  0.083326660	-7.197000E+00	  0.083326660	1.248790E+02	  0.083326660	2.394500E+01	  0.083326660	2.119400E+01
315	  0.083527058	-7.210000E+00	  0.083527058	1.240990E+02	  0.083527058	2.411800E+01	  0.083527058	2.150300E+01
316	  0.083727457	-7.230000E+00	  0.083727457	1.233680E+02	  0.083727457	2.430900E+01	  0.083727457	2.178200E+01
317	  0.083927862	-7.250000E+00	  0.083927862	1.226280E+02	  0.083927862	2.450000E+01	  0.083927862	2.206600E+01
318	  0.084128261	-7.274000E+00	  0.084128261	1.218910E+02	  0.084128261	2.470900E+01	  0.084128261	2.234200E+01
319	  0.084328659	-7.291000E+00	  0.084328659	1.211780E+02	  0.084328659	2.489400E+01	  0.084328659	2.261800E+01
320	  0.084529065	-7.317000E+00	  0.084529065	1.204830E+02	  0.084529065	2.510300E+01	  0.084529065	2.287500E+01
321	  0.084729463	-7.338000E+00	  0.084729463	1.197530E+02	  0.084729463	2.530900E+01	  0.084729463	2.315100E+01
322	  0.084929854	-7.359000E+00	  0.084929854	1.190320E+02	  0.084929854	2.551500E+01	  0.084929854	2.342400E+01
323	  0.085130259	-7.376000E+00	  0.085130259	1.182980E+02	  0.085130259	2.571600E+01	  0.085130259	2.370900E+01
324	  0.085330658	-7.398000E+00	  0.085330658	1.175790E+02	  0.085330658	2.593100E+01	  0.085330658	2.397900E+01
325	  0.085531056	-7.423000E+00	  0.085531056	1.168830E+02	  0.085531056	2.615300E+01	  0.085531056	2.423500E+01
326	  0.085731462	-7.441000E+00	  0.085731462	1.161740E+02	  0.085731462	2.636300E+01	  0.085731462	2.450500E+01
327	  0.085931860	-7.465000E+00	  0.085931860	1.154790E+02	  0.085931860	2.658600E+01	  0.085931860	2.476100E+01
328	  0.086132258	-7.489000E+00	  0.086132258	1.148120E+02	  0.086132258	2.680700E+01	  0.086132258	2.500500E+01
329	  0.086332664	-7.513000E+00	  0.086332664	1.141460E+02	  0.086332664	2.703200E+01	  0.086332664	2.524700E+01
330	  0.086533062	-7.542000E+00	  0.086533062	1.134350E+02	  0.086533062	2.728200E+01	  0.086533062	2.550000E+01
331	  0.086733460	-7.563000E+00	  0.086733460	1.127180E+02	  0.086733460	2.751800E+01	  0.086733460	2.576600E+01
332	  0.086933866	-7.588000E+00	  0.086933866	1.120400E+02	  0.086933866	2.775500E+01	  0.086933866	2.601100E+01
333	  0.087134264	-7.607000E+00	  0.087134264	1.113450E+02	  0.087134264	2.798500E+01	  0.087134264	2.627000E+01
334	  0.087334670	-7.634000E+00	  0.087334670	1.106560E+02	  0.087334670	2.823800E+01	  0.087334670	2.651400E+01
335	  0.087535068	-7.661000E+00	  0.087535068	1.099600E+02	  0.087535068	2.849600E+01	  0.087535068	2.675900E+01
336	  0.087735467	-7.687000E+00	  0.087735467	1.093060E+02	  0.087735467	2.874500E+01	  0.087735467	2.698700E+01
337	  0.087935872	-7.709000E+00	  0.087935872	1.086220E+02	  0.087935872	2.899300E+01	  0.087935872	2.723300E+01
338	  0.088136271	-7.732000E+00	  0.088136271	1.079760E+02	  0.088136271	2.923600E+01	  0.088136271	2.746200E+01
339	  0.088336669	-7.762000E+00	  0.088336669	1.072950E+02	  0.088336669	2.951000E+01	  0.088336669	2.769200E+01
340	  0.088537075	-7.781000E+00	  0.088537075	1.065880E+02	  0.088537075	2.976600E+01	  0.088537075	2.795100E+01
341	  0.088737473	-7.806000E+00	  0.088737473	1.059470E+02	  0.088737473	3.002300E+01	  0.088737473	2.817000E+01
342	  0.088937871	-7.825000E+00	  0.088937871	1.052580E+02	  0.088937871	3.028100E+01	  0.088937871	2.842000E+01
343	  0.089138277	-7.852000E+00	  0.089138277	1.046050E+02	  0.089138277	3.055400E+01	  0.089138277	2.863800E+01
344	  0.089338675	-7.874000E+00	  0.089338675	1.039550E+02	  0.089338675	3.081400E+01	  0.089338675	2.886400E+01
345	  0.089539073	-7.904000E+00	  0.089539073	1.033470E+02	  0.089539073	3.108500E+01	  0.089539073	2.905600E+01
346	  0.089739479	-7.926000E+00	  0.089739479	1.027110E+02	  0.089739479	3.134700E+01	  0.089739479	2.927400E+01
347	  0.089939877	-7.954000E+00	  0.089939877	1.020930E+02	  0.089939877	3.162400E+01	  0.089939877	2.946900E+01
348	  0.090140276	-7.972000E+00	  0.090140276	1.014840E+02	  0.090140276	3.187300E+01	  0.090140276	2.968200E+01
349	  0.090340681	-7.998000E+00	  0.090340681	1.008780E+02	  0.090340681	3.214500E+01	  0.090340681	2.987500E+01
350	  0.090541080	-8.019000E+00	  0.090541080	1.002750E+02	  0.090541080	3.240400E+01	  0.090541080	3.007700E+01
351	  0.090741485	-8.044000E+00	  0.090741485	9.966500E+01	  0.090741485	3.268200E+01	  0.090741485	3.027100E+01
352	  0.090941884	-8.073000E+00	  0.090941884	9.906600E+01	  0.090941884	3.296900E+01	  0.090941884	3.044800E+01
353	  0.091142282	-8.105000E+00	  0.091142282	9.853000E+01	  0.091142282	3.324500E+01	  0.091142282	3.059200E+01
354	  0.091342688	-8.129000E+00	  0.091342688	9.791900E+01	  0.091342688	3.352700E+01	  0.091342688	3.078400E+01
355	  0.091543086	-8.153000E+00	  0.091543086	9.735800E+01	  0.091543086	3.379400E+01	  0.091543086	3.095400E+01
356	  0.091743484	-8.180000E+00	  0.091743484	9.678300E+01	  0.091743484	3.407600E+01	  0.091743484	3.112200E+01
357	  0.091943890	-8.207000E+00	  0.091943890	9.621200E+01	  0.091943890	3.436100E+01	  0.091943890	3.128400E+01
358	  0.092144288	-8.232000E+00	  0.092144288	9.561000E+01	  0.092144288	3.465400E+01	  0.092144288	3.146300E+01
359	  0.092344686	-8.256000E+00	  0.092344686	9.504800E+01	  0.092344686	3.493300E+01	  0.092344686	3.162600E+01
360	  0.092545092	-8.284000E+00	  0.092545092	9.450800E+01	  0.092545092	3.521600E+01	  0.092545092	3.176900E+01
361	  0.092745490	-8.312000E+00	  0.092745490	9.399700E+01	  0.092745490	3.549100E+01	  0.092745490	3.189800E+01
362	  0.092945889	-8.338000E+00	  0.092945889	9.344600E+01	  0.092945889	3.577700E+01	  0.092945889	3.204600E+01
363	  0.093146294	-8.365000E+00	  0.093146294	9.293400E+01	  0.093146294	3.605200E+01	  0.093146294	3.217600E+01
364	  0.093346693	-8.391000E+00	  0.093346693	9.241100E+01	  0.093346693	3.633200E+01	  0.093346693	3.230800E+01
365	  0.093547091	-8.415000E+00	  0.093547091	9.188000E+01	  0.093547091	3.661400E+01	  0.093547091	3.244700E+01
366	  0.093747497	-8.442000E+00	  0.093747497	9.135800E+01	  0.093747497	3.689800E+01	  0.093747497	3.257600E+01
367	  0.093947895	-8.466000E+00	  0.093947895	9.084400E+01	  0.093947895	3.717700E+01	  0.093947895	3.270500E+01
368	  0.094148301	-8.488000E+00	  0.094148301	9.033000E+01	  0.094148301	3.745200E+01	  0.094148301	3.283900E+01
369	  0.094348699	-8.512000E+00	  0.094348699	8.981600E+01	  0.094348699	3.773400E+01	  0.094348699	3.296400E+01
370	  0.094549097	-8.538000E+00	  0.094549097	8.935300E+01	  0.094549097	3.800000E+01	  0.094549097	3.306500E+01
371	  0.094749503	-8.559000E+00	  0.094749503	8.883600E+01	  0.094749503	3.828000E+01	  0.094749503	3.319600E+01
372	  0.094949901	-8.581000E+00	  0.094949901	8.835300E+01	  0.094949901	3.855000E+01	  0.094949901	3.331000E+01
373	  0.095150299	-8.598000E+00	  0.095150299	8.789600E+01	  0.095150299	3.879700E+01	  0.095150299	3.342900E+01
374	  0.095350705	-8.618000E+00	  0.095350705	8.739100E+01	  0.095350705	3.907600E+01	  0.095350705	3.355400E+01
375	  0.095551103	-8.639000E+00	  0.095551103	8.692100E+01	  0.095551103	3.934300E+01	  0.095551103	3.366200E+01
376	  0.095751502	-8.658000E+00	  0.095751502	8.645600E+01	  0.095751502	3.960400E+01	  0.095751502	3.377300E+01
377	  0.095951907	-8.673000E+00	  0.095951907	8.598400E+01	  0.095951907	3.986100E+01	  0.095951907	3.389600E+01
378	  0.096152306	-8.691000E+00	  0.096152306	8.554900E+01	  0.096152306	4.011000E+01	  0.096152306	3.399700E+01
379	  0.096352704	-8.705000E+00	  0.096352704	8.510100E+01	  0.096352704	4.035700E+01	  0.096352704	3.411200E+01
380	  0.096553110	-8.719000E+00	  0.096553110	8.463700E+01	  0.096553110	4.061300E+01	  0.096553110	3.423300E+01
381	  0.096753508	-8.735000E+00	  0.096753508	8.422900E+01	  0.096753508	4.084800E+01	  0.096753508	3.432600E+01
382	  0.096953906	-8.747000E+00	  0.096953906	8.380700E+01	  0.096953906	4.108400E+01	  0.096953906	3.443300E+01
383	  0.097154312	-8.758000E+00	  0.097154312	8.337100E+01	  0.097154312	4.132600E+01	  0.097154312	3.454800E+01
384	  0.097354710	-8.772000E+00	  0.097354710	8.292100E+01	  0.097354710	4.158300E+01	  0.097354710	3.465800E+01
385	  0.097555116	-8.785000E+00	  0.097555116	8.252500E+01	  0.097555116	4.181300E+01	  0.097555116	3.474900E+01
386	  0.097755514	-8.796000E+00	  0.097755514	8.210300E+01	  0.097755514	4.205200E+01	  0.097755514	3.485700E+01
387	  0.097955912	-8.806000E+00	  0.097955912	8.170300E+01	  0.097955912	4.228000E+01	  0.097955912	3.495800E+01
388	  0.098156318	-8.815000E+00	  0.098156318	8.131000E+01	  0.098156318	4.250200E+01	  0.098156318	3.506200E+01
389	  0.098356716	-8.818000E+00	  0.098356716	8.089800E+01	  0.098356716	4.272400E+01	  0.098356716	3.518900E+01
390	  0.098557115	-8.828000E+00	  0.098557115	8.049900E+01	  0.098557115	4.295600E+01	  0.098557115	3.528800E+01
391	  0.098757520	-8.834000E+00	  0.098757520	8.008800E+01	  0.098757520	4.318800E+01	  0.098757520	3.540200E+01
392	  0.098957919	-8.843000E+00	  0.098957919	7.965000E+01	  0.098957919	4.344300E+01	  0.098957919	3.551400E+01
393	  0.099158317	-8.842000E+00	  0.099158317	7.920800E+01	  0.099158317	4.368100E+01	  0.099158317	3.565900E+01
394	  0.099358723	-8.848000E+00	  0.099358723	7.880300E+01	  0.099358723	4.391400E+01	  0.099358723	3.577000E+01
395	  0.099559121	-8.853000E+00	  0.099559121	7.840700E+01	  0.099559121	4.414300E+01	  0.099559121	3.588000E+01
396	  0.099759519	-8.852000E+00	  0.099759519	7.799200E+01	  0.099759519	4.437000E+01	  0.099759519	3.601800E+01
397	  0.099959925	-8.847000E+00	  0.099959925	7.763200E+01	  0.099959925	4.456200E+01	  0.099959925	3.615000E+01
398	  0.100160323	-8.848000E+00	  0.100160323	7.717400E+01	  0.100160323	4.482300E+01	  0.100160323	3.629200E+01
399	  0.100360721	-8.853000E+00	  0.100360721	7.671500E+01	  0.100360721	4.509700E+01	  0.100360721	3.641400E+01
400	  0.100561127	-8.840000E+00	  0.100561127	7.630700E+01	  0.100561127	4.530400E+01	  0.100561127	3.659300E+01
401	  0.100761525	-8.844000E+00	  0.100761525	7.586500E+01	  0.100761525	4.556900E+01	  0.100761525	3.671500E+01
402	  0.100961931	-8.837000E+00	  0.100961931	7.540900E+01	  0.100961931	4.582200E+01	  0.100961931	3.688300E+01
403	  0.101162329	-8.827000E+00	  0.101162329	7.498000E+01	  0.101162329	4.605500E+01	  0.101162329	3.705400E+01
404	  0.101362728	-8.820000E+00	  0.101362728	7.454500E+01	  0.101362728	4.630200E+01	  0.101362728	3.721500E+01
405	  0.101563133	-8.814000E+00	  0.101563133	7.417200E+01	  0.101563133	4.651600E+01	  0.101563133	3.735100E+01
406	  0.101763532	-8.797000E+00	  0.101763532	7.374500E+01	  0.101763532	4.674300E+01	  0.101763532	3.754700E+01
407	  0.101963930	-8.791000E+00	  0.101963930	7.328700E+01	  0.101963930	4.701300E+01	  0.101963930	3.770700E+01
408	  0.102164328	-8.782000E+00	  0.102164328	7.278500E+01	  0.102164328	4.730700E+01	  0.102164328	3.789600E+01
409	  0.102364726	-8.771000E+00	  0.102364726	7.228100E+01	  0.102364726	4.760400E+01	  0.102364726	3.808800E+01
410	  0.102565125	-8.756000E+00	  0.102565125	7.186600E+01	  0.102565125	4.783800E+01	  0.102565125	3.827500E+01
411	  0.102765530	-8.739000E+00	  0.102765530	7.139800E+01	  0.102765530	4.810600E+01	  0.102765530	3.848300E+01
412	  0.102965929	-8.723000E+00	  0.102965929	7.095100E+01	  0.102965929	4.836600E+01	  0.102965929	3.868200E+01
413	  0.103166327	-8.699000E+00	  0.103166327	7.043000E+01	  0.103166327	4.866400E+01	  0.103166327	3.893400E+01
414	  0.103366733	-8.686000E+00	  0.103366733	7.005500E+01	  0.103366733	4.888700E+01	  0.103366733	3.910200E+01
415	  0.103567131	-8.666000E+00	  0.103567131	6.957100E+01	  0.103567131	4.917400E+01	  0.103567131	3.932700E+01
416	  0.103767529	-8.654000E+00	  0.103767529	6.907000E+01	  0.103767529	4.949300E+01	  0.103767529	3.952100E+01
417	  0.103967935	-8.628000E+00	  0.103967935	6.859300E+01	  0.103967935	4.977200E+01	  0.103967935	3.977400E+01
418	  0.104168333	-8.614000E+00	  0.104168333	6.808600E+01	  0.104168333	5.009800E+01	  0.104168333	3.997800E+01
419	  0.104368731	-8.594000E+00	  0.104368731	6.760700E+01	  0.104368731	5.039900E+01	  0.104368731	4.020400E+01
420	  0.104569137	-8.577000E+00	  0.104569137	6.709100E+01	  0.104569137	5.073500E+01	  0.104569137	4.042500E+01
421	  0.104769535	-8.559000E+00	  0.104769535	6.662200E+01	  0.104769535	5.104000E+01	  0.104769535	4.064000E+01
422	  0.104969934	-8.540000E+00	  0.104969934	6.609900E+01	  0.104969934	5.138800E+01	  0.104969934	4.086900E+01
423	  0.105170339	-8.517000E+00	  0.105170339	6.555900E+01	  0.105170339	5.174600E+01	  0.105170339	4.112500E+01
424	  0.105370738	-8.500000E+00	  0.105370738	6.511200E+01	  0.105370738	5.205100E+01	  0.105370738	4.132500E+01
425	  0.105571143	-8.485000E+00	  0.105571143	6.454800E+01	  0.105571143	5.245100E+01	  0.105571143	4.154900E+01
426	  0.105771542	-8.468000E+00	  0.105771542	6.396800E+01	  0.105771542	5.286700E+01	  0.105771542	4.178000E+01
427	  0.105971940	-8.447000E+00	  0.105971940	6.344400E+01	  0.105971940	5.323800E+01	  0.105971940	4.202300E+01
428	  0.106172346	-8.433000E+00	  0.106172346	6.283700E+01	  0.106172346	5.369200E+01	  0.106172346	4.224600E+01
429	  0.106372744	-8.414000E+00	  0.106372744	6.230600E+01	  0.106372744	5.408600E+01	  0.106372744	4.247300E+01
430	  0.106573142	-8.390000E+00	  0.106573142	6.172500E+01	  0.106573142	5.451700E+01	  0.106573142	4.273900E+01
431	  0.106773548	-8.383000E+00	  0.106773548	6.107500E+01	  0.106773548	5.503900E+01	  0.106773548	4.292900E+01
432	  0.106973946	-8.366000E+00	  0.106973946	6.050600E+01	  0.106973946	5.548600E+01	  0.106973946	4.314900E+01
433	  0.107174344	-8.343000E+00	  0.107174344	5.987800E+01	  0.107174344	5.598100E+01	  0.107174344	4.341600E+01
434	  0.107374750	-8.337000E+00	  0.107374750	5.925100E+01	  0.107374750	5.650800E+01	  0.107374750	4.358800E+01
435	  0.107575148	-8.315000E+00	  0.107575148	5.857100E+01	  0.107575148	5.706800E+01	  0.107575148	4.385000E+01
436	  0.107775547	-8.293000E+00	  0.107775547	5.798100E+01	  0.107775547	5.755700E+01	  0.107775547	4.409600E+01
437	  0.107975952	-8.274000E+00	  0.107975952	5.731600E+01	  0.107975952	5.812700E+01	  0.107975952	4.433700E+01
438	  0.108176351	-8.264000E+00	  0.108176351	5.666400E+01	  0.108176351	5.870600E+01	  0.108176351	4.451700E+01
439	  0.108376749	-8.244000E+00	  0.108376749	5.600300E+01	  0.108376749	5.928900E+01	  0.108376749	4.475800E+01
440	  0.108577155	-8.226000E+00	  0.108577155	5.533600E+01	  0.108577155	5.989300E+01	  0.108577155	4.497800E+01
441	  0.108777553	-8.215000E+00	  0.108777553	5.458900E+01	  0.108777553	6.058900E+01	  0.108777553	4.516300E+01
442	  0.108977959	-8.202000E+00	  0.108977959	5.390500E+01	  0.108977959	6.123400E+01	  0.108977959	4.535000E+01
443	  0.109178357	-8.182000E+00	  0.109178357	5.318400E+01	  0.109178357	6.192100E+01	  0.109178357	4.557600E+01
444	  0.109378755	-8.173000E+00	  0.109378755	5.247200E+01	  0.109378755	6.262000E+01	  0.109378755	4.572300E+01
445	  0.109579161	-8.149000E+00	  0.109579161	5.171000E+01	  0.109579161	6.337000E+01	  0.109579161	4.596800E+01
446	  0.109779559	-8.142000E+00	  0.109779559	5.104800E+01	  0.109779559	6.404400E+01	  0.109779559	4.607500E+01
447	  0.109979957	-8.125000E+00	  0.109979957	5.032100E+01	  0.109979957	6.478900E+01	  0.109979957	4.625900E+01
448	  0.110180363	-8.112000E+00	  0.110180363	4.954400E+01	  0.110180363	6.560300E+01	  0.110180363	4.640100E+01
449	  0.110380761	-8.102000E+00	  0.110380761	4.883500E+01	  0.110380761	6.635700E+01	  0.110380761	4.651000E+01
450	  0.110581160	-8.089000E+00	  0.110581160	4.807400E+01	  0.110581160	6.718100E+01	  0.110581160	4.662700E+01
451	  0.110781565	-8.084000E+00	  0.110781565	4.730800E+01	  0.110781565	6.802400E+01	  0.110781565	4.668200E+01
452	  0.110981964	-8.068000E+00	  0.110981964	4.654300E+01	  0.110981964	6.887800E+01	  0.110981964	4.679500E+01
453	  0.111182362	-8.063000E+00	  0.111182362	4.578900E+01	  0.111182362	6.973200E+01	  0.111182362	4.681700E+01
454	  0.111382768	-8.052000E+00	  0.111382768	4.499500E+01	  0.111382768	7.064600E+01	  0.111382768	4.686700E+01
455	  0.111583166	-8.051000E+00	  0.111583166	4.425100E+01	  0.111583166	7.151100E+01	  0.111583166	4.682900E+01
456	  0.111783572	-8.045000E+00	  0.111783572	4.346000E+01	  0.111783572	7.244500E+01	  0.111783572	4.681300E+01
457	  0.111983970	-8.035000E+00	  0.111983970	4.261500E+01	  0.111983970	7.346000E+01	  0.111983970	4.679300E+01
458	  0.112184368	-8.038000E+00	  0.112184368	4.181500E+01	  0.112184368	7.442200E+01	  0.112184368	4.666500E+01
459	  0.112384774	-8.033000E+00	  0.112384774	4.102300E+01	  0.112384774	7.539200E+01	  0.112384774	4.657400E+01
460	  0.112585172	-8.039000E+00	  0.112585172	4.017900E+01	  0.112585172	7.642500E+01	  0.112585172	4.636700E+01
461	  0.112785570	-8.036000E+00	  0.112785570	3.938200E+01	  0.112785570	7.742000E+01	  0.112785570	4.621200E+01
462	  0.112985976	-8.035000E+00	  0.112985976	3.852500E+01	  0.112985976	7.849700E+01	  0.112985976	4.600100E+01
463	  0.113186374	-8.044000E+00	  0.113186374	3.770200E+01	  0.113186374	7.952200E+01	  0.113186374	4.569400E+01
464	  0.113386773	-8.044000E+00	  0.113386773	3.683700E+01	  0.113386773	8.062200E+01	  0.113386773	4.541400E+01
465	  0.113587178	-8.061000E+00	  0.113587178	3.596100E+01	  0.113587178	8.170200E+01	  0.113587178	4.495500E+01
466	  0.113787577	-8.059000E+00	  0.113787577	3.505600E+01	  0.113787577	8.287200E+01	  0.113787577	4.461300E+01
467	  0.113987975	-8.071000E+00	  0.113987975	3.412000E+01	  0.113987975	8.404700E+01	  0.113987975	4.410300E+01
468	  0.114188381	-8.082000E+00	  0.114188381	3.326400E+01	  0.114188381	8.512300E+01	  0.114188381	4.360600E+01
469	  0.114388779	-8.090000E+00	  0.114388779	3.233200E+01	  0.114388779	8.630400E+01	  0.114388779	4.305400E+01
470	  0.114589177	-8.103000E+00	  0.114589177	3.145800E+01	  0.114589177	8.738800E+01	  0.114589177	4.245100E+01
471	  0.114789583	-8.116000E+00	  0.114789583	3.048700E+01	  0.114789583	8.859000E+01	  0.114789583	4.175100E+01
472	  0.114989981	-8.130000E+00	  0.114989981	2.957500E+01	  0.114989981	8.970700E+01	  0.114989981	4.104200E+01
473	  0.115190387	-8.152000E+00	  0.115190387	2.858700E+01	  0.115190387	9.087000E+01	  0.115190387	4.016400E+01
474	  0.115390785	-8.163000E+00	  0.115390785	2.759600E+01	  0.115390785	9.207500E+01	  0.115390785	3.933400E+01
475	  0.115591183	-8.185000E+00	  0.115591183	2.662600E+01	  0.115591183	9.317500E+01	  0.115591183	3.837500E+01
476	  0.115791589	-8.203000E+00	  0.115791589	2.565700E+01	  0.115791589	9.427900E+01	  0.115791589	3.740900E+01
477	  0.115991987	-8.229000E+00	  0.115991987	2.467600E+01	  0.115991987	9.532100E+01	  0.115991987	3.632100E+01
478	  0.116192386	-8.246000E+00	  0.116192386	2.366300E+01	  0.116192386	9.642500E+01	  0.116192386	3.522800E+01
479	  0.116392791	-8.276000E+00	  0.116392791	2.267400E+01	  0.116392791	9.738800E+01	  0.116392791	3.401300E+01
480	  0.116593190	-8.308000E+00	  0.116593190	2.166900E+01	  0.116593190	9.831500E+01	  0.116593190	3.273000E+01
481	  0.116793588	-8.341000E+00	  0.116793588	2.058400E+01	  0.116793588	9.927300E+01	  0.116793588	3.130400E+01
482	  0.116993994	-8.375000E+00	  0.116993994	1.958200E+01	  0.116993994	1.000900E+02	  0.116993994	2.993200E+01
483	  0.117194392	-8.403000E+00	  0.117194392	1.853100E+01	  0.117194392	1.009460E+02	  0.117194392	2.850000E+01
484	  0.117394790	-8.441000E+00	  0.117394790	1.746000E+01	  0.117394790	1.016920E+02	  0.117394790	2.694900E+01
485	  0.117595196	-8.477000E+00	  0.117595196	1.640100E+01	  0.117595196	1.023800E+02	  0.117595196	2.539000E+01
486	  0.117795594	-8.519000E+00	  0.117795594	1.533000E+01	  0.117795594	1.029610E+02	  0.117795594	2.375600E+01
487	  0.117995992	-8.568000E+00	  0.117995992	1.421600E+01	  0.117995992	1.034480E+02	  0.117995992	2.200600E+01
