! Anritsu VNA Master:             	Model: MS2036C/10/77
! SN:             	1601066
! /bd0/18may10/252.ew.m6.txt
! Existing Calibration Information:
! TYPE:             	Current Settings	Active Cal Settings
! TIME:             	05/10/2018 06:40:22 PM	05/10/2018 06:36:47 PM
! INTERNAL TEMP:    	61.3 C	61.0 C
! # POINTS:         	487	487
! START FREQ:       	20.601 202 MHz	20.601 202 MHz
! STOP FREQ:        	117.995 991 MHz	117.995 991 MHz
! SOURCE POWER:     	High	High
! IFBW:             	50 Hz	50 Hz
! AVG FACTOR:       	  1 	  1 
! REF PLANE 1:      	0 mm	0 mm
! REF PLANE 2:      	0 mm	0 mm
! CAL TYPE:         	Full S22	Full S22
! CAL METHOD:       	SOLT	SOLT
! CAL LINE TYPE:    	Coax	Coax
! DUT PORT 1:       	K-Conn(M)	K-Conn(M)
! DUT PORT 2:       	K-Conn(M)	K-Conn(M)
! CAL STATUS:       	OK: Accuracy High	--
! PROP-V:       	0.700
! CABLE LOSS:       	0.000 dB/m
! REF IMPEDANCE:       	50.0
! Trace Specific Parameters:	TR1	TR2	TR3	TR4
! TRACE.#.Y (GRAPH TYPE)	LOG MAG	PHASE	REAL IMPEDANCE	IMAGINARY IMPEDANCE
! TRACE.#.X 	FREQ.GHZ	FREQ.GHZ	FREQ.GHZ	FREQ.GHZ
! S-PARAMETER	S22	S22	S22	S22
! SMOOTH/APERTURE %	0	0	0	0
! WINDOW	NSL	NSL	NSL	NSL
! GATING	OFF	OFF	OFF	OFF
! FGTD	OFF	OFF	OFF	OFF
Marker Information per Trace:	TR1	TR2	TR3	TR4
!MK1	--	"MK1 TR2:  20.000 MHz,##.##"	--	--
!MK2	--	--	"MK2 TR3:  70.100 200 MHz,Z:(17.638 ohm, -1.435 ohm)"	--
!MK3	--	--	--	--
!MK4	--	--	--	--
!MK5	--	--	--	--
!MK6	--	--	--	--
!MK7	--	--	--	--
!MK8	--	--	--	--
PNT	TR1.FREQ.GHZ	TR1.LOG MAG.dB	TR2.FREQ.GHZ	TR2.PHASE.deg	TR3.FREQ.GHZ	TR3.REAL IMPEDANCE.ohm	TR4.FREQ.GHZ	TR4.IMAGINARY IMPEDANCE.ohm
1	  0.020601204	-6.410000E-01	  0.020601204	-1.298560E+02	  0.020601204	2.249000E+00	  0.020601204	-2.335200E+01
2	  0.020801604	-6.460000E-01	  0.020801604	-1.313660E+02	  0.020801604	2.239000E+00	  0.020801604	-2.255600E+01
3	  0.021002004	-6.460000E-01	  0.021002004	-1.328950E+02	  0.021002004	2.213000E+00	  0.021002004	-2.175800E+01
4	  0.021202406	-6.500000E-01	  0.021202406	-1.344210E+02	  0.021202406	2.201000E+00	  0.021202406	-2.097200E+01
5	  0.021402806	-6.520000E-01	  0.021402806	-1.359440E+02	  0.021402806	2.183000E+00	  0.021402806	-2.019600E+01
6	  0.021603208	-6.530000E-01	  0.021603208	-1.374760E+02	  0.021603208	2.163000E+00	  0.021603208	-1.942400E+01
7	  0.021803608	-6.560000E-01	  0.021803608	-1.389940E+02	  0.021803608	2.153000E+00	  0.021803608	-1.866600E+01
8	  0.022004008	-6.620000E-01	  0.022004008	-1.405160E+02	  0.022004008	2.151000E+00	  0.022004008	-1.791400E+01
9	  0.022204408	-6.670000E-01	  0.022204408	-1.420790E+02	  0.022204408	2.145000E+00	  0.022204408	-1.714900E+01
10	  0.022404809	-6.740000E-01	  0.022404809	-1.436640E+02	  0.022404809	2.148000E+00	  0.022404809	-1.638000E+01
11	  0.022605211	-6.750000E-01	  0.022605211	-1.452510E+02	  0.022605211	2.134000E+00	  0.022605211	-1.561800E+01
12	  0.022805611	-6.800000E-01	  0.022805611	-1.468440E+02	  0.022805611	2.130000E+00	  0.022805611	-1.485900E+01
13	  0.023006011	-6.840000E-01	  0.023006011	-1.484430E+02	  0.023006011	2.124000E+00	  0.023006011	-1.410400E+01
14	  0.023206413	-6.870000E-01	  0.023206413	-1.500260E+02	  0.023206413	2.118000E+00	  0.023206413	-1.336200E+01
15	  0.023406813	-6.930000E-01	  0.023406813	-1.516230E+02	  0.023406813	2.120000E+00	  0.023406813	-1.261900E+01
16	  0.023607215	-7.000000E-01	  0.023607215	-1.532300E+02	  0.023607215	2.129000E+00	  0.023607215	-1.187700E+01
17	  0.023807615	-7.090000E-01	  0.023807615	-1.548560E+02	  0.023807615	2.143000E+00	  0.023807615	-1.113100E+01
18	  0.024008015	-7.170000E-01	  0.024008015	-1.564850E+02	  0.024008015	2.153000E+00	  0.024008015	-1.038800E+01
19	  0.024208417	-7.250000E-01	  0.024208417	-1.581480E+02	  0.024208417	2.164000E+00	  0.024208417	-9.634000E+00
20	  0.024408817	-7.320000E-01	  0.024408817	-1.598120E+02	  0.024408817	2.173000E+00	  0.024408817	-8.884000E+00
21	  0.024609219	-7.390000E-01	  0.024609219	-1.614690E+02	  0.024609219	2.182000E+00	  0.024609219	-8.141000E+00
22	  0.024809619	-7.490000E-01	  0.024809619	-1.631370E+02	  0.024809619	2.204000E+00	  0.024809619	-7.397000E+00
23	  0.025010020	-7.590000E-01	  0.025010020	-1.648260E+02	  0.025010020	2.223000E+00	  0.025010020	-6.646000E+00
24	  0.025210422	-7.710000E-01	  0.025210422	-1.665040E+02	  0.025210422	2.249000E+00	  0.025210422	-5.904000E+00
25	  0.025410822	-7.830000E-01	  0.025410822	-1.681970E+02	  0.025410822	2.276000E+00	  0.025410822	-5.157000E+00
26	  0.025611224	-7.950000E-01	  0.025611224	-1.699010E+02	  0.025611224	2.306000E+00	  0.025611224	-4.408000E+00
27	  0.025811624	-8.060000E-01	  0.025811624	-1.716210E+02	  0.025811624	2.332000E+00	  0.025811624	-3.654000E+00
28	  0.026012026	-8.180000E-01	  0.026012026	-1.733550E+02	  0.026012026	2.360000E+00	  0.026012026	-2.896000E+00
29	  0.026212426	-8.310000E-01	  0.026212426	-1.750900E+02	  0.026212426	2.395000E+00	  0.026212426	-2.138000E+00
30	  0.026412826	-8.440000E-01	  0.026412826	-1.768400E+02	  0.026412826	2.430000E+00	  0.026412826	-1.375000E+00
31	  0.026613226	-8.600000E-01	  0.026613226	-1.785970E+02	  0.026613226	2.474000E+00	  0.026613226	-6.100000E-01
32	  0.026813626	-8.750000E-01	  0.026813626	1.796430E+02	  0.026813626	2.518000E+00	  0.026813626	1.550000E-01
33	  0.027014028	-8.920000E-01	  0.027014028	1.778680E+02	  0.027014028	2.567000E+00	  0.027014028	9.270000E-01
34	  0.027214428	-9.080000E-01	  0.027214428	1.760910E+02	  0.027214428	2.616000E+00	  0.027214428	1.701000E+00
35	  0.027414829	-9.250000E-01	  0.027414829	1.743050E+02	  0.027414829	2.667000E+00	  0.027414829	2.479000E+00
36	  0.027615231	-9.440000E-01	  0.027615231	1.725130E+02	  0.027615231	2.727000E+00	  0.027615231	3.261000E+00
37	  0.027815631	-9.620000E-01	  0.027815631	1.707020E+02	  0.027815631	2.785000E+00	  0.027815631	4.053000E+00
38	  0.028016033	-9.810000E-01	  0.028016033	1.688720E+02	  0.028016033	2.848000E+00	  0.028016033	4.855000E+00
39	  0.028216433	-1.002000E+00	  0.028216433	1.670490E+02	  0.028216433	2.919000E+00	  0.028216433	5.655000E+00
40	  0.028416833	-1.023000E+00	  0.028416833	1.652080E+02	  0.028416833	2.993000E+00	  0.028416833	6.467000E+00
41	  0.028617235	-1.045000E+00	  0.028617235	1.633560E+02	  0.028617235	3.068000E+00	  0.028617235	7.286000E+00
42	  0.028817635	-1.067000E+00	  0.028817635	1.615100E+02	  0.028817635	3.149000E+00	  0.028817635	8.106000E+00
43	  0.029018037	-1.090000E+00	  0.029018037	1.596590E+02	  0.029018037	3.234000E+00	  0.029018037	8.933000E+00
44	  0.029218437	-1.116000E+00	  0.029218437	1.577890E+02	  0.029218437	3.332000E+00	  0.029218437	9.772000E+00
45	  0.029418837	-1.141000E+00	  0.029418837	1.558890E+02	  0.029418837	3.429000E+00	  0.029418837	1.063000E+01
46	  0.029619239	-1.168000E+00	  0.029619239	1.540000E+02	  0.029619239	3.535000E+00	  0.029619239	1.148800E+01
47	  0.029819639	-1.194000E+00	  0.029819639	1.520940E+02	  0.029819639	3.643000E+00	  0.029819639	1.236000E+01
48	  0.030020041	-1.223000E+00	  0.030020041	1.501680E+02	  0.030020041	3.763000E+00	  0.030020041	1.324800E+01
49	  0.030220442	-1.250000E+00	  0.030220442	1.482510E+02	  0.030220442	3.883000E+00	  0.030220442	1.413900E+01
50	  0.030420844	-1.278000E+00	  0.030420844	1.463350E+02	  0.030420844	4.008000E+00	  0.030420844	1.503700E+01
51	  0.030621244	-1.309000E+00	  0.030621244	1.444150E+02	  0.030621244	4.147000E+00	  0.030621244	1.594500E+01
52	  0.030821642	-1.344000E+00	  0.030821642	1.424700E+02	  0.030821642	4.303000E+00	  0.030821642	1.687400E+01
53	  0.031022044	-1.376000E+00	  0.031022044	1.405310E+02	  0.031022044	4.457000E+00	  0.031022044	1.780900E+01
54	  0.031222444	-1.402000E+00	  0.031222444	1.385830E+02	  0.031222444	4.599000E+00	  0.031222444	1.876100E+01
55	  0.031422846	-1.437000E+00	  0.031422846	1.366100E+02	  0.031422846	4.776000E+00	  0.031422846	1.973500E+01
56	  0.031623244	-1.474000E+00	  0.031623244	1.346150E+02	  0.031623244	4.967000E+00	  0.031623244	2.073100E+01
57	  0.031823646	-1.512000E+00	  0.031823646	1.326250E+02	  0.031823646	5.169000E+00	  0.031823646	2.173800E+01
58	  0.032024048	-1.550000E+00	  0.032024048	1.306380E+02	  0.032024048	5.380000E+00	  0.032024048	2.275700E+01
59	  0.032224450	-1.591000E+00	  0.032224450	1.286320E+02	  0.032224450	5.613000E+00	  0.032224450	2.379900E+01
60	  0.032424849	-1.632000E+00	  0.032424849	1.266240E+02	  0.032424849	5.856000E+00	  0.032424849	2.485800E+01
61	  0.032625251	-1.673000E+00	  0.032625251	1.246030E+02	  0.032625251	6.109000E+00	  0.032625251	2.594000E+01
62	  0.032825653	-1.711000E+00	  0.032825653	1.225700E+02	  0.032825653	6.363000E+00	  0.032825653	2.704800E+01
63	  0.033026051	-1.755000E+00	  0.033026051	1.205260E+02	  0.033026051	6.657000E+00	  0.033026051	2.817900E+01
64	  0.033226453	-1.796000E+00	  0.033226453	1.184770E+02	  0.033226453	6.952000E+00	  0.033226453	2.933300E+01
65	  0.033426855	-1.837000E+00	  0.033426855	1.164390E+02	  0.033426855	7.259000E+00	  0.033426855	3.050300E+01
66	  0.033627257	-1.883000E+00	  0.033627257	1.144110E+02	  0.033627257	7.603000E+00	  0.033627257	3.168600E+01
67	  0.033827655	-1.928000E+00	  0.033827655	1.123640E+02	  0.033827655	7.963000E+00	  0.033827655	3.290400E+01
68	  0.034028057	-1.972000E+00	  0.034028057	1.103180E+02	  0.034028057	8.340000E+00	  0.034028057	3.414700E+01
69	  0.034228459	-2.019000E+00	  0.034228459	1.082680E+02	  0.034228459	8.748000E+00	  0.034228459	3.541600E+01
70	  0.034428857	-2.067000E+00	  0.034428857	1.062010E+02	  0.034428857	9.190000E+00	  0.034428857	3.672200E+01
71	  0.034629259	-2.117000E+00	  0.034629259	1.041320E+02	  0.034629259	9.661000E+00	  0.034629259	3.805700E+01
72	  0.034829661	-2.164000E+00	  0.034829661	1.020570E+02	  0.034829661	1.015300E+01	  0.034829661	3.942900E+01
73	  0.035030060	-2.216000E+00	  0.035030060	9.998200E+01	  0.035030060	1.069200E+01	  0.035030060	4.082800E+01
74	  0.035230462	-2.268000E+00	  0.035230462	9.790600E+01	  0.035230462	1.127100E+01	  0.035230462	4.226100E+01
75	  0.035430863	-2.319000E+00	  0.035430863	9.584000E+01	  0.035430863	1.187600E+01	  0.035430863	4.372300E+01
76	  0.035631265	-2.373000E+00	  0.035631265	9.376800E+01	  0.035631265	1.253700E+01	  0.035631265	4.522000E+01
77	  0.035831664	-2.424000E+00	  0.035831664	9.169000E+01	  0.035831664	1.322800E+01	  0.035831664	4.676500E+01
78	  0.036032066	-2.479000E+00	  0.036032066	8.960500E+01	  0.036032066	1.398900E+01	  0.036032066	4.834800E+01
79	  0.036232468	-2.531000E+00	  0.036232468	8.752200E+01	  0.036232468	1.478600E+01	  0.036232468	4.997600E+01
80	  0.036432866	-2.586000E+00	  0.036432866	8.541900E+01	  0.036432866	1.566100E+01	  0.036432866	5.165800E+01
81	  0.036633268	-2.642000E+00	  0.036633268	8.333600E+01	  0.036633268	1.659600E+01	  0.036633268	5.336700E+01
82	  0.036833670	-2.697000E+00	  0.036833670	8.124500E+01	  0.036833670	1.760500E+01	  0.036833670	5.512600E+01
83	  0.037034072	-2.757000E+00	  0.037034072	7.914500E+01	  0.037034072	1.871500E+01	  0.037034072	5.693300E+01
84	  0.037234470	-2.814000E+00	  0.037234470	7.706600E+01	  0.037234470	1.988000E+01	  0.037234470	5.877400E+01
85	  0.037434869	-2.871000E+00	  0.037434869	7.496600E+01	  0.037434869	2.115500E+01	  0.037434869	6.068000E+01
86	  0.037635271	-2.930000E+00	  0.037635271	7.290300E+01	  0.037635271	2.251600E+01	  0.037635271	6.259600E+01
87	  0.037835669	-2.987000E+00	  0.037835669	7.082400E+01	  0.037835669	2.398400E+01	  0.037835669	6.457900E+01
88	  0.038036071	-3.048000E+00	  0.038036071	6.869700E+01	  0.038036071	2.562800E+01	  0.038036071	6.664900E+01
89	  0.038236473	-3.108000E+00	  0.038236473	6.658200E+01	  0.038236473	2.738800E+01	  0.038236473	6.875900E+01
90	  0.038436871	-3.168000E+00	  0.038436871	6.446600E+01	  0.038436871	2.931000E+01	  0.038436871	7.090900E+01
91	  0.038637273	-3.230000E+00	  0.038637273	6.235800E+01	  0.038637273	3.140100E+01	  0.038637273	7.308500E+01
92	  0.038837675	-3.291000E+00	  0.038837675	6.025600E+01	  0.038837675	3.365700E+01	  0.038837675	7.529600E+01
93	  0.039038073	-3.348000E+00	  0.039038073	5.818100E+01	  0.039038073	3.605200E+01	  0.039038073	7.752800E+01
94	  0.039238475	-3.405000E+00	  0.039238475	5.610600E+01	  0.039238475	3.866100E+01	  0.039238475	7.978100E+01
95	  0.039438877	-3.464000E+00	  0.039438877	5.401700E+01	  0.039438877	4.152600E+01	  0.039438877	8.205800E+01
96	  0.039639279	-3.523000E+00	  0.039639279	5.193500E+01	  0.039639279	4.464700E+01	  0.039639279	8.431800E+01
97	  0.039839678	-3.586000E+00	  0.039839678	4.983500E+01	  0.039839678	4.810100E+01	  0.039839678	8.655200E+01
98	  0.040040080	-3.640000E+00	  0.040040080	4.774600E+01	  0.040040080	5.177800E+01	  0.040040080	8.880600E+01
99	  0.040240481	-3.699000E+00	  0.040240481	4.568000E+01	  0.040240481	5.578500E+01	  0.040240481	9.092000E+01
100	  0.040440880	-3.756000E+00	  0.040440880	4.361700E+01	  0.040440880	6.011600E+01	  0.040440880	9.296100E+01
101	  0.040641282	-3.814000E+00	  0.040641282	4.155700E+01	  0.040641282	6.482900E+01	  0.040641282	9.484700E+01
102	  0.040841684	-3.871000E+00	  0.040841684	3.950300E+01	  0.040841684	6.991500E+01	  0.040841684	9.656000E+01
103	  0.041042086	-3.928000E+00	  0.041042086	3.747500E+01	  0.041042086	7.535700E+01	  0.041042086	9.800000E+01
104	  0.041242484	-3.989000E+00	  0.041242484	3.541900E+01	  0.041242484	8.132600E+01	  0.041242484	9.909800E+01
105	  0.041442886	-4.045000E+00	  0.041442886	3.337700E+01	  0.041442886	8.766100E+01	  0.041442886	9.988500E+01
106	  0.041643288	-4.100000E+00	  0.041643288	3.132600E+01	  0.041643288	9.445100E+01	  0.041643288	1.002490E+02
107	  0.041843686	-4.157000E+00	  0.041843686	2.927300E+01	  0.041843686	1.016790E+02	  0.041843686	1.000180E+02
108	  0.042044088	-4.210000E+00	  0.042044088	2.723600E+01	  0.042044088	1.092320E+02	  0.042044088	9.920200E+01
109	  0.042244490	-4.267000E+00	  0.042244490	2.521000E+01	  0.042244490	1.170640E+02	  0.042244490	9.752800E+01
110	  0.042444889	-4.321000E+00	  0.042444889	2.319000E+01	  0.042444889	1.251110E+02	  0.042444889	9.505200E+01
111	  0.042645290	-4.377000E+00	  0.042645290	2.117700E+01	  0.042645290	1.332340E+02	  0.042645290	9.158200E+01
112	  0.042845692	-4.429000E+00	  0.042845692	1.917000E+01	  0.042845692	1.413310E+02	  0.042845692	8.716900E+01
113	  0.043046094	-4.483000E+00	  0.043046094	1.716700E+01	  0.043046094	1.492040E+02	  0.043046094	8.163800E+01
114	  0.043246493	-4.537000E+00	  0.043246493	1.515900E+01	  0.043246493	1.566950E+02	  0.043246493	7.498400E+01
115	  0.043446895	-4.588000E+00	  0.043446895	1.315500E+01	  0.043446895	1.636110E+02	  0.043446895	6.731700E+01
116	  0.043647297	-4.638000E+00	  0.043647297	1.115200E+01	  0.043647297	1.697220E+02	  0.043647297	5.863600E+01
117	  0.043847695	-4.691000E+00	  0.043847695	9.181000E+00	  0.043847695	1.746530E+02	  0.043847695	4.917100E+01
118	  0.044048097	-4.741000E+00	  0.044048097	7.209000E+00	  0.044048097	1.784780E+02	  0.044048097	3.906300E+01
119	  0.044248499	-4.790000E+00	  0.044248499	5.243000E+00	  0.044248499	1.810450E+02	  0.044248499	2.853000E+01
120	  0.044448901	-4.838000E+00	  0.044448901	3.292000E+00	  0.044448901	1.822560E+02	  0.044448901	1.785100E+01
121	  0.044649299	-4.887000E+00	  0.044649299	1.342000E+00	  0.044649299	1.820560E+02	  0.044649299	7.193000E+00
122	  0.044849701	-4.933000E+00	  0.044849701	-6.040000E-01	  0.044849701	1.807090E+02	  0.044849701	-3.181000E+00
123	  0.045050103	-4.979000E+00	  0.045050103	-2.532000E+00	  0.045050103	1.781410E+02	  0.045050103	-1.300400E+01
124	  0.045250501	-5.024000E+00	  0.045250501	-4.459000E+00	  0.045250501	1.745840E+02	  0.045250501	-2.220400E+01
125	  0.045450903	-5.068000E+00	  0.045450903	-6.383000E+00	  0.045450903	1.701790E+02	  0.045450903	-3.065600E+01
126	  0.045651305	-5.114000E+00	  0.045651305	-8.308000E+00	  0.045651305	1.650120E+02	  0.045651305	-3.825100E+01
127	  0.045851704	-5.153000E+00	  0.045851704	-1.019500E+01	  0.045851704	1.595580E+02	  0.045851704	-4.492200E+01
128	  0.046052102	-5.196000E+00	  0.046052102	-1.208300E+01	  0.046052102	1.536470E+02	  0.046052102	-5.068400E+01
129	  0.046252504	-5.236000E+00	  0.046252504	-1.395000E+01	  0.046252504	1.476150E+02	  0.046252504	-5.559800E+01
130	  0.046452906	-5.278000E+00	  0.046452906	-1.581200E+01	  0.046452906	1.414740E+02	  0.046452906	-5.969400E+01
131	  0.046653304	-5.318000E+00	  0.046653304	-1.765500E+01	  0.046653304	1.354020E+02	  0.046653304	-6.304800E+01
132	  0.046853706	-5.358000E+00	  0.046853706	-1.950300E+01	  0.046853706	1.293990E+02	  0.046853706	-6.577500E+01
133	  0.047054108	-5.397000E+00	  0.047054108	-2.136300E+01	  0.047054108	1.235020E+02	  0.047054108	-6.794100E+01
134	  0.047254506	-5.435000E+00	  0.047254506	-2.319200E+01	  0.047254506	1.178810E+02	  0.047254506	-6.955200E+01
135	  0.047454908	-5.473000E+00	  0.047454908	-2.501100E+01	  0.047454908	1.124980E+02	  0.047454908	-7.070500E+01
136	  0.047655310	-5.509000E+00	  0.047655310	-2.683100E+01	  0.047655310	1.073410E+02	  0.047655310	-7.148800E+01
137	  0.047855709	-5.545000E+00	  0.047855709	-2.863200E+01	  0.047855709	1.024730E+02	  0.047855709	-7.192100E+01
138	  0.048056111	-5.582000E+00	  0.048056111	-3.040800E+01	  0.048056111	9.790300E+01	  0.048056111	-7.204500E+01
139	  0.048256513	-5.618000E+00	  0.048256513	-3.218800E+01	  0.048256513	9.355900E+01	  0.048256513	-7.193500E+01
140	  0.048456915	-5.654000E+00	  0.048456915	-3.394100E+01	  0.048456915	8.950900E+01	  0.048456915	-7.160300E+01
141	  0.048657313	-5.686000E+00	  0.048657313	-3.569700E+01	  0.048657313	8.567300E+01	  0.048657313	-7.116600E+01
142	  0.048857715	-5.717000E+00	  0.048857715	-3.745000E+01	  0.048857715	8.205400E+01	  0.048857715	-7.058400E+01
143	  0.049058117	-5.747000E+00	  0.049058117	-3.920200E+01	  0.049058117	7.863700E+01	  0.049058117	-6.989900E+01
144	  0.049258515	-5.775000E+00	  0.049258515	-4.092700E+01	  0.049258515	7.545500E+01	  0.049258515	-6.913700E+01
145	  0.049458917	-5.804000E+00	  0.049458917	-4.265400E+01	  0.049458917	7.245300E+01	  0.049458917	-6.826900E+01
146	  0.049659319	-5.838000E+00	  0.049659319	-4.436200E+01	  0.049659319	6.966200E+01	  0.049659319	-6.727600E+01
147	  0.049859721	-5.867000E+00	  0.049859721	-4.604000E+01	  0.049859721	6.706500E+01	  0.049859721	-6.629900E+01
148	  0.050060119	-5.895000E+00	  0.050060119	-4.771500E+01	  0.050060119	6.461200E+01	  0.050060119	-6.529000E+01
149	  0.050260521	-5.917000E+00	  0.050260521	-4.938900E+01	  0.050260521	6.227800E+01	  0.050260521	-6.430100E+01
150	  0.050460923	-5.944000E+00	  0.050460923	-5.107300E+01	  0.050460923	6.007100E+01	  0.050460923	-6.323400E+01
151	  0.050661322	-5.965000E+00	  0.050661322	-5.271600E+01	  0.050661322	5.802100E+01	  0.050661322	-6.220400E+01
152	  0.050861724	-5.988000E+00	  0.050861724	-5.436900E+01	  0.050861724	5.607200E+01	  0.050861724	-6.114000E+01
153	  0.051062126	-6.013000E+00	  0.051062126	-5.599000E+01	  0.051062126	5.426900E+01	  0.051062126	-6.006300E+01
154	  0.051262524	-6.036000E+00	  0.051262524	-5.760900E+01	  0.051262524	5.255600E+01	  0.051262524	-5.899500E+01
155	  0.051462926	-6.058000E+00	  0.051462926	-5.919700E+01	  0.051462926	5.095900E+01	  0.051462926	-5.794500E+01
156	  0.051663328	-6.077000E+00	  0.051663328	-6.080400E+01	  0.051663328	4.941900E+01	  0.051663328	-5.689300E+01
157	  0.051863730	-6.099000E+00	  0.051863730	-6.237900E+01	  0.051863730	4.799000E+01	  0.051863730	-5.585100E+01
158	  0.052064128	-6.111000E+00	  0.052064128	-6.394400E+01	  0.052064128	4.660800E+01	  0.052064128	-5.486400E+01
159	  0.052264530	-6.128000E+00	  0.052264530	-6.552700E+01	  0.052264530	4.529100E+01	  0.052264530	-5.384600E+01
160	  0.052464932	-6.143000E+00	  0.052464932	-6.706400E+01	  0.052464932	4.406900E+01	  0.052464932	-5.286600E+01
161	  0.052665330	-6.158000E+00	  0.052665330	-6.858900E+01	  0.052665330	4.291500E+01	  0.052665330	-5.189500E+01
162	  0.052865732	-6.175000E+00	  0.052865732	-7.012400E+01	  0.052865732	4.181500E+01	  0.052865732	-5.091100E+01
163	  0.053066134	-6.187000E+00	  0.053066134	-7.163300E+01	  0.053066134	4.076400E+01	  0.053066134	-4.997400E+01
164	  0.053266536	-6.202000E+00	  0.053266536	-7.312800E+01	  0.053266536	3.978100E+01	  0.053266536	-4.903700E+01
165	  0.053466935	-6.216000E+00	  0.053466935	-7.462300E+01	  0.053466935	3.884000E+01	  0.053466935	-4.810800E+01
166	  0.053667337	-6.234000E+00	  0.053667337	-7.612100E+01	  0.053667337	3.794900E+01	  0.053667337	-4.717300E+01
167	  0.053867739	-6.240000E+00	  0.053867739	-7.759400E+01	  0.053867739	3.707300E+01	  0.053867739	-4.630400E+01
168	  0.054068137	-6.253000E+00	  0.054068137	-7.907900E+01	  0.054068137	3.624700E+01	  0.054068137	-4.541200E+01
169	  0.054268539	-6.263000E+00	  0.054268539	-8.052500E+01	  0.054268539	3.547100E+01	  0.054268539	-4.455700E+01
170	  0.054468941	-6.271000E+00	  0.054468941	-8.197100E+01	  0.054468941	3.471800E+01	  0.054468941	-4.371700E+01
171	  0.054669335	-6.282000E+00	  0.054669335	-8.343000E+01	  0.054669335	3.400300E+01	  0.054669335	-4.286500E+01
172	  0.054869737	-6.295000E+00	  0.054869737	-8.485800E+01	  0.054869737	3.333800E+01	  0.054869737	-4.203200E+01
173	  0.055070139	-6.303000E+00	  0.055070139	-8.628200E+01	  0.055070139	3.268400E+01	  0.055070139	-4.122500E+01
174	  0.055270538	-6.310000E+00	  0.055270538	-8.768800E+01	  0.055270538	3.206100E+01	  0.055270538	-4.043800E+01
175	  0.055470940	-6.319000E+00	  0.055470940	-8.908500E+01	  0.055470940	3.147300E+01	  0.055470940	-3.965700E+01
176	  0.055671342	-6.324000E+00	  0.055671342	-9.052500E+01	  0.055671342	3.087300E+01	  0.055671342	-3.887300E+01
177	  0.055871744	-6.328000E+00	  0.055871744	-9.192500E+01	  0.055871744	3.031400E+01	  0.055871744	-3.811600E+01
178	  0.056072142	-6.333000E+00	  0.056072142	-9.331300E+01	  0.056072142	2.977900E+01	  0.056072142	-3.737400E+01
179	  0.056272544	-6.338000E+00	  0.056272544	-9.468200E+01	  0.056272544	2.927600E+01	  0.056272544	-3.664300E+01
180	  0.056472946	-6.341000E+00	  0.056472946	-9.608200E+01	  0.056472946	2.877200E+01	  0.056472946	-3.590900E+01
181	  0.056673344	-6.346000E+00	  0.056673344	-9.741800E+01	  0.056673344	2.831500E+01	  0.056673344	-3.521000E+01
182	  0.056873746	-6.348000E+00	  0.056873746	-9.877300E+01	  0.056873746	2.785800E+01	  0.056873746	-3.451400E+01
183	  0.057074148	-6.350000E+00	  0.057074148	-1.001130E+02	  0.057074148	2.742400E+01	  0.057074148	-3.383000E+01
184	  0.057274550	-6.353000E+00	  0.057274550	-1.014690E+02	  0.057274550	2.700100E+01	  0.057274550	-3.314200E+01
185	  0.057474948	-6.352000E+00	  0.057474948	-1.028140E+02	  0.057474948	2.658500E+01	  0.057474948	-3.247400E+01
186	  0.057675350	-6.350000E+00	  0.057675350	-1.041120E+02	  0.057675350	2.619600E+01	  0.057675350	-3.183300E+01
187	  0.057875752	-6.350000E+00	  0.057875752	-1.054520E+02	  0.057875752	2.581300E+01	  0.057875752	-3.117500E+01
188	  0.058076151	-6.354000E+00	  0.058076151	-1.067610E+02	  0.058076151	2.546300E+01	  0.058076151	-3.053000E+01
189	  0.058276553	-6.352000E+00	  0.058276553	-1.080610E+02	  0.058276553	2.511000E+01	  0.058276553	-2.990400E+01
190	  0.058476955	-6.348000E+00	  0.058476955	-1.093600E+02	  0.058476955	2.476400E+01	  0.058476955	-2.928500E+01
191	  0.058677353	-6.350000E+00	  0.058677353	-1.106300E+02	  0.058677353	2.445200E+01	  0.058677353	-2.867700E+01
192	  0.058877755	-6.346000E+00	  0.058877755	-1.119400E+02	  0.058877755	2.412500E+01	  0.058877755	-2.806300E+01
193	  0.059078157	-6.340000E+00	  0.059078157	-1.132350E+02	  0.059078157	2.380500E+01	  0.059078157	-2.746200E+01
194	  0.059278559	-6.337000E+00	  0.059278559	-1.145110E+02	  0.059278559	2.351200E+01	  0.059278559	-2.686900E+01
195	  0.059478957	-6.334000E+00	  0.059478957	-1.157950E+02	  0.059478957	2.322200E+01	  0.059478957	-2.627900E+01
196	  0.059679359	-6.336000E+00	  0.059679359	-1.170740E+02	  0.059679359	2.296100E+01	  0.059679359	-2.568500E+01
197	  0.059879761	-6.332000E+00	  0.059879761	-1.183300E+02	  0.059879761	2.269400E+01	  0.059879761	-2.511600E+01
198	  0.060080159	-6.329000E+00	  0.060080159	-1.195940E+02	  0.060080159	2.243900E+01	  0.060080159	-2.454400E+01
199	  0.060280561	-6.328000E+00	  0.060280561	-1.208420E+02	  0.060280561	2.219800E+01	  0.060280561	-2.398200E+01
200	  0.060480963	-6.327000E+00	  0.060480963	-1.221130E+02	  0.060480963	2.196500E+01	  0.060480963	-2.341100E+01
201	  0.060681365	-6.327000E+00	  0.060681365	-1.233540E+02	  0.060681365	2.174500E+01	  0.060681365	-2.285800E+01
202	  0.060881764	-6.326000E+00	  0.060881764	-1.245700E+02	  0.060881764	2.153400E+01	  0.060881764	-2.232000E+01
203	  0.061082166	-6.322000E+00	  0.061082166	-1.258440E+02	  0.061082166	2.131300E+01	  0.061082166	-2.176200E+01
204	  0.061282568	-6.322000E+00	  0.061282568	-1.270770E+02	  0.061282568	2.111700E+01	  0.061282568	-2.122100E+01
205	  0.061482966	-6.321000E+00	  0.061482966	-1.283250E+02	  0.061482966	2.092300E+01	  0.061482966	-2.067800E+01
206	  0.061683368	-6.320000E+00	  0.061683368	-1.295490E+02	  0.061683368	2.073900E+01	  0.061683368	-2.014900E+01
207	  0.061883770	-6.321000E+00	  0.061883770	-1.307620E+02	  0.061883770	2.056800E+01	  0.061883770	-1.962500E+01
208	  0.062084168	-6.322000E+00	  0.062084168	-1.319680E+02	  0.062084168	2.040300E+01	  0.062084168	-1.910700E+01
209	  0.062284570	-6.323000E+00	  0.062284570	-1.331870E+02	  0.062284570	2.024300E+01	  0.062284570	-1.858700E+01
210	  0.062484972	-6.314000E+00	  0.062484972	-1.343140E+02	  0.062484972	2.007300E+01	  0.062484972	-1.811600E+01
211	  0.062685370	-6.313000E+00	  0.062685370	-1.355360E+02	  0.062685370	1.991600E+01	  0.062685370	-1.760200E+01
212	  0.062885776	-6.306000E+00	  0.062885776	-1.367570E+02	  0.062885776	1.975100E+01	  0.062885776	-1.709400E+01
213	  0.063086174	-6.313000E+00	  0.063086174	-1.379390E+02	  0.063086174	1.963200E+01	  0.063086174	-1.659400E+01
214	  0.063286573	-6.315000E+00	  0.063286573	-1.391200E+02	  0.063286573	1.950500E+01	  0.063286573	-1.610200E+01
215	  0.063486971	-6.311000E+00	  0.063486971	-1.402890E+02	  0.063486971	1.937100E+01	  0.063486971	-1.562000E+01
216	  0.063687377	-6.313000E+00	  0.063687377	-1.414360E+02	  0.063687377	1.925600E+01	  0.063687377	-1.514600E+01
217	  0.063887775	-6.309000E+00	  0.063887775	-1.425930E+02	  0.063887775	1.913000E+01	  0.063887775	-1.467300E+01
218	  0.064088173	-6.311000E+00	  0.064088173	-1.437790E+02	  0.064088173	1.902200E+01	  0.064088173	-1.418600E+01
219	  0.064288579	-6.312000E+00	  0.064288579	-1.449350E+02	  0.064288579	1.891600E+01	  0.064288579	-1.371500E+01
220	  0.064488977	-6.314000E+00	  0.064488977	-1.460760E+02	  0.064488977	1.882200E+01	  0.064488977	-1.325000E+01
221	  0.064689375	-6.311000E+00	  0.064689375	-1.472190E+02	  0.064689375	1.871500E+01	  0.064689375	-1.279000E+01
222	  0.064889781	-6.316000E+00	  0.064889781	-1.483650E+02	  0.064889781	1.863400E+01	  0.064889781	-1.232500E+01
223	  0.065090179	-6.314000E+00	  0.065090179	-1.494850E+02	  0.065090179	1.854300E+01	  0.065090179	-1.187600E+01
224	  0.065290578	-6.319000E+00	  0.065290578	-1.506140E+02	  0.065290578	1.846900E+01	  0.065290578	-1.142200E+01
225	  0.065490983	-6.320000E+00	  0.065490983	-1.517250E+02	  0.065490983	1.839300E+01	  0.065490983	-1.097800E+01
226	  0.065691382	-6.323000E+00	  0.065691382	-1.528490E+02	  0.065691382	1.832300E+01	  0.065691382	-1.053000E+01
227	  0.065891780	-6.324000E+00	  0.065891780	-1.539720E+02	  0.065891780	1.825100E+01	  0.065891780	-1.008400E+01
228	  0.066092186	-6.322000E+00	  0.066092186	-1.550700E+02	  0.066092186	1.817700E+01	  0.066092186	-9.651000E+00
229	  0.066292584	-6.324000E+00	  0.066292584	-1.561660E+02	  0.066292584	1.811800E+01	  0.066292584	-9.218000E+00
230	  0.066492982	-6.327000E+00	  0.066492982	-1.572570E+02	  0.066492982	1.806400E+01	  0.066492982	-8.787000E+00
231	  0.066693388	-6.334000E+00	  0.066693388	-1.583500E+02	  0.066693388	1.802300E+01	  0.066693388	-8.356000E+00
232	  0.066893786	-6.335000E+00	  0.066893786	-1.594280E+02	  0.066893786	1.797000E+01	  0.066893786	-7.934000E+00
233	  0.067094192	-6.338000E+00	  0.067094192	-1.604860E+02	  0.067094192	1.792700E+01	  0.067094192	-7.520000E+00
234	  0.067294590	-6.340000E+00	  0.067294590	-1.615820E+02	  0.067294590	1.788300E+01	  0.067294590	-7.092000E+00
235	  0.067494988	-6.344000E+00	  0.067494988	-1.626870E+02	  0.067494988	1.784500E+01	  0.067494988	-6.661000E+00
236	  0.067695394	-6.345000E+00	  0.067695394	-1.637280E+02	  0.067695394	1.780600E+01	  0.067695394	-6.257000E+00
237	  0.067895792	-6.352000E+00	  0.067895792	-1.647990E+02	  0.067895792	1.778200E+01	  0.067895792	-5.840000E+00
238	  0.068096191	-6.354000E+00	  0.068096191	-1.659020E+02	  0.068096191	1.774900E+01	  0.068096191	-5.413000E+00
239	  0.068296596	-6.360000E+00	  0.068296596	-1.669360E+02	  0.068296596	1.773100E+01	  0.068296596	-5.012000E+00
240	  0.068496995	-6.362000E+00	  0.068496995	-1.679600E+02	  0.068496995	1.770500E+01	  0.068496995	-4.617000E+00
241	  0.068697393	-6.370000E+00	  0.068697393	-1.690200E+02	  0.068697393	1.769700E+01	  0.068697393	-4.208000E+00
242	  0.068897791	-6.372000E+00	  0.068897791	-1.700610E+02	  0.068897791	1.767700E+01	  0.068897791	-3.807000E+00
243	  0.069098189	-6.373000E+00	  0.069098189	-1.711140E+02	  0.069098189	1.765600E+01	  0.069098189	-3.402000E+00
244	  0.069298595	-6.376000E+00	  0.069298595	-1.721310E+02	  0.069298595	1.764200E+01	  0.069298595	-3.012000E+00
245	  0.069498993	-6.383000E+00	  0.069498993	-1.731670E+02	  0.069498993	1.764200E+01	  0.069498993	-2.614000E+00
246	  0.069699399	-6.386000E+00	  0.069699399	-1.742270E+02	  0.069699399	1.763500E+01	  0.069699399	-2.207000E+00
247	  0.069899797	-6.393000E+00	  0.069899797	-1.752280E+02	  0.069899797	1.764000E+01	  0.069899797	-1.824000E+00
248	  0.070100196	-6.396000E+00	  0.070100196	-1.762450E+02	  0.070100196	1.763800E+01	  0.070100196	-1.435000E+00
249	  0.070300601	-6.406000E+00	  0.070300601	-1.772290E+02	  0.070300601	1.765500E+01	  0.070300601	-1.058000E+00
250	  0.070501000	-6.409000E+00	  0.070501000	-1.782250E+02	  0.070501000	1.765800E+01	  0.070501000	-6.770000E-01
251	  0.070701398	-6.412000E+00	  0.070701398	-1.792280E+02	  0.070701398	1.766200E+01	  0.070701398	-2.940000E-01
252	  0.070901804	-6.417000E+00	  0.070901804	1.797970E+02	  0.070901804	1.767300E+01	  0.070901804	7.700000E-02
253	  0.071102202	-6.423000E+00	  0.071102202	1.787920E+02	  0.071102202	1.769000E+01	  0.071102202	4.610000E-01
254	  0.071302600	-6.431000E+00	  0.071302600	1.778130E+02	  0.071302600	1.771500E+01	  0.071302600	8.340000E-01
255	  0.071503006	-6.438000E+00	  0.071503006	1.768230E+02	  0.071503006	1.773700E+01	  0.071503006	1.212000E+00
256	  0.071703404	-6.443000E+00	  0.071703404	1.758690E+02	  0.071703404	1.775900E+01	  0.071703404	1.575000E+00
257	  0.071903802	-6.456000E+00	  0.071903802	1.748970E+02	  0.071903802	1.780200E+01	  0.071903802	1.945000E+00
258	  0.072104208	-6.465000E+00	  0.072104208	1.739360E+02	  0.072104208	1.783900E+01	  0.072104208	2.312000E+00
259	  0.072304606	-6.472000E+00	  0.072304606	1.729870E+02	  0.072304606	1.787000E+01	  0.072304606	2.673000E+00
260	  0.072505005	-6.475000E+00	  0.072505005	1.720370E+02	  0.072505005	1.789500E+01	  0.072505005	3.036000E+00
261	  0.072705410	-6.487000E+00	  0.072705410	1.711010E+02	  0.072705410	1.794300E+01	  0.072705410	3.392000E+00
262	  0.072905809	-6.495000E+00	  0.072905809	1.701210E+02	  0.072905809	1.798600E+01	  0.072905809	3.765000E+00
263	  0.073106214	-6.502000E+00	  0.073106214	1.691760E+02	  0.073106214	1.802900E+01	  0.073106214	4.125000E+00
264	  0.073306613	-6.514000E+00	  0.073306613	1.682150E+02	  0.073306613	1.808300E+01	  0.073306613	4.491000E+00
265	  0.073507011	-6.528000E+00	  0.073507011	1.672940E+02	  0.073507011	1.814700E+01	  0.073507011	4.841000E+00
266	  0.073707417	-6.537000E+00	  0.073707417	1.663430E+02	  0.073707417	1.819800E+01	  0.073707417	5.203000E+00
267	  0.073907815	-6.545000E+00	  0.073907815	1.654020E+02	  0.073907815	1.825100E+01	  0.073907815	5.562000E+00
268	  0.074108213	-6.553000E+00	  0.074108213	1.644900E+02	  0.074108213	1.830700E+01	  0.074108213	5.910000E+00
269	  0.074308619	-6.563000E+00	  0.074308619	1.635690E+02	  0.074308619	1.836700E+01	  0.074308619	6.261000E+00
270	  0.074509017	-6.571000E+00	  0.074509017	1.626140E+02	  0.074509017	1.842700E+01	  0.074509017	6.627000E+00
271	  0.074709415	-6.581000E+00	  0.074709415	1.617020E+02	  0.074709415	1.849200E+01	  0.074709415	6.975000E+00
272	  0.074909821	-6.593000E+00	  0.074909821	1.607510E+02	  0.074909821	1.856600E+01	  0.074909821	7.338000E+00
273	  0.075110219	-6.605000E+00	  0.075110219	1.598520E+02	  0.075110219	1.864200E+01	  0.075110219	7.680000E+00
274	  0.075310618	-6.611000E+00	  0.075310618	1.589080E+02	  0.075310618	1.870500E+01	  0.075310618	8.043000E+00
275	  0.075511023	-6.619000E+00	  0.075511023	1.580420E+02	  0.075511023	1.877000E+01	  0.075511023	8.375000E+00
276	  0.075711422	-6.630000E+00	  0.075711422	1.571250E+02	  0.075711422	1.885000E+01	  0.075711422	8.726000E+00
277	  0.075911827	-6.636000E+00	  0.075911827	1.562330E+02	  0.075911827	1.891900E+01	  0.075911827	9.070000E+00
278	  0.076112226	-6.648000E+00	  0.076112226	1.553370E+02	  0.076112226	1.900500E+01	  0.076112226	9.413000E+00
279	  0.076312624	-6.657000E+00	  0.076312624	1.544130E+02	  0.076312624	1.908700E+01	  0.076312624	9.769000E+00
280	  0.076513030	-6.667000E+00	  0.076513030	1.535060E+02	  0.076513030	1.917100E+01	  0.076513030	1.011800E+01
281	  0.076713428	-6.679000E+00	  0.076713428	1.526040E+02	  0.076713428	1.926600E+01	  0.076713428	1.046500E+01
282	  0.076913826	-6.688000E+00	  0.076913826	1.517410E+02	  0.076913826	1.935000E+01	  0.076913826	1.079800E+01
283	  0.077114232	-6.697000E+00	  0.077114232	1.508870E+02	  0.077114232	1.943700E+01	  0.077114232	1.112800E+01
284	  0.077314630	-6.710000E+00	  0.077314630	1.500000E+02	  0.077314630	1.953900E+01	  0.077314630	1.146900E+01
285	  0.077515028	-6.718000E+00	  0.077515028	1.491640E+02	  0.077515028	1.962600E+01	  0.077515028	1.179400E+01
286	  0.077715434	-6.730000E+00	  0.077715434	1.482670E+02	  0.077715434	1.973100E+01	  0.077715434	1.214000E+01
287	  0.077915832	-6.739000E+00	  0.077915832	1.474040E+02	  0.077915832	1.982700E+01	  0.077915832	1.247600E+01
288	  0.078116231	-6.753000E+00	  0.078116231	1.465500E+02	  0.078116231	1.994000E+01	  0.078116231	1.280500E+01
289	  0.078316636	-6.767000E+00	  0.078316636	1.456670E+02	  0.078316636	2.005600E+01	  0.078316636	1.314600E+01
290	  0.078517035	-6.780000E+00	  0.078517035	1.448130E+02	  0.078517035	2.016900E+01	  0.078517035	1.347700E+01
291	  0.078717433	-6.791000E+00	  0.078717433	1.439330E+02	  0.078717433	2.028400E+01	  0.078717433	1.382000E+01
292	  0.078917839	-6.808000E+00	  0.078917839	1.430960E+02	  0.078917839	2.041000E+01	  0.078917839	1.414200E+01
293	  0.079118237	-6.823000E+00	  0.079118237	1.422850E+02	  0.079118237	2.053400E+01	  0.079118237	1.445500E+01
294	  0.079318643	-6.839000E+00	  0.079318643	1.414740E+02	  0.079318643	2.066100E+01	  0.079318643	1.476800E+01
295	  0.079519041	-6.853000E+00	  0.079519041	1.406310E+02	  0.079519041	2.079000E+01	  0.079519041	1.509500E+01
296	  0.079719439	-6.868000E+00	  0.079719439	1.397740E+02	  0.079719439	2.092300E+01	  0.079719439	1.542900E+01
297	  0.079919845	-6.884000E+00	  0.079919845	1.389570E+02	  0.079919845	2.106000E+01	  0.079919845	1.574400E+01
298	  0.080120243	-6.903000E+00	  0.080120243	1.381070E+02	  0.080120243	2.120900E+01	  0.080120243	1.607200E+01
299	  0.080320641	-6.920000E+00	  0.080320641	1.372730E+02	  0.080320641	2.135600E+01	  0.080320641	1.639500E+01
300	  0.080521047	-6.936000E+00	  0.080521047	1.364270E+02	  0.080521047	2.150300E+01	  0.080521047	1.672400E+01
301	  0.080721445	-6.958000E+00	  0.080721445	1.356460E+02	  0.080721445	2.166000E+01	  0.080721445	1.702200E+01
302	  0.080921844	-6.977000E+00	  0.080921844	1.347810E+02	  0.080921844	2.182500E+01	  0.080921844	1.735600E+01
303	  0.081122249	-6.995000E+00	  0.081122249	1.340000E+02	  0.081122249	2.197800E+01	  0.081122249	1.765700E+01
304	  0.081322648	-7.017000E+00	  0.081322648	1.331790E+02	  0.081322648	2.214800E+01	  0.081322648	1.797100E+01
305	  0.081523046	-7.033000E+00	  0.081523046	1.323620E+02	  0.081523046	2.230600E+01	  0.081523046	1.828900E+01
306	  0.081723452	-7.053000E+00	  0.081723452	1.315510E+02	  0.081723452	2.247800E+01	  0.081723452	1.860100E+01
307	  0.081923850	-7.069000E+00	  0.081923850	1.307440E+02	  0.081923850	2.263900E+01	  0.081923850	1.891600E+01
308	  0.082124248	-7.091000E+00	  0.082124248	1.299540E+02	  0.082124248	2.281900E+01	  0.082124248	1.921700E+01
309	  0.082324654	-7.107000E+00	  0.082324654	1.291840E+02	  0.082324654	2.298000E+01	  0.082324654	1.951700E+01
310	  0.082525052	-7.126000E+00	  0.082525052	1.283970E+02	  0.082525052	2.315700E+01	  0.082525052	1.982100E+01
311	  0.082725458	-7.150000E+00	  0.082725458	1.276340E+02	  0.082725458	2.334500E+01	  0.082725458	2.010900E+01
312	  0.082925856	-7.167000E+00	  0.082925856	1.268560E+02	  0.082925856	2.352000E+01	  0.082925856	2.041100E+01
313	  0.083126254	-7.191000E+00	  0.083126254	1.260790E+02	  0.083126254	2.371700E+01	  0.083126254	2.070500E+01
314	  0.083326660	-7.210000E+00	  0.083326660	1.253260E+02	  0.083326660	2.390100E+01	  0.083326660	2.099400E+01
315	  0.083527058	-7.225000E+00	  0.083527058	1.245580E+02	  0.083527058	2.407800E+01	  0.083527058	2.129400E+01
316	  0.083727457	-7.243000E+00	  0.083727457	1.238220E+02	  0.083727457	2.426100E+01	  0.083727457	2.157800E+01
317	  0.083927862	-7.268000E+00	  0.083927862	1.230840E+02	  0.083927862	2.446600E+01	  0.083927862	2.185400E+01
318	  0.084128261	-7.292000E+00	  0.084128261	1.223340E+02	  0.084128261	2.467200E+01	  0.084128261	2.213600E+01
319	  0.084328659	-7.310000E+00	  0.084328659	1.216170E+02	  0.084328659	2.486000E+01	  0.084328659	2.241100E+01
320	  0.084529065	-7.335000E+00	  0.084529065	1.209040E+02	  0.084529065	2.506800E+01	  0.084529065	2.267600E+01
321	  0.084729463	-7.358000E+00	  0.084729463	1.201630E+02	  0.084729463	2.528000E+01	  0.084729463	2.295400E+01
322	  0.084929854	-7.377000E+00	  0.084929854	1.194180E+02	  0.084929854	2.548500E+01	  0.084929854	2.323800E+01
323	  0.085130259	-7.396000E+00	  0.085130259	1.186860E+02	  0.085130259	2.569000E+01	  0.085130259	2.351800E+01
324	  0.085330658	-7.419000E+00	  0.085330658	1.179340E+02	  0.085330658	2.591300E+01	  0.085330658	2.380000E+01
325	  0.085531056	-7.442000E+00	  0.085531056	1.172300E+02	  0.085531056	2.612900E+01	  0.085531056	2.406200E+01
326	  0.085731462	-7.463000E+00	  0.085731462	1.165090E+02	  0.085731462	2.634700E+01	  0.085731462	2.433200E+01
327	  0.085931860	-7.483000E+00	  0.085931860	1.158070E+02	  0.085931860	2.656100E+01	  0.085931860	2.459700E+01
328	  0.086132258	-7.505000E+00	  0.086132258	1.151420E+02	  0.086132258	2.677600E+01	  0.086132258	2.484100E+01
329	  0.086332664	-7.529000E+00	  0.086332664	1.144560E+02	  0.086332664	2.700100E+01	  0.086332664	2.509300E+01
330	  0.086533062	-7.557000E+00	  0.086533062	1.137480E+02	  0.086533062	2.724900E+01	  0.086533062	2.534400E+01
331	  0.086733460	-7.576000E+00	  0.086733460	1.130550E+02	  0.086733460	2.746900E+01	  0.086733460	2.560500E+01
332	  0.086933866	-7.598000E+00	  0.086933866	1.123670E+02	  0.086933866	2.770000E+01	  0.086933866	2.585700E+01
333	  0.087134264	-7.619000E+00	  0.087134264	1.116650E+02	  0.087134264	2.793600E+01	  0.087134264	2.611600E+01
334	  0.087334670	-7.642000E+00	  0.087334670	1.109860E+02	  0.087334670	2.817400E+01	  0.087334670	2.636200E+01
335	  0.087535068	-7.668000E+00	  0.087535068	1.103030E+02	  0.087535068	2.842600E+01	  0.087535068	2.660200E+01
336	  0.087735467	-7.689000E+00	  0.087735467	1.096300E+02	  0.087735467	2.866300E+01	  0.087735467	2.684700E+01
337	  0.087935872	-7.716000E+00	  0.087935872	1.089600E+02	  0.087935872	2.891900E+01	  0.087935872	2.707900E+01
338	  0.088136271	-7.740000E+00	  0.088136271	1.083010E+02	  0.088136271	2.916500E+01	  0.088136271	2.731200E+01
339	  0.088336669	-7.766000E+00	  0.088336669	1.076370E+02	  0.088336669	2.942300E+01	  0.088336669	2.754200E+01
340	  0.088537075	-7.785000E+00	  0.088537075	1.069690E+02	  0.088537075	2.966800E+01	  0.088537075	2.778300E+01
341	  0.088737473	-7.808000E+00	  0.088737473	1.063370E+02	  0.088737473	2.991300E+01	  0.088737473	2.800500E+01
342	  0.088937871	-7.830000E+00	  0.088937871	1.056450E+02	  0.088937871	3.017900E+01	  0.088937871	2.824900E+01
343	  0.089138277	-7.857000E+00	  0.089138277	1.049980E+02	  0.089138277	3.044600E+01	  0.089138277	2.846600E+01
344	  0.089338675	-7.880000E+00	  0.089338675	1.043570E+02	  0.089338675	3.070400E+01	  0.089338675	2.868700E+01
345	  0.089539073	-7.908000E+00	  0.089539073	1.037440E+02	  0.089539073	3.097100E+01	  0.089539073	2.888400E+01
346	  0.089739479	-7.927000E+00	  0.089739479	1.031270E+02	  0.089739479	3.121900E+01	  0.089739479	2.909800E+01
347	  0.089939877	-7.957000E+00	  0.089939877	1.025080E+02	  0.089939877	3.149700E+01	  0.089939877	2.929200E+01
348	  0.090140276	-7.978000E+00	  0.090140276	1.018720E+02	  0.090140276	3.176000E+01	  0.090140276	2.951000E+01
349	  0.090340681	-8.002000E+00	  0.090340681	1.012870E+02	  0.090340681	3.201800E+01	  0.090340681	2.969800E+01
350	  0.090541080	-8.028000E+00	  0.090541080	1.006830E+02	  0.090541080	3.229200E+01	  0.090541080	2.988800E+01
351	  0.090741485	-8.049000E+00	  0.090741485	1.000890E+02	  0.090741485	3.255100E+01	  0.090741485	3.008400E+01
352	  0.090941884	-8.081000E+00	  0.090941884	9.949700E+01	  0.090941884	3.283900E+01	  0.090941884	3.025500E+01
353	  0.091142282	-8.109000E+00	  0.091142282	9.893300E+01	  0.091142282	3.311200E+01	  0.091142282	3.041900E+01
354	  0.091342688	-8.137000E+00	  0.091342688	9.833100E+01	  0.091342688	3.340000E+01	  0.091342688	3.059900E+01
355	  0.091543086	-8.161000E+00	  0.091543086	9.777600E+01	  0.091543086	3.366400E+01	  0.091543086	3.076500E+01
356	  0.091743484	-8.187000E+00	  0.091743484	9.719400E+01	  0.091743484	3.394400E+01	  0.091743484	3.093900E+01
357	  0.091943890	-8.213000E+00	  0.091943890	9.661100E+01	  0.091943890	3.423000E+01	  0.091943890	3.110800E+01
358	  0.092144288	-8.239000E+00	  0.092144288	9.603700E+01	  0.092144288	3.451200E+01	  0.092144288	3.127400E+01
359	  0.092344686	-8.264000E+00	  0.092344686	9.546600E+01	  0.092344686	3.479500E+01	  0.092344686	3.143900E+01
360	  0.092545092	-8.291000E+00	  0.092545092	9.491300E+01	  0.092545092	3.507700E+01	  0.092545092	3.159100E+01
361	  0.092745490	-8.316000E+00	  0.092745490	9.439300E+01	  0.092745490	3.534600E+01	  0.092745490	3.173000E+01
362	  0.092945889	-8.344000E+00	  0.092945889	9.384100E+01	  0.092945889	3.563400E+01	  0.092945889	3.187600E+01
363	  0.093146294	-8.371000E+00	  0.093146294	9.334600E+01	  0.093146294	3.590300E+01	  0.093146294	3.199700E+01
364	  0.093346693	-8.395000E+00	  0.093346693	9.281900E+01	  0.093346693	3.617600E+01	  0.093346693	3.213900E+01
365	  0.093547091	-8.422000E+00	  0.093547091	9.229400E+01	  0.093547091	3.645900E+01	  0.093547091	3.227000E+01
366	  0.093747497	-8.446000E+00	  0.093747497	9.175000E+01	  0.093747497	3.674400E+01	  0.093747497	3.241500E+01
367	  0.093947895	-8.469000E+00	  0.093947895	9.125400E+01	  0.093947895	3.701000E+01	  0.093947895	3.254100E+01
368	  0.094148301	-8.491000E+00	  0.094148301	9.072900E+01	  0.094148301	3.728900E+01	  0.094148301	3.267800E+01
369	  0.094348699	-8.514000E+00	  0.094348699	9.024200E+01	  0.094348699	3.755400E+01	  0.094348699	3.279900E+01
370	  0.094549097	-8.538000E+00	  0.094549097	8.977000E+01	  0.094549097	3.781700E+01	  0.094549097	3.290900E+01
371	  0.094749503	-8.563000E+00	  0.094749503	8.926700E+01	  0.094749503	3.809800E+01	  0.094749503	3.302600E+01
372	  0.094949901	-8.582000E+00	  0.094949901	8.878500E+01	  0.094949901	3.835900E+01	  0.094949901	3.314800E+01
373	  0.095150299	-8.600000E+00	  0.095150299	8.834000E+01	  0.095150299	3.860100E+01	  0.095150299	3.326100E+01
374	  0.095350705	-8.621000E+00	  0.095350705	8.781900E+01	  0.095350705	3.888600E+01	  0.095350705	3.339100E+01
375	  0.095551103	-8.641000E+00	  0.095551103	8.736500E+01	  0.095551103	3.914300E+01	  0.095551103	3.349400E+01
376	  0.095751502	-8.656000E+00	  0.095751502	8.688400E+01	  0.095751502	3.939800E+01	  0.095751502	3.362600E+01
377	  0.095951907	-8.672000E+00	  0.095951907	8.643300E+01	  0.095951907	3.964600E+01	  0.095951907	3.374100E+01
378	  0.096152306	-8.690000E+00	  0.096152306	8.600600E+01	  0.096152306	3.988900E+01	  0.096152306	3.383800E+01
379	  0.096352704	-8.708000E+00	  0.096352704	8.558500E+01	  0.096352704	4.013100E+01	  0.096352704	3.393200E+01
380	  0.096553110	-8.719000E+00	  0.096553110	8.512100E+01	  0.096553110	4.037900E+01	  0.096553110	3.406300E+01
381	  0.096753508	-8.733000E+00	  0.096753508	8.470700E+01	  0.096753508	4.061000E+01	  0.096753508	3.416500E+01
382	  0.096953906	-8.742000E+00	  0.096953906	8.428900E+01	  0.096953906	4.083600E+01	  0.096953906	3.428000E+01
383	  0.097154312	-8.757000E+00	  0.097154312	8.384800E+01	  0.097154312	4.108700E+01	  0.097154312	3.438600E+01
384	  0.097354710	-8.770000E+00	  0.097354710	8.342600E+01	  0.097354710	4.132400E+01	  0.097354710	3.449100E+01
385	  0.097555116	-8.783000E+00	  0.097555116	8.302500E+01	  0.097555116	4.155500E+01	  0.097555116	3.458700E+01
386	  0.097755514	-8.791000E+00	  0.097755514	8.260500E+01	  0.097755514	4.178400E+01	  0.097755514	3.470500E+01
387	  0.097955912	-8.802000E+00	  0.097955912	8.219900E+01	  0.097955912	4.201700E+01	  0.097955912	3.480400E+01
388	  0.098156318	-8.815000E+00	  0.098156318	8.181500E+01	  0.098156318	4.224200E+01	  0.098156318	3.489100E+01
389	  0.098356716	-8.817000E+00	  0.098356716	8.138300E+01	  0.098356716	4.247000E+01	  0.098356716	3.502900E+01
390	  0.098557115	-8.826000E+00	  0.098557115	8.099500E+01	  0.098557115	4.269300E+01	  0.098557115	3.512700E+01
391	  0.098757520	-8.830000E+00	  0.098757520	8.059700E+01	  0.098757520	4.291100E+01	  0.098757520	3.524500E+01
392	  0.098957919	-8.838000E+00	  0.098957919	8.017400E+01	  0.098957919	4.315200E+01	  0.098957919	3.535800E+01
393	  0.099158317	-8.843000E+00	  0.099158317	7.977000E+01	  0.099158317	4.337800E+01	  0.099158317	3.547400E+01
394	  0.099358723	-8.848000E+00	  0.099358723	7.935300E+01	  0.099358723	4.361400E+01	  0.099358723	3.559300E+01
395	  0.099559121	-8.849000E+00	  0.099559121	7.895900E+01	  0.099559121	4.383200E+01	  0.099559121	3.571500E+01
396	  0.099759519	-8.850000E+00	  0.099759519	7.857200E+01	  0.099759519	4.404600E+01	  0.099759519	3.583700E+01
397	  0.099959925	-8.851000E+00	  0.099959925	7.814500E+01	  0.099959925	4.428400E+01	  0.099959925	3.597000E+01
398	  0.100160323	-8.842000E+00	  0.100160323	7.774000E+01	  0.100160323	4.449000E+01	  0.100160323	3.613500E+01
399	  0.100360721	-8.854000E+00	  0.100360721	7.732300E+01	  0.100360721	4.475200E+01	  0.100360721	3.622000E+01
400	  0.100561127	-8.844000E+00	  0.100561127	7.688200E+01	  0.100561127	4.498200E+01	  0.100561127	3.639700E+01
401	  0.100761525	-8.845000E+00	  0.100761525	7.648700E+01	  0.100761525	4.521100E+01	  0.100761525	3.651600E+01
402	  0.100961931	-8.833000E+00	  0.100961931	7.603700E+01	  0.100961931	4.544500E+01	  0.100961931	3.670500E+01
403	  0.101162329	-8.827000E+00	  0.101162329	7.561400E+01	  0.101162329	4.568200E+01	  0.101162329	3.685800E+01
404	  0.101362728	-8.818000E+00	  0.101362728	7.518100E+01	  0.101362728	4.591900E+01	  0.101362728	3.702600E+01
405	  0.101563133	-8.813000E+00	  0.101563133	7.478400E+01	  0.101563133	4.614500E+01	  0.101563133	3.716900E+01
406	  0.101763532	-8.798000E+00	  0.101763532	7.435100E+01	  0.101763532	4.637500E+01	  0.101763532	3.736100E+01
407	  0.101963930	-8.798000E+00	  0.101963930	7.392600E+01	  0.101963930	4.663300E+01	  0.101963930	3.749000E+01
408	  0.102164328	-8.789000E+00	  0.102164328	7.341900E+01	  0.102164328	4.692800E+01	  0.102164328	3.767600E+01
409	  0.102364726	-8.778000E+00	  0.102364726	7.293700E+01	  0.102364726	4.720600E+01	  0.102364726	3.786500E+01
410	  0.102565125	-8.768000E+00	  0.102565125	7.249800E+01	  0.102565125	4.746000E+01	  0.102565125	3.803900E+01
411	  0.102765530	-8.753000E+00	  0.102765530	7.203400E+01	  0.102765530	4.772500E+01	  0.102765530	3.823700E+01
412	  0.102965929	-8.733000E+00	  0.102965929	7.158200E+01	  0.102965929	4.797600E+01	  0.102965929	3.845500E+01
413	  0.103166327	-8.717000E+00	  0.103166327	7.107900E+01	  0.103166327	4.827000E+01	  0.103166327	3.867100E+01
414	  0.103366733	-8.697000E+00	  0.103366733	7.066700E+01	  0.103366733	4.850300E+01	  0.103366733	3.887500E+01
415	  0.103567131	-8.682000E+00	  0.103567131	7.017400E+01	  0.103567131	4.880100E+01	  0.103567131	3.908200E+01
416	  0.103767529	-8.673000E+00	  0.103767529	6.971300E+01	  0.103767529	4.909200E+01	  0.103767529	3.925500E+01
417	  0.103967935	-8.651000E+00	  0.103967935	6.917600E+01	  0.103967935	4.941400E+01	  0.103967935	3.950600E+01
418	  0.104168333	-8.629000E+00	  0.104168333	6.866700E+01	  0.104168333	4.972200E+01	  0.104168333	3.974900E+01
419	  0.104368731	-8.621000E+00	  0.104368731	6.816800E+01	  0.104368731	5.005400E+01	  0.104368731	3.992400E+01
420	  0.104569137	-8.601000E+00	  0.104569137	6.763300E+01	  0.104569137	5.039200E+01	  0.104569137	4.016700E+01
421	  0.104769535	-8.576000E+00	  0.104769535	6.711100E+01	  0.104769535	5.071800E+01	  0.104769535	4.042700E+01
422	  0.104969934	-8.562000E+00	  0.104969934	6.658700E+01	  0.104969934	5.107200E+01	  0.104969934	4.063100E+01
423	  0.105170339	-8.538000E+00	  0.105170339	6.608000E+01	  0.105170339	5.139900E+01	  0.105170339	4.088400E+01
424	  0.105370738	-8.521000E+00	  0.105370738	6.555600E+01	  0.105370738	5.175500E+01	  0.105370738	4.110800E+01
425	  0.105571143	-8.504000E+00	  0.105571143	6.502100E+01	  0.105571143	5.212600E+01	  0.105571143	4.133000E+01
426	  0.105771542	-8.480000E+00	  0.105771542	6.443600E+01	  0.105771542	5.252800E+01	  0.105771542	4.160100E+01
427	  0.105971940	-8.461000E+00	  0.105971940	6.388300E+01	  0.105971940	5.292000E+01	  0.105971940	4.184000E+01
428	  0.106172346	-8.448000E+00	  0.106172346	6.331400E+01	  0.106172346	5.334300E+01	  0.106172346	4.204700E+01
429	  0.106372744	-8.430000E+00	  0.106372744	6.275700E+01	  0.106372744	5.375200E+01	  0.106372744	4.227700E+01
430	  0.106573142	-8.398000E+00	  0.106573142	6.215100E+01	  0.106573142	5.418500E+01	  0.106573142	4.259500E+01
431	  0.106773548	-8.389000E+00	  0.106773548	6.150600E+01	  0.106773548	5.469300E+01	  0.106773548	4.279800E+01
432	  0.106973946	-8.371000E+00	  0.106973946	6.094500E+01	  0.106973946	5.512800E+01	  0.106973946	4.302200E+01
433	  0.107174344	-8.351000E+00	  0.107174344	6.034400E+01	  0.107174344	5.560000E+01	  0.107174344	4.326700E+01
434	  0.107374750	-8.331000E+00	  0.107374750	5.965300E+01	  0.107374750	5.615600E+01	  0.107374750	4.353300E+01
435	  0.107575148	-8.316000E+00	  0.107575148	5.904700E+01	  0.107575148	5.665500E+01	  0.107575148	4.375000E+01
436	  0.107775547	-8.292000E+00	  0.107775547	5.841900E+01	  0.107775547	5.717000E+01	  0.107775547	4.401500E+01
437	  0.107975952	-8.273000E+00	  0.107975952	5.779500E+01	  0.107975952	5.769600E+01	  0.107975952	4.425200E+01
438	  0.108176351	-8.254000E+00	  0.108176351	5.710700E+01	  0.108176351	5.829100E+01	  0.108176351	4.449500E+01
439	  0.108376749	-8.238000E+00	  0.108376749	5.648000E+01	  0.108376749	5.884300E+01	  0.108376749	4.470900E+01
440	  0.108577155	-8.216000E+00	  0.108577155	5.579700E+01	  0.108577155	5.945000E+01	  0.108577155	4.496100E+01
441	  0.108777553	-8.205000E+00	  0.108777553	5.513600E+01	  0.108777553	6.005800E+01	  0.108777553	4.514100E+01
442	  0.108977959	-8.193000E+00	  0.108977959	5.443700E+01	  0.108977959	6.071200E+01	  0.108977959	4.532900E+01
443	  0.109178357	-8.176000E+00	  0.109178357	5.375200E+01	  0.109178357	6.135900E+01	  0.109178357	4.553800E+01
444	  0.109378755	-8.163000E+00	  0.109378755	5.303200E+01	  0.109378755	6.205500E+01	  0.109378755	4.571900E+01
445	  0.109579161	-8.145000E+00	  0.109579161	5.229700E+01	  0.109579161	6.277400E+01	  0.109579161	4.592900E+01
446	  0.109779559	-8.132000E+00	  0.109779559	5.164500E+01	  0.109779559	6.342500E+01	  0.109779559	4.608600E+01
447	  0.109979957	-8.118000E+00	  0.109979957	5.089700E+01	  0.109979957	6.418500E+01	  0.109979957	4.625400E+01
448	  0.110180363	-8.107000E+00	  0.110180363	5.015100E+01	  0.110180363	6.495900E+01	  0.110180363	4.639500E+01
449	  0.110380761	-8.091000E+00	  0.110380761	4.942200E+01	  0.110380761	6.572400E+01	  0.110380761	4.655300E+01
450	  0.110581160	-8.081000E+00	  0.110581160	4.867900E+01	  0.110581160	6.652000E+01	  0.110581160	4.666200E+01
451	  0.110781565	-8.078000E+00	  0.110781565	4.792100E+01	  0.110781565	6.734600E+01	  0.110781565	4.671100E+01
452	  0.110981964	-8.066000E+00	  0.110981964	4.718400E+01	  0.110981964	6.815900E+01	  0.110981964	4.681500E+01
453	  0.111182362	-8.059000E+00	  0.111182362	4.642400E+01	  0.111182362	6.901200E+01	  0.111182362	4.686300E+01
454	  0.111382768	-8.044000E+00	  0.111382768	4.562900E+01	  0.111382768	6.991900E+01	  0.111382768	4.695800E+01
455	  0.111583166	-8.041000E+00	  0.111583166	4.487500E+01	  0.111583166	7.078900E+01	  0.111583166	4.695000E+01
456	  0.111783572	-8.038000E+00	  0.111783572	4.409200E+01	  0.111783572	7.170500E+01	  0.111783572	4.692200E+01
457	  0.111983970	-8.032000E+00	  0.111983970	4.328500E+01	  0.111983970	7.266200E+01	  0.111983970	4.689800E+01
458	  0.112184368	-8.031000E+00	  0.112184368	4.245500E+01	  0.112184368	7.365600E+01	  0.112184368	4.680800E+01
459	  0.112384774	-8.029000E+00	  0.112384774	4.169300E+01	  0.112384774	7.457900E+01	  0.112384774	4.671600E+01
460	  0.112585172	-8.025000E+00	  0.112585172	4.084000E+01	  0.112585172	7.562600E+01	  0.112585172	4.660400E+01
461	  0.112785570	-8.024000E+00	  0.112785570	4.006200E+01	  0.112785570	7.659100E+01	  0.112785570	4.646300E+01
462	  0.112985976	-8.030000E+00	  0.112985976	3.917600E+01	  0.112985976	7.768700E+01	  0.112985976	4.620700E+01
463	  0.113186374	-8.041000E+00	  0.113186374	3.834200E+01	  0.113186374	7.871600E+01	  0.113186374	4.590300E+01
464	  0.113386773	-8.039000E+00	  0.113386773	3.749500E+01	  0.113386773	7.979300E+01	  0.113386773	4.566900E+01
465	  0.113587178	-8.049000E+00	  0.113587178	3.667300E+01	  0.113587178	8.082000E+01	  0.113587178	4.531600E+01
466	  0.113787577	-8.055000E+00	  0.113787577	3.577300E+01	  0.113787577	8.195900E+01	  0.113787577	4.493600E+01
467	  0.113987975	-8.065000E+00	  0.113987975	3.484500E+01	  0.113987975	8.312900E+01	  0.113987975	4.447900E+01
468	  0.114188381	-8.077000E+00	  0.114188381	3.396300E+01	  0.114188381	8.423200E+01	  0.114188381	4.398000E+01
469	  0.114388779	-8.083000E+00	  0.114388779	3.303000E+01	  0.114388779	8.542200E+01	  0.114388779	4.347800E+01
470	  0.114589177	-8.099000E+00	  0.114589177	3.216100E+01	  0.114589177	8.649100E+01	  0.114589177	4.288200E+01
471	  0.114789583	-8.109000E+00	  0.114789583	3.122100E+01	  0.114789583	8.767200E+01	  0.114789583	4.226400E+01
472	  0.114989981	-8.119000E+00	  0.114989981	3.030400E+01	  0.114989981	8.881200E+01	  0.114989981	4.160700E+01
473	  0.115190387	-8.146000E+00	  0.115190387	2.933400E+01	  0.115190387	8.994500E+01	  0.115190387	4.074200E+01
474	  0.115390785	-8.160000E+00	  0.115390785	2.834600E+01	  0.115390785	9.113600E+01	  0.115390785	3.991700E+01
475	  0.115591183	-8.182000E+00	  0.115591183	2.739900E+01	  0.115591183	9.222100E+01	  0.115591183	3.901400E+01
476	  0.115791589	-8.201000E+00	  0.115791589	2.644700E+01	  0.115791589	9.331200E+01	  0.115791589	3.809600E+01
477	  0.115991987	-8.234000E+00	  0.115991987	2.541900E+01	  0.115991987	9.438700E+01	  0.115991987	3.694500E+01
478	  0.116192386	-8.252000E+00	  0.116192386	2.445200E+01	  0.116192386	9.545000E+01	  0.116192386	3.593200E+01
479	  0.116392791	-8.275000E+00	  0.116392791	2.347000E+01	  0.116392791	9.647000E+01	  0.116392791	3.481700E+01
480	  0.116593190	-8.303000E+00	  0.116593190	2.243100E+01	  0.116593190	9.748200E+01	  0.116593190	3.355700E+01
481	  0.116793588	-8.341000E+00	  0.116793588	2.135500E+01	  0.116793588	9.843200E+01	  0.116793588	3.214900E+01
482	  0.116993994	-8.372000E+00	  0.116993994	2.035200E+01	  0.116993994	9.929400E+01	  0.116993994	3.082400E+01
483	  0.117194392	-8.407000E+00	  0.117194392	1.927400E+01	  0.117194392	1.001600E+02	  0.117194392	2.935200E+01
484	  0.117394790	-8.444000E+00	  0.117394790	1.823100E+01	  0.117394790	1.009210E+02	  0.117394790	2.787300E+01
485	  0.117595196	-8.485000E+00	  0.117595196	1.716100E+01	  0.117595196	1.016160E+02	  0.117595196	2.630400E+01
486	  0.117795594	-8.526000E+00	  0.117795594	1.609500E+01	  0.117795594	1.022370E+02	  0.117795594	2.470900E+01
487	  0.117995992	-8.577000E+00	  0.117995992	1.497900E+01	  0.117995992	1.027580E+02	  0.117995992	2.297600E+01
