! Anritsu VNA Master:             	Model: MS2036C/10/77
! SN:             	1601066
! /bd0/18may10/252.ew.m5.txt
! Existing Calibration Information:
! TYPE:             	Current Settings	Active Cal Settings
! TIME:             	05/10/2018 06:32:24 PM	05/10/2018 06:18:15 PM
! INTERNAL TEMP:    	60.8 C	60.0 C
! # POINTS:         	487	487
! START FREQ:       	20.601 202 MHz	20.601 202 MHz
! STOP FREQ:        	117.995 991 MHz	117.995 991 MHz
! SOURCE POWER:     	High	High
! IFBW:             	50 Hz	50 Hz
! AVG FACTOR:       	  1 	  1 
! REF PLANE 1:      	0 mm	0 mm
! REF PLANE 2:      	0 mm	0 mm
! CAL TYPE:         	Full S22	Full S22
! CAL METHOD:       	SOLT	SOLT
! CAL LINE TYPE:    	Coax	Coax
! DUT PORT 1:       	K-Conn(M)	K-Conn(M)
! DUT PORT 2:       	K-Conn(M)	K-Conn(M)
! CAL STATUS:       	OK: Accuracy High	--
! PROP-V:       	0.700
! CABLE LOSS:       	0.000 dB/m
! REF IMPEDANCE:       	50.0
! Trace Specific Parameters:	TR1	TR2	TR3	TR4
! TRACE.#.Y (GRAPH TYPE)	LOG MAG	PHASE	REAL IMPEDANCE	IMAGINARY IMPEDANCE
! TRACE.#.X 	FREQ.GHZ	FREQ.GHZ	FREQ.GHZ	FREQ.GHZ
! S-PARAMETER	S22	S22	S22	S22
! SMOOTH/APERTURE %	0	0	0	0
! WINDOW	NSL	NSL	NSL	NSL
! GATING	OFF	OFF	OFF	OFF
! FGTD	OFF	OFF	OFF	OFF
Marker Information per Trace:	TR1	TR2	TR3	TR4
!MK1	--	"MK1 TR2:  20.000 MHz,##.##"	--	--
!MK2	--	--	"MK2 TR3:  70.100 200 MHz,Z:(17.662 ohm, -1.936 ohm)"	--
!MK3	--	--	--	--
!MK4	--	--	--	--
!MK5	--	--	--	--
!MK6	--	--	--	--
!MK7	--	--	--	--
!MK8	--	--	--	--
PNT	TR1.FREQ.GHZ	TR1.LOG MAG.dB	TR2.FREQ.GHZ	TR2.PHASE.deg	TR3.FREQ.GHZ	TR3.REAL IMPEDANCE.ohm	TR4.FREQ.GHZ	TR4.IMAGINARY IMPEDANCE.ohm
1	  0.020601204	-6.480000E-01	  0.020601204	-1.293700E+02	  0.020601204	2.280000E+00	  0.020601204	-2.361000E+01
2	  0.020801604	-6.530000E-01	  0.020801604	-1.308920E+02	  0.020801604	2.270000E+00	  0.020801604	-2.280400E+01
3	  0.021002004	-6.560000E-01	  0.021002004	-1.324220E+02	  0.021002004	2.254000E+00	  0.021002004	-2.200300E+01
4	  0.021202406	-6.600000E-01	  0.021202406	-1.339550E+02	  0.021202406	2.243000E+00	  0.021202406	-2.121000E+01
5	  0.021402806	-6.630000E-01	  0.021402806	-1.355050E+02	  0.021402806	2.226000E+00	  0.021402806	-2.041800E+01
6	  0.021603208	-6.650000E-01	  0.021603208	-1.370350E+02	  0.021603208	2.209000E+00	  0.021603208	-1.964400E+01
7	  0.021803608	-6.680000E-01	  0.021803608	-1.385860E+02	  0.021803608	2.198000E+00	  0.021803608	-1.886800E+01
8	  0.022004008	-6.750000E-01	  0.022004008	-1.401310E+02	  0.022004008	2.197000E+00	  0.022004008	-1.810200E+01
9	  0.022204408	-6.790000E-01	  0.022204408	-1.417080E+02	  0.022204408	2.190000E+00	  0.022204408	-1.732900E+01
10	  0.022404809	-6.820000E-01	  0.022404809	-1.433060E+02	  0.022404809	2.179000E+00	  0.022404809	-1.655300E+01
11	  0.022605211	-6.870000E-01	  0.022605211	-1.449040E+02	  0.022605211	2.174000E+00	  0.022605211	-1.578300E+01
12	  0.022805611	-6.900000E-01	  0.022805611	-1.465120E+02	  0.022805611	2.166000E+00	  0.022805611	-1.501600E+01
13	  0.023006011	-6.940000E-01	  0.023006011	-1.481090E+02	  0.023006011	2.160000E+00	  0.023006011	-1.426000E+01
14	  0.023206413	-6.970000E-01	  0.023206413	-1.497050E+02	  0.023206413	2.152000E+00	  0.023206413	-1.351100E+01
15	  0.023406813	-6.990000E-01	  0.023406813	-1.513090E+02	  0.023406813	2.142000E+00	  0.023406813	-1.276400E+01
16	  0.023607215	-7.050000E-01	  0.023607215	-1.529020E+02	  0.023607215	2.147000E+00	  0.023607215	-1.202700E+01
17	  0.023807615	-7.130000E-01	  0.023807615	-1.545110E+02	  0.023807615	2.158000E+00	  0.023807615	-1.128800E+01
18	  0.024008015	-7.210000E-01	  0.024008015	-1.561310E+02	  0.024008015	2.168000E+00	  0.024008015	-1.054800E+01
19	  0.024208417	-7.280000E-01	  0.024208417	-1.577770E+02	  0.024208417	2.176000E+00	  0.024208417	-9.801000E+00
20	  0.024408817	-7.350000E-01	  0.024408817	-1.594190E+02	  0.024408817	2.183000E+00	  0.024408817	-9.061000E+00
21	  0.024609219	-7.410000E-01	  0.024609219	-1.610510E+02	  0.024609219	2.190000E+00	  0.024609219	-8.328000E+00
22	  0.024809619	-7.490000E-01	  0.024809619	-1.626960E+02	  0.024809619	2.204000E+00	  0.024809619	-7.593000E+00
23	  0.025010020	-7.590000E-01	  0.025010020	-1.643400E+02	  0.025010020	2.226000E+00	  0.025010020	-6.862000E+00
24	  0.025210422	-7.700000E-01	  0.025210422	-1.659960E+02	  0.025210422	2.250000E+00	  0.025210422	-6.128000E+00
25	  0.025410822	-7.820000E-01	  0.025410822	-1.676610E+02	  0.025410822	2.276000E+00	  0.025410822	-5.393000E+00
26	  0.025611224	-7.950000E-01	  0.025611224	-1.693330E+02	  0.025611224	2.308000E+00	  0.025611224	-4.657000E+00
27	  0.025811624	-8.070000E-01	  0.025811624	-1.710270E+02	  0.025811624	2.335000E+00	  0.025811624	-3.914000E+00
28	  0.026012026	-8.190000E-01	  0.026012026	-1.727460E+02	  0.026012026	2.365000E+00	  0.026012026	-3.162000E+00
29	  0.026212426	-8.300000E-01	  0.026212426	-1.744660E+02	  0.026212426	2.394000E+00	  0.026212426	-2.410000E+00
30	  0.026412826	-8.470000E-01	  0.026412826	-1.761900E+02	  0.026412826	2.439000E+00	  0.026412826	-1.658000E+00
31	  0.026613226	-8.630000E-01	  0.026613226	-1.779370E+02	  0.026613226	2.483000E+00	  0.026613226	-8.970000E-01
32	  0.026813626	-8.790000E-01	  0.026813626	-1.797000E+02	  0.026813626	2.528000E+00	  0.026813626	-1.300000E-01
33	  0.027014028	-8.970000E-01	  0.027014028	1.785290E+02	  0.027014028	2.582000E+00	  0.027014028	6.390000E-01
34	  0.027214428	-9.130000E-01	  0.027214428	1.767570E+02	  0.027214428	2.629000E+00	  0.027214428	1.411000E+00
35	  0.027414829	-9.320000E-01	  0.027414829	1.749570E+02	  0.027414829	2.685000E+00	  0.027414829	2.195000E+00
36	  0.027615231	-9.510000E-01	  0.027615231	1.731490E+02	  0.027615231	2.745000E+00	  0.027615231	2.983000E+00
37	  0.027815631	-9.700000E-01	  0.027815631	1.713260E+02	  0.027815631	2.806000E+00	  0.027815631	3.779000E+00
38	  0.028016033	-9.890000E-01	  0.028016033	1.694810E+02	  0.028016033	2.868000E+00	  0.028016033	4.587000E+00
39	  0.028216433	-1.010000E+00	  0.028216433	1.676350E+02	  0.028216433	2.937000E+00	  0.028216433	5.397000E+00
40	  0.028416833	-1.031000E+00	  0.028416833	1.657770E+02	  0.028416833	3.012000E+00	  0.028416833	6.215000E+00
41	  0.028617235	-1.051000E+00	  0.028617235	1.639190E+02	  0.028617235	3.081000E+00	  0.028617235	7.036000E+00
42	  0.028817635	-1.072000E+00	  0.028817635	1.620540E+02	  0.028817635	3.160000E+00	  0.028817635	7.864000E+00
43	  0.029018037	-1.096000E+00	  0.029018037	1.602000E+02	  0.029018037	3.248000E+00	  0.029018037	8.690000E+00
44	  0.029218437	-1.120000E+00	  0.029218437	1.583200E+02	  0.029218437	3.338000E+00	  0.029218437	9.532000E+00
45	  0.029418837	-1.144000E+00	  0.029418837	1.564180E+02	  0.029418837	3.431000E+00	  0.029418837	1.039000E+01
46	  0.029619239	-1.170000E+00	  0.029619239	1.545230E+02	  0.029619239	3.534000E+00	  0.029619239	1.124900E+01
47	  0.029819639	-1.196000E+00	  0.029819639	1.526230E+02	  0.029819639	3.640000E+00	  0.029819639	1.211600E+01
48	  0.030020041	-1.223000E+00	  0.030020041	1.507130E+02	  0.030020041	3.753000E+00	  0.030020041	1.299500E+01
49	  0.030220442	-1.249000E+00	  0.030220442	1.488060E+02	  0.030220442	3.869000E+00	  0.030220442	1.387900E+01
50	  0.030420844	-1.278000E+00	  0.030420844	1.468940E+02	  0.030420844	3.994000E+00	  0.030420844	1.477300E+01
51	  0.030621244	-1.307000E+00	  0.030621244	1.449950E+02	  0.030621244	4.128000E+00	  0.030621244	1.566900E+01
52	  0.030821642	-1.340000E+00	  0.030821642	1.430810E+02	  0.030821642	4.278000E+00	  0.030821642	1.658000E+01
53	  0.031022044	-1.373000E+00	  0.031022044	1.411530E+02	  0.031022044	4.430000E+00	  0.031022044	1.750700E+01
54	  0.031222444	-1.402000E+00	  0.031222444	1.392310E+02	  0.031222444	4.578000E+00	  0.031222444	1.844200E+01
55	  0.031422846	-1.437000E+00	  0.031422846	1.372650E+02	  0.031422846	4.755000E+00	  0.031422846	1.940800E+01
56	  0.031623244	-1.473000E+00	  0.031623244	1.352980E+02	  0.031623244	4.941000E+00	  0.031623244	2.038600E+01
57	  0.031823646	-1.513000E+00	  0.031823646	1.333250E+02	  0.031823646	5.146000E+00	  0.031823646	2.137900E+01
58	  0.032024048	-1.553000E+00	  0.032024048	1.313430E+02	  0.032024048	5.362000E+00	  0.032024048	2.238900E+01
59	  0.032224450	-1.592000E+00	  0.032224450	1.293390E+02	  0.032224450	5.586000E+00	  0.032224450	2.342500E+01
60	  0.032424849	-1.635000E+00	  0.032424849	1.273370E+02	  0.032424849	5.831000E+00	  0.032424849	2.447400E+01
61	  0.032625251	-1.678000E+00	  0.032625251	1.253150E+02	  0.032625251	6.087000E+00	  0.032625251	2.555000E+01
62	  0.032825653	-1.719000E+00	  0.032825653	1.232860E+02	  0.032825653	6.352000E+00	  0.032825653	2.664800E+01
63	  0.033026051	-1.763000E+00	  0.033026051	1.212200E+02	  0.033026051	6.640000E+00	  0.033026051	2.778300E+01
64	  0.033226453	-1.802000E+00	  0.033226453	1.191480E+02	  0.033226453	6.928000E+00	  0.033226453	2.894400E+01
65	  0.033426855	-1.848000E+00	  0.033426855	1.170950E+02	  0.033426855	7.253000E+00	  0.033426855	3.011200E+01
66	  0.033627257	-1.893000E+00	  0.033627257	1.150420E+02	  0.033627257	7.590000E+00	  0.033627257	3.130200E+01
67	  0.033827655	-1.936000E+00	  0.033827655	1.129660E+02	  0.033827655	7.944000E+00	  0.033827655	3.253100E+01
68	  0.034028057	-1.983000E+00	  0.034028057	1.109100E+02	  0.034028057	8.326000E+00	  0.034028057	3.376900E+01
69	  0.034228459	-2.030000E+00	  0.034228459	1.088310E+02	  0.034228459	8.736000E+00	  0.034228459	3.504800E+01
70	  0.034428857	-2.075000E+00	  0.034428857	1.067410E+02	  0.034428857	9.161000E+00	  0.034428857	3.636300E+01
71	  0.034629259	-2.125000E+00	  0.034629259	1.046550E+02	  0.034629259	9.629000E+00	  0.034629259	3.770000E+01
72	  0.034829661	-2.169000E+00	  0.034829661	1.025530E+02	  0.034829661	1.010500E+01	  0.034829661	3.908400E+01
73	  0.035030060	-2.219000E+00	  0.035030060	1.004790E+02	  0.035030060	1.063000E+01	  0.035030060	4.047500E+01
74	  0.035230462	-2.273000E+00	  0.035230462	9.838500E+01	  0.035230462	1.121300E+01	  0.035230462	4.190900E+01
75	  0.035430863	-2.320000E+00	  0.035430863	9.632000E+01	  0.035430863	1.179300E+01	  0.035430863	4.336500E+01
76	  0.035631265	-2.371000E+00	  0.035631265	9.423300E+01	  0.035631265	1.243600E+01	  0.035631265	4.486800E+01
77	  0.035831664	-2.423000E+00	  0.035831664	9.215800E+01	  0.035831664	1.312400E+01	  0.035831664	4.639900E+01
78	  0.036032066	-2.473000E+00	  0.036032066	9.008800E+01	  0.036032066	1.384600E+01	  0.036032066	4.796700E+01
79	  0.036232468	-2.526000E+00	  0.036232468	8.802300E+01	  0.036232468	1.463200E+01	  0.036232468	4.956700E+01
80	  0.036432866	-2.580000E+00	  0.036432866	8.594600E+01	  0.036432866	1.547700E+01	  0.036432866	5.121800E+01
81	  0.036633268	-2.632000E+00	  0.036633268	8.389600E+01	  0.036633268	1.637100E+01	  0.036633268	5.289200E+01
82	  0.036833670	-2.686000E+00	  0.036833670	8.182600E+01	  0.036833670	1.734400E+01	  0.036833670	5.462300E+01
83	  0.037034072	-2.747000E+00	  0.037034072	7.975700E+01	  0.037034072	1.842800E+01	  0.037034072	5.638400E+01
84	  0.037234470	-2.803000E+00	  0.037234470	7.768700E+01	  0.037234470	1.956200E+01	  0.037234470	5.820300E+01
85	  0.037434869	-2.861000E+00	  0.037434869	7.565200E+01	  0.037434869	2.078400E+01	  0.037434869	6.002800E+01
86	  0.037635271	-2.920000E+00	  0.037635271	7.359600E+01	  0.037635271	2.211300E+01	  0.037635271	6.191700E+01
87	  0.037835669	-2.980000E+00	  0.037835669	7.151800E+01	  0.037835669	2.356700E+01	  0.037835669	6.387000E+01
88	  0.038036071	-3.040000E+00	  0.038036071	6.943300E+01	  0.038036071	2.513700E+01	  0.038036071	6.587700E+01
89	  0.038236473	-3.102000E+00	  0.038236473	6.733400E+01	  0.038236473	2.686000E+01	  0.038236473	6.793700E+01
90	  0.038436871	-3.166000E+00	  0.038436871	6.522500E+01	  0.038436871	2.875200E+01	  0.038436871	7.004100E+01
91	  0.038637273	-3.230000E+00	  0.038637273	6.312300E+01	  0.038637273	3.079300E+01	  0.038637273	7.218000E+01
92	  0.038837675	-3.290000E+00	  0.038837675	6.103100E+01	  0.038837675	3.297600E+01	  0.038837675	7.435600E+01
93	  0.039038073	-3.352000E+00	  0.039038073	5.895400E+01	  0.039038073	3.534500E+01	  0.039038073	7.653500E+01
94	  0.039238475	-3.412000E+00	  0.039238475	5.686100E+01	  0.039238475	3.791400E+01	  0.039238475	7.877400E+01
95	  0.039438877	-3.473000E+00	  0.039438877	5.478300E+01	  0.039438877	4.070700E+01	  0.039438877	8.099300E+01
96	  0.039639279	-3.534000E+00	  0.039639279	5.267900E+01	  0.039639279	4.377700E+01	  0.039639279	8.324600E+01
97	  0.039839678	-3.595000E+00	  0.039839678	5.056600E+01	  0.039839678	4.713900E+01	  0.039839678	8.549000E+01
98	  0.040040080	-3.652000E+00	  0.040040080	4.847000E+01	  0.040040080	5.074000E+01	  0.040040080	8.771400E+01
99	  0.040240481	-3.711000E+00	  0.040240481	4.637600E+01	  0.040240481	5.467700E+01	  0.040240481	8.985800E+01
100	  0.040440880	-3.769000E+00	  0.040440880	4.429400E+01	  0.040440880	5.892800E+01	  0.040440880	9.191100E+01
101	  0.040641282	-3.824000E+00	  0.040641282	4.221500E+01	  0.040641282	6.352000E+01	  0.040641282	9.387200E+01
102	  0.040841684	-3.880000E+00	  0.040841684	4.015700E+01	  0.040841684	6.847200E+01	  0.040841684	9.562800E+01
103	  0.041042086	-3.938000E+00	  0.041042086	3.812200E+01	  0.041042086	7.379100E+01	  0.041042086	9.710300E+01
104	  0.041242484	-3.994000E+00	  0.041242484	3.607600E+01	  0.041242484	7.953600E+01	  0.041242484	9.835200E+01
105	  0.041442886	-4.050000E+00	  0.041442886	3.403100E+01	  0.041442886	8.571400E+01	  0.041442886	9.923800E+01
106	  0.041643288	-4.106000E+00	  0.041643288	3.198800E+01	  0.041643288	9.231700E+01	  0.041643288	9.969200E+01
107	  0.041843686	-4.158000E+00	  0.041843686	2.992600E+01	  0.041843686	9.939400E+01	  0.041843686	9.972000E+01
108	  0.042044088	-4.212000E+00	  0.042044088	2.792800E+01	  0.042044088	1.066460E+02	  0.042044088	9.906500E+01
109	  0.042244490	-4.266000E+00	  0.042244490	2.589900E+01	  0.042244490	1.143500E+02	  0.042244490	9.770900E+01
110	  0.042444889	-4.318000E+00	  0.042444889	2.392700E+01	  0.042444889	1.220900E+02	  0.042444889	9.559900E+01
111	  0.042645290	-4.375000E+00	  0.042645290	2.192000E+01	  0.042645290	1.301010E+02	  0.042645290	9.244800E+01
112	  0.042845692	-4.430000E+00	  0.042845692	1.993900E+01	  0.042845692	1.380390E+02	  0.042845692	8.841600E+01
113	  0.043046094	-4.481000E+00	  0.043046094	1.795600E+01	  0.043046094	1.458770E+02	  0.043046094	8.340800E+01
114	  0.043246493	-4.536000E+00	  0.043246493	1.596600E+01	  0.043246493	1.533940E+02	  0.043246493	7.723600E+01
115	  0.043446895	-4.588000E+00	  0.043446895	1.399500E+01	  0.043446895	1.603390E+02	  0.043446895	7.009300E+01
116	  0.043647297	-4.639000E+00	  0.043647297	1.202200E+01	  0.043647297	1.666180E+02	  0.043647297	6.198100E+01
117	  0.043847695	-4.690000E+00	  0.043847695	1.004900E+01	  0.043847695	1.719950E+02	  0.043847695	5.296400E+01
118	  0.044048097	-4.742000E+00	  0.044048097	8.093000E+00	  0.044048097	1.761850E+02	  0.044048097	4.324400E+01
119	  0.044248499	-4.794000E+00	  0.044248499	6.124000E+00	  0.044248499	1.792110E+02	  0.044248499	3.294200E+01
120	  0.044448901	-4.842000E+00	  0.044448901	4.182000E+00	  0.044448901	1.809690E+02	  0.044448901	2.249200E+01
121	  0.044649299	-4.894000E+00	  0.044649299	2.225000E+00	  0.044649299	1.813090E+02	  0.044649299	1.186000E+01
122	  0.044849701	-4.943000E+00	  0.044849701	2.980000E-01	  0.044849701	1.804170E+02	  0.044849701	1.567000E+00
123	  0.045050103	-4.991000E+00	  0.045050103	-1.642000E+00	  0.045050103	1.783300E+02	  0.045050103	-8.420000E+00
124	  0.045250501	-5.040000E+00	  0.045250501	-3.579000E+00	  0.045250501	1.751550E+02	  0.045250501	-1.782600E+01
125	  0.045450903	-5.087000E+00	  0.045450903	-5.501000E+00	  0.045450903	1.711300E+02	  0.045450903	-2.647200E+01
126	  0.045651305	-5.130000E+00	  0.045651305	-7.419000E+00	  0.045651305	1.664250E+02	  0.045651305	-3.434800E+01
127	  0.045851704	-5.172000E+00	  0.045851704	-9.335000E+00	  0.045851704	1.611740E+02	  0.045851704	-4.141400E+01
128	  0.046052102	-5.216000E+00	  0.046052102	-1.122800E+01	  0.046052102	1.554800E+02	  0.046052102	-4.750600E+01
129	  0.046252504	-5.254000E+00	  0.046252504	-1.312000E+01	  0.046252504	1.496130E+02	  0.046252504	-5.285900E+01
130	  0.046452906	-5.293000E+00	  0.046452906	-1.498800E+01	  0.046452906	1.436130E+02	  0.046452906	-5.732300E+01
131	  0.046653304	-5.334000E+00	  0.046653304	-1.685600E+01	  0.046653304	1.375490E+02	  0.046653304	-6.103900E+01
132	  0.046853706	-5.371000E+00	  0.046853706	-1.870400E+01	  0.046853706	1.316090E+02	  0.046853706	-6.408000E+01
133	  0.047054108	-5.411000E+00	  0.047054108	-2.055700E+01	  0.047054108	1.257240E+02	  0.047054108	-6.647700E+01
134	  0.047254506	-5.447000E+00	  0.047254506	-2.239100E+01	  0.047254506	1.200800E+02	  0.047254506	-6.835800E+01
135	  0.047454908	-5.482000E+00	  0.047454908	-2.420700E+01	  0.047454908	1.146830E+02	  0.047454908	-6.977900E+01
136	  0.047655310	-5.517000E+00	  0.047655310	-2.600800E+01	  0.047655310	1.095200E+02	  0.047655310	-7.074300E+01
137	  0.047855709	-5.554000E+00	  0.047855709	-2.778600E+01	  0.047855709	1.046310E+02	  0.047855709	-7.131200E+01
138	  0.048056111	-5.588000E+00	  0.048056111	-2.953700E+01	  0.048056111	1.000500E+02	  0.048056111	-7.161700E+01
139	  0.048256513	-5.624000E+00	  0.048256513	-3.129600E+01	  0.048256513	9.566400E+01	  0.048256513	-7.162900E+01
140	  0.048456915	-5.660000E+00	  0.048456915	-3.304600E+01	  0.048456915	9.152800E+01	  0.048456915	-7.143000E+01
141	  0.048657313	-5.689000E+00	  0.048657313	-3.477900E+01	  0.048657313	8.765100E+01	  0.048657313	-7.113700E+01
142	  0.048857715	-5.724000E+00	  0.048857715	-3.653900E+01	  0.048857715	8.392200E+01	  0.048857715	-7.059600E+01
143	  0.049058117	-5.757000E+00	  0.049058117	-3.826400E+01	  0.049058117	8.047100E+01	  0.049058117	-6.995200E+01
144	  0.049258515	-5.789000E+00	  0.049258515	-3.997500E+01	  0.049258515	7.723400E+01	  0.049258515	-6.920700E+01
145	  0.049458917	-5.820000E+00	  0.049458917	-4.168700E+01	  0.049458917	7.417600E+01	  0.049458917	-6.838300E+01
146	  0.049659319	-5.852000E+00	  0.049659319	-4.337400E+01	  0.049659319	7.133300E+01	  0.049659319	-6.748600E+01
147	  0.049859721	-5.885000E+00	  0.049859721	-4.506300E+01	  0.049859721	6.864900E+01	  0.049859721	-6.650500E+01
148	  0.050060119	-5.917000E+00	  0.050060119	-4.675400E+01	  0.050060119	6.610800E+01	  0.050060119	-6.550000E+01
149	  0.050260521	-5.944000E+00	  0.050260521	-4.845100E+01	  0.050260521	6.368800E+01	  0.050260521	-6.449600E+01
150	  0.050460923	-5.969000E+00	  0.050460923	-5.015600E+01	  0.050460923	6.138600E+01	  0.050460923	-6.345800E+01
151	  0.050661322	-5.994000E+00	  0.050661322	-5.181800E+01	  0.050661322	5.926500E+01	  0.050661322	-6.242200E+01
152	  0.050861724	-6.022000E+00	  0.050861724	-5.349900E+01	  0.050861724	5.724200E+01	  0.050861724	-6.133400E+01
153	  0.051062126	-6.044000E+00	  0.051062126	-5.515600E+01	  0.051062126	5.534200E+01	  0.051062126	-6.027900E+01
154	  0.051262524	-6.068000E+00	  0.051262524	-5.680000E+01	  0.051262524	5.355900E+01	  0.051262524	-5.921200E+01
155	  0.051462926	-6.088000E+00	  0.051462926	-5.841700E+01	  0.051462926	5.188400E+01	  0.051462926	-5.817700E+01
156	  0.051663328	-6.109000E+00	  0.051663328	-6.004200E+01	  0.051663328	5.029100E+01	  0.051663328	-5.712300E+01
157	  0.051863730	-6.126000E+00	  0.051863730	-6.167100E+01	  0.051863730	4.876100E+01	  0.051863730	-5.608900E+01
158	  0.052064128	-6.142000E+00	  0.052064128	-6.326400E+01	  0.052064128	4.733700E+01	  0.052064128	-5.507600E+01
159	  0.052264530	-6.154000E+00	  0.052264530	-6.485400E+01	  0.052264530	4.596900E+01	  0.052264530	-5.409000E+01
160	  0.052464932	-6.162000E+00	  0.052464932	-6.645300E+01	  0.052464932	4.464400E+01	  0.052464932	-5.311900E+01
161	  0.052665330	-6.174000E+00	  0.052665330	-6.798400E+01	  0.052665330	4.345400E+01	  0.052665330	-5.216100E+01
162	  0.052865732	-6.186000E+00	  0.052865732	-6.952900E+01	  0.052865732	4.230300E+01	  0.052865732	-5.120400E+01
163	  0.053066134	-6.198000E+00	  0.053066134	-7.105400E+01	  0.053066134	4.122100E+01	  0.053066134	-5.026000E+01
164	  0.053266536	-6.206000E+00	  0.053266536	-7.253200E+01	  0.053266536	4.020700E+01	  0.053266536	-4.936200E+01
165	  0.053466935	-6.219000E+00	  0.053466935	-7.405200E+01	  0.053466935	3.922700E+01	  0.053466935	-4.842400E+01
166	  0.053667337	-6.227000E+00	  0.053667337	-7.551400E+01	  0.053667337	3.830500E+01	  0.053667337	-4.755100E+01
167	  0.053867739	-6.231000E+00	  0.053867739	-7.697600E+01	  0.053867739	3.741100E+01	  0.053867739	-4.669400E+01
168	  0.054068137	-6.236000E+00	  0.054068137	-7.842800E+01	  0.054068137	3.656200E+01	  0.054068137	-4.584600E+01
169	  0.054268539	-6.247000E+00	  0.054268539	-7.984000E+01	  0.054268539	3.579200E+01	  0.054268539	-4.500300E+01
170	  0.054468941	-6.255000E+00	  0.054468941	-8.126000E+01	  0.054468941	3.504000E+01	  0.054468941	-4.417200E+01
171	  0.054669335	-6.265000E+00	  0.054669335	-8.266200E+01	  0.054669335	3.433600E+01	  0.054669335	-4.334900E+01
172	  0.054869737	-6.273000E+00	  0.054869737	-8.407000E+01	  0.054869737	3.364600E+01	  0.054869737	-4.254100E+01
173	  0.055070139	-6.282000E+00	  0.055070139	-8.546200E+01	  0.055070139	3.299600E+01	  0.055070139	-4.174200E+01
174	  0.055270538	-6.292000E+00	  0.055270538	-8.684200E+01	  0.055270538	3.238200E+01	  0.055270538	-4.095500E+01
175	  0.055470940	-6.298000E+00	  0.055470940	-8.822000E+01	  0.055470940	3.177800E+01	  0.055470940	-4.018600E+01
176	  0.055671342	-6.309000E+00	  0.055671342	-8.960200E+01	  0.055671342	3.121100E+01	  0.055671342	-3.941000E+01
177	  0.055871744	-6.311000E+00	  0.055871744	-9.099200E+01	  0.055871744	3.063500E+01	  0.055871744	-3.865800E+01
178	  0.056072142	-6.323000E+00	  0.056072142	-9.236100E+01	  0.056072142	3.011900E+01	  0.056072142	-3.790100E+01
179	  0.056272544	-6.328000E+00	  0.056272544	-9.373300E+01	  0.056272544	2.960300E+01	  0.056272544	-3.716400E+01
180	  0.056472946	-6.338000E+00	  0.056472946	-9.510500E+01	  0.056472946	2.911800E+01	  0.056472946	-3.642300E+01
181	  0.056673344	-6.344000E+00	  0.056673344	-9.645500E+01	  0.056673344	2.864800E+01	  0.056673344	-3.571000E+01
182	  0.056873746	-6.350000E+00	  0.056873746	-9.780400E+01	  0.056873746	2.819600E+01	  0.056873746	-3.500300E+01
183	  0.057074148	-6.356000E+00	  0.057074148	-9.916500E+01	  0.057074148	2.775500E+01	  0.057074148	-3.429600E+01
184	  0.057274550	-6.358000E+00	  0.057274550	-1.005330E+02	  0.057274550	2.731500E+01	  0.057274550	-3.360100E+01
185	  0.057474948	-6.362000E+00	  0.057474948	-1.018830E+02	  0.057474948	2.690100E+01	  0.057474948	-3.291700E+01
186	  0.057675350	-6.363000E+00	  0.057675350	-1.032440E+02	  0.057675350	2.649400E+01	  0.057675350	-3.223700E+01
187	  0.057875752	-6.364000E+00	  0.057875752	-1.045880E+02	  0.057875752	2.610400E+01	  0.057875752	-3.157200E+01
188	  0.058076151	-6.359000E+00	  0.058076151	-1.059310E+02	  0.058076151	2.570800E+01	  0.058076151	-3.092400E+01
189	  0.058276553	-6.359000E+00	  0.058276553	-1.072440E+02	  0.058276553	2.535100E+01	  0.058276553	-3.028600E+01
190	  0.058476955	-6.353000E+00	  0.058476955	-1.085650E+02	  0.058476955	2.498300E+01	  0.058476955	-2.965800E+01
191	  0.058677353	-6.350000E+00	  0.058677353	-1.098710E+02	  0.058677353	2.464100E+01	  0.058677353	-2.903800E+01
192	  0.058877755	-6.345000E+00	  0.058877755	-1.111870E+02	  0.058877755	2.430200E+01	  0.058877755	-2.842000E+01
193	  0.059078157	-6.335000E+00	  0.059078157	-1.124530E+02	  0.059078157	2.397200E+01	  0.059078157	-2.783700E+01
194	  0.059278559	-6.328000E+00	  0.059278559	-1.137320E+02	  0.059278559	2.365700E+01	  0.059278559	-2.724700E+01
195	  0.059478957	-6.320000E+00	  0.059478957	-1.150190E+02	  0.059478957	2.334800E+01	  0.059478957	-2.665800E+01
196	  0.059679359	-6.318000E+00	  0.059679359	-1.162770E+02	  0.059679359	2.307300E+01	  0.059679359	-2.607700E+01
197	  0.059879761	-6.307000E+00	  0.059879761	-1.175130E+02	  0.059879761	2.278300E+01	  0.059879761	-2.552300E+01
198	  0.060080159	-6.305000E+00	  0.060080159	-1.187530E+02	  0.060080159	2.252800E+01	  0.060080159	-2.495900E+01
199	  0.060280561	-6.302000E+00	  0.060280561	-1.199820E+02	  0.060280561	2.228300E+01	  0.060280561	-2.440300E+01
200	  0.060480963	-6.295000E+00	  0.060480963	-1.212000E+02	  0.060480963	2.203600E+01	  0.060480963	-2.386000E+01
201	  0.060681365	-6.292000E+00	  0.060681365	-1.224060E+02	  0.060681365	2.181000E+01	  0.060681365	-2.332100E+01
202	  0.060881764	-6.286000E+00	  0.060881764	-1.236150E+02	  0.060881764	2.157900E+01	  0.060881764	-2.278900E+01
203	  0.061082166	-6.280000E+00	  0.061082166	-1.247980E+02	  0.061082166	2.136400E+01	  0.061082166	-2.226900E+01
204	  0.061282568	-6.280000E+00	  0.061282568	-1.259980E+02	  0.061282568	2.116700E+01	  0.061282568	-2.173800E+01
205	  0.061482966	-6.281000E+00	  0.061482966	-1.271760E+02	  0.061482966	2.098400E+01	  0.061482966	-2.122000E+01
206	  0.061683368	-6.284000E+00	  0.061683368	-1.283440E+02	  0.061683368	2.081300E+01	  0.061683368	-2.070700E+01
207	  0.061883770	-6.291000E+00	  0.061883770	-1.295090E+02	  0.061883770	2.066000E+01	  0.061883770	-2.019500E+01
208	  0.062084168	-6.292000E+00	  0.062084168	-1.306750E+02	  0.062084168	2.049800E+01	  0.062084168	-1.968900E+01
209	  0.062284570	-6.295000E+00	  0.062284570	-1.318780E+02	  0.062284570	2.033900E+01	  0.062284570	-1.917100E+01
210	  0.062484972	-6.286000E+00	  0.062484972	-1.329910E+02	  0.062484972	2.016500E+01	  0.062484972	-1.870300E+01
211	  0.062685370	-6.292000E+00	  0.062685370	-1.341890E+02	  0.062685370	2.002700E+01	  0.062685370	-1.818800E+01
212	  0.062885776	-6.300000E+00	  0.062885776	-1.353500E+02	  0.062885776	1.990400E+01	  0.062885776	-1.769000E+01
213	  0.063086174	-6.306000E+00	  0.063086174	-1.365370E+02	  0.063086174	1.977800E+01	  0.063086174	-1.718600E+01
214	  0.063286573	-6.311000E+00	  0.063286573	-1.377140E+02	  0.063286573	1.965500E+01	  0.063286573	-1.668900E+01
215	  0.063486971	-6.313000E+00	  0.063486971	-1.388780E+02	  0.063486971	1.952700E+01	  0.063486971	-1.620400E+01
216	  0.063687377	-6.309000E+00	  0.063687377	-1.400280E+02	  0.063687377	1.939200E+01	  0.063687377	-1.572900E+01
217	  0.063887775	-6.318000E+00	  0.063887775	-1.412090E+02	  0.063887775	1.929300E+01	  0.063887775	-1.523600E+01
218	  0.064088173	-6.321000E+00	  0.064088173	-1.424020E+02	  0.064088173	1.918100E+01	  0.064088173	-1.474300E+01
219	  0.064288579	-6.323000E+00	  0.064288579	-1.435680E+02	  0.064288579	1.907300E+01	  0.064288579	-1.426500E+01
220	  0.064488977	-6.329000E+00	  0.064488977	-1.447650E+02	  0.064488977	1.897800E+01	  0.064488977	-1.377300E+01
221	  0.064689375	-6.332000E+00	  0.064689375	-1.459070E+02	  0.064689375	1.888400E+01	  0.064689375	-1.330800E+01
222	  0.064889781	-6.337000E+00	  0.064889781	-1.471090E+02	  0.064889781	1.879400E+01	  0.064889781	-1.282000E+01
223	  0.065090179	-6.335000E+00	  0.065090179	-1.482340E+02	  0.065090179	1.869500E+01	  0.065090179	-1.236800E+01
224	  0.065290578	-6.335000E+00	  0.065290578	-1.493760E+02	  0.065290578	1.860500E+01	  0.065290578	-1.191000E+01
225	  0.065490983	-6.336000E+00	  0.065490983	-1.505230E+02	  0.065490983	1.852100E+01	  0.065490983	-1.145000E+01
226	  0.065691382	-6.337000E+00	  0.065691382	-1.516380E+02	  0.065691382	1.844300E+01	  0.065691382	-1.100500E+01
227	  0.065891780	-6.338000E+00	  0.065891780	-1.527910E+02	  0.065891780	1.836600E+01	  0.065891780	-1.054600E+01
228	  0.066092186	-6.335000E+00	  0.066092186	-1.539130E+02	  0.066092186	1.828500E+01	  0.066092186	-1.010300E+01
229	  0.066292584	-6.337000E+00	  0.066292584	-1.549970E+02	  0.066292584	1.822100E+01	  0.066292584	-9.674000E+00
230	  0.066492982	-6.336000E+00	  0.066492982	-1.561050E+02	  0.066492982	1.815300E+01	  0.066492982	-9.237000E+00
231	  0.066693388	-6.332000E+00	  0.066693388	-1.571870E+02	  0.066693388	1.808000E+01	  0.066693388	-8.813000E+00
232	  0.066893786	-6.335000E+00	  0.066893786	-1.582740E+02	  0.066893786	1.802900E+01	  0.066893786	-8.385000E+00
233	  0.067094192	-6.340000E+00	  0.067094192	-1.593310E+02	  0.067094192	1.798700E+01	  0.067094192	-7.970000E+00
234	  0.067294590	-6.337000E+00	  0.067294590	-1.604180E+02	  0.067294590	1.792700E+01	  0.067294590	-7.547000E+00
235	  0.067494988	-6.341000E+00	  0.067494988	-1.614460E+02	  0.067494988	1.789100E+01	  0.067494988	-7.145000E+00
236	  0.067695394	-6.342000E+00	  0.067695394	-1.625170E+02	  0.067695394	1.784600E+01	  0.067695394	-6.728000E+00
237	  0.067895792	-6.342000E+00	  0.067895792	-1.635700E+02	  0.067895792	1.780300E+01	  0.067895792	-6.319000E+00
238	  0.068096191	-6.350000E+00	  0.068096191	-1.646380E+02	  0.068096191	1.778400E+01	  0.068096191	-5.903000E+00
239	  0.068296596	-6.356000E+00	  0.068296596	-1.656550E+02	  0.068296596	1.776300E+01	  0.068296596	-5.508000E+00
240	  0.068496995	-6.358000E+00	  0.068496995	-1.666960E+02	  0.068496995	1.773400E+01	  0.068496995	-5.106000E+00
241	  0.068697393	-6.362000E+00	  0.068697393	-1.677250E+02	  0.068697393	1.771300E+01	  0.068697393	-4.708000E+00
242	  0.068897791	-6.367000E+00	  0.068897791	-1.687550E+02	  0.068897791	1.769700E+01	  0.068897791	-4.310000E+00
243	  0.069098189	-6.368000E+00	  0.069098189	-1.698210E+02	  0.069098189	1.767300E+01	  0.069098189	-3.900000E+00
244	  0.069298595	-6.374000E+00	  0.069298595	-1.708270E+02	  0.069298595	1.766400E+01	  0.069298595	-3.513000E+00
245	  0.069498993	-6.381000E+00	  0.069498993	-1.718560E+02	  0.069498993	1.766200E+01	  0.069498993	-3.117000E+00
246	  0.069699399	-6.385000E+00	  0.069699399	-1.729030E+02	  0.069699399	1.765300E+01	  0.069699399	-2.715000E+00
247	  0.069899797	-6.392000E+00	  0.069899797	-1.739400E+02	  0.069899797	1.765400E+01	  0.069899797	-2.317000E+00
248	  0.070100196	-6.400000E+00	  0.070100196	-1.749350E+02	  0.070100196	1.766200E+01	  0.070100196	-1.935000E+00
249	  0.070300601	-6.404000E+00	  0.070300601	-1.759470E+02	  0.070300601	1.766000E+01	  0.070300601	-1.548000E+00
250	  0.070501000	-6.404000E+00	  0.070501000	-1.769400E+02	  0.070501000	1.765200E+01	  0.070501000	-1.168000E+00
251	  0.070701398	-6.409000E+00	  0.070701398	-1.779420E+02	  0.070701398	1.765800E+01	  0.070701398	-7.850000E-01
252	  0.070901804	-6.410000E+00	  0.070901804	-1.789350E+02	  0.070901804	1.765900E+01	  0.070901804	-4.060000E-01
253	  0.071102202	-6.416000E+00	  0.071102202	-1.799540E+02	  0.071102202	1.767000E+01	  0.071102202	-1.700000E-02
254	  0.071302600	-6.424000E+00	  0.071302600	1.790690E+02	  0.071302600	1.769200E+01	  0.071302600	3.550000E-01
255	  0.071503006	-6.426000E+00	  0.071503006	1.781010E+02	  0.071503006	1.770100E+01	  0.071503006	7.240000E-01
256	  0.071703404	-6.434000E+00	  0.071703404	1.771370E+02	  0.071703404	1.772700E+01	  0.071703404	1.092000E+00
257	  0.071903802	-6.440000E+00	  0.071903802	1.761720E+02	  0.071903802	1.774800E+01	  0.071903802	1.460000E+00
258	  0.072104208	-6.442000E+00	  0.072104208	1.752180E+02	  0.072104208	1.776300E+01	  0.072104208	1.824000E+00
259	  0.072304606	-6.448000E+00	  0.072304606	1.742880E+02	  0.072304606	1.779000E+01	  0.072304606	2.179000E+00
260	  0.072505005	-6.454000E+00	  0.072505005	1.733600E+02	  0.072505005	1.782000E+01	  0.072505005	2.532000E+00
261	  0.072705410	-6.462000E+00	  0.072705410	1.724360E+02	  0.072705410	1.785500E+01	  0.072705410	2.885000E+00
262	  0.072905809	-6.466000E+00	  0.072905809	1.715130E+02	  0.072905809	1.788200E+01	  0.072905809	3.237000E+00
263	  0.073106214	-6.475000E+00	  0.073106214	1.705870E+02	  0.073106214	1.792400E+01	  0.073106214	3.590000E+00
264	  0.073306613	-6.485000E+00	  0.073306613	1.696820E+02	  0.073306613	1.797000E+01	  0.073306613	3.935000E+00
265	  0.073507011	-6.497000E+00	  0.073507011	1.687710E+02	  0.073507011	1.802600E+01	  0.073507011	4.281000E+00
266	  0.073707417	-6.507000E+00	  0.073707417	1.678670E+02	  0.073707417	1.807700E+01	  0.073707417	4.626000E+00
267	  0.073907815	-6.518000E+00	  0.073907815	1.669410E+02	  0.073907815	1.813100E+01	  0.073907815	4.978000E+00
268	  0.074108213	-6.526000E+00	  0.074108213	1.660840E+02	  0.074108213	1.818100E+01	  0.074108213	5.305000E+00
269	  0.074308619	-6.538000E+00	  0.074308619	1.651750E+02	  0.074308619	1.824300E+01	  0.074308619	5.651000E+00
270	  0.074509017	-6.549000E+00	  0.074509017	1.642810E+02	  0.074509017	1.830200E+01	  0.074509017	5.992000E+00
271	  0.074709415	-6.564000E+00	  0.074709415	1.633650E+02	  0.074709415	1.837700E+01	  0.074709415	6.340000E+00
272	  0.074909821	-6.573000E+00	  0.074909821	1.624480E+02	  0.074909821	1.843900E+01	  0.074909821	6.690000E+00
273	  0.075110219	-6.590000E+00	  0.075110219	1.615480E+02	  0.075110219	1.852100E+01	  0.075110219	7.031000E+00
274	  0.075310618	-6.603000E+00	  0.075310618	1.606350E+02	  0.075310618	1.859700E+01	  0.075310618	7.379000E+00
275	  0.075511023	-6.616000E+00	  0.075511023	1.597310E+02	  0.075511023	1.867300E+01	  0.075511023	7.724000E+00
276	  0.075711422	-6.626000E+00	  0.075711422	1.588320E+02	  0.075711422	1.874700E+01	  0.075711422	8.067000E+00
277	  0.075911827	-6.639000E+00	  0.075911827	1.579390E+02	  0.075911827	1.882900E+01	  0.075911827	8.408000E+00
278	  0.076112226	-6.649000E+00	  0.076112226	1.570100E+02	  0.076112226	1.890700E+01	  0.076112226	8.763000E+00
279	  0.076312624	-6.664000E+00	  0.076312624	1.560930E+02	  0.076312624	1.899800E+01	  0.076312624	9.113000E+00
280	  0.076513030	-6.673000E+00	  0.076513030	1.551510E+02	  0.076513030	1.907900E+01	  0.076513030	9.475000E+00
281	  0.076713428	-6.684000E+00	  0.076713428	1.542560E+02	  0.076713428	1.916700E+01	  0.076713428	9.818000E+00
282	  0.076913826	-6.696000E+00	  0.076913826	1.533350E+02	  0.076913826	1.925800E+01	  0.076913826	1.017200E+01
283	  0.077114232	-6.704000E+00	  0.077114232	1.524690E+02	  0.077114232	1.934000E+01	  0.077114232	1.050600E+01
284	  0.077314630	-6.714000E+00	  0.077314630	1.515780E+02	  0.077314630	1.942900E+01	  0.077314630	1.084900E+01
285	  0.077515028	-6.721000E+00	  0.077515028	1.506890E+02	  0.077515028	1.951300E+01	  0.077515028	1.119400E+01
286	  0.077715434	-6.729000E+00	  0.077715434	1.497930E+02	  0.077715434	1.960500E+01	  0.077715434	1.154100E+01
287	  0.077915832	-6.735000E+00	  0.077915832	1.489580E+02	  0.077915832	1.968800E+01	  0.077915832	1.186600E+01
288	  0.078116231	-6.747000E+00	  0.078116231	1.480680E+02	  0.078116231	1.979100E+01	  0.078116231	1.221000E+01
289	  0.078316636	-6.757000E+00	  0.078316636	1.471870E+02	  0.078316636	1.989300E+01	  0.078316636	1.255100E+01
290	  0.078517035	-6.764000E+00	  0.078517035	1.463210E+02	  0.078517035	1.998800E+01	  0.078517035	1.288900E+01
291	  0.078717433	-6.775000E+00	  0.078717433	1.454870E+02	  0.078717433	2.009300E+01	  0.078717433	1.321300E+01
292	  0.078917839	-6.785000E+00	  0.078917839	1.446750E+02	  0.078917839	2.019500E+01	  0.078917839	1.352900E+01
293	  0.079118237	-6.795000E+00	  0.079118237	1.438750E+02	  0.079118237	2.029800E+01	  0.079118237	1.384100E+01
294	  0.079318643	-6.804000E+00	  0.079318643	1.430750E+02	  0.079318643	2.040100E+01	  0.079318643	1.415300E+01
295	  0.079519041	-6.821000E+00	  0.079519041	1.422550E+02	  0.079519041	2.053000E+01	  0.079519041	1.446900E+01
296	  0.079719439	-6.834000E+00	  0.079719439	1.414850E+02	  0.079719439	2.064600E+01	  0.079719439	1.476700E+01
297	  0.079919845	-6.848000E+00	  0.079919845	1.406980E+02	  0.079919845	2.076900E+01	  0.079919845	1.507200E+01
298	  0.080120243	-6.864000E+00	  0.080120243	1.398990E+02	  0.080120243	2.089800E+01	  0.080120243	1.538200E+01
299	  0.080320641	-6.884000E+00	  0.080320641	1.391070E+02	  0.080320641	2.104200E+01	  0.080320641	1.568400E+01
300	  0.080521047	-6.901000E+00	  0.080521047	1.383510E+02	  0.080521047	2.117600E+01	  0.080521047	1.597500E+01
301	  0.080721445	-6.922000E+00	  0.080721445	1.375400E+02	  0.080721445	2.132800E+01	  0.080721445	1.628600E+01
302	  0.080921844	-6.947000E+00	  0.080921844	1.367940E+02	  0.080921844	2.148700E+01	  0.080921844	1.656600E+01
303	  0.081122249	-6.967000E+00	  0.081122249	1.360370E+02	  0.081122249	2.163400E+01	  0.081122249	1.685600E+01
304	  0.081322648	-6.990000E+00	  0.081322648	1.352660E+02	  0.081322648	2.179500E+01	  0.081322648	1.714800E+01
305	  0.081523046	-7.012000E+00	  0.081523046	1.344630E+02	  0.081523046	2.195900E+01	  0.081523046	1.745400E+01
306	  0.081723452	-7.041000E+00	  0.081723452	1.336780E+02	  0.081723452	2.214400E+01	  0.081723452	1.774700E+01
307	  0.081923850	-7.065000E+00	  0.081923850	1.328820E+02	  0.081923850	2.231900E+01	  0.081923850	1.804700E+01
308	  0.082124248	-7.087000E+00	  0.082124248	1.321290E+02	  0.082124248	2.248600E+01	  0.082124248	1.833300E+01
309	  0.082324654	-7.117000E+00	  0.082324654	1.313240E+02	  0.082324654	2.268400E+01	  0.082324654	1.863200E+01
310	  0.082525052	-7.142000E+00	  0.082525052	1.305390E+02	  0.082525052	2.286800E+01	  0.082525052	1.892600E+01
311	  0.082725458	-7.170000E+00	  0.082725458	1.297500E+02	  0.082725458	2.306400E+01	  0.082725458	1.922000E+01
312	  0.082925856	-7.196000E+00	  0.082925856	1.289550E+02	  0.082925856	2.325700E+01	  0.082925856	1.951900E+01
313	  0.083126254	-7.223000E+00	  0.083126254	1.281580E+02	  0.083126254	2.345900E+01	  0.083126254	1.981500E+01
314	  0.083326660	-7.247000E+00	  0.083326660	1.273430E+02	  0.083326660	2.365700E+01	  0.083326660	2.012300E+01
315	  0.083527058	-7.266000E+00	  0.083527058	1.265710E+02	  0.083527058	2.383900E+01	  0.083527058	2.041700E+01
316	  0.083727457	-7.292000E+00	  0.083727457	1.257450E+02	  0.083727457	2.405100E+01	  0.083727457	2.072700E+01
317	  0.083927862	-7.317000E+00	  0.083927862	1.249630E+02	  0.083927862	2.425400E+01	  0.083927862	2.101900E+01
318	  0.084128261	-7.339000E+00	  0.084128261	1.241610E+02	  0.084128261	2.446100E+01	  0.084128261	2.132200E+01
319	  0.084328659	-7.359000E+00	  0.084328659	1.234170E+02	  0.084328659	2.465200E+01	  0.084328659	2.160400E+01
320	  0.084529065	-7.380000E+00	  0.084529065	1.226460E+02	  0.084529065	2.485300E+01	  0.084529065	2.189600E+01
321	  0.084729463	-7.401000E+00	  0.084729463	1.218760E+02	  0.084729463	2.505700E+01	  0.084729463	2.218700E+01
322	  0.084929854	-7.424000E+00	  0.084929854	1.211040E+02	  0.084929854	2.527200E+01	  0.084929854	2.247600E+01
323	  0.085130259	-7.436000E+00	  0.085130259	1.203490E+02	  0.085130259	2.545700E+01	  0.085130259	2.277200E+01
324	  0.085330658	-7.450000E+00	  0.085330658	1.195800E+02	  0.085330658	2.565100E+01	  0.085330658	2.307200E+01
325	  0.085531056	-7.469000E+00	  0.085531056	1.188490E+02	  0.085531056	2.585700E+01	  0.085531056	2.334800E+01
326	  0.085731462	-7.489000E+00	  0.085731462	1.181060E+02	  0.085731462	2.606900E+01	  0.085731462	2.362900E+01
327	  0.085931860	-7.502000E+00	  0.085931860	1.174320E+02	  0.085931860	2.624900E+01	  0.085931860	2.389100E+01
328	  0.086132258	-7.520000E+00	  0.086132258	1.167560E+02	  0.086132258	2.644900E+01	  0.086132258	2.414600E+01
329	  0.086332664	-7.538000E+00	  0.086332664	1.160800E+02	  0.086332664	2.665100E+01	  0.086332664	2.439900E+01
330	  0.086533062	-7.558000E+00	  0.086533062	1.153960E+02	  0.086533062	2.686300E+01	  0.086533062	2.465400E+01
331	  0.086733460	-7.576000E+00	  0.086733460	1.147210E+02	  0.086733460	2.706900E+01	  0.086733460	2.490800E+01
332	  0.086933866	-7.598000E+00	  0.086933866	1.140570E+02	  0.086933866	2.728900E+01	  0.086933866	2.515000E+01
333	  0.087134264	-7.616000E+00	  0.087134264	1.134140E+02	  0.087134264	2.749300E+01	  0.087134264	2.538900E+01
334	  0.087334670	-7.644000E+00	  0.087334670	1.127600E+02	  0.087334670	2.773100E+01	  0.087334670	2.561600E+01
335	  0.087535068	-7.663000E+00	  0.087535068	1.120970E+02	  0.087535068	2.794900E+01	  0.087535068	2.586100E+01
336	  0.087735467	-7.690000E+00	  0.087735467	1.114590E+02	  0.087735467	2.818500E+01	  0.087735467	2.608200E+01
337	  0.087935872	-7.717000E+00	  0.087935872	1.108070E+02	  0.087935872	2.842700E+01	  0.087935872	2.630700E+01
338	  0.088136271	-7.744000E+00	  0.088136271	1.101780E+02	  0.088136271	2.866700E+01	  0.088136271	2.652200E+01
339	  0.088336669	-7.766000E+00	  0.088336669	1.095490E+02	  0.088336669	2.889600E+01	  0.088336669	2.674500E+01
340	  0.088537075	-7.793000E+00	  0.088537075	1.089080E+02	  0.088537075	2.914400E+01	  0.088537075	2.696200E+01
341	  0.088737473	-7.818000E+00	  0.088737473	1.082800E+02	  0.088737473	2.938500E+01	  0.088737473	2.717800E+01
342	  0.088937871	-7.851000E+00	  0.088937871	1.076270E+02	  0.088937871	2.966100E+01	  0.088937871	2.738600E+01
343	  0.089138277	-7.872000E+00	  0.089138277	1.069450E+02	  0.089138277	2.991100E+01	  0.089138277	2.763000E+01
344	  0.089338675	-7.910000E+00	  0.089338675	1.063220E+02	  0.089338675	3.019800E+01	  0.089338675	2.781200E+01
345	  0.089539073	-7.933000E+00	  0.089539073	1.056740E+02	  0.089539073	3.045000E+01	  0.089539073	2.803600E+01
346	  0.089739479	-7.966000E+00	  0.089739479	1.050720E+02	  0.089739479	3.072200E+01	  0.089739479	2.821700E+01
347	  0.089939877	-7.996000E+00	  0.089939877	1.044370E+02	  0.089939877	3.099600E+01	  0.089939877	2.841800E+01
348	  0.090140276	-8.013000E+00	  0.090140276	1.037650E+02	  0.090140276	3.125200E+01	  0.090140276	2.865700E+01
349	  0.090340681	-8.050000E+00	  0.090340681	1.031670E+02	  0.090340681	3.153900E+01	  0.090340681	2.882500E+01
350	  0.090541080	-8.074000E+00	  0.090541080	1.024860E+02	  0.090541080	3.182100E+01	  0.090541080	2.905200E+01
351	  0.090741485	-8.104000E+00	  0.090741485	1.018660E+02	  0.090741485	3.210300E+01	  0.090741485	2.923900E+01
352	  0.090941884	-8.130000E+00	  0.090941884	1.012570E+02	  0.090941884	3.237300E+01	  0.090941884	2.943000E+01
353	  0.091142282	-8.161000E+00	  0.091142282	1.006460E+02	  0.091142282	3.265900E+01	  0.091142282	2.960900E+01
354	  0.091342688	-8.180000E+00	  0.091342688	1.000060E+02	  0.091342688	3.292900E+01	  0.091342688	2.982300E+01
355	  0.091543086	-8.211000E+00	  0.091543086	9.940000E+01	  0.091543086	3.321900E+01	  0.091543086	2.999600E+01
356	  0.091743484	-8.230000E+00	  0.091743484	9.878400E+01	  0.091743484	3.348500E+01	  0.091743484	3.019900E+01
357	  0.091943890	-8.252000E+00	  0.091943890	9.819800E+01	  0.091943890	3.375300E+01	  0.091943890	3.038000E+01
358	  0.092144288	-8.274000E+00	  0.092144288	9.759100E+01	  0.092144288	3.403000E+01	  0.092144288	3.056900E+01
359	  0.092344686	-8.297000E+00	  0.092344686	9.704300E+01	  0.092344686	3.429000E+01	  0.092344686	3.073200E+01
360	  0.092545092	-8.320000E+00	  0.092545092	9.648400E+01	  0.092545092	3.455600E+01	  0.092545092	3.089700E+01
361	  0.092745490	-8.340000E+00	  0.092745490	9.592600E+01	  0.092745490	3.481900E+01	  0.092745490	3.106600E+01
362	  0.092945889	-8.365000E+00	  0.092945889	9.542500E+01	  0.092945889	3.507400E+01	  0.092945889	3.120000E+01
363	  0.093146294	-8.382000E+00	  0.093146294	9.489500E+01	  0.093146294	3.531900E+01	  0.093146294	3.136600E+01
364	  0.093346693	-8.406000E+00	  0.093346693	9.439600E+01	  0.093346693	3.557600E+01	  0.093346693	3.149800E+01
365	  0.093547091	-8.425000E+00	  0.093547091	9.389400E+01	  0.093547091	3.582200E+01	  0.093547091	3.164300E+01
366	  0.093747497	-8.443000E+00	  0.093747497	9.339200E+01	  0.093747497	3.606700E+01	  0.093747497	3.179000E+01
367	  0.093947895	-8.467000E+00	  0.093947895	9.289000E+01	  0.093947895	3.633100E+01	  0.093947895	3.191900E+01
368	  0.094148301	-8.487000E+00	  0.094148301	9.239500E+01	  0.094148301	3.658300E+01	  0.094148301	3.205500E+01
369	  0.094348699	-8.509000E+00	  0.094348699	9.193300E+01	  0.094348699	3.682800E+01	  0.094348699	3.217200E+01
370	  0.094549097	-8.533000E+00	  0.094549097	9.150300E+01	  0.094549097	3.706600E+01	  0.094549097	3.226900E+01
371	  0.094749503	-8.554000E+00	  0.094749503	9.106300E+01	  0.094749503	3.730400E+01	  0.094749503	3.237600E+01
372	  0.094949901	-8.576000E+00	  0.094949901	9.060500E+01	  0.094949901	3.755300E+01	  0.094949901	3.248700E+01
373	  0.095150299	-8.596000E+00	  0.095150299	9.012900E+01	  0.095150299	3.780500E+01	  0.095150299	3.261000E+01
374	  0.095350705	-8.614000E+00	  0.095350705	8.970600E+01	  0.095350705	3.803400E+01	  0.095350705	3.271300E+01
375	  0.095551103	-8.638000E+00	  0.095551103	8.925400E+01	  0.095551103	3.828800E+01	  0.095551103	3.281200E+01
376	  0.095751502	-8.654000E+00	  0.095751502	8.876700E+01	  0.095751502	3.854100E+01	  0.095751502	3.294500E+01
377	  0.095951907	-8.675000E+00	  0.095951907	8.836000E+01	  0.095951907	3.877400E+01	  0.095951907	3.303100E+01
378	  0.096152306	-8.692000E+00	  0.096152306	8.793700E+01	  0.096152306	3.900500E+01	  0.096152306	3.313400E+01
379	  0.096352704	-8.712000E+00	  0.096352704	8.751300E+01	  0.096352704	3.924500E+01	  0.096352704	3.322800E+01
380	  0.096553110	-8.734000E+00	  0.096553110	8.708400E+01	  0.096553110	3.949200E+01	  0.096553110	3.331700E+01
381	  0.096753508	-8.745000E+00	  0.096753508	8.664200E+01	  0.096753508	3.972200E+01	  0.096753508	3.344100E+01
382	  0.096953906	-8.757000E+00	  0.096953906	8.622300E+01	  0.096953906	3.994600E+01	  0.096953906	3.355200E+01
383	  0.097154312	-8.767000E+00	  0.097154312	8.578400E+01	  0.097154312	4.017500E+01	  0.097154312	3.367600E+01
384	  0.097354710	-8.785000E+00	  0.097354710	8.535300E+01	  0.097354710	4.042200E+01	  0.097354710	3.377000E+01
385	  0.097555116	-8.795000E+00	  0.097555116	8.494100E+01	  0.097555116	4.064100E+01	  0.097555116	3.388500E+01
386	  0.097755514	-8.807000E+00	  0.097755514	8.454600E+01	  0.097755514	4.086000E+01	  0.097755514	3.398200E+01
387	  0.097955912	-8.813000E+00	  0.097955912	8.413900E+01	  0.097955912	4.107300E+01	  0.097955912	3.410300E+01
388	  0.098156318	-8.824000E+00	  0.098156318	8.372700E+01	  0.098156318	4.129900E+01	  0.098156318	3.421100E+01
389	  0.098356716	-8.835000E+00	  0.098356716	8.331300E+01	  0.098356716	4.152900E+01	  0.098356716	3.431600E+01
390	  0.098557115	-8.837000E+00	  0.098557115	8.290700E+01	  0.098557115	4.173600E+01	  0.098557115	3.444800E+01
391	  0.098757520	-8.842000E+00	  0.098757520	8.249100E+01	  0.098757520	4.195700E+01	  0.098757520	3.457100E+01
392	  0.098957919	-8.846000E+00	  0.098957919	8.209300E+01	  0.098957919	4.216800E+01	  0.098957919	3.469200E+01
393	  0.099158317	-8.848000E+00	  0.099158317	8.169900E+01	  0.099158317	4.237600E+01	  0.099158317	3.481600E+01
394	  0.099358723	-8.852000E+00	  0.099358723	8.130600E+01	  0.099358723	4.258700E+01	  0.099358723	3.493500E+01
395	  0.099559121	-8.852000E+00	  0.099559121	8.090500E+01	  0.099559121	4.279600E+01	  0.099559121	3.506900E+01
396	  0.099759519	-8.858000E+00	  0.099759519	8.052000E+01	  0.099759519	4.301200E+01	  0.099759519	3.517500E+01
397	  0.099959925	-8.853000E+00	  0.099959925	8.015900E+01	  0.099959925	4.319300E+01	  0.099959925	3.531100E+01
398	  0.100160323	-8.856000E+00	  0.100160323	7.981500E+01	  0.100160323	4.338300E+01	  0.100160323	3.541300E+01
399	  0.100360721	-8.851000E+00	  0.100360721	7.938700E+01	  0.100360721	4.360200E+01	  0.100360721	3.557100E+01
400	  0.100561127	-8.857000E+00	  0.100561127	7.897100E+01	  0.100561127	4.384200E+01	  0.100561127	3.568400E+01
401	  0.100761525	-8.850000E+00	  0.100761525	7.857000E+01	  0.100761525	4.404600E+01	  0.100761525	3.583900E+01
402	  0.100961931	-8.849000E+00	  0.100961931	7.819400E+01	  0.100961931	4.425300E+01	  0.100961931	3.596200E+01
403	  0.101162329	-8.840000E+00	  0.101162329	7.776300E+01	  0.101162329	4.447400E+01	  0.101162329	3.613400E+01
404	  0.101362728	-8.837000E+00	  0.101362728	7.737200E+01	  0.101362728	4.468800E+01	  0.101362728	3.626800E+01
405	  0.101563133	-8.840000E+00	  0.101563133	7.697400E+01	  0.101563133	4.492000E+01	  0.101563133	3.638400E+01
406	  0.101763532	-8.825000E+00	  0.101763532	7.651600E+01	  0.101763532	4.515200E+01	  0.101763532	3.658400E+01
407	  0.101963930	-8.824000E+00	  0.101963930	7.610700E+01	  0.101963930	4.538600E+01	  0.101963930	3.671800E+01
408	  0.102164328	-8.817000E+00	  0.102164328	7.562400E+01	  0.102164328	4.565600E+01	  0.102164328	3.689200E+01
409	  0.102364726	-8.807000E+00	  0.102364726	7.511600E+01	  0.102364726	4.593500E+01	  0.102364726	3.709100E+01
410	  0.102565125	-8.802000E+00	  0.102565125	7.471800E+01	  0.102565125	4.616300E+01	  0.102565125	3.723100E+01
411	  0.102765530	-8.791000E+00	  0.102765530	7.419400E+01	  0.102765530	4.645600E+01	  0.102765530	3.743700E+01
412	  0.102965929	-8.781000E+00	  0.102965929	7.375600E+01	  0.102965929	4.670400E+01	  0.102965929	3.760900E+01
413	  0.103166327	-8.768000E+00	  0.103166327	7.322500E+01	  0.103166327	4.700500E+01	  0.103166327	3.782200E+01
414	  0.103366733	-8.751000E+00	  0.103366733	7.273900E+01	  0.103366733	4.727500E+01	  0.103366733	3.803800E+01
415	  0.103567131	-8.745000E+00	  0.103567131	7.228000E+01	  0.103567131	4.755300E+01	  0.103567131	3.820000E+01
416	  0.103767529	-8.732000E+00	  0.103767529	7.176100E+01	  0.103767529	4.786000E+01	  0.103767529	3.840600E+01
417	  0.103967935	-8.714000E+00	  0.103967935	7.123200E+01	  0.103967935	4.816600E+01	  0.103967935	3.863800E+01
418	  0.104168333	-8.692000E+00	  0.104168333	7.072500E+01	  0.104168333	4.845400E+01	  0.104168333	3.888200E+01
419	  0.104368731	-8.676000E+00	  0.104368731	7.011700E+01	  0.104368731	4.882600E+01	  0.104368731	3.912700E+01
420	  0.104569137	-8.651000E+00	  0.104569137	6.962300E+01	  0.104569137	4.911100E+01	  0.104569137	3.938000E+01
421	  0.104769535	-8.639000E+00	  0.104769535	6.909900E+01	  0.104769535	4.944400E+01	  0.104769535	3.958200E+01
422	  0.104969934	-8.614000E+00	  0.104969934	6.853000E+01	  0.104969934	4.978900E+01	  0.104969934	3.985500E+01
423	  0.105170339	-8.591000E+00	  0.105170339	6.796200E+01	  0.105170339	5.014300E+01	  0.105170339	4.012200E+01
424	  0.105370738	-8.565000E+00	  0.105370738	6.740600E+01	  0.105370738	5.048700E+01	  0.105370738	4.039800E+01
425	  0.105571143	-8.543000E+00	  0.105571143	6.687400E+01	  0.105571143	5.082900E+01	  0.105571143	4.064800E+01
426	  0.105771542	-8.521000E+00	  0.105771542	6.626200E+01	  0.105771542	5.123600E+01	  0.105771542	4.091600E+01
427	  0.105971940	-8.508000E+00	  0.105971940	6.573000E+01	  0.105971940	5.160400E+01	  0.105971940	4.112400E+01
428	  0.106172346	-8.479000E+00	  0.106172346	6.516200E+01	  0.106172346	5.197600E+01	  0.106172346	4.141800E+01
429	  0.106372744	-8.451000E+00	  0.106372744	6.460200E+01	  0.106372744	5.235200E+01	  0.106372744	4.170500E+01
430	  0.106573142	-8.439000E+00	  0.106573142	6.398000E+01	  0.106573142	5.280900E+01	  0.106573142	4.192500E+01
431	  0.106773548	-8.414000E+00	  0.106773548	6.335300E+01	  0.106773548	5.325600E+01	  0.106773548	4.221200E+01
432	  0.106973946	-8.394000E+00	  0.106973946	6.287600E+01	  0.106973946	5.359900E+01	  0.106973946	4.243700E+01
433	  0.107174344	-8.375000E+00	  0.107174344	6.221800E+01	  0.107174344	5.409500E+01	  0.107174344	4.269900E+01
434	  0.107374750	-8.348000E+00	  0.107374750	6.161500E+01	  0.107374750	5.454100E+01	  0.107374750	4.299100E+01
435	  0.107575148	-8.331000E+00	  0.107575148	6.098800E+01	  0.107575148	5.503100E+01	  0.107575148	4.323200E+01
436	  0.107775547	-8.314000E+00	  0.107775547	6.037100E+01	  0.107775547	5.552100E+01	  0.107775547	4.347000E+01
437	  0.107975952	-8.296000E+00	  0.107975952	5.972700E+01	  0.107975952	5.604200E+01	  0.107975952	4.371200E+01
438	  0.108176351	-8.279000E+00	  0.108176351	5.914600E+01	  0.108176351	5.651700E+01	  0.108176351	4.394000E+01
439	  0.108376749	-8.263000E+00	  0.108376749	5.848900E+01	  0.108376749	5.706900E+01	  0.108376749	4.416900E+01
440	  0.108577155	-8.249000E+00	  0.108577155	5.784900E+01	  0.108577155	5.761600E+01	  0.108577155	4.438300E+01
441	  0.108777553	-8.234000E+00	  0.108777553	5.711000E+01	  0.108777553	5.826300E+01	  0.108777553	4.461300E+01
442	  0.108977959	-8.222000E+00	  0.108977959	5.639200E+01	  0.108977959	5.890500E+01	  0.108977959	4.482200E+01
443	  0.109178357	-8.205000E+00	  0.109178357	5.576100E+01	  0.109178357	5.947100E+01	  0.109178357	4.503500E+01
444	  0.109378755	-8.190000E+00	  0.109378755	5.502600E+01	  0.109378755	6.014700E+01	  0.109378755	4.525600E+01
445	  0.109579161	-8.175000E+00	  0.109579161	5.433100E+01	  0.109579161	6.079700E+01	  0.109579161	4.545900E+01
446	  0.109779559	-8.160000E+00	  0.109779559	5.365100E+01	  0.109779559	6.144300E+01	  0.109779559	4.565100E+01
447	  0.109979957	-8.155000E+00	  0.109979957	5.292600E+01	  0.109979957	6.215400E+01	  0.109979957	4.578700E+01
448	  0.110180363	-8.135000E+00	  0.110180363	5.217100E+01	  0.110180363	6.289300E+01	  0.110180363	4.600700E+01
449	  0.110380761	-8.130000E+00	  0.110380761	5.137200E+01	  0.110380761	6.370300E+01	  0.110380761	4.613000E+01
450	  0.110581160	-8.120000E+00	  0.110581160	5.064400E+01	  0.110581160	6.445000E+01	  0.110581160	4.626400E+01
451	  0.110781565	-8.105000E+00	  0.110781565	4.986000E+01	  0.110781565	6.526500E+01	  0.110781565	4.642500E+01
452	  0.110981964	-8.097000E+00	  0.110981964	4.909300E+01	  0.110981964	6.607800E+01	  0.110981964	4.653300E+01
453	  0.111182362	-8.088000E+00	  0.111182362	4.839300E+01	  0.111182362	6.683200E+01	  0.111182362	4.662600E+01
454	  0.111382768	-8.073000E+00	  0.111382768	4.759700E+01	  0.111382768	6.770200E+01	  0.111382768	4.675300E+01
455	  0.111583166	-8.075000E+00	  0.111583166	4.681400E+01	  0.111583166	6.857300E+01	  0.111583166	4.674600E+01
456	  0.111783572	-8.063000E+00	  0.111783572	4.600300E+01	  0.111783572	6.948900E+01	  0.111783572	4.682200E+01
457	  0.111983970	-8.058000E+00	  0.111983970	4.521100E+01	  0.111983970	7.039500E+01	  0.111983970	4.683700E+01
458	  0.112184368	-8.056000E+00	  0.112184368	4.437700E+01	  0.112184368	7.136200E+01	  0.112184368	4.680600E+01
459	  0.112384774	-8.052000E+00	  0.112384774	4.360500E+01	  0.112384774	7.226900E+01	  0.112384774	4.677200E+01
460	  0.112585172	-8.050000E+00	  0.112585172	4.282000E+01	  0.112585172	7.320200E+01	  0.112585172	4.670100E+01
461	  0.112785570	-8.048000E+00	  0.112785570	4.195700E+01	  0.112785570	7.424100E+01	  0.112785570	4.660600E+01
462	  0.112985976	-8.045000E+00	  0.112985976	4.119900E+01	  0.112985976	7.516300E+01	  0.112985976	4.650400E+01
463	  0.113186374	-8.053000E+00	  0.113186374	4.038200E+01	  0.113186374	7.615600E+01	  0.113186374	4.629100E+01
464	  0.113386773	-8.056000E+00	  0.113386773	3.953300E+01	  0.113386773	7.720000E+01	  0.113386773	4.608100E+01
465	  0.113587178	-8.061000E+00	  0.113587178	3.870100E+01	  0.113587178	7.823000E+01	  0.113587178	4.583100E+01
466	  0.113787577	-8.070000E+00	  0.113787577	3.782400E+01	  0.113787577	7.931300E+01	  0.113787577	4.550700E+01
467	  0.113987975	-8.084000E+00	  0.113987975	3.695500E+01	  0.113987975	8.038200E+01	  0.113987975	4.511800E+01
468	  0.114188381	-8.090000E+00	  0.114188381	3.610000E+01	  0.114188381	8.145500E+01	  0.114188381	4.476900E+01
469	  0.114388779	-8.101000E+00	  0.114388779	3.518200E+01	  0.114388779	8.259800E+01	  0.114388779	4.431600E+01
470	  0.114589177	-8.122000E+00	  0.114589177	3.431300E+01	  0.114589177	8.364800E+01	  0.114589177	4.376400E+01
471	  0.114789583	-8.132000E+00	  0.114789583	3.338300E+01	  0.114789583	8.480500E+01	  0.114789583	4.323900E+01
472	  0.114989981	-8.158000E+00	  0.114989981	3.246300E+01	  0.114989981	8.589300E+01	  0.114989981	4.254900E+01
473	  0.115190387	-8.172000E+00	  0.115190387	3.153100E+01	  0.115190387	8.703000E+01	  0.115190387	4.191000E+01
474	  0.115390785	-8.194000E+00	  0.115390785	3.052700E+01	  0.115390785	8.821700E+01	  0.115390785	4.112100E+01
475	  0.115591183	-8.217000E+00	  0.115591183	2.959400E+01	  0.115591183	8.929600E+01	  0.115591183	4.032200E+01
476	  0.115791589	-8.244000E+00	  0.115791589	2.860300E+01	  0.115791589	9.040800E+01	  0.115791589	3.940700E+01
477	  0.115991987	-8.269000E+00	  0.115991987	2.762100E+01	  0.115991987	9.150500E+01	  0.115991987	3.848000E+01
478	  0.116192386	-8.302000E+00	  0.116192386	2.663500E+01	  0.116192386	9.253500E+01	  0.116192386	3.743600E+01
479	  0.116392791	-8.328000E+00	  0.116392791	2.561300E+01	  0.116392791	9.361800E+01	  0.116392791	3.637400E+01
480	  0.116593190	-8.364000E+00	  0.116593190	2.455500E+01	  0.116593190	9.464500E+01	  0.116593190	3.515000E+01
481	  0.116793588	-8.396000E+00	  0.116793588	2.350200E+01	  0.116793588	9.566000E+01	  0.116793588	3.392700E+01
482	  0.116993994	-8.431000E+00	  0.116993994	2.243700E+01	  0.116993994	9.661700E+01	  0.116993994	3.261800E+01
483	  0.117194392	-8.465000E+00	  0.117194392	2.137400E+01	  0.117194392	9.754200E+01	  0.117194392	3.128400E+01
484	  0.117394790	-8.502000E+00	  0.117394790	2.033200E+01	  0.117394790	9.836500E+01	  0.117394790	2.990300E+01
485	  0.117595196	-8.546000E+00	  0.117595196	1.918700E+01	  0.117595196	9.919300E+01	  0.117595196	2.833500E+01
486	  0.117795594	-8.588000E+00	  0.117795594	1.815000E+01	  0.117795594	9.986800E+01	  0.117795594	2.686700E+01
487	  0.117995992	-8.629000E+00	  0.117995992	1.702400E+01	  0.117995992	1.005690E+02	  0.117995992	2.526900E+01
