! Anritsu VNA Master:             	Model: MS2036C/10/77
! SN:             	1601066
! /bd0/18may26.balun/4a.47.txt
! Existing Calibration Information:
! TYPE:             	Current Settings	Active Cal Settings
! TIME:             	05/26/2018 03:00:44 PM	05/26/2018 02:51:55 PM
! INTERNAL TEMP:    	59.5 C	59.5 C
! # POINTS:         	500	500
! START FREQ:       	20.000 MHz	20.000 MHz
! STOP FREQ:        	120.000 MHz	120.000 MHz
! SOURCE POWER:     	High	High
! IFBW:             	50 Hz	50 Hz
! AVG FACTOR:       	  1 	  1 
! REF PLANE 1:      	0 mm	0 mm
! REF PLANE 2:      	0 mm	0 mm
! CAL TYPE:         	Full S11	Full S11
! CAL METHOD:       	SOLT	SOLT
! CAL LINE TYPE:    	Coax	Coax
! DUT PORT 1:       	K-Conn(M)	K-Conn(M)
! DUT PORT 2:       	K-Conn(M)	K-Conn(M)
! CAL STATUS:       	OK: Accuracy High	--
! PROP-V:       	0.700
! CABLE LOSS:       	0.000 dB/m
! REF IMPEDANCE:       	50.0
! Trace Specific Parameters:	TR1	TR2	TR3	TR4
! TRACE.#.Y (GRAPH TYPE)	LOG MAG	PHASE	REAL IMPEDANCE	IMAGINARY IMPEDANCE
! TRACE.#.X 	FREQ.GHZ	FREQ.GHZ	FREQ.GHZ	FREQ.GHZ
! S-PARAMETER	S11	S11	S11	S11
! SMOOTH/APERTURE %	0	0	0	0
! WINDOW	NSL	NSL	NSL	NSL
! GATING	OFF	OFF	OFF	OFF
! FGTD	OFF	OFF	OFF	OFF
Marker Information per Trace:	TR1	TR2	TR3	TR4
!MK1	--	--	--	--
!MK2	--	--	--	--
!MK3	--	--	--	--
!MK4	--	--	--	--
!MK5	--	--	--	--
!MK6	--	--	--	--
!MK7	--	--	--	--
!MK8	--	--	--	--
PNT	TR1.FREQ.GHZ	TR1.LOG MAG.dB	TR2.FREQ.GHZ	TR2.PHASE.deg	TR3.FREQ.GHZ	TR3.REAL IMPEDANCE.ohm	TR4.FREQ.GHZ	TR4.IMAGINARY IMPEDANCE.ohm
1	  0.020000000	-3.800000E-02	  0.020000000	-5.617900E+01	  0.020000000	5.030000E-01	  0.020000000	-9.368000E+01
2	  0.020200402	-3.400000E-02	  0.020200402	-5.675500E+01	  0.020200402	4.450000E-01	  0.020200402	-9.255700E+01
3	  0.020400802	-3.100000E-02	  0.020400802	-5.729400E+01	  0.020400802	3.980000E-01	  0.020400802	-9.152500E+01
4	  0.020601204	-3.100000E-02	  0.020601204	-5.782300E+01	  0.020601204	3.910000E-01	  0.020601204	-9.053000E+01
5	  0.020801604	-2.900000E-02	  0.020801604	-5.837800E+01	  0.020801604	3.580000E-01	  0.020801604	-8.950200E+01
6	  0.021002004	-2.800000E-02	  0.021002004	-5.894700E+01	  0.021002004	3.440000E-01	  0.021002004	-8.846800E+01
7	  0.021202406	-2.900000E-02	  0.021202406	-5.949300E+01	  0.021202406	3.500000E-01	  0.021202406	-8.749300E+01
8	  0.021402806	-2.900000E-02	  0.021402806	-6.003800E+01	  0.021402806	3.420000E-01	  0.021402806	-8.653400E+01
9	  0.021603208	-3.200000E-02	  0.021603208	-6.056100E+01	  0.021603208	3.710000E-01	  0.021603208	-8.562800E+01
10	  0.021803608	-3.700000E-02	  0.021803608	-6.108700E+01	  0.021803608	4.200000E-01	  0.021803608	-8.473300E+01
11	  0.022004008	-4.000000E-02	  0.022004008	-6.160300E+01	  0.022004008	4.400000E-01	  0.022004008	-8.386800E+01
12	  0.022204408	-4.100000E-02	  0.022204408	-6.214700E+01	  0.022204408	4.470000E-01	  0.022204408	-8.297000E+01
13	  0.022404809	-4.200000E-02	  0.022404809	-6.271100E+01	  0.022404809	4.540000E-01	  0.022404809	-8.205300E+01
14	  0.022605211	-4.300000E-02	  0.022605211	-6.328000E+01	  0.022605211	4.550000E-01	  0.022605211	-8.114300E+01
15	  0.022805611	-4.600000E-02	  0.022805611	-6.381700E+01	  0.022805611	4.760000E-01	  0.022805611	-8.029800E+01
16	  0.023006011	-3.800000E-02	  0.023006011	-6.436800E+01	  0.023006011	3.920000E-01	  0.023006011	-7.944500E+01
17	  0.023206413	-3.000000E-02	  0.023206413	-6.493500E+01	  0.023206413	3.030000E-01	  0.023206413	-7.858100E+01
18	  0.023406813	-2.200000E-02	  0.023406813	-6.550300E+01	  0.023406813	2.230000E-01	  0.023406813	-7.772800E+01
19	  0.023607215	-2.200000E-02	  0.023607215	-6.606200E+01	  0.023607215	2.170000E-01	  0.023607215	-7.690000E+01
20	  0.023807615	-1.900000E-02	  0.023807615	-6.659000E+01	  0.023807615	1.900000E-01	  0.023807615	-7.613100E+01
21	  0.024008015	-2.400000E-02	  0.024008015	-6.708400E+01	  0.024008015	2.300000E-01	  0.024008015	-7.542000E+01
22	  0.024208417	-2.800000E-02	  0.024208417	-6.759000E+01	  0.024208417	2.660000E-01	  0.024208417	-7.470200E+01
23	  0.024408817	-3.500000E-02	  0.024408817	-6.805500E+01	  0.024408817	3.240000E-01	  0.024408817	-7.405000E+01
24	  0.024609219	-4.000000E-02	  0.024609219	-6.856300E+01	  0.024609219	3.640000E-01	  0.024609219	-7.334500E+01
25	  0.024809619	-4.700000E-02	  0.024809619	-6.909600E+01	  0.024809619	4.210000E-01	  0.024809619	-7.261800E+01
26	  0.025010020	-4.900000E-02	  0.025010020	-6.966000E+01	  0.025010020	4.360000E-01	  0.025010020	-7.185800E+01
27	  0.025210422	-5.300000E-02	  0.025210422	-7.023700E+01	  0.025210422	4.630000E-01	  0.025210422	-7.109000E+01
28	  0.025410822	-5.500000E-02	  0.025410822	-7.080800E+01	  0.025410822	4.780000E-01	  0.025410822	-7.034300E+01
29	  0.025611224	-5.400000E-02	  0.025611224	-7.139800E+01	  0.025611224	4.600000E-01	  0.025611224	-6.958200E+01
30	  0.025811624	-5.500000E-02	  0.025811624	-7.196200E+01	  0.025811624	4.620000E-01	  0.025811624	-6.886400E+01
31	  0.026012026	-5.400000E-02	  0.026012026	-7.251700E+01	  0.026012026	4.460000E-01	  0.026012026	-6.816700E+01
32	  0.026212426	-5.100000E-02	  0.026212426	-7.306900E+01	  0.026212426	4.150000E-01	  0.026212426	-6.748300E+01
33	  0.026412826	-4.600000E-02	  0.026412826	-7.360600E+01	  0.026412826	3.760000E-01	  0.026412826	-6.682600E+01
34	  0.026613226	-4.900000E-02	  0.026613226	-7.412800E+01	  0.026613226	3.920000E-01	  0.026613226	-6.619600E+01
35	  0.026813626	-5.400000E-02	  0.026813626	-7.460800E+01	  0.026813626	4.260000E-01	  0.026813626	-6.562200E+01
36	  0.027014028	-5.700000E-02	  0.027014028	-7.507900E+01	  0.027014028	4.450000E-01	  0.027014028	-6.506500E+01
37	  0.027214428	-6.400000E-02	  0.027214428	-7.555800E+01	  0.027214428	4.910000E-01	  0.027214428	-6.450500E+01
38	  0.027414829	-7.600000E-02	  0.027414829	-7.609200E+01	  0.027414829	5.760000E-01	  0.027414829	-6.388700E+01
39	  0.027615231	-8.100000E-02	  0.027615231	-7.665600E+01	  0.027615231	6.070000E-01	  0.027615231	-6.324300E+01
40	  0.027815631	-8.600000E-02	  0.027815631	-7.725400E+01	  0.027815631	6.370000E-01	  0.027815631	-6.256800E+01
41	  0.028016033	-8.600000E-02	  0.028016033	-7.785500E+01	  0.028016033	6.280000E-01	  0.028016033	-6.190000E+01
42	  0.028216433	-7.900000E-02	  0.028216433	-7.847600E+01	  0.028216433	5.680000E-01	  0.028216433	-6.121900E+01
43	  0.028416833	-7.200000E-02	  0.028416833	-7.908400E+01	  0.028416833	5.180000E-01	  0.028416833	-6.056000E+01
44	  0.028617235	-6.200000E-02	  0.028617235	-7.966600E+01	  0.028617235	4.390000E-01	  0.028617235	-5.993900E+01
45	  0.028817635	-5.300000E-02	  0.028817635	-8.023300E+01	  0.028817635	3.740000E-01	  0.028817635	-5.934000E+01
46	  0.029018037	-4.300000E-02	  0.029018037	-8.074400E+01	  0.029018037	2.980000E-01	  0.029018037	-5.880600E+01
47	  0.029218437	-3.300000E-02	  0.029218437	-8.121100E+01	  0.029218437	2.300000E-01	  0.029218437	-5.832300E+01
48	  0.029418837	-2.700000E-02	  0.029418837	-8.164400E+01	  0.029418837	1.850000E-01	  0.029418837	-5.788000E+01
49	  0.029619239	-2.400000E-02	  0.029619239	-8.209500E+01	  0.029619239	1.620000E-01	  0.029619239	-5.742100E+01
50	  0.029819639	-2.500000E-02	  0.029819639	-8.254200E+01	  0.029819639	1.660000E-01	  0.029819639	-5.697100E+01
51	  0.030020041	-2.900000E-02	  0.030020041	-8.301800E+01	  0.030020041	1.920000E-01	  0.030020041	-5.649600E+01
52	  0.030220442	-3.600000E-02	  0.030220442	-8.350900E+01	  0.030220442	2.370000E-01	  0.030220442	-5.601000E+01
53	  0.030420844	-4.800000E-02	  0.030420844	-8.403900E+01	  0.030420844	3.100000E-01	  0.030420844	-5.549100E+01
54	  0.030621244	-5.800000E-02	  0.030621244	-8.459200E+01	  0.030621244	3.730000E-01	  0.030621244	-5.495500E+01
55	  0.030821644	-6.100000E-02	  0.030821644	-8.515000E+01	  0.030821644	3.860000E-01	  0.030821644	-5.442000E+01
56	  0.031022044	-6.400000E-02	  0.031022044	-8.571000E+01	  0.031022044	4.010000E-01	  0.031022044	-5.388900E+01
57	  0.031222444	-6.200000E-02	  0.031222444	-8.625000E+01	  0.031222444	3.850000E-01	  0.031222444	-5.338200E+01
58	  0.031422846	-6.600000E-02	  0.031422846	-8.680000E+01	  0.031422846	4.070000E-01	  0.031422846	-5.287100E+01
59	  0.031623244	-6.800000E-02	  0.031623244	-8.732700E+01	  0.031623244	4.100000E-01	  0.031623244	-5.238700E+01
60	  0.031823646	-6.500000E-02	  0.031823646	-8.786000E+01	  0.031823646	3.920000E-01	  0.031823646	-5.190100E+01
61	  0.032024048	-6.300000E-02	  0.032024048	-8.832900E+01	  0.032024048	3.750000E-01	  0.032024048	-5.147800E+01
62	  0.032224450	-6.300000E-02	  0.032224450	-8.878800E+01	  0.032224450	3.710000E-01	  0.032224450	-5.106600E+01
63	  0.032424849	-6.800000E-02	  0.032424849	-8.925600E+01	  0.032424849	3.970000E-01	  0.032424849	-5.065100E+01
64	  0.032625251	-7.600000E-02	  0.032625251	-8.973400E+01	  0.032625251	4.430000E-01	  0.032625251	-5.023000E+01
65	  0.032825653	-8.600000E-02	  0.032825653	-9.021900E+01	  0.032825653	4.940000E-01	  0.032825653	-4.980600E+01
66	  0.033026051	-9.500000E-02	  0.033026051	-9.076000E+01	  0.033026051	5.430000E-01	  0.033026051	-4.933700E+01
67	  0.033226453	-1.000000E-01	  0.033226453	-9.131200E+01	  0.033226453	5.630000E-01	  0.033226453	-4.886400E+01
68	  0.033426855	-1.050000E-01	  0.033426855	-9.188200E+01	  0.033426855	5.900000E-01	  0.033426855	-4.837900E+01
69	  0.033627257	-1.080000E-01	  0.033627257	-9.246500E+01	  0.033627257	5.970000E-01	  0.033627257	-4.789000E+01
70	  0.033827655	-1.090000E-01	  0.033827655	-9.307500E+01	  0.033827655	5.980000E-01	  0.033827655	-4.738200E+01
71	  0.034028057	-1.080000E-01	  0.034028057	-9.364400E+01	  0.034028057	5.880000E-01	  0.034028057	-4.691300E+01
72	  0.034228459	-1.030000E-01	  0.034228459	-9.422600E+01	  0.034228459	5.530000E-01	  0.034228459	-4.643800E+01
73	  0.034428857	-9.100000E-02	  0.034428857	-9.478500E+01	  0.034428857	4.870000E-01	  0.034428857	-4.598600E+01
74	  0.034629259	-8.100000E-02	  0.034629259	-9.529800E+01	  0.034629259	4.290000E-01	  0.034629259	-4.557500E+01
75	  0.034829661	-7.100000E-02	  0.034829661	-9.580600E+01	  0.034829661	3.720000E-01	  0.034829661	-4.517200E+01
76	  0.035030060	-6.600000E-02	  0.035030060	-9.628500E+01	  0.035030060	3.420000E-01	  0.035030060	-4.479300E+01
77	  0.035230462	-5.900000E-02	  0.035230462	-9.674700E+01	  0.035230462	3.050000E-01	  0.035230462	-4.443100E+01
78	  0.035430863	-6.000000E-02	  0.035430863	-9.720200E+01	  0.035430863	3.100000E-01	  0.035430863	-4.407800E+01
79	  0.035631265	-6.500000E-02	  0.035631265	-9.765400E+01	  0.035631265	3.330000E-01	  0.035631265	-4.372800E+01
80	  0.035831664	-7.200000E-02	  0.035831664	-9.813300E+01	  0.035831664	3.640000E-01	  0.035831664	-4.336100E+01
81	  0.036032066	-8.000000E-02	  0.036032066	-9.866400E+01	  0.036032066	4.040000E-01	  0.036032066	-4.295600E+01
82	  0.036232468	-8.900000E-02	  0.036232468	-9.919900E+01	  0.036232468	4.450000E-01	  0.036232468	-4.255100E+01
83	  0.036432866	-9.600000E-02	  0.036432866	-9.977300E+01	  0.036432866	4.720000E-01	  0.036432866	-4.212100E+01
84	  0.036633268	-1.020000E-01	  0.036633268	-1.003290E+02	  0.036633268	4.990000E-01	  0.036633268	-4.170800E+01
85	  0.036833670	-1.020000E-01	  0.036833670	-1.008770E+02	  0.036833670	4.970000E-01	  0.036833670	-4.130400E+01
86	  0.037034072	-1.020000E-01	  0.037034072	-1.014040E+02	  0.037034072	4.910000E-01	  0.037034072	-4.091800E+01
87	  0.037234470	-9.500000E-02	  0.037234470	-1.019360E+02	  0.037234470	4.530000E-01	  0.037234470	-4.053200E+01
88	  0.037434869	-8.300000E-02	  0.037434869	-1.024000E+02	  0.037434869	3.950000E-01	  0.037434869	-4.019900E+01
89	  0.037635271	-7.800000E-02	  0.037635271	-1.028300E+02	  0.037635271	3.710000E-01	  0.037635271	-3.989100E+01
90	  0.037835669	-7.600000E-02	  0.037835669	-1.032710E+02	  0.037835669	3.590000E-01	  0.037835669	-3.957700E+01
91	  0.038036071	-8.300000E-02	  0.038036071	-1.037070E+02	  0.038036071	3.880000E-01	  0.038036071	-3.926900E+01
92	  0.038236473	-9.200000E-02	  0.038236473	-1.041930E+02	  0.038236473	4.290000E-01	  0.038236473	-3.892600E+01
93	  0.038436871	-9.800000E-02	  0.038436871	-1.046730E+02	  0.038436871	4.510000E-01	  0.038436871	-3.859100E+01
94	  0.038637273	-1.040000E-01	  0.038637273	-1.051690E+02	  0.038637273	4.780000E-01	  0.038637273	-3.824600E+01
95	  0.038837675	-1.120000E-01	  0.038837675	-1.056770E+02	  0.038837675	5.080000E-01	  0.038837675	-3.789600E+01
96	  0.039038073	-1.190000E-01	  0.039038073	-1.062140E+02	  0.039038073	5.390000E-01	  0.039038073	-3.752800E+01
97	  0.039238475	-1.280000E-01	  0.039238475	-1.067680E+02	  0.039238475	5.740000E-01	  0.039238475	-3.715100E+01
98	  0.039438877	-1.310000E-01	  0.039438877	-1.073270E+02	  0.039438877	5.820000E-01	  0.039438877	-3.677400E+01
99	  0.039639279	-1.300000E-01	  0.039639279	-1.078820E+02	  0.039639279	5.750000E-01	  0.039639279	-3.640200E+01
100	  0.039839678	-1.240000E-01	  0.039839678	-1.084320E+02	  0.039839678	5.440000E-01	  0.039839678	-3.603700E+01
101	  0.040040080	-1.160000E-01	  0.040040080	-1.089400E+02	  0.040040080	5.060000E-01	  0.040040080	-3.570100E+01
102	  0.040240481	-1.100000E-01	  0.040240481	-1.094350E+02	  0.040240481	4.770000E-01	  0.040240481	-3.537600E+01
103	  0.040440880	-1.040000E-01	  0.040440880	-1.099360E+02	  0.040440880	4.480000E-01	  0.040440880	-3.504900E+01
104	  0.040641282	-1.010000E-01	  0.040641282	-1.104120E+02	  0.040641282	4.340000E-01	  0.040641282	-3.474100E+01
105	  0.040841684	-9.700000E-02	  0.040841684	-1.108970E+02	  0.040841684	4.120000E-01	  0.040841684	-3.442800E+01
106	  0.041042086	-1.000000E-01	  0.041042086	-1.113890E+02	  0.041042086	4.250000E-01	  0.041042086	-3.411200E+01
107	  0.041242484	-1.080000E-01	  0.041242484	-1.118400E+02	  0.041242484	4.530000E-01	  0.041242484	-3.382500E+01
108	  0.041442886	-1.170000E-01	  0.041442886	-1.123140E+02	  0.041442886	4.900000E-01	  0.041442886	-3.352300E+01
109	  0.041643288	-1.300000E-01	  0.041643288	-1.128330E+02	  0.041643288	5.390000E-01	  0.041643288	-3.319600E+01
110	  0.041843686	-1.370000E-01	  0.041843686	-1.133890E+02	  0.041843686	5.680000E-01	  0.041843686	-3.284700E+01
111	  0.042044088	-1.410000E-01	  0.042044088	-1.139070E+02	  0.042044088	5.780000E-01	  0.042044088	-3.252400E+01
112	  0.042244490	-1.350000E-01	  0.042244490	-1.144590E+02	  0.042244490	5.520000E-01	  0.042244490	-3.218300E+01
113	  0.042444889	-1.300000E-01	  0.042444889	-1.150000E+02	  0.042444889	5.290000E-01	  0.042444889	-3.185000E+01
114	  0.042645290	-1.200000E-01	  0.042645290	-1.154860E+02	  0.042645290	4.840000E-01	  0.042645290	-3.155300E+01
115	  0.042845692	-1.120000E-01	  0.042845692	-1.159320E+02	  0.042845692	4.490000E-01	  0.042845692	-3.128200E+01
116	  0.043046094	-1.110000E-01	  0.043046094	-1.163800E+02	  0.043046094	4.450000E-01	  0.043046094	-3.101100E+01
117	  0.043246493	-1.140000E-01	  0.043246493	-1.168160E+02	  0.043246493	4.520000E-01	  0.043246493	-3.074800E+01
118	  0.043446895	-1.150000E-01	  0.043446895	-1.172840E+02	  0.043446895	4.570000E-01	  0.043446895	-3.046700E+01
119	  0.043647297	-1.210000E-01	  0.043647297	-1.177160E+02	  0.043647297	4.760000E-01	  0.043647297	-3.020900E+01
120	  0.043847695	-1.250000E-01	  0.043847695	-1.182040E+02	  0.043847695	4.890000E-01	  0.043847695	-2.991900E+01
121	  0.044048097	-1.300000E-01	  0.044048097	-1.186650E+02	  0.044048097	5.060000E-01	  0.044048097	-2.964600E+01
122	  0.044248499	-1.380000E-01	  0.044248499	-1.191460E+02	  0.044248499	5.350000E-01	  0.044248499	-2.936300E+01
123	  0.044448901	-1.440000E-01	  0.044448901	-1.196490E+02	  0.044448901	5.540000E-01	  0.044448901	-2.906900E+01
124	  0.044649299	-1.470000E-01	  0.044649299	-1.201880E+02	  0.044649299	5.630000E-01	  0.044649299	-2.875500E+01
125	  0.044849701	-1.490000E-01	  0.044849701	-1.206900E+02	  0.044849701	5.680000E-01	  0.044849701	-2.846400E+01
126	  0.045050103	-1.480000E-01	  0.045050103	-1.211950E+02	  0.045050103	5.620000E-01	  0.045050103	-2.817300E+01
127	  0.045250501	-1.440000E-01	  0.045250501	-1.216660E+02	  0.045250501	5.460000E-01	  0.045250501	-2.790300E+01
128	  0.045450903	-1.430000E-01	  0.045450903	-1.221680E+02	  0.045450903	5.390000E-01	  0.045450903	-2.761600E+01
129	  0.045651305	-1.390000E-01	  0.045651305	-1.226660E+02	  0.045651305	5.210000E-01	  0.045651305	-2.733300E+01
130	  0.045851704	-1.370000E-01	  0.045851704	-1.231650E+02	  0.045851704	5.110000E-01	  0.045851704	-2.705200E+01
131	  0.046052106	-1.360000E-01	  0.046052106	-1.236570E+02	  0.046052106	5.050000E-01	  0.046052106	-2.677500E+01
132	  0.046252504	-1.320000E-01	  0.046252504	-1.241390E+02	  0.046252504	4.890000E-01	  0.046252504	-2.650500E+01
133	  0.046452906	-1.340000E-01	  0.046452906	-1.245900E+02	  0.046452906	4.930000E-01	  0.046452906	-2.625300E+01
134	  0.046653304	-1.380000E-01	  0.046653304	-1.250390E+02	  0.046653304	5.070000E-01	  0.046653304	-2.600400E+01
135	  0.046853706	-1.480000E-01	  0.046853706	-1.255200E+02	  0.046853706	5.410000E-01	  0.046853706	-2.573800E+01
136	  0.047054108	-1.570000E-01	  0.047054108	-1.260290E+02	  0.047054108	5.710000E-01	  0.047054108	-2.545700E+01
137	  0.047254506	-1.620000E-01	  0.047254506	-1.265660E+02	  0.047254506	5.870000E-01	  0.047254506	-2.516300E+01
138	  0.047454908	-1.600000E-01	  0.047454908	-1.270900E+02	  0.047454908	5.770000E-01	  0.047454908	-2.487600E+01
139	  0.047655310	-1.580000E-01	  0.047655310	-1.275990E+02	  0.047655310	5.680000E-01	  0.047655310	-2.460000E+01
140	  0.047855709	-1.500000E-01	  0.047855709	-1.280850E+02	  0.047855709	5.340000E-01	  0.047855709	-2.433800E+01
141	  0.048056111	-1.450000E-01	  0.048056111	-1.285400E+02	  0.048056111	5.150000E-01	  0.048056111	-2.409300E+01
142	  0.048256513	-1.430000E-01	  0.048256513	-1.289990E+02	  0.048256513	5.080000E-01	  0.048256513	-2.384600E+01
143	  0.048456915	-1.430000E-01	  0.048456915	-1.294460E+02	  0.048456915	5.060000E-01	  0.048456915	-2.360700E+01
144	  0.048657313	-1.420000E-01	  0.048657313	-1.298840E+02	  0.048657313	4.980000E-01	  0.048657313	-2.337400E+01
145	  0.048857715	-1.450000E-01	  0.048857715	-1.303360E+02	  0.048857715	5.090000E-01	  0.048857715	-2.313400E+01
146	  0.049058117	-1.510000E-01	  0.049058117	-1.307660E+02	  0.049058117	5.260000E-01	  0.049058117	-2.290700E+01
147	  0.049258515	-1.590000E-01	  0.049258515	-1.312160E+02	  0.049258515	5.520000E-01	  0.049258515	-2.266900E+01
148	  0.049458917	-1.640000E-01	  0.049458917	-1.316780E+02	  0.049458917	5.690000E-01	  0.049458917	-2.242700E+01
149	  0.049659319	-1.670000E-01	  0.049659319	-1.321680E+02	  0.049659319	5.770000E-01	  0.049659319	-2.217000E+01
150	  0.049859721	-1.710000E-01	  0.049859721	-1.326650E+02	  0.049859721	5.870000E-01	  0.049859721	-2.191100E+01
151	  0.050060119	-1.700000E-01	  0.050060119	-1.331360E+02	  0.050060119	5.820000E-01	  0.050060119	-2.166700E+01
152	  0.050260521	-1.720000E-01	  0.050260521	-1.336070E+02	  0.050260521	5.880000E-01	  0.050260521	-2.142300E+01
153	  0.050460923	-1.720000E-01	  0.050460923	-1.340740E+02	  0.050460923	5.870000E-01	  0.050460923	-2.118200E+01
154	  0.050661322	-1.720000E-01	  0.050661322	-1.345650E+02	  0.050661322	5.840000E-01	  0.050661322	-2.093000E+01
155	  0.050861724	-1.740000E-01	  0.050861724	-1.350750E+02	  0.050861724	5.880000E-01	  0.050861724	-2.066900E+01
156	  0.051062126	-1.710000E-01	  0.051062126	-1.355650E+02	  0.051062126	5.740000E-01	  0.051062126	-2.041900E+01
157	  0.051262524	-1.710000E-01	  0.051262524	-1.360530E+02	  0.051262524	5.730000E-01	  0.051262524	-2.017100E+01
158	  0.051462926	-1.680000E-01	  0.051462926	-1.365420E+02	  0.051462926	5.630000E-01	  0.051462926	-1.992400E+01
159	  0.051663328	-1.670000E-01	  0.051663328	-1.369840E+02	  0.051663328	5.580000E-01	  0.051663328	-1.970100E+01
160	  0.051863730	-1.720000E-01	  0.051863730	-1.374190E+02	  0.051863730	5.700000E-01	  0.051863730	-1.948200E+01
161	  0.052064128	-1.780000E-01	  0.052064128	-1.378820E+02	  0.052064128	5.900000E-01	  0.052064128	-1.924900E+01
162	  0.052264530	-1.840000E-01	  0.052264530	-1.383370E+02	  0.052264530	6.080000E-01	  0.052264530	-1.902200E+01
163	  0.052464932	-1.880000E-01	  0.052464932	-1.388500E+02	  0.052464932	6.190000E-01	  0.052464932	-1.876500E+01
164	  0.052665330	-1.880000E-01	  0.052665330	-1.393430E+02	  0.052665330	6.160000E-01	  0.052665330	-1.852100E+01
165	  0.052865732	-1.860000E-01	  0.052865732	-1.398450E+02	  0.052865732	6.060000E-01	  0.052865732	-1.827200E+01
166	  0.053066134	-1.810000E-01	  0.053066134	-1.403040E+02	  0.053066134	5.900000E-01	  0.053066134	-1.804600E+01
167	  0.053266536	-1.770000E-01	  0.053266536	-1.407660E+02	  0.053266536	5.760000E-01	  0.053266536	-1.781800E+01
168	  0.053466935	-1.740000E-01	  0.053466935	-1.412370E+02	  0.053466935	5.640000E-01	  0.053466935	-1.758700E+01
169	  0.053667337	-1.730000E-01	  0.053667337	-1.416820E+02	  0.053667337	5.590000E-01	  0.053667337	-1.736900E+01
170	  0.053867739	-1.700000E-01	  0.053867739	-1.421140E+02	  0.053867739	5.490000E-01	  0.053867739	-1.715800E+01
171	  0.054068137	-1.720000E-01	  0.054068137	-1.425400E+02	  0.054068137	5.530000E-01	  0.054068137	-1.695000E+01
172	  0.054268539	-1.770000E-01	  0.054268539	-1.429600E+02	  0.054268539	5.690000E-01	  0.054268539	-1.674600E+01
173	  0.054468941	-1.810000E-01	  0.054468941	-1.433930E+02	  0.054468941	5.790000E-01	  0.054468941	-1.653600E+01
174	  0.054669339	-1.850000E-01	  0.054669339	-1.438610E+02	  0.054669339	5.890000E-01	  0.054669339	-1.631000E+01
175	  0.054869737	-1.880000E-01	  0.054869737	-1.443200E+02	  0.054869737	5.970000E-01	  0.054869737	-1.608900E+01
176	  0.055070139	-1.870000E-01	  0.055070139	-1.447700E+02	  0.055070139	5.930000E-01	  0.055070139	-1.587300E+01
177	  0.055270538	-1.880000E-01	  0.055270538	-1.452240E+02	  0.055270538	5.960000E-01	  0.055270538	-1.565500E+01
178	  0.055470940	-1.900000E-01	  0.055470940	-1.456710E+02	  0.055470940	6.000000E-01	  0.055470940	-1.544100E+01
179	  0.055671342	-1.920000E-01	  0.055671342	-1.461220E+02	  0.055671342	6.060000E-01	  0.055671342	-1.522500E+01
180	  0.055871744	-1.970000E-01	  0.055871744	-1.465940E+02	  0.055871744	6.180000E-01	  0.055871744	-1.500100E+01
181	  0.056072142	-1.980000E-01	  0.056072142	-1.470710E+02	  0.056072142	6.220000E-01	  0.056072142	-1.477400E+01
182	  0.056272544	-1.970000E-01	  0.056272544	-1.475370E+02	  0.056272544	6.170000E-01	  0.056272544	-1.455400E+01
183	  0.056472946	-1.950000E-01	  0.056472946	-1.480280E+02	  0.056472946	6.090000E-01	  0.056472946	-1.432100E+01
184	  0.056673344	-1.960000E-01	  0.056673344	-1.484800E+02	  0.056673344	6.120000E-01	  0.056673344	-1.410800E+01
185	  0.056873746	-1.950000E-01	  0.056873746	-1.489340E+02	  0.056873746	6.060000E-01	  0.056873746	-1.389500E+01
186	  0.057074148	-1.970000E-01	  0.057074148	-1.493710E+02	  0.057074148	6.100000E-01	  0.057074148	-1.368900E+01
187	  0.057274550	-2.000000E-01	  0.057274550	-1.497980E+02	  0.057274550	6.190000E-01	  0.057274550	-1.348900E+01
188	  0.057474948	-2.040000E-01	  0.057474948	-1.502480E+02	  0.057474948	6.300000E-01	  0.057474948	-1.327900E+01
189	  0.057675350	-2.090000E-01	  0.057675350	-1.507160E+02	  0.057675350	6.420000E-01	  0.057675350	-1.306100E+01
190	  0.057875752	-2.090000E-01	  0.057875752	-1.511860E+02	  0.057875752	6.430000E-01	  0.057875752	-1.284100E+01
191	  0.058076151	-2.100000E-01	  0.058076151	-1.516430E+02	  0.058076151	6.450000E-01	  0.058076151	-1.262900E+01
192	  0.058276553	-2.080000E-01	  0.058276553	-1.521040E+02	  0.058276553	6.350000E-01	  0.058276553	-1.241600E+01
193	  0.058476955	-2.060000E-01	  0.058476955	-1.525500E+02	  0.058476955	6.290000E-01	  0.058476955	-1.220900E+01
194	  0.058677353	-2.030000E-01	  0.058677353	-1.530040E+02	  0.058677353	6.190000E-01	  0.058677353	-1.200000E+01
195	  0.058877755	-2.000000E-01	  0.058877755	-1.534410E+02	  0.058877755	6.080000E-01	  0.058877755	-1.179800E+01
196	  0.059078157	-1.980000E-01	  0.059078157	-1.538750E+02	  0.059078157	6.000000E-01	  0.059078157	-1.159900E+01
197	  0.059278559	-2.000000E-01	  0.059278559	-1.542890E+02	  0.059278559	6.060000E-01	  0.059278559	-1.140800E+01
198	  0.059478957	-2.050000E-01	  0.059478957	-1.547060E+02	  0.059478957	6.210000E-01	  0.059478957	-1.121700E+01
199	  0.059679359	-2.070000E-01	  0.059679359	-1.551310E+02	  0.059679359	6.270000E-01	  0.059679359	-1.102200E+01
200	  0.059879761	-2.110000E-01	  0.059879761	-1.555750E+02	  0.059879761	6.360000E-01	  0.059879761	-1.082000E+01
201	  0.060080159	-2.120000E-01	  0.060080159	-1.560140E+02	  0.060080159	6.380000E-01	  0.060080159	-1.061900E+01
202	  0.060280561	-2.120000E-01	  0.060280561	-1.564540E+02	  0.060280561	6.360000E-01	  0.060280561	-1.041900E+01
203	  0.060480963	-2.110000E-01	  0.060480963	-1.568840E+02	  0.060480963	6.350000E-01	  0.060480963	-1.022300E+01
204	  0.060681365	-2.140000E-01	  0.060681365	-1.573050E+02	  0.060681365	6.430000E-01	  0.060681365	-1.003200E+01
205	  0.060881764	-2.180000E-01	  0.060881764	-1.577480E+02	  0.060881764	6.530000E-01	  0.060881764	-9.831000E+00
206	  0.061082166	-2.210000E-01	  0.061082166	-1.581930E+02	  0.061082166	6.610000E-01	  0.061082166	-9.629000E+00
207	  0.061282568	-2.230000E-01	  0.061282568	-1.586640E+02	  0.061282568	6.660000E-01	  0.061282568	-9.417000E+00
208	  0.061482966	-2.240000E-01	  0.061482966	-1.591210E+02	  0.061482966	6.680000E-01	  0.061482966	-9.210000E+00
209	  0.061683368	-2.230000E-01	  0.061683368	-1.595830E+02	  0.061683368	6.620000E-01	  0.061683368	-9.002000E+00
210	  0.061883770	-2.250000E-01	  0.061883770	-1.600360E+02	  0.061883770	6.680000E-01	  0.061883770	-8.798000E+00
211	  0.062084168	-2.240000E-01	  0.062084168	-1.604890E+02	  0.062084168	6.650000E-01	  0.062084168	-8.594000E+00
212	  0.062284570	-2.260000E-01	  0.062284570	-1.609310E+02	  0.062284570	6.700000E-01	  0.062284570	-8.396000E+00
213	  0.062484972	-2.260000E-01	  0.062484972	-1.613610E+02	  0.062484972	6.700000E-01	  0.062484972	-8.203000E+00
214	  0.062685370	-2.280000E-01	  0.062685370	-1.617790E+02	  0.062685370	6.740000E-01	  0.062685370	-8.016000E+00
215	  0.062885776	-2.300000E-01	  0.062885776	-1.622240E+02	  0.062885776	6.790000E-01	  0.062885776	-7.817000E+00
216	  0.063086174	-2.330000E-01	  0.063086174	-1.626540E+02	  0.063086174	6.860000E-01	  0.063086174	-7.625000E+00
217	  0.063286573	-2.320000E-01	  0.063286573	-1.631290E+02	  0.063286573	6.840000E-01	  0.063286573	-7.413000E+00
218	  0.063486971	-2.330000E-01	  0.063486971	-1.635770E+02	  0.063486971	6.850000E-01	  0.063486971	-7.213000E+00
219	  0.063687377	-2.290000E-01	  0.063687377	-1.640300E+02	  0.063687377	6.740000E-01	  0.063687377	-7.012000E+00
220	  0.063887775	-2.280000E-01	  0.063887775	-1.644420E+02	  0.063887775	6.680000E-01	  0.063887775	-6.828000E+00
221	  0.064088173	-2.250000E-01	  0.064088173	-1.648490E+02	  0.064088173	6.600000E-01	  0.064088173	-6.648000E+00
222	  0.064288579	-2.250000E-01	  0.064288579	-1.652680E+02	  0.064288579	6.590000E-01	  0.064288579	-6.462000E+00
223	  0.064488977	-2.280000E-01	  0.064488977	-1.656730E+02	  0.064488977	6.680000E-01	  0.064488977	-6.282000E+00
224	  0.064689375	-2.250000E-01	  0.064689375	-1.660870E+02	  0.064689375	6.580000E-01	  0.064689375	-6.099000E+00
225	  0.064889781	-2.280000E-01	  0.064889781	-1.665050E+02	  0.064889781	6.670000E-01	  0.064889781	-5.914000E+00
226	  0.065090179	-2.300000E-01	  0.065090179	-1.669180E+02	  0.065090179	6.710000E-01	  0.065090179	-5.731000E+00
227	  0.065290578	-2.320000E-01	  0.065290578	-1.673380E+02	  0.065290578	6.780000E-01	  0.065290578	-5.546000E+00
228	  0.065490983	-2.320000E-01	  0.065490983	-1.677320E+02	  0.065490983	6.760000E-01	  0.065490983	-5.372000E+00
229	  0.065691382	-2.350000E-01	  0.065691382	-1.681270E+02	  0.065691382	6.850000E-01	  0.065691382	-5.198000E+00
230	  0.065891780	-2.380000E-01	  0.065891780	-1.685520E+02	  0.065891780	6.920000E-01	  0.065891780	-5.010000E+00
231	  0.066092186	-2.400000E-01	  0.066092186	-1.689590E+02	  0.066092186	6.970000E-01	  0.066092186	-4.831000E+00
232	  0.066292584	-2.400000E-01	  0.066292584	-1.693970E+02	  0.066292584	6.960000E-01	  0.066292584	-4.638000E+00
233	  0.066492982	-2.430000E-01	  0.066492982	-1.698310E+02	  0.066492982	7.070000E-01	  0.066492982	-4.447000E+00
234	  0.066693388	-2.450000E-01	  0.066693388	-1.702600E+02	  0.066693388	7.110000E-01	  0.066693388	-4.259000E+00
235	  0.066893786	-2.490000E-01	  0.066893786	-1.707160E+02	  0.066893786	7.220000E-01	  0.066893786	-4.058000E+00
236	  0.067094192	-2.490000E-01	  0.067094192	-1.711480E+02	  0.067094192	7.230000E-01	  0.067094192	-3.869000E+00
237	  0.067294590	-2.500000E-01	  0.067294590	-1.715970E+02	  0.067294590	7.230000E-01	  0.067294590	-3.672000E+00
238	  0.067494988	-2.520000E-01	  0.067494988	-1.720300E+02	  0.067494988	7.310000E-01	  0.067494988	-3.482000E+00
239	  0.067695394	-2.550000E-01	  0.067695394	-1.724600E+02	  0.067695394	7.390000E-01	  0.067695394	-3.293000E+00
240	  0.067895792	-2.520000E-01	  0.067895792	-1.728970E+02	  0.067895792	7.290000E-01	  0.067895792	-3.102000E+00
241	  0.068096191	-2.520000E-01	  0.068096191	-1.733250E+02	  0.068096191	7.280000E-01	  0.068096191	-2.914000E+00
242	  0.068296596	-2.580000E-01	  0.068296596	-1.737450E+02	  0.068296596	7.450000E-01	  0.068296596	-2.731000E+00
243	  0.068496995	-2.600000E-01	  0.068496995	-1.742010E+02	  0.068496995	7.500000E-01	  0.068496995	-2.531000E+00
244	  0.068697393	-2.590000E-01	  0.068697393	-1.746400E+02	  0.068697393	7.490000E-01	  0.068697393	-2.339000E+00
245	  0.068897791	-2.560000E-01	  0.068897791	-1.750840E+02	  0.068897791	7.400000E-01	  0.068897791	-2.145000E+00
246	  0.069098189	-2.530000E-01	  0.069098189	-1.754930E+02	  0.069098189	7.310000E-01	  0.069098189	-1.966000E+00
247	  0.069298595	-2.520000E-01	  0.069298595	-1.759110E+02	  0.069298595	7.260000E-01	  0.069298595	-1.784000E+00
248	  0.069498993	-2.540000E-01	  0.069498993	-1.763360E+02	  0.069498993	7.320000E-01	  0.069498993	-1.598000E+00
249	  0.069699399	-2.540000E-01	  0.069699399	-1.767560E+02	  0.069699399	7.330000E-01	  0.069699399	-1.415000E+00
250	  0.069899797	-2.530000E-01	  0.069899797	-1.771760E+02	  0.069899797	7.290000E-01	  0.069899797	-1.232000E+00
251	  0.070100196	-2.590000E-01	  0.070100196	-1.775700E+02	  0.070100196	7.470000E-01	  0.070100196	-1.059000E+00
252	  0.070300601	-2.580000E-01	  0.070300601	-1.779600E+02	  0.070300601	7.450000E-01	  0.070300601	-8.890000E-01
253	  0.070501000	-2.570000E-01	  0.070501000	-1.783750E+02	  0.070501000	7.400000E-01	  0.070501000	-7.080000E-01
254	  0.070701398	-2.580000E-01	  0.070701398	-1.787710E+02	  0.070701398	7.430000E-01	  0.070701398	-5.350000E-01
255	  0.070901804	-2.560000E-01	  0.070901804	-1.791390E+02	  0.070901804	7.370000E-01	  0.070901804	-3.750000E-01
256	  0.071102202	-2.570000E-01	  0.071102202	-1.795540E+02	  0.071102202	7.420000E-01	  0.071102202	-1.940000E-01
257	  0.071302600	-2.620000E-01	  0.071302600	-1.799730E+02	  0.071302600	7.550000E-01	  0.071302600	-1.100000E-02
258	  0.071503006	-2.590000E-01	  0.071503006	1.796370E+02	  0.071503006	7.480000E-01	  0.071503006	1.580000E-01
259	  0.071703404	-2.640000E-01	  0.071703404	1.792330E+02	  0.071703404	7.610000E-01	  0.071703404	3.340000E-01
260	  0.071903802	-2.650000E-01	  0.071903802	1.788220E+02	  0.071903802	7.630000E-01	  0.071903802	5.130000E-01
261	  0.072104208	-2.660000E-01	  0.072104208	1.783840E+02	  0.072104208	7.670000E-01	  0.072104208	7.040000E-01
262	  0.072304606	-2.700000E-01	  0.072304606	1.779700E+02	  0.072304606	7.780000E-01	  0.072304606	8.850000E-01
263	  0.072505005	-2.730000E-01	  0.072505005	1.775700E+02	  0.072505005	7.880000E-01	  0.072505005	1.059000E+00
264	  0.072705410	-2.730000E-01	  0.072705410	1.771560E+02	  0.072705410	7.880000E-01	  0.072705410	1.240000E+00
265	  0.072905809	-2.740000E-01	  0.072905809	1.767440E+02	  0.072905809	7.900000E-01	  0.072905809	1.420000E+00
266	  0.073106214	-2.740000E-01	  0.073106214	1.763310E+02	  0.073106214	7.890000E-01	  0.073106214	1.600000E+00
267	  0.073306613	-2.760000E-01	  0.073306613	1.759300E+02	  0.073306613	7.950000E-01	  0.073306613	1.776000E+00
268	  0.073507011	-2.780000E-01	  0.073507011	1.754880E+02	  0.073507011	8.010000E-01	  0.073507011	1.969000E+00
269	  0.073707417	-2.810000E-01	  0.073707417	1.750610E+02	  0.073707417	8.100000E-01	  0.073707417	2.155000E+00
270	  0.073907815	-2.780000E-01	  0.073907815	1.746490E+02	  0.073907815	8.040000E-01	  0.073907815	2.335000E+00
271	  0.074108213	-2.750000E-01	  0.074108213	1.742390E+02	  0.074108213	7.940000E-01	  0.074108213	2.515000E+00
272	  0.074308619	-2.770000E-01	  0.074308619	1.738180E+02	  0.074308619	8.000000E-01	  0.074308619	2.699000E+00
273	  0.074509017	-2.750000E-01	  0.074509017	1.734160E+02	  0.074509017	7.960000E-01	  0.074509017	2.874000E+00
274	  0.074709415	-2.740000E-01	  0.074709415	1.730110E+02	  0.074709415	7.930000E-01	  0.074709415	3.052000E+00
275	  0.074909821	-2.810000E-01	  0.074909821	1.725840E+02	  0.074909821	8.140000E-01	  0.074909821	3.239000E+00
276	  0.075110219	-2.820000E-01	  0.075110219	1.721730E+02	  0.075110219	8.160000E-01	  0.075110219	3.419000E+00
277	  0.075310618	-2.820000E-01	  0.075310618	1.717620E+02	  0.075310618	8.170000E-01	  0.075310618	3.599000E+00
278	  0.075511023	-2.800000E-01	  0.075511023	1.713530E+02	  0.075511023	8.130000E-01	  0.075511023	3.779000E+00
279	  0.075711422	-2.820000E-01	  0.075711422	1.709690E+02	  0.075711422	8.190000E-01	  0.075711422	3.947000E+00
280	  0.075911827	-2.830000E-01	  0.075911827	1.705850E+02	  0.075911827	8.220000E-01	  0.075911827	4.115000E+00
281	  0.076112226	-2.840000E-01	  0.076112226	1.701870E+02	  0.076112226	8.230000E-01	  0.076112226	4.290000E+00
282	  0.076312624	-2.820000E-01	  0.076312624	1.697810E+02	  0.076312624	8.180000E-01	  0.076312624	4.469000E+00
283	  0.076513030	-2.840000E-01	  0.076513030	1.693890E+02	  0.076513030	8.260000E-01	  0.076513030	4.641000E+00
284	  0.076713428	-2.820000E-01	  0.076713428	1.689920E+02	  0.076713428	8.200000E-01	  0.076713428	4.816000E+00
285	  0.076913826	-2.850000E-01	  0.076913826	1.685940E+02	  0.076913826	8.290000E-01	  0.076913826	4.991000E+00
286	  0.077114232	-2.840000E-01	  0.077114232	1.681930E+02	  0.077114232	8.260000E-01	  0.077114232	5.168000E+00
287	  0.077314630	-2.830000E-01	  0.077314630	1.678120E+02	  0.077314630	8.240000E-01	  0.077314630	5.336000E+00
288	  0.077515028	-2.860000E-01	  0.077515028	1.674110E+02	  0.077515028	8.330000E-01	  0.077515028	5.513000E+00
289	  0.077715434	-2.870000E-01	  0.077715434	1.670260E+02	  0.077715434	8.390000E-01	  0.077715434	5.683000E+00
290	  0.077915832	-2.880000E-01	  0.077915832	1.666460E+02	  0.077915832	8.420000E-01	  0.077915832	5.851000E+00
291	  0.078116231	-2.870000E-01	  0.078116231	1.662840E+02	  0.078116231	8.390000E-01	  0.078116231	6.011000E+00
292	  0.078316636	-2.910000E-01	  0.078316636	1.658860E+02	  0.078316636	8.510000E-01	  0.078316636	6.187000E+00
293	  0.078517035	-2.930000E-01	  0.078517035	1.654990E+02	  0.078517035	8.570000E-01	  0.078517035	6.359000E+00
294	  0.078717433	-2.940000E-01	  0.078717433	1.650900E+02	  0.078717433	8.620000E-01	  0.078717433	6.540000E+00
295	  0.078917839	-2.940000E-01	  0.078917839	1.646680E+02	  0.078917839	8.630000E-01	  0.078917839	6.727000E+00
296	  0.079118237	-2.960000E-01	  0.079118237	1.642800E+02	  0.079118237	8.690000E-01	  0.079118237	6.900000E+00
297	  0.079318643	-2.920000E-01	  0.079318643	1.639040E+02	  0.079318643	8.590000E-01	  0.079318643	7.067000E+00
298	  0.079519041	-2.920000E-01	  0.079519041	1.635120E+02	  0.079519041	8.580000E-01	  0.079519041	7.241000E+00
299	  0.079719439	-2.930000E-01	  0.079719439	1.631300E+02	  0.079719439	8.630000E-01	  0.079719439	7.412000E+00
300	  0.079919845	-2.930000E-01	  0.079919845	1.627120E+02	  0.079919845	8.630000E-01	  0.079919845	7.598000E+00
301	  0.080120243	-2.980000E-01	  0.080120243	1.623230E+02	  0.080120243	8.800000E-01	  0.080120243	7.772000E+00
302	  0.080320641	-3.020000E-01	  0.080320641	1.619090E+02	  0.080320641	8.930000E-01	  0.080320641	7.957000E+00
303	  0.080521047	-3.010000E-01	  0.080521047	1.615050E+02	  0.080521047	8.910000E-01	  0.080521047	8.138000E+00
304	  0.080721445	-3.050000E-01	  0.080721445	1.611110E+02	  0.080721445	9.040000E-01	  0.080721445	8.314000E+00
305	  0.080921844	-3.050000E-01	  0.080921844	1.607110E+02	  0.080921844	9.040000E-01	  0.080921844	8.493000E+00
306	  0.081122249	-3.050000E-01	  0.081122249	1.603240E+02	  0.081122249	9.060000E-01	  0.081122249	8.667000E+00
307	  0.081322648	-3.060000E-01	  0.081322648	1.599300E+02	  0.081322648	9.080000E-01	  0.081322648	8.844000E+00
308	  0.081523046	-3.040000E-01	  0.081523046	1.595230E+02	  0.081523046	9.060000E-01	  0.081523046	9.028000E+00
309	  0.081723452	-3.040000E-01	  0.081723452	1.591200E+02	  0.081723452	9.070000E-01	  0.081723452	9.209000E+00
310	  0.081923850	-3.030000E-01	  0.081923850	1.587150E+02	  0.081923850	9.050000E-01	  0.081923850	9.392000E+00
311	  0.082124248	-3.060000E-01	  0.082124248	1.583350E+02	  0.082124248	9.150000E-01	  0.082124248	9.564000E+00
312	  0.082324654	-3.050000E-01	  0.082324654	1.579300E+02	  0.082324654	9.120000E-01	  0.082324654	9.747000E+00
313	  0.082525052	-3.020000E-01	  0.082525052	1.575410E+02	  0.082525052	9.040000E-01	  0.082525052	9.923000E+00
314	  0.082725458	-3.030000E-01	  0.082725458	1.571440E+02	  0.082725458	9.080000E-01	  0.082725458	1.010300E+01
315	  0.082925856	-3.030000E-01	  0.082925856	1.567810E+02	  0.082925856	9.100000E-01	  0.082925856	1.026800E+01
316	  0.083126254	-3.040000E-01	  0.083126254	1.564190E+02	  0.083126254	9.130000E-01	  0.083126254	1.043300E+01
317	  0.083326660	-3.030000E-01	  0.083326660	1.560570E+02	  0.083326660	9.130000E-01	  0.083326660	1.059800E+01
318	  0.083527058	-3.060000E-01	  0.083527058	1.557090E+02	  0.083527058	9.220000E-01	  0.083527058	1.075700E+01
319	  0.083727457	-3.070000E-01	  0.083727457	1.553320E+02	  0.083727457	9.280000E-01	  0.083727457	1.092800E+01
320	  0.083927862	-3.080000E-01	  0.083927862	1.549210E+02	  0.083927862	9.300000E-01	  0.083927862	1.111700E+01
321	  0.084128261	-3.120000E-01	  0.084128261	1.545330E+02	  0.084128261	9.450000E-01	  0.084128261	1.129400E+01
322	  0.084328659	-3.080000E-01	  0.084328659	1.541560E+02	  0.084328659	9.330000E-01	  0.084328659	1.146700E+01
323	  0.084529065	-3.080000E-01	  0.084529065	1.538010E+02	  0.084529065	9.350000E-01	  0.084529065	1.163000E+01
324	  0.084729463	-3.080000E-01	  0.084729463	1.534360E+02	  0.084729463	9.380000E-01	  0.084729463	1.179800E+01
325	  0.084929861	-3.110000E-01	  0.084929861	1.530650E+02	  0.084929861	9.470000E-01	  0.084929861	1.196900E+01
326	  0.085130267	-3.120000E-01	  0.085130267	1.526900E+02	  0.085130267	9.510000E-01	  0.085130267	1.214200E+01
327	  0.085330658	-3.150000E-01	  0.085330658	1.523070E+02	  0.085330658	9.610000E-01	  0.085330658	1.231900E+01
328	  0.085531056	-3.180000E-01	  0.085531056	1.519080E+02	  0.085531056	9.730000E-01	  0.085531056	1.250400E+01
329	  0.085731462	-3.200000E-01	  0.085731462	1.515410E+02	  0.085731462	9.800000E-01	  0.085731462	1.267400E+01
330	  0.085931860	-3.250000E-01	  0.085931860	1.511670E+02	  0.085931860	9.970000E-01	  0.085931860	1.284800E+01
331	  0.086132258	-3.240000E-01	  0.086132258	1.507820E+02	  0.086132258	9.980000E-01	  0.086132258	1.302700E+01
332	  0.086332664	-3.290000E-01	  0.086332664	1.504060E+02	  0.086332664	1.013000E+00	  0.086332664	1.320200E+01
333	  0.086533062	-3.240000E-01	  0.086533062	1.500110E+02	  0.086533062	1.001000E+00	  0.086533062	1.338700E+01
334	  0.086733460	-3.250000E-01	  0.086733460	1.496050E+02	  0.086733460	1.007000E+00	  0.086733460	1.357700E+01
335	  0.086933866	-3.230000E-01	  0.086933866	1.492150E+02	  0.086933866	1.002000E+00	  0.086933866	1.376000E+01
336	  0.087134264	-3.230000E-01	  0.087134264	1.488250E+02	  0.087134264	1.004000E+00	  0.087134264	1.394300E+01
337	  0.087334670	-3.250000E-01	  0.087334670	1.484260E+02	  0.087334670	1.011000E+00	  0.087334670	1.413000E+01
338	  0.087535068	-3.260000E-01	  0.087535068	1.480520E+02	  0.087535068	1.015000E+00	  0.087535068	1.430600E+01
339	  0.087735467	-3.190000E-01	  0.087735467	1.476680E+02	  0.087735467	9.950000E-01	  0.087735467	1.448800E+01
340	  0.087935872	-3.180000E-01	  0.087935872	1.473100E+02	  0.087935872	9.930000E-01	  0.087935872	1.465800E+01
341	  0.088136271	-3.140000E-01	  0.088136271	1.469340E+02	  0.088136271	9.830000E-01	  0.088136271	1.483600E+01
342	  0.088336669	-3.130000E-01	  0.088336669	1.465820E+02	  0.088336669	9.830000E-01	  0.088336669	1.500300E+01
343	  0.088537075	-3.130000E-01	  0.088537075	1.462590E+02	  0.088537075	9.840000E-01	  0.088537075	1.515700E+01
344	  0.088737473	-3.140000E-01	  0.088737473	1.458930E+02	  0.088737473	9.890000E-01	  0.088737473	1.533200E+01
345	  0.088937871	-3.160000E-01	  0.088937871	1.455560E+02	  0.088937871	9.970000E-01	  0.088937871	1.549200E+01
346	  0.089138277	-3.160000E-01	  0.089138277	1.451780E+02	  0.089138277	1.000000E+00	  0.089138277	1.567300E+01
347	  0.089338675	-3.200000E-01	  0.089338675	1.447990E+02	  0.089338675	1.013000E+00	  0.089338675	1.585500E+01
348	  0.089539073	-3.150000E-01	  0.089539073	1.444140E+02	  0.089539073	1.002000E+00	  0.089539073	1.604000E+01
349	  0.089739479	-3.170000E-01	  0.089739479	1.440670E+02	  0.089739479	1.010000E+00	  0.089739479	1.620700E+01
350	  0.089939877	-3.180000E-01	  0.089939877	1.437210E+02	  0.089939877	1.015000E+00	  0.089939877	1.637400E+01
351	  0.090140276	-3.180000E-01	  0.090140276	1.433550E+02	  0.090140276	1.018000E+00	  0.090140276	1.655100E+01
352	  0.090340681	-3.240000E-01	  0.090340681	1.429890E+02	  0.090340681	1.037000E+00	  0.090340681	1.672800E+01
353	  0.090541080	-3.190000E-01	  0.090541080	1.426020E+02	  0.090541080	1.023000E+00	  0.090541080	1.691600E+01
354	  0.090741485	-3.220000E-01	  0.090741485	1.422320E+02	  0.090741485	1.037000E+00	  0.090741485	1.709600E+01
355	  0.090941884	-3.230000E-01	  0.090941884	1.418700E+02	  0.090941884	1.042000E+00	  0.090941884	1.727200E+01
356	  0.091142282	-3.320000E-01	  0.091142282	1.414960E+02	  0.091142282	1.073000E+00	  0.091142282	1.745500E+01
357	  0.091342688	-3.320000E-01	  0.091342688	1.411170E+02	  0.091342688	1.076000E+00	  0.091342688	1.764100E+01
358	  0.091543086	-3.360000E-01	  0.091543086	1.407510E+02	  0.091543086	1.092000E+00	  0.091543086	1.782000E+01
359	  0.091743484	-3.380000E-01	  0.091743484	1.403470E+02	  0.091743484	1.100000E+00	  0.091743484	1.801900E+01
360	  0.091943890	-3.350000E-01	  0.091943890	1.399550E+02	  0.091943890	1.093000E+00	  0.091943890	1.821200E+01
361	  0.092144288	-3.360000E-01	  0.092144288	1.395590E+02	  0.092144288	1.100000E+00	  0.092144288	1.840800E+01
362	  0.092344686	-3.350000E-01	  0.092344686	1.391490E+02	  0.092344686	1.099000E+00	  0.092344686	1.861200E+01
363	  0.092545092	-3.400000E-01	  0.092545092	1.387920E+02	  0.092545092	1.118000E+00	  0.092545092	1.878900E+01
364	  0.092745490	-3.340000E-01	  0.092745490	1.383950E+02	  0.092745490	1.101000E+00	  0.092745490	1.898700E+01
365	  0.092945889	-3.370000E-01	  0.092945889	1.380100E+02	  0.092945889	1.112000E+00	  0.092945889	1.917900E+01
366	  0.093146294	-3.310000E-01	  0.093146294	1.376270E+02	  0.093146294	1.097000E+00	  0.093146294	1.937100E+01
367	  0.093346693	-3.300000E-01	  0.093346693	1.372710E+02	  0.093346693	1.097000E+00	  0.093346693	1.955000E+01
368	  0.093547091	-3.250000E-01	  0.093547091	1.369380E+02	  0.093547091	1.083000E+00	  0.093547091	1.971800E+01
369	  0.093747497	-3.260000E-01	  0.093747497	1.365840E+02	  0.093747497	1.089000E+00	  0.093747497	1.989600E+01
370	  0.093947895	-3.250000E-01	  0.093947895	1.362470E+02	  0.093947895	1.087000E+00	  0.093947895	2.006700E+01
371	  0.094148301	-3.270000E-01	  0.094148301	1.358860E+02	  0.094148301	1.098000E+00	  0.094148301	2.025000E+01
372	  0.094348699	-3.260000E-01	  0.094348699	1.355330E+02	  0.094348699	1.095000E+00	  0.094348699	2.042900E+01
373	  0.094549097	-3.280000E-01	  0.094549097	1.351830E+02	  0.094549097	1.105000E+00	  0.094549097	2.060800E+01
374	  0.094749503	-3.280000E-01	  0.094749503	1.348200E+02	  0.094749503	1.109000E+00	  0.094749503	2.079300E+01
375	  0.094949901	-3.270000E-01	  0.094949901	1.344950E+02	  0.094949901	1.109000E+00	  0.094949901	2.096000E+01
376	  0.095150299	-3.290000E-01	  0.095150299	1.341290E+02	  0.095150299	1.119000E+00	  0.095150299	2.114700E+01
377	  0.095350705	-3.300000E-01	  0.095350705	1.337710E+02	  0.095350705	1.125000E+00	  0.095350705	2.133200E+01
378	  0.095551103	-3.290000E-01	  0.095551103	1.333940E+02	  0.095551103	1.124000E+00	  0.095551103	2.152700E+01
379	  0.095751502	-3.290000E-01	  0.095751502	1.330620E+02	  0.095751502	1.126000E+00	  0.095751502	2.169900E+01
380	  0.095951907	-3.280000E-01	  0.095951907	1.327120E+02	  0.095951907	1.126000E+00	  0.095951907	2.188000E+01
381	  0.096152306	-3.330000E-01	  0.096152306	1.323650E+02	  0.096152306	1.146000E+00	  0.096152306	2.206100E+01
382	  0.096352704	-3.340000E-01	  0.096352704	1.319840E+02	  0.096352704	1.154000E+00	  0.096352704	2.225900E+01
383	  0.096553110	-3.420000E-01	  0.096553110	1.316420E+02	  0.096553110	1.183000E+00	  0.096553110	2.243800E+01
384	  0.096753508	-3.440000E-01	  0.096753508	1.312830E+02	  0.096753508	1.195000E+00	  0.096753508	2.262600E+01
385	  0.096953906	-3.430000E-01	  0.096953906	1.308800E+02	  0.096953906	1.193000E+00	  0.096953906	2.283800E+01
386	  0.097154312	-3.440000E-01	  0.097154312	1.304910E+02	  0.097154312	1.202000E+00	  0.097154312	2.304400E+01
387	  0.097354710	-3.470000E-01	  0.097354710	1.300990E+02	  0.097354710	1.218000E+00	  0.097354710	2.325100E+01
388	  0.097555116	-3.490000E-01	  0.097555116	1.297300E+02	  0.097555116	1.225000E+00	  0.097555116	2.344700E+01
389	  0.097755514	-3.480000E-01	  0.097755514	1.293280E+02	  0.097755514	1.226000E+00	  0.097755514	2.366100E+01
390	  0.097955912	-3.500000E-01	  0.097955912	1.289460E+02	  0.097955912	1.237000E+00	  0.097955912	2.386500E+01
391	  0.098156318	-3.460000E-01	  0.098156318	1.285890E+02	  0.098156318	1.228000E+00	  0.098156318	2.405700E+01
392	  0.098356716	-3.450000E-01	  0.098356716	1.282150E+02	  0.098356716	1.229000E+00	  0.098356716	2.425800E+01
393	  0.098557115	-3.400000E-01	  0.098557115	1.278350E+02	  0.098557115	1.215000E+00	  0.098557115	2.446300E+01
394	  0.098757520	-3.410000E-01	  0.098757520	1.274970E+02	  0.098757520	1.223000E+00	  0.098757520	2.464600E+01
395	  0.098957919	-3.410000E-01	  0.098957919	1.271470E+02	  0.098957919	1.224000E+00	  0.098957919	2.483600E+01
396	  0.099158317	-3.410000E-01	  0.099158317	1.268140E+02	  0.099158317	1.229000E+00	  0.099158317	2.501800E+01
397	  0.099358723	-3.390000E-01	  0.099358723	1.264610E+02	  0.099358723	1.226000E+00	  0.099358723	2.521000E+01
398	  0.099559121	-3.390000E-01	  0.099559121	1.261130E+02	  0.099559121	1.229000E+00	  0.099559121	2.540100E+01
399	  0.099759519	-3.380000E-01	  0.099759519	1.257680E+02	  0.099759519	1.229000E+00	  0.099759519	2.559100E+01
400	  0.099959925	-3.330000E-01	  0.099959925	1.254380E+02	  0.099959925	1.215000E+00	  0.099959925	2.577300E+01
401	  0.100160323	-3.430000E-01	  0.100160323	1.251020E+02	  0.100160323	1.255000E+00	  0.100160323	2.595800E+01
402	  0.100360721	-3.430000E-01	  0.100360721	1.247390E+02	  0.100360721	1.257000E+00	  0.100360721	2.615900E+01
403	  0.100561127	-3.420000E-01	  0.100561127	1.244140E+02	  0.100561127	1.258000E+00	  0.100561127	2.634000E+01
404	  0.100761525	-3.440000E-01	  0.100761525	1.240700E+02	  0.100761525	1.270000E+00	  0.100761525	2.653200E+01
405	  0.100961931	-3.370000E-01	  0.100961931	1.236980E+02	  0.100961931	1.248000E+00	  0.100961931	2.674100E+01
406	  0.101162329	-3.430000E-01	  0.101162329	1.233490E+02	  0.101162329	1.273000E+00	  0.101162329	2.693700E+01
407	  0.101362728	-3.380000E-01	  0.101362728	1.230450E+02	  0.101362728	1.261000E+00	  0.101362728	2.710800E+01
408	  0.101563133	-3.440000E-01	  0.101563133	1.226730E+02	  0.101563133	1.288000E+00	  0.101563133	2.731800E+01
409	  0.101763532	-3.480000E-01	  0.101763532	1.223500E+02	  0.101763532	1.305000E+00	  0.101763532	2.750100E+01
410	  0.101963930	-3.430000E-01	  0.101963930	1.220100E+02	  0.101963930	1.291000E+00	  0.101963930	2.769500E+01
411	  0.102164336	-3.450000E-01	  0.102164336	1.216280E+02	  0.102164336	1.303000E+00	  0.102164336	2.791300E+01
412	  0.102364734	-3.520000E-01	  0.102364734	1.212680E+02	  0.102364734	1.336000E+00	  0.102364734	2.811900E+01
413	  0.102565132	-3.500000E-01	  0.102565132	1.209050E+02	  0.102565132	1.334000E+00	  0.102565132	2.832700E+01
414	  0.102765530	-3.560000E-01	  0.102765530	1.205430E+02	  0.102765530	1.359000E+00	  0.102765530	2.853600E+01
415	  0.102965929	-3.540000E-01	  0.102965929	1.201840E+02	  0.102965929	1.356000E+00	  0.102965929	2.874400E+01
416	  0.103166327	-3.560000E-01	  0.103166327	1.198130E+02	  0.103166327	1.371000E+00	  0.103166327	2.896000E+01
417	  0.103366733	-3.570000E-01	  0.103366733	1.194640E+02	  0.103366733	1.380000E+00	  0.103366733	2.916300E+01
418	  0.103567131	-3.500000E-01	  0.103567131	1.190610E+02	  0.103567131	1.359000E+00	  0.103567131	2.940000E+01
419	  0.103767529	-3.510000E-01	  0.103767529	1.187150E+02	  0.103767529	1.367000E+00	  0.103767529	2.960300E+01
420	  0.103967935	-3.570000E-01	  0.103967935	1.184010E+02	  0.103967935	1.393000E+00	  0.103967935	2.978800E+01
421	  0.104168333	-3.530000E-01	  0.104168333	1.180750E+02	  0.104168333	1.383000E+00	  0.104168333	2.998100E+01
422	  0.104368731	-3.610000E-01	  0.104368731	1.177060E+02	  0.104368731	1.418000E+00	  0.104368731	3.019900E+01
423	  0.104569137	-3.510000E-01	  0.104569137	1.173730E+02	  0.104569137	1.383000E+00	  0.104569137	3.039900E+01
424	  0.104769535	-3.580000E-01	  0.104769535	1.170580E+02	  0.104769535	1.418000E+00	  0.104769535	3.058700E+01
425	  0.104969934	-3.520000E-01	  0.104969934	1.167040E+02	  0.104969934	1.400000E+00	  0.104969934	3.080000E+01
426	  0.105170339	-3.640000E-01	  0.105170339	1.163930E+02	  0.105170339	1.450000E+00	  0.105170339	3.098600E+01
427	  0.105370738	-3.540000E-01	  0.105370738	1.160780E+02	  0.105370738	1.418000E+00	  0.105370738	3.117700E+01
428	  0.105571143	-3.650000E-01	  0.105571143	1.157560E+02	  0.105571143	1.465000E+00	  0.105571143	3.137100E+01
429	  0.105771542	-3.590000E-01	  0.105771542	1.154040E+02	  0.105771542	1.449000E+00	  0.105771542	3.158600E+01
430	  0.105971940	-3.640000E-01	  0.105971940	1.150310E+02	  0.105971940	1.475000E+00	  0.105971940	3.181400E+01
431	  0.106172346	-3.530000E-01	  0.106172346	1.147000E+02	  0.106172346	1.433000E+00	  0.106172346	3.201900E+01
432	  0.106372744	-3.610000E-01	  0.106372744	1.143410E+02	  0.106372744	1.475000E+00	  0.106372744	3.223900E+01
433	  0.106573142	-3.630000E-01	  0.106573142	1.140300E+02	  0.106573142	1.485000E+00	  0.106573142	3.243100E+01
434	  0.106773548	-3.590000E-01	  0.106773548	1.136780E+02	  0.106773548	1.477000E+00	  0.106773548	3.265000E+01
435	  0.106973946	-3.670000E-01	  0.106973946	1.133580E+02	  0.106973946	1.513000E+00	  0.106973946	3.284800E+01
436	  0.107174344	-3.610000E-01	  0.107174344	1.129710E+02	  0.107174344	1.497000E+00	  0.107174344	3.309100E+01
437	  0.107374750	-3.590000E-01	  0.107374750	1.126780E+02	  0.107374750	1.494000E+00	  0.107374750	3.327500E+01
438	  0.107575148	-3.590000E-01	  0.107575148	1.123000E+02	  0.107575148	1.499000E+00	  0.107575148	3.351400E+01
439	  0.107775547	-3.550000E-01	  0.107775547	1.119710E+02	  0.107775547	1.487000E+00	  0.107775547	3.372200E+01
440	  0.107975952	-3.560000E-01	  0.107975952	1.116200E+02	  0.107975952	1.498000E+00	  0.107975952	3.394500E+01
441	  0.108176351	-3.550000E-01	  0.108176351	1.112920E+02	  0.108176351	1.499000E+00	  0.108176351	3.415500E+01
442	  0.108376749	-3.540000E-01	  0.108376749	1.109420E+02	  0.108376749	1.501000E+00	  0.108376749	3.437900E+01
443	  0.108577155	-3.530000E-01	  0.108577155	1.106250E+02	  0.108577155	1.504000E+00	  0.108577155	3.458300E+01
444	  0.108777553	-3.480000E-01	  0.108777553	1.102660E+02	  0.108777553	1.491000E+00	  0.108777553	3.481600E+01
445	  0.108977959	-3.430000E-01	  0.108977959	1.099110E+02	  0.108977959	1.475000E+00	  0.108977959	3.504700E+01
446	  0.109178357	-3.490000E-01	  0.109178357	1.095990E+02	  0.109178357	1.504000E+00	  0.109178357	3.525000E+01
447	  0.109378755	-3.470000E-01	  0.109378755	1.092880E+02	  0.109378755	1.501000E+00	  0.109378755	3.545300E+01
448	  0.109579161	-3.470000E-01	  0.109579161	1.089380E+02	  0.109579161	1.508000E+00	  0.109579161	3.568300E+01
449	  0.109779559	-3.460000E-01	  0.109779559	1.086000E+02	  0.109779559	1.513000E+00	  0.109779559	3.590600E+01
450	  0.109979957	-3.400000E-01	  0.109979957	1.083380E+02	  0.109979957	1.492000E+00	  0.109979957	3.608100E+01
451	  0.110180363	-3.400000E-01	  0.110180363	1.079950E+02	  0.110180363	1.496000E+00	  0.110180363	3.630800E+01
452	  0.110380761	-3.470000E-01	  0.110380761	1.076880E+02	  0.110380761	1.534000E+00	  0.110380761	3.651200E+01
453	  0.110581160	-3.450000E-01	  0.110581160	1.073710E+02	  0.110581160	1.532000E+00	  0.110581160	3.672500E+01
454	  0.110781565	-3.530000E-01	  0.110781565	1.070340E+02	  0.110781565	1.574000E+00	  0.110781565	3.695000E+01
455	  0.110981964	-3.550000E-01	  0.110981964	1.066950E+02	  0.110981964	1.587000E+00	  0.110981964	3.717900E+01
456	  0.111182362	-3.540000E-01	  0.111182362	1.063840E+02	  0.111182362	1.592000E+00	  0.111182362	3.739000E+01
457	  0.111382768	-3.540000E-01	  0.111382768	1.060220E+02	  0.111382768	1.599000E+00	  0.111382768	3.763700E+01
458	  0.111583166	-3.510000E-01	  0.111583166	1.056760E+02	  0.111583166	1.593000E+00	  0.111583166	3.787500E+01
459	  0.111783572	-3.550000E-01	  0.111783572	1.053910E+02	  0.111783572	1.618000E+00	  0.111783572	3.807000E+01
460	  0.111983970	-3.590000E-01	  0.111983970	1.050170E+02	  0.111983970	1.642000E+00	  0.111983970	3.832800E+01
461	  0.112184368	-3.630000E-01	  0.112184368	1.046810E+02	  0.112184368	1.668000E+00	  0.112184368	3.856000E+01
462	  0.112384774	-3.580000E-01	  0.112384774	1.043250E+02	  0.112384774	1.654000E+00	  0.112384774	3.880900E+01
463	  0.112585172	-3.550000E-01	  0.112585172	1.040180E+02	  0.112585172	1.647000E+00	  0.112585172	3.902500E+01
464	  0.112785570	-3.570000E-01	  0.112785570	1.036490E+02	  0.112785570	1.665000E+00	  0.112785570	3.928400E+01
465	  0.112985976	-3.550000E-01	  0.112985976	1.033160E+02	  0.112985976	1.663000E+00	  0.112985976	3.952000E+01
466	  0.113186374	-3.570000E-01	  0.113186374	1.029330E+02	  0.113186374	1.678000E+00	  0.113186374	3.979100E+01
467	  0.113386773	-3.490000E-01	  0.113386773	1.026240E+02	  0.113386773	1.648000E+00	  0.113386773	4.001300E+01
468	  0.113587178	-3.510000E-01	  0.113587178	1.022630E+02	  0.113587178	1.667000E+00	  0.113587178	4.027200E+01
469	  0.113787577	-3.490000E-01	  0.113787577	1.019500E+02	  0.113787577	1.666000E+00	  0.113787577	4.049700E+01
470	  0.113987975	-3.460000E-01	  0.113987975	1.016030E+02	  0.113987975	1.659000E+00	  0.113987975	4.074900E+01
471	  0.114188381	-3.480000E-01	  0.114188381	1.013100E+02	  0.114188381	1.676000E+00	  0.114188381	4.096200E+01
472	  0.114388779	-3.450000E-01	  0.114388779	1.009240E+02	  0.114388779	1.671000E+00	  0.114388779	4.124500E+01
473	  0.114589177	-3.450000E-01	  0.114589177	1.005860E+02	  0.114589177	1.678000E+00	  0.114589177	4.149300E+01
474	  0.114789583	-3.450000E-01	  0.114789583	1.002530E+02	  0.114789583	1.687000E+00	  0.114789583	4.173800E+01
475	  0.114989981	-3.380000E-01	  0.114989981	9.995300E+01	  0.114989981	1.659000E+00	  0.114989981	4.196200E+01
476	  0.115190387	-3.360000E-01	  0.115190387	9.962300E+01	  0.115190387	1.658000E+00	  0.115190387	4.220800E+01
477	  0.115390785	-3.360000E-01	  0.115390785	9.931200E+01	  0.115390785	1.667000E+00	  0.115390785	4.244100E+01
478	  0.115591183	-3.390000E-01	  0.115591183	9.901400E+01	  0.115591183	1.690000E+00	  0.115591183	4.266500E+01
479	  0.115791589	-3.330000E-01	  0.115791589	9.869400E+01	  0.115791589	1.665000E+00	  0.115791589	4.290700E+01
480	  0.115991987	-3.430000E-01	  0.115991987	9.838300E+01	  0.115991987	1.724000E+00	  0.115991987	4.314100E+01
481	  0.116192386	-3.420000E-01	  0.116192386	9.803600E+01	  0.116192386	1.727000E+00	  0.116192386	4.340600E+01
482	  0.116392791	-3.420000E-01	  0.116392791	9.773600E+01	  0.116392791	1.737000E+00	  0.116392791	4.363600E+01
483	  0.116593190	-3.410000E-01	  0.116593190	9.739100E+01	  0.116593190	1.738000E+00	  0.116593190	4.390200E+01
484	  0.116793588	-3.440000E-01	  0.116793588	9.713000E+01	  0.116793588	1.763000E+00	  0.116793588	4.410400E+01
485	  0.116993994	-3.450000E-01	  0.116993994	9.674900E+01	  0.116993994	1.780000E+00	  0.116993994	4.439900E+01
486	  0.117194392	-3.510000E-01	  0.117194392	9.643800E+01	  0.117194392	1.818000E+00	  0.117194392	4.464200E+01
487	  0.117394790	-3.570000E-01	  0.117394790	9.609800E+01	  0.117394790	1.859000E+00	  0.117394790	4.490800E+01
488	  0.117595196	-3.500000E-01	  0.117595196	9.578700E+01	  0.117595196	1.831000E+00	  0.117595196	4.515500E+01
489	  0.117795594	-3.540000E-01	  0.117795594	9.543200E+01	  0.117795594	1.862000E+00	  0.117795594	4.543500E+01
490	  0.117995992	-3.540000E-01	  0.117995992	9.510500E+01	  0.117995992	1.873000E+00	  0.117995992	4.569700E+01
491	  0.118196398	-3.530000E-01	  0.118196398	9.477000E+01	  0.118196398	1.878000E+00	  0.118196398	4.596500E+01
492	  0.118396796	-3.560000E-01	  0.118396796	9.444800E+01	  0.118396796	1.901000E+00	  0.118396796	4.622500E+01
493	  0.118597202	-3.560000E-01	  0.118597202	9.412500E+01	  0.118597202	1.912000E+00	  0.118597202	4.648700E+01
494	  0.118797600	-3.560000E-01	  0.118797600	9.380700E+01	  0.118797600	1.923000E+00	  0.118797600	4.674600E+01
495	  0.118997999	-3.480000E-01	  0.118997999	9.345800E+01	  0.118997999	1.891000E+00	  0.118997999	4.703400E+01
496	  0.119198404	-3.540000E-01	  0.119198404	9.313300E+01	  0.119198404	1.936000E+00	  0.119198404	4.729900E+01
497	  0.119398803	-3.520000E-01	  0.119398803	9.281100E+01	  0.119398803	1.931000E+00	  0.119398803	4.756700E+01
498	  0.119599201	-3.510000E-01	  0.119599201	9.247900E+01	  0.119599201	1.939000E+00	  0.119599201	4.784300E+01
499	  0.119799607	-3.510000E-01	  0.119799607	9.217200E+01	  0.119799607	1.949000E+00	  0.119799607	4.810000E+01
500	  0.120000005	-3.480000E-01	  0.120000005	9.184000E+01	  0.120000005	1.942000E+00	  0.120000005	4.838100E+01
