! Anritsu VNA Master:             	Model: MS2036C/10/77
! SN:             	1601066
! /bd0/18may26.balun/4a.47.2.txt
! Existing Calibration Information:
! TYPE:             	Current Settings	Active Cal Settings
! TIME:             	05/26/2018 03:17:59 PM	05/26/2018 02:51:55 PM
! INTERNAL TEMP:    	59.5 C	59.5 C
! # POINTS:         	500	500
! START FREQ:       	20.000 MHz	20.000 MHz
! STOP FREQ:        	120.000 MHz	120.000 MHz
! SOURCE POWER:     	High	High
! IFBW:             	50 Hz	50 Hz
! AVG FACTOR:       	  1 	  1 
! REF PLANE 1:      	0 mm	0 mm
! REF PLANE 2:      	0 mm	0 mm
! CAL TYPE:         	Full S11	Full S11
! CAL METHOD:       	SOLT	SOLT
! CAL LINE TYPE:    	Coax	Coax
! DUT PORT 1:       	K-Conn(M)	K-Conn(M)
! DUT PORT 2:       	K-Conn(M)	K-Conn(M)
! CAL STATUS:       	OK: Accuracy High	--
! PROP-V:       	0.700
! CABLE LOSS:       	0.000 dB/m
! REF IMPEDANCE:       	50.0
! Trace Specific Parameters:	TR1	TR2	TR3	TR4
! TRACE.#.Y (GRAPH TYPE)	LOG MAG	PHASE	REAL IMPEDANCE	IMAGINARY IMPEDANCE
! TRACE.#.X 	FREQ.GHZ	FREQ.GHZ	FREQ.GHZ	FREQ.GHZ
! S-PARAMETER	S11	S11	S11	S11
! SMOOTH/APERTURE %	0	0	0	0
! WINDOW	NSL	NSL	NSL	NSL
! GATING	OFF	OFF	OFF	OFF
! FGTD	OFF	OFF	OFF	OFF
Marker Information per Trace:	TR1	TR2	TR3	TR4
!MK1	--	--	--	--
!MK2	--	--	--	--
!MK3	--	--	--	--
!MK4	--	--	--	--
!MK5	--	--	--	--
!MK6	--	--	--	--
!MK7	--	--	--	--
!MK8	--	--	--	--
PNT	TR1.FREQ.GHZ	TR1.LOG MAG.dB	TR2.FREQ.GHZ	TR2.PHASE.deg	TR3.FREQ.GHZ	TR3.REAL IMPEDANCE.ohm	TR4.FREQ.GHZ	TR4.IMAGINARY IMPEDANCE.ohm
1	  0.020000000	-4.200000E-02	  0.020000000	-5.611600E+01	  0.020000000	5.460000E-01	  0.020000000	-9.380300E+01
2	  0.020200402	-3.700000E-02	  0.020200402	-5.668700E+01	  0.020200402	4.820000E-01	  0.020200402	-9.268800E+01
3	  0.020400802	-3.400000E-02	  0.020400802	-5.721800E+01	  0.020400802	4.280000E-01	  0.020400802	-9.166900E+01
4	  0.020601204	-3.400000E-02	  0.020601204	-5.774900E+01	  0.020601204	4.300000E-01	  0.020601204	-9.066800E+01
5	  0.020801604	-3.200000E-02	  0.020801604	-5.829300E+01	  0.020801604	3.950000E-01	  0.020801604	-8.965800E+01
6	  0.021002004	-3.000000E-02	  0.021002004	-5.885300E+01	  0.021002004	3.670000E-01	  0.021002004	-8.863800E+01
7	  0.021202406	-3.300000E-02	  0.021202406	-5.939800E+01	  0.021202406	3.980000E-01	  0.021202406	-8.766000E+01
8	  0.021402806	-3.200000E-02	  0.021402806	-5.994000E+01	  0.021402806	3.790000E-01	  0.021402806	-8.670500E+01
9	  0.021603208	-3.600000E-02	  0.021603208	-6.046800E+01	  0.021603208	4.090000E-01	  0.021603208	-8.578800E+01
10	  0.021803608	-4.000000E-02	  0.021803608	-6.099600E+01	  0.021803608	4.520000E-01	  0.021803608	-8.488700E+01
11	  0.022004008	-4.200000E-02	  0.022004008	-6.150400E+01	  0.022004008	4.720000E-01	  0.022004008	-8.403300E+01
12	  0.022204408	-4.400000E-02	  0.022204408	-6.205600E+01	  0.022204408	4.810000E-01	  0.022204408	-8.311800E+01
13	  0.022404809	-4.600000E-02	  0.022404809	-6.261600E+01	  0.022404809	4.920000E-01	  0.022404809	-8.220700E+01
14	  0.022605211	-4.800000E-02	  0.022605211	-6.317700E+01	  0.022605211	5.120000E-01	  0.022605211	-8.130600E+01
15	  0.022805611	-4.900000E-02	  0.022805611	-6.373600E+01	  0.022805611	5.120000E-01	  0.022805611	-8.042500E+01
16	  0.023006011	-4.100000E-02	  0.023006011	-6.428600E+01	  0.023006011	4.200000E-01	  0.023006011	-7.957100E+01
17	  0.023206413	-3.300000E-02	  0.023206413	-6.486200E+01	  0.023206413	3.380000E-01	  0.023206413	-7.869100E+01
18	  0.023406813	-2.500000E-02	  0.023406813	-6.542700E+01	  0.023406813	2.470000E-01	  0.023406813	-7.784100E+01
19	  0.023607215	-2.400000E-02	  0.023607215	-6.598100E+01	  0.023607215	2.330000E-01	  0.023607215	-7.701900E+01
20	  0.023807615	-2.100000E-02	  0.023807615	-6.651300E+01	  0.023807615	2.090000E-01	  0.023807615	-7.624300E+01
21	  0.024008015	-2.600000E-02	  0.024008015	-6.700900E+01	  0.024008015	2.540000E-01	  0.024008015	-7.552800E+01
22	  0.024208417	-3.100000E-02	  0.024208417	-6.750700E+01	  0.024208417	2.970000E-01	  0.024208417	-7.481800E+01
23	  0.024408817	-3.700000E-02	  0.024408817	-6.797200E+01	  0.024408817	3.420000E-01	  0.024408817	-7.416500E+01
24	  0.024609219	-4.200000E-02	  0.024609219	-6.847400E+01	  0.024609219	3.860000E-01	  0.024609219	-7.346800E+01
25	  0.024809619	-4.800000E-02	  0.024809619	-6.900200E+01	  0.024809619	4.360000E-01	  0.024809619	-7.274500E+01
26	  0.025010020	-5.100000E-02	  0.025010020	-6.956200E+01	  0.025010020	4.530000E-01	  0.025010020	-7.198800E+01
27	  0.025210422	-5.500000E-02	  0.025210422	-7.014200E+01	  0.025210422	4.810000E-01	  0.025210422	-7.121600E+01
28	  0.025410822	-5.700000E-02	  0.025410822	-7.071100E+01	  0.025410822	4.920000E-01	  0.025410822	-7.046900E+01
29	  0.025611224	-5.700000E-02	  0.025611224	-7.128500E+01	  0.025611224	4.840000E-01	  0.025611224	-6.972700E+01
30	  0.025811624	-5.900000E-02	  0.025811624	-7.185200E+01	  0.025811624	4.940000E-01	  0.025811624	-6.900300E+01
31	  0.026012026	-5.600000E-02	  0.026012026	-7.241000E+01	  0.026012026	4.660000E-01	  0.026012026	-6.830100E+01
32	  0.026212426	-5.300000E-02	  0.026212426	-7.297200E+01	  0.026212426	4.350000E-01	  0.026212426	-6.760300E+01
33	  0.026412826	-4.900000E-02	  0.026412826	-7.350500E+01	  0.026412826	4.010000E-01	  0.026412826	-6.694900E+01
34	  0.026613226	-5.300000E-02	  0.026613226	-7.403000E+01	  0.026613226	4.220000E-01	  0.026613226	-6.631300E+01
35	  0.026813626	-5.600000E-02	  0.026813626	-7.452100E+01	  0.026813626	4.410000E-01	  0.026813626	-6.572500E+01
36	  0.027014028	-6.100000E-02	  0.027014028	-7.499000E+01	  0.027014028	4.750000E-01	  0.027014028	-6.517000E+01
37	  0.027214428	-6.800000E-02	  0.027214428	-7.547800E+01	  0.027214428	5.270000E-01	  0.027214428	-6.459800E+01
38	  0.027414829	-7.900000E-02	  0.027414829	-7.601800E+01	  0.027414829	6.010000E-01	  0.027414829	-6.397100E+01
39	  0.027615231	-8.500000E-02	  0.027615231	-7.659500E+01	  0.027615231	6.370000E-01	  0.027615231	-6.331200E+01
40	  0.027815631	-8.900000E-02	  0.027815631	-7.719300E+01	  0.027815631	6.630000E-01	  0.027815631	-6.263700E+01
41	  0.028016033	-8.900000E-02	  0.028016033	-7.779900E+01	  0.028016033	6.500000E-01	  0.028016033	-6.196200E+01
42	  0.028216433	-8.100000E-02	  0.028216433	-7.842400E+01	  0.028216433	5.900000E-01	  0.028216433	-6.127500E+01
43	  0.028416833	-7.400000E-02	  0.028416833	-7.903200E+01	  0.028416833	5.310000E-01	  0.028416833	-6.061700E+01
44	  0.028617235	-6.400000E-02	  0.028617235	-7.961900E+01	  0.028617235	4.500000E-01	  0.028617235	-5.998900E+01
45	  0.028817635	-5.600000E-02	  0.028817635	-8.018000E+01	  0.028817635	3.880000E-01	  0.028817635	-5.939500E+01
46	  0.029018037	-4.300000E-02	  0.029018037	-8.069800E+01	  0.029018037	3.010000E-01	  0.029018037	-5.885400E+01
47	  0.029218437	-3.400000E-02	  0.029218437	-8.115800E+01	  0.029218437	2.340000E-01	  0.029218437	-5.837800E+01
48	  0.029418837	-2.900000E-02	  0.029418837	-8.159000E+01	  0.029418837	1.950000E-01	  0.029418837	-5.793500E+01
49	  0.029619239	-2.500000E-02	  0.029619239	-8.202700E+01	  0.029619239	1.670000E-01	  0.029619239	-5.749000E+01
50	  0.029819639	-2.500000E-02	  0.029819639	-8.246000E+01	  0.029819639	1.710000E-01	  0.029819639	-5.705300E+01
51	  0.030020041	-2.800000E-02	  0.030020041	-8.292700E+01	  0.030020041	1.890000E-01	  0.030020041	-5.658600E+01
52	  0.030220442	-3.600000E-02	  0.030220442	-8.340900E+01	  0.030220442	2.390000E-01	  0.030220442	-5.610800E+01
53	  0.030420844	-4.800000E-02	  0.030420844	-8.393500E+01	  0.030420844	3.110000E-01	  0.030420844	-5.559200E+01
54	  0.030621244	-5.800000E-02	  0.030621244	-8.447400E+01	  0.030621244	3.700000E-01	  0.030621244	-5.506900E+01
55	  0.030821644	-6.200000E-02	  0.030821644	-8.502700E+01	  0.030821644	3.920000E-01	  0.030821644	-5.453700E+01
56	  0.031022044	-6.600000E-02	  0.031022044	-8.557600E+01	  0.031022044	4.120000E-01	  0.031022044	-5.401500E+01
57	  0.031222444	-6.600000E-02	  0.031222444	-8.611100E+01	  0.031222444	4.100000E-01	  0.031222444	-5.351200E+01
58	  0.031422846	-6.900000E-02	  0.031422846	-8.665700E+01	  0.031422846	4.220000E-01	  0.031422846	-5.300300E+01
59	  0.031623244	-7.000000E-02	  0.031623244	-8.718700E+01	  0.031623244	4.290000E-01	  0.031623244	-5.251400E+01
60	  0.031823646	-7.000000E-02	  0.031823646	-8.772000E+01	  0.031823646	4.220000E-01	  0.031823646	-5.202800E+01
61	  0.032024048	-6.600000E-02	  0.032024048	-8.820700E+01	  0.032024048	3.970000E-01	  0.032024048	-5.158700E+01
62	  0.032224450	-6.800000E-02	  0.032224450	-8.866500E+01	  0.032224450	4.000000E-01	  0.032224450	-5.117700E+01
63	  0.032424849	-7.200000E-02	  0.032424849	-8.913600E+01	  0.032424849	4.260000E-01	  0.032424849	-5.075700E+01
64	  0.032625251	-8.100000E-02	  0.032625251	-8.963100E+01	  0.032625251	4.730000E-01	  0.032625251	-5.032000E+01
65	  0.032825653	-9.000000E-02	  0.032825653	-9.012400E+01	  0.032825653	5.190000E-01	  0.032825653	-4.988800E+01
66	  0.033026051	-9.900000E-02	  0.033026051	-9.067000E+01	  0.033026051	5.680000E-01	  0.033026051	-4.941400E+01
67	  0.033226453	-1.030000E-01	  0.033226453	-9.122800E+01	  0.033226453	5.840000E-01	  0.033226453	-4.893600E+01
68	  0.033426855	-1.110000E-01	  0.033426855	-9.181400E+01	  0.033426855	6.200000E-01	  0.033426855	-4.843700E+01
69	  0.033627257	-1.120000E-01	  0.033627257	-9.239600E+01	  0.033627257	6.200000E-01	  0.033627257	-4.794700E+01
70	  0.033827655	-1.130000E-01	  0.033827655	-9.302100E+01	  0.033827655	6.200000E-01	  0.033827655	-4.742600E+01
71	  0.034028057	-1.110000E-01	  0.034028057	-9.359800E+01	  0.034028057	6.060000E-01	  0.034028057	-4.695000E+01
72	  0.034228459	-1.050000E-01	  0.034228459	-9.417700E+01	  0.034228459	5.650000E-01	  0.034228459	-4.647800E+01
73	  0.034428857	-9.400000E-02	  0.034428857	-9.473700E+01	  0.034428857	5.020000E-01	  0.034428857	-4.602400E+01
74	  0.034629259	-8.300000E-02	  0.034629259	-9.524000E+01	  0.034629259	4.410000E-01	  0.034629259	-4.562100E+01
75	  0.034829661	-7.200000E-02	  0.034829661	-9.574400E+01	  0.034829661	3.800000E-01	  0.034829661	-4.522100E+01
76	  0.035030060	-6.600000E-02	  0.035030060	-9.622300E+01	  0.035030060	3.450000E-01	  0.035030060	-4.484200E+01
77	  0.035230462	-6.000000E-02	  0.035230462	-9.667700E+01	  0.035230462	3.110000E-01	  0.035230462	-4.448600E+01
78	  0.035430863	-6.100000E-02	  0.035430863	-9.711500E+01	  0.035430863	3.130000E-01	  0.035430863	-4.414500E+01
79	  0.035631265	-6.600000E-02	  0.035631265	-9.755500E+01	  0.035631265	3.370000E-01	  0.035631265	-4.380400E+01
80	  0.035831664	-7.200000E-02	  0.035831664	-9.802400E+01	  0.035831664	3.670000E-01	  0.035831664	-4.344400E+01
81	  0.036032066	-8.100000E-02	  0.036032066	-9.853900E+01	  0.036032066	4.060000E-01	  0.036032066	-4.305100E+01
82	  0.036232468	-9.000000E-02	  0.036232468	-9.906300E+01	  0.036232468	4.500000E-01	  0.036232468	-4.265400E+01
83	  0.036432866	-9.600000E-02	  0.036432866	-9.962500E+01	  0.036432866	4.760000E-01	  0.036432866	-4.223100E+01
84	  0.036633268	-1.030000E-01	  0.036633268	-1.001730E+02	  0.036633268	5.060000E-01	  0.036633268	-4.182300E+01
85	  0.036833670	-1.030000E-01	  0.036833670	-1.007090E+02	  0.036833670	5.040000E-01	  0.036833670	-4.142700E+01
86	  0.037034072	-1.030000E-01	  0.037034072	-1.012310E+02	  0.037034072	4.980000E-01	  0.037034072	-4.104400E+01
87	  0.037234470	-9.600000E-02	  0.037234470	-1.017570E+02	  0.037234470	4.630000E-01	  0.037234470	-4.066200E+01
88	  0.037434869	-8.600000E-02	  0.037434869	-1.022300E+02	  0.037434869	4.120000E-01	  0.037434869	-4.032100E+01
89	  0.037635271	-8.100000E-02	  0.037635271	-1.026550E+02	  0.037635271	3.840000E-01	  0.037635271	-4.001600E+01
90	  0.037835669	-8.200000E-02	  0.037835669	-1.031050E+02	  0.037835669	3.860000E-01	  0.037835669	-3.969400E+01
91	  0.038036071	-8.800000E-02	  0.038036071	-1.035500E+02	  0.038036071	4.110000E-01	  0.038036071	-3.937900E+01
92	  0.038236473	-9.700000E-02	  0.038236473	-1.040390E+02	  0.038236473	4.530000E-01	  0.038236473	-3.903400E+01
93	  0.038436871	-1.030000E-01	  0.038436871	-1.045330E+02	  0.038436871	4.770000E-01	  0.038436871	-3.868800E+01
94	  0.038637273	-1.090000E-01	  0.038637273	-1.050320E+02	  0.038637273	5.020000E-01	  0.038637273	-3.834100E+01
95	  0.038837675	-1.170000E-01	  0.038837675	-1.055440E+02	  0.038837675	5.310000E-01	  0.038837675	-3.798700E+01
96	  0.039038073	-1.250000E-01	  0.039038073	-1.061030E+02	  0.039038073	5.650000E-01	  0.039038073	-3.760300E+01
97	  0.039238475	-1.330000E-01	  0.039238475	-1.066660E+02	  0.039238475	5.970000E-01	  0.039238475	-3.722000E+01
98	  0.039438877	-1.350000E-01	  0.039438877	-1.072290E+02	  0.039438877	6.030000E-01	  0.039438877	-3.683900E+01
99	  0.039639279	-1.350000E-01	  0.039639279	-1.077970E+02	  0.039639279	5.960000E-01	  0.039639279	-3.645800E+01
100	  0.039839678	-1.290000E-01	  0.039839678	-1.083570E+02	  0.039839678	5.670000E-01	  0.039839678	-3.608600E+01
101	  0.040040080	-1.190000E-01	  0.040040080	-1.088700E+02	  0.040040080	5.210000E-01	  0.040040080	-3.574700E+01
102	  0.040240481	-1.130000E-01	  0.040240481	-1.093730E+02	  0.040240481	4.910000E-01	  0.040240481	-3.541600E+01
103	  0.040440880	-1.070000E-01	  0.040440880	-1.098690E+02	  0.040440880	4.620000E-01	  0.040440880	-3.509300E+01
104	  0.040641282	-1.040000E-01	  0.040641282	-1.103500E+02	  0.040641282	4.460000E-01	  0.040641282	-3.478000E+01
105	  0.040841684	-1.000000E-01	  0.040841684	-1.108300E+02	  0.040841684	4.260000E-01	  0.040841684	-3.447100E+01
106	  0.041042086	-1.020000E-01	  0.041042086	-1.113190E+02	  0.041042086	4.300000E-01	  0.041042086	-3.415700E+01
107	  0.041242484	-1.090000E-01	  0.041242484	-1.117600E+02	  0.041242484	4.600000E-01	  0.041242484	-3.387500E+01
108	  0.041442886	-1.190000E-01	  0.041442886	-1.122330E+02	  0.041442886	4.970000E-01	  0.041442886	-3.357500E+01
109	  0.041643288	-1.300000E-01	  0.041643288	-1.127340E+02	  0.041643288	5.420000E-01	  0.041643288	-3.325800E+01
110	  0.041843686	-1.380000E-01	  0.041843686	-1.132730E+02	  0.041843686	5.710000E-01	  0.041843686	-3.292000E+01
111	  0.042044088	-1.410000E-01	  0.042044088	-1.137920E+02	  0.042044088	5.790000E-01	  0.042044088	-3.259600E+01
112	  0.042244490	-1.360000E-01	  0.042244490	-1.143330E+02	  0.042244490	5.560000E-01	  0.042244490	-3.226100E+01
113	  0.042444889	-1.330000E-01	  0.042444889	-1.148570E+02	  0.042444889	5.390000E-01	  0.042444889	-3.193800E+01
114	  0.042645290	-1.210000E-01	  0.042645290	-1.153300E+02	  0.042645290	4.870000E-01	  0.042645290	-3.164900E+01
115	  0.042845692	-1.130000E-01	  0.042845692	-1.157680E+02	  0.042845692	4.550000E-01	  0.042845692	-3.138100E+01
116	  0.043046094	-1.120000E-01	  0.043046094	-1.162070E+02	  0.043046094	4.500000E-01	  0.043046094	-3.111600E+01
117	  0.043246493	-1.140000E-01	  0.043246493	-1.166350E+02	  0.043246493	4.550000E-01	  0.043246493	-3.085700E+01
118	  0.043446895	-1.170000E-01	  0.043446895	-1.170930E+02	  0.043446895	4.630000E-01	  0.043446895	-3.058200E+01
119	  0.043647297	-1.220000E-01	  0.043647297	-1.175210E+02	  0.043647297	4.820000E-01	  0.043647297	-3.032500E+01
120	  0.043847695	-1.270000E-01	  0.043847695	-1.179970E+02	  0.043847695	5.000000E-01	  0.043847695	-3.004200E+01
121	  0.044048097	-1.320000E-01	  0.044048097	-1.184720E+02	  0.044048097	5.170000E-01	  0.044048097	-2.976000E+01
122	  0.044248499	-1.390000E-01	  0.044248499	-1.189530E+02	  0.044248499	5.410000E-01	  0.044248499	-2.947600E+01
123	  0.044448901	-1.460000E-01	  0.044448901	-1.194600E+02	  0.044448901	5.660000E-01	  0.044448901	-2.917900E+01
124	  0.044649299	-1.500000E-01	  0.044649299	-1.199910E+02	  0.044649299	5.770000E-01	  0.044649299	-2.886900E+01
125	  0.044849701	-1.520000E-01	  0.044849701	-1.204930E+02	  0.044849701	5.840000E-01	  0.044849701	-2.857700E+01
126	  0.045050103	-1.530000E-01	  0.045050103	-1.210010E+02	  0.045050103	5.810000E-01	  0.045050103	-2.828400E+01
127	  0.045250501	-1.500000E-01	  0.045250501	-1.214870E+02	  0.045250501	5.680000E-01	  0.045250501	-2.800600E+01
128	  0.045450903	-1.480000E-01	  0.045450903	-1.219990E+02	  0.045450903	5.580000E-01	  0.045450903	-2.771300E+01
129	  0.045651305	-1.440000E-01	  0.045651305	-1.225000E+02	  0.045651305	5.410000E-01	  0.045651305	-2.742800E+01
130	  0.045851704	-1.420000E-01	  0.045851704	-1.230200E+02	  0.045851704	5.290000E-01	  0.045851704	-2.713400E+01
131	  0.046052106	-1.410000E-01	  0.046052106	-1.235140E+02	  0.046052106	5.230000E-01	  0.046052106	-2.685500E+01
132	  0.046252504	-1.360000E-01	  0.046252504	-1.240150E+02	  0.046252504	5.030000E-01	  0.046252504	-2.657400E+01
133	  0.046452906	-1.380000E-01	  0.046452906	-1.244680E+02	  0.046452906	5.080000E-01	  0.046452906	-2.632100E+01
134	  0.046653304	-1.430000E-01	  0.046653304	-1.249340E+02	  0.046653304	5.230000E-01	  0.046653304	-2.606200E+01
135	  0.046853706	-1.530000E-01	  0.046853706	-1.254190E+02	  0.046853706	5.580000E-01	  0.046853706	-2.579300E+01
136	  0.047054108	-1.620000E-01	  0.047054108	-1.259370E+02	  0.047054108	5.890000E-01	  0.047054108	-2.550800E+01
137	  0.047254506	-1.690000E-01	  0.047254506	-1.264810E+02	  0.047254506	6.120000E-01	  0.047254506	-2.520800E+01
138	  0.047454908	-1.650000E-01	  0.047454908	-1.269970E+02	  0.047454908	5.940000E-01	  0.047454908	-2.492700E+01
139	  0.047655310	-1.630000E-01	  0.047655310	-1.275250E+02	  0.047655310	5.850000E-01	  0.047655310	-2.464000E+01
140	  0.047855709	-1.520000E-01	  0.047855709	-1.280000E+02	  0.047855709	5.430000E-01	  0.047855709	-2.438400E+01
141	  0.048056111	-1.480000E-01	  0.048056111	-1.284610E+02	  0.048056111	5.270000E-01	  0.048056111	-2.413500E+01
142	  0.048256513	-1.440000E-01	  0.048256513	-1.289130E+02	  0.048256513	5.090000E-01	  0.048256513	-2.389300E+01
143	  0.048456915	-1.430000E-01	  0.048456915	-1.293490E+02	  0.048456915	5.060000E-01	  0.048456915	-2.365900E+01
144	  0.048657313	-1.420000E-01	  0.048657313	-1.297710E+02	  0.048657313	4.990000E-01	  0.048657313	-2.343400E+01
145	  0.048857715	-1.460000E-01	  0.048857715	-1.302150E+02	  0.048857715	5.110000E-01	  0.048857715	-2.319900E+01
146	  0.049058117	-1.500000E-01	  0.049058117	-1.306390E+02	  0.049058117	5.240000E-01	  0.049058117	-2.297400E+01
147	  0.049258515	-1.570000E-01	  0.049258515	-1.310780E+02	  0.049258515	5.460000E-01	  0.049258515	-2.274200E+01
148	  0.049458917	-1.630000E-01	  0.049458917	-1.315200E+02	  0.049458917	5.660000E-01	  0.049458917	-2.250900E+01
149	  0.049659319	-1.670000E-01	  0.049659319	-1.320020E+02	  0.049659319	5.760000E-01	  0.049659319	-2.225700E+01
150	  0.049859721	-1.710000E-01	  0.049859721	-1.324820E+02	  0.049859721	5.880000E-01	  0.049859721	-2.200600E+01
151	  0.050060119	-1.690000E-01	  0.050060119	-1.329510E+02	  0.050060119	5.790000E-01	  0.050060119	-2.176300E+01
152	  0.050260521	-1.700000E-01	  0.050260521	-1.334010E+02	  0.050260521	5.800000E-01	  0.050260521	-2.153000E+01
153	  0.050460923	-1.720000E-01	  0.050460923	-1.338620E+02	  0.050460923	5.870000E-01	  0.050460923	-2.129200E+01
154	  0.050661322	-1.720000E-01	  0.050661322	-1.343410E+02	  0.050661322	5.830000E-01	  0.050661322	-2.104500E+01
155	  0.050861724	-1.740000E-01	  0.050861724	-1.348570E+02	  0.050861724	5.880000E-01	  0.050861724	-2.078100E+01
156	  0.051062126	-1.720000E-01	  0.051062126	-1.353390E+02	  0.051062126	5.800000E-01	  0.051062126	-2.053400E+01
157	  0.051262524	-1.720000E-01	  0.051262524	-1.358280E+02	  0.051262524	5.770000E-01	  0.051262524	-2.028600E+01
158	  0.051462926	-1.710000E-01	  0.051462926	-1.363000E+02	  0.051462926	5.720000E-01	  0.051462926	-2.004600E+01
159	  0.051663328	-1.720000E-01	  0.051663328	-1.367500E+02	  0.051663328	5.720000E-01	  0.051663328	-1.981900E+01
160	  0.051863730	-1.750000E-01	  0.051863730	-1.371980E+02	  0.051863730	5.810000E-01	  0.051863730	-1.959300E+01
161	  0.052064128	-1.820000E-01	  0.052064128	-1.376640E+02	  0.052064128	6.050000E-01	  0.052064128	-1.935900E+01
162	  0.052264530	-1.880000E-01	  0.052264530	-1.381270E+02	  0.052264530	6.230000E-01	  0.052264530	-1.912600E+01
163	  0.052464932	-1.930000E-01	  0.052464932	-1.386450E+02	  0.052464932	6.370000E-01	  0.052464932	-1.886800E+01
164	  0.052665330	-1.940000E-01	  0.052665330	-1.391580E+02	  0.052665330	6.350000E-01	  0.052665330	-1.861200E+01
165	  0.052865732	-1.910000E-01	  0.052865732	-1.396590E+02	  0.052865732	6.260000E-01	  0.052865732	-1.836400E+01
166	  0.053066134	-1.860000E-01	  0.053066134	-1.401350E+02	  0.053066134	6.060000E-01	  0.053066134	-1.812900E+01
167	  0.053266536	-1.810000E-01	  0.053266536	-1.406150E+02	  0.053266536	5.900000E-01	  0.053266536	-1.789200E+01
168	  0.053466935	-1.790000E-01	  0.053466935	-1.410820E+02	  0.053466935	5.810000E-01	  0.053466935	-1.766300E+01
169	  0.053667337	-1.770000E-01	  0.053667337	-1.415390E+02	  0.053667337	5.730000E-01	  0.053667337	-1.743900E+01
170	  0.053867739	-1.740000E-01	  0.053867739	-1.419890E+02	  0.053867739	5.600000E-01	  0.053867739	-1.721900E+01
171	  0.054068137	-1.740000E-01	  0.054068137	-1.424150E+02	  0.054068137	5.590000E-01	  0.054068137	-1.701100E+01
172	  0.054268539	-1.790000E-01	  0.054268539	-1.428330E+02	  0.054268539	5.730000E-01	  0.054268539	-1.680800E+01
173	  0.054468941	-1.820000E-01	  0.054468941	-1.432690E+02	  0.054468941	5.820000E-01	  0.054468941	-1.659700E+01
174	  0.054669339	-1.860000E-01	  0.054669339	-1.437370E+02	  0.054669339	5.940000E-01	  0.054669339	-1.637000E+01
175	  0.054869737	-1.870000E-01	  0.054869737	-1.442010E+02	  0.054869737	5.970000E-01	  0.054869737	-1.614600E+01
176	  0.055070139	-1.870000E-01	  0.055070139	-1.446400E+02	  0.055070139	5.940000E-01	  0.055070139	-1.593500E+01
177	  0.055270538	-1.870000E-01	  0.055270538	-1.450870E+02	  0.055270538	5.930000E-01	  0.055270538	-1.572100E+01
178	  0.055470940	-1.890000E-01	  0.055470940	-1.455240E+02	  0.055470940	5.990000E-01	  0.055470940	-1.551100E+01
179	  0.055671342	-1.920000E-01	  0.055671342	-1.459690E+02	  0.055671342	6.050000E-01	  0.055671342	-1.529900E+01
180	  0.055871744	-1.950000E-01	  0.055871744	-1.464300E+02	  0.055871744	6.150000E-01	  0.055871744	-1.507900E+01
181	  0.056072142	-1.990000E-01	  0.056072142	-1.469040E+02	  0.056072142	6.240000E-01	  0.056072142	-1.485300E+01
182	  0.056272544	-1.970000E-01	  0.056272544	-1.473650E+02	  0.056272544	6.170000E-01	  0.056272544	-1.463500E+01
183	  0.056472946	-1.960000E-01	  0.056472946	-1.478430E+02	  0.056472946	6.120000E-01	  0.056472946	-1.440900E+01
184	  0.056673344	-1.970000E-01	  0.056673344	-1.483050E+02	  0.056673344	6.140000E-01	  0.056673344	-1.419100E+01
185	  0.056873746	-1.960000E-01	  0.056873746	-1.487500E+02	  0.056873746	6.110000E-01	  0.056873746	-1.398100E+01
186	  0.057074148	-1.990000E-01	  0.057074148	-1.491830E+02	  0.057074148	6.170000E-01	  0.057074148	-1.377800E+01
187	  0.057274550	-2.020000E-01	  0.057274550	-1.496220E+02	  0.057274550	6.260000E-01	  0.057274550	-1.357200E+01
188	  0.057474948	-2.070000E-01	  0.057474948	-1.500720E+02	  0.057474948	6.410000E-01	  0.057474948	-1.336100E+01
189	  0.057675350	-2.110000E-01	  0.057675350	-1.505470E+02	  0.057675350	6.490000E-01	  0.057675350	-1.313900E+01
190	  0.057875752	-2.120000E-01	  0.057875752	-1.510150E+02	  0.057875752	6.520000E-01	  0.057875752	-1.292100E+01
191	  0.058076151	-2.150000E-01	  0.058076151	-1.514800E+02	  0.058076151	6.590000E-01	  0.058076151	-1.270500E+01
192	  0.058276553	-2.110000E-01	  0.058276553	-1.519510E+02	  0.058276553	6.470000E-01	  0.058276553	-1.248600E+01
193	  0.058476955	-2.100000E-01	  0.058476955	-1.524020E+02	  0.058476955	6.420000E-01	  0.058476955	-1.227800E+01
194	  0.058677353	-2.050000E-01	  0.058677353	-1.528700E+02	  0.058677353	6.260000E-01	  0.058677353	-1.206100E+01
195	  0.058877755	-2.040000E-01	  0.058877755	-1.533120E+02	  0.058877755	6.200000E-01	  0.058877755	-1.185800E+01
196	  0.059078157	-2.010000E-01	  0.059078157	-1.537500E+02	  0.059078157	6.120000E-01	  0.059078157	-1.165600E+01
197	  0.059278559	-2.020000E-01	  0.059278559	-1.541670E+02	  0.059278559	6.130000E-01	  0.059278559	-1.146500E+01
198	  0.059478957	-2.060000E-01	  0.059478957	-1.545850E+02	  0.059478957	6.230000E-01	  0.059478957	-1.127300E+01
199	  0.059679359	-2.080000E-01	  0.059679359	-1.550080E+02	  0.059679359	6.290000E-01	  0.059679359	-1.107900E+01
200	  0.059879761	-2.120000E-01	  0.059879761	-1.554510E+02	  0.059879761	6.390000E-01	  0.059879761	-1.087600E+01
201	  0.060080159	-2.120000E-01	  0.060080159	-1.558800E+02	  0.060080159	6.380000E-01	  0.060080159	-1.068000E+01
202	  0.060280561	-2.100000E-01	  0.060280561	-1.563160E+02	  0.060280561	6.330000E-01	  0.060280561	-1.048200E+01
203	  0.060480963	-2.100000E-01	  0.060480963	-1.567330E+02	  0.060480963	6.320000E-01	  0.060480963	-1.029200E+01
204	  0.060681365	-2.140000E-01	  0.060681365	-1.571530E+02	  0.060681365	6.410000E-01	  0.060681365	-1.010100E+01
205	  0.060881764	-2.170000E-01	  0.060881764	-1.575720E+02	  0.060881764	6.500000E-01	  0.060881764	-9.910000E+00
206	  0.061082166	-2.180000E-01	  0.061082166	-1.580090E+02	  0.061082166	6.530000E-01	  0.061082166	-9.712000E+00
207	  0.061282568	-2.200000E-01	  0.061282568	-1.584570E+02	  0.061282568	6.580000E-01	  0.061282568	-9.510000E+00
208	  0.061482966	-2.210000E-01	  0.061482966	-1.589060E+02	  0.061482966	6.600000E-01	  0.061482966	-9.307000E+00
209	  0.061683368	-2.210000E-01	  0.061683368	-1.593500E+02	  0.061683368	6.580000E-01	  0.061683368	-9.107000E+00
210	  0.061883770	-2.230000E-01	  0.061883770	-1.597880E+02	  0.061883770	6.620000E-01	  0.061883770	-8.910000E+00
211	  0.062084168	-2.230000E-01	  0.062084168	-1.602300E+02	  0.062084168	6.630000E-01	  0.062084168	-8.711000E+00
212	  0.062284570	-2.250000E-01	  0.062284570	-1.606550E+02	  0.062284570	6.660000E-01	  0.062284570	-8.520000E+00
213	  0.062484972	-2.270000E-01	  0.062484972	-1.610740E+02	  0.062484972	6.710000E-01	  0.062484972	-8.332000E+00
214	  0.062685370	-2.290000E-01	  0.062685370	-1.614910E+02	  0.062685370	6.760000E-01	  0.062685370	-8.145000E+00
215	  0.062885776	-2.320000E-01	  0.062885776	-1.619400E+02	  0.062885776	6.850000E-01	  0.062885776	-7.944000E+00
216	  0.063086174	-2.350000E-01	  0.063086174	-1.623590E+02	  0.063086174	6.950000E-01	  0.063086174	-7.756000E+00
217	  0.063286573	-2.360000E-01	  0.063286573	-1.628350E+02	  0.063286573	6.970000E-01	  0.063286573	-7.544000E+00
218	  0.063486971	-2.360000E-01	  0.063486971	-1.632910E+02	  0.063486971	6.960000E-01	  0.063486971	-7.341000E+00
219	  0.063687377	-2.320000E-01	  0.063687377	-1.637470E+02	  0.063687377	6.830000E-01	  0.063687377	-7.138000E+00
220	  0.063887775	-2.290000E-01	  0.063887775	-1.641780E+02	  0.063887775	6.730000E-01	  0.063887775	-6.946000E+00
221	  0.064088173	-2.290000E-01	  0.064088173	-1.645850E+02	  0.064088173	6.710000E-01	  0.064088173	-6.765000E+00
222	  0.064288579	-2.290000E-01	  0.064288579	-1.650210E+02	  0.064288579	6.710000E-01	  0.064288579	-6.572000E+00
223	  0.064488977	-2.310000E-01	  0.064488977	-1.654390E+02	  0.064488977	6.780000E-01	  0.064488977	-6.386000E+00
224	  0.064689375	-2.310000E-01	  0.064689375	-1.658620E+02	  0.064689375	6.760000E-01	  0.064689375	-6.199000E+00
225	  0.064889781	-2.330000E-01	  0.064889781	-1.662830E+02	  0.064889781	6.820000E-01	  0.064889781	-6.012000E+00
226	  0.065090179	-2.370000E-01	  0.065090179	-1.667110E+02	  0.065090179	6.920000E-01	  0.065090179	-5.823000E+00
227	  0.065290578	-2.380000E-01	  0.065290578	-1.671520E+02	  0.065290578	6.950000E-01	  0.065290578	-5.628000E+00
228	  0.065490983	-2.370000E-01	  0.065490983	-1.675550E+02	  0.065490983	6.920000E-01	  0.065490983	-5.450000E+00
229	  0.065691382	-2.390000E-01	  0.065691382	-1.679410E+02	  0.065691382	6.980000E-01	  0.065691382	-5.280000E+00
230	  0.065891780	-2.410000E-01	  0.065891780	-1.683760E+02	  0.065891780	7.020000E-01	  0.065891780	-5.088000E+00
231	  0.066092186	-2.450000E-01	  0.066092186	-1.687960E+02	  0.066092186	7.120000E-01	  0.066092186	-4.903000E+00
232	  0.066292584	-2.420000E-01	  0.066292584	-1.692350E+02	  0.066292584	7.040000E-01	  0.066292584	-4.709000E+00
233	  0.066492982	-2.470000E-01	  0.066492982	-1.696780E+02	  0.066492982	7.190000E-01	  0.066492982	-4.514000E+00
234	  0.066693388	-2.470000E-01	  0.066693388	-1.700950E+02	  0.066693388	7.180000E-01	  0.066693388	-4.331000E+00
235	  0.066893786	-2.510000E-01	  0.066893786	-1.705480E+02	  0.066893786	7.280000E-01	  0.066893786	-4.132000E+00
236	  0.067094192	-2.520000E-01	  0.067094192	-1.709820E+02	  0.067094192	7.320000E-01	  0.067094192	-3.942000E+00
237	  0.067294590	-2.500000E-01	  0.067294590	-1.714230E+02	  0.067294590	7.260000E-01	  0.067294590	-3.748000E+00
238	  0.067494988	-2.530000E-01	  0.067494988	-1.718640E+02	  0.067494988	7.320000E-01	  0.067494988	-3.555000E+00
239	  0.067695394	-2.580000E-01	  0.067695394	-1.722550E+02	  0.067695394	7.470000E-01	  0.067695394	-3.383000E+00
240	  0.067895792	-2.510000E-01	  0.067895792	-1.726930E+02	  0.067895792	7.280000E-01	  0.067895792	-3.191000E+00
241	  0.068096191	-2.520000E-01	  0.068096191	-1.731220E+02	  0.068096191	7.300000E-01	  0.068096191	-3.003000E+00
242	  0.068296596	-2.580000E-01	  0.068296596	-1.735270E+02	  0.068296596	7.460000E-01	  0.068296596	-2.826000E+00
243	  0.068496995	-2.600000E-01	  0.068496995	-1.739680E+02	  0.068496995	7.520000E-01	  0.068496995	-2.633000E+00
244	  0.068697393	-2.570000E-01	  0.068697393	-1.744250E+02	  0.068697393	7.420000E-01	  0.068697393	-2.433000E+00
245	  0.068897791	-2.560000E-01	  0.068897791	-1.748280E+02	  0.068897791	7.400000E-01	  0.068897791	-2.257000E+00
246	  0.069098189	-2.540000E-01	  0.069098189	-1.752490E+02	  0.069098189	7.340000E-01	  0.069098189	-2.073000E+00
247	  0.069298595	-2.510000E-01	  0.069298595	-1.756430E+02	  0.069298595	7.240000E-01	  0.069298595	-1.901000E+00
248	  0.069498993	-2.540000E-01	  0.069498993	-1.760530E+02	  0.069498993	7.330000E-01	  0.069498993	-1.722000E+00
249	  0.069699399	-2.560000E-01	  0.069699399	-1.764710E+02	  0.069699399	7.400000E-01	  0.069699399	-1.539000E+00
250	  0.069899797	-2.550000E-01	  0.069899797	-1.768970E+02	  0.069899797	7.360000E-01	  0.069899797	-1.353000E+00
251	  0.070100196	-2.610000E-01	  0.070100196	-1.772970E+02	  0.070100196	7.540000E-01	  0.070100196	-1.179000E+00
252	  0.070300601	-2.630000E-01	  0.070300601	-1.776820E+02	  0.070300601	7.570000E-01	  0.070300601	-1.010000E+00
253	  0.070501000	-2.610000E-01	  0.070501000	-1.781110E+02	  0.070501000	7.520000E-01	  0.070501000	-8.240000E-01
254	  0.070701398	-2.610000E-01	  0.070701398	-1.784980E+02	  0.070701398	7.530000E-01	  0.070701398	-6.540000E-01
255	  0.070901804	-2.640000E-01	  0.070901804	-1.788790E+02	  0.070901804	7.600000E-01	  0.070901804	-4.880000E-01
256	  0.071102202	-2.650000E-01	  0.071102202	-1.793150E+02	  0.071102202	7.620000E-01	  0.071102202	-2.980000E-01
257	  0.071302600	-2.690000E-01	  0.071302600	-1.797530E+02	  0.071302600	7.750000E-01	  0.071302600	-1.070000E-01
258	  0.071503006	-2.680000E-01	  0.071503006	1.798520E+02	  0.071503006	7.720000E-01	  0.071503006	6.400000E-02
259	  0.071703404	-2.730000E-01	  0.071703404	1.794230E+02	  0.071703404	7.860000E-01	  0.071703404	2.510000E-01
260	  0.071903802	-2.730000E-01	  0.071903802	1.790030E+02	  0.071903802	7.880000E-01	  0.071903802	4.340000E-01
261	  0.072104208	-2.750000E-01	  0.072104208	1.785670E+02	  0.072104208	7.940000E-01	  0.072104208	6.240000E-01
262	  0.072304606	-2.780000E-01	  0.072304606	1.781360E+02	  0.072304606	8.010000E-01	  0.072304606	8.120000E-01
263	  0.072505005	-2.790000E-01	  0.072505005	1.777160E+02	  0.072505005	8.050000E-01	  0.072505005	9.960000E-01
264	  0.072705410	-2.800000E-01	  0.072705410	1.773000E+02	  0.072705410	8.060000E-01	  0.072705410	1.178000E+00
265	  0.072905809	-2.800000E-01	  0.072905809	1.768720E+02	  0.072905809	8.070000E-01	  0.072905809	1.364000E+00
266	  0.073106214	-2.810000E-01	  0.073106214	1.764580E+02	  0.073106214	8.090000E-01	  0.073106214	1.545000E+00
267	  0.073306613	-2.780000E-01	  0.073306613	1.760480E+02	  0.073306613	8.010000E-01	  0.073306613	1.724000E+00
268	  0.073507011	-2.810000E-01	  0.073507011	1.756020E+02	  0.073507011	8.110000E-01	  0.073507011	1.919000E+00
269	  0.073707417	-2.810000E-01	  0.073707417	1.751780E+02	  0.073707417	8.100000E-01	  0.073707417	2.104000E+00
270	  0.073907815	-2.780000E-01	  0.073907815	1.747720E+02	  0.073907815	8.040000E-01	  0.073907815	2.281000E+00
271	  0.074108213	-2.740000E-01	  0.074108213	1.743780E+02	  0.074108213	7.910000E-01	  0.074108213	2.454000E+00
272	  0.074308619	-2.750000E-01	  0.074308619	1.739820E+02	  0.074308619	7.940000E-01	  0.074308619	2.627000E+00
273	  0.074509017	-2.730000E-01	  0.074509017	1.735970E+02	  0.074509017	7.880000E-01	  0.074509017	2.795000E+00
274	  0.074709415	-2.720000E-01	  0.074709415	1.731990E+02	  0.074709415	7.860000E-01	  0.074709415	2.970000E+00
275	  0.074909821	-2.760000E-01	  0.074909821	1.727790E+02	  0.074909821	7.990000E-01	  0.074909821	3.154000E+00
276	  0.075110219	-2.790000E-01	  0.075110219	1.724000E+02	  0.075110219	8.080000E-01	  0.075110219	3.319000E+00
277	  0.075310618	-2.780000E-01	  0.075310618	1.720220E+02	  0.075310618	8.060000E-01	  0.075310618	3.485000E+00
278	  0.075511023	-2.780000E-01	  0.075511023	1.716240E+02	  0.075511023	8.050000E-01	  0.075511023	3.660000E+00
279	  0.075711422	-2.800000E-01	  0.075711422	1.712510E+02	  0.075711422	8.110000E-01	  0.075711422	3.823000E+00
280	  0.075911827	-2.820000E-01	  0.075911827	1.708740E+02	  0.075911827	8.170000E-01	  0.075911827	3.989000E+00
281	  0.076112226	-2.830000E-01	  0.076112226	1.704910E+02	  0.076112226	8.210000E-01	  0.076112226	4.157000E+00
282	  0.076312624	-2.850000E-01	  0.076312624	1.701030E+02	  0.076312624	8.270000E-01	  0.076312624	4.327000E+00
283	  0.076513030	-2.870000E-01	  0.076513030	1.697040E+02	  0.076513030	8.330000E-01	  0.076513030	4.503000E+00
284	  0.076713428	-2.870000E-01	  0.076713428	1.693120E+02	  0.076713428	8.330000E-01	  0.076713428	4.675000E+00
285	  0.076913826	-2.890000E-01	  0.076913826	1.688960E+02	  0.076913826	8.400000E-01	  0.076913826	4.858000E+00
286	  0.077114232	-2.900000E-01	  0.077114232	1.684950E+02	  0.077114232	8.440000E-01	  0.077114232	5.035000E+00
287	  0.077314630	-2.900000E-01	  0.077314630	1.681010E+02	  0.077314630	8.450000E-01	  0.077314630	5.208000E+00
288	  0.077515028	-2.940000E-01	  0.077515028	1.676910E+02	  0.077515028	8.560000E-01	  0.077515028	5.389000E+00
289	  0.077715434	-2.960000E-01	  0.077715434	1.672780E+02	  0.077715434	8.620000E-01	  0.077715434	5.572000E+00
290	  0.077915832	-2.980000E-01	  0.077915832	1.668840E+02	  0.077915832	8.700000E-01	  0.077915832	5.746000E+00
291	  0.078116231	-3.000000E-01	  0.078116231	1.664920E+02	  0.078116231	8.750000E-01	  0.078116231	5.919000E+00
292	  0.078316636	-3.000000E-01	  0.078316636	1.660830E+02	  0.078316636	8.780000E-01	  0.078316636	6.100000E+00
293	  0.078517035	-3.010000E-01	  0.078517035	1.656720E+02	  0.078517035	8.800000E-01	  0.078517035	6.282000E+00
294	  0.078717433	-3.040000E-01	  0.078717433	1.652510E+02	  0.078717433	8.910000E-01	  0.078717433	6.469000E+00
295	  0.078917839	-3.020000E-01	  0.078917839	1.648220E+02	  0.078917839	8.850000E-01	  0.078917839	6.659000E+00
296	  0.079118237	-3.030000E-01	  0.079118237	1.644130E+02	  0.079118237	8.900000E-01	  0.079118237	6.841000E+00
297	  0.079318643	-2.990000E-01	  0.079318643	1.640100E+02	  0.079318643	8.780000E-01	  0.079318643	7.020000E+00
298	  0.079519041	-2.960000E-01	  0.079519041	1.636250E+02	  0.079519041	8.720000E-01	  0.079519041	7.191000E+00
299	  0.079719439	-2.950000E-01	  0.079719439	1.632390E+02	  0.079719439	8.690000E-01	  0.079719439	7.363000E+00
300	  0.079919845	-2.950000E-01	  0.079919845	1.628300E+02	  0.079919845	8.700000E-01	  0.079919845	7.545000E+00
301	  0.080120243	-2.980000E-01	  0.080120243	1.624370E+02	  0.080120243	8.800000E-01	  0.080120243	7.721000E+00
302	  0.080320641	-2.990000E-01	  0.080320641	1.620350E+02	  0.080320641	8.840000E-01	  0.080320641	7.901000E+00
303	  0.080521047	-2.990000E-01	  0.080521047	1.616590E+02	  0.080521047	8.840000E-01	  0.080521047	8.069000E+00
304	  0.080721445	-3.000000E-01	  0.080721445	1.612740E+02	  0.080721445	8.890000E-01	  0.080721445	8.241000E+00
305	  0.080921844	-3.010000E-01	  0.080921844	1.608960E+02	  0.080921844	8.910000E-01	  0.080921844	8.410000E+00
306	  0.081122249	-3.000000E-01	  0.081122249	1.605210E+02	  0.081122249	8.900000E-01	  0.081122249	8.579000E+00
307	  0.081322648	-2.990000E-01	  0.081322648	1.601480E+02	  0.081322648	8.880000E-01	  0.081322648	8.746000E+00
308	  0.081523046	-2.990000E-01	  0.081523046	1.597760E+02	  0.081523046	8.870000E-01	  0.081523046	8.914000E+00
309	  0.081723452	-3.020000E-01	  0.081723452	1.593850E+02	  0.081723452	8.990000E-01	  0.081723452	9.090000E+00
310	  0.081923850	-3.000000E-01	  0.081923850	1.590040E+02	  0.081923850	8.950000E-01	  0.081923850	9.261000E+00
311	  0.082124248	-3.030000E-01	  0.082124248	1.586320E+02	  0.082124248	9.040000E-01	  0.082124248	9.429000E+00
312	  0.082324654	-3.020000E-01	  0.082324654	1.582580E+02	  0.082324654	9.030000E-01	  0.082324654	9.599000E+00
313	  0.082525052	-3.030000E-01	  0.082525052	1.578700E+02	  0.082525052	9.060000E-01	  0.082525052	9.774000E+00
314	  0.082725458	-3.030000E-01	  0.082725458	1.574880E+02	  0.082725458	9.060000E-01	  0.082725458	9.947000E+00
315	  0.082925856	-3.060000E-01	  0.082925856	1.571140E+02	  0.082925856	9.160000E-01	  0.082925856	1.011700E+01
316	  0.083126254	-3.080000E-01	  0.083126254	1.567480E+02	  0.083126254	9.240000E-01	  0.083126254	1.028300E+01
317	  0.083326660	-3.090000E-01	  0.083326660	1.563830E+02	  0.083326660	9.300000E-01	  0.083326660	1.044900E+01
318	  0.083527058	-3.120000E-01	  0.083527058	1.560320E+02	  0.083527058	9.390000E-01	  0.083527058	1.060900E+01
319	  0.083727457	-3.150000E-01	  0.083727457	1.556400E+02	  0.083727457	9.500000E-01	  0.083727457	1.078700E+01
320	  0.083927862	-3.150000E-01	  0.083927862	1.552140E+02	  0.083927862	9.530000E-01	  0.083927862	1.098200E+01
321	  0.084128261	-3.180000E-01	  0.084128261	1.548200E+02	  0.084128261	9.620000E-01	  0.084128261	1.116300E+01
322	  0.084328659	-3.170000E-01	  0.084328659	1.544240E+02	  0.084328659	9.590000E-01	  0.084328659	1.134400E+01
323	  0.084529065	-3.160000E-01	  0.084529065	1.540610E+02	  0.084529065	9.600000E-01	  0.084529065	1.151000E+01
324	  0.084729463	-3.140000E-01	  0.084729463	1.536790E+02	  0.084729463	9.540000E-01	  0.084729463	1.168600E+01
325	  0.084929861	-3.170000E-01	  0.084929861	1.532910E+02	  0.084929861	9.660000E-01	  0.084929861	1.186500E+01
326	  0.085130267	-3.200000E-01	  0.085130267	1.529100E+02	  0.085130267	9.750000E-01	  0.085130267	1.204000E+01
327	  0.085330658	-3.200000E-01	  0.085330658	1.525120E+02	  0.085330658	9.780000E-01	  0.085330658	1.222400E+01
328	  0.085531056	-3.230000E-01	  0.085531056	1.521210E+02	  0.085531056	9.860000E-01	  0.085531056	1.240500E+01
329	  0.085731462	-3.240000E-01	  0.085731462	1.517350E+02	  0.085731462	9.940000E-01	  0.085731462	1.258400E+01
330	  0.085931860	-3.280000E-01	  0.085931860	1.513560E+02	  0.085931860	1.007000E+00	  0.085931860	1.276000E+01
331	  0.086132258	-3.280000E-01	  0.086132258	1.509820E+02	  0.086132258	1.007000E+00	  0.086132258	1.293400E+01
332	  0.086332664	-3.300000E-01	  0.086332664	1.506120E+02	  0.086332664	1.016000E+00	  0.086332664	1.310600E+01
333	  0.086533062	-3.270000E-01	  0.086533062	1.502150E+02	  0.086533062	1.009000E+00	  0.086533062	1.329100E+01
334	  0.086733460	-3.280000E-01	  0.086733460	1.498160E+02	  0.086733460	1.013000E+00	  0.086733460	1.347800E+01
335	  0.086933866	-3.270000E-01	  0.086933866	1.494280E+02	  0.086933866	1.011000E+00	  0.086933866	1.365900E+01
336	  0.087134264	-3.260000E-01	  0.087134264	1.490620E+02	  0.087134264	1.012000E+00	  0.087134264	1.383100E+01
337	  0.087334670	-3.270000E-01	  0.087334670	1.486650E+02	  0.087334670	1.017000E+00	  0.087334670	1.401800E+01
338	  0.087535068	-3.270000E-01	  0.087535068	1.483000E+02	  0.087535068	1.017000E+00	  0.087535068	1.418900E+01
339	  0.087735467	-3.210000E-01	  0.087735467	1.479340E+02	  0.087735467	1.002000E+00	  0.087735467	1.436200E+01
340	  0.087935872	-3.190000E-01	  0.087935872	1.475790E+02	  0.087935872	9.980000E-01	  0.087935872	1.453000E+01
341	  0.088136271	-3.160000E-01	  0.088136271	1.472180E+02	  0.088136271	9.900000E-01	  0.088136271	1.470100E+01
342	  0.088336669	-3.160000E-01	  0.088336669	1.468660E+02	  0.088336669	9.910000E-01	  0.088336669	1.486800E+01
343	  0.088537075	-3.160000E-01	  0.088537075	1.465410E+02	  0.088537075	9.940000E-01	  0.088537075	1.502300E+01
344	  0.088737473	-3.170000E-01	  0.088737473	1.461730E+02	  0.088737473	9.990000E-01	  0.088737473	1.519800E+01
345	  0.088937871	-3.200000E-01	  0.088937871	1.458340E+02	  0.088937871	1.010000E+00	  0.088937871	1.535900E+01
346	  0.089138277	-3.210000E-01	  0.089138277	1.454630E+02	  0.089138277	1.014000E+00	  0.089138277	1.553600E+01
347	  0.089338675	-3.230000E-01	  0.089338675	1.450830E+02	  0.089338675	1.022000E+00	  0.089338675	1.571800E+01
348	  0.089539073	-3.220000E-01	  0.089539073	1.447040E+02	  0.089539073	1.020000E+00	  0.089539073	1.590000E+01
349	  0.089739479	-3.180000E-01	  0.089739479	1.443420E+02	  0.089739479	1.012000E+00	  0.089739479	1.607500E+01
350	  0.089939877	-3.250000E-01	  0.089939877	1.440050E+02	  0.089939877	1.036000E+00	  0.089939877	1.623600E+01
351	  0.090140276	-3.200000E-01	  0.090140276	1.436250E+02	  0.090140276	1.022000E+00	  0.090140276	1.642000E+01
352	  0.090340681	-3.310000E-01	  0.090340681	1.432640E+02	  0.090340681	1.058000E+00	  0.090340681	1.659400E+01
353	  0.090541080	-3.240000E-01	  0.090541080	1.428810E+02	  0.090541080	1.037000E+00	  0.090541080	1.678000E+01
354	  0.090741485	-3.280000E-01	  0.090741485	1.425070E+02	  0.090741485	1.055000E+00	  0.090741485	1.696200E+01
355	  0.090941884	-3.300000E-01	  0.090941884	1.421280E+02	  0.090941884	1.062000E+00	  0.090941884	1.714600E+01
356	  0.091142282	-3.360000E-01	  0.091142282	1.417450E+02	  0.091142282	1.086000E+00	  0.091142282	1.733300E+01
357	  0.091342688	-3.390000E-01	  0.091342688	1.413800E+02	  0.091342688	1.097000E+00	  0.091342688	1.751100E+01
358	  0.091543086	-3.410000E-01	  0.091543086	1.410090E+02	  0.091543086	1.107000E+00	  0.091543086	1.769300E+01
359	  0.091743484	-3.440000E-01	  0.091743484	1.405950E+02	  0.091743484	1.118000E+00	  0.091743484	1.789600E+01
360	  0.091943890	-3.390000E-01	  0.091943890	1.401910E+02	  0.091943890	1.106000E+00	  0.091943890	1.809600E+01
361	  0.092144288	-3.430000E-01	  0.092144288	1.398020E+02	  0.092144288	1.120000E+00	  0.092144288	1.828800E+01
362	  0.092344686	-3.400000E-01	  0.092344686	1.393920E+02	  0.092344686	1.114000E+00	  0.092344686	1.849100E+01
363	  0.092545092	-3.470000E-01	  0.092545092	1.390160E+02	  0.092545092	1.140000E+00	  0.092545092	1.867700E+01
364	  0.092745490	-3.390000E-01	  0.092745490	1.386340E+02	  0.092745490	1.117000E+00	  0.092745490	1.886700E+01
365	  0.092945889	-3.430000E-01	  0.092945889	1.382510E+02	  0.092945889	1.133000E+00	  0.092945889	1.905800E+01
366	  0.093146294	-3.350000E-01	  0.093146294	1.378530E+02	  0.093146294	1.110000E+00	  0.093146294	1.925800E+01
367	  0.093346693	-3.350000E-01	  0.093346693	1.374940E+02	  0.093346693	1.111000E+00	  0.093346693	1.943800E+01
368	  0.093547091	-3.300000E-01	  0.093547091	1.371580E+02	  0.093547091	1.096000E+00	  0.093547091	1.960700E+01
369	  0.093747497	-3.320000E-01	  0.093747497	1.368060E+02	  0.093747497	1.106000E+00	  0.093747497	1.978400E+01
370	  0.093947895	-3.300000E-01	  0.093947895	1.364720E+02	  0.093947895	1.102000E+00	  0.093947895	1.995300E+01
371	  0.094148301	-3.300000E-01	  0.094148301	1.361100E+02	  0.094148301	1.106000E+00	  0.094148301	2.013600E+01
372	  0.094348699	-3.310000E-01	  0.094348699	1.357460E+02	  0.094348699	1.111000E+00	  0.094348699	2.032100E+01
373	  0.094549097	-3.290000E-01	  0.094549097	1.354050E+02	  0.094549097	1.106000E+00	  0.094549097	2.049500E+01
374	  0.094749503	-3.290000E-01	  0.094749503	1.350540E+02	  0.094749503	1.111000E+00	  0.094749503	2.067300E+01
375	  0.094949901	-3.270000E-01	  0.094949901	1.347270E+02	  0.094949901	1.107000E+00	  0.094949901	2.084100E+01
376	  0.095150299	-3.310000E-01	  0.095150299	1.343770E+02	  0.095150299	1.122000E+00	  0.095150299	2.102000E+01
377	  0.095350705	-3.290000E-01	  0.095350705	1.340250E+02	  0.095350705	1.119000E+00	  0.095350705	2.120100E+01
378	  0.095551103	-3.270000E-01	  0.095551103	1.336580E+02	  0.095551103	1.116000E+00	  0.095551103	2.139100E+01
379	  0.095751502	-3.290000E-01	  0.095751502	1.333300E+02	  0.095751502	1.123000E+00	  0.095751502	2.156000E+01
380	  0.095951907	-3.280000E-01	  0.095951907	1.329890E+02	  0.095951907	1.123000E+00	  0.095951907	2.173600E+01
381	  0.096152306	-3.320000E-01	  0.096152306	1.326470E+02	  0.096152306	1.140000E+00	  0.096152306	2.191400E+01
382	  0.096352704	-3.330000E-01	  0.096352704	1.322940E+02	  0.096352704	1.147000E+00	  0.096352704	2.209700E+01
383	  0.096553110	-3.400000E-01	  0.096553110	1.319550E+02	  0.096553110	1.173000E+00	  0.096553110	2.227400E+01
384	  0.096753508	-3.430000E-01	  0.096753508	1.316020E+02	  0.096753508	1.186000E+00	  0.096753508	2.245800E+01
385	  0.096953906	-3.450000E-01	  0.096953906	1.312060E+02	  0.096953906	1.198000E+00	  0.096953906	2.266600E+01
386	  0.097154312	-3.450000E-01	  0.097154312	1.308250E+02	  0.097154312	1.203000E+00	  0.097154312	2.286700E+01
387	  0.097354710	-3.480000E-01	  0.097354710	1.304350E+02	  0.097354710	1.216000E+00	  0.097354710	2.307300E+01
388	  0.097555116	-3.520000E-01	  0.097555116	1.300650E+02	  0.097555116	1.232000E+00	  0.097555116	2.326800E+01
389	  0.097755514	-3.490000E-01	  0.097755514	1.296720E+02	  0.097755514	1.229000E+00	  0.097755514	2.347700E+01
390	  0.097955912	-3.530000E-01	  0.097955912	1.292940E+02	  0.097955912	1.245000E+00	  0.097955912	2.367900E+01
391	  0.098156318	-3.490000E-01	  0.098156318	1.289340E+02	  0.098156318	1.236000E+00	  0.098156318	2.387200E+01
392	  0.098356716	-3.500000E-01	  0.098356716	1.285560E+02	  0.098356716	1.241000E+00	  0.098356716	2.407400E+01
393	  0.098557115	-3.450000E-01	  0.098557115	1.281710E+02	  0.098557115	1.227000E+00	  0.098557115	2.428200E+01
394	  0.098757520	-3.460000E-01	  0.098757520	1.278270E+02	  0.098757520	1.237000E+00	  0.098757520	2.446700E+01
395	  0.098957919	-3.460000E-01	  0.098957919	1.274720E+02	  0.098957919	1.239000E+00	  0.098957919	2.466000E+01
396	  0.099158317	-3.460000E-01	  0.099158317	1.271390E+02	  0.099158317	1.243000E+00	  0.099158317	2.484000E+01
397	  0.099358723	-3.440000E-01	  0.099358723	1.267760E+02	  0.099358723	1.238000E+00	  0.099358723	2.503800E+01
398	  0.099559121	-3.440000E-01	  0.099559121	1.264160E+02	  0.099559121	1.243000E+00	  0.099559121	2.523500E+01
399	  0.099759519	-3.420000E-01	  0.099759519	1.260720E+02	  0.099759519	1.241000E+00	  0.099759519	2.542300E+01
400	  0.099959925	-3.390000E-01	  0.099959925	1.257300E+02	  0.099959925	1.235000E+00	  0.099959925	2.561200E+01
401	  0.100160323	-3.440000E-01	  0.100160323	1.253970E+02	  0.100160323	1.254000E+00	  0.100160323	2.579500E+01
402	  0.100360721	-3.450000E-01	  0.100360721	1.250450E+02	  0.100360721	1.263000E+00	  0.100360721	2.598900E+01
403	  0.100561127	-3.440000E-01	  0.100561127	1.247050E+02	  0.100561127	1.263000E+00	  0.100561127	2.617800E+01
404	  0.100761525	-3.460000E-01	  0.100761525	1.243550E+02	  0.100761525	1.275000E+00	  0.100761525	2.637300E+01
405	  0.100961931	-3.380000E-01	  0.100961931	1.239890E+02	  0.100961931	1.250000E+00	  0.100961931	2.657800E+01
406	  0.101162329	-3.420000E-01	  0.101162329	1.236690E+02	  0.101162329	1.268000E+00	  0.101162329	2.675700E+01
407	  0.101362728	-3.360000E-01	  0.101362728	1.233540E+02	  0.101362728	1.250000E+00	  0.101362728	2.693400E+01
408	  0.101563133	-3.450000E-01	  0.101563133	1.229900E+02	  0.101563133	1.287000E+00	  0.101563133	2.713900E+01
409	  0.101763532	-3.440000E-01	  0.101763532	1.226760E+02	  0.101763532	1.288000E+00	  0.101763532	2.731600E+01
410	  0.101963930	-3.450000E-01	  0.101963930	1.223180E+02	  0.101963930	1.296000E+00	  0.101963930	2.751900E+01
411	  0.102164336	-3.450000E-01	  0.102164336	1.219530E+02	  0.102164336	1.298000E+00	  0.102164336	2.772700E+01
412	  0.102364734	-3.540000E-01	  0.102364734	1.216070E+02	  0.102364734	1.338000E+00	  0.102364734	2.792400E+01
413	  0.102565132	-3.500000E-01	  0.102565132	1.212640E+02	  0.102565132	1.329000E+00	  0.102565132	2.812100E+01
414	  0.102765530	-3.570000E-01	  0.102765530	1.208890E+02	  0.102765530	1.361000E+00	  0.102765530	2.833600E+01
415	  0.102965929	-3.540000E-01	  0.102965929	1.205610E+02	  0.102965929	1.353000E+00	  0.102965929	2.852500E+01
416	  0.103166327	-3.600000E-01	  0.103166327	1.201550E+02	  0.103166327	1.380000E+00	  0.103166327	2.876000E+01
417	  0.103366733	-3.610000E-01	  0.103366733	1.198260E+02	  0.103366733	1.390000E+00	  0.103366733	2.895200E+01
418	  0.103567131	-3.530000E-01	  0.103567131	1.194460E+02	  0.103567131	1.364000E+00	  0.103567131	2.917300E+01
419	  0.103767529	-3.560000E-01	  0.103767529	1.190940E+02	  0.103767529	1.379000E+00	  0.103767529	2.938000E+01
420	  0.103967935	-3.610000E-01	  0.103967935	1.187580E+02	  0.103967935	1.405000E+00	  0.103967935	2.957700E+01
421	  0.104168333	-3.590000E-01	  0.104168333	1.184380E+02	  0.104168333	1.402000E+00	  0.104168333	2.976500E+01
422	  0.104368731	-3.640000E-01	  0.104368731	1.180570E+02	  0.104368731	1.427000E+00	  0.104368731	2.999000E+01
423	  0.104569137	-3.570000E-01	  0.104569137	1.177210E+02	  0.104569137	1.402000E+00	  0.104569137	3.019100E+01
424	  0.104769535	-3.610000E-01	  0.104769535	1.173960E+02	  0.104769535	1.425000E+00	  0.104769535	3.038400E+01
425	  0.104969934	-3.570000E-01	  0.104969934	1.170560E+02	  0.104969934	1.413000E+00	  0.104969934	3.058800E+01
426	  0.105170339	-3.720000E-01	  0.105170339	1.167410E+02	  0.105170339	1.476000E+00	  0.105170339	3.077500E+01
427	  0.105370738	-3.600000E-01	  0.105370738	1.164040E+02	  0.105370738	1.436000E+00	  0.105370738	3.098000E+01
428	  0.105571143	-3.760000E-01	  0.105571143	1.160940E+02	  0.105571143	1.503000E+00	  0.105571143	3.116500E+01
429	  0.105771542	-3.620000E-01	  0.105771542	1.157310E+02	  0.105771542	1.453000E+00	  0.105771542	3.138700E+01
430	  0.105971940	-3.690000E-01	  0.105971940	1.153520E+02	  0.105971940	1.490000E+00	  0.105971940	3.161700E+01
431	  0.106172346	-3.560000E-01	  0.106172346	1.150230E+02	  0.106172346	1.443000E+00	  0.106172346	3.181900E+01
432	  0.106372744	-3.670000E-01	  0.106372744	1.146640E+02	  0.106372744	1.492000E+00	  0.106372744	3.203900E+01
433	  0.106573142	-3.650000E-01	  0.106573142	1.143460E+02	  0.106573142	1.490000E+00	  0.106573142	3.223500E+01
434	  0.106773548	-3.670000E-01	  0.106773548	1.140030E+02	  0.106773548	1.503000E+00	  0.106773548	3.244700E+01
435	  0.106973946	-3.720000E-01	  0.106973946	1.136710E+02	  0.106973946	1.529000E+00	  0.106973946	3.265300E+01
436	  0.107174344	-3.680000E-01	  0.107174344	1.133180E+02	  0.107174344	1.518000E+00	  0.107174344	3.287300E+01
437	  0.107374750	-3.610000E-01	  0.107374750	1.130110E+02	  0.107374750	1.497000E+00	  0.107374750	3.306600E+01
438	  0.107575148	-3.650000E-01	  0.107575148	1.126330E+02	  0.107575148	1.520000E+00	  0.107575148	3.330300E+01
439	  0.107775547	-3.610000E-01	  0.107775547	1.123110E+02	  0.107775547	1.508000E+00	  0.107775547	3.350600E+01
440	  0.107975952	-3.620000E-01	  0.107975952	1.119410E+02	  0.107975952	1.517000E+00	  0.107975952	3.374100E+01
441	  0.108176351	-3.580000E-01	  0.108176351	1.116010E+02	  0.108176351	1.507000E+00	  0.108176351	3.395800E+01
442	  0.108376749	-3.600000E-01	  0.108376749	1.112560E+02	  0.108376749	1.520000E+00	  0.108376749	3.417800E+01
443	  0.108577155	-3.590000E-01	  0.108577155	1.109240E+02	  0.108577155	1.525000E+00	  0.108577155	3.439100E+01
444	  0.108777553	-3.560000E-01	  0.108777553	1.105720E+02	  0.108777553	1.516000E+00	  0.108777553	3.461800E+01
445	  0.108977959	-3.490000E-01	  0.108977959	1.102060E+02	  0.108977959	1.493000E+00	  0.108977959	3.485500E+01
446	  0.109178357	-3.540000E-01	  0.109178357	1.098990E+02	  0.109178357	1.522000E+00	  0.109178357	3.505300E+01
447	  0.109378755	-3.540000E-01	  0.109378755	1.095750E+02	  0.109378755	1.529000E+00	  0.109378755	3.526400E+01
448	  0.109579161	-3.490000E-01	  0.109579161	1.092270E+02	  0.109579161	1.511000E+00	  0.109579161	3.549300E+01
449	  0.109779559	-3.490000E-01	  0.109779559	1.088770E+02	  0.109779559	1.520000E+00	  0.109779559	3.572300E+01
450	  0.109979957	-3.450000E-01	  0.109979957	1.086160E+02	  0.109979957	1.506000E+00	  0.109979957	3.589600E+01
451	  0.110180363	-3.420000E-01	  0.110180363	1.082630E+02	  0.110180363	1.500000E+00	  0.110180363	3.613000E+01
452	  0.110380761	-3.500000E-01	  0.110380761	1.079600E+02	  0.110380761	1.539000E+00	  0.110380761	3.633100E+01
453	  0.110581160	-3.490000E-01	  0.110581160	1.076480E+02	  0.110581160	1.541000E+00	  0.110581160	3.653900E+01
454	  0.110781565	-3.530000E-01	  0.110781565	1.073260E+02	  0.110781565	1.566000E+00	  0.110781565	3.675400E+01
455	  0.110981964	-3.540000E-01	  0.110981964	1.069790E+02	  0.110981964	1.578000E+00	  0.110981964	3.698800E+01
456	  0.111182362	-3.530000E-01	  0.111182362	1.066710E+02	  0.111182362	1.579000E+00	  0.111182362	3.719600E+01
457	  0.111382768	-3.540000E-01	  0.111382768	1.063410E+02	  0.111382768	1.591000E+00	  0.111382768	3.742000E+01
458	  0.111583166	-3.490000E-01	  0.111583166	1.059970E+02	  0.111583166	1.577000E+00	  0.111583166	3.765500E+01
459	  0.111783572	-3.520000E-01	  0.111783572	1.057040E+02	  0.111783572	1.597000E+00	  0.111783572	3.785500E+01
460	  0.111983970	-3.560000E-01	  0.111983970	1.053550E+02	  0.111983970	1.621000E+00	  0.111983970	3.809500E+01
461	  0.112184368	-3.590000E-01	  0.112184368	1.050340E+02	  0.112184368	1.641000E+00	  0.112184368	3.831600E+01
462	  0.112384774	-3.570000E-01	  0.112384774	1.047030E+02	  0.112384774	1.641000E+00	  0.112384774	3.854600E+01
463	  0.112585172	-3.530000E-01	  0.112585172	1.043810E+02	  0.112585172	1.629000E+00	  0.112585172	3.877100E+01
464	  0.112785570	-3.570000E-01	  0.112785570	1.040630E+02	  0.112785570	1.652000E+00	  0.112785570	3.899300E+01
465	  0.112985976	-3.560000E-01	  0.112985976	1.037050E+02	  0.112985976	1.657000E+00	  0.112985976	3.924500E+01
466	  0.113186374	-3.570000E-01	  0.113186374	1.033390E+02	  0.113186374	1.669000E+00	  0.113186374	3.950300E+01
467	  0.113386773	-3.540000E-01	  0.113386773	1.030260E+02	  0.113386773	1.663000E+00	  0.113386773	3.972500E+01
468	  0.113587178	-3.540000E-01	  0.113587178	1.026640E+02	  0.113587178	1.674000E+00	  0.113587178	3.998300E+01
469	  0.113787577	-3.530000E-01	  0.113787577	1.023460E+02	  0.113787577	1.675000E+00	  0.113787577	4.021200E+01
470	  0.113987975	-3.490000E-01	  0.113987975	1.019940E+02	  0.113987975	1.665000E+00	  0.113987975	4.046500E+01
471	  0.114188381	-3.530000E-01	  0.114188381	1.016840E+02	  0.114188381	1.691000E+00	  0.114188381	4.068900E+01
472	  0.114388779	-3.490000E-01	  0.114388779	1.013080E+02	  0.114388779	1.681000E+00	  0.114388779	4.096300E+01
473	  0.114589177	-3.480000E-01	  0.114589177	1.009580E+02	  0.114589177	1.687000E+00	  0.114589177	4.121900E+01
474	  0.114789583	-3.500000E-01	  0.114789583	1.006200E+02	  0.114789583	1.703000E+00	  0.114789583	4.146700E+01
475	  0.114989981	-3.420000E-01	  0.114989981	1.002980E+02	  0.114989981	1.672000E+00	  0.114989981	4.170600E+01
476	  0.115190387	-3.430000E-01	  0.115190387	9.996300E+01	  0.115190387	1.685000E+00	  0.115190387	4.195300E+01
477	  0.115390785	-3.410000E-01	  0.115390785	9.963700E+01	  0.115390785	1.684000E+00	  0.115390785	4.219700E+01
478	  0.115591183	-3.450000E-01	  0.115591183	9.934200E+01	  0.115591183	1.709000E+00	  0.115591183	4.241700E+01
479	  0.115791589	-3.370000E-01	  0.115791589	9.902600E+01	  0.115791589	1.678000E+00	  0.115791589	4.265600E+01
480	  0.115991987	-3.450000E-01	  0.115991987	9.870500E+01	  0.115991987	1.724000E+00	  0.115991987	4.289700E+01
481	  0.116192386	-3.440000E-01	  0.116192386	9.836400E+01	  0.116192386	1.730000E+00	  0.116192386	4.315600E+01
482	  0.116392791	-3.440000E-01	  0.116392791	9.807000E+01	  0.116392791	1.739000E+00	  0.116392791	4.338000E+01
483	  0.116593190	-3.420000E-01	  0.116593190	9.773200E+01	  0.116593190	1.739000E+00	  0.116593190	4.363900E+01
484	  0.116793588	-3.450000E-01	  0.116793588	9.745800E+01	  0.116793588	1.757000E+00	  0.116793588	4.385000E+01
485	  0.116993994	-3.460000E-01	  0.116993994	9.708200E+01	  0.116993994	1.774000E+00	  0.116993994	4.414000E+01
486	  0.117194392	-3.520000E-01	  0.117194392	9.677300E+01	  0.117194392	1.813000E+00	  0.117194392	4.437900E+01
487	  0.117394790	-3.570000E-01	  0.117394790	9.644500E+01	  0.117394790	1.847000E+00	  0.117394790	4.463500E+01
488	  0.117595196	-3.510000E-01	  0.117595196	9.615900E+01	  0.117595196	1.826000E+00	  0.117595196	4.486100E+01
489	  0.117795594	-3.520000E-01	  0.117795594	9.581300E+01	  0.117795594	1.843000E+00	  0.117795594	4.513300E+01
490	  0.117995992	-3.510000E-01	  0.117995992	9.548500E+01	  0.117995992	1.843000E+00	  0.117995992	4.539400E+01
491	  0.118196398	-3.520000E-01	  0.118196398	9.515200E+01	  0.118196398	1.861000E+00	  0.118196398	4.565900E+01
492	  0.118396796	-3.550000E-01	  0.118396796	9.486100E+01	  0.118396796	1.886000E+00	  0.118396796	4.589200E+01
493	  0.118597202	-3.550000E-01	  0.118597202	9.453000E+01	  0.118597202	1.893000E+00	  0.118597202	4.615900E+01
494	  0.118797600	-3.570000E-01	  0.118797600	9.420700E+01	  0.118797600	1.918000E+00	  0.118797600	4.641900E+01
495	  0.118997999	-3.490000E-01	  0.118997999	9.386300E+01	  0.118997999	1.886000E+00	  0.118997999	4.670100E+01
496	  0.119198404	-3.560000E-01	  0.119198404	9.357200E+01	  0.119198404	1.930000E+00	  0.119198404	4.693800E+01
497	  0.119398803	-3.550000E-01	  0.119398803	9.323200E+01	  0.119398803	1.935000E+00	  0.119398803	4.721800E+01
498	  0.119599201	-3.510000E-01	  0.119599201	9.291000E+01	  0.119599201	1.924000E+00	  0.119599201	4.748500E+01
499	  0.119799607	-3.540000E-01	  0.119799607	9.260500E+01	  0.119799607	1.950000E+00	  0.119799607	4.773800E+01
500	  0.120000005	-3.480000E-01	  0.120000005	9.227300E+01	  0.120000005	1.930000E+00	  0.120000005	4.801700E+01
