! Anritsu VNA Master:             	Model: MS2036C/10/77
! SN:             	1601066
! /bd0/18may26.balun/4a.r50.2.txt
! Existing Calibration Information:
! TYPE:             	Current Settings	Active Cal Settings
! TIME:             	05/26/2018 03:24:38 PM	05/26/2018 02:51:55 PM
! INTERNAL TEMP:    	59.8 C	59.5 C
! # POINTS:         	500	500
! START FREQ:       	20.000 MHz	20.000 MHz
! STOP FREQ:        	120.000 MHz	120.000 MHz
! SOURCE POWER:     	High	High
! IFBW:             	50 Hz	50 Hz
! AVG FACTOR:       	  1 	  1 
! REF PLANE 1:      	0 mm	0 mm
! REF PLANE 2:      	0 mm	0 mm
! CAL TYPE:         	Full S11	Full S11
! CAL METHOD:       	SOLT	SOLT
! CAL LINE TYPE:    	Coax	Coax
! DUT PORT 1:       	K-Conn(M)	K-Conn(M)
! DUT PORT 2:       	K-Conn(M)	K-Conn(M)
! CAL STATUS:       	OK: Accuracy High	--
! PROP-V:       	0.700
! CABLE LOSS:       	0.000 dB/m
! REF IMPEDANCE:       	50.0
! Trace Specific Parameters:	TR1	TR2	TR3	TR4
! TRACE.#.Y (GRAPH TYPE)	LOG MAG	PHASE	REAL IMPEDANCE	IMAGINARY IMPEDANCE
! TRACE.#.X 	FREQ.GHZ	FREQ.GHZ	FREQ.GHZ	FREQ.GHZ
! S-PARAMETER	S11	S11	S11	S11
! SMOOTH/APERTURE %	0	0	0	0
! WINDOW	NSL	NSL	NSL	NSL
! GATING	OFF	OFF	OFF	OFF
! FGTD	OFF	OFF	OFF	OFF
Marker Information per Trace:	TR1	TR2	TR3	TR4
!MK1	--	--	--	--
!MK2	--	--	--	--
!MK3	--	--	--	--
!MK4	--	--	--	--
!MK5	--	--	--	--
!MK6	--	--	--	--
!MK7	--	--	--	--
!MK8	--	--	--	--
PNT	TR1.FREQ.GHZ	TR1.LOG MAG.dB	TR2.FREQ.GHZ	TR2.PHASE.deg	TR3.FREQ.GHZ	TR3.REAL IMPEDANCE.ohm	TR4.FREQ.GHZ	TR4.IMAGINARY IMPEDANCE.ohm
1	  0.020000000	-3.912800E+01	  0.020000000	4.923400E+01	  0.020000000	5.072000E+01	  0.020000000	8.490000E-01
2	  0.020200402	-3.897300E+01	  0.020200402	4.936200E+01	  0.020200402	5.073000E+01	  0.020200402	8.660000E-01
3	  0.020400802	-3.890000E+01	  0.020400802	4.861100E+01	  0.020400802	5.074800E+01	  0.020400802	8.640000E-01
4	  0.020601204	-3.871000E+01	  0.020601204	4.933200E+01	  0.020601204	5.075300E+01	  0.020601204	8.930000E-01
5	  0.020801604	-3.857500E+01	  0.020801604	4.874200E+01	  0.020801604	5.077500E+01	  0.020801604	8.990000E-01
6	  0.021002004	-3.856700E+01	  0.021002004	4.939000E+01	  0.021002004	5.076500E+01	  0.021002004	9.090000E-01
7	  0.021202406	-3.833300E+01	  0.021202406	4.921500E+01	  0.021202406	5.078900E+01	  0.021202406	9.310000E-01
8	  0.021402806	-3.839000E+01	  0.021402806	4.960800E+01	  0.021402806	5.077700E+01	  0.021402806	9.310000E-01
9	  0.021603208	-3.824300E+01	  0.021603208	4.914200E+01	  0.021603208	5.079800E+01	  0.021603208	9.400000E-01
10	  0.021803608	-3.820800E+01	  0.021803608	5.008900E+01	  0.021803608	5.078500E+01	  0.021803608	9.570000E-01
11	  0.022004008	-3.809900E+01	  0.022004008	4.942900E+01	  0.022004008	5.080600E+01	  0.022004008	9.600000E-01
12	  0.022204408	-3.812900E+01	  0.022204408	5.004200E+01	  0.022204408	5.079300E+01	  0.022204408	9.660000E-01
13	  0.022404809	-3.795100E+01	  0.022404809	4.968100E+01	  0.022404809	5.081600E+01	  0.022404809	9.810000E-01
14	  0.022605211	-3.798400E+01	  0.022605211	4.989100E+01	  0.022605211	5.080900E+01	  0.022605211	9.800000E-01
15	  0.022805611	-3.778900E+01	  0.022805611	4.965900E+01	  0.022805611	5.083200E+01	  0.022805611	9.990000E-01
16	  0.023006011	-3.789600E+01	  0.023006011	4.966600E+01	  0.023006011	5.082100E+01	  0.023006011	9.870000E-01
17	  0.023206413	-3.776300E+01	  0.023206413	5.002600E+01	  0.023206413	5.082700E+01	  0.023206413	1.007000E+00
18	  0.023406813	-3.781100E+01	  0.023406813	5.005900E+01	  0.023406813	5.082200E+01	  0.023406813	1.002000E+00
19	  0.023607215	-3.764500E+01	  0.023607215	4.986800E+01	  0.023607215	5.084200E+01	  0.023607215	1.019000E+00
20	  0.023807615	-3.767200E+01	  0.023807615	4.966600E+01	  0.023807615	5.084300E+01	  0.023807615	1.013000E+00
21	  0.024008015	-3.761500E+01	  0.024008015	4.908700E+01	  0.024008015	5.085900E+01	  0.024008015	1.011000E+00
22	  0.024208417	-3.753100E+01	  0.024208417	4.963100E+01	  0.024208417	5.085700E+01	  0.024208417	1.029000E+00
23	  0.024408817	-3.741200E+01	  0.024408817	4.873500E+01	  0.024408817	5.088500E+01	  0.024408817	1.030000E+00
24	  0.024609219	-3.738300E+01	  0.024609219	4.893400E+01	  0.024609219	5.088500E+01	  0.024609219	1.037000E+00
25	  0.024809619	-3.722600E+01	  0.024809619	4.874700E+01	  0.024809619	5.090400E+01	  0.024809619	1.053000E+00
26	  0.025010020	-3.722500E+01	  0.025010020	4.843500E+01	  0.025010020	5.091000E+01	  0.025010020	1.048000E+00
27	  0.025210422	-3.720100E+01	  0.025210422	4.916100E+01	  0.025210422	5.089900E+01	  0.025210422	1.063000E+00
28	  0.025410822	-3.705800E+01	  0.025410822	4.896100E+01	  0.025410822	5.091800E+01	  0.025410822	1.077000E+00
29	  0.025611224	-3.701200E+01	  0.025611224	4.883200E+01	  0.025611224	5.092500E+01	  0.025611224	1.081000E+00
30	  0.025811624	-3.695900E+01	  0.025811624	4.950100E+01	  0.025811624	5.091800E+01	  0.025811624	1.099000E+00
31	  0.026012026	-3.683500E+01	  0.026012026	4.930400E+01	  0.026012026	5.093500E+01	  0.026012026	1.112000E+00
32	  0.026212426	-3.678000E+01	  0.026212426	4.940000E+01	  0.026212426	5.093900E+01	  0.026212426	1.120000E+00
33	  0.026412826	-3.679000E+01	  0.026412826	4.986800E+01	  0.026412826	5.092800E+01	  0.026412826	1.127000E+00
34	  0.026613226	-3.675800E+01	  0.026613226	5.053900E+01	  0.026613226	5.091800E+01	  0.026613226	1.142000E+00
35	  0.026813626	-3.669000E+01	  0.026813626	5.083100E+01	  0.026813626	5.091900E+01	  0.026813626	1.156000E+00
36	  0.027014028	-3.660800E+01	  0.027014028	5.108200E+01	  0.027014028	5.092300E+01	  0.027014028	1.171000E+00
37	  0.027214428	-3.673100E+01	  0.027214428	5.079500E+01	  0.027214428	5.091600E+01	  0.027214428	1.149000E+00
38	  0.027414829	-3.674100E+01	  0.027414829	5.118800E+01	  0.027414829	5.090700E+01	  0.027414829	1.154000E+00
39	  0.027615231	-3.687500E+01	  0.027615231	5.058100E+01	  0.027615231	5.090500E+01	  0.027615231	1.127000E+00
40	  0.027815631	-3.683300E+01	  0.027815631	5.080100E+01	  0.027815631	5.090500E+01	  0.027815631	1.136000E+00
41	  0.028016033	-3.679800E+01	  0.028016033	5.055100E+01	  0.028016033	5.091400E+01	  0.028016033	1.137000E+00
42	  0.028216433	-3.682000E+01	  0.028216433	5.043300E+01	  0.028216433	5.091400E+01	  0.028216433	1.132000E+00
43	  0.028416833	-3.676600E+01	  0.028416833	4.993400E+01	  0.028416833	5.093000E+01	  0.028416833	1.131000E+00
44	  0.028617235	-3.677600E+01	  0.028617235	4.973900E+01	  0.028617235	5.093200E+01	  0.028617235	1.126000E+00
45	  0.028817635	-3.669800E+01	  0.028817635	4.934200E+01	  0.028817635	5.094900E+01	  0.028817635	1.130000E+00
46	  0.029018037	-3.674300E+01	  0.029018037	4.860200E+01	  0.029018037	5.095900E+01	  0.029018037	1.112000E+00
47	  0.029218437	-3.667400E+01	  0.029218437	4.844100E+01	  0.029218437	5.097000E+01	  0.029218437	1.118000E+00
48	  0.029418837	-3.663300E+01	  0.029418837	4.789900E+01	  0.029418837	5.098500E+01	  0.029418837	1.115000E+00
49	  0.029619239	-3.659100E+01	  0.029619239	4.772300E+01	  0.029619239	5.099300E+01	  0.029619239	1.117000E+00
50	  0.029819639	-3.645500E+01	  0.029819639	4.717800E+01	  0.029819639	5.102000E+01	  0.029819639	1.125000E+00
51	  0.030020041	-3.640100E+01	  0.030020041	4.679400E+01	  0.030020041	5.103400E+01	  0.030020041	1.126000E+00
52	  0.030220442	-3.628100E+01	  0.030220442	4.662600E+01	  0.030220442	5.105200E+01	  0.030220442	1.139000E+00
53	  0.030420844	-3.628100E+01	  0.030420844	4.632700E+01	  0.030420844	5.105800E+01	  0.030420844	1.133000E+00
54	  0.030621244	-3.616100E+01	  0.030621244	4.668400E+01	  0.030621244	5.106500E+01	  0.030621244	1.156000E+00
55	  0.030821644	-3.607000E+01	  0.030821644	4.589100E+01	  0.030821644	5.109300E+01	  0.030821644	1.153000E+00
56	  0.031022044	-3.596300E+01	  0.031022044	4.653800E+01	  0.031022044	5.109300E+01	  0.031022044	1.180000E+00
57	  0.031222444	-3.584500E+01	  0.031222444	4.676300E+01	  0.031222444	5.110300E+01	  0.031222444	1.201000E+00
58	  0.031422846	-3.571200E+01	  0.031422846	4.721900E+01	  0.031422846	5.111000E+01	  0.031422846	1.229000E+00
59	  0.031623244	-3.567500E+01	  0.031623244	4.704000E+01	  0.031623244	5.111800E+01	  0.031623244	1.231000E+00
60	  0.031823646	-3.574800E+01	  0.031823646	4.722800E+01	  0.031823646	5.110500E+01	  0.031823646	1.224000E+00
61	  0.032024048	-3.561900E+01	  0.032024048	4.750800E+01	  0.032024048	5.111500E+01	  0.032024048	1.248000E+00
62	  0.032224450	-3.554500E+01	  0.032224450	4.790200E+01	  0.032224450	5.111600E+01	  0.032224450	1.267000E+00
63	  0.032424849	-3.570400E+01	  0.032424849	4.896700E+01	  0.032424849	5.107200E+01	  0.032424849	1.263000E+00
64	  0.032625251	-3.569300E+01	  0.032625251	4.897200E+01	  0.032625251	5.107300E+01	  0.032625251	1.265000E+00
65	  0.032825653	-3.568700E+01	  0.032825653	4.923200E+01	  0.032825653	5.106800E+01	  0.032825653	1.271000E+00
66	  0.033026051	-3.574500E+01	  0.033026051	4.913200E+01	  0.033026051	5.106300E+01	  0.033026051	1.260000E+00
67	  0.033226453	-3.577500E+01	  0.033226453	4.881800E+01	  0.033226453	5.106600E+01	  0.033226453	1.250000E+00
68	  0.033426855	-3.580200E+01	  0.033426855	4.884900E+01	  0.033426855	5.106200E+01	  0.033426855	1.247000E+00
69	  0.033627257	-3.588800E+01	  0.033627257	4.778700E+01	  0.033627257	5.107500E+01	  0.033627257	1.214000E+00
70	  0.033827655	-3.587400E+01	  0.033827655	4.734200E+01	  0.033827655	5.108700E+01	  0.033827655	1.208000E+00
71	  0.034028057	-3.591000E+01	  0.034028057	4.699300E+01	  0.034028057	5.109000E+01	  0.034028057	1.196000E+00
72	  0.034228459	-3.595000E+01	  0.034228459	4.655100E+01	  0.034228459	5.109400E+01	  0.034228459	1.182000E+00
73	  0.034428857	-3.593500E+01	  0.034428857	4.568900E+01	  0.034428857	5.111400E+01	  0.034428857	1.168000E+00
74	  0.034629259	-3.590000E+01	  0.034629259	4.470000E+01	  0.034629259	5.113900E+01	  0.034629259	1.153000E+00
75	  0.034829661	-3.582400E+01	  0.034829661	4.401600E+01	  0.034829661	5.116300E+01	  0.034829661	1.150000E+00
76	  0.035030060	-3.577100E+01	  0.035030060	4.371200E+01	  0.035030060	5.117700E+01	  0.035030060	1.151000E+00
77	  0.035230462	-3.571400E+01	  0.035230462	4.291800E+01	  0.035230462	5.120100E+01	  0.035230462	1.142000E+00
78	  0.035430863	-3.557000E+01	  0.035430863	4.297400E+01	  0.035430863	5.122000E+01	  0.035430863	1.163000E+00
79	  0.035631265	-3.535400E+01	  0.035631265	4.228100E+01	  0.035631265	5.126500E+01	  0.035631265	1.177000E+00
80	  0.035831664	-3.531200E+01	  0.035831664	4.183600E+01	  0.035831664	5.128100E+01	  0.035831664	1.173000E+00
81	  0.036032066	-3.521900E+01	  0.036032066	4.160500E+01	  0.036032066	5.129900E+01	  0.036032066	1.181000E+00
82	  0.036232468	-3.503400E+01	  0.036232468	4.140200E+01	  0.036232468	5.133200E+01	  0.036232468	1.202000E+00
83	  0.036432866	-3.496700E+01	  0.036432866	4.171500E+01	  0.036432866	5.133500E+01	  0.036432866	1.219000E+00
84	  0.036633268	-3.481700E+01	  0.036633268	4.200300E+01	  0.036633268	5.135200E+01	  0.036633268	1.248000E+00
85	  0.036833670	-3.473700E+01	  0.036833670	4.170200E+01	  0.036833670	5.137100E+01	  0.036833670	1.253000E+00
86	  0.037034072	-3.462800E+01	  0.037034072	4.243600E+01	  0.037034072	5.137200E+01	  0.037034072	1.287000E+00
87	  0.037234470	-3.453600E+01	  0.037234470	4.296100E+01	  0.037234470	5.137400E+01	  0.037234470	1.314000E+00
88	  0.037434869	-3.443800E+01	  0.037434869	4.319600E+01	  0.037434869	5.138400E+01	  0.037434869	1.334000E+00
89	  0.037635271	-3.439500E+01	  0.037635271	4.399700E+01	  0.037635271	5.137200E+01	  0.037635271	1.361000E+00
90	  0.037835669	-3.448100E+01	  0.037835669	4.481800E+01	  0.037835669	5.133800E+01	  0.037835669	1.366000E+00
91	  0.038036071	-3.439800E+01	  0.038036071	4.509200E+01	  0.038036071	5.134400E+01	  0.038036071	1.386000E+00
92	  0.038236473	-3.448500E+01	  0.038236473	4.596400E+01	  0.038236473	5.130900E+01	  0.038236473	1.392000E+00
93	  0.038436871	-3.452700E+01	  0.038436871	4.585100E+01	  0.038436871	5.130600E+01	  0.038436871	1.383000E+00
94	  0.038637273	-3.457100E+01	  0.038637273	4.602700E+01	  0.038637273	5.129500E+01	  0.038637273	1.379000E+00
95	  0.038837675	-3.462900E+01	  0.038837675	4.588600E+01	  0.038837675	5.129000E+01	  0.038837675	1.367000E+00
96	  0.039038073	-3.472200E+01	  0.039038073	4.604100E+01	  0.039038073	5.127200E+01	  0.039038073	1.355000E+00
97	  0.039238475	-3.473400E+01	  0.039238475	4.606500E+01	  0.039238475	5.127000E+01	  0.039238475	1.354000E+00
98	  0.039438877	-3.478200E+01	  0.039438877	4.577300E+01	  0.039438877	5.127000E+01	  0.039438877	1.340000E+00
99	  0.039639279	-3.479900E+01	  0.039639279	4.532500E+01	  0.039639279	5.127800E+01	  0.039639279	1.327000E+00
100	  0.039839678	-3.485700E+01	  0.039839678	4.530600E+01	  0.039839678	5.127000E+01	  0.039839678	1.318000E+00
101	  0.040040080	-3.487800E+01	  0.040040080	4.419100E+01	  0.040040080	5.129300E+01	  0.040040080	1.289000E+00
102	  0.040240481	-3.489200E+01	  0.040240481	4.386000E+01	  0.040240481	5.129900E+01	  0.040240481	1.280000E+00
103	  0.040440880	-3.484100E+01	  0.040440880	4.335200E+01	  0.040440880	5.131800E+01	  0.040440880	1.276000E+00
104	  0.040641282	-3.488400E+01	  0.040641282	4.265400E+01	  0.040641282	5.132700E+01	  0.040641282	1.253000E+00
105	  0.040841684	-3.481300E+01	  0.040841684	4.162000E+01	  0.040841684	5.136100E+01	  0.040841684	1.240000E+00
106	  0.041042086	-3.483100E+01	  0.041042086	4.117600E+01	  0.041042086	5.136800E+01	  0.041042086	1.226000E+00
107	  0.041242484	-3.469100E+01	  0.041242484	4.119300E+01	  0.041242484	5.139000E+01	  0.041242484	1.247000E+00
108	  0.041442886	-3.465300E+01	  0.041442886	4.042300E+01	  0.041442886	5.141400E+01	  0.041442886	1.234000E+00
109	  0.041643288	-3.453000E+01	  0.041643288	3.992700E+01	  0.041643288	5.144500E+01	  0.041643288	1.240000E+00
110	  0.041843686	-3.447000E+01	  0.041843686	3.968100E+01	  0.041843686	5.146000E+01	  0.041843686	1.242000E+00
111	  0.042044088	-3.434500E+01	  0.042044088	3.950500E+01	  0.042044088	5.148600E+01	  0.042044088	1.256000E+00
112	  0.042244490	-3.427200E+01	  0.042244490	3.944700E+01	  0.042244490	5.150000E+01	  0.042244490	1.265000E+00
113	  0.042444889	-3.419600E+01	  0.042444889	3.980400E+01	  0.042444889	5.150400E+01	  0.042444889	1.286000E+00
114	  0.042645290	-3.409400E+01	  0.042645290	3.978100E+01	  0.042645290	5.152300E+01	  0.042645290	1.301000E+00
115	  0.042845692	-3.405700E+01	  0.042845692	3.982600E+01	  0.042845692	5.152800E+01	  0.042845692	1.308000E+00
116	  0.043046094	-3.394400E+01	  0.043046094	4.022700E+01	  0.043046094	5.153900E+01	  0.043046094	1.337000E+00
117	  0.043246493	-3.391600E+01	  0.043246493	4.014500E+01	  0.043246493	5.154600E+01	  0.043246493	1.339000E+00
118	  0.043446895	-3.394500E+01	  0.043446895	4.028300E+01	  0.043446895	5.153700E+01	  0.043446895	1.338000E+00
119	  0.043647297	-3.387300E+01	  0.043647297	4.018100E+01	  0.043647297	5.155300E+01	  0.043647297	1.347000E+00
120	  0.043847695	-3.390500E+01	  0.043847695	4.078800E+01	  0.043847695	5.153200E+01	  0.043847695	1.358000E+00
121	  0.044048097	-3.390900E+01	  0.044048097	4.076700E+01	  0.044048097	5.153200E+01	  0.044048097	1.357000E+00
122	  0.044248499	-3.388800E+01	  0.044248499	4.089700E+01	  0.044248499	5.153300E+01	  0.044248499	1.364000E+00
123	  0.044448901	-3.388500E+01	  0.044448901	4.052500E+01	  0.044448901	5.154200E+01	  0.044448901	1.354000E+00
124	  0.044649299	-3.393900E+01	  0.044649299	4.040000E+01	  0.044649299	5.153600E+01	  0.044649299	1.342000E+00
125	  0.044849701	-3.389600E+01	  0.044849701	4.008800E+01	  0.044849701	5.155100E+01	  0.044849701	1.341000E+00
126	  0.045050103	-3.390800E+01	  0.045050103	4.035500E+01	  0.045050103	5.154200E+01	  0.045050103	1.346000E+00
127	  0.045250501	-3.387400E+01	  0.045250501	3.975600E+01	  0.045250501	5.156300E+01	  0.045250501	1.335000E+00
128	  0.045450903	-3.386100E+01	  0.045450903	3.959500E+01	  0.045450903	5.156900E+01	  0.045450903	1.333000E+00
129	  0.045651305	-3.387200E+01	  0.045651305	3.863400E+01	  0.045651305	5.159000E+01	  0.045651305	1.304000E+00
130	  0.045851704	-3.381500E+01	  0.045851704	3.887300E+01	  0.045851704	5.159500E+01	  0.045851704	1.320000E+00
131	  0.046052106	-3.375700E+01	  0.046052106	3.832500E+01	  0.046052106	5.161800E+01	  0.046052106	1.314000E+00
132	  0.046252504	-3.376800E+01	  0.046252504	3.826900E+01	  0.046252504	5.161800E+01	  0.046252504	1.310000E+00
133	  0.046452906	-3.371800E+01	  0.046452906	3.753400E+01	  0.046452906	5.164400E+01	  0.046452906	1.297000E+00
134	  0.046653304	-3.366400E+01	  0.046653304	3.767200E+01	  0.046653304	5.165200E+01	  0.046653304	1.309000E+00
135	  0.046853706	-3.355400E+01	  0.046853706	3.737700E+01	  0.046853706	5.168000E+01	  0.046853706	1.318000E+00
136	  0.047054108	-3.352000E+01	  0.047054108	3.724000E+01	  0.047054108	5.169000E+01	  0.047054108	1.319000E+00
137	  0.047254506	-3.347500E+01	  0.047254506	3.758300E+01	  0.047254506	5.169000E+01	  0.047254506	1.337000E+00
138	  0.047454908	-3.337100E+01	  0.047454908	3.743500E+01	  0.047454908	5.171400E+01	  0.047454908	1.349000E+00
139	  0.047655310	-3.331200E+01	  0.047655310	3.794300E+01	  0.047655310	5.171400E+01	  0.047655310	1.374000E+00
140	  0.047855709	-3.323100E+01	  0.047855709	3.752600E+01	  0.047855709	5.174000E+01	  0.047855709	1.374000E+00
141	  0.048056111	-3.324600E+01	  0.048056111	3.800800E+01	  0.048056111	5.172500E+01	  0.048056111	1.386000E+00
142	  0.048256513	-3.320600E+01	  0.048256513	3.809000E+01	  0.048256513	5.173100E+01	  0.048256513	1.396000E+00
143	  0.048456915	-3.314800E+01	  0.048456915	3.819300E+01	  0.048456915	5.174000E+01	  0.048456915	1.408000E+00
144	  0.048657313	-3.318800E+01	  0.048657313	3.760300E+01	  0.048657313	5.174700E+01	  0.048657313	1.384000E+00
145	  0.048857715	-3.314600E+01	  0.048857715	3.854800E+01	  0.048857715	5.173100E+01	  0.048857715	1.420000E+00
146	  0.049058117	-3.315500E+01	  0.049058117	3.832100E+01	  0.049058117	5.173500E+01	  0.049058117	1.411000E+00
147	  0.049258515	-3.321400E+01	  0.049258515	3.878700E+01	  0.049258515	5.171200E+01	  0.049258515	1.415000E+00
148	  0.049458917	-3.318000E+01	  0.049458917	3.826500E+01	  0.049458917	5.173200E+01	  0.049458917	1.405000E+00
149	  0.049659319	-3.319600E+01	  0.049659319	3.855500E+01	  0.049659319	5.172100E+01	  0.049659319	1.411000E+00
150	  0.049859721	-3.320300E+01	  0.049859721	3.846900E+01	  0.049859721	5.172200E+01	  0.049859721	1.408000E+00
151	  0.050060119	-3.324700E+01	  0.050060119	3.827600E+01	  0.050060119	5.171800E+01	  0.050060119	1.394000E+00
152	  0.050260521	-3.330800E+01	  0.050260521	3.765800E+01	  0.050260521	5.172100E+01	  0.050260521	1.366000E+00
153	  0.050460923	-3.329400E+01	  0.050460923	3.740200E+01	  0.050460923	5.173100E+01	  0.050460923	1.360000E+00
154	  0.050661322	-3.327200E+01	  0.050661322	3.715500E+01	  0.050661322	5.174100E+01	  0.050661322	1.356000E+00
155	  0.050861724	-3.333800E+01	  0.050861724	3.682800E+01	  0.050861724	5.173600E+01	  0.050861724	1.336000E+00
156	  0.051062126	-3.327800E+01	  0.051062126	3.636200E+01	  0.051062126	5.175900E+01	  0.051062126	1.331000E+00
157	  0.051262524	-3.320200E+01	  0.051262524	3.632000E+01	  0.051262524	5.177600E+01	  0.051262524	1.342000E+00
158	  0.051462926	-3.322100E+01	  0.051462926	3.591000E+01	  0.051462926	5.178200E+01	  0.051462926	1.326000E+00
159	  0.051663328	-3.319800E+01	  0.051663328	3.526000E+01	  0.051663328	5.180200E+01	  0.051663328	1.309000E+00
160	  0.051863730	-3.312600E+01	  0.051863730	3.497700E+01	  0.051863730	5.182400E+01	  0.051863730	1.311000E+00
161	  0.052064128	-3.315900E+01	  0.052064128	3.464600E+01	  0.052064128	5.182400E+01	  0.052064128	1.295000E+00
162	  0.052264530	-3.303900E+01	  0.052264530	3.432400E+01	  0.052264530	5.185800E+01	  0.052264530	1.304000E+00
163	  0.052464932	-3.295700E+01	  0.052464932	3.422200E+01	  0.052464932	5.187800E+01	  0.052464932	1.313000E+00
164	  0.052665330	-3.294600E+01	  0.052665330	3.409300E+01	  0.052665330	5.188400E+01	  0.052665330	1.310000E+00
165	  0.052865732	-3.283600E+01	  0.052865732	3.352000E+01	  0.052865732	5.192200E+01	  0.052865732	1.308000E+00
166	  0.053066134	-3.277500E+01	  0.053066134	3.382900E+01	  0.053066134	5.192800E+01	  0.053066134	1.328000E+00
167	  0.053266536	-3.276900E+01	  0.053266536	3.388800E+01	  0.053266536	5.192800E+01	  0.053266536	1.331000E+00
168	  0.053466935	-3.265100E+01	  0.053466935	3.341300E+01	  0.053466935	5.196600E+01	  0.053466935	1.334000E+00
169	  0.053667337	-3.261100E+01	  0.053667337	3.384600E+01	  0.053667337	5.196400E+01	  0.053667337	1.355000E+00
170	  0.053867739	-3.258100E+01	  0.053867739	3.364200E+01	  0.053867739	5.197600E+01	  0.053867739	1.353000E+00
171	  0.054068137	-3.259900E+01	  0.054068137	3.400000E+01	  0.054068137	5.196300E+01	  0.054068137	1.363000E+00
172	  0.054268539	-3.252000E+01	  0.054268539	3.430500E+01	  0.054268539	5.197400E+01	  0.054268539	1.386000E+00
173	  0.054468941	-3.253600E+01	  0.054468941	3.412700E+01	  0.054468941	5.197500E+01	  0.054468941	1.377000E+00
174	  0.054669339	-3.255800E+01	  0.054669339	3.428400E+01	  0.054669339	5.196600E+01	  0.054669339	1.379000E+00
175	  0.054869737	-3.250200E+01	  0.054869737	3.393700E+01	  0.054869737	5.198700E+01	  0.054869737	1.376000E+00
176	  0.055070139	-3.249000E+01	  0.055070139	3.387800E+01	  0.055070139	5.199100E+01	  0.055070139	1.376000E+00
177	  0.055270538	-3.245100E+01	  0.055270538	3.380300E+01	  0.055270538	5.200200E+01	  0.055270538	1.380000E+00
178	  0.055470940	-3.251600E+01	  0.055470940	3.385600E+01	  0.055470940	5.198600E+01	  0.055470940	1.371000E+00
179	  0.055671342	-3.244600E+01	  0.055671342	3.375900E+01	  0.055671342	5.200500E+01	  0.055671342	1.379000E+00
180	  0.055871744	-3.247700E+01	  0.055871744	3.418700E+01	  0.055871744	5.198700E+01	  0.055871744	1.389000E+00
181	  0.056072142	-3.247200E+01	  0.056072142	3.369600E+01	  0.056072142	5.200000E+01	  0.056072142	1.373000E+00
182	  0.056272544	-3.241000E+01	  0.056272544	3.352100E+01	  0.056272544	5.201900E+01	  0.056272544	1.377000E+00
183	  0.056472946	-3.245500E+01	  0.056472946	3.302500E+01	  0.056472946	5.202100E+01	  0.056472946	1.352000E+00
184	  0.056673344	-3.237300E+01	  0.056673344	3.335300E+01	  0.056673344	5.203200E+01	  0.056673344	1.377000E+00
185	  0.056873746	-3.242000E+01	  0.056873746	3.283000E+01	  0.056873746	5.203400E+01	  0.056873746	1.351000E+00
186	  0.057074148	-3.231600E+01	  0.057074148	3.262600E+01	  0.057074148	5.206400E+01	  0.057074148	1.360000E+00
187	  0.057274550	-3.225800E+01	  0.057274550	3.243200E+01	  0.057274550	5.208300E+01	  0.057274550	1.362000E+00
188	  0.057474948	-3.228300E+01	  0.057474948	3.270400E+01	  0.057474948	5.207000E+01	  0.057474948	1.368000E+00
189	  0.057675350	-3.222300E+01	  0.057675350	3.279200E+01	  0.057675350	5.208200E+01	  0.057675350	1.381000E+00
190	  0.057875752	-3.223600E+01	  0.057875752	3.225800E+01	  0.057875752	5.209200E+01	  0.057875752	1.360000E+00
191	  0.058076151	-3.220300E+01	  0.058076151	3.252500E+01	  0.058076151	5.209400E+01	  0.058076151	1.375000E+00
192	  0.058276553	-3.215000E+01	  0.058276553	3.243200E+01	  0.058276553	5.210900E+01	  0.058276553	1.380000E+00
193	  0.058476955	-3.213100E+01	  0.058476955	3.245300E+01	  0.058476955	5.211300E+01	  0.058476955	1.384000E+00
194	  0.058677353	-3.213300E+01	  0.058677353	3.223600E+01	  0.058677353	5.211800E+01	  0.058677353	1.376000E+00
195	  0.058877755	-3.211600E+01	  0.058877755	3.257300E+01	  0.058877755	5.211400E+01	  0.058877755	1.391000E+00
196	  0.059078157	-3.210800E+01	  0.059078157	3.219800E+01	  0.059078157	5.212500E+01	  0.059078157	1.378000E+00
197	  0.059278559	-3.216200E+01	  0.059278559	3.244900E+01	  0.059278559	5.210600E+01	  0.059278559	1.379000E+00
198	  0.059478957	-3.215700E+01	  0.059478957	3.260200E+01	  0.059478957	5.210300E+01	  0.059478957	1.385000E+00
199	  0.059679359	-3.215300E+01	  0.059679359	3.237900E+01	  0.059679359	5.210900E+01	  0.059679359	1.378000E+00
200	  0.059879761	-3.216100E+01	  0.059879761	3.235400E+01	  0.059879761	5.210800E+01	  0.059879761	1.376000E+00
201	  0.060080159	-3.214800E+01	  0.060080159	3.207500E+01	  0.060080159	5.211800E+01	  0.060080159	1.367000E+00
202	  0.060280561	-3.213500E+01	  0.060280561	3.201800E+01	  0.060280561	5.212300E+01	  0.060280561	1.367000E+00
203	  0.060480963	-3.218700E+01	  0.060480963	3.175500E+01	  0.060480963	5.211700E+01	  0.060480963	1.349000E+00
204	  0.060681365	-3.215000E+01	  0.060681365	3.148800E+01	  0.060681365	5.213200E+01	  0.060681365	1.345000E+00
205	  0.060881764	-3.223100E+01	  0.060881764	3.161600E+01	  0.060881764	5.210900E+01	  0.060881764	1.337000E+00
206	  0.061082166	-3.219800E+01	  0.061082166	3.138100E+01	  0.061082166	5.212300E+01	  0.061082166	1.333000E+00
207	  0.061282568	-3.224100E+01	  0.061282568	3.083900E+01	  0.061282568	5.212500E+01	  0.061282568	1.306000E+00
208	  0.061482966	-3.222900E+01	  0.061482966	3.070900E+01	  0.061482966	5.213100E+01	  0.061482966	1.303000E+00
209	  0.061683368	-3.223700E+01	  0.061683368	3.019500E+01	  0.061683368	5.214200E+01	  0.061683368	1.282000E+00
210	  0.061883770	-3.223000E+01	  0.061883770	2.982400E+01	  0.061883770	5.215200E+01	  0.061883770	1.269000E+00
211	  0.062084168	-3.218100E+01	  0.062084168	2.944100E+01	  0.062084168	5.217300E+01	  0.062084168	1.262000E+00
212	  0.062284570	-3.216400E+01	  0.062284570	2.921800E+01	  0.062284570	5.218200E+01	  0.062284570	1.256000E+00
213	  0.062484972	-3.212900E+01	  0.062484972	2.921800E+01	  0.062484972	5.219100E+01	  0.062484972	1.261000E+00
214	  0.062685370	-3.209100E+01	  0.062685370	2.824300E+01	  0.062685370	5.222300E+01	  0.062685370	1.229000E+00
215	  0.062885776	-3.204100E+01	  0.062885776	2.858800E+01	  0.062885776	5.222900E+01	  0.062885776	1.250000E+00
216	  0.063086174	-3.197000E+01	  0.063086174	2.749100E+01	  0.063086174	5.227200E+01	  0.063086174	1.217000E+00
217	  0.063286573	-3.189300E+01	  0.063286573	2.778600E+01	  0.063286573	5.228600E+01	  0.063286573	1.240000E+00
218	  0.063486971	-3.189600E+01	  0.063486971	2.749400E+01	  0.063486971	5.229200E+01	  0.063486971	1.228000E+00
219	  0.063687377	-3.187500E+01	  0.063687377	2.752700E+01	  0.063687377	5.229600E+01	  0.063687377	1.232000E+00
220	  0.063887775	-3.176900E+01	  0.063887775	2.732900E+01	  0.063887775	5.233000E+01	  0.063887775	1.240000E+00
221	  0.064088173	-3.172200E+01	  0.064088173	2.689000E+01	  0.064088173	5.235200E+01	  0.064088173	1.228000E+00
222	  0.064288579	-3.170300E+01	  0.064288579	2.715400E+01	  0.064288579	5.235200E+01	  0.064288579	1.242000E+00
223	  0.064488977	-3.162600E+01	  0.064488977	2.645000E+01	  0.064488977	5.238900E+01	  0.064488977	1.224000E+00
224	  0.064689375	-3.162800E+01	  0.064689375	2.658100E+01	  0.064689375	5.238500E+01	  0.064689375	1.229000E+00
225	  0.064889781	-3.157800E+01	  0.064889781	2.659300E+01	  0.064889781	5.239900E+01	  0.064889781	1.237000E+00
226	  0.065090179	-3.159700E+01	  0.065090179	2.664100E+01	  0.065090179	5.239300E+01	  0.065090179	1.237000E+00
227	  0.065290578	-3.145700E+01	  0.065290578	2.683500E+01	  0.065290578	5.242800E+01	  0.065290578	1.266000E+00
228	  0.065490983	-3.148700E+01	  0.065490983	2.677200E+01	  0.065490983	5.242100E+01	  0.065490983	1.259000E+00
229	  0.065691382	-3.146500E+01	  0.065691382	2.634200E+01	  0.065691382	5.243700E+01	  0.065691382	1.244000E+00
230	  0.065891780	-3.145700E+01	  0.065891780	2.628400E+01	  0.065891780	5.244100E+01	  0.065891780	1.242000E+00
231	  0.066092186	-3.142900E+01	  0.066092186	2.668500E+01	  0.066092186	5.243900E+01	  0.066092186	1.264000E+00
232	  0.066292584	-3.142100E+01	  0.066292584	2.600900E+01	  0.066292584	5.245700E+01	  0.066292584	1.236000E+00
233	  0.066492982	-3.142300E+01	  0.066492982	2.655700E+01	  0.066492982	5.244400E+01	  0.066492982	1.259000E+00
234	  0.066693388	-3.138800E+01	  0.066693388	2.601900E+01	  0.066693388	5.246700E+01	  0.066693388	1.241000E+00
235	  0.066893786	-3.136600E+01	  0.066893786	2.660900E+01	  0.066893786	5.245900E+01	  0.066893786	1.270000E+00
236	  0.067094192	-3.140400E+01	  0.067094192	2.631100E+01	  0.067094192	5.245500E+01	  0.067094192	1.251000E+00
237	  0.067294590	-3.132900E+01	  0.067294590	2.588700E+01	  0.067294590	5.248700E+01	  0.067294590	1.244000E+00
238	  0.067494988	-3.138600E+01	  0.067494988	2.588800E+01	  0.067494988	5.247000E+01	  0.067494988	1.236000E+00
239	  0.067695394	-3.137300E+01	  0.067695394	2.610400E+01	  0.067695394	5.246900E+01	  0.067695394	1.247000E+00
240	  0.067895792	-3.127500E+01	  0.067895792	2.604300E+01	  0.067895792	5.249900E+01	  0.067895792	1.259000E+00
241	  0.068096191	-3.134000E+01	  0.068096191	2.567100E+01	  0.068096191	5.248800E+01	  0.068096191	1.233000E+00
242	  0.068296596	-3.127200E+01	  0.068296596	2.529000E+01	  0.068296596	5.251700E+01	  0.068296596	1.226000E+00
243	  0.068496995	-3.131000E+01	  0.068496995	2.573100E+01	  0.068496995	5.249600E+01	  0.068496995	1.240000E+00
244	  0.068697393	-3.123900E+01	  0.068697393	2.597100E+01	  0.068697393	5.251100E+01	  0.068697393	1.261000E+00
245	  0.068897791	-3.125200E+01	  0.068897791	2.531600E+01	  0.068897791	5.252200E+01	  0.068897791	1.230000E+00
246	  0.069098189	-3.124400E+01	  0.069098189	2.519500E+01	  0.069098189	5.252700E+01	  0.069098189	1.226000E+00
247	  0.069298595	-3.124100E+01	  0.069298595	2.549600E+01	  0.069298595	5.252100E+01	  0.069298595	1.240000E+00
248	  0.069498993	-3.124800E+01	  0.069498993	2.493500E+01	  0.069498993	5.253200E+01	  0.069498993	1.214000E+00
249	  0.069699399	-3.121300E+01	  0.069699399	2.483600E+01	  0.069699399	5.254400E+01	  0.069699399	1.214000E+00
250	  0.069899797	-3.125700E+01	  0.069899797	2.420000E+01	  0.069899797	5.254500E+01	  0.069899797	1.179000E+00
251	  0.070100196	-3.122500E+01	  0.070100196	2.435000E+01	  0.070100196	5.255200E+01	  0.070100196	1.190000E+00
252	  0.070300601	-3.121200E+01	  0.070300601	2.432800E+01	  0.070300601	5.255600E+01	  0.070300601	1.191000E+00
253	  0.070501000	-3.114700E+01	  0.070501000	2.406400E+01	  0.070501000	5.258100E+01	  0.070501000	1.189000E+00
254	  0.070701398	-3.116600E+01	  0.070701398	2.381100E+01	  0.070701398	5.258100E+01	  0.070701398	1.174000E+00
255	  0.070901804	-3.112700E+01	  0.070901804	2.340800E+01	  0.070901804	5.260200E+01	  0.070901804	1.161000E+00
256	  0.071102202	-3.106300E+01	  0.071102202	2.330000E+01	  0.071102202	5.262400E+01	  0.071102202	1.165000E+00
257	  0.071302600	-3.103600E+01	  0.071302600	2.328300E+01	  0.071302600	5.263200E+01	  0.071302600	1.168000E+00
258	  0.071503006	-3.108900E+01	  0.071503006	2.297400E+01	  0.071503006	5.262300E+01	  0.071503006	1.146000E+00
259	  0.071703404	-3.103100E+01	  0.071703404	2.268600E+01	  0.071703404	5.264700E+01	  0.071703404	1.141000E+00
260	  0.071903802	-3.096700E+01	  0.071903802	2.305800E+01	  0.071903802	5.265900E+01	  0.071903802	1.167000E+00
261	  0.072104208	-3.097000E+01	  0.072104208	2.266900E+01	  0.072104208	5.266600E+01	  0.072104208	1.149000E+00
262	  0.072304606	-3.085500E+01	  0.072304606	2.288000E+01	  0.072304606	5.269800E+01	  0.072304606	1.175000E+00
263	  0.072505005	-3.085200E+01	  0.072505005	2.292900E+01	  0.072505005	5.269800E+01	  0.072505005	1.178000E+00
264	  0.072705410	-3.081700E+01	  0.072705410	2.269800E+01	  0.072705410	5.271400E+01	  0.072705410	1.171000E+00
265	  0.072905809	-3.073900E+01	  0.072905809	2.296300E+01	  0.072905809	5.273300E+01	  0.072905809	1.196000E+00
266	  0.073106214	-3.081200E+01	  0.073106214	2.364000E+01	  0.073106214	5.269500E+01	  0.073106214	1.218000E+00
267	  0.073306613	-3.075300E+01	  0.073306613	2.331300E+01	  0.073306613	5.272100E+01	  0.073306613	1.211000E+00
268	  0.073507011	-3.074500E+01	  0.073507011	2.304600E+01	  0.073507011	5.272900E+01	  0.073507011	1.199000E+00
269	  0.073707417	-3.076500E+01	  0.073707417	2.297000E+01	  0.073707417	5.272500E+01	  0.073707417	1.192000E+00
270	  0.073907815	-3.086700E+01	  0.073907815	2.311400E+01	  0.073907815	5.268900E+01	  0.073907815	1.184000E+00
271	  0.074108213	-3.087300E+01	  0.074108213	2.316300E+01	  0.074108213	5.268600E+01	  0.074108213	1.186000E+00
272	  0.074308619	-3.090100E+01	  0.074308619	2.322200E+01	  0.074308619	5.267600E+01	  0.074308619	1.185000E+00
273	  0.074509017	-3.082700E+01	  0.074509017	2.285200E+01	  0.074509017	5.270700E+01	  0.074509017	1.177000E+00
274	  0.074709415	-3.086600E+01	  0.074709415	2.296700E+01	  0.074709415	5.269300E+01	  0.074709415	1.177000E+00
275	  0.074909821	-3.085300E+01	  0.074909821	2.323100E+01	  0.074909821	5.269100E+01	  0.074909821	1.192000E+00
276	  0.075110219	-3.088700E+01	  0.075110219	2.273500E+01	  0.075110219	5.269100E+01	  0.075110219	1.163000E+00
277	  0.075310618	-3.090200E+01	  0.075310618	2.204300E+01	  0.075310618	5.270100E+01	  0.075310618	1.128000E+00
278	  0.075511023	-3.098400E+01	  0.075511023	2.156000E+01	  0.075511023	5.268500E+01	  0.075511023	1.094000E+00
279	  0.075711422	-3.094600E+01	  0.075711422	2.150800E+01	  0.075711422	5.269800E+01	  0.075711422	1.096000E+00
280	  0.075911827	-3.098200E+01	  0.075911827	2.117900E+01	  0.075911827	5.269300E+01	  0.075911827	1.076000E+00
281	  0.076112226	-3.099200E+01	  0.076112226	2.088000E+01	  0.076112226	5.269600E+01	  0.076112226	1.060000E+00
282	  0.076312624	-3.088200E+01	  0.076312624	2.040100E+01	  0.076312624	5.274000E+01	  0.076312624	1.051000E+00
283	  0.076513030	-3.085100E+01	  0.076513030	1.997100E+01	  0.076513030	5.275800E+01	  0.076513030	1.034000E+00
284	  0.076713428	-3.087400E+01	  0.076713428	1.934000E+01	  0.076713428	5.276300E+01	  0.076713428	1.000000E+00
285	  0.076913826	-3.083400E+01	  0.076913826	1.916600E+01	  0.076913826	5.277900E+01	  0.076913826	9.960000E-01
286	  0.077114232	-3.077800E+01	  0.077114232	1.893500E+01	  0.077114232	5.280100E+01	  0.077114232	9.910000E-01
287	  0.077314630	-3.062200E+01	  0.077314630	1.838200E+01	  0.077314630	5.286400E+01	  0.077314630	9.820000E-01
288	  0.077515028	-3.064500E+01	  0.077515028	1.843400E+01	  0.077515028	5.285500E+01	  0.077515028	9.820000E-01
289	  0.077715434	-3.054100E+01	  0.077715434	1.832100E+01	  0.077715434	5.289200E+01	  0.077715434	9.880000E-01
290	  0.077915832	-3.051600E+01	  0.077915832	1.796700E+01	  0.077915832	5.290700E+01	  0.077915832	9.730000E-01
291	  0.078116231	-3.038800E+01	  0.078116231	1.852800E+01	  0.078116231	5.294100E+01	  0.078116231	1.018000E+00
292	  0.078316636	-3.035500E+01	  0.078316636	1.879300E+01	  0.078316636	5.294800E+01	  0.078316636	1.036000E+00
293	  0.078517035	-3.029200E+01	  0.078517035	1.858200E+01	  0.078517035	5.297400E+01	  0.078517035	1.033000E+00
294	  0.078717433	-3.022900E+01	  0.078717433	1.854600E+01	  0.078717433	5.299700E+01	  0.078717433	1.039000E+00
295	  0.078917839	-3.028800E+01	  0.078917839	1.885500E+01	  0.078917839	5.297000E+01	  0.078917839	1.048000E+00
296	  0.079118237	-3.023000E+01	  0.079118237	1.916100E+01	  0.079118237	5.298400E+01	  0.079118237	1.072000E+00
297	  0.079318643	-3.019400E+01	  0.079318643	1.936200E+01	  0.079318643	5.299300E+01	  0.079318643	1.087000E+00
298	  0.079519041	-3.018900E+01	  0.079519041	1.987900E+01	  0.079519041	5.298400E+01	  0.079519041	1.115000E+00
299	  0.079719439	-3.023000E+01	  0.079719439	1.981500E+01	  0.079719439	5.297100E+01	  0.079719439	1.106000E+00
300	  0.079919845	-3.018300E+01	  0.079919845	2.054400E+01	  0.079919845	5.297200E+01	  0.079919845	1.152000E+00
301	  0.080120243	-3.025600E+01	  0.080120243	2.028200E+01	  0.080120243	5.295200E+01	  0.080120243	1.128000E+00
302	  0.080320641	-3.025500E+01	  0.080320641	2.023300E+01	  0.080320641	5.295400E+01	  0.080320641	1.125000E+00
303	  0.080521047	-3.030300E+01	  0.080521047	2.060500E+01	  0.080521047	5.292900E+01	  0.080521047	1.138000E+00
304	  0.080721445	-3.032100E+01	  0.080721445	2.049300E+01	  0.080721445	5.292600E+01	  0.080721445	1.130000E+00
305	  0.080921844	-3.038400E+01	  0.080921844	2.044300E+01	  0.080921844	5.290500E+01	  0.080921844	1.119000E+00
306	  0.081122249	-3.043200E+01	  0.081122249	2.040800E+01	  0.081122249	5.288900E+01	  0.081122249	1.110000E+00
307	  0.081322648	-3.045400E+01	  0.081322648	2.030100E+01	  0.081322648	5.288400E+01	  0.081322648	1.102000E+00
308	  0.081523046	-3.054800E+01	  0.081523046	2.001100E+01	  0.081523046	5.285800E+01	  0.081523046	1.075000E+00
309	  0.081723452	-3.056700E+01	  0.081723452	1.978200E+01	  0.081723452	5.285600E+01	  0.081723452	1.060000E+00
310	  0.081923850	-3.061600E+01	  0.081923850	1.985000E+01	  0.081923850	5.283800E+01	  0.081923850	1.057000E+00
311	  0.082124248	-3.070000E+01	  0.082124248	1.899400E+01	  0.082124248	5.282600E+01	  0.082124248	1.004000E+00
312	  0.082324654	-3.068500E+01	  0.082324654	1.832500E+01	  0.082324654	5.284400E+01	  0.082324654	9.710000E-01
313	  0.082525052	-3.070700E+01	  0.082525052	1.847700E+01	  0.082525052	5.283400E+01	  0.082525052	9.770000E-01
314	  0.082725458	-3.068100E+01	  0.082725458	1.748400E+01	  0.082725458	5.286000E+01	  0.082725458	9.290000E-01
315	  0.082925856	-3.074200E+01	  0.082925856	1.693400E+01	  0.082925856	5.284800E+01	  0.082925856	8.940000E-01
316	  0.083126254	-3.071000E+01	  0.083126254	1.651100E+01	  0.083126254	5.286600E+01	  0.083126254	8.760000E-01
317	  0.083326660	-3.068500E+01	  0.083326660	1.642400E+01	  0.083326660	5.287600E+01	  0.083326660	8.740000E-01
318	  0.083527058	-3.067100E+01	  0.083527058	1.572600E+01	  0.083527058	5.289200E+01	  0.083527058	8.390000E-01
319	  0.083727457	-3.061900E+01	  0.083727457	1.538500E+01	  0.083727457	5.291500E+01	  0.083727457	8.270000E-01
320	  0.083927862	-3.054200E+01	  0.083927862	1.468800E+01	  0.083927862	5.295200E+01	  0.083927862	7.980000E-01
321	  0.084128261	-3.057200E+01	  0.084128261	1.423000E+01	  0.084128261	5.294800E+01	  0.084128261	7.710000E-01
322	  0.084328659	-3.047000E+01	  0.084328659	1.378800E+01	  0.084328659	5.299000E+01	  0.084328659	7.570000E-01
323	  0.084529065	-3.038300E+01	  0.084529065	1.372700E+01	  0.084529065	5.302200E+01	  0.084529065	7.620000E-01
324	  0.084729463	-3.035100E+01	  0.084729463	1.400300E+01	  0.084729463	5.303000E+01	  0.084729463	7.800000E-01
325	  0.084929861	-3.029600E+01	  0.084929861	1.350300E+01	  0.084929861	5.305700E+01	  0.084929861	7.580000E-01
326	  0.085130267	-3.023500E+01	  0.085130267	1.352300E+01	  0.085130267	5.307800E+01	  0.085130267	7.640000E-01
327	  0.085330658	-3.018200E+01	  0.085330658	1.337400E+01	  0.085330658	5.310000E+01	  0.085330658	7.610000E-01
328	  0.085531056	-3.014100E+01	  0.085531056	1.313700E+01	  0.085531056	5.311800E+01	  0.085531056	7.510000E-01
329	  0.085731462	-3.005400E+01	  0.085731462	1.309900E+01	  0.085731462	5.315100E+01	  0.085731462	7.570000E-01
330	  0.085931860	-3.001700E+01	  0.085931860	1.304300E+01	  0.085931860	5.316600E+01	  0.085931860	7.580000E-01
331	  0.086132258	-2.997700E+01	  0.086132258	1.331200E+01	  0.086132258	5.317700E+01	  0.086132258	7.770000E-01
332	  0.086332664	-2.990600E+01	  0.086332664	1.338700E+01	  0.086332664	5.320300E+01	  0.086332664	7.880000E-01
333	  0.086533062	-2.992700E+01	  0.086533062	1.360900E+01	  0.086533062	5.319200E+01	  0.086533062	7.990000E-01
334	  0.086733460	-2.985000E+01	  0.086733460	1.363500E+01	  0.086733460	5.322000E+01	  0.086733460	8.080000E-01
335	  0.086933866	-2.982400E+01	  0.086933866	1.346200E+01	  0.086933866	5.323300E+01	  0.086933866	8.000000E-01
336	  0.087134264	-2.988200E+01	  0.087134264	1.394000E+01	  0.087134264	5.320400E+01	  0.087134264	8.220000E-01
337	  0.087334670	-2.976700E+01	  0.087334670	1.397200E+01	  0.087334670	5.324700E+01	  0.087334670	8.360000E-01
338	  0.087535068	-2.981900E+01	  0.087535068	1.427800E+01	  0.087535068	5.322200E+01	  0.087535068	8.480000E-01
339	  0.087735467	-2.987100E+01	  0.087735467	1.452500E+01	  0.087735467	5.319900E+01	  0.087735467	8.570000E-01
340	  0.087935872	-2.991500E+01	  0.087935872	1.446000E+01	  0.087935872	5.318300E+01	  0.087935872	8.480000E-01
341	  0.088136271	-2.989700E+01	  0.088136271	1.422400E+01	  0.088136271	5.319400E+01	  0.088136271	8.370000E-01
342	  0.088336669	-2.989300E+01	  0.088336669	1.418400E+01	  0.088336669	5.319600E+01	  0.088336669	8.350000E-01
343	  0.088537075	-2.991700E+01	  0.088537075	1.425300E+01	  0.088537075	5.318600E+01	  0.088537075	8.370000E-01
344	  0.088737473	-2.994000E+01	  0.088737473	1.428800E+01	  0.088737473	5.317700E+01	  0.088737473	8.360000E-01
345	  0.088937871	-2.994600E+01	  0.088937871	1.444900E+01	  0.088937871	5.317200E+01	  0.088937871	8.450000E-01
346	  0.089138277	-3.001700E+01	  0.089138277	1.408400E+01	  0.089138277	5.315100E+01	  0.089138277	8.170000E-01
347	  0.089338675	-3.005200E+01	  0.089338675	1.370100E+01	  0.089338675	5.314300E+01	  0.089338675	7.920000E-01
348	  0.089539073	-3.002600E+01	  0.089539073	1.332400E+01	  0.089539073	5.315900E+01	  0.089539073	7.730000E-01
349	  0.089739479	-3.002100E+01	  0.089739479	1.306200E+01	  0.089739479	5.316400E+01	  0.089739479	7.580000E-01
350	  0.089939877	-3.008700E+01	  0.089939877	1.288000E+01	  0.089939877	5.314200E+01	  0.089939877	7.420000E-01
351	  0.090140276	-3.005300E+01	  0.090140276	1.278400E+01	  0.090140276	5.315600E+01	  0.090140276	7.400000E-01
352	  0.090340681	-3.009500E+01	  0.090340681	1.241900E+01	  0.090340681	5.314500E+01	  0.090340681	7.150000E-01
353	  0.090541080	-3.005200E+01	  0.090541080	1.202300E+01	  0.090541080	5.316700E+01	  0.090541080	6.960000E-01
354	  0.090741485	-3.000300E+01	  0.090741485	1.171500E+01	  0.090741485	5.318900E+01	  0.090741485	6.830000E-01
355	  0.090941884	-3.002300E+01	  0.090941884	1.131000E+01	  0.090941884	5.318600E+01	  0.090941884	6.580000E-01
356	  0.091142282	-2.999300E+01	  0.091142282	1.095000E+01	  0.091142282	5.320200E+01	  0.091142282	6.400000E-01
357	  0.091342688	-2.991200E+01	  0.091342688	1.075900E+01	  0.091342688	5.323500E+01	  0.091342688	6.350000E-01
358	  0.091543086	-2.995000E+01	  0.091543086	1.061200E+01	  0.091543086	5.322300E+01	  0.091543086	6.240000E-01
359	  0.091743484	-2.984500E+01	  0.091743484	1.048900E+01	  0.091743484	5.326500E+01	  0.091743484	6.240000E-01
360	  0.091943890	-2.979700E+01	  0.091943890	1.046600E+01	  0.091943890	5.328300E+01	  0.091943890	6.270000E-01
361	  0.092144288	-2.975100E+01	  0.092144288	1.015900E+01	  0.092144288	5.330500E+01	  0.092144288	6.120000E-01
362	  0.092344686	-2.966500E+01	  0.092344686	1.016800E+01	  0.092344686	5.333900E+01	  0.092344686	6.190000E-01
363	  0.092545092	-2.964800E+01	  0.092545092	1.032600E+01	  0.092545092	5.334400E+01	  0.092545092	6.300000E-01
364	  0.092745490	-2.961900E+01	  0.092745490	1.064300E+01	  0.092745490	5.335100E+01	  0.092745490	6.510000E-01
365	  0.092945889	-2.959800E+01	  0.092945889	1.053500E+01	  0.092945889	5.336100E+01	  0.092945889	6.470000E-01
366	  0.093146294	-2.954800E+01	  0.093146294	1.055800E+01	  0.093146294	5.338100E+01	  0.093146294	6.520000E-01
367	  0.093346693	-2.952900E+01	  0.093346693	1.057400E+01	  0.093346693	5.338800E+01	  0.093346693	6.540000E-01
368	  0.093547091	-2.957400E+01	  0.093547091	1.092800E+01	  0.093547091	5.336600E+01	  0.093547091	6.720000E-01
369	  0.093747497	-2.957800E+01	  0.093747497	1.089800E+01	  0.093747497	5.336500E+01	  0.093747497	6.700000E-01
370	  0.093947895	-2.962000E+01	  0.093947895	1.153400E+01	  0.093947895	5.334000E+01	  0.093947895	7.050000E-01
371	  0.094148301	-2.957400E+01	  0.094148301	1.177300E+01	  0.094148301	5.335500E+01	  0.094148301	7.230000E-01
372	  0.094348699	-2.964200E+01	  0.094348699	1.123800E+01	  0.094348699	5.333500E+01	  0.094348699	6.850000E-01
373	  0.094549097	-2.965900E+01	  0.094549097	1.145200E+01	  0.094549097	5.332500E+01	  0.094549097	6.970000E-01
374	  0.094749503	-2.965600E+01	  0.094749503	1.144500E+01	  0.094749503	5.332700E+01	  0.094749503	6.970000E-01
375	  0.094949901	-2.973100E+01	  0.094949901	1.166400E+01	  0.094949901	5.329400E+01	  0.094949901	7.030000E-01
376	  0.095150299	-2.977600E+01	  0.095150299	1.161200E+01	  0.095150299	5.327700E+01	  0.095150299	6.960000E-01
377	  0.095350705	-2.982300E+01	  0.095350705	1.154300E+01	  0.095350705	5.326000E+01	  0.095350705	6.880000E-01
378	  0.095551103	-2.981300E+01	  0.095551103	1.145200E+01	  0.095551103	5.326500E+01	  0.095551103	6.840000E-01
379	  0.095751502	-2.987200E+01	  0.095751502	1.088100E+01	  0.095751502	5.324900E+01	  0.095751502	6.450000E-01
380	  0.095951907	-2.997300E+01	  0.095951907	1.048700E+01	  0.095951907	5.321500E+01	  0.095951907	6.150000E-01
381	  0.096152306	-3.003300E+01	  0.096152306	1.018900E+01	  0.096152306	5.319600E+01	  0.096152306	5.930000E-01
382	  0.096352704	-2.997900E+01	  0.096352704	9.738000E+00	  0.096352704	5.322100E+01	  0.096352704	5.710000E-01
383	  0.096553110	-3.006400E+01	  0.096553110	9.334000E+00	  0.096553110	5.319300E+01	  0.096553110	5.420000E-01
384	  0.096753508	-3.003800E+01	  0.096753508	8.916000E+00	  0.096753508	5.320700E+01	  0.096753508	5.190000E-01
385	  0.096953906	-2.998200E+01	  0.096953906	8.734000E+00	  0.096953906	5.323000E+01	  0.096953906	5.120000E-01
386	  0.097154312	-2.999800E+01	  0.097154312	7.797000E+00	  0.097154312	5.323200E+01	  0.097154312	4.570000E-01
387	  0.097354710	-2.999200E+01	  0.097354710	7.614000E+00	  0.097354710	5.323600E+01	  0.097354710	4.460000E-01
388	  0.097555116	-2.995900E+01	  0.097555116	7.119000E+00	  0.097555116	5.325300E+01	  0.097555116	4.190000E-01
389	  0.097755514	-2.987300E+01	  0.097755514	6.761000E+00	  0.097755514	5.328900E+01	  0.097755514	4.030000E-01
390	  0.097955912	-2.983800E+01	  0.097955912	6.491000E+00	  0.097955912	5.330500E+01	  0.097955912	3.880000E-01
391	  0.098156318	-2.983700E+01	  0.098156318	6.344000E+00	  0.098156318	5.330600E+01	  0.098156318	3.790000E-01
392	  0.098356716	-2.979900E+01	  0.098356716	6.051000E+00	  0.098356716	5.332300E+01	  0.098356716	3.640000E-01
393	  0.098557115	-2.968400E+01	  0.098557115	5.959000E+00	  0.098557115	5.337000E+01	  0.098557115	3.630000E-01
394	  0.098757520	-2.969300E+01	  0.098757520	5.760000E+00	  0.098757520	5.336700E+01	  0.098757520	3.510000E-01
395	  0.098957919	-2.961100E+01	  0.098957919	5.764000E+00	  0.098957919	5.340100E+01	  0.098957919	3.550000E-01
396	  0.099158317	-2.966100E+01	  0.099158317	6.050000E+00	  0.099158317	5.337800E+01	  0.099158317	3.700000E-01
397	  0.099358723	-2.960700E+01	  0.099358723	5.746000E+00	  0.099358723	5.340200E+01	  0.099358723	3.540000E-01
398	  0.099559121	-2.955600E+01	  0.099559121	5.947000E+00	  0.099559121	5.342200E+01	  0.099559121	3.680000E-01
399	  0.099759519	-2.952500E+01	  0.099759519	6.045000E+00	  0.099759519	5.343300E+01	  0.099759519	3.760000E-01
400	  0.099959925	-2.957700E+01	  0.099959925	6.543000E+00	  0.099959925	5.340900E+01	  0.099959925	4.040000E-01
401	  0.100160323	-2.955900E+01	  0.100160323	6.438000E+00	  0.100160323	5.341700E+01	  0.100160323	3.980000E-01
402	  0.100360721	-2.946300E+01	  0.100360721	6.427000E+00	  0.100360721	5.345600E+01	  0.100360721	4.030000E-01
403	  0.100561127	-2.951700E+01	  0.100561127	6.301000E+00	  0.100561127	5.343500E+01	  0.100561127	3.920000E-01
404	  0.100761525	-2.957900E+01	  0.100761525	6.355000E+00	  0.100761525	5.340900E+01	  0.100761525	3.920000E-01
405	  0.100961931	-2.951500E+01	  0.100961931	5.924000E+00	  0.100961931	5.343900E+01	  0.100961931	3.690000E-01
406	  0.101162329	-2.952400E+01	  0.101162329	5.715000E+00	  0.101162329	5.343600E+01	  0.101162329	3.550000E-01
407	  0.101362728	-2.968800E+01	  0.101362728	6.199000E+00	  0.101362728	5.336600E+01	  0.101362728	3.780000E-01
408	  0.101563133	-2.965500E+01	  0.101563133	5.844000E+00	  0.101563133	5.338200E+01	  0.101563133	3.580000E-01
409	  0.101763532	-2.973700E+01	  0.101763532	5.815000E+00	  0.101763532	5.335000E+01	  0.101763532	3.520000E-01
410	  0.101963930	-2.965100E+01	  0.101963930	6.160000E+00	  0.101963930	5.338200E+01	  0.101963930	3.770000E-01
411	  0.102164336	-2.960300E+01	  0.102164336	5.132000E+00	  0.102164336	5.340800E+01	  0.102164336	3.160000E-01
412	  0.102364734	-2.972200E+01	  0.102364734	4.394000E+00	  0.102364734	5.336400E+01	  0.102364734	2.670000E-01
413	  0.102565132	-2.977800E+01	  0.102565132	4.453000E+00	  0.102565132	5.334100E+01	  0.102565132	2.690000E-01
414	  0.102765530	-2.969300E+01	  0.102765530	4.337000E+00	  0.102765530	5.337600E+01	  0.102765530	2.640000E-01
415	  0.102965929	-2.971200E+01	  0.102965929	4.040000E+00	  0.102965929	5.337000E+01	  0.102965929	2.460000E-01
416	  0.103166327	-2.976200E+01	  0.103166327	3.519000E+00	  0.103166327	5.335200E+01	  0.103166327	2.130000E-01
417	  0.103366733	-2.983900E+01	  0.103366733	2.524000E+00	  0.103366733	5.332400E+01	  0.103366733	1.510000E-01
418	  0.103567131	-2.961900E+01	  0.103567131	3.544000E+00	  0.103567131	5.340900E+01	  0.103567131	2.180000E-01
419	  0.103767529	-2.967000E+01	  0.103767529	3.645000E+00	  0.103767529	5.338800E+01	  0.103767529	2.230000E-01
420	  0.103967935	-2.968200E+01	  0.103967935	2.669000E+00	  0.103967935	5.338700E+01	  0.103967935	1.630000E-01
421	  0.104168333	-2.963900E+01	  0.104168333	2.704000E+00	  0.104168333	5.340400E+01	  0.104168333	1.660000E-01
422	  0.104368731	-2.959700E+01	  0.104368731	2.259000E+00	  0.104368731	5.342200E+01	  0.104368731	1.390000E-01
423	  0.104569137	-2.966900E+01	  0.104569137	2.176000E+00	  0.104569137	5.339300E+01	  0.104569137	1.330000E-01
424	  0.104769535	-2.967100E+01	  0.104769535	2.116000E+00	  0.104769535	5.339300E+01	  0.104769535	1.290000E-01
425	  0.104969934	-2.957400E+01	  0.104969934	1.775000E+00	  0.104969934	5.343300E+01	  0.104969934	1.100000E-01
426	  0.105170339	-2.964500E+01	  0.105170339	1.125000E+00	  0.105170339	5.340500E+01	  0.105170339	6.900000E-02
427	  0.105370738	-2.954100E+01	  0.105370738	1.466000E+00	  0.105370738	5.344700E+01	  0.105370738	9.100000E-02
428	  0.105571143	-2.960200E+01	  0.105571143	7.910000E-01	  0.105571143	5.342300E+01	  0.105571143	4.800000E-02
429	  0.105771542	-2.951500E+01	  0.105771542	1.076000E+00	  0.105771542	5.345800E+01	  0.105771542	6.700000E-02
430	  0.105971940	-2.951400E+01	  0.105971940	7.570000E-01	  0.105971940	5.345900E+01	  0.105971940	4.700000E-02
431	  0.106172346	-2.950800E+01	  0.106172346	1.311000E+00	  0.106172346	5.346100E+01	  0.106172346	8.100000E-02
432	  0.106372744	-2.952600E+01	  0.106372744	3.420000E-01	  0.106372744	5.345400E+01	  0.106372744	2.100000E-02
433	  0.106573142	-2.946500E+01	  0.106573142	1.230000E-01	  0.106573142	5.347900E+01	  0.106573142	7.000000E-03
434	  0.106773548	-2.940900E+01	  0.106773548	1.190000E-01	  0.106773548	5.350300E+01	  0.106773548	7.000000E-03
435	  0.106973946	-2.935500E+01	  0.106973946	-6.770000E-01	  0.106973946	5.352500E+01	  0.106973946	-4.300000E-02
436	  0.107174344	-2.930100E+01	  0.107174344	-5.670000E-01	  0.107174344	5.354800E+01	  0.107174344	-3.600000E-02
437	  0.107374750	-2.937700E+01	  0.107374750	-3.710000E-01	  0.107374750	5.351600E+01	  0.107374750	-2.300000E-02
438	  0.107575148	-2.936700E+01	  0.107575148	-2.690000E-01	  0.107575148	5.352000E+01	  0.107575148	-1.700000E-02
439	  0.107775547	-2.927400E+01	  0.107775547	-1.096000E+00	  0.107775547	5.355900E+01	  0.107775547	-7.000000E-02
440	  0.107975952	-2.932100E+01	  0.107975952	8.900000E-02	  0.107975952	5.354000E+01	  0.107975952	5.000000E-03
441	  0.108176351	-2.911300E+01	  0.108176351	-4.450000E-01	  0.108176351	5.362800E+01	  0.108176351	-2.900000E-02
442	  0.108376749	-2.925300E+01	  0.108376749	-9.550000E-01	  0.108376749	5.356800E+01	  0.108376749	-6.100000E-02
443	  0.108577155	-2.925100E+01	  0.108577155	-5.860000E-01	  0.108577155	5.356900E+01	  0.108577155	-3.700000E-02
444	  0.108777553	-2.915700E+01	  0.108777553	-3.570000E-01	  0.108777553	5.360900E+01	  0.108777553	-2.300000E-02
445	  0.108977959	-2.914200E+01	  0.108977959	-1.060000E-01	  0.108977959	5.361600E+01	  0.108977959	-6.000000E-03
446	  0.109178357	-2.907000E+01	  0.109178357	-1.870000E-01	  0.109178357	5.364700E+01	  0.109178357	-1.200000E-02
447	  0.109378755	-2.920900E+01	  0.109378755	-3.180000E-01	  0.109378755	5.358700E+01	  0.109378755	-2.000000E-02
448	  0.109579161	-2.911700E+01	  0.109579161	-3.500000E-02	  0.109579161	5.362700E+01	  0.109579161	-2.000000E-03
449	  0.109779559	-2.908100E+01	  0.109779559	-1.610000E-01	  0.109779559	5.364300E+01	  0.109779559	-1.000000E-02
450	  0.109979957	-2.917600E+01	  0.109979957	1.590000E-01	  0.109979957	5.360100E+01	  0.109979957	1.000000E-02
451	  0.110180363	-2.922000E+01	  0.110180363	3.930000E-01	  0.110180363	5.358200E+01	  0.110180363	2.500000E-02
452	  0.110380761	-2.919700E+01	  0.110380761	3.340000E-01	  0.110380761	5.359300E+01	  0.110380761	2.100000E-02
453	  0.110581160	-2.924700E+01	  0.110581160	1.400000E-01	  0.110581160	5.357100E+01	  0.110581160	9.000000E-03
454	  0.110781565	-2.928100E+01	  0.110781565	-6.300000E-01	  0.110781565	5.355600E+01	  0.110781565	-4.000000E-02
455	  0.110981964	-2.932200E+01	  0.110981964	-3.840000E-01	  0.110981964	5.353900E+01	  0.110981964	-2.400000E-02
456	  0.111182362	-2.937000E+01	  0.111182362	-8.200000E-02	  0.111182362	5.351900E+01	  0.111182362	-5.000000E-03
457	  0.111382768	-2.938900E+01	  0.111382768	-1.228000E+00	  0.111382768	5.351000E+01	  0.111382768	-7.700000E-02
458	  0.111583166	-2.935000E+01	  0.111583166	-9.200000E-01	  0.111583166	5.352700E+01	  0.111583166	-5.800000E-02
459	  0.111783572	-2.948600E+01	  0.111783572	-1.294000E+00	  0.111783572	5.347000E+01	  0.111783572	-8.100000E-02
460	  0.111983970	-2.935300E+01	  0.111983970	-1.795000E+00	  0.111983970	5.352400E+01	  0.111983970	-1.140000E-01
461	  0.112184368	-2.938300E+01	  0.112184368	-2.082000E+00	  0.112184368	5.351100E+01	  0.112184368	-1.320000E-01
462	  0.112384774	-2.933400E+01	  0.112384774	-2.046000E+00	  0.112384774	5.353200E+01	  0.112384774	-1.300000E-01
463	  0.112585172	-2.933200E+01	  0.112585172	-2.450000E+00	  0.112585172	5.353200E+01	  0.112585172	-1.560000E-01
464	  0.112785570	-2.939400E+01	  0.112785570	-3.423000E+00	  0.112785570	5.350200E+01	  0.112785570	-2.160000E-01
465	  0.112985976	-2.935700E+01	  0.112985976	-3.681000E+00	  0.112985976	5.351600E+01	  0.112985976	-2.340000E-01
466	  0.113186374	-2.925700E+01	  0.113186374	-3.215000E+00	  0.113186374	5.356000E+01	  0.113186374	-2.070000E-01
467	  0.113386773	-2.927500E+01	  0.113386773	-3.364000E+00	  0.113386773	5.355300E+01	  0.113386773	-2.160000E-01
468	  0.113587178	-2.921900E+01	  0.113587178	-3.514000E+00	  0.113587178	5.357500E+01	  0.113587178	-2.270000E-01
469	  0.113787577	-2.916100E+01	  0.113787577	-3.719000E+00	  0.113787577	5.360000E+01	  0.113787577	-2.420000E-01
470	  0.113987975	-2.912000E+01	  0.113987975	-3.958000E+00	  0.113987975	5.361600E+01	  0.113987975	-2.590000E-01
471	  0.114188381	-2.920500E+01	  0.114188381	-3.598000E+00	  0.114188381	5.358100E+01	  0.114188381	-2.330000E-01
472	  0.114388779	-2.909000E+01	  0.114388779	-3.967000E+00	  0.114388779	5.362900E+01	  0.114388779	-2.600000E-01
473	  0.114589177	-2.902100E+01	  0.114589177	-3.559000E+00	  0.114589177	5.366100E+01	  0.114589177	-2.360000E-01
474	  0.114789583	-2.906600E+01	  0.114789583	-3.745000E+00	  0.114789583	5.364000E+01	  0.114789583	-2.470000E-01
475	  0.114989981	-2.908000E+01	  0.114989981	-3.127000E+00	  0.114989981	5.363700E+01	  0.114989981	-2.060000E-01
476	  0.115190387	-2.903500E+01	  0.115190387	-3.365000E+00	  0.115190387	5.365500E+01	  0.115190387	-2.220000E-01
477	  0.115390785	-2.909500E+01	  0.115390785	-3.544000E+00	  0.115390785	5.362900E+01	  0.115390785	-2.320000E-01
478	  0.115591183	-2.912900E+01	  0.115591183	-3.141000E+00	  0.115591183	5.361600E+01	  0.115591183	-2.050000E-01
479	  0.115791589	-2.918200E+01	  0.115791589	-2.713000E+00	  0.115791589	5.359400E+01	  0.115791589	-1.760000E-01
480	  0.115991987	-2.923100E+01	  0.115991987	-2.986000E+00	  0.115991987	5.357300E+01	  0.115991987	-1.930000E-01
481	  0.116192386	-2.923800E+01	  0.116192386	-3.172000E+00	  0.116192386	5.356900E+01	  0.116192386	-2.040000E-01
482	  0.116392791	-2.930000E+01	  0.116392791	-3.503000E+00	  0.116392791	5.354100E+01	  0.116392791	-2.240000E-01
483	  0.116593190	-2.931800E+01	  0.116593190	-3.388000E+00	  0.116593190	5.353400E+01	  0.116593190	-2.160000E-01
484	  0.116793588	-2.948800E+01	  0.116793588	-3.578000E+00	  0.116793588	5.346300E+01	  0.116793588	-2.240000E-01
485	  0.116993994	-2.943400E+01	  0.116993994	-3.785000E+00	  0.116993994	5.348400E+01	  0.116993994	-2.380000E-01
486	  0.117194392	-2.942500E+01	  0.117194392	-4.555000E+00	  0.117194392	5.348400E+01	  0.117194392	-2.870000E-01
487	  0.117394790	-2.946300E+01	  0.117394790	-4.612000E+00	  0.117394790	5.346800E+01	  0.117394790	-2.890000E-01
488	  0.117595196	-2.957100E+01	  0.117595196	-4.745000E+00	  0.117595196	5.342300E+01	  0.117595196	-2.930000E-01
489	  0.117795594	-2.952300E+01	  0.117795594	-5.466000E+00	  0.117795594	5.343800E+01	  0.117795594	-3.400000E-01
490	  0.117995992	-2.946800E+01	  0.117995992	-6.044000E+00	  0.117995992	5.345700E+01	  0.117995992	-3.780000E-01
491	  0.118196398	-2.947000E+01	  0.118196398	-5.797000E+00	  0.118196398	5.345800E+01	  0.118196398	-3.630000E-01
492	  0.118396796	-2.948300E+01	  0.118396796	-6.993000E+00	  0.118396796	5.344400E+01	  0.118396796	-4.370000E-01
493	  0.118597202	-2.943900E+01	  0.118597202	-6.666000E+00	  0.118597202	5.346400E+01	  0.118597202	-4.190000E-01
494	  0.118797600	-2.947800E+01	  0.118797600	-7.709000E+00	  0.118797600	5.343900E+01	  0.118797600	-4.810000E-01
495	  0.118997999	-2.935700E+01	  0.118997999	-7.309000E+00	  0.118997999	5.349300E+01	  0.118997999	-4.640000E-01
496	  0.119198404	-2.933400E+01	  0.119198404	-7.932000E+00	  0.119198404	5.349700E+01	  0.119198404	-5.040000E-01
497	  0.119398803	-2.931100E+01	  0.119398803	-8.170000E+00	  0.119398803	5.350400E+01	  0.119398803	-5.210000E-01
498	  0.119599201	-2.922300E+01	  0.119599201	-7.907000E+00	  0.119599201	5.354400E+01	  0.119599201	-5.100000E-01
499	  0.119799607	-2.928800E+01	  0.119799607	-8.113000E+00	  0.119799607	5.351400E+01	  0.119799607	-5.190000E-01
500	  0.120000005	-2.925300E+01	  0.120000005	-7.962000E+00	  0.120000005	5.353000E+01	  0.120000005	-5.110000E-01
