! Anritsu VNA Master:             	Model: MS2036C/10/77
! SN:             	1601066
! /bd0/18may26.balun/4a.r20.2.txt
! Existing Calibration Information:
! TYPE:             	Current Settings	Active Cal Settings
! TIME:             	05/26/2018 03:22:49 PM	05/26/2018 02:51:55 PM
! INTERNAL TEMP:    	59.8 C	59.5 C
! # POINTS:         	500	500
! START FREQ:       	20.000 MHz	20.000 MHz
! STOP FREQ:        	120.000 MHz	120.000 MHz
! SOURCE POWER:     	High	High
! IFBW:             	50 Hz	50 Hz
! AVG FACTOR:       	  1 	  1 
! REF PLANE 1:      	0 mm	0 mm
! REF PLANE 2:      	0 mm	0 mm
! CAL TYPE:         	Full S11	Full S11
! CAL METHOD:       	SOLT	SOLT
! CAL LINE TYPE:    	Coax	Coax
! DUT PORT 1:       	K-Conn(M)	K-Conn(M)
! DUT PORT 2:       	K-Conn(M)	K-Conn(M)
! CAL STATUS:       	OK: Accuracy High	--
! PROP-V:       	0.700
! CABLE LOSS:       	0.000 dB/m
! REF IMPEDANCE:       	50.0
! Trace Specific Parameters:	TR1	TR2	TR3	TR4
! TRACE.#.Y (GRAPH TYPE)	LOG MAG	PHASE	REAL IMPEDANCE	IMAGINARY IMPEDANCE
! TRACE.#.X 	FREQ.GHZ	FREQ.GHZ	FREQ.GHZ	FREQ.GHZ
! S-PARAMETER	S11	S11	S11	S11
! SMOOTH/APERTURE %	0	0	0	0
! WINDOW	NSL	NSL	NSL	NSL
! GATING	OFF	OFF	OFF	OFF
! FGTD	OFF	OFF	OFF	OFF
Marker Information per Trace:	TR1	TR2	TR3	TR4
!MK1	--	--	--	--
!MK2	--	--	--	--
!MK3	--	--	--	--
!MK4	--	--	--	--
!MK5	--	--	--	--
!MK6	--	--	--	--
!MK7	--	--	--	--
!MK8	--	--	--	--
PNT	TR1.FREQ.GHZ	TR1.LOG MAG.dB	TR2.FREQ.GHZ	TR2.PHASE.deg	TR3.FREQ.GHZ	TR3.REAL IMPEDANCE.ohm	TR4.FREQ.GHZ	TR4.IMAGINARY IMPEDANCE.ohm
1	  0.020000000	-7.286000E+00	  0.020000000	1.546100E+02	  0.020000000	2.066400E+01	  0.020000000	9.417000E+00
2	  0.020200402	-7.287000E+00	  0.020200402	1.543510E+02	  0.020200402	2.068400E+01	  0.020200402	9.515000E+00
3	  0.020400802	-7.288000E+00	  0.020400802	1.541040E+02	  0.020400802	2.070400E+01	  0.020400802	9.607000E+00
4	  0.020601204	-7.286000E+00	  0.020601204	1.538260E+02	  0.020601204	2.071700E+01	  0.020601204	9.713000E+00
5	  0.020801604	-7.285000E+00	  0.020801604	1.535680E+02	  0.020801604	2.073400E+01	  0.020801604	9.811000E+00
6	  0.021002004	-7.278000E+00	  0.021002004	1.533050E+02	  0.021002004	2.073600E+01	  0.021002004	9.914000E+00
7	  0.021202406	-7.280000E+00	  0.021202406	1.530340E+02	  0.021202406	2.076000E+01	  0.021202406	1.001600E+01
8	  0.021402806	-7.281000E+00	  0.021402806	1.527950E+02	  0.021402806	2.077800E+01	  0.021402806	1.010600E+01
9	  0.021603208	-7.284000E+00	  0.021603208	1.525370E+02	  0.021603208	2.080500E+01	  0.021603208	1.020200E+01
10	  0.021803608	-7.284000E+00	  0.021803608	1.522970E+02	  0.021803608	2.082400E+01	  0.021803608	1.029300E+01
11	  0.022004008	-7.291000E+00	  0.022004008	1.520340E+02	  0.022004008	2.086100E+01	  0.022004008	1.038900E+01
12	  0.022204408	-7.288000E+00	  0.022204408	1.517940E+02	  0.022204408	2.087200E+01	  0.022204408	1.048200E+01
13	  0.022404809	-7.286000E+00	  0.022404809	1.515330E+02	  0.022404809	2.088800E+01	  0.022404809	1.058200E+01
14	  0.022605211	-7.290000E+00	  0.022605211	1.513090E+02	  0.022605211	2.091400E+01	  0.022605211	1.066500E+01
15	  0.022805611	-7.292000E+00	  0.022805611	1.510290E+02	  0.022805611	2.094100E+01	  0.022805611	1.077000E+01
16	  0.023006011	-7.290000E+00	  0.023006011	1.508070E+02	  0.023006011	2.095300E+01	  0.023006011	1.085600E+01
17	  0.023206413	-7.289000E+00	  0.023206413	1.505300E+02	  0.023206413	2.097300E+01	  0.023206413	1.096200E+01
18	  0.023406813	-7.285000E+00	  0.023406813	1.502500E+02	  0.023406813	2.098600E+01	  0.023406813	1.107000E+01
19	  0.023607215	-7.285000E+00	  0.023607215	1.499600E+02	  0.023607215	2.100800E+01	  0.023607215	1.118100E+01
20	  0.023807615	-7.284000E+00	  0.023807615	1.497080E+02	  0.023807615	2.102700E+01	  0.023807615	1.127700E+01
21	  0.024008015	-7.284000E+00	  0.024008015	1.494570E+02	  0.024008015	2.104800E+01	  0.024008015	1.137300E+01
22	  0.024208417	-7.281000E+00	  0.024208417	1.492250E+02	  0.024208417	2.106100E+01	  0.024208417	1.146300E+01
23	  0.024408817	-7.286000E+00	  0.024408817	1.489840E+02	  0.024408817	2.109300E+01	  0.024408817	1.155300E+01
24	  0.024609219	-7.289000E+00	  0.024609219	1.487700E+02	  0.024609219	2.112000E+01	  0.024609219	1.163200E+01
25	  0.024809619	-7.289000E+00	  0.024809619	1.485290E+02	  0.024809619	2.114000E+01	  0.024809619	1.172500E+01
26	  0.025010020	-7.288000E+00	  0.025010020	1.483030E+02	  0.025010020	2.115800E+01	  0.025010020	1.181200E+01
27	  0.025210422	-7.292000E+00	  0.025210422	1.480420E+02	  0.025210422	2.119100E+01	  0.025210422	1.190900E+01
28	  0.025410822	-7.295000E+00	  0.025410822	1.477560E+02	  0.025410822	2.122200E+01	  0.025410822	1.201700E+01
29	  0.025611224	-7.296000E+00	  0.025611224	1.475000E+02	  0.025611224	2.124900E+01	  0.025611224	1.211400E+01
30	  0.025811624	-7.291000E+00	  0.025811624	1.472230E+02	  0.025811624	2.126100E+01	  0.025811624	1.222400E+01
31	  0.026012026	-7.286000E+00	  0.026012026	1.469510E+02	  0.026012026	2.127400E+01	  0.026012026	1.233100E+01
32	  0.026212426	-7.283000E+00	  0.026212426	1.466800E+02	  0.026212426	2.129000E+01	  0.026212426	1.243700E+01
33	  0.026412826	-7.280000E+00	  0.026412826	1.464140E+02	  0.026412826	2.130700E+01	  0.026412826	1.254100E+01
34	  0.026613226	-7.276000E+00	  0.026613226	1.461720E+02	  0.026613226	2.131900E+01	  0.026613226	1.263700E+01
35	  0.026813626	-7.275000E+00	  0.026813626	1.459440E+02	  0.026813626	2.133900E+01	  0.026813626	1.272500E+01
36	  0.027014028	-7.273000E+00	  0.027014028	1.457300E+02	  0.027014028	2.135500E+01	  0.027014028	1.280800E+01
37	  0.027214428	-7.276000E+00	  0.027214428	1.455590E+02	  0.027214428	2.137900E+01	  0.027214428	1.287200E+01
38	  0.027414829	-7.273000E+00	  0.027414829	1.453570E+02	  0.027414829	2.139100E+01	  0.027414829	1.295200E+01
39	  0.027615231	-7.277000E+00	  0.027615231	1.451620E+02	  0.027615231	2.141900E+01	  0.027615231	1.302500E+01
40	  0.027815631	-7.282000E+00	  0.027815631	1.449140E+02	  0.027815631	2.145700E+01	  0.027815631	1.311800E+01
41	  0.028016033	-7.286000E+00	  0.028016033	1.446530E+02	  0.028016033	2.149100E+01	  0.028016033	1.321600E+01
42	  0.028216433	-7.288000E+00	  0.028216433	1.443880E+02	  0.028216433	2.152500E+01	  0.028216433	1.331700E+01
43	  0.028416833	-7.290000E+00	  0.028416833	1.441010E+02	  0.028416833	2.155800E+01	  0.028416833	1.342600E+01
44	  0.028617235	-7.293000E+00	  0.028617235	1.438390E+02	  0.028617235	2.159200E+01	  0.028617235	1.352600E+01
45	  0.028817635	-7.293000E+00	  0.028817635	1.435440E+02	  0.028817635	2.162100E+01	  0.028817635	1.364000E+01
46	  0.029018037	-7.295000E+00	  0.029018037	1.432690E+02	  0.029018037	2.165600E+01	  0.029018037	1.374500E+01
47	  0.029218437	-7.294000E+00	  0.029218437	1.430000E+02	  0.029218437	2.168100E+01	  0.029218437	1.385000E+01
48	  0.029418837	-7.292000E+00	  0.029418837	1.427470E+02	  0.029418837	2.170300E+01	  0.029418837	1.394900E+01
49	  0.029619239	-7.287000E+00	  0.029619239	1.425190E+02	  0.029619239	2.171300E+01	  0.029619239	1.404200E+01
50	  0.029819639	-7.285000E+00	  0.029819639	1.422940E+02	  0.029819639	2.173200E+01	  0.029819639	1.413100E+01
51	  0.030020041	-7.283000E+00	  0.030020041	1.420890E+02	  0.030020041	2.175000E+01	  0.030020041	1.421200E+01
52	  0.030220442	-7.283000E+00	  0.030220442	1.418650E+02	  0.030220442	2.177400E+01	  0.030220442	1.429900E+01
53	  0.030420844	-7.287000E+00	  0.030420844	1.416630E+02	  0.030420844	2.180700E+01	  0.030420844	1.437400E+01
54	  0.030621244	-7.295000E+00	  0.030621244	1.414180E+02	  0.030621244	2.185300E+01	  0.030621244	1.446400E+01
55	  0.030821644	-7.297000E+00	  0.030821644	1.411360E+02	  0.030821644	2.189100E+01	  0.030821644	1.457200E+01
56	  0.031022044	-7.298000E+00	  0.031022044	1.408360E+02	  0.031022044	2.192700E+01	  0.031022044	1.468900E+01
57	  0.031222444	-7.289000E+00	  0.031222444	1.405740E+02	  0.031222444	2.193200E+01	  0.031222444	1.479800E+01
58	  0.031422846	-7.290000E+00	  0.031422846	1.402770E+02	  0.031422846	2.196900E+01	  0.031422846	1.491300E+01
59	  0.031623244	-7.289000E+00	  0.031623244	1.399810E+02	  0.031623244	2.200200E+01	  0.031623244	1.502900E+01
60	  0.031823646	-7.283000E+00	  0.031823646	1.397340E+02	  0.031823646	2.201300E+01	  0.031823646	1.513100E+01
61	  0.032024048	-7.277000E+00	  0.032024048	1.394760E+02	  0.032024048	2.202900E+01	  0.032024048	1.523700E+01
62	  0.032224450	-7.270000E+00	  0.032224450	1.392040E+02	  0.032224450	2.204200E+01	  0.032224450	1.534900E+01
63	  0.032424849	-7.259000E+00	  0.032424849	1.390260E+02	  0.032424849	2.203500E+01	  0.032424849	1.542700E+01
64	  0.032625251	-7.253000E+00	  0.032625251	1.387830E+02	  0.032625251	2.204900E+01	  0.032625251	1.552800E+01
65	  0.032825653	-7.250000E+00	  0.032825653	1.385800E+02	  0.032825653	2.206600E+01	  0.032825653	1.561000E+01
66	  0.033026051	-7.250000E+00	  0.033026051	1.383720E+02	  0.033026051	2.209100E+01	  0.033026051	1.569200E+01
67	  0.033226453	-7.252000E+00	  0.033226453	1.381580E+02	  0.033226453	2.212200E+01	  0.033226453	1.577400E+01
68	  0.033426855	-7.259000E+00	  0.033426855	1.379280E+02	  0.033426855	2.216800E+01	  0.033426855	1.586000E+01
69	  0.033627257	-7.264000E+00	  0.033627257	1.377040E+02	  0.033627257	2.220900E+01	  0.033627257	1.594400E+01
70	  0.033827655	-7.268000E+00	  0.033827655	1.374310E+02	  0.033827655	2.225300E+01	  0.033827655	1.604800E+01
71	  0.034028057	-7.275000E+00	  0.034028057	1.371650E+02	  0.034028057	2.230400E+01	  0.034028057	1.614800E+01
72	  0.034228459	-7.279000E+00	  0.034228459	1.368840E+02	  0.034228459	2.234900E+01	  0.034228459	1.625600E+01
73	  0.034428857	-7.285000E+00	  0.034428857	1.366400E+02	  0.034428857	2.239700E+01	  0.034428857	1.634700E+01
74	  0.034629259	-7.287000E+00	  0.034629259	1.363720E+02	  0.034629259	2.243600E+01	  0.034629259	1.645100E+01
75	  0.034829661	-7.285000E+00	  0.034829661	1.361100E+02	  0.034829661	2.246500E+01	  0.034829661	1.655700E+01
76	  0.035030060	-7.278000E+00	  0.035030060	1.358580E+02	  0.035030060	2.247900E+01	  0.035030060	1.666300E+01
77	  0.035230462	-7.276000E+00	  0.035230462	1.355970E+02	  0.035230462	2.250900E+01	  0.035230462	1.676800E+01
78	  0.035430863	-7.266000E+00	  0.035430863	1.353510E+02	  0.035430863	2.251600E+01	  0.035430863	1.687400E+01
79	  0.035631265	-7.264000E+00	  0.035631265	1.351190E+02	  0.035631265	2.254000E+01	  0.035631265	1.696800E+01
80	  0.035831664	-7.265000E+00	  0.035831664	1.349350E+02	  0.035831664	2.256700E+01	  0.035831664	1.704100E+01
81	  0.036032066	-7.270000E+00	  0.036032066	1.347370E+02	  0.036032066	2.260700E+01	  0.036032066	1.711500E+01
82	  0.036232468	-7.277000E+00	  0.036232468	1.344790E+02	  0.036232468	2.265900E+01	  0.036232468	1.721200E+01
83	  0.036432866	-7.282000E+00	  0.036432866	1.342370E+02	  0.036432866	2.270800E+01	  0.036432866	1.730300E+01
84	  0.036633268	-7.292000E+00	  0.036633268	1.339350E+02	  0.036633268	2.277400E+01	  0.036633268	1.741500E+01
85	  0.036833670	-7.295000E+00	  0.036833670	1.336450E+02	  0.036833670	2.282200E+01	  0.036833670	1.752800E+01
86	  0.037034072	-7.297000E+00	  0.037034072	1.333420E+02	  0.037034072	2.287200E+01	  0.037034072	1.764600E+01
87	  0.037234470	-7.293000E+00	  0.037234470	1.330510E+02	  0.037234470	2.290100E+01	  0.037234470	1.776700E+01
88	  0.037434869	-7.290000E+00	  0.037434869	1.327690E+02	  0.037434869	2.293400E+01	  0.037434869	1.788300E+01
89	  0.037635271	-7.279000E+00	  0.037635271	1.325110E+02	  0.037635271	2.294200E+01	  0.037635271	1.799600E+01
90	  0.037835669	-7.273000E+00	  0.037835669	1.322470E+02	  0.037835669	2.296300E+01	  0.037835669	1.810800E+01
91	  0.038036071	-7.265000E+00	  0.038036071	1.319870E+02	  0.038036071	2.297900E+01	  0.038036071	1.822100E+01
92	  0.038236473	-7.256000E+00	  0.038236473	1.318080E+02	  0.038236473	2.298400E+01	  0.038236473	1.830100E+01
93	  0.038436871	-7.254000E+00	  0.038436871	1.316110E+02	  0.038436871	2.300700E+01	  0.038436871	1.838200E+01
94	  0.038637273	-7.259000E+00	  0.038637273	1.314080E+02	  0.038637273	2.304900E+01	  0.038637273	1.845900E+01
95	  0.038837675	-7.263000E+00	  0.038837675	1.311840E+02	  0.038837675	2.309400E+01	  0.038837675	1.854500E+01
96	  0.039038073	-7.267000E+00	  0.039038073	1.309540E+02	  0.039038073	2.314000E+01	  0.039038073	1.863400E+01
97	  0.039238475	-7.269000E+00	  0.039238475	1.306640E+02	  0.039238475	2.318900E+01	  0.039238475	1.874900E+01
98	  0.039438877	-7.275000E+00	  0.039438877	1.304060E+02	  0.039438877	2.324300E+01	  0.039438877	1.884800E+01
99	  0.039639279	-7.274000E+00	  0.039639279	1.301680E+02	  0.039639279	2.327700E+01	  0.039639279	1.894500E+01
100	  0.039839678	-7.274000E+00	  0.039839678	1.299160E+02	  0.039839678	2.331700E+01	  0.039839678	1.904600E+01
101	  0.040040080	-7.276000E+00	  0.040040080	1.296550E+02	  0.040040080	2.336200E+01	  0.040040080	1.915000E+01
102	  0.040240481	-7.272000E+00	  0.040240481	1.293990E+02	  0.040240481	2.339200E+01	  0.040240481	1.925900E+01
103	  0.040440880	-7.265000E+00	  0.040440880	1.291370E+02	  0.040440880	2.341300E+01	  0.040440880	1.937200E+01
104	  0.040641282	-7.260000E+00	  0.040641282	1.288710E+02	  0.040641282	2.344200E+01	  0.040641282	1.948600E+01
105	  0.040841684	-7.255000E+00	  0.040841684	1.286510E+02	  0.040841684	2.346400E+01	  0.040841684	1.958000E+01
106	  0.041042086	-7.250000E+00	  0.041042086	1.284640E+02	  0.041042086	2.348100E+01	  0.041042086	1.966200E+01
107	  0.041242484	-7.250000E+00	  0.041242484	1.282770E+02	  0.041242484	2.351200E+01	  0.041242484	1.973800E+01
108	  0.041442886	-7.255000E+00	  0.041442886	1.280800E+02	  0.041442886	2.355800E+01	  0.041442886	1.981300E+01
109	  0.041643288	-7.260000E+00	  0.041643288	1.278660E+02	  0.041643288	2.360500E+01	  0.041643288	1.989500E+01
110	  0.041843686	-7.269000E+00	  0.041843686	1.276530E+02	  0.041843686	2.366400E+01	  0.041843686	1.997200E+01
111	  0.042044088	-7.274000E+00	  0.042044088	1.273620E+02	  0.042044088	2.372800E+01	  0.042044088	2.008500E+01
112	  0.042244490	-7.278000E+00	  0.042244490	1.271500E+02	  0.042244490	2.377200E+01	  0.042244490	2.016800E+01
113	  0.042444889	-7.279000E+00	  0.042444889	1.268670E+02	  0.042444889	2.382400E+01	  0.042444889	2.028200E+01
114	  0.042645290	-7.282000E+00	  0.042645290	1.266000E+02	  0.042645290	2.387700E+01	  0.042645290	2.038800E+01
115	  0.042845692	-7.277000E+00	  0.042845692	1.263330E+02	  0.042845692	2.390800E+01	  0.042845692	2.050300E+01
116	  0.043046094	-7.274000E+00	  0.043046094	1.260390E+02	  0.043046094	2.395100E+01	  0.043046094	2.062700E+01
117	  0.043246493	-7.267000E+00	  0.043246493	1.257680E+02	  0.043246493	2.397900E+01	  0.043246493	2.074600E+01
118	  0.043446895	-7.259000E+00	  0.043446895	1.255490E+02	  0.043446895	2.399500E+01	  0.043446895	2.084600E+01
119	  0.043647297	-7.260000E+00	  0.043647297	1.252860E+02	  0.043647297	2.404400E+01	  0.043647297	2.095300E+01
120	  0.043847695	-7.258000E+00	  0.043847695	1.250870E+02	  0.043847695	2.407300E+01	  0.043847695	2.103700E+01
121	  0.044048097	-7.260000E+00	  0.044048097	1.248610E+02	  0.044048097	2.411800E+01	  0.044048097	2.112800E+01
122	  0.044248499	-7.264000E+00	  0.044248499	1.246160E+02	  0.044248499	2.417300E+01	  0.044248499	2.122500E+01
123	  0.044448901	-7.270000E+00	  0.044448901	1.243380E+02	  0.044448901	2.424100E+01	  0.044448901	2.133200E+01
124	  0.044649299	-7.272000E+00	  0.044649299	1.240530E+02	  0.044649299	2.429600E+01	  0.044649299	2.144800E+01
125	  0.044849701	-7.276000E+00	  0.044849701	1.238120E+02	  0.044849701	2.435200E+01	  0.044849701	2.154300E+01
126	  0.045050103	-7.276000E+00	  0.045050103	1.235690E+02	  0.045050103	2.439700E+01	  0.045050103	2.164300E+01
127	  0.045250501	-7.282000E+00	  0.045250501	1.233060E+02	  0.045250501	2.446200E+01	  0.045250501	2.174400E+01
128	  0.045450903	-7.279000E+00	  0.045450903	1.230380E+02	  0.045450903	2.450400E+01	  0.045450903	2.185900E+01
129	  0.045651305	-7.275000E+00	  0.045651305	1.227370E+02	  0.045651305	2.454900E+01	  0.045651305	2.198900E+01
130	  0.045851704	-7.264000E+00	  0.045851704	1.224590E+02	  0.045851704	2.457100E+01	  0.045851704	2.211900E+01
131	  0.046052106	-7.254000E+00	  0.046052106	1.221880E+02	  0.046052106	2.459500E+01	  0.046052106	2.224400E+01
132	  0.046252504	-7.248000E+00	  0.046252504	1.219630E+02	  0.046252504	2.462300E+01	  0.046252504	2.234500E+01
133	  0.046452906	-7.247000E+00	  0.046452906	1.217580E+02	  0.046452906	2.465900E+01	  0.046452906	2.243300E+01
134	  0.046653304	-7.245000E+00	  0.046653304	1.215780E+02	  0.046653304	2.468700E+01	  0.046653304	2.251100E+01
135	  0.046853706	-7.243000E+00	  0.046853706	1.213660E+02	  0.046853706	2.472300E+01	  0.046853706	2.260200E+01
136	  0.047054108	-7.252000E+00	  0.047054108	1.211640E+02	  0.047054108	2.478800E+01	  0.047054108	2.267500E+01
137	  0.047254506	-7.251000E+00	  0.047254506	1.209300E+02	  0.047254506	2.483200E+01	  0.047254506	2.277400E+01
138	  0.047454908	-7.258000E+00	  0.047454908	1.206810E+02	  0.047454908	2.490000E+01	  0.047454908	2.287000E+01
139	  0.047655310	-7.258000E+00	  0.047655310	1.204380E+02	  0.047655310	2.495000E+01	  0.047655310	2.297100E+01
140	  0.047855709	-7.259000E+00	  0.047855709	1.201690E+02	  0.047855709	2.500500E+01	  0.047855709	2.308300E+01
141	  0.048056111	-7.256000E+00	  0.048056111	1.199310E+02	  0.048056111	2.504700E+01	  0.048056111	2.318700E+01
142	  0.048256513	-7.253000E+00	  0.048256513	1.196610E+02	  0.048256513	2.509100E+01	  0.048256513	2.330500E+01
143	  0.048456915	-7.246000E+00	  0.048456915	1.194080E+02	  0.048456915	2.512500E+01	  0.048456915	2.342100E+01
144	  0.048657313	-7.246000E+00	  0.048657313	1.191690E+02	  0.048657313	2.517300E+01	  0.048657313	2.352200E+01
145	  0.048857715	-7.242000E+00	  0.048857715	1.189490E+02	  0.048857715	2.520700E+01	  0.048857715	2.362100E+01
146	  0.049058117	-7.242000E+00	  0.049058117	1.187190E+02	  0.049058117	2.525500E+01	  0.049058117	2.371800E+01
147	  0.049258515	-7.246000E+00	  0.049258515	1.185220E+02	  0.049258515	2.530800E+01	  0.049258515	2.379600E+01
148	  0.049458917	-7.246000E+00	  0.049458917	1.182870E+02	  0.049458917	2.535900E+01	  0.049458917	2.389400E+01
149	  0.049659319	-7.249000E+00	  0.049659319	1.180430E+02	  0.049659319	2.541900E+01	  0.049659319	2.399400E+01
150	  0.049859721	-7.252000E+00	  0.049859721	1.178010E+02	  0.049859721	2.547900E+01	  0.049859721	2.409200E+01
151	  0.050060119	-7.257000E+00	  0.050060119	1.175530E+02	  0.050060119	2.554400E+01	  0.050060119	2.419100E+01
152	  0.050260521	-7.265000E+00	  0.050260521	1.172950E+02	  0.050260521	2.562500E+01	  0.050260521	2.428900E+01
153	  0.050460923	-7.265000E+00	  0.050460923	1.170160E+02	  0.050460923	2.568400E+01	  0.050460923	2.440800E+01
154	  0.050661322	-7.268000E+00	  0.050661322	1.167430E+02	  0.050661322	2.575200E+01	  0.050661322	2.452000E+01
155	  0.050861724	-7.261000E+00	  0.050861724	1.164750E+02	  0.050861724	2.579200E+01	  0.050861724	2.464400E+01
156	  0.051062126	-7.257000E+00	  0.051062126	1.161690E+02	  0.051062126	2.584800E+01	  0.051062126	2.478000E+01
157	  0.051262524	-7.249000E+00	  0.051262524	1.158930E+02	  0.051262524	2.589000E+01	  0.051262524	2.490900E+01
158	  0.051462926	-7.246000E+00	  0.051462926	1.156410E+02	  0.051462926	2.593600E+01	  0.051462926	2.502300E+01
159	  0.051663328	-7.244000E+00	  0.051663328	1.153980E+02	  0.051663328	2.598600E+01	  0.051663328	2.513000E+01
160	  0.051863730	-7.238000E+00	  0.051863730	1.151910E+02	  0.051863730	2.601800E+01	  0.051863730	2.522600E+01
161	  0.052064128	-7.234000E+00	  0.052064128	1.149740E+02	  0.052064128	2.605400E+01	  0.052064128	2.532700E+01
162	  0.052264530	-7.238000E+00	  0.052264530	1.147600E+02	  0.052264530	2.611700E+01	  0.052264530	2.541200E+01
163	  0.052464932	-7.238000E+00	  0.052464932	1.145480E+02	  0.052464932	2.616400E+01	  0.052464932	2.550400E+01
164	  0.052665330	-7.241000E+00	  0.052665330	1.143050E+02	  0.052665330	2.623200E+01	  0.052665330	2.560300E+01
165	  0.052865732	-7.243000E+00	  0.052865732	1.140580E+02	  0.052865732	2.629500E+01	  0.052865732	2.570700E+01
166	  0.053066134	-7.245000E+00	  0.053066134	1.138200E+02	  0.053066134	2.635800E+01	  0.053066134	2.580500E+01
167	  0.053266536	-7.244000E+00	  0.053266536	1.135550E+02	  0.053266536	2.641600E+01	  0.053266536	2.592200E+01
168	  0.053466935	-7.242000E+00	  0.053466935	1.132820E+02	  0.053466935	2.647800E+01	  0.053466935	2.604200E+01
169	  0.053667337	-7.234000E+00	  0.053667337	1.130260E+02	  0.053667337	2.651700E+01	  0.053667337	2.616600E+01
170	  0.053867739	-7.232000E+00	  0.053867739	1.127820E+02	  0.053867739	2.656900E+01	  0.053867739	2.627600E+01
171	  0.054068137	-7.228000E+00	  0.054068137	1.125090E+02	  0.054068137	2.662400E+01	  0.054068137	2.640100E+01
172	  0.054268539	-7.224000E+00	  0.054268539	1.122980E+02	  0.054268539	2.666500E+01	  0.054268539	2.649900E+01
173	  0.054468941	-7.226000E+00	  0.054468941	1.120770E+02	  0.054468941	2.672600E+01	  0.054468941	2.659100E+01
174	  0.054669339	-7.227000E+00	  0.054669339	1.118670E+02	  0.054669339	2.677900E+01	  0.054669339	2.668200E+01
175	  0.054869737	-7.229000E+00	  0.054869737	1.116300E+02	  0.054869737	2.684500E+01	  0.054869737	2.678200E+01
176	  0.055070139	-7.233000E+00	  0.055070139	1.113920E+02	  0.055070139	2.691600E+01	  0.055070139	2.687900E+01
177	  0.055270538	-7.232000E+00	  0.055270538	1.111380E+02	  0.055270538	2.697800E+01	  0.055270538	2.699100E+01
178	  0.055470940	-7.236000E+00	  0.055470940	1.109130E+02	  0.055470940	2.704600E+01	  0.055470940	2.708300E+01
179	  0.055671342	-7.238000E+00	  0.055671342	1.106610E+02	  0.055671342	2.711800E+01	  0.055671342	2.718900E+01
180	  0.055871744	-7.237000E+00	  0.055871744	1.104260E+02	  0.055871744	2.717700E+01	  0.055871744	2.729300E+01
181	  0.056072142	-7.235000E+00	  0.056072142	1.101290E+02	  0.056072142	2.724700E+01	  0.056072142	2.742700E+01
182	  0.056272544	-7.232000E+00	  0.056272544	1.098460E+02	  0.056272544	2.731300E+01	  0.056272544	2.755600E+01
183	  0.056472946	-7.232000E+00	  0.056472946	1.095830E+02	  0.056472946	2.738100E+01	  0.056472946	2.767200E+01
184	  0.056673344	-7.223000E+00	  0.056673344	1.093150E+02	  0.056673344	2.742500E+01	  0.056673344	2.780600E+01
185	  0.056873746	-7.224000E+00	  0.056873746	1.091050E+02	  0.056873746	2.748500E+01	  0.056873746	2.789700E+01
186	  0.057074148	-7.220000E+00	  0.057074148	1.088590E+02	  0.057074148	2.753900E+01	  0.057074148	2.801200E+01
187	  0.057274550	-7.211000E+00	  0.057274550	1.086250E+02	  0.057274550	2.757700E+01	  0.057274550	2.813100E+01
188	  0.057474948	-7.209000E+00	  0.057474948	1.084510E+02	  0.057474948	2.761800E+01	  0.057474948	2.821100E+01
189	  0.057675350	-7.212000E+00	  0.057675350	1.082190E+02	  0.057675350	2.769000E+01	  0.057675350	2.830900E+01
190	  0.057875752	-7.213000E+00	  0.057875752	1.080040E+02	  0.057875752	2.775200E+01	  0.057875752	2.840200E+01
191	  0.058076151	-7.214000E+00	  0.058076151	1.077890E+02	  0.058076151	2.781500E+01	  0.058076151	2.849500E+01
192	  0.058276553	-7.217000E+00	  0.058276553	1.075450E+02	  0.058276553	2.789200E+01	  0.058276553	2.859700E+01
193	  0.058476955	-7.213000E+00	  0.058476955	1.072970E+02	  0.058476955	2.794900E+01	  0.058476955	2.871500E+01
194	  0.058677353	-7.219000E+00	  0.058677353	1.070510E+02	  0.058677353	2.803400E+01	  0.058677353	2.881400E+01
195	  0.058877755	-7.213000E+00	  0.058877755	1.067720E+02	  0.058877755	2.809600E+01	  0.058877755	2.894900E+01
196	  0.059078157	-7.211000E+00	  0.059078157	1.065400E+02	  0.059078157	2.815700E+01	  0.059078157	2.905500E+01
197	  0.059278559	-7.211000E+00	  0.059278559	1.062880E+02	  0.059278559	2.822900E+01	  0.059278559	2.916800E+01
198	  0.059478957	-7.212000E+00	  0.059478957	1.060570E+02	  0.059478957	2.829900E+01	  0.059478957	2.926900E+01
199	  0.059679359	-7.210000E+00	  0.059679359	1.058260E+02	  0.059679359	2.836000E+01	  0.059679359	2.937500E+01
200	  0.059879761	-7.211000E+00	  0.059879761	1.056110E+02	  0.059879761	2.842600E+01	  0.059879761	2.947000E+01
201	  0.060080159	-7.208000E+00	  0.060080159	1.053780E+02	  0.060080159	2.848400E+01	  0.060080159	2.958000E+01
202	  0.060280561	-7.213000E+00	  0.060280561	1.051460E+02	  0.060280561	2.856900E+01	  0.060280561	2.967300E+01
203	  0.060480963	-7.214000E+00	  0.060480963	1.049150E+02	  0.060480963	2.864000E+01	  0.060480963	2.977500E+01
204	  0.060681365	-7.218000E+00	  0.060681365	1.046810E+02	  0.060681365	2.872200E+01	  0.060681365	2.987200E+01
205	  0.060881764	-7.220000E+00	  0.060881764	1.044510E+02	  0.060881764	2.879600E+01	  0.060881764	2.997200E+01
206	  0.061082166	-7.220000E+00	  0.061082166	1.042020E+02	  0.061082166	2.887200E+01	  0.061082166	3.008300E+01
207	  0.061282568	-7.222000E+00	  0.061282568	1.039530E+02	  0.061282568	2.895500E+01	  0.061282568	3.019000E+01
208	  0.061482966	-7.219000E+00	  0.061482966	1.036780E+02	  0.061482966	2.902800E+01	  0.061482966	3.032100E+01
209	  0.061683368	-7.221000E+00	  0.061683368	1.033910E+02	  0.061683368	2.912200E+01	  0.061683368	3.044600E+01
210	  0.061883770	-7.219000E+00	  0.061883770	1.031230E+02	  0.061883770	2.920000E+01	  0.061883770	3.057100E+01
211	  0.062084168	-7.218000E+00	  0.062084168	1.028960E+02	  0.062084168	2.926900E+01	  0.062084168	3.067500E+01
212	  0.062284570	-7.211000E+00	  0.062284570	1.026450E+02	  0.062284570	2.932600E+01	  0.062284570	3.080300E+01
213	  0.062484972	-7.199000E+00	  0.062484972	1.024480E+02	  0.062484972	2.935200E+01	  0.062484972	3.091700E+01
214	  0.062685370	-7.195000E+00	  0.062685370	1.022250E+02	  0.062685370	2.941200E+01	  0.062685370	3.102500E+01
215	  0.062885776	-7.193000E+00	  0.062885776	1.019930E+02	  0.062885776	2.948000E+01	  0.062885776	3.113600E+01
216	  0.063086174	-7.200000E+00	  0.063086174	1.017470E+02	  0.063086174	2.958000E+01	  0.063086174	3.123200E+01
217	  0.063286573	-7.196000E+00	  0.063286573	1.015600E+02	  0.063286573	2.962800E+01	  0.063286573	3.132700E+01
218	  0.063486971	-7.195000E+00	  0.063486971	1.013300E+02	  0.063486971	2.970100E+01	  0.063486971	3.143200E+01
219	  0.063687377	-7.195000E+00	  0.063687377	1.010730E+02	  0.063687377	2.978300E+01	  0.063687377	3.155000E+01
220	  0.063887775	-7.198000E+00	  0.063887775	1.008190E+02	  0.063887775	2.987600E+01	  0.063887775	3.166000E+01
221	  0.064088173	-7.200000E+00	  0.064088173	1.005720E+02	  0.064088173	2.996400E+01	  0.064088173	3.176800E+01
222	  0.064288579	-7.198000E+00	  0.064288579	1.003120E+02	  0.064288579	3.004600E+01	  0.064288579	3.188900E+01
223	  0.064488977	-7.203000E+00	  0.064488977	1.000310E+02	  0.064488977	3.015400E+01	  0.064488977	3.200700E+01
224	  0.064689375	-7.198000E+00	  0.064689375	9.976700E+01	  0.064689375	3.023000E+01	  0.064689375	3.213800E+01
225	  0.064889781	-7.197000E+00	  0.064889781	9.953800E+01	  0.064889781	3.030400E+01	  0.064889781	3.224500E+01
226	  0.065090179	-7.197000E+00	  0.065090179	9.930800E+01	  0.065090179	3.038100E+01	  0.065090179	3.235200E+01
227	  0.065290578	-7.190000E+00	  0.065290578	9.905300E+01	  0.065290578	3.045000E+01	  0.065290578	3.248300E+01
228	  0.065490983	-7.191000E+00	  0.065490983	9.881600E+01	  0.065490983	3.053300E+01	  0.065490983	3.259100E+01
229	  0.065691382	-7.194000E+00	  0.065691382	9.857300E+01	  0.065691382	3.062700E+01	  0.065691382	3.269600E+01
230	  0.065891780	-7.194000E+00	  0.065891780	9.834500E+01	  0.065891780	3.070700E+01	  0.065891780	3.280000E+01
231	  0.066092186	-7.190000E+00	  0.066092186	9.813000E+01	  0.066092186	3.077200E+01	  0.066092186	3.290700E+01
232	  0.066292584	-7.195000E+00	  0.066292584	9.789600E+01	  0.066292584	3.087000E+01	  0.066292584	3.300300E+01
233	  0.066492982	-7.196000E+00	  0.066492982	9.762600E+01	  0.066492982	3.096800E+01	  0.066492982	3.312600E+01
234	  0.066693388	-7.196000E+00	  0.066693388	9.737100E+01	  0.066693388	3.106100E+01	  0.066693388	3.324300E+01
235	  0.066893786	-7.189000E+00	  0.066893786	9.711100E+01	  0.066893786	3.113300E+01	  0.066893786	3.338000E+01
236	  0.067094192	-7.196000E+00	  0.067094192	9.683100E+01	  0.067094192	3.125800E+01	  0.067094192	3.349100E+01
237	  0.067294590	-7.190000E+00	  0.067294590	9.656100E+01	  0.067294590	3.133600E+01	  0.067294590	3.363200E+01
238	  0.067494988	-7.189000E+00	  0.067494988	9.635200E+01	  0.067494988	3.141200E+01	  0.067494988	3.373000E+01
239	  0.067695394	-7.184000E+00	  0.067695394	9.610600E+01	  0.067695394	3.148600E+01	  0.067695394	3.385700E+01
240	  0.067895792	-7.175000E+00	  0.067895792	9.587200E+01	  0.067895792	3.154800E+01	  0.067895792	3.398700E+01
241	  0.068096191	-7.171000E+00	  0.068096191	9.565100E+01	  0.068096191	3.161600E+01	  0.068096191	3.410100E+01
242	  0.068296596	-7.177000E+00	  0.068296596	9.543800E+01	  0.068296596	3.171500E+01	  0.068296596	3.418500E+01
243	  0.068496995	-7.173000E+00	  0.068496995	9.524300E+01	  0.068496995	3.177800E+01	  0.068496995	3.428500E+01
244	  0.068697393	-7.168000E+00	  0.068697393	9.502700E+01	  0.068697393	3.184700E+01	  0.068697393	3.439700E+01
245	  0.068897791	-7.173000E+00	  0.068897791	9.480200E+01	  0.068897791	3.194600E+01	  0.068897791	3.449100E+01
246	  0.069098189	-7.170000E+00	  0.069098189	9.454700E+01	  0.069098189	3.203700E+01	  0.069098189	3.461600E+01
247	  0.069298595	-7.166000E+00	  0.069298595	9.434700E+01	  0.069298595	3.210100E+01	  0.069298595	3.472000E+01
248	  0.069498993	-7.175000E+00	  0.069498993	9.410100E+01	  0.069498993	3.222500E+01	  0.069498993	3.481200E+01
249	  0.069699399	-7.176000E+00	  0.069699399	9.379400E+01	  0.069699399	3.234800E+01	  0.069699399	3.495300E+01
250	  0.069899797	-7.175000E+00	  0.069899797	9.356400E+01	  0.069899797	3.243800E+01	  0.069899797	3.506200E+01
251	  0.070100196	-7.175000E+00	  0.070100196	9.328000E+01	  0.070100196	3.255100E+01	  0.070100196	3.519400E+01
252	  0.070300601	-7.177000E+00	  0.070300601	9.310600E+01	  0.070300601	3.262600E+01	  0.070300601	3.527100E+01
253	  0.070501000	-7.174000E+00	  0.070501000	9.282800E+01	  0.070501000	3.273000E+01	  0.070501000	3.540800E+01
254	  0.070701398	-7.170000E+00	  0.070701398	9.258900E+01	  0.070701398	3.281300E+01	  0.070701398	3.553100E+01
255	  0.070901804	-7.172000E+00	  0.070901804	9.232800E+01	  0.070901804	3.292600E+01	  0.070901804	3.564900E+01
256	  0.071102202	-7.166000E+00	  0.071102202	9.211800E+01	  0.071102202	3.299300E+01	  0.071102202	3.576400E+01
257	  0.071302600	-7.167000E+00	  0.071302600	9.187400E+01	  0.071302600	3.309900E+01	  0.071302600	3.587400E+01
258	  0.071503006	-7.169000E+00	  0.071503006	9.167200E+01	  0.071503006	3.318800E+01	  0.071503006	3.596500E+01
259	  0.071703404	-7.167000E+00	  0.071703404	9.141000E+01	  0.071703404	3.329100E+01	  0.071703404	3.609400E+01
260	  0.071903802	-7.164000E+00	  0.071903802	9.118000E+01	  0.071903802	3.337800E+01	  0.071903802	3.621100E+01
261	  0.072104208	-7.167000E+00	  0.072104208	9.090300E+01	  0.072104208	3.350400E+01	  0.072104208	3.633300E+01
262	  0.072304606	-7.164000E+00	  0.072304606	9.063400E+01	  0.072304606	3.361100E+01	  0.072304606	3.646700E+01
263	  0.072505005	-7.164000E+00	  0.072505005	9.040700E+01	  0.072505005	3.370700E+01	  0.072505005	3.657600E+01
264	  0.072705410	-7.160000E+00	  0.072705410	9.014100E+01	  0.072705410	3.381000E+01	  0.072705410	3.671200E+01
265	  0.072905809	-7.152000E+00	  0.072905809	8.988800E+01	  0.072905809	3.389700E+01	  0.072905809	3.685200E+01
266	  0.073106214	-7.150000E+00	  0.073106214	8.967300E+01	  0.073106214	3.398500E+01	  0.073106214	3.696000E+01
267	  0.073306613	-7.144000E+00	  0.073306613	8.942900E+01	  0.073306613	3.407100E+01	  0.073306613	3.709500E+01
268	  0.073507011	-7.138000E+00	  0.073507011	8.920300E+01	  0.073507011	3.415200E+01	  0.073507011	3.722000E+01
269	  0.073707417	-7.141000E+00	  0.073707417	8.899400E+01	  0.073707417	3.425600E+01	  0.073707417	3.730800E+01
270	  0.073907815	-7.132000E+00	  0.073907815	8.883400E+01	  0.073907815	3.429700E+01	  0.073907815	3.741300E+01
271	  0.074108213	-7.132000E+00	  0.074108213	8.860200E+01	  0.074108213	3.440200E+01	  0.074108213	3.752300E+01
272	  0.074308619	-7.137000E+00	  0.074308619	8.840800E+01	  0.074308619	3.450700E+01	  0.074308619	3.759900E+01
273	  0.074509017	-7.139000E+00	  0.074509017	8.816600E+01	  0.074509017	3.462200E+01	  0.074509017	3.770900E+01
274	  0.074709415	-7.137000E+00	  0.074709415	8.792100E+01	  0.074709415	3.472900E+01	  0.074709415	3.783100E+01
275	  0.074909821	-7.140000E+00	  0.074909821	8.770000E+01	  0.074909821	3.483900E+01	  0.074909821	3.792700E+01
276	  0.075110219	-7.150000E+00	  0.075110219	8.746800E+01	  0.075110219	3.497800E+01	  0.075110219	3.800700E+01
277	  0.075310618	-7.152000E+00	  0.075310618	8.718700E+01	  0.075310618	3.511500E+01	  0.075310618	3.813400E+01
278	  0.075511023	-7.155000E+00	  0.075511023	8.695900E+01	  0.075511023	3.523300E+01	  0.075511023	3.823200E+01
279	  0.075711422	-7.154000E+00	  0.075711422	8.669200E+01	  0.075711422	3.535500E+01	  0.075711422	3.836200E+01
280	  0.075911827	-7.155000E+00	  0.075911827	8.646100E+01	  0.075911827	3.546700E+01	  0.075911827	3.846900E+01
281	  0.076112226	-7.152000E+00	  0.076112226	8.621700E+01	  0.076112226	3.557300E+01	  0.076112226	3.859600E+01
282	  0.076312624	-7.147000E+00	  0.076312624	8.595900E+01	  0.076312624	3.568200E+01	  0.076312624	3.873500E+01
283	  0.076513030	-7.149000E+00	  0.076513030	8.570400E+01	  0.076513030	3.581200E+01	  0.076513030	3.884900E+01
284	  0.076713428	-7.149000E+00	  0.076713428	8.551100E+01	  0.076713428	3.590700E+01	  0.076713428	3.893900E+01
285	  0.076913826	-7.149000E+00	  0.076913826	8.522800E+01	  0.076913826	3.604400E+01	  0.076913826	3.907600E+01
286	  0.077114232	-7.151000E+00	  0.077114232	8.501600E+01	  0.077114232	3.615600E+01	  0.077114232	3.916900E+01
287	  0.077314630	-7.147000E+00	  0.077314630	8.467200E+01	  0.077314630	3.631400E+01	  0.077314630	3.934700E+01
288	  0.077515028	-7.150000E+00	  0.077515028	8.445100E+01	  0.077515028	3.643600E+01	  0.077515028	3.944000E+01
289	  0.077715434	-7.150000E+00	  0.077715434	8.421100E+01	  0.077715434	3.655600E+01	  0.077715434	3.955500E+01
290	  0.077915832	-7.146000E+00	  0.077915832	8.395700E+01	  0.077915832	3.667200E+01	  0.077915832	3.968900E+01
291	  0.078116231	-7.136000E+00	  0.078116231	8.368000E+01	  0.078116231	3.678100E+01	  0.078116231	3.985600E+01
292	  0.078316636	-7.135000E+00	  0.078316636	8.341300E+01	  0.078316636	3.691400E+01	  0.078316636	3.998700E+01
293	  0.078517035	-7.131000E+00	  0.078517035	8.315800E+01	  0.078517035	3.703300E+01	  0.078517035	4.012300E+01
294	  0.078717433	-7.127000E+00	  0.078717433	8.294900E+01	  0.078717433	3.712900E+01	  0.078717433	4.023700E+01
295	  0.078917839	-7.120000E+00	  0.078917839	8.274000E+01	  0.078917839	3.721900E+01	  0.078917839	4.035900E+01
296	  0.079118237	-7.115000E+00	  0.079118237	8.251700E+01	  0.079118237	3.731900E+01	  0.079118237	4.048400E+01
297	  0.079318643	-7.109000E+00	  0.079318643	8.231700E+01	  0.079318643	3.740600E+01	  0.079318643	4.060100E+01
298	  0.079519041	-7.103000E+00	  0.079519041	8.213700E+01	  0.079519041	3.748200E+01	  0.079519041	4.070800E+01
299	  0.079719439	-7.105000E+00	  0.079719439	8.191700E+01	  0.079719439	3.760700E+01	  0.079719439	4.080500E+01
300	  0.079919845	-7.098000E+00	  0.079919845	8.167600E+01	  0.079919845	3.771300E+01	  0.079919845	4.094800E+01
301	  0.080120243	-7.105000E+00	  0.080120243	8.147200E+01	  0.080120243	3.784600E+01	  0.080120243	4.102100E+01
302	  0.080320641	-7.111000E+00	  0.080320641	8.122300E+01	  0.080320641	3.800000E+01	  0.080320641	4.111900E+01
303	  0.080521047	-7.109000E+00	  0.080521047	8.102500E+01	  0.080521047	3.810100E+01	  0.080521047	4.122300E+01
304	  0.080721445	-7.112000E+00	  0.080721445	8.079000E+01	  0.080721445	3.824200E+01	  0.080721445	4.132100E+01
305	  0.080921844	-7.115000E+00	  0.080921844	8.053700E+01	  0.080921844	3.839000E+01	  0.080921844	4.143300E+01
306	  0.081122249	-7.115000E+00	  0.081122249	8.027000E+01	  0.081122249	3.853800E+01	  0.081122249	4.156200E+01
307	  0.081322648	-7.107000E+00	  0.081322648	8.006600E+01	  0.081322648	3.862900E+01	  0.081322648	4.168600E+01
308	  0.081523046	-7.108000E+00	  0.081523046	7.986000E+01	  0.081523046	3.874700E+01	  0.081523046	4.178300E+01
309	  0.081723452	-7.109000E+00	  0.081723452	7.963700E+01	  0.081723452	3.887700E+01	  0.081723452	4.188600E+01
310	  0.081923850	-7.106000E+00	  0.081923850	7.942800E+01	  0.081923850	3.898600E+01	  0.081923850	4.199800E+01
311	  0.082124248	-7.108000E+00	  0.082124248	7.921200E+01	  0.082124248	3.911700E+01	  0.082124248	4.209300E+01
312	  0.082324654	-7.110000E+00	  0.082324654	7.895800E+01	  0.082324654	3.926800E+01	  0.082324654	4.220800E+01
313	  0.082525052	-7.109000E+00	  0.082525052	7.874800E+01	  0.082525052	3.938800E+01	  0.082525052	4.231100E+01
314	  0.082725458	-7.115000E+00	  0.082725458	7.847300E+01	  0.082725458	3.956600E+01	  0.082725458	4.242100E+01
315	  0.082925856	-7.119000E+00	  0.082925856	7.825600E+01	  0.082925856	3.970700E+01	  0.082925856	4.250900E+01
316	  0.083126254	-7.119000E+00	  0.083126254	7.800000E+01	  0.083126254	3.985800E+01	  0.083126254	4.263000E+01
317	  0.083326660	-7.119000E+00	  0.083326660	7.777300E+01	  0.083326660	3.999300E+01	  0.083326660	4.273800E+01
318	  0.083527058	-7.116000E+00	  0.083527058	7.753100E+01	  0.083527058	4.012900E+01	  0.083527058	4.286400E+01
319	  0.083727457	-7.123000E+00	  0.083727457	7.723300E+01	  0.083727457	4.033200E+01	  0.083727457	4.297700E+01
320	  0.083927862	-7.119000E+00	  0.083927862	7.695000E+01	  0.083927862	4.049100E+01	  0.083927862	4.312800E+01
321	  0.084128261	-7.118000E+00	  0.084128261	7.673000E+01	  0.084128261	4.062200E+01	  0.084128261	4.323800E+01
322	  0.084328659	-7.114000E+00	  0.084328659	7.646800E+01	  0.084328659	4.076900E+01	  0.084328659	4.337900E+01
323	  0.084529065	-7.113000E+00	  0.084529065	7.622800E+01	  0.084529065	4.091500E+01	  0.084529065	4.349700E+01
324	  0.084729463	-7.107000E+00	  0.084729463	7.600200E+01	  0.084729463	4.103800E+01	  0.084729463	4.362800E+01
325	  0.084929861	-7.109000E+00	  0.084929861	7.575300E+01	  0.084929861	4.120000E+01	  0.084929861	4.373800E+01
326	  0.085130267	-7.109000E+00	  0.085130267	7.551600E+01	  0.085130267	4.134900E+01	  0.085130267	4.385000E+01
327	  0.085330658	-7.110000E+00	  0.085330658	7.524600E+01	  0.085330658	4.152500E+01	  0.085330658	4.397300E+01
328	  0.085531056	-7.114000E+00	  0.085531056	7.502400E+01	  0.085531056	4.167800E+01	  0.085531056	4.406300E+01
329	  0.085731462	-7.112000E+00	  0.085731462	7.476500E+01	  0.085731462	4.183800E+01	  0.085731462	4.419400E+01
330	  0.085931860	-7.116000E+00	  0.085931860	7.453600E+01	  0.085931860	4.200000E+01	  0.085931860	4.428200E+01
331	  0.086132258	-7.113000E+00	  0.086132258	7.426300E+01	  0.086132258	4.216700E+01	  0.086132258	4.442600E+01
332	  0.086332664	-7.110000E+00	  0.086332664	7.401300E+01	  0.086332664	4.232400E+01	  0.086332664	4.455400E+01
333	  0.086533062	-7.104000E+00	  0.086533062	7.377400E+01	  0.086533062	4.246400E+01	  0.086533062	4.469200E+01
334	  0.086733460	-7.098000E+00	  0.086733460	7.352700E+01	  0.086733460	4.260800E+01	  0.086733460	4.483500E+01
335	  0.086933866	-7.092000E+00	  0.086933866	7.329400E+01	  0.086933866	4.274400E+01	  0.086933866	4.497400E+01
336	  0.087134264	-7.088000E+00	  0.087134264	7.308400E+01	  0.087134264	4.287300E+01	  0.087134264	4.509000E+01
337	  0.087334670	-7.083000E+00	  0.087334670	7.283300E+01	  0.087334670	4.302900E+01	  0.087334670	4.522800E+01
338	  0.087535068	-7.079000E+00	  0.087535068	7.264600E+01	  0.087535068	4.314200E+01	  0.087535068	4.533600E+01
339	  0.087735467	-7.074000E+00	  0.087735467	7.244300E+01	  0.087735467	4.326700E+01	  0.087735467	4.545400E+01
340	  0.087935872	-7.076000E+00	  0.087935872	7.224900E+01	  0.087935872	4.340800E+01	  0.087935872	4.553300E+01
341	  0.088136271	-7.074000E+00	  0.088136271	7.206600E+01	  0.088136271	4.352600E+01	  0.088136271	4.563100E+01
342	  0.088336669	-7.076000E+00	  0.088336669	7.182800E+01	  0.088336669	4.370000E+01	  0.088336669	4.573100E+01
343	  0.088537075	-7.081000E+00	  0.088537075	7.156500E+01	  0.088537075	4.390000E+01	  0.088537075	4.583000E+01
344	  0.088737473	-7.078000E+00	  0.088737473	7.135100E+01	  0.088737473	4.403900E+01	  0.088737473	4.594600E+01
345	  0.088937871	-7.084000E+00	  0.088937871	7.115200E+01	  0.088937871	4.420000E+01	  0.088937871	4.600900E+01
346	  0.089138277	-7.084000E+00	  0.089138277	7.089700E+01	  0.089138277	4.438100E+01	  0.089138277	4.612800E+01
347	  0.089338675	-7.085000E+00	  0.089338675	7.065000E+01	  0.089338675	4.456000E+01	  0.089338675	4.624000E+01
348	  0.089539073	-7.080000E+00	  0.089539073	7.036600E+01	  0.089539073	4.475200E+01	  0.089539073	4.639200E+01
349	  0.089739479	-7.073000E+00	  0.089739479	7.015300E+01	  0.089739479	4.488500E+01	  0.089739479	4.652400E+01
350	  0.089939877	-7.087000E+00	  0.089939877	6.990900E+01	  0.089939877	4.510300E+01	  0.089939877	4.657300E+01
351	  0.090140276	-7.080000E+00	  0.090140276	6.965300E+01	  0.090140276	4.527300E+01	  0.090140276	4.672100E+01
352	  0.090340681	-7.090000E+00	  0.090340681	6.943900E+01	  0.090340681	4.546000E+01	  0.090340681	4.677300E+01
353	  0.090541080	-7.086000E+00	  0.090541080	6.916800E+01	  0.090541080	4.564900E+01	  0.090541080	4.691700E+01
354	  0.090741485	-7.084000E+00	  0.090741485	6.890900E+01	  0.090741485	4.584000E+01	  0.090741485	4.704200E+01
355	  0.090941884	-7.091000E+00	  0.090941884	6.865600E+01	  0.090941884	4.605200E+01	  0.090941884	4.712200E+01
356	  0.091142282	-7.097000E+00	  0.091142282	6.841800E+01	  0.091142282	4.625100E+01	  0.091142282	4.720000E+01
357	  0.091342688	-7.094000E+00	  0.091342688	6.812800E+01	  0.091342688	4.646200E+01	  0.091342688	4.734800E+01
358	  0.091543086	-7.093000E+00	  0.091543086	6.787200E+01	  0.091543086	4.665600E+01	  0.091543086	4.746900E+01
359	  0.091743484	-7.089000E+00	  0.091743484	6.759300E+01	  0.091743484	4.686200E+01	  0.091743484	4.761200E+01
360	  0.091943890	-7.082000E+00	  0.091943890	6.733800E+01	  0.091943890	4.703900E+01	  0.091943890	4.776700E+01
361	  0.092144288	-7.077000E+00	  0.092144288	6.708300E+01	  0.092144288	4.722700E+01	  0.092144288	4.790300E+01
362	  0.092344686	-7.066000E+00	  0.092344686	6.683000E+01	  0.092344686	4.739500E+01	  0.092344686	4.807400E+01
363	  0.092545092	-7.067000E+00	  0.092545092	6.661600E+01	  0.092545092	4.756900E+01	  0.092545092	4.816300E+01
364	  0.092745490	-7.050000E+00	  0.092745490	6.640400E+01	  0.092745490	4.768800E+01	  0.092745490	4.834900E+01
365	  0.092945889	-7.056000E+00	  0.092945889	6.618400E+01	  0.092945889	4.788100E+01	  0.092945889	4.841800E+01
366	  0.093146294	-7.047000E+00	  0.093146294	6.594700E+01	  0.093146294	4.804800E+01	  0.093146294	4.857100E+01
367	  0.093346693	-7.045000E+00	  0.093346693	6.576900E+01	  0.093346693	4.818700E+01	  0.093346693	4.866200E+01
368	  0.093547091	-7.040000E+00	  0.093547091	6.559700E+01	  0.093547091	4.831700E+01	  0.093547091	4.876100E+01
369	  0.093747497	-7.042000E+00	  0.093747497	6.534900E+01	  0.093747497	4.852400E+01	  0.093747497	4.886400E+01
370	  0.093947895	-7.039000E+00	  0.093947895	6.517700E+01	  0.093947895	4.865900E+01	  0.093947895	4.895500E+01
371	  0.094148301	-7.041000E+00	  0.094148301	6.493600E+01	  0.094148301	4.886500E+01	  0.094148301	4.905100E+01
372	  0.094348699	-7.044000E+00	  0.094348699	6.473800E+01	  0.094348699	4.904200E+01	  0.094348699	4.911700E+01
373	  0.094549097	-7.043000E+00	  0.094549097	6.452300E+01	  0.094549097	4.921900E+01	  0.094549097	4.922000E+01
374	  0.094749503	-7.044000E+00	  0.094749503	6.429900E+01	  0.094749503	4.941300E+01	  0.094749503	4.931000E+01
375	  0.094949901	-7.036000E+00	  0.094949901	6.409200E+01	  0.094949901	4.956700E+01	  0.094949901	4.944500E+01
376	  0.095150299	-7.041000E+00	  0.095150299	6.385600E+01	  0.095150299	4.978100E+01	  0.095150299	4.952300E+01
377	  0.095350705	-7.041000E+00	  0.095350705	6.361800E+01	  0.095350705	4.998900E+01	  0.095350705	4.962100E+01
378	  0.095551103	-7.044000E+00	  0.095551103	6.340900E+01	  0.095551103	5.017700E+01	  0.095551103	4.969700E+01
379	  0.095751502	-7.049000E+00	  0.095751502	6.319100E+01	  0.095751502	5.038300E+01	  0.095751502	4.975700E+01
380	  0.095951907	-7.052000E+00	  0.095951907	6.297500E+01	  0.095951907	5.058000E+01	  0.095951907	4.983400E+01
381	  0.096152306	-7.056000E+00	  0.096152306	6.271600E+01	  0.096152306	5.082100E+01	  0.096152306	4.991800E+01
382	  0.096352704	-7.058000E+00	  0.096352704	6.245600E+01	  0.096352704	5.105800E+01	  0.096352704	5.001500E+01
383	  0.096553110	-7.061000E+00	  0.096553110	6.221800E+01	  0.096553110	5.127900E+01	  0.096553110	5.009600E+01
384	  0.096753508	-7.064000E+00	  0.096753508	6.194800E+01	  0.096753508	5.153000E+01	  0.096753508	5.019000E+01
385	  0.096953906	-7.064000E+00	  0.096953906	6.167900E+01	  0.096953906	5.177200E+01	  0.096953906	5.030600E+01
386	  0.097154312	-7.061000E+00	  0.097154312	6.139800E+01	  0.097154312	5.201900E+01	  0.097154312	5.043900E+01
387	  0.097354710	-7.058000E+00	  0.097354710	6.114600E+01	  0.097354710	5.224500E+01	  0.097354710	5.055400E+01
388	  0.097555116	-7.057000E+00	  0.097555116	6.086300E+01	  0.097555116	5.250300E+01	  0.097555116	5.067800E+01
389	  0.097755514	-7.049000E+00	  0.097755514	6.061000E+01	  0.097755514	5.271700E+01	  0.097755514	5.083200E+01
390	  0.097955912	-7.047000E+00	  0.097955912	6.037400E+01	  0.097955912	5.293500E+01	  0.097955912	5.093400E+01
391	  0.098156318	-7.043000E+00	  0.098156318	6.016000E+01	  0.098156318	5.312600E+01	  0.098156318	5.104600E+01
392	  0.098356716	-7.034000E+00	  0.098356716	5.995000E+01	  0.098356716	5.330100E+01	  0.098356716	5.118800E+01
393	  0.098557115	-7.031000E+00	  0.098557115	5.970300E+01	  0.098557115	5.352800E+01	  0.098557115	5.130600E+01
394	  0.098757520	-7.031000E+00	  0.098757520	5.951500E+01	  0.098757520	5.371000E+01	  0.098757520	5.138000E+01
395	  0.098957919	-7.031000E+00	  0.098957919	5.927400E+01	  0.098957919	5.394400E+01	  0.098957919	5.147000E+01
396	  0.099158317	-7.032000E+00	  0.099158317	5.908100E+01	  0.099158317	5.413300E+01	  0.099158317	5.154000E+01
397	  0.099358723	-7.029000E+00	  0.099358723	5.884500E+01	  0.099358723	5.435600E+01	  0.099358723	5.165300E+01
398	  0.099559121	-7.029000E+00	  0.099559121	5.862000E+01	  0.099559121	5.457600E+01	  0.099559121	5.173900E+01
399	  0.099759519	-7.023000E+00	  0.099759519	5.839800E+01	  0.099759519	5.478200E+01	  0.099759519	5.186000E+01
400	  0.099959925	-7.020000E+00	  0.099959925	5.821100E+01	  0.099959925	5.496100E+01	  0.099959925	5.195200E+01
401	  0.100160323	-7.018000E+00	  0.100160323	5.800800E+01	  0.100160323	5.515800E+01	  0.100160323	5.204300E+01
402	  0.100360721	-7.017000E+00	  0.100360721	5.775400E+01	  0.100360721	5.541000E+01	  0.100360721	5.214500E+01
403	  0.100561127	-7.016000E+00	  0.100561127	5.752900E+01	  0.100561127	5.563500E+01	  0.100561127	5.223700E+01
404	  0.100761525	-7.018000E+00	  0.100761525	5.732700E+01	  0.100761525	5.584700E+01	  0.100761525	5.229500E+01
405	  0.100961931	-7.019000E+00	  0.100961931	5.702400E+01	  0.100961931	5.615800E+01	  0.100961931	5.240300E+01
406	  0.101162329	-7.027000E+00	  0.101162329	5.684600E+01	  0.101162329	5.636000E+01	  0.101162329	5.241600E+01
407	  0.101362728	-7.022000E+00	  0.101362728	5.663500E+01	  0.101362728	5.656600E+01	  0.101362728	5.252600E+01
408	  0.101563133	-7.027000E+00	  0.101563133	5.630800E+01	  0.101563133	5.691900E+01	  0.101563133	5.260600E+01
409	  0.101763532	-7.028000E+00	  0.101763532	5.612800E+01	  0.101763532	5.710900E+01	  0.101763532	5.266500E+01
410	  0.101963930	-7.020000E+00	  0.101963930	5.588900E+01	  0.101963930	5.734300E+01	  0.101963930	5.280300E+01
411	  0.102164336	-7.021000E+00	  0.102164336	5.561700E+01	  0.102164336	5.763500E+01	  0.102164336	5.288700E+01
412	  0.102364734	-7.035000E+00	  0.102364734	5.536700E+01	  0.102364734	5.793100E+01	  0.102364734	5.287700E+01
413	  0.102565132	-7.027000E+00	  0.102565132	5.515600E+01	  0.102565132	5.814000E+01	  0.102565132	5.300500E+01
414	  0.102765530	-7.035000E+00	  0.102765530	5.485300E+01	  0.102765530	5.848700E+01	  0.102765530	5.304500E+01
415	  0.102965929	-7.029000E+00	  0.102965929	5.467300E+01	  0.102965929	5.866800E+01	  0.102965929	5.314900E+01
416	  0.103166327	-7.028000E+00	  0.103166327	5.437400E+01	  0.103166327	5.899300E+01	  0.103166327	5.325200E+01
417	  0.103366733	-7.025000E+00	  0.103366733	5.418400E+01	  0.103366733	5.919500E+01	  0.103366733	5.333700E+01
418	  0.103567131	-7.010000E+00	  0.103567131	5.395400E+01	  0.103567131	5.941800E+01	  0.103567131	5.352000E+01
419	  0.103767529	-7.006000E+00	  0.103767529	5.376800E+01	  0.103767529	5.961700E+01	  0.103767529	5.360900E+01
420	  0.103967935	-7.015000E+00	  0.103967935	5.353800E+01	  0.103967935	5.989300E+01	  0.103967935	5.361200E+01
421	  0.104168333	-7.008000E+00	  0.104168333	5.337000E+01	  0.104168333	6.006700E+01	  0.104168333	5.371600E+01
422	  0.104368731	-7.016000E+00	  0.104368731	5.306600E+01	  0.104368731	6.042600E+01	  0.104368731	5.375500E+01
423	  0.104569137	-7.008000E+00	  0.104569137	5.289400E+01	  0.104569137	6.060500E+01	  0.104569137	5.386700E+01
424	  0.104769535	-7.024000E+00	  0.104769535	5.274000E+01	  0.104769535	6.081400E+01	  0.104769535	5.378700E+01
425	  0.104969934	-7.008000E+00	  0.104969934	5.245300E+01	  0.104969934	6.111000E+01	  0.104969934	5.399900E+01
426	  0.105170339	-7.022000E+00	  0.105170339	5.226400E+01	  0.105170339	6.135600E+01	  0.105170339	5.394600E+01
427	  0.105370738	-7.010000E+00	  0.105370738	5.203600E+01	  0.105370738	6.159800E+01	  0.105370738	5.409900E+01
428	  0.105571143	-7.022000E+00	  0.105571143	5.180000E+01	  0.105571143	6.189500E+01	  0.105571143	5.407600E+01
429	  0.105771542	-7.017000E+00	  0.105771542	5.156900E+01	  0.105771542	6.215600E+01	  0.105771542	5.417800E+01
430	  0.105971940	-7.018000E+00	  0.105971940	5.131100E+01	  0.105971940	6.246300E+01	  0.105971940	5.424000E+01
431	  0.106172346	-7.021000E+00	  0.106172346	5.108000E+01	  0.106172346	6.274200E+01	  0.106172346	5.427900E+01
432	  0.106372744	-7.029000E+00	  0.106372744	5.079300E+01	  0.106372744	6.309800E+01	  0.106372744	5.428800E+01
433	  0.106573142	-7.030000E+00	  0.106573142	5.058600E+01	  0.106573142	6.334700E+01	  0.106573142	5.433500E+01
434	  0.106773548	-7.029000E+00	  0.106773548	5.028500E+01	  0.106773548	6.370900E+01	  0.106773548	5.441900E+01
435	  0.106973946	-7.031000E+00	  0.106973946	5.001900E+01	  0.106973946	6.403600E+01	  0.106973946	5.446200E+01
436	  0.107174344	-7.025000E+00	  0.107174344	4.977100E+01	  0.107174344	6.432800E+01	  0.107174344	5.457000E+01
437	  0.107374750	-7.026000E+00	  0.107374750	4.959200E+01	  0.107374750	6.454900E+01	  0.107374750	5.461000E+01
438	  0.107575148	-7.022000E+00	  0.107575148	4.931200E+01	  0.107575148	6.489000E+01	  0.107575148	5.470300E+01
439	  0.107775547	-7.017000E+00	  0.107775547	4.904200E+01	  0.107775547	6.521800E+01	  0.107775547	5.480400E+01
440	  0.107975952	-7.010000E+00	  0.107975952	4.880000E+01	  0.107975952	6.551100E+01	  0.107975952	5.491000E+01
441	  0.108176351	-7.008000E+00	  0.108176351	4.850500E+01	  0.108176351	6.587900E+01	  0.108176351	5.499500E+01
442	  0.108376749	-7.010000E+00	  0.108376749	4.828600E+01	  0.108376749	6.615900E+01	  0.108376749	5.502300E+01
443	  0.108577155	-6.996000E+00	  0.108577155	4.804800E+01	  0.108577155	6.644500E+01	  0.108577155	5.518600E+01
444	  0.108777553	-6.991000E+00	  0.108777553	4.787100E+01	  0.108777553	6.666600E+01	  0.108777553	5.526300E+01
445	  0.108977959	-6.978000E+00	  0.108977959	4.763100E+01	  0.108977959	6.695900E+01	  0.108977959	5.542200E+01
446	  0.109178357	-6.977000E+00	  0.109178357	4.739100E+01	  0.109178357	6.726900E+01	  0.109178357	5.547300E+01
447	  0.109378755	-6.977000E+00	  0.109378755	4.724600E+01	  0.109378755	6.745900E+01	  0.109378755	5.549900E+01
448	  0.109579161	-6.975000E+00	  0.109579161	4.703100E+01	  0.109579161	6.773800E+01	  0.109579161	5.555600E+01
449	  0.109779559	-6.976000E+00	  0.109779559	4.679700E+01	  0.109779559	6.804800E+01	  0.109779559	5.558200E+01
450	  0.109979957	-6.970000E+00	  0.109979957	4.665400E+01	  0.109979957	6.823000E+01	  0.109979957	5.566300E+01
451	  0.110180363	-6.968000E+00	  0.110180363	4.646400E+01	  0.110180363	6.848100E+01	  0.110180363	5.570800E+01
452	  0.110380761	-6.968000E+00	  0.110380761	4.625100E+01	  0.110380761	6.876400E+01	  0.110380761	5.574400E+01
453	  0.110581160	-6.971000E+00	  0.110581160	4.603600E+01	  0.110581160	6.905500E+01	  0.110581160	5.574900E+01
454	  0.110781565	-6.981000E+00	  0.110781565	4.579000E+01	  0.110781565	6.939700E+01	  0.110781565	5.569300E+01
455	  0.110981964	-6.984000E+00	  0.110981964	4.563300E+01	  0.110981964	6.961100E+01	  0.110981964	5.568800E+01
456	  0.111182362	-6.982000E+00	  0.111182362	4.541800E+01	  0.111182362	6.990200E+01	  0.111182362	5.573600E+01
457	  0.111382768	-6.988000E+00	  0.111382768	4.519600E+01	  0.111382768	7.020900E+01	  0.111382768	5.570300E+01
458	  0.111583166	-6.988000E+00	  0.111583166	4.493700E+01	  0.111583166	7.056400E+01	  0.111583166	5.573100E+01
459	  0.111783572	-6.995000E+00	  0.111783572	4.467500E+01	  0.111783572	7.093000E+01	  0.111783572	5.569600E+01
460	  0.111983970	-6.997000E+00	  0.111983970	4.440800E+01	  0.111983970	7.129900E+01	  0.111983970	5.570800E+01
461	  0.112184368	-6.998000E+00	  0.112184368	4.416700E+01	  0.112184368	7.163400E+01	  0.112184368	5.571500E+01
462	  0.112384774	-7.000000E+00	  0.112384774	4.393000E+01	  0.112384774	7.196700E+01	  0.112384774	5.572300E+01
463	  0.112585172	-6.998000E+00	  0.112585172	4.368800E+01	  0.112585172	7.230500E+01	  0.112585172	5.575700E+01
464	  0.112785570	-7.004000E+00	  0.112785570	4.344500E+01	  0.112785570	7.265100E+01	  0.112785570	5.571000E+01
465	  0.112985976	-7.000000E+00	  0.112985976	4.313600E+01	  0.112985976	7.308800E+01	  0.112985976	5.576900E+01
466	  0.113186374	-7.001000E+00	  0.113186374	4.284200E+01	  0.113186374	7.350700E+01	  0.113186374	5.577000E+01
467	  0.113386773	-6.995000E+00	  0.113386773	4.261500E+01	  0.113386773	7.383100E+01	  0.113386773	5.583200E+01
468	  0.113587178	-6.989000E+00	  0.113587178	4.234300E+01	  0.113587178	7.422400E+01	  0.113587178	5.590100E+01
469	  0.113787577	-6.982000E+00	  0.113787577	4.209300E+01	  0.113787577	7.458600E+01	  0.113787577	5.597000E+01
470	  0.113987975	-6.978000E+00	  0.113987975	4.187000E+01	  0.113987975	7.491200E+01	  0.113987975	5.601200E+01
471	  0.114188381	-6.979000E+00	  0.114188381	4.163800E+01	  0.114188381	7.525200E+01	  0.114188381	5.600000E+01
472	  0.114388779	-6.970000E+00	  0.114388779	4.134600E+01	  0.114388779	7.568300E+01	  0.114388779	5.608700E+01
473	  0.114589177	-6.964000E+00	  0.114589177	4.112100E+01	  0.114589177	7.601900E+01	  0.114589177	5.613900E+01
474	  0.114789583	-6.965000E+00	  0.114789583	4.090300E+01	  0.114789583	7.634400E+01	  0.114789583	5.612200E+01
475	  0.114989981	-6.956000E+00	  0.114989981	4.072700E+01	  0.114989981	7.661000E+01	  0.114989981	5.620200E+01
476	  0.115190387	-6.955000E+00	  0.115190387	4.049200E+01	  0.115190387	7.696400E+01	  0.115190387	5.620500E+01
477	  0.115390785	-6.949000E+00	  0.115390785	4.032000E+01	  0.115390785	7.722600E+01	  0.115390785	5.626200E+01
478	  0.115591183	-6.953000E+00	  0.115591183	4.014800E+01	  0.115591183	7.748500E+01	  0.115591183	5.620400E+01
479	  0.115791589	-6.946000E+00	  0.115791589	3.991100E+01	  0.115791589	7.785100E+01	  0.115791589	5.626700E+01
480	  0.115991987	-6.954000E+00	  0.115991987	3.970000E+01	  0.115991987	7.817000E+01	  0.115991987	5.617000E+01
481	  0.116192386	-6.955000E+00	  0.116192386	3.949700E+01	  0.116192386	7.848100E+01	  0.116192386	5.614400E+01
482	  0.116392791	-6.955000E+00	  0.116392791	3.931300E+01	  0.116392791	7.876300E+01	  0.116392791	5.611800E+01
483	  0.116593190	-6.954000E+00	  0.116593190	3.908900E+01	  0.116593190	7.911100E+01	  0.116593190	5.610600E+01
484	  0.116793588	-6.961000E+00	  0.116793588	3.892700E+01	  0.116793588	7.935600E+01	  0.116793588	5.601700E+01
485	  0.116993994	-6.964000E+00	  0.116993994	3.863700E+01	  0.116993994	7.980600E+01	  0.116993994	5.595300E+01
486	  0.117194392	-6.973000E+00	  0.117194392	3.841200E+01	  0.117194392	8.014800E+01	  0.117194392	5.582800E+01
487	  0.117394790	-6.976000E+00	  0.117394790	3.819400E+01	  0.117394790	8.048700E+01	  0.117394790	5.576800E+01
488	  0.117595196	-6.975000E+00	  0.117595196	3.798800E+01	  0.117595196	8.081200E+01	  0.117595196	5.575000E+01
489	  0.117795594	-6.975000E+00	  0.117795594	3.770300E+01	  0.117795594	8.126000E+01	  0.117795594	5.570300E+01
490	  0.117995992	-6.974000E+00	  0.117995992	3.747900E+01	  0.117995992	8.161600E+01	  0.117995992	5.567100E+01
491	  0.118196398	-6.980000E+00	  0.118196398	3.725300E+01	  0.118196398	8.196700E+01	  0.118196398	5.555800E+01
492	  0.118396796	-6.977000E+00	  0.118396796	3.698800E+01	  0.118396796	8.239300E+01	  0.118396796	5.554200E+01
493	  0.118597202	-6.978000E+00	  0.118597202	3.670700E+01	  0.118597202	8.284200E+01	  0.118597202	5.546700E+01
494	  0.118797600	-6.980000E+00	  0.118797600	3.648300E+01	  0.118797600	8.319800E+01	  0.118797600	5.539500E+01
495	  0.118997999	-6.971000E+00	  0.118997999	3.625600E+01	  0.118997999	8.358000E+01	  0.118997999	5.543600E+01
496	  0.119198404	-6.974000E+00	  0.119198404	3.599900E+01	  0.119198404	8.399000E+01	  0.119198404	5.533600E+01
497	  0.119398803	-6.969000E+00	  0.119398803	3.572700E+01	  0.119398803	8.444300E+01	  0.119398803	5.532500E+01
498	  0.119599201	-6.968000E+00	  0.119599201	3.550100E+01	  0.119599201	8.481300E+01	  0.119599201	5.526600E+01
499	  0.119799607	-6.968000E+00	  0.119799607	3.529500E+01	  0.119799607	8.515100E+01	  0.119799607	5.520500E+01
500	  0.120000005	-6.960000E+00	  0.120000005	3.504200E+01	  0.120000005	8.558400E+01	  0.120000005	5.522300E+01
