! Anritsu VNA Master:             	Model: MS2036C/10/77
! SN:             	1601066
! /bd0/18may26.balun/4b.66.3.txt
! Existing Calibration Information:
! TYPE:             	Current Settings	Active Cal Settings
! TIME:             	05/26/2018 05:16:41 PM	05/26/2018 05:08:07 PM
! INTERNAL TEMP:    	52.8 C	52.5 C
! # POINTS:         	500	500
! START FREQ:       	20.000 MHz	20.000 MHz
! STOP FREQ:        	120.000 MHz	120.000 MHz
! SOURCE POWER:     	High	High
! IFBW:             	50 Hz	50 Hz
! AVG FACTOR:       	  1 	  1 
! REF PLANE 1:      	0 mm	0 mm
! REF PLANE 2:      	0 mm	0 mm
! CAL TYPE:         	Full S11	Full S11
! CAL METHOD:       	SOLT	SOLT
! CAL LINE TYPE:    	Coax	Coax
! DUT PORT 1:       	K-Conn(M)	K-Conn(M)
! DUT PORT 2:       	K-Conn(M)	K-Conn(M)
! CAL STATUS:       	OK: Accuracy High	--
! PROP-V:       	0.700
! CABLE LOSS:       	0.000 dB/m
! REF IMPEDANCE:       	50.0
! Trace Specific Parameters:	TR1	TR2	TR3	TR4
! TRACE.#.Y (GRAPH TYPE)	LOG MAG	PHASE	REAL IMPEDANCE	IMAGINARY IMPEDANCE
! TRACE.#.X 	FREQ.GHZ	FREQ.GHZ	FREQ.GHZ	FREQ.GHZ
! S-PARAMETER	S11	S11	S11	S11
! SMOOTH/APERTURE %	0	0	0	0
! WINDOW	NSL	NSL	NSL	NSL
! GATING	OFF	OFF	OFF	OFF
! FGTD	OFF	OFF	OFF	OFF
Marker Information per Trace:	TR1	TR2	TR3	TR4
!MK1	--	--	--	--
!MK2	--	--	--	--
!MK3	--	--	--	--
!MK4	--	--	--	--
!MK5	--	--	--	--
!MK6	--	--	--	--
!MK7	--	--	--	--
!MK8	--	--	--	--
PNT	TR1.FREQ.GHZ	TR1.LOG MAG.dB	TR2.FREQ.GHZ	TR2.PHASE.deg	TR3.FREQ.GHZ	TR3.REAL IMPEDANCE.ohm	TR4.FREQ.GHZ	TR4.IMAGINARY IMPEDANCE.ohm
1	  0.020000000	-2.800000E-02	  0.020000000	-6.817300E+01	  0.020000000	2.640000E-01	  0.020000000	-7.388600E+01
2	  0.020200402	-2.500000E-02	  0.020200402	-6.883700E+01	  0.020200402	2.280000E-01	  0.020200402	-7.297100E+01
3	  0.020400802	-2.400000E-02	  0.020400802	-6.950900E+01	  0.020400802	2.150000E-01	  0.020400802	-7.206100E+01
4	  0.020601204	-2.200000E-02	  0.020601204	-7.014600E+01	  0.020601204	1.970000E-01	  0.020601204	-7.121300E+01
5	  0.020801604	-2.100000E-02	  0.020801604	-7.079900E+01	  0.020801604	1.830000E-01	  0.020801604	-7.035700E+01
6	  0.021002004	-2.000000E-02	  0.021002004	-7.144500E+01	  0.021002004	1.740000E-01	  0.021002004	-6.952400E+01
7	  0.021202406	-2.400000E-02	  0.021202406	-7.210500E+01	  0.021202406	2.010000E-01	  0.021202406	-6.868500E+01
8	  0.021402806	-2.700000E-02	  0.021402806	-7.273300E+01	  0.021402806	2.230000E-01	  0.021402806	-6.790000E+01
9	  0.021603208	-3.000000E-02	  0.021603208	-7.338200E+01	  0.021603208	2.460000E-01	  0.021603208	-6.710000E+01
10	  0.021803608	-3.400000E-02	  0.021803608	-7.400200E+01	  0.021803608	2.750000E-01	  0.021803608	-6.634800E+01
11	  0.022004008	-3.900000E-02	  0.022004008	-7.461600E+01	  0.022004008	3.070000E-01	  0.022004008	-6.561300E+01
12	  0.022204408	-4.100000E-02	  0.022204408	-7.525100E+01	  0.022204408	3.230000E-01	  0.022204408	-6.486500E+01
13	  0.022404809	-4.100000E-02	  0.022404809	-7.589100E+01	  0.022404809	3.150000E-01	  0.022404809	-6.412000E+01
14	  0.022605211	-4.200000E-02	  0.022605211	-7.653200E+01	  0.022605211	3.170000E-01	  0.022605211	-6.338600E+01
15	  0.022805611	-3.800000E-02	  0.022805611	-7.718100E+01	  0.022805611	2.880000E-01	  0.022805611	-6.265300E+01
16	  0.023006011	-3.100000E-02	  0.023006011	-7.782400E+01	  0.023006011	2.300000E-01	  0.023006011	-6.193800E+01
17	  0.023206413	-2.300000E-02	  0.023206413	-7.847100E+01	  0.023206413	1.710000E-01	  0.023206413	-6.122800E+01
18	  0.023406813	-2.100000E-02	  0.023406813	-7.909900E+01	  0.023406813	1.530000E-01	  0.023406813	-6.054700E+01
19	  0.023607215	-1.700000E-02	  0.023607215	-7.974000E+01	  0.023607215	1.200000E-01	  0.023607215	-5.986200E+01
20	  0.023807615	-1.900000E-02	  0.023807615	-8.033500E+01	  0.023807615	1.360000E-01	  0.023807615	-5.923400E+01
21	  0.024008015	-2.700000E-02	  0.024008015	-8.091000E+01	  0.024008015	1.880000E-01	  0.024008015	-5.863400E+01
22	  0.024208417	-3.300000E-02	  0.024208417	-8.147900E+01	  0.024208417	2.250000E-01	  0.024208417	-5.804800E+01
23	  0.024408817	-4.200000E-02	  0.024408817	-8.205500E+01	  0.024408817	2.800000E-01	  0.024408817	-5.746100E+01
24	  0.024609219	-4.600000E-02	  0.024609219	-8.266900E+01	  0.024609219	3.040000E-01	  0.024609219	-5.684300E+01
25	  0.024809619	-4.900000E-02	  0.024809619	-8.327000E+01	  0.024809619	3.240000E-01	  0.024809619	-5.624500E+01
26	  0.025010020	-5.300000E-02	  0.025010020	-8.393200E+01	  0.025010020	3.420000E-01	  0.025010020	-5.559400E+01
27	  0.025210422	-5.800000E-02	  0.025210422	-8.459400E+01	  0.025210422	3.720000E-01	  0.025210422	-5.495300E+01
28	  0.025410822	-5.900000E-02	  0.025410822	-8.526700E+01	  0.025410822	3.740000E-01	  0.025410822	-5.430800E+01
29	  0.025611224	-5.700000E-02	  0.025611224	-8.591600E+01	  0.025611224	3.540000E-01	  0.025611224	-5.369500E+01
30	  0.025811624	-5.400000E-02	  0.025811624	-8.657000E+01	  0.025811624	3.310000E-01	  0.025811624	-5.308400E+01
31	  0.026012026	-4.700000E-02	  0.026012026	-8.718000E+01	  0.026012026	2.850000E-01	  0.026012026	-5.252200E+01
32	  0.026212426	-4.600000E-02	  0.026212426	-8.778500E+01	  0.026212426	2.790000E-01	  0.026212426	-5.196900E+01
33	  0.026412826	-4.500000E-02	  0.026412826	-8.835600E+01	  0.026412826	2.710000E-01	  0.026412826	-5.145400E+01
34	  0.026613226	-5.100000E-02	  0.026613226	-8.894000E+01	  0.026613226	3.000000E-01	  0.026613226	-5.093100E+01
35	  0.026813626	-5.600000E-02	  0.026813626	-8.952300E+01	  0.026813626	3.270000E-01	  0.026813626	-5.041600E+01
36	  0.027014028	-6.200000E-02	  0.027014028	-9.007400E+01	  0.027014028	3.610000E-01	  0.027014028	-4.993300E+01
37	  0.027214428	-7.200000E-02	  0.027214428	-9.062900E+01	  0.027214428	4.140000E-01	  0.027214428	-4.945100E+01
38	  0.027414829	-8.300000E-02	  0.027414829	-9.124100E+01	  0.027414829	4.710000E-01	  0.027414829	-4.892600E+01
39	  0.027615231	-9.000000E-02	  0.027615231	-9.190000E+01	  0.027615231	5.010000E-01	  0.027615231	-4.836500E+01
40	  0.027815631	-9.000000E-02	  0.027815631	-9.255200E+01	  0.027815631	5.010000E-01	  0.027815631	-4.781800E+01
41	  0.028016033	-8.600000E-02	  0.028016033	-9.323600E+01	  0.028016033	4.710000E-01	  0.028016033	-4.725000E+01
42	  0.028216433	-7.900000E-02	  0.028216433	-9.391000E+01	  0.028216433	4.260000E-01	  0.028216433	-4.669700E+01
43	  0.028416833	-6.900000E-02	  0.028416833	-9.456000E+01	  0.028416833	3.700000E-01	  0.028416833	-4.616900E+01
44	  0.028617235	-6.200000E-02	  0.028617235	-9.518600E+01	  0.028617235	3.290000E-01	  0.028617235	-4.566600E+01
45	  0.028817635	-5.400000E-02	  0.028817635	-9.578800E+01	  0.028817635	2.820000E-01	  0.028817635	-4.518700E+01
46	  0.029018037	-4.600000E-02	  0.029018037	-9.633600E+01	  0.029018037	2.420000E-01	  0.029018037	-4.475400E+01
47	  0.029218437	-4.100000E-02	  0.029218437	-9.685800E+01	  0.029218437	2.130000E-01	  0.029218437	-4.434600E+01
48	  0.029418837	-3.700000E-02	  0.029418837	-9.735700E+01	  0.029418837	1.920000E-01	  0.029418837	-4.395800E+01
49	  0.029619239	-3.600000E-02	  0.029619239	-9.786700E+01	  0.029619239	1.830000E-01	  0.029619239	-4.356500E+01
50	  0.029819639	-3.900000E-02	  0.029819639	-9.838300E+01	  0.029819639	2.000000E-01	  0.029819639	-4.317100E+01
51	  0.030020041	-4.400000E-02	  0.030020041	-9.893600E+01	  0.030020041	2.200000E-01	  0.030020041	-4.275100E+01
52	  0.030220442	-5.400000E-02	  0.030220442	-9.950900E+01	  0.030220442	2.670000E-01	  0.030220442	-4.232000E+01
53	  0.030420844	-6.600000E-02	  0.030420844	-1.001470E+02	  0.030420844	3.260000E-01	  0.030420844	-4.184400E+01
54	  0.030621244	-7.400000E-02	  0.030621244	-1.007850E+02	  0.030621244	3.610000E-01	  0.030621244	-4.137200E+01
55	  0.030821644	-7.200000E-02	  0.030821644	-1.014360E+02	  0.030821644	3.500000E-01	  0.030821644	-4.089600E+01
56	  0.031022044	-7.200000E-02	  0.031022044	-1.020560E+02	  0.031022044	3.470000E-01	  0.031022044	-4.044700E+01
57	  0.031222444	-6.400000E-02	  0.031222444	-1.026770E+02	  0.031222444	3.060000E-01	  0.031222444	-4.000100E+01
58	  0.031422846	-6.200000E-02	  0.031422846	-1.032560E+02	  0.031422846	2.940000E-01	  0.031422846	-3.958800E+01
59	  0.031623244	-6.200000E-02	  0.031623244	-1.038300E+02	  0.031623244	2.920000E-01	  0.031623244	-3.918200E+01
60	  0.031823646	-6.100000E-02	  0.031823646	-1.043640E+02	  0.031823646	2.840000E-01	  0.031823646	-3.880800E+01
61	  0.032024048	-6.400000E-02	  0.032024048	-1.048820E+02	  0.032024048	2.950000E-01	  0.032024048	-3.844700E+01
62	  0.032224450	-7.000000E-02	  0.032224450	-1.053750E+02	  0.032224450	3.200000E-01	  0.032224450	-3.810500E+01
63	  0.032424849	-8.300000E-02	  0.032424849	-1.058970E+02	  0.032424849	3.770000E-01	  0.032424849	-3.774600E+01
64	  0.032625251	-9.500000E-02	  0.032625251	-1.064600E+02	  0.032625251	4.280000E-01	  0.032625251	-3.736100E+01
65	  0.032825653	-1.030000E-01	  0.032825653	-1.070680E+02	  0.032825653	4.600000E-01	  0.032825653	-3.695000E+01
66	  0.033026051	-1.100000E-01	  0.033026051	-1.076660E+02	  0.033026051	4.890000E-01	  0.033026051	-3.654700E+01
67	  0.033226453	-1.120000E-01	  0.033226453	-1.082900E+02	  0.033226453	4.930000E-01	  0.033226453	-3.613100E+01
68	  0.033426855	-1.160000E-01	  0.033426855	-1.089220E+02	  0.033426855	5.050000E-01	  0.033426855	-3.571300E+01
69	  0.033627257	-1.170000E-01	  0.033627257	-1.095670E+02	  0.033627257	5.080000E-01	  0.033627257	-3.528900E+01
70	  0.033827655	-1.190000E-01	  0.033827655	-1.101930E+02	  0.033827655	5.090000E-01	  0.033827655	-3.488200E+01
71	  0.034028057	-1.160000E-01	  0.034028057	-1.108240E+02	  0.034028057	4.930000E-01	  0.034028057	-3.447400E+01
72	  0.034228459	-1.110000E-01	  0.034228459	-1.114420E+02	  0.034228459	4.690000E-01	  0.034228459	-3.407800E+01
73	  0.034428857	-1.020000E-01	  0.034428857	-1.120240E+02	  0.034428857	4.300000E-01	  0.034428857	-3.370800E+01
74	  0.034629259	-9.300000E-02	  0.034629259	-1.125650E+02	  0.034629259	3.870000E-01	  0.034629259	-3.336600E+01
75	  0.034829661	-8.500000E-02	  0.034829661	-1.131000E+02	  0.034829661	3.540000E-01	  0.034829661	-3.303000E+01
76	  0.035030060	-8.300000E-02	  0.035030060	-1.136210E+02	  0.035030060	3.440000E-01	  0.035030060	-3.270400E+01
77	  0.035230462	-8.000000E-02	  0.035230462	-1.141320E+02	  0.035230462	3.270000E-01	  0.035230462	-3.238700E+01
78	  0.035430863	-8.200000E-02	  0.035430863	-1.146480E+02	  0.035430863	3.330000E-01	  0.035430863	-3.206800E+01
79	  0.035631265	-8.600000E-02	  0.035631265	-1.151700E+02	  0.035631265	3.480000E-01	  0.035631265	-3.174700E+01
80	  0.035831664	-9.600000E-02	  0.035831664	-1.157160E+02	  0.035831664	3.850000E-01	  0.035831664	-3.141400E+01
81	  0.036032066	-1.030000E-01	  0.036032066	-1.163070E+02	  0.036032066	4.130000E-01	  0.036032066	-3.105500E+01
82	  0.036232468	-1.080000E-01	  0.036232468	-1.169220E+02	  0.036232468	4.280000E-01	  0.036232468	-3.068500E+01
83	  0.036432866	-1.110000E-01	  0.036432866	-1.175480E+02	  0.036432866	4.390000E-01	  0.036432866	-3.030900E+01
84	  0.036633268	-1.130000E-01	  0.036633268	-1.181610E+02	  0.036633268	4.430000E-01	  0.036633268	-2.994500E+01
85	  0.036833670	-1.060000E-01	  0.036833670	-1.187400E+02	  0.036833670	4.130000E-01	  0.036833670	-2.960300E+01
86	  0.037034072	-9.500000E-02	  0.037034072	-1.193020E+02	  0.037034072	3.690000E-01	  0.037034072	-2.927300E+01
87	  0.037234470	-8.500000E-02	  0.037234470	-1.197770E+02	  0.037234470	3.290000E-01	  0.037234470	-2.899600E+01
88	  0.037434869	-8.000000E-02	  0.037434869	-1.202290E+02	  0.037434869	3.060000E-01	  0.037434869	-2.873300E+01
89	  0.037635271	-8.400000E-02	  0.037635271	-1.206950E+02	  0.037635271	3.200000E-01	  0.037635271	-2.846300E+01
90	  0.037835669	-8.700000E-02	  0.037835669	-1.211760E+02	  0.037835669	3.320000E-01	  0.037835669	-2.818500E+01
91	  0.038036071	-9.700000E-02	  0.038036071	-1.216860E+02	  0.038036071	3.670000E-01	  0.038036071	-2.789300E+01
92	  0.038236473	-1.040000E-01	  0.038236473	-1.222360E+02	  0.038236473	3.920000E-01	  0.038236473	-2.757900E+01
93	  0.038436871	-1.100000E-01	  0.038436871	-1.227630E+02	  0.038436871	4.120000E-01	  0.038436871	-2.728000E+01
94	  0.038637273	-1.150000E-01	  0.038637273	-1.232920E+02	  0.038637273	4.300000E-01	  0.038637273	-2.698100E+01
95	  0.038837675	-1.240000E-01	  0.038837675	-1.238210E+02	  0.038837675	4.600000E-01	  0.038837675	-2.668300E+01
96	  0.039038073	-1.330000E-01	  0.039038073	-1.244020E+02	  0.039038073	4.920000E-01	  0.039038073	-2.635800E+01
97	  0.039238475	-1.390000E-01	  0.039238475	-1.249730E+02	  0.039238475	5.080000E-01	  0.039238475	-2.604000E+01
98	  0.039438877	-1.400000E-01	  0.039438877	-1.255460E+02	  0.039438877	5.120000E-01	  0.039438877	-2.572300E+01
99	  0.039639279	-1.390000E-01	  0.039639279	-1.261010E+02	  0.039639279	5.040000E-01	  0.039639279	-2.541800E+01
100	  0.039839678	-1.360000E-01	  0.039839678	-1.266430E+02	  0.039839678	4.900000E-01	  0.039839678	-2.512100E+01
101	  0.040040080	-1.320000E-01	  0.040040080	-1.271650E+02	  0.040040080	4.750000E-01	  0.040040080	-2.483700E+01
102	  0.040240481	-1.300000E-01	  0.040240481	-1.276890E+02	  0.040240481	4.650000E-01	  0.040240481	-2.455200E+01
103	  0.040440880	-1.280000E-01	  0.040440880	-1.282290E+02	  0.040440880	4.570000E-01	  0.040440880	-2.426100E+01
104	  0.040641282	-1.270000E-01	  0.040641282	-1.287580E+02	  0.040641282	4.500000E-01	  0.040641282	-2.397600E+01
105	  0.040841684	-1.260000E-01	  0.040841684	-1.292920E+02	  0.040841684	4.450000E-01	  0.040841684	-2.369000E+01
106	  0.041042086	-1.290000E-01	  0.041042086	-1.297850E+02	  0.041042086	4.540000E-01	  0.041042086	-2.342700E+01
107	  0.041242484	-1.390000E-01	  0.041242484	-1.303300E+02	  0.041242484	4.870000E-01	  0.041242484	-2.313800E+01
108	  0.041442886	-1.510000E-01	  0.041442886	-1.308480E+02	  0.041442886	5.270000E-01	  0.041442886	-2.286400E+01
109	  0.041643288	-1.590000E-01	  0.041643288	-1.314530E+02	  0.041643288	5.530000E-01	  0.041643288	-2.254500E+01
110	  0.041843686	-1.620000E-01	  0.041843686	-1.320560E+02	  0.041843686	5.600000E-01	  0.041843686	-2.222900E+01
111	  0.042044088	-1.600000E-01	  0.042044088	-1.326630E+02	  0.042044088	5.510000E-01	  0.042044088	-2.191300E+01
112	  0.042244490	-1.500000E-01	  0.042244490	-1.332460E+02	  0.042244490	5.120000E-01	  0.042244490	-2.161000E+01
113	  0.042444889	-1.370000E-01	  0.042444889	-1.337580E+02	  0.042444889	4.680000E-01	  0.042444889	-2.134600E+01
114	  0.042645290	-1.290000E-01	  0.042645290	-1.342450E+02	  0.042645290	4.400000E-01	  0.042645290	-2.109600E+01
115	  0.042845692	-1.300000E-01	  0.042845692	-1.347300E+02	  0.042845692	4.390000E-01	  0.042845692	-2.084700E+01
116	  0.043046094	-1.300000E-01	  0.043046094	-1.352210E+02	  0.043046094	4.390000E-01	  0.043046094	-2.059600E+01
117	  0.043246493	-1.330000E-01	  0.043246493	-1.357380E+02	  0.043246493	4.460000E-01	  0.043246493	-2.033200E+01
118	  0.043446895	-1.350000E-01	  0.043446895	-1.362140E+02	  0.043446895	4.530000E-01	  0.043446895	-2.009000E+01
119	  0.043647297	-1.410000E-01	  0.043647297	-1.367070E+02	  0.043647297	4.710000E-01	  0.043647297	-1.984100E+01
120	  0.043847695	-1.450000E-01	  0.043847695	-1.371910E+02	  0.043847695	4.820000E-01	  0.043847695	-1.959700E+01
121	  0.044048097	-1.500000E-01	  0.044048097	-1.376950E+02	  0.044048097	4.960000E-01	  0.044048097	-1.934400E+01
122	  0.044248499	-1.590000E-01	  0.044248499	-1.382250E+02	  0.044248499	5.250000E-01	  0.044248499	-1.907800E+01
123	  0.044448901	-1.620000E-01	  0.044448901	-1.387450E+02	  0.044448901	5.320000E-01	  0.044448901	-1.881900E+01
124	  0.044649299	-1.590000E-01	  0.044649299	-1.392530E+02	  0.044649299	5.230000E-01	  0.044649299	-1.856600E+01
125	  0.044849701	-1.600000E-01	  0.044849701	-1.397540E+02	  0.044849701	5.230000E-01	  0.044849701	-1.831800E+01
126	  0.045050103	-1.600000E-01	  0.045050103	-1.402470E+02	  0.045050103	5.210000E-01	  0.045050103	-1.807400E+01
127	  0.045250501	-1.610000E-01	  0.045250501	-1.407360E+02	  0.045250501	5.230000E-01	  0.045250501	-1.783300E+01
128	  0.045450903	-1.620000E-01	  0.045450903	-1.412410E+02	  0.045450903	5.240000E-01	  0.045450903	-1.758500E+01
129	  0.045651305	-1.600000E-01	  0.045651305	-1.417510E+02	  0.045651305	5.180000E-01	  0.045651305	-1.733600E+01
130	  0.045851704	-1.590000E-01	  0.045851704	-1.422560E+02	  0.045851704	5.120000E-01	  0.045851704	-1.708900E+01
131	  0.046052106	-1.570000E-01	  0.046052106	-1.427280E+02	  0.046052106	5.030000E-01	  0.046052106	-1.685900E+01
132	  0.046252504	-1.580000E-01	  0.046252504	-1.432170E+02	  0.046252504	5.060000E-01	  0.046252504	-1.662200E+01
133	  0.046452906	-1.610000E-01	  0.046452906	-1.436640E+02	  0.046452906	5.150000E-01	  0.046452906	-1.640600E+01
134	  0.046653304	-1.710000E-01	  0.046653304	-1.441450E+02	  0.046653304	5.450000E-01	  0.046653304	-1.617400E+01
135	  0.046853706	-1.780000E-01	  0.046853706	-1.446580E+02	  0.046853706	5.660000E-01	  0.046853706	-1.592600E+01
136	  0.047054108	-1.820000E-01	  0.047054108	-1.451920E+02	  0.047054108	5.760000E-01	  0.047054108	-1.567000E+01
137	  0.047254506	-1.790000E-01	  0.047254506	-1.457480E+02	  0.047254506	5.670000E-01	  0.047254506	-1.540400E+01
138	  0.047454908	-1.740000E-01	  0.047454908	-1.462870E+02	  0.047454908	5.480000E-01	  0.047454908	-1.514700E+01
139	  0.047655310	-1.680000E-01	  0.047655310	-1.467760E+02	  0.047655310	5.260000E-01	  0.047655310	-1.491500E+01
140	  0.047855709	-1.650000E-01	  0.047855709	-1.472620E+02	  0.047855709	5.160000E-01	  0.047855709	-1.468400E+01
141	  0.048056111	-1.620000E-01	  0.048056111	-1.477390E+02	  0.048056111	5.060000E-01	  0.048056111	-1.445800E+01
142	  0.048256513	-1.640000E-01	  0.048256513	-1.482320E+02	  0.048256513	5.110000E-01	  0.048256513	-1.422600E+01
143	  0.048456915	-1.630000E-01	  0.048456915	-1.487320E+02	  0.048456915	5.080000E-01	  0.048456915	-1.399000E+01
144	  0.048657313	-1.640000E-01	  0.048657313	-1.491970E+02	  0.048657313	5.100000E-01	  0.048657313	-1.377200E+01
145	  0.048857715	-1.670000E-01	  0.048857715	-1.496640E+02	  0.048857715	5.180000E-01	  0.048857715	-1.355300E+01
146	  0.049058117	-1.740000E-01	  0.049058117	-1.501410E+02	  0.049058117	5.360000E-01	  0.049058117	-1.332900E+01
147	  0.049258515	-1.800000E-01	  0.049258515	-1.506350E+02	  0.049258515	5.540000E-01	  0.049258515	-1.309900E+01
148	  0.049458917	-1.810000E-01	  0.049458917	-1.511490E+02	  0.049458917	5.580000E-01	  0.049458917	-1.285900E+01
149	  0.049659319	-1.830000E-01	  0.049659319	-1.516470E+02	  0.049659319	5.600000E-01	  0.049659319	-1.262800E+01
150	  0.049859721	-1.840000E-01	  0.049859721	-1.521340E+02	  0.049859721	5.620000E-01	  0.049859721	-1.240200E+01
151	  0.050060119	-1.830000E-01	  0.050060119	-1.526010E+02	  0.050060119	5.590000E-01	  0.050060119	-1.218600E+01
152	  0.050260521	-1.870000E-01	  0.050260521	-1.530770E+02	  0.050260521	5.690000E-01	  0.050260521	-1.196600E+01
153	  0.050460923	-1.890000E-01	  0.050460923	-1.535550E+02	  0.050460923	5.760000E-01	  0.050460923	-1.174600E+01
154	  0.050661322	-1.910000E-01	  0.050661322	-1.540470E+02	  0.050661322	5.790000E-01	  0.050661322	-1.152000E+01
155	  0.050861724	-1.910000E-01	  0.050861724	-1.545350E+02	  0.050861724	5.790000E-01	  0.050861724	-1.129600E+01
156	  0.051062126	-1.880000E-01	  0.051062126	-1.550360E+02	  0.051062126	5.700000E-01	  0.051062126	-1.106600E+01
157	  0.051262524	-1.870000E-01	  0.051262524	-1.555010E+02	  0.051262524	5.640000E-01	  0.051262524	-1.085300E+01
158	  0.051462926	-1.860000E-01	  0.051462926	-1.559620E+02	  0.051462926	5.610000E-01	  0.051462926	-1.064300E+01
159	  0.051663328	-1.920000E-01	  0.051663328	-1.564160E+02	  0.051663328	5.780000E-01	  0.051663328	-1.043600E+01
160	  0.051863730	-1.970000E-01	  0.051863730	-1.568720E+02	  0.051863730	5.900000E-01	  0.051863730	-1.022900E+01
161	  0.052064128	-2.010000E-01	  0.052064128	-1.573380E+02	  0.052064128	6.030000E-01	  0.052064128	-1.001700E+01
162	  0.052264530	-2.040000E-01	  0.052264530	-1.578170E+02	  0.052264530	6.100000E-01	  0.052264530	-9.800000E+00
163	  0.052464932	-2.050000E-01	  0.052464932	-1.583140E+02	  0.052464932	6.130000E-01	  0.052464932	-9.575000E+00
164	  0.052665330	-2.030000E-01	  0.052665330	-1.588140E+02	  0.052665330	6.070000E-01	  0.052665330	-9.349000E+00
165	  0.052865732	-2.020000E-01	  0.052865732	-1.592770E+02	  0.052865732	6.030000E-01	  0.052865732	-9.140000E+00
166	  0.053066134	-1.990000E-01	  0.053066134	-1.597430E+02	  0.053066134	5.920000E-01	  0.053066134	-8.930000E+00
167	  0.053266536	-1.960000E-01	  0.053266536	-1.602120E+02	  0.053266536	5.840000E-01	  0.053266536	-8.719000E+00
168	  0.053466935	-1.980000E-01	  0.053466935	-1.606680E+02	  0.053466935	5.870000E-01	  0.053466935	-8.514000E+00
169	  0.053667337	-1.960000E-01	  0.053667337	-1.611220E+02	  0.053667337	5.800000E-01	  0.053667337	-8.311000E+00
170	  0.053867739	-1.960000E-01	  0.053867739	-1.615690E+02	  0.053867739	5.790000E-01	  0.053867739	-8.110000E+00
171	  0.054068137	-1.980000E-01	  0.054068137	-1.620060E+02	  0.054068137	5.860000E-01	  0.054068137	-7.915000E+00
172	  0.054268539	-2.040000E-01	  0.054268539	-1.624660E+02	  0.054268539	6.010000E-01	  0.054268539	-7.709000E+00
173	  0.054468941	-2.080000E-01	  0.054468941	-1.629240E+02	  0.054468941	6.140000E-01	  0.054468941	-7.505000E+00
174	  0.054669339	-2.100000E-01	  0.054669339	-1.633930E+02	  0.054669339	6.190000E-01	  0.054669339	-7.295000E+00
175	  0.054869737	-2.110000E-01	  0.054869737	-1.638550E+02	  0.054869737	6.190000E-01	  0.054869737	-7.090000E+00
176	  0.055070139	-2.090000E-01	  0.055070139	-1.643040E+02	  0.055070139	6.140000E-01	  0.055070139	-6.890000E+00
177	  0.055270538	-2.090000E-01	  0.055270538	-1.647390E+02	  0.055270538	6.140000E-01	  0.055270538	-6.697000E+00
178	  0.055470940	-2.120000E-01	  0.055470940	-1.651860E+02	  0.055470940	6.220000E-01	  0.055470940	-6.499000E+00
179	  0.055671342	-2.150000E-01	  0.055671342	-1.656210E+02	  0.055671342	6.310000E-01	  0.055671342	-6.305000E+00
180	  0.055871744	-2.140000E-01	  0.055871744	-1.660850E+02	  0.055871744	6.270000E-01	  0.055871744	-6.100000E+00
181	  0.056072142	-2.160000E-01	  0.056072142	-1.665610E+02	  0.056072142	6.300000E-01	  0.056072142	-5.889000E+00
182	  0.056272544	-2.160000E-01	  0.056272544	-1.670100E+02	  0.056272544	6.300000E-01	  0.056272544	-5.691000E+00
183	  0.056472946	-2.140000E-01	  0.056472946	-1.674400E+02	  0.056472946	6.240000E-01	  0.056472946	-5.501000E+00
184	  0.056673344	-2.160000E-01	  0.056673344	-1.678960E+02	  0.056673344	6.290000E-01	  0.056673344	-5.299000E+00
185	  0.056873746	-2.180000E-01	  0.056873746	-1.683370E+02	  0.056873746	6.360000E-01	  0.056873746	-5.105000E+00
186	  0.057074148	-2.200000E-01	  0.057074148	-1.687700E+02	  0.057074148	6.410000E-01	  0.057074148	-4.914000E+00
187	  0.057274550	-2.230000E-01	  0.057274550	-1.692010E+02	  0.057274550	6.490000E-01	  0.057274550	-4.724000E+00
188	  0.057474948	-2.260000E-01	  0.057474948	-1.696400E+02	  0.057474948	6.560000E-01	  0.057474948	-4.531000E+00
189	  0.057675350	-2.270000E-01	  0.057675350	-1.700970E+02	  0.057675350	6.600000E-01	  0.057675350	-4.330000E+00
190	  0.057875752	-2.300000E-01	  0.057875752	-1.705500E+02	  0.057875752	6.660000E-01	  0.057875752	-4.131000E+00
191	  0.058076151	-2.300000E-01	  0.058076151	-1.710080E+02	  0.058076151	6.680000E-01	  0.058076151	-3.930000E+00
192	  0.058276553	-2.290000E-01	  0.058276553	-1.714680E+02	  0.058276553	6.620000E-01	  0.058276553	-3.728000E+00
193	  0.058476955	-2.290000E-01	  0.058476955	-1.719140E+02	  0.058476955	6.620000E-01	  0.058476955	-3.533000E+00
194	  0.058677353	-2.300000E-01	  0.058677353	-1.723760E+02	  0.058677353	6.650000E-01	  0.058677353	-3.330000E+00
195	  0.058877755	-2.290000E-01	  0.058877755	-1.728340E+02	  0.058877755	6.620000E-01	  0.058877755	-3.129000E+00
196	  0.059078157	-2.320000E-01	  0.059078157	-1.732680E+02	  0.059078157	6.700000E-01	  0.059078157	-2.940000E+00
197	  0.059278559	-2.340000E-01	  0.059278559	-1.737270E+02	  0.059278559	6.770000E-01	  0.059278559	-2.738000E+00
198	  0.059478957	-2.380000E-01	  0.059478957	-1.741790E+02	  0.059478957	6.870000E-01	  0.059478957	-2.541000E+00
199	  0.059679359	-2.400000E-01	  0.059679359	-1.746480E+02	  0.059679359	6.920000E-01	  0.059679359	-2.336000E+00
200	  0.059879761	-2.420000E-01	  0.059879761	-1.750980E+02	  0.059879761	6.980000E-01	  0.059879761	-2.139000E+00
201	  0.060080159	-2.410000E-01	  0.060080159	-1.755510E+02	  0.060080159	6.940000E-01	  0.060080159	-1.941000E+00
202	  0.060280561	-2.410000E-01	  0.060280561	-1.759960E+02	  0.060280561	6.960000E-01	  0.060280561	-1.747000E+00
203	  0.060480963	-2.420000E-01	  0.060480963	-1.764370E+02	  0.060480963	6.970000E-01	  0.060480963	-1.554000E+00
204	  0.060681365	-2.430000E-01	  0.060681365	-1.768750E+02	  0.060681365	7.000000E-01	  0.060681365	-1.363000E+00
205	  0.060881764	-2.420000E-01	  0.060881764	-1.773200E+02	  0.060881764	6.990000E-01	  0.060881764	-1.169000E+00
206	  0.061082166	-2.430000E-01	  0.061082166	-1.777570E+02	  0.061082166	6.990000E-01	  0.061082166	-9.780000E-01
207	  0.061282568	-2.420000E-01	  0.061282568	-1.782000E+02	  0.061282568	6.980000E-01	  0.061282568	-7.850000E-01
208	  0.061482966	-2.420000E-01	  0.061482966	-1.786420E+02	  0.061482966	6.970000E-01	  0.061482966	-5.920000E-01
209	  0.061683368	-2.410000E-01	  0.061683368	-1.790610E+02	  0.061683368	6.940000E-01	  0.061683368	-4.090000E-01
210	  0.061883770	-2.420000E-01	  0.061883770	-1.795000E+02	  0.061883770	6.990000E-01	  0.061883770	-2.170000E-01
211	  0.062084168	-2.430000E-01	  0.062084168	-1.799270E+02	  0.062084168	7.000000E-01	  0.062084168	-3.100000E-02
212	  0.062284570	-2.440000E-01	  0.062284570	1.796610E+02	  0.062284570	7.030000E-01	  0.062284570	1.470000E-01
213	  0.062484972	-2.430000E-01	  0.062484972	1.792630E+02	  0.062484972	7.000000E-01	  0.062484972	3.210000E-01
214	  0.062685370	-2.450000E-01	  0.062685370	1.788480E+02	  0.062685370	7.050000E-01	  0.062685370	5.020000E-01
215	  0.062885776	-2.460000E-01	  0.062885776	1.784300E+02	  0.062885776	7.080000E-01	  0.062885776	6.840000E-01
216	  0.063086174	-2.490000E-01	  0.063086174	1.780210E+02	  0.063086174	7.180000E-01	  0.063086174	8.630000E-01
217	  0.063286573	-2.470000E-01	  0.063286573	1.775780E+02	  0.063286573	7.110000E-01	  0.063286573	1.056000E+00
218	  0.063486971	-2.490000E-01	  0.063486971	1.771680E+02	  0.063486971	7.180000E-01	  0.063486971	1.235000E+00
219	  0.063687377	-2.490000E-01	  0.063687377	1.767540E+02	  0.063687377	7.190000E-01	  0.063687377	1.416000E+00
220	  0.063887775	-2.490000E-01	  0.063887775	1.763400E+02	  0.063887775	7.170000E-01	  0.063887775	1.596000E+00
221	  0.064088173	-2.530000E-01	  0.064088173	1.759300E+02	  0.064088173	7.300000E-01	  0.064088173	1.775000E+00
222	  0.064288579	-2.550000E-01	  0.064288579	1.754910E+02	  0.064288579	7.350000E-01	  0.064288579	1.967000E+00
223	  0.064488977	-2.580000E-01	  0.064488977	1.750420E+02	  0.064488977	7.460000E-01	  0.064488977	2.163000E+00
224	  0.064689375	-2.590000E-01	  0.064689375	1.746010E+02	  0.064689375	7.480000E-01	  0.064689375	2.356000E+00
225	  0.064889781	-2.620000E-01	  0.064889781	1.741670E+02	  0.064889781	7.560000E-01	  0.064889781	2.546000E+00
226	  0.065090179	-2.630000E-01	  0.065090179	1.737440E+02	  0.065090179	7.620000E-01	  0.065090179	2.731000E+00
227	  0.065290578	-2.640000E-01	  0.065290578	1.732950E+02	  0.065290578	7.620000E-01	  0.065290578	2.927000E+00
228	  0.065490983	-2.670000E-01	  0.065490983	1.728950E+02	  0.065490983	7.710000E-01	  0.065490983	3.103000E+00
229	  0.065691382	-2.670000E-01	  0.065691382	1.724620E+02	  0.065691382	7.740000E-01	  0.065691382	3.292000E+00
230	  0.065891780	-2.660000E-01	  0.065891780	1.720260E+02	  0.065891780	7.700000E-01	  0.065891780	3.483000E+00
231	  0.066092186	-2.640000E-01	  0.066092186	1.715980E+02	  0.066092186	7.660000E-01	  0.066092186	3.671000E+00
232	  0.066292584	-2.650000E-01	  0.066292584	1.711880E+02	  0.066292584	7.680000E-01	  0.066292584	3.851000E+00
233	  0.066492982	-2.650000E-01	  0.066492982	1.707590E+02	  0.066492982	7.680000E-01	  0.066492982	4.039000E+00
234	  0.066693388	-2.640000E-01	  0.066693388	1.703340E+02	  0.066693388	7.650000E-01	  0.066693388	4.226000E+00
235	  0.066893786	-2.640000E-01	  0.066893786	1.699260E+02	  0.066893786	7.660000E-01	  0.066893786	4.405000E+00
236	  0.067094192	-2.660000E-01	  0.067094192	1.695200E+02	  0.067094192	7.740000E-01	  0.067094192	4.584000E+00
237	  0.067294590	-2.630000E-01	  0.067294590	1.691100E+02	  0.067294590	7.660000E-01	  0.067294590	4.764000E+00
238	  0.067494988	-2.640000E-01	  0.067494988	1.687150E+02	  0.067494988	7.680000E-01	  0.067494988	4.938000E+00
239	  0.067695394	-2.650000E-01	  0.067695394	1.683300E+02	  0.067695394	7.700000E-01	  0.067695394	5.108000E+00
240	  0.067895792	-2.650000E-01	  0.067895792	1.679300E+02	  0.067895792	7.710000E-01	  0.067895792	5.284000E+00
241	  0.068096191	-2.670000E-01	  0.068096191	1.675610E+02	  0.068096191	7.780000E-01	  0.068096191	5.447000E+00
242	  0.068296596	-2.680000E-01	  0.068296596	1.671410E+02	  0.068296596	7.830000E-01	  0.068296596	5.633000E+00
243	  0.068496995	-2.660000E-01	  0.068496995	1.667430E+02	  0.068496995	7.750000E-01	  0.068496995	5.809000E+00
244	  0.068697393	-2.670000E-01	  0.068697393	1.663640E+02	  0.068697393	7.820000E-01	  0.068697393	5.976000E+00
245	  0.068897791	-2.680000E-01	  0.068897791	1.659970E+02	  0.068897791	7.850000E-01	  0.068897791	6.138000E+00
246	  0.069098189	-2.680000E-01	  0.069098189	1.656070E+02	  0.069098189	7.860000E-01	  0.069098189	6.311000E+00
247	  0.069298595	-2.700000E-01	  0.069298595	1.651990E+02	  0.069298595	7.900000E-01	  0.069298595	6.492000E+00
248	  0.069498993	-2.770000E-01	  0.069498993	1.647900E+02	  0.069498993	8.110000E-01	  0.069498993	6.673000E+00
249	  0.069699399	-2.810000E-01	  0.069699399	1.643670E+02	  0.069699399	8.250000E-01	  0.069699399	6.861000E+00
250	  0.069899797	-2.850000E-01	  0.069899797	1.639390E+02	  0.069899797	8.360000E-01	  0.069899797	7.051000E+00
251	  0.070100196	-2.860000E-01	  0.070100196	1.635240E+02	  0.070100196	8.400000E-01	  0.070100196	7.236000E+00
252	  0.070300601	-2.900000E-01	  0.070300601	1.631050E+02	  0.070300601	8.530000E-01	  0.070300601	7.423000E+00
253	  0.070501000	-2.910000E-01	  0.070501000	1.627010E+02	  0.070501000	8.560000E-01	  0.070501000	7.603000E+00
254	  0.070701398	-2.920000E-01	  0.070701398	1.622980E+02	  0.070701398	8.620000E-01	  0.070701398	7.783000E+00
255	  0.070901804	-2.920000E-01	  0.070901804	1.618670E+02	  0.070901804	8.630000E-01	  0.070901804	7.976000E+00
256	  0.071102202	-2.900000E-01	  0.071102202	1.614460E+02	  0.071102202	8.590000E-01	  0.071102202	8.164000E+00
257	  0.071302600	-2.890000E-01	  0.071302600	1.610350E+02	  0.071302600	8.570000E-01	  0.071302600	8.348000E+00
258	  0.071503006	-2.900000E-01	  0.071503006	1.606480E+02	  0.071503006	8.580000E-01	  0.071503006	8.522000E+00
259	  0.071703404	-2.870000E-01	  0.071703404	1.601970E+02	  0.071703404	8.510000E-01	  0.071703404	8.725000E+00
260	  0.071903802	-2.840000E-01	  0.071903802	1.598060E+02	  0.071903802	8.450000E-01	  0.071903802	8.900000E+00
261	  0.072104208	-2.870000E-01	  0.072104208	1.594160E+02	  0.072104208	8.530000E-01	  0.072104208	9.076000E+00
262	  0.072304606	-2.870000E-01	  0.072304606	1.590150E+02	  0.072304606	8.550000E-01	  0.072304606	9.257000E+00
263	  0.072505005	-2.860000E-01	  0.072505005	1.586360E+02	  0.072505005	8.530000E-01	  0.072505005	9.428000E+00
264	  0.072705410	-2.860000E-01	  0.072705410	1.582560E+02	  0.072705410	8.550000E-01	  0.072705410	9.600000E+00
265	  0.072905809	-2.870000E-01	  0.072905809	1.578860E+02	  0.072905809	8.580000E-01	  0.072905809	9.767000E+00
266	  0.073106214	-2.880000E-01	  0.073106214	1.575080E+02	  0.073106214	8.620000E-01	  0.073106214	9.938000E+00
267	  0.073306613	-2.900000E-01	  0.073306613	1.571260E+02	  0.073306613	8.700000E-01	  0.073306613	1.011200E+01
268	  0.073507011	-2.880000E-01	  0.073507011	1.567350E+02	  0.073507011	8.650000E-01	  0.073507011	1.028900E+01
269	  0.073707417	-2.890000E-01	  0.073707417	1.563660E+02	  0.073707417	8.680000E-01	  0.073707417	1.045700E+01
270	  0.073907815	-2.860000E-01	  0.073907815	1.560180E+02	  0.073907815	8.600000E-01	  0.073907815	1.061600E+01
271	  0.074108213	-2.870000E-01	  0.074108213	1.556590E+02	  0.074108213	8.670000E-01	  0.074108213	1.078000E+01
272	  0.074308619	-2.870000E-01	  0.074308619	1.553090E+02	  0.074308619	8.680000E-01	  0.074308619	1.093900E+01
273	  0.074509017	-2.920000E-01	  0.074509017	1.549420E+02	  0.074509017	8.810000E-01	  0.074509017	1.110700E+01
274	  0.074709415	-2.970000E-01	  0.074709415	1.545290E+02	  0.074709415	9.010000E-01	  0.074709415	1.129600E+01
275	  0.074909821	-3.010000E-01	  0.074909821	1.541520E+02	  0.074909821	9.110000E-01	  0.074909821	1.146900E+01
276	  0.075110219	-3.040000E-01	  0.075110219	1.537530E+02	  0.075110219	9.250000E-01	  0.075110219	1.165200E+01
277	  0.075310618	-3.060000E-01	  0.075310618	1.533580E+02	  0.075310618	9.310000E-01	  0.075310618	1.183400E+01
278	  0.075511023	-3.100000E-01	  0.075511023	1.529610E+02	  0.075511023	9.450000E-01	  0.075511023	1.201700E+01
279	  0.075711422	-3.120000E-01	  0.075711422	1.525600E+02	  0.075711422	9.520000E-01	  0.075711422	1.220200E+01
280	  0.075911827	-3.130000E-01	  0.075911827	1.521660E+02	  0.075911827	9.560000E-01	  0.075911827	1.238500E+01
281	  0.076112226	-3.140000E-01	  0.076112226	1.517520E+02	  0.076112226	9.630000E-01	  0.076112226	1.257600E+01
282	  0.076312624	-3.130000E-01	  0.076312624	1.513530E+02	  0.076312624	9.600000E-01	  0.076312624	1.276200E+01
283	  0.076513030	-3.120000E-01	  0.076513030	1.509420E+02	  0.076513030	9.580000E-01	  0.076513030	1.295300E+01
284	  0.076713428	-3.110000E-01	  0.076713428	1.505500E+02	  0.076713428	9.570000E-01	  0.076713428	1.313600E+01
285	  0.076913826	-3.090000E-01	  0.076913826	1.501280E+02	  0.076913826	9.540000E-01	  0.076913826	1.333200E+01
286	  0.077114232	-3.070000E-01	  0.077114232	1.497680E+02	  0.077114232	9.490000E-01	  0.077114232	1.350100E+01
287	  0.077314630	-3.030000E-01	  0.077314630	1.493760E+02	  0.077314630	9.390000E-01	  0.077314630	1.368500E+01
288	  0.077515028	-3.020000E-01	  0.077515028	1.490010E+02	  0.077515028	9.380000E-01	  0.077515028	1.386100E+01
289	  0.077715434	-3.000000E-01	  0.077715434	1.486420E+02	  0.077715434	9.320000E-01	  0.077715434	1.402900E+01
290	  0.077915832	-3.010000E-01	  0.077915832	1.482950E+02	  0.077915832	9.370000E-01	  0.077915832	1.419300E+01
291	  0.078116231	-3.040000E-01	  0.078116231	1.479300E+02	  0.078116231	9.490000E-01	  0.078116231	1.436500E+01
292	  0.078316636	-3.050000E-01	  0.078316636	1.475840E+02	  0.078316636	9.530000E-01	  0.078316636	1.452800E+01
293	  0.078517035	-3.070000E-01	  0.078517035	1.471870E+02	  0.078517035	9.620000E-01	  0.078517035	1.471600E+01
294	  0.078717433	-3.070000E-01	  0.078717433	1.468150E+02	  0.078717433	9.620000E-01	  0.078717433	1.489300E+01
295	  0.078917839	-3.050000E-01	  0.078917839	1.464710E+02	  0.078917839	9.570000E-01	  0.078917839	1.505600E+01
296	  0.079118237	-3.020000E-01	  0.079118237	1.461260E+02	  0.079118237	9.520000E-01	  0.079118237	1.522000E+01
297	  0.079318643	-3.030000E-01	  0.079318643	1.457990E+02	  0.079318643	9.570000E-01	  0.079318643	1.537700E+01
298	  0.079519041	-3.060000E-01	  0.079519041	1.454450E+02	  0.079519041	9.660000E-01	  0.079519041	1.554600E+01
299	  0.079719439	-3.100000E-01	  0.079719439	1.450940E+02	  0.079719439	9.810000E-01	  0.079719439	1.571400E+01
300	  0.079919845	-3.130000E-01	  0.079919845	1.447110E+02	  0.079919845	9.930000E-01	  0.079919845	1.589700E+01
301	  0.080120243	-3.180000E-01	  0.080120243	1.443230E+02	  0.080120243	1.011000E+00	  0.080120243	1.608400E+01
302	  0.080320641	-3.240000E-01	  0.080320641	1.439360E+02	  0.080320641	1.033000E+00	  0.080320641	1.627000E+01
303	  0.080521047	-3.290000E-01	  0.080521047	1.435550E+02	  0.080521047	1.050000E+00	  0.080521047	1.645400E+01
304	  0.080721445	-3.360000E-01	  0.080721445	1.431640E+02	  0.080721445	1.076000E+00	  0.080721445	1.664200E+01
305	  0.080921844	-3.380000E-01	  0.080921844	1.427470E+02	  0.080921844	1.085000E+00	  0.080921844	1.684500E+01
306	  0.081122249	-3.390000E-01	  0.081122249	1.423560E+02	  0.081122249	1.089000E+00	  0.081122249	1.703500E+01
307	  0.081322648	-3.380000E-01	  0.081322648	1.419370E+02	  0.081322648	1.089000E+00	  0.081322648	1.723900E+01
308	  0.081523046	-3.360000E-01	  0.081523046	1.415490E+02	  0.081523046	1.085000E+00	  0.081523046	1.742900E+01
309	  0.081723452	-3.400000E-01	  0.081723452	1.411160E+02	  0.081723452	1.100000E+00	  0.081723452	1.764100E+01
310	  0.081923850	-3.380000E-01	  0.081923850	1.407200E+02	  0.081923850	1.098000E+00	  0.081923850	1.783500E+01
311	  0.082124248	-3.350000E-01	  0.082124248	1.403060E+02	  0.082124248	1.089000E+00	  0.082124248	1.803900E+01
312	  0.082324654	-3.330000E-01	  0.082324654	1.399250E+02	  0.082324654	1.087000E+00	  0.082324654	1.822700E+01
313	  0.082525052	-3.300000E-01	  0.082525052	1.395160E+02	  0.082525052	1.079000E+00	  0.082525052	1.843000E+01
314	  0.082725458	-3.240000E-01	  0.082725458	1.391510E+02	  0.082725458	1.062000E+00	  0.082725458	1.861100E+01
315	  0.082925856	-3.240000E-01	  0.082925856	1.388100E+02	  0.082925856	1.064000E+00	  0.082925856	1.878000E+01
316	  0.083126254	-3.260000E-01	  0.083126254	1.384870E+02	  0.083126254	1.075000E+00	  0.083126254	1.894100E+01
317	  0.083326660	-3.270000E-01	  0.083326660	1.381250E+02	  0.083326660	1.080000E+00	  0.083326660	1.912200E+01
318	  0.083527058	-3.290000E-01	  0.083527058	1.377590E+02	  0.083527058	1.088000E+00	  0.083527058	1.930500E+01
319	  0.083727457	-3.280000E-01	  0.083727457	1.374090E+02	  0.083727457	1.088000E+00	  0.083727457	1.948100E+01
320	  0.083927862	-3.270000E-01	  0.083927862	1.370390E+02	  0.083927862	1.088000E+00	  0.083927862	1.966700E+01
321	  0.084128261	-3.220000E-01	  0.084128261	1.366800E+02	  0.084128261	1.075000E+00	  0.084128261	1.984800E+01
322	  0.084328659	-3.200000E-01	  0.084328659	1.363570E+02	  0.084328659	1.070000E+00	  0.084328659	2.001100E+01
323	  0.084529065	-3.200000E-01	  0.084529065	1.360440E+02	  0.084529065	1.071000E+00	  0.084529065	2.017000E+01
324	  0.084729463	-3.200000E-01	  0.084729463	1.357090E+02	  0.084729463	1.076000E+00	  0.084729463	2.034100E+01
325	  0.084929861	-3.220000E-01	  0.084929861	1.353750E+02	  0.084929861	1.083000E+00	  0.084929861	2.051000E+01
326	  0.085130267	-3.250000E-01	  0.085130267	1.350390E+02	  0.085130267	1.098000E+00	  0.085130267	2.068200E+01
327	  0.085330658	-3.270000E-01	  0.085330658	1.346880E+02	  0.085330658	1.106000E+00	  0.085330658	2.086100E+01
328	  0.085531056	-3.310000E-01	  0.085531056	1.343410E+02	  0.085531056	1.122000E+00	  0.085531056	2.103900E+01
329	  0.085731462	-3.360000E-01	  0.085731462	1.339940E+02	  0.085731462	1.143000E+00	  0.085731462	2.121700E+01
330	  0.085931860	-3.400000E-01	  0.085931860	1.336470E+02	  0.085931860	1.159000E+00	  0.085931860	2.139500E+01
331	  0.086132258	-3.440000E-01	  0.086132258	1.332670E+02	  0.086132258	1.177000E+00	  0.086132258	2.159100E+01
332	  0.086332664	-3.460000E-01	  0.086332664	1.329200E+02	  0.086332664	1.184000E+00	  0.086332664	2.177100E+01
333	  0.086533062	-3.430000E-01	  0.086533062	1.325240E+02	  0.086533062	1.179000E+00	  0.086533062	2.197700E+01
334	  0.086733460	-3.440000E-01	  0.086733460	1.321530E+02	  0.086733460	1.185000E+00	  0.086733460	2.217000E+01
335	  0.086933866	-3.450000E-01	  0.086933866	1.317710E+02	  0.086933866	1.193000E+00	  0.086933866	2.237000E+01
336	  0.087134264	-3.450000E-01	  0.087134264	1.313830E+02	  0.087134264	1.197000E+00	  0.087134264	2.257300E+01
337	  0.087334670	-3.440000E-01	  0.087334670	1.309950E+02	  0.087334670	1.195000E+00	  0.087334670	2.277700E+01
338	  0.087535068	-3.420000E-01	  0.087535068	1.306120E+02	  0.087535068	1.193000E+00	  0.087535068	2.298000E+01
339	  0.087735467	-3.390000E-01	  0.087735467	1.302370E+02	  0.087735467	1.185000E+00	  0.087735467	2.317800E+01
340	  0.087935872	-3.320000E-01	  0.087935872	1.298960E+02	  0.087935872	1.166000E+00	  0.087935872	2.336000E+01
341	  0.088136271	-3.340000E-01	  0.088136271	1.295470E+02	  0.088136271	1.174000E+00	  0.088136271	2.354500E+01
342	  0.088336669	-3.330000E-01	  0.088336669	1.292170E+02	  0.088336669	1.177000E+00	  0.088336669	2.372100E+01
343	  0.088537075	-3.350000E-01	  0.088537075	1.288820E+02	  0.088537075	1.186000E+00	  0.088537075	2.390000E+01
344	  0.088737473	-3.390000E-01	  0.088737473	1.285140E+02	  0.088737473	1.205000E+00	  0.088737473	2.409700E+01
345	  0.088937871	-3.370000E-01	  0.088937871	1.281650E+02	  0.088937871	1.202000E+00	  0.088937871	2.428500E+01
346	  0.089138277	-3.380000E-01	  0.089138277	1.278030E+02	  0.089138277	1.206000E+00	  0.089138277	2.448100E+01
347	  0.089338675	-3.380000E-01	  0.089338675	1.274530E+02	  0.089338675	1.210000E+00	  0.089338675	2.467000E+01
348	  0.089539073	-3.350000E-01	  0.089539073	1.271230E+02	  0.089539073	1.205000E+00	  0.089539073	2.485000E+01
349	  0.089739479	-3.350000E-01	  0.089739479	1.267850E+02	  0.089739479	1.208000E+00	  0.089739479	2.503400E+01
350	  0.089939877	-3.360000E-01	  0.089939877	1.264420E+02	  0.089939877	1.215000E+00	  0.089939877	2.522100E+01
351	  0.090140276	-3.370000E-01	  0.090140276	1.260930E+02	  0.090140276	1.223000E+00	  0.090140276	2.541200E+01
352	  0.090340681	-3.400000E-01	  0.090340681	1.257250E+02	  0.090340681	1.235000E+00	  0.090340681	2.561400E+01
353	  0.090541080	-3.390000E-01	  0.090541080	1.253990E+02	  0.090541080	1.237000E+00	  0.090541080	2.579400E+01
354	  0.090741485	-3.390000E-01	  0.090741485	1.250560E+02	  0.090741485	1.242000E+00	  0.090741485	2.598400E+01
355	  0.090941884	-3.430000E-01	  0.090941884	1.247190E+02	  0.090941884	1.261000E+00	  0.090941884	2.617100E+01
356	  0.091142282	-3.500000E-01	  0.091142282	1.243850E+02	  0.091142282	1.288000E+00	  0.091142282	2.635600E+01
357	  0.091342688	-3.520000E-01	  0.091342688	1.240120E+02	  0.091342688	1.302000E+00	  0.091342688	2.656400E+01
358	  0.091543086	-3.530000E-01	  0.091543086	1.236650E+02	  0.091543086	1.307000E+00	  0.091543086	2.675800E+01
359	  0.091743484	-3.530000E-01	  0.091743484	1.232940E+02	  0.091743484	1.313000E+00	  0.091743484	2.696700E+01
360	  0.091943890	-3.520000E-01	  0.091943890	1.229210E+02	  0.091943890	1.314000E+00	  0.091943890	2.717700E+01
361	  0.092144288	-3.530000E-01	  0.092144288	1.225710E+02	  0.092144288	1.321000E+00	  0.092144288	2.737500E+01
362	  0.092344686	-3.520000E-01	  0.092344686	1.221960E+02	  0.092344686	1.325000E+00	  0.092344686	2.758800E+01
363	  0.092545092	-3.510000E-01	  0.092545092	1.218410E+02	  0.092545092	1.324000E+00	  0.092545092	2.779100E+01
364	  0.092745490	-3.460000E-01	  0.092745490	1.214820E+02	  0.092745490	1.308000E+00	  0.092745490	2.799600E+01
365	  0.092945889	-3.440000E-01	  0.092945889	1.211430E+02	  0.092945889	1.305000E+00	  0.092945889	2.819100E+01
366	  0.093146294	-3.420000E-01	  0.093146294	1.208130E+02	  0.093146294	1.302000E+00	  0.093146294	2.838100E+01
367	  0.093346693	-3.350000E-01	  0.093346693	1.204900E+02	  0.093346693	1.279000E+00	  0.093346693	2.856800E+01
368	  0.093547091	-3.370000E-01	  0.093547091	1.201680E+02	  0.093547091	1.292000E+00	  0.093547091	2.875500E+01
369	  0.093747497	-3.380000E-01	  0.093747497	1.198690E+02	  0.093747497	1.299000E+00	  0.093747497	2.892800E+01
370	  0.093947895	-3.420000E-01	  0.093947895	1.195330E+02	  0.093947895	1.319000E+00	  0.093947895	2.912400E+01
371	  0.094148301	-3.420000E-01	  0.094148301	1.191880E+02	  0.094148301	1.324000E+00	  0.094148301	2.932600E+01
372	  0.094348699	-3.420000E-01	  0.094348699	1.188640E+02	  0.094348699	1.331000E+00	  0.094348699	2.951600E+01
373	  0.094549097	-3.420000E-01	  0.094549097	1.185350E+02	  0.094549097	1.334000E+00	  0.094549097	2.971000E+01
374	  0.094749503	-3.480000E-01	  0.094749503	1.182060E+02	  0.094749503	1.360000E+00	  0.094749503	2.990400E+01
375	  0.094949901	-3.500000E-01	  0.094949901	1.178800E+02	  0.094949901	1.373000E+00	  0.094949901	3.009700E+01
376	  0.095150299	-3.500000E-01	  0.095150299	1.175430E+02	  0.095150299	1.378000E+00	  0.095150299	3.029700E+01
377	  0.095350705	-3.520000E-01	  0.095350705	1.172140E+02	  0.095350705	1.393000E+00	  0.095350705	3.049400E+01
378	  0.095551103	-3.520000E-01	  0.095551103	1.168660E+02	  0.095551103	1.396000E+00	  0.095551103	3.070200E+01
379	  0.095751502	-3.540000E-01	  0.095751502	1.165260E+02	  0.095751502	1.411000E+00	  0.095751502	3.090700E+01
380	  0.095951907	-3.540000E-01	  0.095951907	1.161850E+02	  0.095951907	1.416000E+00	  0.095951907	3.111300E+01
381	  0.096152306	-3.570000E-01	  0.096152306	1.158450E+02	  0.096152306	1.430000E+00	  0.096152306	3.131800E+01
382	  0.096352704	-3.650000E-01	  0.096352704	1.154770E+02	  0.096352704	1.472000E+00	  0.096352704	3.154100E+01
383	  0.096553110	-3.700000E-01	  0.096553110	1.151440E+02	  0.096553110	1.497000E+00	  0.096553110	3.174400E+01
384	  0.096753508	-3.690000E-01	  0.096753508	1.147830E+02	  0.096753508	1.497000E+00	  0.096753508	3.196500E+01
385	  0.096953906	-3.690000E-01	  0.096953906	1.144260E+02	  0.096953906	1.502000E+00	  0.096953906	3.218600E+01
386	  0.097154312	-3.720000E-01	  0.097154312	1.140510E+02	  0.097154312	1.521000E+00	  0.097154312	3.241700E+01
387	  0.097354710	-3.690000E-01	  0.097354710	1.136860E+02	  0.097354710	1.518000E+00	  0.097354710	3.264400E+01
388	  0.097555116	-3.730000E-01	  0.097555116	1.133390E+02	  0.097555116	1.539000E+00	  0.097555116	3.286000E+01
389	  0.097755514	-3.700000E-01	  0.097755514	1.129830E+02	  0.097755514	1.533000E+00	  0.097755514	3.308300E+01
390	  0.097955912	-3.660000E-01	  0.097955912	1.126320E+02	  0.097955912	1.522000E+00	  0.097955912	3.330400E+01
391	  0.098156318	-3.620000E-01	  0.098156318	1.122790E+02	  0.098156318	1.514000E+00	  0.098156318	3.352700E+01
392	  0.098356716	-3.570000E-01	  0.098356716	1.119560E+02	  0.098356716	1.496000E+00	  0.098356716	3.373200E+01
393	  0.098557115	-3.570000E-01	  0.098557115	1.116350E+02	  0.098557115	1.501000E+00	  0.098557115	3.393600E+01
394	  0.098757520	-3.570000E-01	  0.098757520	1.113040E+02	  0.098757520	1.509000E+00	  0.098757520	3.414700E+01
395	  0.098957919	-3.550000E-01	  0.098957919	1.109910E+02	  0.098957919	1.505000E+00	  0.098957919	3.434800E+01
396	  0.099158317	-3.540000E-01	  0.099158317	1.106920E+02	  0.099158317	1.506000E+00	  0.099158317	3.454000E+01
397	  0.099358723	-3.530000E-01	  0.099358723	1.103810E+02	  0.099358723	1.509000E+00	  0.099358723	3.474100E+01
398	  0.099559121	-3.520000E-01	  0.099559121	1.100610E+02	  0.099559121	1.512000E+00	  0.099559121	3.494800E+01
399	  0.099759519	-3.530000E-01	  0.099759519	1.097540E+02	  0.099759519	1.520000E+00	  0.099759519	3.514800E+01
400	  0.099959925	-3.580000E-01	  0.099959925	1.094650E+02	  0.099959925	1.545000E+00	  0.099959925	3.533600E+01
401	  0.100160323	-3.600000E-01	  0.100160323	1.091660E+02	  0.100160323	1.561000E+00	  0.100160323	3.553200E+01
402	  0.100360721	-3.610000E-01	  0.100360721	1.088180E+02	  0.100360721	1.571000E+00	  0.100360721	3.576000E+01
403	  0.100561127	-3.620000E-01	  0.100561127	1.085070E+02	  0.100561127	1.582000E+00	  0.100561127	3.596500E+01
404	  0.100761525	-3.600000E-01	  0.100761525	1.081800E+02	  0.100761525	1.582000E+00	  0.100761525	3.618200E+01
405	  0.100961931	-3.600000E-01	  0.100961931	1.078170E+02	  0.100961931	1.587000E+00	  0.100961931	3.642400E+01
406	  0.101162329	-3.620000E-01	  0.101162329	1.074830E+02	  0.101162329	1.605000E+00	  0.101162329	3.664700E+01
407	  0.101362728	-3.650000E-01	  0.101362728	1.071680E+02	  0.101362728	1.623000E+00	  0.101362728	3.685900E+01
408	  0.101563133	-3.710000E-01	  0.101563133	1.068650E+02	  0.101563133	1.658000E+00	  0.101563133	3.706200E+01
409	  0.101763532	-3.750000E-01	  0.101763532	1.065260E+02	  0.101763532	1.683000E+00	  0.101763532	3.729100E+01
410	  0.101963930	-3.700000E-01	  0.101963930	1.061960E+02	  0.101963930	1.664000E+00	  0.101963930	3.751700E+01
411	  0.102164336	-3.770000E-01	  0.102164336	1.057950E+02	  0.102164336	1.705000E+00	  0.102164336	3.778900E+01
412	  0.102364734	-3.710000E-01	  0.102364734	1.054500E+02	  0.102364734	1.690000E+00	  0.102364734	3.802700E+01
413	  0.102565132	-3.710000E-01	  0.102565132	1.051080E+02	  0.102565132	1.694000E+00	  0.102565132	3.826300E+01
414	  0.102765530	-3.740000E-01	  0.102765530	1.047400E+02	  0.102765530	1.718000E+00	  0.102765530	3.851800E+01
415	  0.102965929	-3.750000E-01	  0.102965929	1.043670E+02	  0.102965929	1.731000E+00	  0.102965929	3.877700E+01
416	  0.103166327	-3.730000E-01	  0.103166327	1.040210E+02	  0.103166327	1.728000E+00	  0.103166327	3.902000E+01
417	  0.103366733	-3.680000E-01	  0.103366733	1.036820E+02	  0.103366733	1.714000E+00	  0.103366733	3.925900E+01
418	  0.103567131	-3.670000E-01	  0.103567131	1.033620E+02	  0.103567131	1.715000E+00	  0.103567131	3.948500E+01
419	  0.103767529	-3.640000E-01	  0.103767529	1.030020E+02	  0.103767529	1.710000E+00	  0.103767529	3.974100E+01
420	  0.103967935	-3.580000E-01	  0.103967935	1.027040E+02	  0.103967935	1.693000E+00	  0.103967935	3.995400E+01
421	  0.104168333	-3.600000E-01	  0.104168333	1.023690E+02	  0.104168333	1.707000E+00	  0.104168333	4.019400E+01
422	  0.104368731	-3.560000E-01	  0.104368731	1.020860E+02	  0.104368731	1.694000E+00	  0.104368731	4.039800E+01
423	  0.104569137	-3.530000E-01	  0.104569137	1.017280E+02	  0.104569137	1.688000E+00	  0.104569137	4.065700E+01
424	  0.104769535	-3.590000E-01	  0.104769535	1.014320E+02	  0.104769535	1.724000E+00	  0.104769535	4.087200E+01
425	  0.104969934	-3.580000E-01	  0.104969934	1.011400E+02	  0.104969934	1.729000E+00	  0.104969934	4.108400E+01
426	  0.105170339	-3.510000E-01	  0.105170339	1.008740E+02	  0.105170339	1.699000E+00	  0.105170339	4.128000E+01
427	  0.105370738	-3.590000E-01	  0.105370738	1.005410E+02	  0.105370738	1.749000E+00	  0.105370738	4.152300E+01
428	  0.105571143	-3.560000E-01	  0.105571143	1.002410E+02	  0.105571143	1.740000E+00	  0.105571143	4.174500E+01
429	  0.105771542	-3.570000E-01	  0.105771542	9.998500E+01	  0.105771542	1.754000E+00	  0.105771542	4.193500E+01
430	  0.105971940	-3.550000E-01	  0.105971940	9.965100E+01	  0.105971940	1.751000E+00	  0.105971940	4.218400E+01
431	  0.106172346	-3.580000E-01	  0.106172346	9.936200E+01	  0.106172346	1.773000E+00	  0.106172346	4.239900E+01
432	  0.106372744	-3.590000E-01	  0.106372744	9.902000E+01	  0.106372744	1.789000E+00	  0.106372744	4.265600E+01
433	  0.106573142	-3.660000E-01	  0.106573142	9.869800E+01	  0.106573142	1.831000E+00	  0.106573142	4.289800E+01
434	  0.106773548	-3.650000E-01	  0.106773548	9.842800E+01	  0.106773548	1.834000E+00	  0.106773548	4.310300E+01
435	  0.106973946	-3.690000E-01	  0.106973946	9.809500E+01	  0.106973946	1.865000E+00	  0.106973946	4.335600E+01
436	  0.107174344	-3.690000E-01	  0.107174344	9.779500E+01	  0.107174344	1.869000E+00	  0.107174344	4.358600E+01
437	  0.107374750	-3.680000E-01	  0.107374750	9.747200E+01	  0.107374750	1.874000E+00	  0.107374750	4.383500E+01
438	  0.107575148	-3.640000E-01	  0.107575148	9.714500E+01	  0.107575148	1.864000E+00	  0.107575148	4.408800E+01
439	  0.107775547	-3.710000E-01	  0.107775547	9.679800E+01	  0.107775547	1.910000E+00	  0.107775547	4.435600E+01
440	  0.107975952	-3.690000E-01	  0.107975952	9.643800E+01	  0.107975952	1.912000E+00	  0.107975952	4.463800E+01
441	  0.108176351	-3.690000E-01	  0.108176351	9.609000E+01	  0.108176351	1.919000E+00	  0.108176351	4.491200E+01
442	  0.108376749	-3.700000E-01	  0.108376749	9.578300E+01	  0.108376749	1.938000E+00	  0.108376749	4.515400E+01
443	  0.108577155	-3.690000E-01	  0.108577155	9.545000E+01	  0.108577155	1.940000E+00	  0.108577155	4.541900E+01
444	  0.108777553	-3.640000E-01	  0.108777553	9.510500E+01	  0.108777553	1.925000E+00	  0.108777553	4.569500E+01
445	  0.108977959	-3.660000E-01	  0.108977959	9.482100E+01	  0.108977959	1.947000E+00	  0.108977959	4.592200E+01
446	  0.109178357	-3.610000E-01	  0.109178357	9.448100E+01	  0.109178357	1.926000E+00	  0.109178357	4.619700E+01
447	  0.109378755	-3.590000E-01	  0.109378755	9.416700E+01	  0.109378755	1.928000E+00	  0.109378755	4.645200E+01
448	  0.109579161	-3.560000E-01	  0.109579161	9.382900E+01	  0.109579161	1.920000E+00	  0.109579161	4.672700E+01
449	  0.109779559	-3.530000E-01	  0.109779559	9.352500E+01	  0.109779559	1.914000E+00	  0.109779559	4.697700E+01
450	  0.109979957	-3.580000E-01	  0.109979957	9.325500E+01	  0.109979957	1.953000E+00	  0.109979957	4.719800E+01
451	  0.110180363	-3.530000E-01	  0.110180363	9.295100E+01	  0.110180363	1.934000E+00	  0.110180363	4.745000E+01
452	  0.110380761	-3.560000E-01	  0.110380761	9.265100E+01	  0.110380761	1.961000E+00	  0.110380761	4.769900E+01
453	  0.110581160	-3.590000E-01	  0.110581160	9.232000E+01	  0.110581160	1.985000E+00	  0.110581160	4.797500E+01
454	  0.110781565	-3.570000E-01	  0.110781565	9.201200E+01	  0.110781565	1.986000E+00	  0.110781565	4.823400E+01
455	  0.110981964	-3.570000E-01	  0.110981964	9.172700E+01	  0.110981964	1.996000E+00	  0.110981964	4.847400E+01
456	  0.111182362	-3.560000E-01	  0.111182362	9.139000E+01	  0.111182362	2.001000E+00	  0.111182362	4.876000E+01
457	  0.111382768	-3.570000E-01	  0.111382768	9.109600E+01	  0.111382768	2.018000E+00	  0.111382768	4.901100E+01
458	  0.111583166	-3.590000E-01	  0.111583166	9.079900E+01	  0.111583166	2.038000E+00	  0.111583166	4.926500E+01
459	  0.111783572	-3.610000E-01	  0.111783572	9.049900E+01	  0.111783572	2.062000E+00	  0.111783572	4.952300E+01
460	  0.111983970	-3.690000E-01	  0.111983970	9.017900E+01	  0.111983970	2.117000E+00	  0.111983970	4.979800E+01
461	  0.112184368	-3.710000E-01	  0.112184368	8.985400E+01	  0.112184368	2.143000E+00	  0.112184368	5.008000E+01
462	  0.112384774	-3.710000E-01	  0.112384774	8.954300E+01	  0.112384774	2.153000E+00	  0.112384774	5.035400E+01
463	  0.112585172	-3.740000E-01	  0.112585172	8.925800E+01	  0.112585172	2.183000E+00	  0.112585172	5.060300E+01
464	  0.112785570	-3.680000E-01	  0.112785570	8.892700E+01	  0.112785570	2.162000E+00	  0.112785570	5.089700E+01
465	  0.112985976	-3.750000E-01	  0.112985976	8.858400E+01	  0.112985976	2.216000E+00	  0.112985976	5.120100E+01
466	  0.113186374	-3.730000E-01	  0.113186374	8.824800E+01	  0.113186374	2.217000E+00	  0.113186374	5.150300E+01
467	  0.113386773	-3.710000E-01	  0.113386773	8.795500E+01	  0.113386773	2.214000E+00	  0.113386773	5.176700E+01
468	  0.113587178	-3.730000E-01	  0.113587178	8.762700E+01	  0.113587178	2.244000E+00	  0.113587178	5.206400E+01
469	  0.113787577	-3.670000E-01	  0.113787577	8.732500E+01	  0.113787577	2.215000E+00	  0.113787577	5.234000E+01
470	  0.113987975	-3.660000E-01	  0.113987975	8.700000E+01	  0.113987975	2.226000E+00	  0.113987975	5.263800E+01
471	  0.114188381	-3.670000E-01	  0.114188381	8.668500E+01	  0.114188381	2.242000E+00	  0.114188381	5.292900E+01
472	  0.114388779	-3.700000E-01	  0.114388779	8.638000E+01	  0.114388779	2.277000E+00	  0.114388779	5.321000E+01
473	  0.114589177	-3.740000E-01	  0.114589177	8.605200E+01	  0.114589177	2.310000E+00	  0.114589177	5.351500E+01
474	  0.114789583	-3.680000E-01	  0.114789583	8.576500E+01	  0.114789583	2.286000E+00	  0.114789583	5.378600E+01
475	  0.114989981	-3.650000E-01	  0.114989981	8.546400E+01	  0.114989981	2.280000E+00	  0.114989981	5.407100E+01
476	  0.115190387	-3.620000E-01	  0.115190387	8.513900E+01	  0.115190387	2.276000E+00	  0.115190387	5.438000E+01
477	  0.115390785	-3.590000E-01	  0.115390785	8.486600E+01	  0.115390785	2.269000E+00	  0.115390785	5.464200E+01
478	  0.115591183	-3.660000E-01	  0.115591183	8.457800E+01	  0.115591183	2.327000E+00	  0.115591183	5.491500E+01
479	  0.115791589	-3.650000E-01	  0.115791589	8.427600E+01	  0.115791589	2.335000E+00	  0.115791589	5.520700E+01
480	  0.115991987	-3.660000E-01	  0.115991987	8.393200E+01	  0.115991987	2.355000E+00	  0.115991987	5.554000E+01
481	  0.116192386	-3.690000E-01	  0.116192386	8.367800E+01	  0.116192386	2.388000E+00	  0.116192386	5.578800E+01
482	  0.116392791	-3.660000E-01	  0.116392791	8.334700E+01	  0.116392791	2.383000E+00	  0.116392791	5.611300E+01
483	  0.116593190	-3.680000E-01	  0.116593190	8.304200E+01	  0.116593190	2.411000E+00	  0.116593190	5.641400E+01
484	  0.116793588	-3.700000E-01	  0.116793588	8.275200E+01	  0.116793588	2.437000E+00	  0.116793588	5.670200E+01
485	  0.116993994	-3.730000E-01	  0.116993994	8.241600E+01	  0.116993994	2.474000E+00	  0.116993994	5.703600E+01
486	  0.117194392	-3.710000E-01	  0.117194392	8.213800E+01	  0.117194392	2.475000E+00	  0.117194392	5.731700E+01
487	  0.117394790	-3.750000E-01	  0.117394790	8.182300E+01	  0.117394790	2.518000E+00	  0.117394790	5.763400E+01
488	  0.117595196	-3.780000E-01	  0.117595196	8.152100E+01	  0.117595196	2.556000E+00	  0.117595196	5.794100E+01
489	  0.117795594	-3.710000E-01	  0.117795594	8.118600E+01	  0.117795594	2.524000E+00	  0.117795594	5.828700E+01
490	  0.117995992	-3.740000E-01	  0.117995992	8.088400E+01	  0.117995992	2.562000E+00	  0.117995992	5.859700E+01
491	  0.118196398	-3.710000E-01	  0.118196398	8.056600E+01	  0.118196398	2.558000E+00	  0.118196398	5.892800E+01
492	  0.118396796	-3.760000E-01	  0.118396796	8.025300E+01	  0.118396796	2.608000E+00	  0.118396796	5.925300E+01
493	  0.118597202	-3.760000E-01	  0.118597202	7.995100E+01	  0.118597202	2.622000E+00	  0.118597202	5.957100E+01
494	  0.118797600	-3.760000E-01	  0.118797600	7.962500E+01	  0.118797600	2.642000E+00	  0.118797600	5.991600E+01
495	  0.118997999	-3.760000E-01	  0.118997999	7.932400E+01	  0.118997999	2.659000E+00	  0.118997999	6.023600E+01
496	  0.119198404	-3.730000E-01	  0.119198404	7.901500E+01	  0.119198404	2.651000E+00	  0.119198404	6.056800E+01
497	  0.119398803	-3.710000E-01	  0.119398803	7.872700E+01	  0.119398803	2.653000E+00	  0.119398803	6.088000E+01
498	  0.119599201	-3.760000E-01	  0.119599201	7.838100E+01	  0.119599201	2.711000E+00	  0.119599201	6.125300E+01
499	  0.119799607	-3.700000E-01	  0.119799607	7.810200E+01	  0.119799607	2.682000E+00	  0.119799607	6.156100E+01
500	  0.120000005	-3.670000E-01	  0.120000005	7.779700E+01	  0.120000005	2.677000E+00	  0.120000005	6.189700E+01
