! Anritsu VNA Master:             	Model: MS2036C/10/77
! SN:             	1601066
! /bd0/18may26.balun/2a.m3.txt
! Existing Calibration Information:
! TYPE:             	Current Settings	Active Cal Settings
! TIME:             	05/26/2018 08:04:06 PM	05/26/2018 07:26:54 PM
! INTERNAL TEMP:    	45.8 C	45.5 C
! # POINTS:         	500	500
! START FREQ:       	20.000 MHz	20.000 MHz
! STOP FREQ:        	120.000 MHz	120.000 MHz
! SOURCE POWER:     	High	High
! IFBW:             	50 Hz	50 Hz
! AVG FACTOR:       	  1 	  1 
! REF PLANE 1:      	0 mm	0 mm
! REF PLANE 2:      	0 mm	0 mm
! CAL TYPE:         	Full S11	Full S11
! CAL METHOD:       	SOLT	SOLT
! CAL LINE TYPE:    	Coax	Coax
! DUT PORT 1:       	K-Conn(M)	K-Conn(M)
! DUT PORT 2:       	K-Conn(M)	K-Conn(M)
! CAL STATUS:       	OK: Accuracy High	--
! PROP-V:       	0.700
! CABLE LOSS:       	0.000 dB/m
! REF IMPEDANCE:       	50.0
! Trace Specific Parameters:	TR1	TR2	TR3	TR4
! TRACE.#.Y (GRAPH TYPE)	LOG MAG	PHASE	REAL IMPEDANCE	IMAGINARY IMPEDANCE
! TRACE.#.X 	FREQ.GHZ	FREQ.GHZ	FREQ.GHZ	FREQ.GHZ
! S-PARAMETER	S11	S11	S11	S11
! SMOOTH/APERTURE %	0	0	0	0
! WINDOW	NSL	NSL	NSL	NSL
! GATING	OFF	OFF	OFF	OFF
! FGTD	OFF	OFF	OFF	OFF
Marker Information per Trace:	TR1	TR2	TR3	TR4
!MK1	--	--	--	--
!MK2	--	--	--	--
!MK3	--	--	--	--
!MK4	--	--	--	--
!MK5	--	--	--	--
!MK6	--	--	--	--
!MK7	--	--	--	--
!MK8	--	--	--	--
PNT	TR1.FREQ.GHZ	TR1.LOG MAG.dB	TR2.FREQ.GHZ	TR2.PHASE.deg	TR3.FREQ.GHZ	TR3.REAL IMPEDANCE.ohm	TR4.FREQ.GHZ	TR4.IMAGINARY IMPEDANCE.ohm
1	  0.020000000	-6.220000E-01	  0.020000000	-1.258250E+02	  0.020000000	2.258000E+00	  0.020000000	-2.553100E+01
2	  0.020200402	-6.180000E-01	  0.020200402	-1.273160E+02	  0.020200402	2.215000E+00	  0.020200402	-2.471700E+01
3	  0.020400802	-6.170000E-01	  0.020400802	-1.287770E+02	  0.020400802	2.183000E+00	  0.020400802	-2.393100E+01
4	  0.020601204	-6.160000E-01	  0.020601204	-1.302330E+02	  0.020601204	2.156000E+00	  0.020601204	-2.315500E+01
5	  0.020801604	-6.190000E-01	  0.020801604	-1.317150E+02	  0.020801604	2.138000E+00	  0.020801604	-2.237600E+01
6	  0.021002004	-6.230000E-01	  0.021002004	-1.332430E+02	  0.021002004	2.128000E+00	  0.021002004	-2.158100E+01
7	  0.021202406	-6.310000E-01	  0.021202406	-1.347580E+02	  0.021202406	2.132000E+00	  0.021202406	-2.080200E+01
8	  0.021402806	-6.340000E-01	  0.021402806	-1.362740E+02	  0.021402806	2.118000E+00	  0.021402806	-2.003000E+01
9	  0.021603208	-6.390000E-01	  0.021603208	-1.378000E+02	  0.021603208	2.113000E+00	  0.021603208	-1.926300E+01
10	  0.021803608	-6.430000E-01	  0.021803608	-1.393200E+02	  0.021803608	2.105000E+00	  0.021803608	-1.850500E+01
11	  0.022004008	-6.480000E-01	  0.022004008	-1.408630E+02	  0.022004008	2.102000E+00	  0.022004008	-1.774400E+01
12	  0.022204408	-6.520000E-01	  0.022204408	-1.424260E+02	  0.022204408	2.095000E+00	  0.022204408	-1.698100E+01
13	  0.022404809	-6.550000E-01	  0.022404809	-1.439930E+02	  0.022404809	2.086000E+00	  0.022404809	-1.622300E+01
14	  0.022605211	-6.540000E-01	  0.022605211	-1.455620E+02	  0.022605211	2.064000E+00	  0.022605211	-1.547100E+01
15	  0.022805611	-6.560000E-01	  0.022805611	-1.471210E+02	  0.022805611	2.053000E+00	  0.022805611	-1.473000E+01
16	  0.023006011	-6.610000E-01	  0.023006011	-1.486880E+02	  0.023006011	2.052000E+00	  0.023006011	-1.399000E+01
17	  0.023206413	-6.720000E-01	  0.023206413	-1.502610E+02	  0.023206413	2.069000E+00	  0.023206413	-1.325300E+01
18	  0.023406813	-6.790000E-01	  0.023406813	-1.518810E+02	  0.023406813	2.076000E+00	  0.023406813	-1.250100E+01
19	  0.023607215	-6.870000E-01	  0.023607215	-1.535080E+02	  0.023607215	2.086000E+00	  0.023607215	-1.175000E+01
20	  0.023807615	-6.940000E-01	  0.023807615	-1.551290E+02	  0.023807615	2.094000E+00	  0.023807615	-1.100700E+01
21	  0.024008015	-7.050000E-01	  0.024008015	-1.567410E+02	  0.024008015	2.114000E+00	  0.024008015	-1.027200E+01
22	  0.024208417	-7.150000E-01	  0.024208417	-1.583740E+02	  0.024208417	2.132000E+00	  0.024208417	-9.533000E+00
23	  0.024408817	-7.260000E-01	  0.024408817	-1.600210E+02	  0.024408817	2.154000E+00	  0.024408817	-8.791000E+00
24	  0.024609219	-7.370000E-01	  0.024609219	-1.617000E+02	  0.024609219	2.175000E+00	  0.024609219	-8.038000E+00
25	  0.024809619	-7.430000E-01	  0.024809619	-1.633910E+02	  0.024809619	2.184000E+00	  0.024809619	-7.284000E+00
26	  0.025010020	-7.480000E-01	  0.025010020	-1.650800E+02	  0.025010020	2.189000E+00	  0.025010020	-6.534000E+00
27	  0.025210422	-7.580000E-01	  0.025210422	-1.667560E+02	  0.025210422	2.210000E+00	  0.025210422	-5.793000E+00
28	  0.025410822	-7.660000E-01	  0.025410822	-1.684390E+02	  0.025410822	2.228000E+00	  0.025410822	-5.051000E+00
29	  0.025611224	-7.770000E-01	  0.025611224	-1.701300E+02	  0.025611224	2.253000E+00	  0.025611224	-4.308000E+00
30	  0.025811624	-7.850000E-01	  0.025811624	-1.718450E+02	  0.025811624	2.271000E+00	  0.025811624	-3.556000E+00
31	  0.026012026	-7.970000E-01	  0.026012026	-1.735580E+02	  0.026012026	2.301000E+00	  0.026012026	-2.807000E+00
32	  0.026212426	-8.100000E-01	  0.026212426	-1.752880E+02	  0.026212426	2.336000E+00	  0.026212426	-2.052000E+00
33	  0.026412826	-8.270000E-01	  0.026412826	-1.770250E+02	  0.026412826	2.381000E+00	  0.026412826	-1.295000E+00
34	  0.026613226	-8.450000E-01	  0.026613226	-1.787650E+02	  0.026613226	2.430000E+00	  0.026613226	-5.370000E-01
35	  0.026813626	-8.620000E-01	  0.026813626	1.794770E+02	  0.026813626	2.479000E+00	  0.026813626	2.270000E-01
36	  0.027014028	-8.780000E-01	  0.027014028	1.777240E+02	  0.027014028	2.526000E+00	  0.027014028	9.900000E-01
37	  0.027214428	-8.930000E-01	  0.027214428	1.759590E+02	  0.027214428	2.573000E+00	  0.027214428	1.758000E+00
38	  0.027414829	-9.100000E-01	  0.027414829	1.741850E+02	  0.027414829	2.625000E+00	  0.027414829	2.532000E+00
39	  0.027615231	-9.290000E-01	  0.027615231	1.724030E+02	  0.027615231	2.684000E+00	  0.027615231	3.310000E+00
40	  0.027815631	-9.510000E-01	  0.027815631	1.705790E+02	  0.027815631	2.755000E+00	  0.027815631	4.107000E+00
41	  0.028016033	-9.730000E-01	  0.028016033	1.687520E+02	  0.028016033	2.824000E+00	  0.028016033	4.907000E+00
42	  0.028216433	-9.930000E-01	  0.028216433	1.668960E+02	  0.028216433	2.893000E+00	  0.028216433	5.723000E+00
43	  0.028416833	-1.016000E+00	  0.028416833	1.650620E+02	  0.028416833	2.972000E+00	  0.028416833	6.531000E+00
44	  0.028617235	-1.040000E+00	  0.028617235	1.631980E+02	  0.028617235	3.056000E+00	  0.028617235	7.357000E+00
45	  0.028817635	-1.066000E+00	  0.028817635	1.613280E+02	  0.028817635	3.148000E+00	  0.028817635	8.188000E+00
46	  0.029018037	-1.092000E+00	  0.029018037	1.594220E+02	  0.029018037	3.243000E+00	  0.029018037	9.039000E+00
47	  0.029218437	-1.115000E+00	  0.029218437	1.575100E+02	  0.029218437	3.333000E+00	  0.029218437	9.898000E+00
48	  0.029418837	-1.135000E+00	  0.029418837	1.556110E+02	  0.029418837	3.415000E+00	  0.029418837	1.075600E+01
49	  0.029619239	-1.156000E+00	  0.029619239	1.537350E+02	  0.029619239	3.504000E+00	  0.029619239	1.161000E+01
50	  0.029819639	-1.179000E+00	  0.029819639	1.518710E+02	  0.029819639	3.602000E+00	  0.029819639	1.246400E+01
51	  0.030020041	-1.208000E+00	  0.030020041	1.500020E+02	  0.030020041	3.720000E+00	  0.030020041	1.332600E+01
52	  0.030220442	-1.240000E+00	  0.030220442	1.481150E+02	  0.030220442	3.852000E+00	  0.030220442	1.420400E+01
53	  0.030420844	-1.276000E+00	  0.030420844	1.461970E+02	  0.030420844	4.004000E+00	  0.030420844	1.510300E+01
54	  0.030621244	-1.316000E+00	  0.030621244	1.442370E+02	  0.030621244	4.171000E+00	  0.030621244	1.602900E+01
55	  0.030821644	-1.351000E+00	  0.030821644	1.422500E+02	  0.030821644	4.332000E+00	  0.030821644	1.697900E+01
56	  0.031022044	-1.381000E+00	  0.031022044	1.402450E+02	  0.031022044	4.482000E+00	  0.031022044	1.794800E+01
57	  0.031222444	-1.409000E+00	  0.031222444	1.382430E+02	  0.031222444	4.631000E+00	  0.031222444	1.892800E+01
58	  0.031422846	-1.437000E+00	  0.031422846	1.362470E+02	  0.031422846	4.788000E+00	  0.031422846	1.991700E+01
59	  0.031623244	-1.466000E+00	  0.031623244	1.342450E+02	  0.031623244	4.953000E+00	  0.031623244	2.092100E+01
60	  0.031823646	-1.488000E+00	  0.031823646	1.323010E+02	  0.031823646	5.102000E+00	  0.031823646	2.191100E+01
61	  0.032024048	-1.515000E+00	  0.032024048	1.303490E+02	  0.032024048	5.274000E+00	  0.032024048	2.291700E+01
62	  0.032224450	-1.546000E+00	  0.032224450	1.283960E+02	  0.032224450	5.466000E+00	  0.032224450	2.393800E+01
63	  0.032424849	-1.582000E+00	  0.032424849	1.264550E+02	  0.032424849	5.686000E+00	  0.032424849	2.496600E+01
64	  0.032625251	-1.623000E+00	  0.032625251	1.244770E+02	  0.032625251	5.934000E+00	  0.032625251	2.602700E+01
65	  0.032825653	-1.669000E+00	  0.032825653	1.224970E+02	  0.032825653	6.216000E+00	  0.032825653	2.710500E+01
66	  0.033026051	-1.719000E+00	  0.033026051	1.204950E+02	  0.033026051	6.523000E+00	  0.033026051	2.821200E+01
67	  0.033226453	-1.766000E+00	  0.033226453	1.184710E+02	  0.033226453	6.837000E+00	  0.033226453	2.935100E+01
68	  0.033426855	-1.818000E+00	  0.033426855	1.164310E+02	  0.033426855	7.188000E+00	  0.033426855	3.051700E+01
69	  0.033627257	-1.864000E+00	  0.033627257	1.143480E+02	  0.033627257	7.535000E+00	  0.033627257	3.173400E+01
70	  0.033827655	-1.910000E+00	  0.033827655	1.122550E+02	  0.033827655	7.903000E+00	  0.033827655	3.298200E+01
71	  0.034028057	-1.961000E+00	  0.034028057	1.101580E+02	  0.034028057	8.311000E+00	  0.034028057	3.425400E+01
72	  0.034228459	-2.009000E+00	  0.034228459	1.080470E+02	  0.034228459	8.731000E+00	  0.034228459	3.556500E+01
73	  0.034428857	-2.049000E+00	  0.034428857	1.059630E+02	  0.034428857	9.137000E+00	  0.034428857	3.689300E+01
74	  0.034629259	-2.091000E+00	  0.034629259	1.038840E+02	  0.034629259	9.576000E+00	  0.034629259	3.824700E+01
75	  0.034829661	-2.129000E+00	  0.034829661	1.018500E+02	  0.034829661	1.002100E+01	  0.034829661	3.960400E+01
76	  0.035030060	-2.171000E+00	  0.035030060	9.986000E+01	  0.035030060	1.050200E+01	  0.035030060	4.095900E+01
77	  0.035230462	-2.226000E+00	  0.035230462	9.789100E+01	  0.035230462	1.107100E+01	  0.035230462	4.231800E+01
78	  0.035430863	-2.283000E+00	  0.035430863	9.588500E+01	  0.035430863	1.169300E+01	  0.035430863	4.373100E+01
79	  0.035631265	-2.344000E+00	  0.035631265	9.387800E+01	  0.035631265	1.237200E+01	  0.035631265	4.517400E+01
80	  0.035831664	-2.409000E+00	  0.035831664	9.180100E+01	  0.035831664	1.312700E+01	  0.035831664	4.669900E+01
81	  0.036032066	-2.472000E+00	  0.036032066	8.968100E+01	  0.036032066	1.393400E+01	  0.036032066	4.829800E+01
82	  0.036232468	-2.533000E+00	  0.036232468	8.753500E+01	  0.036232468	1.479100E+01	  0.036232468	4.996200E+01
83	  0.036432866	-2.592000E+00	  0.036432866	8.534900E+01	  0.036432866	1.571200E+01	  0.036432866	5.170700E+01
84	  0.036633268	-2.644000E+00	  0.036633268	8.319900E+01	  0.036633268	1.665200E+01	  0.036633268	5.348300E+01
85	  0.036833670	-2.694000E+00	  0.036833670	8.106800E+01	  0.036833670	1.764100E+01	  0.036833670	5.529800E+01
86	  0.037034072	-2.741000E+00	  0.037034072	7.893100E+01	  0.037034072	1.869500E+01	  0.037034072	5.717400E+01
87	  0.037234470	-2.788000E+00	  0.037234470	7.682100E+01	  0.037234470	1.981700E+01	  0.037234470	5.908200E+01
88	  0.037434869	-2.834000E+00	  0.037434869	7.474800E+01	  0.037434869	2.100400E+01	  0.037434869	6.101000E+01
89	  0.037635271	-2.884000E+00	  0.037635271	7.270200E+01	  0.037635271	2.229800E+01	  0.037635271	6.295400E+01
90	  0.037835669	-2.934000E+00	  0.037835669	7.063900E+01	  0.037835669	2.370900E+01	  0.037835669	6.496600E+01
91	  0.038036071	-2.986000E+00	  0.038036071	6.857300E+01	  0.038036071	2.524800E+01	  0.038036071	6.702900E+01
92	  0.038236473	-3.051000E+00	  0.038236473	6.647300E+01	  0.038236473	2.703300E+01	  0.038236473	6.912800E+01
93	  0.038436871	-3.118000E+00	  0.038436871	6.439500E+01	  0.038436871	2.897300E+01	  0.038436871	7.123200E+01
94	  0.038637273	-3.185000E+00	  0.038637273	6.229700E+01	  0.038637273	3.108700E+01	  0.038637273	7.340000E+01
95	  0.038837675	-3.249000E+00	  0.038837675	6.017100E+01	  0.038837675	3.338400E+01	  0.038837675	7.564900E+01
96	  0.039038073	-3.310000E+00	  0.039038073	5.797500E+01	  0.039038073	3.593300E+01	  0.039038073	7.803600E+01
97	  0.039238475	-3.365000E+00	  0.039238475	5.583600E+01	  0.039238475	3.860800E+01	  0.039238475	8.041800E+01
98	  0.039438877	-3.411000E+00	  0.039438877	5.370000E+01	  0.039438877	4.144000E+01	  0.039438877	8.289700E+01
99	  0.039639279	-3.454000E+00	  0.039639279	5.163000E+01	  0.039639279	4.443700E+01	  0.039639279	8.532700E+01
100	  0.039839678	-3.499000E+00	  0.039839678	4.960600E+01	  0.039839678	4.765900E+01	  0.039839678	8.769300E+01
101	  0.040040080	-3.549000E+00	  0.040040080	4.762500E+01	  0.040040080	5.114500E+01	  0.040040080	8.994200E+01
102	  0.040240481	-3.602000E+00	  0.040240481	4.563000E+01	  0.040240481	5.499700E+01	  0.040240481	9.212800E+01
103	  0.040440880	-3.665000E+00	  0.040440880	4.361800E+01	  0.040440880	5.930900E+01	  0.040440880	9.413300E+01
104	  0.040641282	-3.731000E+00	  0.040641282	4.158300E+01	  0.040641282	6.406200E+01	  0.040641282	9.598800E+01
105	  0.040841684	-3.791000E+00	  0.040841684	3.954300E+01	  0.040841684	6.916900E+01	  0.040841684	9.775300E+01
106	  0.041042086	-3.856000E+00	  0.041042086	3.749600E+01	  0.041042086	7.476000E+01	  0.041042086	9.919900E+01
107	  0.041242484	-3.917000E+00	  0.041242484	3.543900E+01	  0.041242484	8.078000E+01	  0.041242484	1.004230E+02
108	  0.041442886	-3.975000E+00	  0.041442886	3.337100E+01	  0.041442886	8.727400E+01	  0.041442886	1.013220E+02
109	  0.041643288	-4.032000E+00	  0.041643288	3.129200E+01	  0.041643288	9.426600E+01	  0.041643288	1.017700E+02
110	  0.041843686	-4.085000E+00	  0.041843686	2.921400E+01	  0.041843686	1.016970E+02	  0.041843686	1.017380E+02
111	  0.042044088	-4.138000E+00	  0.042044088	2.714900E+01	  0.042044088	1.095170E+02	  0.042044088	1.010270E+02
112	  0.042244490	-4.187000E+00	  0.042244490	2.511700E+01	  0.042244490	1.175800E+02	  0.042244490	9.961400E+01
113	  0.042444889	-4.235000E+00	  0.042444889	2.309700E+01	  0.042444889	1.258960E+02	  0.042444889	9.737400E+01
114	  0.042645290	-4.288000E+00	  0.042645290	2.106000E+01	  0.042645290	1.344350E+02	  0.042645290	9.397100E+01
115	  0.042845692	-4.334000E+00	  0.042845692	1.902600E+01	  0.042845692	1.430510E+02	  0.042845692	8.968000E+01
116	  0.043046094	-4.381000E+00	  0.043046094	1.702500E+01	  0.043046094	1.513720E+02	  0.043046094	8.424200E+01
117	  0.043246493	-4.429000E+00	  0.043246493	1.501200E+01	  0.043246493	1.593940E+02	  0.043246493	7.756300E+01
118	  0.043446895	-4.474000E+00	  0.043446895	1.303000E+01	  0.043446895	1.667330E+02	  0.043446895	6.983900E+01
119	  0.043647297	-4.526000E+00	  0.043647297	1.103200E+01	  0.043647297	1.731800E+02	  0.043647297	6.080600E+01
120	  0.043847695	-4.572000E+00	  0.043847695	9.063000E+00	  0.043847695	1.786120E+02	  0.043847695	5.106400E+01
121	  0.044048097	-4.616000E+00	  0.044048097	7.070000E+00	  0.044048097	1.829410E+02	  0.044048097	4.044000E+01
122	  0.044248499	-4.662000E+00	  0.044248499	5.117000E+00	  0.044248499	1.857190E+02	  0.044248499	2.942300E+01
123	  0.044448901	-4.699000E+00	  0.044448901	3.163000E+00	  0.044448901	1.874000E+02	  0.044448901	1.820900E+01
124	  0.044649299	-4.740000E+00	  0.044649299	1.242000E+00	  0.044649299	1.874570E+02	  0.044649299	7.090000E+00
125	  0.044849701	-4.781000E+00	  0.044849701	-6.550000E-01	  0.044849701	1.861580E+02	  0.044849701	-3.680000E+00
126	  0.045050103	-4.825000E+00	  0.045050103	-2.564000E+00	  0.045050103	1.834430E+02	  0.045050103	-1.403900E+01
127	  0.045250501	-4.871000E+00	  0.045250501	-4.458000E+00	  0.045250501	1.795700E+02	  0.045250501	-2.362900E+01
128	  0.045450903	-4.913000E+00	  0.045450903	-6.361000E+00	  0.045450903	1.749090E+02	  0.045450903	-3.249800E+01
129	  0.045651305	-4.956000E+00	  0.045651305	-8.255000E+00	  0.045651305	1.694620E+02	  0.045651305	-4.040600E+01
130	  0.045851704	-4.998000E+00	  0.045851704	-1.015700E+01	  0.045851704	1.634850E+02	  0.045851704	-4.743600E+01
131	  0.046052106	-5.038000E+00	  0.046052106	-1.208200E+01	  0.046052106	1.570820E+02	  0.046052106	-5.362100E+01
132	  0.046252504	-5.077000E+00	  0.046252504	-1.396900E+01	  0.046252504	1.505720E+02	  0.046252504	-5.877200E+01
133	  0.046452906	-5.114000E+00	  0.046452906	-1.582600E+01	  0.046452906	1.440920E+02	  0.046452906	-6.303000E+01
134	  0.046653304	-5.152000E+00	  0.046653304	-1.767800E+01	  0.046653304	1.376130E+02	  0.046653304	-6.647300E+01
135	  0.046853706	-5.189000E+00	  0.046853706	-1.957500E+01	  0.046853706	1.311080E+02	  0.046853706	-6.932400E+01
136	  0.047054108	-5.223000E+00	  0.047054108	-2.141900E+01	  0.047054108	1.249470E+02	  0.047054108	-7.148100E+01
137	  0.047254506	-5.254000E+00	  0.047254506	-2.328400E+01	  0.047254506	1.189480E+02	  0.047254506	-7.317300E+01
138	  0.047454908	-5.291000E+00	  0.047454908	-2.514800E+01	  0.047454908	1.131510E+02	  0.047454908	-7.426000E+01
139	  0.047655310	-5.320000E+00	  0.047655310	-2.699800E+01	  0.047655310	1.076870E+02	  0.047655310	-7.502300E+01
140	  0.047855709	-5.353000E+00	  0.047855709	-2.881400E+01	  0.047855709	1.025650E+02	  0.047855709	-7.533900E+01
141	  0.048056111	-5.381000E+00	  0.048056111	-3.064300E+01	  0.048056111	9.768800E+01	  0.048056111	-7.543800E+01
142	  0.048256513	-5.409000E+00	  0.048256513	-3.243700E+01	  0.048256513	9.315400E+01	  0.048256513	-7.526200E+01
143	  0.048456915	-5.430000E+00	  0.048456915	-3.428200E+01	  0.048456915	8.875200E+01	  0.048456915	-7.497700E+01
144	  0.048657313	-5.454000E+00	  0.048657313	-3.606300E+01	  0.048657313	8.473600E+01	  0.048657313	-7.445000E+01
145	  0.048857715	-5.472000E+00	  0.048857715	-3.782000E+01	  0.048857715	8.099200E+01	  0.048857715	-7.384800E+01
146	  0.049058117	-5.494000E+00	  0.049058117	-3.952800E+01	  0.049058117	7.756200E+01	  0.049058117	-7.306300E+01
147	  0.049258515	-5.513000E+00	  0.049258515	-4.121400E+01	  0.049258515	7.435800E+01	  0.049258515	-7.223400E+01
148	  0.049458917	-5.537000E+00	  0.049458917	-4.288800E+01	  0.049458917	7.136900E+01	  0.049458917	-7.125800E+01
149	  0.049659319	-5.563000E+00	  0.049659319	-4.455100E+01	  0.049659319	6.857400E+01	  0.049659319	-7.020800E+01
150	  0.049859721	-5.587000E+00	  0.049859721	-4.623500E+01	  0.049859721	6.589800E+01	  0.049859721	-6.911900E+01
151	  0.050060119	-5.618000E+00	  0.050060119	-4.793400E+01	  0.050060119	6.338000E+01	  0.050060119	-6.790800E+01
152	  0.050260521	-5.645000E+00	  0.050260521	-4.959700E+01	  0.050260521	6.104700E+01	  0.050260521	-6.672700E+01
153	  0.050460923	-5.671000E+00	  0.050460923	-5.129400E+01	  0.050460923	5.879900E+01	  0.050460923	-6.552100E+01
154	  0.050661322	-5.693000E+00	  0.050661322	-5.300000E+01	  0.050661322	5.665100E+01	  0.050661322	-6.432400E+01
155	  0.050861724	-5.711000E+00	  0.050861724	-5.470800E+01	  0.050861724	5.461000E+01	  0.050861724	-6.314300E+01
156	  0.051062126	-5.728000E+00	  0.051062126	-5.639200E+01	  0.051062126	5.270700E+01	  0.051062126	-6.197200E+01
157	  0.051262524	-5.743000E+00	  0.051262524	-5.802400E+01	  0.051262524	5.095800E+01	  0.051262524	-6.083700E+01
158	  0.051462926	-5.756000E+00	  0.051462926	-5.965700E+01	  0.051462926	4.928800E+01	  0.051462926	-5.971800E+01
159	  0.051663328	-5.773000E+00	  0.051663328	-6.126600E+01	  0.051663328	4.774800E+01	  0.051663328	-5.858200E+01
160	  0.051863730	-5.791000E+00	  0.051863730	-6.285400E+01	  0.051863730	4.631400E+01	  0.051863730	-5.745200E+01
161	  0.052064128	-5.808000E+00	  0.052064128	-6.445800E+01	  0.052064128	4.493000E+01	  0.052064128	-5.632900E+01
162	  0.052264530	-5.825000E+00	  0.052264530	-6.604800E+01	  0.052264530	4.363300E+01	  0.052264530	-5.521700E+01
163	  0.052464932	-5.839000E+00	  0.052464932	-6.766800E+01	  0.052464932	4.236100E+01	  0.052464932	-5.411500E+01
164	  0.052665330	-5.855000E+00	  0.052665330	-6.925300E+01	  0.052665330	4.119200E+01	  0.052665330	-5.302600E+01
165	  0.052865732	-5.867000E+00	  0.052865732	-7.081600E+01	  0.052865732	4.007600E+01	  0.052865732	-5.198600E+01
166	  0.053066134	-5.882000E+00	  0.053066134	-7.240100E+01	  0.053066134	3.901200E+01	  0.053066134	-5.092400E+01
167	  0.053266536	-5.890000E+00	  0.053266536	-7.394800E+01	  0.053266536	3.799500E+01	  0.053266536	-4.992900E+01
168	  0.053466935	-5.896000E+00	  0.053466935	-7.550600E+01	  0.053466935	3.701200E+01	  0.053466935	-4.894000E+01
169	  0.053667337	-5.899000E+00	  0.053667337	-7.705200E+01	  0.053667337	3.606900E+01	  0.053667337	-4.797900E+01
170	  0.053867739	-5.904000E+00	  0.053867739	-7.854800E+01	  0.053867739	3.520500E+01	  0.053867739	-4.704900E+01
171	  0.054068137	-5.908000E+00	  0.054068137	-7.999600E+01	  0.054068137	3.440000E+01	  0.054068137	-4.616100E+01
172	  0.054268539	-5.917000E+00	  0.054268539	-8.147600E+01	  0.054268539	3.363300E+01	  0.054268539	-4.524200E+01
173	  0.054468941	-5.926000E+00	  0.054468941	-8.287800E+01	  0.054468941	3.293800E+01	  0.054468941	-4.437900E+01
174	  0.054669339	-5.937000E+00	  0.054669339	-8.427900E+01	  0.054669339	3.228100E+01	  0.054669339	-4.351700E+01
175	  0.054869737	-5.953000E+00	  0.054869737	-8.570500E+01	  0.054869737	3.165700E+01	  0.054869737	-4.263700E+01
176	  0.055070139	-5.970000E+00	  0.055070139	-8.715700E+01	  0.055070139	3.104900E+01	  0.055070139	-4.175200E+01
177	  0.055270538	-5.985000E+00	  0.055270538	-8.860900E+01	  0.055270538	3.046200E+01	  0.055270538	-4.088100E+01
178	  0.055470940	-5.997000E+00	  0.055470940	-9.005900E+01	  0.055470940	2.989000E+01	  0.055470940	-4.003000E+01
179	  0.055671342	-6.013000E+00	  0.055671342	-9.153700E+01	  0.055671342	2.934100E+01	  0.055671342	-3.916500E+01
180	  0.055871744	-6.020000E+00	  0.055871744	-9.299500E+01	  0.055871744	2.879600E+01	  0.055871744	-3.834100E+01
181	  0.056072142	-6.027000E+00	  0.056072142	-9.446000E+01	  0.056072142	2.826900E+01	  0.056072142	-3.752500E+01
182	  0.056272544	-6.036000E+00	  0.056272544	-9.589000E+01	  0.056272544	2.777900E+01	  0.056272544	-3.673300E+01
183	  0.056472946	-6.041000E+00	  0.056472946	-9.729700E+01	  0.056472946	2.730600E+01	  0.056472946	-3.596800E+01
184	  0.056673344	-6.048000E+00	  0.056673344	-9.870900E+01	  0.056673344	2.685600E+01	  0.056673344	-3.520500E+01
185	  0.056873746	-6.052000E+00	  0.056873746	-1.000930E+02	  0.056873746	2.642000E+01	  0.056873746	-3.447100E+01
186	  0.057074148	-6.055000E+00	  0.057074148	-1.014130E+02	  0.057074148	2.601800E+01	  0.057074148	-3.378000E+01
187	  0.057274550	-6.065000E+00	  0.057274550	-1.028000E+02	  0.057274550	2.563300E+01	  0.057274550	-3.304600E+01
188	  0.057474948	-6.071000E+00	  0.057474948	-1.041500E+02	  0.057474948	2.526200E+01	  0.057474948	-3.234600E+01
189	  0.057675350	-6.079000E+00	  0.057675350	-1.055130E+02	  0.057675350	2.490600E+01	  0.057675350	-3.164200E+01
190	  0.057875752	-6.087000E+00	  0.057875752	-1.068780E+02	  0.057875752	2.456400E+01	  0.057875752	-3.094500E+01
191	  0.058076151	-6.090000E+00	  0.058076151	-1.082220E+02	  0.058076151	2.422500E+01	  0.058076151	-3.027300E+01
192	  0.058276553	-6.093000E+00	  0.058276553	-1.095550E+02	  0.058276553	2.390000E+01	  0.058276553	-2.961200E+01
193	  0.058476955	-6.097000E+00	  0.058476955	-1.108970E+02	  0.058476955	2.358500E+01	  0.058476955	-2.895200E+01
194	  0.058677353	-6.093000E+00	  0.058677353	-1.122120E+02	  0.058677353	2.326700E+01	  0.058677353	-2.832200E+01
195	  0.058877755	-6.098000E+00	  0.058877755	-1.135240E+02	  0.058877755	2.298500E+01	  0.058877755	-2.768500E+01
196	  0.059078157	-6.094000E+00	  0.059078157	-1.147980E+02	  0.059078157	2.269600E+01	  0.059078157	-2.708300E+01
197	  0.059278559	-6.095000E+00	  0.059278559	-1.160590E+02	  0.059278559	2.243300E+01	  0.059278559	-2.648600E+01
198	  0.059478957	-6.102000E+00	  0.059478957	-1.172600E+02	  0.059478957	2.220700E+01	  0.059478957	-2.591400E+01
199	  0.059679359	-6.111000E+00	  0.059679359	-1.185080E+02	  0.059679359	2.198800E+01	  0.059679359	-2.532100E+01
200	  0.059879761	-6.112000E+00	  0.059879761	-1.197610E+02	  0.059879761	2.175300E+01	  0.059879761	-2.474000E+01
201	  0.060080159	-6.123000E+00	  0.060080159	-1.209650E+02	  0.060080159	2.156300E+01	  0.060080159	-2.417400E+01
202	  0.060280561	-6.131000E+00	  0.060280561	-1.222360E+02	  0.060280561	2.136000E+01	  0.060280561	-2.358600E+01
203	  0.060480963	-6.141000E+00	  0.060480963	-1.235020E+02	  0.060480963	2.117000E+01	  0.060480963	-2.300200E+01
204	  0.060681365	-6.149000E+00	  0.060681365	-1.247590E+02	  0.060681365	2.098500E+01	  0.060681365	-2.242900E+01
205	  0.060881764	-6.155000E+00	  0.060881764	-1.260270E+02	  0.060881764	2.079600E+01	  0.060881764	-2.185800E+01
206	  0.061082166	-6.158000E+00	  0.061082166	-1.272740E+02	  0.061082166	2.061200E+01	  0.061082166	-2.130200E+01
207	  0.061282568	-6.163000E+00	  0.061282568	-1.285470E+02	  0.061282568	2.043500E+01	  0.061282568	-2.073700E+01
208	  0.061482966	-6.163000E+00	  0.061482966	-1.297930E+02	  0.061482966	2.025200E+01	  0.061482966	-2.019300E+01
209	  0.061683368	-6.164000E+00	  0.061683368	-1.310260E+02	  0.061683368	2.008200E+01	  0.061683368	-1.965600E+01
210	  0.061883770	-6.166000E+00	  0.061883770	-1.322310E+02	  0.061883770	1.992400E+01	  0.061883770	-1.913400E+01
211	  0.062084168	-6.166000E+00	  0.062084168	-1.334670E+02	  0.062084168	1.976500E+01	  0.062084168	-1.860200E+01
212	  0.062284570	-6.169000E+00	  0.062284570	-1.346510E+02	  0.062284570	1.962300E+01	  0.062284570	-1.809300E+01
213	  0.062484972	-6.162000E+00	  0.062484972	-1.357890E+02	  0.062484972	1.946600E+01	  0.062484972	-1.761500E+01
214	  0.062685370	-6.163000E+00	  0.062685370	-1.369670E+02	  0.062685370	1.933000E+01	  0.062685370	-1.711600E+01
215	  0.062885776	-6.167000E+00	  0.062885776	-1.381520E+02	  0.062885776	1.920500E+01	  0.062885776	-1.661400E+01
216	  0.063086174	-6.168000E+00	  0.063086174	-1.393770E+02	  0.063086174	1.907600E+01	  0.063086174	-1.609900E+01
217	  0.063286573	-6.168000E+00	  0.063286573	-1.405610E+02	  0.063286573	1.895100E+01	  0.063286573	-1.560500E+01
218	  0.063486971	-6.166000E+00	  0.063486971	-1.417060E+02	  0.063486971	1.882800E+01	  0.063486971	-1.513200E+01
219	  0.063687377	-6.165000E+00	  0.063687377	-1.428950E+02	  0.063687377	1.871000E+01	  0.063687377	-1.464000E+01
220	  0.063887775	-6.162000E+00	  0.063887775	-1.440390E+02	  0.063887775	1.859500E+01	  0.063887775	-1.417100E+01
221	  0.064088173	-6.160000E+00	  0.064088173	-1.452050E+02	  0.064088173	1.848300E+01	  0.064088173	-1.369400E+01
222	  0.064288579	-6.163000E+00	  0.064288579	-1.463180E+02	  0.064288579	1.839600E+01	  0.064288579	-1.323700E+01
223	  0.064488977	-6.163000E+00	  0.064488977	-1.474170E+02	  0.064488977	1.830300E+01	  0.064488977	-1.279000E+01
224	  0.064689375	-6.167000E+00	  0.064689375	-1.485390E+02	  0.064689375	1.822400E+01	  0.064689375	-1.233300E+01
225	  0.064889781	-6.169000E+00	  0.064889781	-1.496420E+02	  0.064889781	1.814500E+01	  0.064889781	-1.188600E+01
226	  0.065090179	-6.172000E+00	  0.065090179	-1.507760E+02	  0.065090179	1.807000E+01	  0.065090179	-1.142800E+01
227	  0.065290578	-6.174000E+00	  0.065290578	-1.518670E+02	  0.065290578	1.799800E+01	  0.065290578	-1.098900E+01
228	  0.065490983	-6.178000E+00	  0.065490983	-1.529770E+02	  0.065490983	1.793300E+01	  0.065490983	-1.054300E+01
229	  0.065691382	-6.181000E+00	  0.065691382	-1.540850E+02	  0.065691382	1.787000E+01	  0.065691382	-1.009900E+01
230	  0.065891780	-6.187000E+00	  0.065891780	-1.551680E+02	  0.065891780	1.781800E+01	  0.065891780	-9.666000E+00
231	  0.066092186	-6.186000E+00	  0.066092186	-1.562600E+02	  0.066092186	1.775300E+01	  0.066092186	-9.233000E+00
232	  0.066292584	-6.188000E+00	  0.066292584	-1.573880E+02	  0.066292584	1.769600E+01	  0.066292584	-8.786000E+00
233	  0.066492982	-6.191000E+00	  0.066492982	-1.584770E+02	  0.066492982	1.764600E+01	  0.066492982	-8.355000E+00
234	  0.066693388	-6.191000E+00	  0.066693388	-1.595550E+02	  0.066693388	1.759000E+01	  0.066693388	-7.931000E+00
235	  0.066893786	-6.193000E+00	  0.066893786	-1.606480E+02	  0.066893786	1.754500E+01	  0.066893786	-7.501000E+00
236	  0.067094192	-6.191000E+00	  0.067094192	-1.617250E+02	  0.067094192	1.749100E+01	  0.067094192	-7.079000E+00
237	  0.067294590	-6.194000E+00	  0.067294590	-1.627520E+02	  0.067294590	1.745700E+01	  0.067294590	-6.676000E+00
238	  0.067494988	-6.191000E+00	  0.067494988	-1.637950E+02	  0.067494988	1.740600E+01	  0.067494988	-6.270000E+00
239	  0.067695394	-6.189000E+00	  0.067695394	-1.648260E+02	  0.067695394	1.736500E+01	  0.067695394	-5.868000E+00
240	  0.067895792	-6.189000E+00	  0.067895792	-1.658530E+02	  0.067895792	1.732800E+01	  0.067895792	-5.468000E+00
241	  0.068096191	-6.192000E+00	  0.068096191	-1.668710E+02	  0.068096191	1.730500E+01	  0.068096191	-5.072000E+00
242	  0.068296596	-6.198000E+00	  0.068296596	-1.678990E+02	  0.068296596	1.728800E+01	  0.068296596	-4.672000E+00
243	  0.068496995	-6.198000E+00	  0.068496995	-1.688890E+02	  0.068496995	1.726200E+01	  0.068496995	-4.288000E+00
244	  0.068697393	-6.200000E+00	  0.068697393	-1.699390E+02	  0.068697393	1.724300E+01	  0.068697393	-3.881000E+00
245	  0.068897791	-6.201000E+00	  0.068897791	-1.709150E+02	  0.068897791	1.722400E+01	  0.068897791	-3.503000E+00
246	  0.069098189	-6.206000E+00	  0.069098189	-1.718790E+02	  0.069098189	1.721600E+01	  0.069098189	-3.130000E+00
247	  0.069298595	-6.207000E+00	  0.069298595	-1.728920E+02	  0.069298595	1.720100E+01	  0.069298595	-2.738000E+00
248	  0.069498993	-6.217000E+00	  0.069498993	-1.738550E+02	  0.069498993	1.721200E+01	  0.069498993	-2.366000E+00
249	  0.069699399	-6.221000E+00	  0.069699399	-1.748490E+02	  0.069699399	1.720800E+01	  0.069699399	-1.983000E+00
250	  0.069899797	-6.229000E+00	  0.069899797	-1.758290E+02	  0.069899797	1.721900E+01	  0.069899797	-1.604000E+00
251	  0.070100196	-6.233000E+00	  0.070100196	-1.768140E+02	  0.070100196	1.721900E+01	  0.070100196	-1.225000E+00
252	  0.070300601	-6.242000E+00	  0.070300601	-1.778090E+02	  0.070300601	1.723700E+01	  0.070300601	-8.420000E-01
253	  0.070501000	-6.248000E+00	  0.070501000	-1.787890E+02	  0.070501000	1.724900E+01	  0.070501000	-4.650000E-01
254	  0.070701398	-6.257000E+00	  0.070701398	-1.797770E+02	  0.070701398	1.727000E+01	  0.070701398	-8.500000E-02
255	  0.070901804	-6.265000E+00	  0.070901804	1.792340E+02	  0.070901804	1.729100E+01	  0.070901804	2.940000E-01
256	  0.071102202	-6.269000E+00	  0.071102202	1.782310E+02	  0.071102202	1.730200E+01	  0.071102202	6.790000E-01
257	  0.071302600	-6.277000E+00	  0.071302600	1.772240E+02	  0.071302600	1.732800E+01	  0.071302600	1.066000E+00
258	  0.071503006	-6.282000E+00	  0.071503006	1.762680E+02	  0.071503006	1.735000E+01	  0.071503006	1.432000E+00
259	  0.071703404	-6.289000E+00	  0.071703404	1.752580E+02	  0.071703404	1.737700E+01	  0.071703404	1.820000E+00
260	  0.071903802	-6.293000E+00	  0.071903802	1.742870E+02	  0.071903802	1.740000E+01	  0.071903802	2.193000E+00
261	  0.072104208	-6.304000E+00	  0.072104208	1.733010E+02	  0.072104208	1.744000E+01	  0.072104208	2.571000E+00
262	  0.072304606	-6.307000E+00	  0.072304606	1.723500E+02	  0.072304606	1.746300E+01	  0.072304606	2.936000E+00
263	  0.072505005	-6.311000E+00	  0.072505005	1.714140E+02	  0.072505005	1.749200E+01	  0.072505005	3.296000E+00
264	  0.072705410	-6.312000E+00	  0.072705410	1.704530E+02	  0.072705410	1.751600E+01	  0.072705410	3.665000E+00
265	  0.072905809	-6.321000E+00	  0.072905809	1.694800E+02	  0.072905809	1.756200E+01	  0.072905809	4.039000E+00
266	  0.073106214	-6.326000E+00	  0.073106214	1.685210E+02	  0.073106214	1.760000E+01	  0.073106214	4.407000E+00
267	  0.073306613	-6.332000E+00	  0.073306613	1.675920E+02	  0.073306613	1.764000E+01	  0.073306613	4.765000E+00
268	  0.073507011	-6.340000E+00	  0.073507011	1.666460E+02	  0.073507011	1.768800E+01	  0.073507011	5.129000E+00
269	  0.073707417	-6.340000E+00	  0.073707417	1.657440E+02	  0.073707417	1.771800E+01	  0.073707417	5.477000E+00
270	  0.073907815	-6.347000E+00	  0.073907815	1.648560E+02	  0.073907815	1.776700E+01	  0.073907815	5.819000E+00
271	  0.074108213	-6.354000E+00	  0.074108213	1.638950E+02	  0.074108213	1.782100E+01	  0.074108213	6.190000E+00
272	  0.074308619	-6.363000E+00	  0.074308619	1.629970E+02	  0.074308619	1.788200E+01	  0.074308619	6.536000E+00
273	  0.074509017	-6.369000E+00	  0.074509017	1.620830E+02	  0.074509017	1.793500E+01	  0.074509017	6.889000E+00
274	  0.074709415	-6.382000E+00	  0.074709415	1.611720E+02	  0.074709415	1.800800E+01	  0.074709415	7.239000E+00
275	  0.074909821	-6.389000E+00	  0.074909821	1.602420E+02	  0.074909821	1.806900E+01	  0.074909821	7.599000E+00
276	  0.075110219	-6.398000E+00	  0.075110219	1.593870E+02	  0.075110219	1.813300E+01	  0.075110219	7.929000E+00
277	  0.075310618	-6.411000E+00	  0.075310618	1.584640E+02	  0.075310618	1.821500E+01	  0.075310618	8.285000E+00
278	  0.075511023	-6.418000E+00	  0.075511023	1.575410E+02	  0.075511023	1.828200E+01	  0.075511023	8.643000E+00
279	  0.075711422	-6.429000E+00	  0.075711422	1.566200E+02	  0.075711422	1.836300E+01	  0.075711422	8.999000E+00
280	  0.075911827	-6.439000E+00	  0.075911827	1.557230E+02	  0.075911827	1.844200E+01	  0.075911827	9.347000E+00
281	  0.076112226	-6.445000E+00	  0.076112226	1.548360E+02	  0.076112226	1.851100E+01	  0.076112226	9.693000E+00
282	  0.076312624	-6.454000E+00	  0.076312624	1.539160E+02	  0.076312624	1.859400E+01	  0.076312624	1.005100E+01
283	  0.076513030	-6.466000E+00	  0.076513030	1.530250E+02	  0.076513030	1.868500E+01	  0.076513030	1.039700E+01
284	  0.076713428	-6.470000E+00	  0.076713428	1.521180E+02	  0.076713428	1.875700E+01	  0.076713428	1.075300E+01
285	  0.076913826	-6.481000E+00	  0.076913826	1.512700E+02	  0.076913826	1.884700E+01	  0.076913826	1.108300E+01
286	  0.077114232	-6.490000E+00	  0.077114232	1.504060E+02	  0.077114232	1.893600E+01	  0.077114232	1.142000E+01
287	  0.077314630	-6.500000E+00	  0.077314630	1.495410E+02	  0.077314630	1.902700E+01	  0.077314630	1.175900E+01
288	  0.077515028	-6.512000E+00	  0.077515028	1.486980E+02	  0.077515028	1.912500E+01	  0.077515028	1.208800E+01
289	  0.077715434	-6.528000E+00	  0.077715434	1.478220E+02	  0.077715434	1.923900E+01	  0.077715434	1.242800E+01
290	  0.077915832	-6.535000E+00	  0.077915832	1.469970E+02	  0.077915832	1.932900E+01	  0.077915832	1.275300E+01
291	  0.078116231	-6.551000E+00	  0.078116231	1.461530E+02	  0.078116231	1.944500E+01	  0.078116231	1.308200E+01
292	  0.078316636	-6.562000E+00	  0.078316636	1.452930E+02	  0.078316636	1.955000E+01	  0.078316636	1.342000E+01
293	  0.078517035	-6.579000E+00	  0.078517035	1.444240E+02	  0.078517035	1.967500E+01	  0.078517035	1.375800E+01
294	  0.078717433	-6.586000E+00	  0.078717433	1.435740E+02	  0.078717433	1.977700E+01	  0.078717433	1.409500E+01
295	  0.078917839	-6.598000E+00	  0.078917839	1.427740E+02	  0.078917839	1.988900E+01	  0.078917839	1.441000E+01
296	  0.079118237	-6.615000E+00	  0.079118237	1.419170E+02	  0.079118237	2.002000E+01	  0.079118237	1.474500E+01
297	  0.079318643	-6.627000E+00	  0.079318643	1.411000E+02	  0.079318643	2.013700E+01	  0.079318643	1.506800E+01
298	  0.079519041	-6.647000E+00	  0.079519041	1.402640E+02	  0.079519041	2.028100E+01	  0.079519041	1.539200E+01
299	  0.079719439	-6.667000E+00	  0.079719439	1.394070E+02	  0.079719439	2.042800E+01	  0.079719439	1.572600E+01
300	  0.079919845	-6.683000E+00	  0.079919845	1.385770E+02	  0.079919845	2.056800E+01	  0.079919845	1.605200E+01
301	  0.080120243	-6.704000E+00	  0.080120243	1.377780E+02	  0.080120243	2.071700E+01	  0.080120243	1.636100E+01
302	  0.080320641	-6.727000E+00	  0.080320641	1.369150E+02	  0.080320641	2.088300E+01	  0.080320641	1.669500E+01
303	  0.080521047	-6.747000E+00	  0.080521047	1.360780E+02	  0.080521047	2.103900E+01	  0.080521047	1.702200E+01
304	  0.080721445	-6.767000E+00	  0.080721445	1.352540E+02	  0.080721445	2.119800E+01	  0.080721445	1.734300E+01
305	  0.080921844	-6.785000E+00	  0.080921844	1.343870E+02	  0.080921844	2.135800E+01	  0.080921844	1.768400E+01
306	  0.081122249	-6.801000E+00	  0.081122249	1.335010E+02	  0.081122249	2.152100E+01	  0.081122249	1.803500E+01
307	  0.081322648	-6.823000E+00	  0.081322648	1.326520E+02	  0.081322648	2.169700E+01	  0.081322648	1.836500E+01
308	  0.081523046	-6.837000E+00	  0.081523046	1.317970E+02	  0.081523046	2.185600E+01	  0.081523046	1.870500E+01
309	  0.081723452	-6.854000E+00	  0.081723452	1.309700E+02	  0.081723452	2.202200E+01	  0.081723452	1.903200E+01
310	  0.081923850	-6.876000E+00	  0.081923850	1.301840E+02	  0.081923850	2.219800E+01	  0.081923850	1.933700E+01
311	  0.082124248	-6.892000E+00	  0.082124248	1.293650E+02	  0.082124248	2.236700E+01	  0.082124248	1.966200E+01
312	  0.082324654	-6.903000E+00	  0.082324654	1.285330E+02	  0.082324654	2.252500E+01	  0.082324654	1.999800E+01
313	  0.082525052	-6.919000E+00	  0.082525052	1.277530E+02	  0.082525052	2.269500E+01	  0.082525052	2.030600E+01
314	  0.082725458	-6.943000E+00	  0.082725458	1.269810E+02	  0.082725458	2.288700E+01	  0.082725458	2.060400E+01
315	  0.082925856	-6.966000E+00	  0.082925856	1.262230E+02	  0.082925856	2.307500E+01	  0.082925856	2.089700E+01
316	  0.083126254	-6.983000E+00	  0.083126254	1.254460E+02	  0.083126254	2.325500E+01	  0.083126254	2.120400E+01
317	  0.083326660	-7.006000E+00	  0.083326660	1.246730E+02	  0.083326660	2.345400E+01	  0.083326660	2.150300E+01
318	  0.083527058	-7.026000E+00	  0.083527058	1.238610E+02	  0.083527058	2.365300E+01	  0.083527058	2.182200E+01
319	  0.083727457	-7.046000E+00	  0.083727457	1.231050E+02	  0.083727457	2.384600E+01	  0.083727457	2.211700E+01
320	  0.083927862	-7.064000E+00	  0.083927862	1.223130E+02	  0.083927862	2.404600E+01	  0.083927862	2.242900E+01
321	  0.084128261	-7.081000E+00	  0.084128261	1.215760E+02	  0.084128261	2.423200E+01	  0.084128261	2.272100E+01
322	  0.084328659	-7.106000E+00	  0.084328659	1.208130E+02	  0.084328659	2.445000E+01	  0.084328659	2.301200E+01
323	  0.084529065	-7.126000E+00	  0.084529065	1.200890E+02	  0.084529065	2.465000E+01	  0.084529065	2.329300E+01
324	  0.084729463	-7.148000E+00	  0.084729463	1.193320E+02	  0.084729463	2.486600E+01	  0.084729463	2.358600E+01
325	  0.084929861	-7.172000E+00	  0.084929861	1.185950E+02	  0.084929861	2.508500E+01	  0.084929861	2.386700E+01
326	  0.085130267	-7.195000E+00	  0.085130267	1.178770E+02	  0.085130267	2.530100E+01	  0.085130267	2.414100E+01
327	  0.085330658	-7.219000E+00	  0.085330658	1.171110E+02	  0.085330658	2.553500E+01	  0.085330658	2.443300E+01
328	  0.085531056	-7.246000E+00	  0.085531056	1.163910E+02	  0.085531056	2.576800E+01	  0.085531056	2.470200E+01
329	  0.085731462	-7.271000E+00	  0.085731462	1.156910E+02	  0.085731462	2.599700E+01	  0.085731462	2.496300E+01
330	  0.085931860	-7.302000E+00	  0.085931860	1.149040E+02	  0.085931860	2.626500E+01	  0.085931860	2.525200E+01
331	  0.086132258	-7.325000E+00	  0.086132258	1.141500E+02	  0.086132258	2.650400E+01	  0.086132258	2.554000E+01
332	  0.086332664	-7.343000E+00	  0.086332664	1.134130E+02	  0.086332664	2.673300E+01	  0.086332664	2.582600E+01
333	  0.086533062	-7.367000E+00	  0.086533062	1.126450E+02	  0.086533062	2.698800E+01	  0.086533062	2.611600E+01
334	  0.086733460	-7.392000E+00	  0.086733460	1.119080E+02	  0.086733460	2.724000E+01	  0.086733460	2.639200E+01
335	  0.086933866	-7.410000E+00	  0.086933866	1.112260E+02	  0.086933866	2.746400E+01	  0.086933866	2.665400E+01
336	  0.087134264	-7.434000E+00	  0.087134264	1.104640E+02	  0.087134264	2.772900E+01	  0.087134264	2.693900E+01
337	  0.087334670	-7.451000E+00	  0.087334670	1.098070E+02	  0.087334670	2.795000E+01	  0.087334670	2.719100E+01
338	  0.087535068	-7.475000E+00	  0.087535068	1.091430E+02	  0.087535068	2.819500E+01	  0.087535068	2.743500E+01
339	  0.087735467	-7.498000E+00	  0.087735467	1.084530E+02	  0.087735467	2.844900E+01	  0.087735467	2.768800E+01
340	  0.087935872	-7.521000E+00	  0.087935872	1.077890E+02	  0.087935872	2.869700E+01	  0.087935872	2.793200E+01
341	  0.088136271	-7.549000E+00	  0.088136271	1.071590E+02	  0.088136271	2.895300E+01	  0.088136271	2.815000E+01
342	  0.088336669	-7.579000E+00	  0.088336669	1.065170E+02	  0.088336669	2.922400E+01	  0.088336669	2.836700E+01
343	  0.088537075	-7.606000E+00	  0.088537075	1.058240E+02	  0.088537075	2.950200E+01	  0.088537075	2.861100E+01
344	  0.088737473	-7.632000E+00	  0.088737473	1.051600E+02	  0.088737473	2.977200E+01	  0.088737473	2.884400E+01
345	  0.088937871	-7.662000E+00	  0.088937871	1.044690E+02	  0.088937871	3.006700E+01	  0.088937871	2.907900E+01
346	  0.089138277	-7.686000E+00	  0.089138277	1.038120E+02	  0.089138277	3.033500E+01	  0.089138277	2.931000E+01
347	  0.089338675	-7.716000E+00	  0.089338675	1.031610E+02	  0.089338675	3.062300E+01	  0.089338675	2.952600E+01
348	  0.089539073	-7.744000E+00	  0.089539073	1.024940E+02	  0.089539073	3.091400E+01	  0.089539073	2.974900E+01
349	  0.089739479	-7.767000E+00	  0.089739479	1.019040E+02	  0.089739479	3.116900E+01	  0.089739479	2.995000E+01
350	  0.089939877	-7.790000E+00	  0.089939877	1.012040E+02	  0.089939877	3.146200E+01	  0.089939877	3.019700E+01
351	  0.090140276	-7.823000E+00	  0.090140276	1.006060E+02	  0.090140276	3.175400E+01	  0.090140276	3.037700E+01
352	  0.090340681	-7.850000E+00	  0.090340681	9.995600E+01	  0.090340681	3.205000E+01	  0.090340681	3.059000E+01
353	  0.090541080	-7.880000E+00	  0.090541080	9.934600E+01	  0.090541080	3.234500E+01	  0.090541080	3.077700E+01
354	  0.090741485	-7.913000E+00	  0.090741485	9.875000E+01	  0.090741485	3.264400E+01	  0.090741485	3.095000E+01
355	  0.090941884	-7.945000E+00	  0.090941884	9.813800E+01	  0.090941884	3.295000E+01	  0.090941884	3.113000E+01
356	  0.091142282	-7.975000E+00	  0.091142282	9.749900E+01	  0.091142282	3.326300E+01	  0.091142282	3.132300E+01
357	  0.091342688	-8.001000E+00	  0.091342688	9.688700E+01	  0.091342688	3.355600E+01	  0.091342688	3.151600E+01
358	  0.091543086	-8.029000E+00	  0.091543086	9.624600E+01	  0.091543086	3.387300E+01	  0.091543086	3.171000E+01
359	  0.091743484	-8.053000E+00	  0.091743484	9.561400E+01	  0.091743484	3.417600E+01	  0.091743484	3.190900E+01
360	  0.091943890	-8.082000E+00	  0.091943890	9.506400E+01	  0.091943890	3.446400E+01	  0.091943890	3.206200E+01
361	  0.092144288	-8.106000E+00	  0.092144288	9.448100E+01	  0.092144288	3.475700E+01	  0.092144288	3.223700E+01
362	  0.092344686	-8.128000E+00	  0.092344686	9.394000E+01	  0.092344686	3.502700E+01	  0.092344686	3.240200E+01
363	  0.092545092	-8.151000E+00	  0.092545092	9.332300E+01	  0.092545092	3.533500E+01	  0.092545092	3.259000E+01
364	  0.092745490	-8.176000E+00	  0.092745490	9.280400E+01	  0.092745490	3.561200E+01	  0.092745490	3.273200E+01
365	  0.092945889	-8.203000E+00	  0.092945889	9.231400E+01	  0.092945889	3.588500E+01	  0.092945889	3.285400E+01
366	  0.093146294	-8.230000E+00	  0.093146294	9.177900E+01	  0.093146294	3.617800E+01	  0.093146294	3.299400E+01
367	  0.093346693	-8.265000E+00	  0.093346693	9.128700E+01	  0.093346693	3.647400E+01	  0.093346693	3.309400E+01
368	  0.093547091	-8.289000E+00	  0.093547091	9.075900E+01	  0.093547091	3.675900E+01	  0.093547091	3.323600E+01
369	  0.093747497	-8.319000E+00	  0.093747497	9.026700E+01	  0.093747497	3.704800E+01	  0.093747497	3.334300E+01
370	  0.093947895	-8.346000E+00	  0.093947895	8.970700E+01	  0.093947895	3.736200E+01	  0.093947895	3.348300E+01
371	  0.094148301	-8.380000E+00	  0.094148301	8.918500E+01	  0.094148301	3.767600E+01	  0.094148301	3.358900E+01
372	  0.094348699	-8.404000E+00	  0.094348699	8.865000E+01	  0.094348699	3.797600E+01	  0.094348699	3.372100E+01
373	  0.094549097	-8.443000E+00	  0.094549097	8.816100E+01	  0.094549097	3.829300E+01	  0.094549097	3.379400E+01
374	  0.094749503	-8.462000E+00	  0.094749503	8.765900E+01	  0.094749503	3.857000E+01	  0.094749503	3.392600E+01
375	  0.094949901	-8.487000E+00	  0.094949901	8.716100E+01	  0.094949901	3.886000E+01	  0.094949901	3.403800E+01
376	  0.095150299	-8.512000E+00	  0.095150299	8.662900E+01	  0.095150299	3.916800E+01	  0.095150299	3.416100E+01
377	  0.095350705	-8.530000E+00	  0.095350705	8.612800E+01	  0.095350705	3.944700E+01	  0.095350705	3.429200E+01
378	  0.095551103	-8.562000E+00	  0.095551103	8.566000E+01	  0.095551103	3.974700E+01	  0.095551103	3.436400E+01
379	  0.095751502	-8.586000E+00	  0.095751502	8.517200E+01	  0.095751502	4.003900E+01	  0.095751502	3.446600E+01
380	  0.095951907	-8.609000E+00	  0.095951907	8.470300E+01	  0.095951907	4.032200E+01	  0.095951907	3.456100E+01
381	  0.096152306	-8.632000E+00	  0.096152306	8.426700E+01	  0.096152306	4.058900E+01	  0.096152306	3.464400E+01
382	  0.096352704	-8.652000E+00	  0.096352704	8.375600E+01	  0.096352704	4.088800E+01	  0.096352704	3.476200E+01
383	  0.096553110	-8.673000E+00	  0.096553110	8.326000E+01	  0.096553110	4.118400E+01	  0.096553110	3.486900E+01
384	  0.096753508	-8.694000E+00	  0.096753508	8.278800E+01	  0.096753508	4.147100E+01	  0.096753508	3.496500E+01
385	  0.096953906	-8.713000E+00	  0.096953906	8.234500E+01	  0.096953906	4.174000E+01	  0.096953906	3.505500E+01
386	  0.097154312	-8.726000E+00	  0.097154312	8.191200E+01	  0.097154312	4.199300E+01	  0.097154312	3.515900E+01
387	  0.097354710	-8.746000E+00	  0.097354710	8.150400E+01	  0.097354710	4.224900E+01	  0.097354710	3.523100E+01
388	  0.097555116	-8.756000E+00	  0.097555116	8.105100E+01	  0.097555116	4.250600E+01	  0.097555116	3.535300E+01
389	  0.097755514	-8.775000E+00	  0.097755514	8.065100E+01	  0.097755514	4.276000E+01	  0.097755514	3.542000E+01
390	  0.097955912	-8.784000E+00	  0.097955912	8.022300E+01	  0.097955912	4.300600E+01	  0.097955912	3.553400E+01
391	  0.098156318	-8.799000E+00	  0.098156318	7.982900E+01	  0.098156318	4.325200E+01	  0.098156318	3.560900E+01
392	  0.098356716	-8.814000E+00	  0.098356716	7.945000E+01	  0.098356716	4.348900E+01	  0.098356716	3.568100E+01
393	  0.098557115	-8.830000E+00	  0.098557115	7.907600E+01	  0.098557115	4.372600E+01	  0.098557115	3.574700E+01
394	  0.098757520	-8.845000E+00	  0.098757520	7.866900E+01	  0.098757520	4.398200E+01	  0.098757520	3.582300E+01
395	  0.098957919	-8.860000E+00	  0.098957919	7.828400E+01	  0.098957919	4.422600E+01	  0.098957919	3.589300E+01
396	  0.099158317	-8.874000E+00	  0.099158317	7.782300E+01	  0.099158317	4.451300E+01	  0.099158317	3.598700E+01
397	  0.099358723	-8.890000E+00	  0.099358723	7.744000E+01	  0.099358723	4.476000E+01	  0.099358723	3.605100E+01
398	  0.099559121	-8.902000E+00	  0.099559121	7.704700E+01	  0.099559121	4.500700E+01	  0.099559121	3.612800E+01
399	  0.099759519	-8.916000E+00	  0.099759519	7.661900E+01	  0.099759519	4.527900E+01	  0.099759519	3.620800E+01
400	  0.099959925	-8.920000E+00	  0.099959925	7.618200E+01	  0.099959925	4.553800E+01	  0.099959925	3.632700E+01
401	  0.100160323	-8.929000E+00	  0.100160323	7.572100E+01	  0.100160323	4.582400E+01	  0.100160323	3.643200E+01
402	  0.100360721	-8.917000E+00	  0.100360721	7.526100E+01	  0.100360721	4.607000E+01	  0.100360721	3.661700E+01
403	  0.100561127	-8.937000E+00	  0.100561127	7.480600E+01	  0.100561127	4.637800E+01	  0.100561127	3.667300E+01
404	  0.100761525	-8.929000E+00	  0.100761525	7.441300E+01	  0.100761525	4.659700E+01	  0.100761525	3.682000E+01
405	  0.100961931	-8.941000E+00	  0.100961931	7.394100E+01	  0.100961931	4.690400E+01	  0.100961931	3.691100E+01
406	  0.101162329	-8.951000E+00	  0.101162329	7.345700E+01	  0.101162329	4.721800E+01	  0.101162329	3.700900E+01
407	  0.101362728	-8.942000E+00	  0.101362728	7.297100E+01	  0.101362728	4.749700E+01	  0.101362728	3.718700E+01
408	  0.101563133	-8.938000E+00	  0.101563133	7.253700E+01	  0.101563133	4.775900E+01	  0.101563133	3.732500E+01
409	  0.101763532	-8.939000E+00	  0.101763532	7.207100E+01	  0.101763532	4.805300E+01	  0.101763532	3.745100E+01
410	  0.101963930	-8.924000E+00	  0.101963930	7.158900E+01	  0.101963930	4.833000E+01	  0.101963930	3.764500E+01
411	  0.102164336	-8.927000E+00	  0.102164336	7.114700E+01	  0.102164336	4.861700E+01	  0.102164336	3.775500E+01
412	  0.102364734	-8.914000E+00	  0.102364734	7.075100E+01	  0.102364734	4.884900E+01	  0.102364734	3.791700E+01
413	  0.102565132	-8.902000E+00	  0.102565132	7.026400E+01	  0.102565132	4.914500E+01	  0.102565132	3.809900E+01
414	  0.102765530	-8.887000E+00	  0.102765530	6.980000E+01	  0.102765530	4.942200E+01	  0.102765530	3.829000E+01
415	  0.102965929	-8.876000E+00	  0.102965929	6.932700E+01	  0.102965929	4.971800E+01	  0.102965929	3.846200E+01
416	  0.103166327	-8.858000E+00	  0.103166327	6.892300E+01	  0.103166327	4.995700E+01	  0.103166327	3.864900E+01
417	  0.103366733	-8.855000E+00	  0.103366733	6.853400E+01	  0.103366733	5.021400E+01	  0.103366733	3.876500E+01
418	  0.103567131	-8.836000E+00	  0.103567131	6.810200E+01	  0.103567131	5.047700E+01	  0.103567131	3.896200E+01
419	  0.103767529	-8.824000E+00	  0.103767529	6.762700E+01	  0.103767529	5.078600E+01	  0.103767529	3.913500E+01
420	  0.103967935	-8.796000E+00	  0.103967935	6.723400E+01	  0.103967935	5.101300E+01	  0.103967935	3.936400E+01
421	  0.104168333	-8.808000E+00	  0.104168333	6.683600E+01	  0.104168333	5.131300E+01	  0.104168333	3.940700E+01
422	  0.104368731	-8.785000E+00	  0.104368731	6.638500E+01	  0.104368731	5.159500E+01	  0.104368731	3.963000E+01
423	  0.104569137	-8.774000E+00	  0.104569137	6.596400E+01	  0.104569137	5.188000E+01	  0.104569137	3.978200E+01
424	  0.104769535	-8.763000E+00	  0.104769535	6.540900E+01	  0.104769535	5.226500E+01	  0.104769535	3.996700E+01
425	  0.104969934	-8.751000E+00	  0.104969934	6.496400E+01	  0.104969934	5.257100E+01	  0.104969934	4.013100E+01
426	  0.105170339	-8.744000E+00	  0.105170339	6.456000E+01	  0.105170339	5.286000E+01	  0.105170339	4.025900E+01
427	  0.105370738	-8.728000E+00	  0.105370738	6.403100E+01	  0.105370738	5.323000E+01	  0.105370738	4.046300E+01
428	  0.105571143	-8.718000E+00	  0.105571143	6.353100E+01	  0.105571143	5.359400E+01	  0.105571143	4.062300E+01
429	  0.105771542	-8.699000E+00	  0.105771542	6.305100E+01	  0.105771542	5.393300E+01	  0.105771542	4.082400E+01
430	  0.105971940	-8.678000E+00	  0.105971940	6.255200E+01	  0.105971940	5.428800E+01	  0.105971940	4.104300E+01
431	  0.106172346	-8.669000E+00	  0.106172346	6.198900E+01	  0.106172346	5.471700E+01	  0.106172346	4.120600E+01
432	  0.106372744	-8.652000E+00	  0.106372744	6.152500E+01	  0.106372744	5.506000E+01	  0.106372744	4.139500E+01
433	  0.106573142	-8.633000E+00	  0.106573142	6.096500E+01	  0.106573142	5.548300E+01	  0.106573142	4.160600E+01
434	  0.106773548	-8.605000E+00	  0.106773548	6.041300E+01	  0.106773548	5.589400E+01	  0.106773548	4.186900E+01
435	  0.106973946	-8.589000E+00	  0.106973946	5.985200E+01	  0.106973946	5.633400E+01	  0.106973946	4.206300E+01
436	  0.107174344	-8.564000E+00	  0.107174344	5.934300E+01	  0.107174344	5.672700E+01	  0.107174344	4.229800E+01
437	  0.107374750	-8.546000E+00	  0.107374750	5.882000E+01	  0.107374750	5.714700E+01	  0.107374750	4.249000E+01
438	  0.107575148	-8.535000E+00	  0.107575148	5.822500E+01	  0.107575148	5.764100E+01	  0.107575148	4.265900E+01
439	  0.107775547	-8.504000E+00	  0.107775547	5.763800E+01	  0.107775547	5.811400E+01	  0.107775547	4.293700E+01
440	  0.107975952	-8.490000E+00	  0.107975952	5.708000E+01	  0.107975952	5.858700E+01	  0.107975952	4.310900E+01
441	  0.108176351	-8.467000E+00	  0.108176351	5.649300E+01	  0.108176351	5.908400E+01	  0.108176351	4.334000E+01
442	  0.108376749	-8.457000E+00	  0.108376749	5.592000E+01	  0.108376749	5.958900E+01	  0.108376749	4.348500E+01
443	  0.108577155	-8.432000E+00	  0.108577155	5.523400E+01	  0.108577155	6.019200E+01	  0.108577155	4.373000E+01
444	  0.108777553	-8.409000E+00	  0.108777553	5.468300E+01	  0.108777553	6.068000E+01	  0.108777553	4.394800E+01
445	  0.108977959	-8.391000E+00	  0.108977959	5.402800E+01	  0.108977959	6.128000E+01	  0.108977959	4.413700E+01
446	  0.109178357	-8.390000E+00	  0.109178357	5.338400E+01	  0.109178357	6.189000E+01	  0.109178357	4.422100E+01
447	  0.109378755	-8.374000E+00	  0.109378755	5.275000E+01	  0.109378755	6.249000E+01	  0.109378755	4.438500E+01
448	  0.109579161	-8.367000E+00	  0.109579161	5.206000E+01	  0.109579161	6.315700E+01	  0.109579161	4.449700E+01
449	  0.109779559	-8.348000E+00	  0.109779559	5.140300E+01	  0.109779559	6.379600E+01	  0.109779559	4.467400E+01
450	  0.109979957	-8.340000E+00	  0.109979957	5.069100E+01	  0.109979957	6.450700E+01	  0.109979957	4.477300E+01
451	  0.110180363	-8.334000E+00	  0.110180363	5.000100E+01	  0.110180363	6.520400E+01	  0.110180363	4.485200E+01
452	  0.110380761	-8.322000E+00	  0.110380761	4.924700E+01	  0.110380761	6.597600E+01	  0.110380761	4.496100E+01
453	  0.110581160	-8.309000E+00	  0.110581160	4.848800E+01	  0.110581160	6.676700E+01	  0.110581160	4.506400E+01
454	  0.110781565	-8.300000E+00	  0.110781565	4.773300E+01	  0.110781565	6.756400E+01	  0.110781565	4.513100E+01
455	  0.110981964	-8.291000E+00	  0.110981964	4.695900E+01	  0.110981964	6.839400E+01	  0.110981964	4.518100E+01
456	  0.111182362	-8.285000E+00	  0.111182362	4.620000E+01	  0.111182362	6.922000E+01	  0.111182362	4.520200E+01
457	  0.111382768	-8.271000E+00	  0.111382768	4.547100E+01	  0.111382768	7.002600E+01	  0.111382768	4.526100E+01
458	  0.111583166	-8.258000E+00	  0.111583166	4.466900E+01	  0.111583166	7.092500E+01	  0.111583166	4.530100E+01
459	  0.111783572	-8.248000E+00	  0.111783572	4.386500E+01	  0.111783572	7.184000E+01	  0.111783572	4.529800E+01
460	  0.111983970	-8.244000E+00	  0.111983970	4.307900E+01	  0.111983970	7.274000E+01	  0.111983970	4.523400E+01
461	  0.112184368	-8.227000E+00	  0.112184368	4.232200E+01	  0.112184368	7.363200E+01	  0.112184368	4.526100E+01
462	  0.112384774	-8.211000E+00	  0.112384774	4.150500E+01	  0.112384774	7.460500E+01	  0.112384774	4.524500E+01
463	  0.112585172	-8.213000E+00	  0.112585172	4.077600E+01	  0.112585172	7.546600E+01	  0.112585172	4.509700E+01
464	  0.112785570	-8.204000E+00	  0.112785570	3.993200E+01	  0.112785570	7.648600E+01	  0.112785570	4.498300E+01
465	  0.112985976	-8.199000E+00	  0.112985976	3.911400E+01	  0.112985976	7.748200E+01	  0.112985976	4.482000E+01
466	  0.113186374	-8.210000E+00	  0.113186374	3.831700E+01	  0.113186374	7.843100E+01	  0.113186374	4.451500E+01
467	  0.113386773	-8.200000E+00	  0.113386773	3.754600E+01	  0.113386773	7.939400E+01	  0.113386773	4.435700E+01
468	  0.113587178	-8.200000E+00	  0.113587178	3.672400E+01	  0.113587178	8.040700E+01	  0.113587178	4.408000E+01
469	  0.113787577	-8.207000E+00	  0.113787577	3.588700E+01	  0.113787577	8.143000E+01	  0.113787577	4.371700E+01
470	  0.113987975	-8.210000E+00	  0.113987975	3.508900E+01	  0.113987975	8.241400E+01	  0.113987975	4.336700E+01
471	  0.114188381	-8.215000E+00	  0.114188381	3.418300E+01	  0.114188381	8.353100E+01	  0.114188381	4.292300E+01
472	  0.114388779	-8.227000E+00	  0.114388779	3.334200E+01	  0.114388779	8.454800E+01	  0.114388779	4.242700E+01
473	  0.114589177	-8.236000E+00	  0.114589177	3.253400E+01	  0.114589177	8.552900E+01	  0.114589177	4.193600E+01
474	  0.114789583	-8.250000E+00	  0.114789583	3.159800E+01	  0.114789583	8.664800E+01	  0.114789583	4.129900E+01
475	  0.114989981	-8.267000E+00	  0.114989981	3.074200E+01	  0.114989981	8.764700E+01	  0.114989981	4.064800E+01
476	  0.115190387	-8.290000E+00	  0.115190387	2.978600E+01	  0.115190387	8.873400E+01	  0.115190387	3.984800E+01
477	  0.115390785	-8.306000E+00	  0.115390785	2.882000E+01	  0.115390785	8.984900E+01	  0.115390785	3.905700E+01
478	  0.115591183	-8.323000E+00	  0.115591183	2.785800E+01	  0.115591183	9.094100E+01	  0.115591183	3.822000E+01
479	  0.115791589	-8.339000E+00	  0.115791589	2.690100E+01	  0.115791589	9.201400E+01	  0.115791589	3.735100E+01
480	  0.115991987	-8.368000E+00	  0.115991987	2.587600E+01	  0.115991987	9.307900E+01	  0.115991987	3.628500E+01
481	  0.116192386	-8.387000E+00	  0.116192386	2.492200E+01	  0.116192386	9.408700E+01	  0.116192386	3.531000E+01
482	  0.116392791	-8.407000E+00	  0.116392791	2.390800E+01	  0.116392791	9.512800E+01	  0.116392791	3.422700E+01
483	  0.116593190	-8.438000E+00	  0.116593190	2.287000E+01	  0.116593190	9.609500E+01	  0.116593190	3.300000E+01
484	  0.116793588	-8.465000E+00	  0.116793588	2.184700E+01	  0.116793588	9.703600E+01	  0.116793588	3.177700E+01
485	  0.116993994	-8.490000E+00	  0.116993994	2.079800E+01	  0.116993994	9.797000E+01	  0.116993994	3.049300E+01
486	  0.117194392	-8.512000E+00	  0.117194392	1.975200E+01	  0.117194392	9.888200E+01	  0.117194392	2.919300E+01
487	  0.117394790	-8.543000E+00	  0.117394790	1.871100E+01	  0.117394790	9.967900E+01	  0.117394790	2.780300E+01
488	  0.117595196	-8.580000E+00	  0.117595196	1.764100E+01	  0.117595196	1.003980E+02	  0.117595196	2.630600E+01
489	  0.117795594	-8.617000E+00	  0.117795594	1.656900E+01	  0.117795594	1.010660E+02	  0.117795594	2.478000E+01
490	  0.117995992	-8.652000E+00	  0.117995992	1.550700E+01	  0.117995992	1.016780E+02	  0.117995992	2.324800E+01
491	  0.118196398	-8.700000E+00	  0.118196398	1.442700E+01	  0.118196398	1.021340E+02	  0.118196398	2.160500E+01
492	  0.118396796	-8.739000E+00	  0.118396796	1.335500E+01	  0.118396796	1.025870E+02	  0.118396796	2.000100E+01
493	  0.118597202	-8.795000E+00	  0.118597202	1.228300E+01	  0.118597202	1.028350E+02	  0.118597202	1.831200E+01
494	  0.118797600	-8.843000E+00	  0.118797600	1.117300E+01	  0.118797600	1.030960E+02	  0.118797600	1.660000E+01
495	  0.118997999	-8.900000E+00	  0.118997999	1.000500E+01	  0.118997999	1.032400E+02	  0.118997999	1.477800E+01
496	  0.119198404	-8.964000E+00	  0.119198404	8.839000E+00	  0.119198404	1.032310E+02	  0.119198404	1.294500E+01
497	  0.119398803	-9.028000E+00	  0.119398803	7.699000E+00	  0.119398803	1.031370E+02	  0.119398803	1.117000E+01
498	  0.119599201	-9.099000E+00	  0.119599201	6.518000E+00	  0.119599201	1.029230E+02	  0.119599201	9.347000E+00
499	  0.119799607	-9.174000E+00	  0.119799607	5.313000E+00	  0.119799607	1.025940E+02	  0.119799607	7.516000E+00
500	  0.120000005	-9.254000E+00	  0.120000005	4.078000E+00	  0.120000005	1.021540E+02	  0.120000005	5.681000E+00
