! Anritsu VNA Master:             	Model: MS2036C/10/77
! SN:             	1601066
! /bd0/18may26.balun/2a.r50.2.txt
! Existing Calibration Information:
! TYPE:             	Current Settings	Active Cal Settings
! TIME:             	05/26/2018 07:59:17 PM	05/26/2018 07:26:54 PM
! INTERNAL TEMP:    	45.5 C	45.5 C
! # POINTS:         	500	500
! START FREQ:       	20.000 MHz	20.000 MHz
! STOP FREQ:        	120.000 MHz	120.000 MHz
! SOURCE POWER:     	High	High
! IFBW:             	50 Hz	50 Hz
! AVG FACTOR:       	  1 	  1 
! REF PLANE 1:      	0 mm	0 mm
! REF PLANE 2:      	0 mm	0 mm
! CAL TYPE:         	Full S11	Full S11
! CAL METHOD:       	SOLT	SOLT
! CAL LINE TYPE:    	Coax	Coax
! DUT PORT 1:       	K-Conn(M)	K-Conn(M)
! DUT PORT 2:       	K-Conn(M)	K-Conn(M)
! CAL STATUS:       	OK: Accuracy High	--
! PROP-V:       	0.700
! CABLE LOSS:       	0.000 dB/m
! REF IMPEDANCE:       	50.0
! Trace Specific Parameters:	TR1	TR2	TR3	TR4
! TRACE.#.Y (GRAPH TYPE)	LOG MAG	PHASE	REAL IMPEDANCE	IMAGINARY IMPEDANCE
! TRACE.#.X 	FREQ.GHZ	FREQ.GHZ	FREQ.GHZ	FREQ.GHZ
! S-PARAMETER	S11	S11	S11	S11
! SMOOTH/APERTURE %	0	0	0	0
! WINDOW	NSL	NSL	NSL	NSL
! GATING	OFF	OFF	OFF	OFF
! FGTD	OFF	OFF	OFF	OFF
Marker Information per Trace:	TR1	TR2	TR3	TR4
!MK1	--	--	--	--
!MK2	--	--	--	--
!MK3	--	--	--	--
!MK4	--	--	--	--
!MK5	--	--	--	--
!MK6	--	--	--	--
!MK7	--	--	--	--
!MK8	--	--	--	--
PNT	TR1.FREQ.GHZ	TR1.LOG MAG.dB	TR2.FREQ.GHZ	TR2.PHASE.deg	TR3.FREQ.GHZ	TR3.REAL IMPEDANCE.ohm	TR4.FREQ.GHZ	TR4.IMAGINARY IMPEDANCE.ohm
1	  0.020000000	-3.943700E+01	  0.020000000	5.548100E+01	  0.020000000	5.060000E+01	  0.020000000	8.890000E-01
2	  0.020200402	-3.959100E+01	  0.020200402	5.566300E+01	  0.020200402	5.058700E+01	  0.020200402	8.750000E-01
3	  0.020400802	-3.949300E+01	  0.020400802	5.622000E+01	  0.020400802	5.058500E+01	  0.020400802	8.910000E-01
4	  0.020601204	-3.960800E+01	  0.020601204	5.579200E+01	  0.020601204	5.058300E+01	  0.020601204	8.750000E-01
5	  0.020801604	-3.955300E+01	  0.020801604	5.508800E+01	  0.020801604	5.059800E+01	  0.020801604	8.730000E-01
6	  0.021002004	-3.968800E+01	  0.021002004	5.451300E+01	  0.021002004	5.059800E+01	  0.021002004	8.540000E-01
7	  0.021202406	-3.966500E+01	  0.021202406	5.466900E+01	  0.021202406	5.059700E+01	  0.021202406	8.580000E-01
8	  0.021402806	-3.971400E+01	  0.021402806	5.410100E+01	  0.021402806	5.060200E+01	  0.021402806	8.470000E-01
9	  0.021603208	-3.967100E+01	  0.021603208	5.387200E+01	  0.021603208	5.060800E+01	  0.021603208	8.490000E-01
10	  0.021803608	-3.964700E+01	  0.021803608	5.278600E+01	  0.021803608	5.062600E+01	  0.021803608	8.390000E-01
11	  0.022004008	-3.952200E+01	  0.022004008	5.169800E+01	  0.022004008	5.065200E+01	  0.022004008	8.400000E-01
12	  0.022204408	-3.958800E+01	  0.022204408	5.141500E+01	  0.022204408	5.065100E+01	  0.022204408	8.300000E-01
13	  0.022404809	-3.939100E+01	  0.022404809	5.070200E+01	  0.022404809	5.067600E+01	  0.022404809	8.410000E-01
14	  0.022605211	-3.922300E+01	  0.022605211	4.988700E+01	  0.022605211	5.070200E+01	  0.022605211	8.480000E-01
15	  0.022805611	-3.917200E+01	  0.022805611	4.947200E+01	  0.022805611	5.071200E+01	  0.022805611	8.480000E-01
16	  0.023006011	-3.906800E+01	  0.023006011	4.946400E+01	  0.023006011	5.072100E+01	  0.023006011	8.580000E-01
17	  0.023206413	-3.890300E+01	  0.023206413	4.939200E+01	  0.023206413	5.073600E+01	  0.023206413	8.740000E-01
18	  0.023406813	-3.879500E+01	  0.023406813	4.894600E+01	  0.023406813	5.075200E+01	  0.023406813	8.790000E-01
19	  0.023607215	-3.876800E+01	  0.023607215	4.930100E+01	  0.023607215	5.074900E+01	  0.023607215	8.860000E-01
20	  0.023807615	-3.853000E+01	  0.023807615	4.867200E+01	  0.023807615	5.078000E+01	  0.023807615	9.030000E-01
21	  0.024008015	-3.838600E+01	  0.024008015	4.953700E+01	  0.024008015	5.077900E+01	  0.024008015	9.300000E-01
22	  0.024208417	-3.832500E+01	  0.024208417	4.959000E+01	  0.024208417	5.078300E+01	  0.024208417	9.370000E-01
23	  0.024408817	-3.827800E+01	  0.024408817	5.042700E+01	  0.024408817	5.077300E+01	  0.024408817	9.540000E-01
24	  0.024609219	-3.829700E+01	  0.024609219	5.035700E+01	  0.024609219	5.077300E+01	  0.024609219	9.510000E-01
25	  0.024809619	-3.831000E+01	  0.024809619	5.062500E+01	  0.024809619	5.076700E+01	  0.024809619	9.530000E-01
26	  0.025010020	-3.834000E+01	  0.025010020	5.092000E+01	  0.025010020	5.075900E+01	  0.025010020	9.540000E-01
27	  0.025210422	-3.824200E+01	  0.025210422	5.054800E+01	  0.025210422	5.077400E+01	  0.025210422	9.600000E-01
28	  0.025410822	-3.826200E+01	  0.025410822	5.056600E+01	  0.025410822	5.077200E+01	  0.025410822	9.580000E-01
29	  0.025611224	-3.833300E+01	  0.025611224	5.129000E+01	  0.025611224	5.075400E+01	  0.025611224	9.590000E-01
30	  0.025811624	-3.833900E+01	  0.025811624	5.059500E+01	  0.025811624	5.076500E+01	  0.025811624	9.490000E-01
31	  0.026012026	-3.829200E+01	  0.026012026	5.014800E+01	  0.026012026	5.077700E+01	  0.026012026	9.490000E-01
32	  0.026212426	-3.834000E+01	  0.026212426	4.995700E+01	  0.026212426	5.077600E+01	  0.026212426	9.410000E-01
33	  0.026412826	-3.830600E+01	  0.026412826	5.004500E+01	  0.026412826	5.077700E+01	  0.026412826	9.460000E-01
34	  0.026613226	-3.824700E+01	  0.026613226	4.863000E+01	  0.026613226	5.080600E+01	  0.026613226	9.330000E-01
35	  0.026813626	-3.821800E+01	  0.026813626	4.837000E+01	  0.026813626	5.081300E+01	  0.026813626	9.320000E-01
36	  0.027014028	-3.816200E+01	  0.027014028	4.741900E+01	  0.027014028	5.083400E+01	  0.027014028	9.250000E-01
37	  0.027214428	-3.811200E+01	  0.027214428	4.693400E+01	  0.027214428	5.084700E+01	  0.027214428	9.230000E-01
38	  0.027414829	-3.810100E+01	  0.027414829	4.614100E+01	  0.027414829	5.086100E+01	  0.027414829	9.120000E-01
39	  0.027615231	-3.797000E+01	  0.027615231	4.570300E+01	  0.027615231	5.088100E+01	  0.027615231	9.200000E-01
40	  0.027815631	-3.781600E+01	  0.027815631	4.478400E+01	  0.027815631	5.091200E+01	  0.027815631	9.220000E-01
41	  0.028016033	-3.766400E+01	  0.028016033	4.493100E+01	  0.028016033	5.092600E+01	  0.028016033	9.410000E-01
42	  0.028216433	-3.753700E+01	  0.028216433	4.464300E+01	  0.028216433	5.094400E+01	  0.028216433	9.500000E-01
43	  0.028416833	-3.741900E+01	  0.028416833	4.500800E+01	  0.028416833	5.095100E+01	  0.028416833	9.700000E-01
44	  0.028617235	-3.731000E+01	  0.028617235	4.474400E+01	  0.028617235	5.096700E+01	  0.028617235	9.780000E-01
45	  0.028817635	-3.717100E+01	  0.028817635	4.559900E+01	  0.028817635	5.096800E+01	  0.028817635	1.008000E+00
46	  0.029018037	-3.707700E+01	  0.029018037	4.542800E+01	  0.029018037	5.098200E+01	  0.029018037	1.017000E+00
47	  0.029218437	-3.703000E+01	  0.029218437	4.539400E+01	  0.029218437	5.098700E+01	  0.029218437	1.022000E+00
48	  0.029418837	-3.701900E+01	  0.029418837	4.621200E+01	  0.029418837	5.097400E+01	  0.029418837	1.037000E+00
49	  0.029619239	-3.696900E+01	  0.029619239	4.674500E+01	  0.029619239	5.096900E+01	  0.029619239	1.052000E+00
50	  0.029819639	-3.688500E+01	  0.029819639	4.705600E+01	  0.029819639	5.097300E+01	  0.029819639	1.068000E+00
51	  0.030020041	-3.688600E+01	  0.030020041	4.685400E+01	  0.030020041	5.097700E+01	  0.030020041	1.064000E+00
52	  0.030220442	-3.684200E+01	  0.030220442	4.770600E+01	  0.030220442	5.096500E+01	  0.030220442	1.084000E+00
53	  0.030420844	-3.685700E+01	  0.030420844	4.789000E+01	  0.030420844	5.096000E+01	  0.030420844	1.085000E+00
54	  0.030621244	-3.695100E+01	  0.030621244	4.768600E+01	  0.030621244	5.095400E+01	  0.030621244	1.070000E+00
55	  0.030821644	-3.700100E+01	  0.030821644	4.756900E+01	  0.030821644	5.095000E+01	  0.030821644	1.062000E+00
56	  0.031022044	-3.695500E+01	  0.031022044	4.748100E+01	  0.031022044	5.095700E+01	  0.031022044	1.066000E+00
57	  0.031222444	-3.705100E+01	  0.031222444	4.735700E+01	  0.031222444	5.094900E+01	  0.031222444	1.052000E+00
58	  0.031422846	-3.698500E+01	  0.031422846	4.705200E+01	  0.031422846	5.096200E+01	  0.031422846	1.055000E+00
59	  0.031623244	-3.701700E+01	  0.031623244	4.607300E+01	  0.031623244	5.097700E+01	  0.031623244	1.035000E+00
60	  0.031823646	-3.703600E+01	  0.031823646	4.538400E+01	  0.031823646	5.098700E+01	  0.031823646	1.021000E+00
61	  0.032024048	-3.697200E+01	  0.032024048	4.519500E+01	  0.032024048	5.099800E+01	  0.032024048	1.025000E+00
62	  0.032224450	-3.684300E+01	  0.032224450	4.462100E+01	  0.032224450	5.102300E+01	  0.032224450	1.031000E+00
63	  0.032424849	-3.688100E+01	  0.032424849	4.339900E+01	  0.032424849	5.104100E+01	  0.032424849	1.004000E+00
64	  0.032625251	-3.684200E+01	  0.032625251	4.267700E+01	  0.032625251	5.105900E+01	  0.032625251	9.950000E-01
65	  0.032825653	-3.670200E+01	  0.032825653	4.178100E+01	  0.032825653	5.109200E+01	  0.032825653	9.950000E-01
66	  0.033026051	-3.657100E+01	  0.033026051	4.167400E+01	  0.033026051	5.111000E+01	  0.033026051	1.008000E+00
67	  0.033226453	-3.644500E+01	  0.033226453	4.147700E+01	  0.033226453	5.113000E+01	  0.033226453	1.019000E+00
68	  0.033426855	-3.634800E+01	  0.033426855	4.103500E+01	  0.033426855	5.115100E+01	  0.033426855	1.022000E+00
69	  0.033627257	-3.617500E+01	  0.033627257	4.087300E+01	  0.033627257	5.117700E+01	  0.033627257	1.040000E+00
70	  0.033827655	-3.604300E+01	  0.033827655	4.136600E+01	  0.033827655	5.118600E+01	  0.033827655	1.067000E+00
71	  0.034028057	-3.586200E+01	  0.034028057	4.121700E+01	  0.034028057	5.121400E+01	  0.034028057	1.087000E+00
72	  0.034228459	-3.583900E+01	  0.034228459	4.108400E+01	  0.034228459	5.122000E+01	  0.034228459	1.087000E+00
73	  0.034428857	-3.576200E+01	  0.034428857	4.172500E+01	  0.034428857	5.121800E+01	  0.034428857	1.110000E+00
74	  0.034629259	-3.560700E+01	  0.034629259	4.190200E+01	  0.034629259	5.123600E+01	  0.034629259	1.135000E+00
75	  0.034829661	-3.554000E+01	  0.034829661	4.270200E+01	  0.034829661	5.122900E+01	  0.034829661	1.161000E+00
76	  0.035030060	-3.550200E+01	  0.035030060	4.336500E+01	  0.035030060	5.122100E+01	  0.035030060	1.180000E+00
77	  0.035230462	-3.554900E+01	  0.035230462	4.361500E+01	  0.035230462	5.120900E+01	  0.035230462	1.179000E+00
78	  0.035430863	-3.550500E+01	  0.035430863	4.405300E+01	  0.035430863	5.120600E+01	  0.035430863	1.195000E+00
79	  0.035631265	-3.553000E+01	  0.035631265	4.468100E+01	  0.035631265	5.118900E+01	  0.035631265	1.204000E+00
80	  0.035831664	-3.554400E+01	  0.035831664	4.461900E+01	  0.035831664	5.118800E+01	  0.035831664	1.201000E+00
81	  0.036032066	-3.554700E+01	  0.036032066	4.478800E+01	  0.036032066	5.118400E+01	  0.036032066	1.204000E+00
82	  0.036232468	-3.564200E+01	  0.036232468	4.508600E+01	  0.036232468	5.116500E+01	  0.036232468	1.197000E+00
83	  0.036432866	-3.561800E+01	  0.036432866	4.446500E+01	  0.036432866	5.118200E+01	  0.036432866	1.187000E+00
84	  0.036633268	-3.571800E+01	  0.036633268	4.436100E+01	  0.036633268	5.117000E+01	  0.036633268	1.171000E+00
85	  0.036833670	-3.564800E+01	  0.036833670	4.417300E+01	  0.036833670	5.118400E+01	  0.036833670	1.177000E+00
86	  0.037034072	-3.573800E+01	  0.037034072	4.413100E+01	  0.037034072	5.117200E+01	  0.037034072	1.164000E+00
87	  0.037234470	-3.569000E+01	  0.037234470	4.324300E+01	  0.037234470	5.119700E+01	  0.037234470	1.152000E+00
88	  0.037434869	-3.566500E+01	  0.037434869	4.297500E+01	  0.037434869	5.120600E+01	  0.037434869	1.150000E+00
89	  0.037635271	-3.564800E+01	  0.037635271	4.234800E+01	  0.037635271	5.122200E+01	  0.037635271	1.139000E+00
90	  0.037835669	-3.560500E+01	  0.037835669	4.199100E+01	  0.037835669	5.123500E+01	  0.037835669	1.137000E+00
91	  0.038036071	-3.557100E+01	  0.038036071	4.219800E+01	  0.038036071	5.123500E+01	  0.038036071	1.146000E+00
92	  0.038236473	-3.547200E+01	  0.038236473	4.153700E+01	  0.038236473	5.126300E+01	  0.038236473	1.145000E+00
93	  0.038436871	-3.541700E+01	  0.038436871	4.052700E+01	  0.038436871	5.129200E+01	  0.038436871	1.130000E+00
94	  0.038637273	-3.529000E+01	  0.038637273	4.035400E+01	  0.038637273	5.131500E+01	  0.038637273	1.143000E+00
95	  0.038837675	-3.520700E+01	  0.038837675	4.034400E+01	  0.038837675	5.132700E+01	  0.038837675	1.154000E+00
96	  0.039038073	-3.506600E+01	  0.039038073	3.966800E+01	  0.039038073	5.136300E+01	  0.039038073	1.157000E+00
97	  0.039238475	-3.500300E+01	  0.039238475	3.991600E+01	  0.039238475	5.136800E+01	  0.039238475	1.172000E+00
98	  0.039438877	-3.486700E+01	  0.039438877	4.043800E+01	  0.039438877	5.137900E+01	  0.039438877	1.203000E+00
99	  0.039639279	-3.478900E+01	  0.039639279	3.995500E+01	  0.039639279	5.140200E+01	  0.039639279	1.203000E+00
100	  0.039839678	-3.471800E+01	  0.039839678	3.983000E+01	  0.039839678	5.141600E+01	  0.039839678	1.210000E+00
101	  0.040040080	-3.473700E+01	  0.040040080	4.107300E+01	  0.040040080	5.138500E+01	  0.040040080	1.237000E+00
102	  0.040240481	-3.463200E+01	  0.040240481	4.153900E+01	  0.040240481	5.139200E+01	  0.040240481	1.264000E+00
103	  0.040440880	-3.461900E+01	  0.040440880	4.177200E+01	  0.040440880	5.138900E+01	  0.040440880	1.272000E+00
104	  0.040641282	-3.466400E+01	  0.040641282	4.200400E+01	  0.040641282	5.137600E+01	  0.040641282	1.271000E+00
105	  0.040841684	-3.462600E+01	  0.040841684	4.228000E+01	  0.040841684	5.137600E+01	  0.040841684	1.283000E+00
106	  0.041042086	-3.473700E+01	  0.041042086	4.233400E+01	  0.041042086	5.135700E+01	  0.041042086	1.268000E+00
107	  0.041242484	-3.480500E+01	  0.041242484	4.230500E+01	  0.041242484	5.134700E+01	  0.041242484	1.257000E+00
108	  0.041442886	-3.478500E+01	  0.041442886	4.228000E+01	  0.041442886	5.135100E+01	  0.041442886	1.259000E+00
109	  0.041643288	-3.476400E+01	  0.041643288	4.211100E+01	  0.041643288	5.135800E+01	  0.041643288	1.258000E+00
110	  0.041843686	-3.476400E+01	  0.041843686	4.219400E+01	  0.041843686	5.135600E+01	  0.041843686	1.260000E+00
111	  0.042044088	-3.476400E+01	  0.042044088	4.168800E+01	  0.042044088	5.136700E+01	  0.042044088	1.248000E+00
112	  0.042244490	-3.482200E+01	  0.042244490	4.139800E+01	  0.042244490	5.136500E+01	  0.042244490	1.233000E+00
113	  0.042444889	-3.482900E+01	  0.042444889	4.092700E+01	  0.042444889	5.137400E+01	  0.042444889	1.221000E+00
114	  0.042645290	-3.487200E+01	  0.042645290	3.997000E+01	  0.042645290	5.138800E+01	  0.042645290	1.191000E+00
115	  0.042845692	-3.481800E+01	  0.042845692	3.976600E+01	  0.042845692	5.140100E+01	  0.042845692	1.194000E+00
116	  0.043046094	-3.476600E+01	  0.043046094	3.961600E+01	  0.043046094	5.141300E+01	  0.043046094	1.198000E+00
117	  0.043246493	-3.468300E+01	  0.043246493	3.876000E+01	  0.043246493	5.144500E+01	  0.043246493	1.188000E+00
118	  0.043446895	-3.460000E+01	  0.043446895	3.805400E+01	  0.043446895	5.147400E+01	  0.043446895	1.181000E+00
119	  0.043647297	-3.446600E+01	  0.043647297	3.779800E+01	  0.043647297	5.150200E+01	  0.043647297	1.194000E+00
120	  0.043847695	-3.448200E+01	  0.043847695	3.765900E+01	  0.043847695	5.150200E+01	  0.043847695	1.188000E+00
121	  0.044048097	-3.431400E+01	  0.044048097	3.723800E+01	  0.044048097	5.154100E+01	  0.044048097	1.200000E+00
122	  0.044248499	-3.425400E+01	  0.044248499	3.769800E+01	  0.044248499	5.154200E+01	  0.044248499	1.221000E+00
123	  0.044448901	-3.418300E+01	  0.044448901	3.746300E+01	  0.044448901	5.156000E+01	  0.044448901	1.225000E+00
124	  0.044649299	-3.414700E+01	  0.044649299	3.751000E+01	  0.044649299	5.156500E+01	  0.044649299	1.232000E+00
125	  0.044849701	-3.405400E+01	  0.044849701	3.783100E+01	  0.044849701	5.157500E+01	  0.044849701	1.254000E+00
126	  0.045050103	-3.400500E+01	  0.045050103	3.761800E+01	  0.045050103	5.158900E+01	  0.045050103	1.256000E+00
127	  0.045250501	-3.394100E+01	  0.045250501	3.877300E+01	  0.045250501	5.157400E+01	  0.045250501	1.298000E+00
128	  0.045450903	-3.387200E+01	  0.045450903	3.860900E+01	  0.045450903	5.159000E+01	  0.045450903	1.304000E+00
129	  0.045651305	-3.387700E+01	  0.045651305	3.952800E+01	  0.045651305	5.156800E+01	  0.045651305	1.328000E+00
130	  0.045851704	-3.386800E+01	  0.045851704	3.983300E+01	  0.045851704	5.156200E+01	  0.045851704	1.338000E+00
131	  0.046052106	-3.393800E+01	  0.046052106	4.005700E+01	  0.046052106	5.154400E+01	  0.046052106	1.333000E+00
132	  0.046252504	-3.397100E+01	  0.046252504	3.980700E+01	  0.046252504	5.154400E+01	  0.046252504	1.321000E+00
133	  0.046452906	-3.399500E+01	  0.046452906	4.028000E+01	  0.046452906	5.152900E+01	  0.046452906	1.330000E+00
134	  0.046653304	-3.400700E+01	  0.046653304	4.064500E+01	  0.046653304	5.151800E+01	  0.046653304	1.338000E+00
135	  0.046853706	-3.410700E+01	  0.046853706	4.024800E+01	  0.046853706	5.151000E+01	  0.046853706	1.312000E+00
136	  0.047054108	-3.414100E+01	  0.047054108	4.020200E+01	  0.047054108	5.150500E+01	  0.047054108	1.305000E+00
137	  0.047254506	-3.415600E+01	  0.047254506	3.939900E+01	  0.047254506	5.152100E+01	  0.047254506	1.282000E+00
138	  0.047454908	-3.419900E+01	  0.047454908	3.996000E+01	  0.047454908	5.150000E+01	  0.047454908	1.290000E+00
139	  0.047655310	-3.426300E+01	  0.047655310	3.873300E+01	  0.047655310	5.151700E+01	  0.047655310	1.248000E+00
140	  0.047855709	-3.419900E+01	  0.047855709	3.840500E+01	  0.047855709	5.153600E+01	  0.047855709	1.249000E+00
141	  0.048056111	-3.426700E+01	  0.048056111	3.787200E+01	  0.048056111	5.153600E+01	  0.048056111	1.224000E+00
142	  0.048256513	-3.420600E+01	  0.048256513	3.760900E+01	  0.048256513	5.155200E+01	  0.048256513	1.226000E+00
143	  0.048456915	-3.420100E+01	  0.048456915	3.688200E+01	  0.048456915	5.156900E+01	  0.048456915	1.207000E+00
144	  0.048657313	-3.408200E+01	  0.048657313	3.646500E+01	  0.048657313	5.160000E+01	  0.048657313	1.212000E+00
145	  0.048857715	-3.408000E+01	  0.048857715	3.585900E+01	  0.048857715	5.161400E+01	  0.048857715	1.195000E+00
146	  0.049058117	-3.398000E+01	  0.049058117	3.535000E+01	  0.049058117	5.164300E+01	  0.049058117	1.195000E+00
147	  0.049258515	-3.396400E+01	  0.049258515	3.461800E+01	  0.049258515	5.166200E+01	  0.049258515	1.176000E+00
148	  0.049458917	-3.381800E+01	  0.049458917	3.429600E+01	  0.049458917	5.169800E+01	  0.049458917	1.187000E+00
149	  0.049659319	-3.368300E+01	  0.049659319	3.478100E+01	  0.049659319	5.171400E+01	  0.049659319	1.221000E+00
150	  0.049859721	-3.368600E+01	  0.049859721	3.431200E+01	  0.049859721	5.172400E+01	  0.049859721	1.206000E+00
151	  0.050060119	-3.360400E+01	  0.050060119	3.469600E+01	  0.050060119	5.173200E+01	  0.050060119	1.230000E+00
152	  0.050260521	-3.351300E+01	  0.050260521	3.505500E+01	  0.050260521	5.174200E+01	  0.050260521	1.254000E+00
153	  0.050460923	-3.348000E+01	  0.050460923	3.513200E+01	  0.050460923	5.174700E+01	  0.050460923	1.262000E+00
154	  0.050661322	-3.342200E+01	  0.050661322	3.537000E+01	  0.050661322	5.175300E+01	  0.050661322	1.278000E+00
155	  0.050861724	-3.341900E+01	  0.050861724	3.542000E+01	  0.050861724	5.175300E+01	  0.050861724	1.280000E+00
156	  0.051062126	-3.341500E+01	  0.051062126	3.578500E+01	  0.051062126	5.174500E+01	  0.051062126	1.292000E+00
157	  0.051262524	-3.330800E+01	  0.051262524	3.613700E+01	  0.051262524	5.175800E+01	  0.051262524	1.319000E+00
158	  0.051462926	-3.345000E+01	  0.051462926	3.630000E+01	  0.051462926	5.172600E+01	  0.051462926	1.302000E+00
159	  0.051663328	-3.342900E+01	  0.051663328	3.604100E+01	  0.051663328	5.173600E+01	  0.051663328	1.297000E+00
160	  0.051863730	-3.343800E+01	  0.051863730	3.623700E+01	  0.051863730	5.173000E+01	  0.051863730	1.302000E+00
161	  0.052064128	-3.349600E+01	  0.052064128	3.615000E+01	  0.052064128	5.172000E+01	  0.052064128	1.290000E+00
162	  0.052264530	-3.354700E+01	  0.052264530	3.615200E+01	  0.052264530	5.171000E+01	  0.052264530	1.283000E+00
163	  0.052464932	-3.358100E+01	  0.052464932	3.582400E+01	  0.052464932	5.171100E+01	  0.052464932	1.267000E+00
164	  0.052665330	-3.360500E+01	  0.052665330	3.556300E+01	  0.052665330	5.171200E+01	  0.052665330	1.256000E+00
165	  0.052865732	-3.359300E+01	  0.052865732	3.538300E+01	  0.052865732	5.171800E+01	  0.052865732	1.252000E+00
166	  0.053066134	-3.365500E+01	  0.053066134	3.469000E+01	  0.053066134	5.172100E+01	  0.053066134	1.222000E+00
167	  0.053266536	-3.359200E+01	  0.053266536	3.401000E+01	  0.053266536	5.174900E+01	  0.053266536	1.211000E+00
168	  0.053466935	-3.362200E+01	  0.053466935	3.353400E+01	  0.053466935	5.175300E+01	  0.053466935	1.192000E+00
169	  0.053667337	-3.355700E+01	  0.053667337	3.329800E+01	  0.053667337	5.177200E+01	  0.053667337	1.194000E+00
170	  0.053867739	-3.350300E+01	  0.053867739	3.265400E+01	  0.053867739	5.179700E+01	  0.053867739	1.181000E+00
171	  0.054068137	-3.344800E+01	  0.054068137	3.163500E+01	  0.054068137	5.183000E+01	  0.054068137	1.156000E+00
172	  0.054268539	-3.343000E+01	  0.054268539	3.205000E+01	  0.054268539	5.182500E+01	  0.054268539	1.172000E+00
173	  0.054468941	-3.330500E+01	  0.054468941	3.151600E+01	  0.054468941	5.186300E+01	  0.054468941	1.172000E+00
174	  0.054669339	-3.321800E+01	  0.054669339	3.099800E+01	  0.054669339	5.189300E+01	  0.054669339	1.167000E+00
175	  0.054869737	-3.309700E+01	  0.054869737	3.077900E+01	  0.054869737	5.192500E+01	  0.054869737	1.177000E+00
176	  0.055070139	-3.305100E+01	  0.055070139	3.084000E+01	  0.055070139	5.193400E+01	  0.055070139	1.185000E+00
177	  0.055270538	-3.297100E+01	  0.055270538	3.102400E+01	  0.055270538	5.194800E+01	  0.055270538	1.203000E+00
178	  0.055470940	-3.289300E+01	  0.055470940	3.071700E+01	  0.055470940	5.197200E+01	  0.055470940	1.203000E+00
179	  0.055671342	-3.282300E+01	  0.055671342	3.129900E+01	  0.055671342	5.197600E+01	  0.055671342	1.234000E+00
180	  0.055871744	-3.284800E+01	  0.055871744	3.120700E+01	  0.055871744	5.197200E+01	  0.055871744	1.227000E+00
181	  0.056072142	-3.279700E+01	  0.056072142	3.161900E+01	  0.056072142	5.197400E+01	  0.056072142	1.249000E+00
182	  0.056272544	-3.279400E+01	  0.056272544	3.189500E+01	  0.056272544	5.196900E+01	  0.056272544	1.259000E+00
183	  0.056472946	-3.268500E+01	  0.056472946	3.194100E+01	  0.056472946	5.199300E+01	  0.056472946	1.277000E+00
184	  0.056673344	-3.269200E+01	  0.056673344	3.198100E+01	  0.056673344	5.199000E+01	  0.056673344	1.278000E+00
185	  0.056873746	-3.274000E+01	  0.056873746	3.227500E+01	  0.056873746	5.197300E+01	  0.056873746	1.281000E+00
186	  0.057074148	-3.270800E+01	  0.057074148	3.198000E+01	  0.057074148	5.198700E+01	  0.057074148	1.275000E+00
187	  0.057274550	-3.270100E+01	  0.057274550	3.206200E+01	  0.057274550	5.198600E+01	  0.057274550	1.279000E+00
188	  0.057474948	-3.278500E+01	  0.057474948	3.220800E+01	  0.057474948	5.196400E+01	  0.057474948	1.271000E+00
189	  0.057675350	-3.280800E+01	  0.057675350	3.199700E+01	  0.057675350	5.196300E+01	  0.057675350	1.260000E+00
190	  0.057875752	-3.279500E+01	  0.057875752	3.163200E+01	  0.057875752	5.197500E+01	  0.057875752	1.250000E+00
191	  0.058076151	-3.285100E+01	  0.058076151	3.126100E+01	  0.058076151	5.197000E+01	  0.058076151	1.228000E+00
192	  0.058276553	-3.284000E+01	  0.058276553	3.088300E+01	  0.058276553	5.198100E+01	  0.058276553	1.217000E+00
193	  0.058476955	-3.280400E+01	  0.058476955	3.111900E+01	  0.058476955	5.198400E+01	  0.058476955	1.230000E+00
194	  0.058677353	-3.284100E+01	  0.058677353	3.014300E+01	  0.058677353	5.199700E+01	  0.058677353	1.191000E+00
195	  0.058877755	-3.278100E+01	  0.058877755	3.024400E+01	  0.058877755	5.200900E+01	  0.058877755	1.203000E+00
196	  0.059078157	-3.276000E+01	  0.059078157	2.971700E+01	  0.059078157	5.202500E+01	  0.059078157	1.187000E+00
197	  0.059278559	-3.272900E+01	  0.059278559	2.904000E+01	  0.059278559	5.204700E+01	  0.059278559	1.167000E+00
198	  0.059478957	-3.266500E+01	  0.059478957	2.917300E+01	  0.059478957	5.205900E+01	  0.059478957	1.181000E+00
199	  0.059679359	-3.258100E+01	  0.059679359	2.907700E+01	  0.059679359	5.208200E+01	  0.059679359	1.189000E+00
200	  0.059879761	-3.256600E+01	  0.059879761	2.850700E+01	  0.059879761	5.209800E+01	  0.059879761	1.170000E+00
201	  0.060080159	-3.242100E+01	  0.060080159	2.829900E+01	  0.060080159	5.213800E+01	  0.060080159	1.183000E+00
202	  0.060280561	-3.236500E+01	  0.060280561	2.827700E+01	  0.060280561	5.215300E+01	  0.060280561	1.190000E+00
203	  0.060480963	-3.232900E+01	  0.060480963	2.840700E+01	  0.060480963	5.215900E+01	  0.060480963	1.200000E+00
204	  0.060681365	-3.232100E+01	  0.060681365	2.891500E+01	  0.060681365	5.214900E+01	  0.060681365	1.221000E+00
205	  0.060881764	-3.219000E+01	  0.060881764	2.877000E+01	  0.060881764	5.218600E+01	  0.060881764	1.235000E+00
206	  0.061082166	-3.215700E+01	  0.061082166	2.911300E+01	  0.061082166	5.218700E+01	  0.061082166	1.253000E+00
207	  0.061282568	-3.221100E+01	  0.061282568	2.943700E+01	  0.061282568	5.216500E+01	  0.061282568	1.257000E+00
208	  0.061482966	-3.211400E+01	  0.061482966	2.948600E+01	  0.061482966	5.218900E+01	  0.061482966	1.274000E+00
209	  0.061683368	-3.207700E+01	  0.061683368	2.983500E+01	  0.061683368	5.219000E+01	  0.061683368	1.293000E+00
210	  0.061883770	-3.208500E+01	  0.061883770	2.946200E+01	  0.061883770	5.219700E+01	  0.061883770	1.277000E+00
211	  0.062084168	-3.210000E+01	  0.062084168	2.987100E+01	  0.062084168	5.218400E+01	  0.062084168	1.291000E+00
212	  0.062284570	-3.209400E+01	  0.062284570	3.012300E+01	  0.062284570	5.217900E+01	  0.062284570	1.302000E+00
213	  0.062484972	-3.210700E+01	  0.062484972	2.993000E+01	  0.062484972	5.218100E+01	  0.062484972	1.292000E+00
214	  0.062685370	-3.214800E+01	  0.062685370	3.003400E+01	  0.062685370	5.216800E+01	  0.062685370	1.290000E+00
215	  0.062885776	-3.207700E+01	  0.062885776	2.979000E+01	  0.062885776	5.219100E+01	  0.062885776	1.291000E+00
216	  0.063086174	-3.219500E+01	  0.063086174	3.026200E+01	  0.063086174	5.215100E+01	  0.063086174	1.291000E+00
217	  0.063286573	-3.219800E+01	  0.063286573	2.988900E+01	  0.063286573	5.215800E+01	  0.063286573	1.277000E+00
218	  0.063486971	-3.223100E+01	  0.063486971	2.954200E+01	  0.063486971	5.215800E+01	  0.063486971	1.258000E+00
219	  0.063687377	-3.230300E+01	  0.063687377	2.941100E+01	  0.063687377	5.214300E+01	  0.063687377	1.242000E+00
220	  0.063887775	-3.222700E+01	  0.063887775	2.919300E+01	  0.063887775	5.216700E+01	  0.063887775	1.246000E+00
221	  0.064088173	-3.224400E+01	  0.064088173	2.922100E+01	  0.064088173	5.216200E+01	  0.064088173	1.244000E+00
222	  0.064288579	-3.220600E+01	  0.064288579	2.862200E+01	  0.064288579	5.218500E+01	  0.064288579	1.227000E+00
223	  0.064488977	-3.219900E+01	  0.064488977	2.832700E+01	  0.064488977	5.219400E+01	  0.064488977	1.216000E+00
224	  0.064689375	-3.216100E+01	  0.064689375	2.821900E+01	  0.064689375	5.220600E+01	  0.064689375	1.217000E+00
225	  0.064889781	-3.216600E+01	  0.064889781	2.804200E+01	  0.064889781	5.220900E+01	  0.064889781	1.210000E+00
226	  0.065090179	-3.210400E+01	  0.065090179	2.837600E+01	  0.065090179	5.221700E+01	  0.065090179	1.232000E+00
227	  0.065290578	-3.202100E+01	  0.065290578	2.787500E+01	  0.065290578	5.225000E+01	  0.065290578	1.225000E+00
228	  0.065490983	-3.203400E+01	  0.065490983	2.782400E+01	  0.065490983	5.224800E+01	  0.065490983	1.221000E+00
229	  0.065691382	-3.195400E+01	  0.065691382	2.748600E+01	  0.065691382	5.227600E+01	  0.065691382	1.219000E+00
230	  0.065891780	-3.194000E+01	  0.065891780	2.778700E+01	  0.065891780	5.227300E+01	  0.065891780	1.233000E+00
231	  0.066092186	-3.194700E+01	  0.066092186	2.744500E+01	  0.066092186	5.227900E+01	  0.066092186	1.218000E+00
232	  0.066292584	-3.192000E+01	  0.066292584	2.789100E+01	  0.066292584	5.227600E+01	  0.066292584	1.240000E+00
233	  0.066492982	-3.192300E+01	  0.066492982	2.820200E+01	  0.066492982	5.226900E+01	  0.066492982	1.252000E+00
234	  0.066693388	-3.193100E+01	  0.066693388	2.781700E+01	  0.066693388	5.227500E+01	  0.066693388	1.235000E+00
235	  0.066893786	-3.186000E+01	  0.066893786	2.811000E+01	  0.066893786	5.228700E+01	  0.066893786	1.258000E+00
236	  0.067094192	-3.190600E+01	  0.067094192	2.826200E+01	  0.067094192	5.227200E+01	  0.067094192	1.257000E+00
237	  0.067294590	-3.198400E+01	  0.067294590	2.772700E+01	  0.067294590	5.226300E+01	  0.067294590	1.224000E+00
238	  0.067494988	-3.195800E+01	  0.067494988	2.793100E+01	  0.067494988	5.226500E+01	  0.067494988	1.236000E+00
239	  0.067695394	-3.197200E+01	  0.067695394	2.762300E+01	  0.067695394	5.226800E+01	  0.067695394	1.222000E+00
240	  0.067895792	-3.202100E+01	  0.067895792	2.818200E+01	  0.067895792	5.224300E+01	  0.067895792	1.237000E+00
241	  0.068096191	-3.202100E+01	  0.068096191	2.755400E+01	  0.068096191	5.225700E+01	  0.068096191	1.212000E+00
242	  0.068296596	-3.212500E+01	  0.068296596	2.772100E+01	  0.068296596	5.222600E+01	  0.068296596	1.203000E+00
243	  0.068496995	-3.215200E+01	  0.068496995	2.736800E+01	  0.068496995	5.222700E+01	  0.068496995	1.185000E+00
244	  0.068697393	-3.211200E+01	  0.068697393	2.678100E+01	  0.068697393	5.225000E+01	  0.068697393	1.168000E+00
245	  0.068897791	-3.215200E+01	  0.068897791	2.685100E+01	  0.068897791	5.223800E+01	  0.068897791	1.165000E+00
246	  0.069098189	-3.217500E+01	  0.069098189	2.588600E+01	  0.069098189	5.225200E+01	  0.069098189	1.123000E+00
247	  0.069298595	-3.226800E+01	  0.069298595	2.559900E+01	  0.069298595	5.223300E+01	  0.069298595	1.099000E+00
248	  0.069498993	-3.215700E+01	  0.069498993	2.517700E+01	  0.069498993	5.227100E+01	  0.069498993	1.097000E+00
249	  0.069699399	-3.221800E+01	  0.069699399	2.481300E+01	  0.069699399	5.226200E+01	  0.069699399	1.075000E+00
250	  0.069899797	-3.219100E+01	  0.069899797	2.381000E+01	  0.069899797	5.228900E+01	  0.069899797	1.038000E+00
251	  0.070100196	-3.206000E+01	  0.070100196	2.411200E+01	  0.070100196	5.231800E+01	  0.070100196	1.067000E+00
252	  0.070300601	-3.202100E+01	  0.070300601	2.355300E+01	  0.070300601	5.234000E+01	  0.070300601	1.048000E+00
253	  0.070501000	-3.200100E+01	  0.070501000	2.318800E+01	  0.070501000	5.235200E+01	  0.070501000	1.036000E+00
254	  0.070701398	-3.194800E+01	  0.070701398	2.300500E+01	  0.070701398	5.237000E+01	  0.070701398	1.034000E+00
255	  0.070901804	-3.181800E+01	  0.070901804	2.305000E+01	  0.070901804	5.240600E+01	  0.070901804	1.053000E+00
256	  0.071102202	-3.184100E+01	  0.071102202	2.299300E+01	  0.071102202	5.240000E+01	  0.071102202	1.047000E+00
257	  0.071302600	-3.179000E+01	  0.071302600	2.316800E+01	  0.071302600	5.241100E+01	  0.071302600	1.061000E+00
258	  0.071503006	-3.168400E+01	  0.071503006	2.254100E+01	  0.071503006	5.245400E+01	  0.071503006	1.048000E+00
259	  0.071703404	-3.168300E+01	  0.071703404	2.266700E+01	  0.071703404	5.245200E+01	  0.071703404	1.053000E+00
260	  0.071903802	-3.167000E+01	  0.071903802	2.307000E+01	  0.071903802	5.244800E+01	  0.071903802	1.073000E+00
261	  0.072104208	-3.165400E+01	  0.072104208	2.283800E+01	  0.072104208	5.245700E+01	  0.072104208	1.065000E+00
262	  0.072304606	-3.162600E+01	  0.072304606	2.283800E+01	  0.072304606	5.246500E+01	  0.072304606	1.068000E+00
263	  0.072505005	-3.164400E+01	  0.072505005	2.249200E+01	  0.072505005	5.246600E+01	  0.072505005	1.051000E+00
264	  0.072705410	-3.164300E+01	  0.072705410	2.345500E+01	  0.072705410	5.244800E+01	  0.072705410	1.093000E+00
265	  0.072905809	-3.166400E+01	  0.072905809	2.331500E+01	  0.072905809	5.244400E+01	  0.072905809	1.084000E+00
266	  0.073106214	-3.162600E+01	  0.073106214	2.333800E+01	  0.073106214	5.245500E+01	  0.073106214	1.090000E+00
267	  0.073306613	-3.165500E+01	  0.073306613	2.322900E+01	  0.073306613	5.244900E+01	  0.073306613	1.082000E+00
268	  0.073507011	-3.166600E+01	  0.073507011	2.314400E+01	  0.073507011	5.244700E+01	  0.073507011	1.076000E+00
269	  0.073707417	-3.165900E+01	  0.073707417	2.298100E+01	  0.073707417	5.245200E+01	  0.073707417	1.070000E+00
270	  0.073907815	-3.171200E+01	  0.073907815	2.255700E+01	  0.073907815	5.244600E+01	  0.073907815	1.045000E+00
271	  0.074108213	-3.168500E+01	  0.074108213	2.271700E+01	  0.074108213	5.245000E+01	  0.074108213	1.055000E+00
272	  0.074308619	-3.172600E+01	  0.074308619	2.259800E+01	  0.074308619	5.244100E+01	  0.074308619	1.045000E+00
273	  0.074509017	-3.176700E+01	  0.074509017	2.233000E+01	  0.074509017	5.243400E+01	  0.074509017	1.028000E+00
274	  0.074709415	-3.173500E+01	  0.074709415	2.205900E+01	  0.074709415	5.244800E+01	  0.074709415	1.020000E+00
275	  0.074909821	-3.173900E+01	  0.074909821	2.186500E+01	  0.074909821	5.245100E+01	  0.074909821	1.011000E+00
276	  0.075110219	-3.181300E+01	  0.075110219	2.127200E+01	  0.075110219	5.244000E+01	  0.075110219	9.770000E-01
277	  0.075310618	-3.170600E+01	  0.075310618	2.126000E+01	  0.075310618	5.247100E+01	  0.075310618	9.890000E-01
278	  0.075511023	-3.175200E+01	  0.075511023	2.115300E+01	  0.075511023	5.246000E+01	  0.075511023	9.790000E-01
279	  0.075711422	-3.170300E+01	  0.075711422	2.049000E+01	  0.075711422	5.248600E+01	  0.075711422	9.550000E-01
280	  0.075911827	-3.174700E+01	  0.075911827	2.047200E+01	  0.075911827	5.247300E+01	  0.075911827	9.490000E-01
281	  0.076112226	-3.174900E+01	  0.076112226	2.004600E+01	  0.076112226	5.248000E+01	  0.076112226	9.300000E-01
282	  0.076312624	-3.164300E+01	  0.076312624	1.983000E+01	  0.076312624	5.251500E+01	  0.076312624	9.330000E-01
283	  0.076513030	-3.166700E+01	  0.076513030	1.975700E+01	  0.076513030	5.250900E+01	  0.076513030	9.270000E-01
284	  0.076713428	-3.164200E+01	  0.076713428	1.965000E+01	  0.076713428	5.251800E+01	  0.076713428	9.250000E-01
285	  0.076913826	-3.163700E+01	  0.076913826	1.998600E+01	  0.076913826	5.251400E+01	  0.076913826	9.400000E-01
286	  0.077114232	-3.168300E+01	  0.077114232	1.957900E+01	  0.077114232	5.250700E+01	  0.077114232	9.170000E-01
287	  0.077314630	-3.166200E+01	  0.077314630	1.907400E+01	  0.077314630	5.252200E+01	  0.077314630	8.970000E-01
288	  0.077515028	-3.162800E+01	  0.077515028	1.924100E+01	  0.077515028	5.252900E+01	  0.077515028	9.080000E-01
289	  0.077715434	-3.159700E+01	  0.077715434	1.836100E+01	  0.077715434	5.255300E+01	  0.077715434	8.710000E-01
290	  0.077915832	-3.159200E+01	  0.077915832	1.879600E+01	  0.077915832	5.254700E+01	  0.077915832	8.920000E-01
291	  0.078116231	-3.160400E+01	  0.078116231	1.850900E+01	  0.078116231	5.254900E+01	  0.078116231	8.770000E-01
292	  0.078316636	-3.163100E+01	  0.078316636	1.804900E+01	  0.078316636	5.254800E+01	  0.078316636	8.530000E-01
293	  0.078517035	-3.160900E+01	  0.078517035	1.801100E+01	  0.078517035	5.255500E+01	  0.078517035	8.540000E-01
294	  0.078717433	-3.154200E+01	  0.078717433	1.782700E+01	  0.078717433	5.257800E+01	  0.078717433	8.520000E-01
295	  0.078917839	-3.166800E+01	  0.078917839	1.717800E+01	  0.078917839	5.255000E+01	  0.078917839	8.100000E-01
296	  0.079118237	-3.154300E+01	  0.079118237	1.693000E+01	  0.079118237	5.259200E+01	  0.079118237	8.110000E-01
297	  0.079318643	-3.161100E+01	  0.079318643	1.700600E+01	  0.079318643	5.257000E+01	  0.079318643	8.080000E-01
298	  0.079519041	-3.156600E+01	  0.079519041	1.640400E+01	  0.079519041	5.259200E+01	  0.079519041	7.840000E-01
299	  0.079719439	-3.148700E+01	  0.079719439	1.650100E+01	  0.079719439	5.261500E+01	  0.079719439	7.960000E-01
300	  0.079919845	-3.150900E+01	  0.079919845	1.581100E+01	  0.079919845	5.261800E+01	  0.079919845	7.620000E-01
301	  0.080120243	-3.149300E+01	  0.080120243	1.573000E+01	  0.080120243	5.262400E+01	  0.080120243	7.600000E-01
302	  0.080320641	-3.139800E+01	  0.080320641	1.496700E+01	  0.080320641	5.266500E+01	  0.080320641	7.320000E-01
303	  0.080521047	-3.136700E+01	  0.080521047	1.519800E+01	  0.080521047	5.267100E+01	  0.080521047	7.460000E-01
304	  0.080721445	-3.137100E+01	  0.080721445	1.530400E+01	  0.080721445	5.266800E+01	  0.080721445	7.510000E-01
305	  0.080921844	-3.135100E+01	  0.080921844	1.466200E+01	  0.080921844	5.268300E+01	  0.080921844	7.220000E-01
306	  0.081122249	-3.125900E+01	  0.081122249	1.481200E+01	  0.081122249	5.271100E+01	  0.081122249	7.370000E-01
307	  0.081322648	-3.125000E+01	  0.081322648	1.452400E+01	  0.081322648	5.271700E+01	  0.081322648	7.240000E-01
308	  0.081523046	-3.122500E+01	  0.081523046	1.459300E+01	  0.081523046	5.272400E+01	  0.081523046	7.300000E-01
309	  0.081723452	-3.118600E+01	  0.081723452	1.421700E+01	  0.081723452	5.274200E+01	  0.081723452	7.150000E-01
310	  0.081923850	-3.124800E+01	  0.081923850	1.415600E+01	  0.081923850	5.272300E+01	  0.081923850	7.060000E-01
311	  0.082124248	-3.118700E+01	  0.082124248	1.368700E+01	  0.082124248	5.274800E+01	  0.082124248	6.890000E-01
312	  0.082324654	-3.113500E+01	  0.082324654	1.404500E+01	  0.082324654	5.276100E+01	  0.082324654	7.110000E-01
313	  0.082525052	-3.114200E+01	  0.082525052	1.412500E+01	  0.082525052	5.275700E+01	  0.082525052	7.140000E-01
314	  0.082725458	-3.115200E+01	  0.082725458	1.354400E+01	  0.082725458	5.276200E+01	  0.082725458	6.840000E-01
315	  0.082925856	-3.117100E+01	  0.082925856	1.366900E+01	  0.082925856	5.275400E+01	  0.082925856	6.890000E-01
316	  0.083126254	-3.112700E+01	  0.083126254	1.352100E+01	  0.083126254	5.277000E+01	  0.083126254	6.850000E-01
317	  0.083326660	-3.116800E+01	  0.083326660	1.327800E+01	  0.083326660	5.276000E+01	  0.083326660	6.700000E-01
318	  0.083527058	-3.107400E+01	  0.083527058	1.338400E+01	  0.083527058	5.278900E+01	  0.083527058	6.830000E-01
319	  0.083727457	-3.113500E+01	  0.083727457	1.315700E+01	  0.083727457	5.277200E+01	  0.083727457	6.670000E-01
320	  0.083927862	-3.113900E+01	  0.083927862	1.314200E+01	  0.083927862	5.277100E+01	  0.083927862	6.660000E-01
321	  0.084128261	-3.116800E+01	  0.084128261	1.278500E+01	  0.084128261	5.276600E+01	  0.084128261	6.460000E-01
322	  0.084328659	-3.103700E+01	  0.084328659	1.218300E+01	  0.084328659	5.281600E+01	  0.084328659	6.260000E-01
323	  0.084529065	-3.107200E+01	  0.084529065	1.243000E+01	  0.084529065	5.280200E+01	  0.084529065	6.350000E-01
324	  0.084729463	-3.103500E+01	  0.084729463	1.234500E+01	  0.084729463	5.281500E+01	  0.084729463	6.340000E-01
325	  0.084929861	-3.100600E+01	  0.084929861	1.165900E+01	  0.084929861	5.283300E+01	  0.084929861	6.010000E-01
326	  0.085130267	-3.098900E+01	  0.085130267	1.173200E+01	  0.085130267	5.283700E+01	  0.085130267	6.060000E-01
327	  0.085330658	-3.093000E+01	  0.085330658	1.128600E+01	  0.085330658	5.286200E+01	  0.085330658	5.880000E-01
328	  0.085531056	-3.094100E+01	  0.085531056	1.127700E+01	  0.085531056	5.285800E+01	  0.085531056	5.870000E-01
329	  0.085731462	-3.091100E+01	  0.085731462	1.169500E+01	  0.085731462	5.286400E+01	  0.085731462	6.100000E-01
330	  0.085931860	-3.086600E+01	  0.085931860	1.063200E+01	  0.085931860	5.289100E+01	  0.085931860	5.590000E-01
331	  0.086132258	-3.079000E+01	  0.086132258	1.081700E+01	  0.086132258	5.291500E+01	  0.086132258	5.730000E-01
332	  0.086332664	-3.081500E+01	  0.086332664	1.093100E+01	  0.086332664	5.290500E+01	  0.086332664	5.780000E-01
333	  0.086533062	-3.075500E+01	  0.086533062	1.093900E+01	  0.086533062	5.292600E+01	  0.086533062	5.820000E-01
334	  0.086733460	-3.074100E+01	  0.086733460	1.093300E+01	  0.086733460	5.293100E+01	  0.086733460	5.830000E-01
335	  0.086933866	-3.076800E+01	  0.086933866	1.118700E+01	  0.086933866	5.291800E+01	  0.086933866	5.940000E-01
336	  0.087134264	-3.072800E+01	  0.087134264	1.108400E+01	  0.087134264	5.293400E+01	  0.087134264	5.920000E-01
337	  0.087334670	-3.073000E+01	  0.087334670	1.108100E+01	  0.087334670	5.293300E+01	  0.087334670	5.920000E-01
338	  0.087535068	-3.078300E+01	  0.087535068	1.083300E+01	  0.087535068	5.291700E+01	  0.087535068	5.750000E-01
339	  0.087735467	-3.071800E+01	  0.087735467	1.068300E+01	  0.087735467	5.294100E+01	  0.087735467	5.710000E-01
340	  0.087935872	-3.072800E+01	  0.087935872	1.075800E+01	  0.087935872	5.293700E+01	  0.087935872	5.750000E-01
341	  0.088136271	-3.073300E+01	  0.088136271	1.080000E+01	  0.088136271	5.293500E+01	  0.088136271	5.770000E-01
342	  0.088336669	-3.078600E+01	  0.088336669	1.040800E+01	  0.088336669	5.292100E+01	  0.088336669	5.520000E-01
343	  0.088537075	-3.073000E+01	  0.088537075	1.008900E+01	  0.088537075	5.294300E+01	  0.088537075	5.390000E-01
344	  0.088737473	-3.075600E+01	  0.088737473	1.032100E+01	  0.088737473	5.293200E+01	  0.088737473	5.500000E-01
345	  0.088937871	-3.074900E+01	  0.088937871	9.693000E+00	  0.088937871	5.294100E+01	  0.088937871	5.170000E-01
346	  0.089138277	-3.075000E+01	  0.089138277	9.265000E+00	  0.089138277	5.294400E+01	  0.089138277	4.940000E-01
347	  0.089338675	-3.068900E+01	  0.089338675	8.987000E+00	  0.089338675	5.296800E+01	  0.089338675	4.830000E-01
348	  0.089539073	-3.072500E+01	  0.089539073	8.684000E+00	  0.089539073	5.295800E+01	  0.089539073	4.650000E-01
349	  0.089739479	-3.080600E+01	  0.089739479	8.537000E+00	  0.089739479	5.293100E+01	  0.089739479	4.530000E-01
350	  0.089939877	-3.065800E+01	  0.089939877	8.259000E+00	  0.089939877	5.298500E+01	  0.089939877	4.460000E-01
351	  0.090140276	-3.065800E+01	  0.090140276	8.109000E+00	  0.090140276	5.298600E+01	  0.090140276	4.380000E-01
352	  0.090340681	-3.057100E+01	  0.090340681	7.842000E+00	  0.090340681	5.302000E+01	  0.090340681	4.280000E-01
353	  0.090541080	-3.056400E+01	  0.090541080	7.733000E+00	  0.090541080	5.302300E+01	  0.090541080	4.230000E-01
354	  0.090741485	-3.055800E+01	  0.090741485	7.543000E+00	  0.090741485	5.302700E+01	  0.090741485	4.130000E-01
355	  0.090941884	-3.050100E+01	  0.090941884	7.201000E+00	  0.090941884	5.305000E+01	  0.090941884	3.970000E-01
356	  0.091142282	-3.043300E+01	  0.091142282	7.277000E+00	  0.091142282	5.307400E+01	  0.091142282	4.040000E-01
357	  0.091342688	-3.037400E+01	  0.091342688	7.184000E+00	  0.091342688	5.309600E+01	  0.091342688	4.020000E-01
358	  0.091543086	-3.035300E+01	  0.091543086	7.458000E+00	  0.091543086	5.310200E+01	  0.091543086	4.180000E-01
359	  0.091743484	-3.030400E+01	  0.091743484	7.408000E+00	  0.091743484	5.312000E+01	  0.091743484	4.180000E-01
360	  0.091943890	-3.034500E+01	  0.091943890	7.462000E+00	  0.091943890	5.310400E+01	  0.091943890	4.190000E-01
361	  0.092144288	-3.031100E+01	  0.092144288	7.751000E+00	  0.092144288	5.311500E+01	  0.092144288	4.370000E-01
362	  0.092344686	-3.032300E+01	  0.092344686	7.698000E+00	  0.092344686	5.311100E+01	  0.092344686	4.330000E-01
363	  0.092545092	-3.028900E+01	  0.092545092	7.790000E+00	  0.092545092	5.312300E+01	  0.092545092	4.400000E-01
364	  0.092745490	-3.032800E+01	  0.092745490	7.982000E+00	  0.092745490	5.310700E+01	  0.092745490	4.490000E-01
365	  0.092945889	-3.035400E+01	  0.092945889	8.134000E+00	  0.092945889	5.309600E+01	  0.092945889	4.560000E-01
366	  0.093146294	-3.030300E+01	  0.093146294	7.949000E+00	  0.093146294	5.311600E+01	  0.093146294	4.490000E-01
367	  0.093346693	-3.035000E+01	  0.093346693	7.925000E+00	  0.093346693	5.309900E+01	  0.093346693	4.450000E-01
368	  0.093547091	-3.036800E+01	  0.093547091	7.933000E+00	  0.093547091	5.309200E+01	  0.093547091	4.440000E-01
369	  0.093747497	-3.044500E+01	  0.093747497	8.060000E+00	  0.093747497	5.306300E+01	  0.093747497	4.470000E-01
370	  0.093947895	-3.041400E+01	  0.093947895	7.944000E+00	  0.093947895	5.307600E+01	  0.093947895	4.420000E-01
371	  0.094148301	-3.043600E+01	  0.094148301	7.628000E+00	  0.094148301	5.307000E+01	  0.094148301	4.240000E-01
372	  0.094348699	-3.047700E+01	  0.094348699	7.046000E+00	  0.094348699	5.305900E+01	  0.094348699	3.890000E-01
373	  0.094549097	-3.048800E+01	  0.094549097	7.085000E+00	  0.094549097	5.305500E+01	  0.094549097	3.910000E-01
374	  0.094749503	-3.048900E+01	  0.094749503	6.903000E+00	  0.094749503	5.305600E+01	  0.094749503	3.810000E-01
375	  0.094949901	-3.054500E+01	  0.094949901	6.770000E+00	  0.094949901	5.303700E+01	  0.094949901	3.710000E-01
376	  0.095150299	-3.049700E+01	  0.095150299	6.467000E+00	  0.095150299	5.305600E+01	  0.095150299	3.570000E-01
377	  0.095350705	-3.047800E+01	  0.095350705	6.259000E+00	  0.095350705	5.306400E+01	  0.095350705	3.460000E-01
378	  0.095551103	-3.048200E+01	  0.095551103	5.980000E+00	  0.095551103	5.306500E+01	  0.095551103	3.310000E-01
379	  0.095751502	-3.049100E+01	  0.095751502	5.628000E+00	  0.095751502	5.306400E+01	  0.095751502	3.110000E-01
380	  0.095951907	-3.047200E+01	  0.095951907	5.025000E+00	  0.095951907	5.307400E+01	  0.095951907	2.780000E-01
381	  0.096152306	-3.050400E+01	  0.096152306	5.229000E+00	  0.096152306	5.306100E+01	  0.096152306	2.880000E-01
382	  0.096352704	-3.037700E+01	  0.096352704	4.776000E+00	  0.096352704	5.311000E+01	  0.096352704	2.680000E-01
383	  0.096553110	-3.035200E+01	  0.096553110	4.631000E+00	  0.096553110	5.312000E+01	  0.096553110	2.600000E-01
384	  0.096753508	-3.033300E+01	  0.096753508	4.247000E+00	  0.096753508	5.312900E+01	  0.096753508	2.390000E-01
385	  0.096953906	-3.025400E+01	  0.096953906	4.516000E+00	  0.096953906	5.315700E+01	  0.096953906	2.570000E-01
386	  0.097154312	-3.029900E+01	  0.097154312	4.555000E+00	  0.097154312	5.314000E+01	  0.097154312	2.580000E-01
387	  0.097354710	-3.032300E+01	  0.097354710	4.491000E+00	  0.097354710	5.313100E+01	  0.097354710	2.530000E-01
388	  0.097555116	-3.028700E+01	  0.097555116	4.302000E+00	  0.097555116	5.314600E+01	  0.097555116	2.440000E-01
389	  0.097755514	-3.029100E+01	  0.097755514	3.942000E+00	  0.097755514	5.314600E+01	  0.097755514	2.230000E-01
390	  0.097955912	-3.030500E+01	  0.097955912	4.133000E+00	  0.097955912	5.314000E+01	  0.097955912	2.340000E-01
391	  0.098156318	-3.027300E+01	  0.098156318	4.044000E+00	  0.098156318	5.315200E+01	  0.098156318	2.290000E-01
392	  0.098356716	-3.033000E+01	  0.098356716	3.882000E+00	  0.098356716	5.313200E+01	  0.098356716	2.190000E-01
393	  0.098557115	-3.035600E+01	  0.098557115	3.640000E+00	  0.098557115	5.312300E+01	  0.098557115	2.040000E-01
394	  0.098757520	-3.031400E+01	  0.098757520	3.668000E+00	  0.098757520	5.313800E+01	  0.098757520	2.070000E-01
395	  0.098957919	-3.036200E+01	  0.098957919	3.465000E+00	  0.098957919	5.312100E+01	  0.098957919	1.940000E-01
396	  0.099158317	-3.035300E+01	  0.099158317	3.276000E+00	  0.099158317	5.312500E+01	  0.099158317	1.840000E-01
397	  0.099358723	-3.036200E+01	  0.099358723	2.975000E+00	  0.099358723	5.312300E+01	  0.099358723	1.670000E-01
398	  0.099559121	-3.040300E+01	  0.099559121	2.709000E+00	  0.099559121	5.310800E+01	  0.099559121	1.510000E-01
399	  0.099759519	-3.038800E+01	  0.099759519	2.296000E+00	  0.099759519	5.311500E+01	  0.099759519	1.280000E-01
400	  0.099959925	-3.032500E+01	  0.099959925	1.790000E+00	  0.099959925	5.313900E+01	  0.099959925	1.010000E-01
401	  0.100160323	-3.034000E+01	  0.100160323	1.727000E+00	  0.100160323	5.313400E+01	  0.100160323	9.700000E-02
402	  0.100360721	-3.032100E+01	  0.100360721	1.714000E+00	  0.100360721	5.314100E+01	  0.100360721	9.700000E-02
403	  0.100561127	-3.033900E+01	  0.100561127	1.153000E+00	  0.100561127	5.313500E+01	  0.100561127	6.500000E-02
404	  0.100761525	-3.035900E+01	  0.100761525	8.730000E-01	  0.100761525	5.312800E+01	  0.100761525	4.900000E-02
405	  0.100961931	-3.030300E+01	  0.100961931	-1.400000E-02	  0.100961931	5.314900E+01	  0.100961931	0.000000E+00
406	  0.101162329	-3.027400E+01	  0.101162329	-9.480000E-01	  0.101162329	5.316000E+01	  0.101162329	-5.300000E-02
407	  0.101362728	-3.011600E+01	  0.101362728	-3.750000E-01	  0.101362728	5.322000E+01	  0.101362728	-2.100000E-02
408	  0.101563133	-3.012500E+01	  0.101563133	-5.360000E-01	  0.101563133	5.321700E+01	  0.101563133	-3.100000E-02
409	  0.101763532	-3.010100E+01	  0.101763532	-6.840000E-01	  0.101763532	5.322500E+01	  0.101763532	-3.900000E-02
410	  0.101963930	-2.993900E+01	  0.101963930	-4.670000E-01	  0.101963930	5.328900E+01	  0.101963930	-2.700000E-02
411	  0.102164336	-2.999000E+01	  0.102164336	-9.040000E-01	  0.102164336	5.326800E+01	  0.102164336	-5.300000E-02
412	  0.102364734	-3.001400E+01	  0.102364734	-6.920000E-01	  0.102364734	5.325900E+01	  0.102364734	-4.000000E-02
413	  0.102565132	-2.993800E+01	  0.102565132	-6.660000E-01	  0.102565132	5.328900E+01	  0.102565132	-3.900000E-02
414	  0.102765530	-2.993300E+01	  0.102765530	-3.550000E-01	  0.102765530	5.329100E+01	  0.102765530	-2.100000E-02
415	  0.102965929	-2.993600E+01	  0.102965929	-3.300000E-01	  0.102965929	5.329000E+01	  0.102965929	-1.900000E-02
416	  0.103166327	-2.981200E+01	  0.103166327	-2.200000E-02	  0.103166327	5.333900E+01	  0.103166327	-1.000000E-03
417	  0.103366733	-2.982400E+01	  0.103366733	-3.230000E-01	  0.103366733	5.333400E+01	  0.103366733	-1.900000E-02
418	  0.103567131	-2.983000E+01	  0.103567131	-1.530000E-01	  0.103567131	5.333200E+01	  0.103567131	-9.000000E-03
419	  0.103767529	-2.979700E+01	  0.103767529	-3.200000E-02	  0.103767529	5.334500E+01	  0.103767529	-1.000000E-03
420	  0.103967935	-2.976400E+01	  0.103967935	7.600000E-02	  0.103967935	5.335800E+01	  0.103967935	4.000000E-03
421	  0.104168333	-2.989000E+01	  0.104168333	-7.930000E-01	  0.104168333	5.330800E+01	  0.104168333	-4.700000E-02
422	  0.104368731	-2.982300E+01	  0.104368731	3.520000E-01	  0.104368731	5.333400E+01	  0.104368731	2.100000E-02
423	  0.104569137	-2.980600E+01	  0.104569137	2.850000E-01	  0.104569137	5.334100E+01	  0.104569137	1.700000E-02
424	  0.104769535	-2.983200E+01	  0.104769535	4.300000E-02	  0.104769535	5.333100E+01	  0.104769535	2.000000E-03
425	  0.104969934	-2.978900E+01	  0.104969934	-2.770000E-01	  0.104969934	5.334800E+01	  0.104969934	-1.600000E-02
426	  0.105170339	-2.981000E+01	  0.105170339	-1.150000E+00	  0.105170339	5.333900E+01	  0.105170339	-6.900000E-02
427	  0.105370738	-2.985900E+01	  0.105370738	-8.020000E-01	  0.105370738	5.332000E+01	  0.105370738	-4.800000E-02
428	  0.105571143	-2.984900E+01	  0.105571143	-1.038000E+00	  0.105571143	5.332300E+01	  0.105571143	-6.200000E-02
429	  0.105771542	-2.983800E+01	  0.105771542	-6.010000E-01	  0.105771542	5.332800E+01	  0.105771542	-3.600000E-02
430	  0.105971940	-2.985700E+01	  0.105971940	-1.179000E+00	  0.105971940	5.332000E+01	  0.105971940	-7.000000E-02
431	  0.106172346	-2.976100E+01	  0.106172346	-1.269000E+00	  0.106172346	5.335800E+01	  0.106172346	-7.600000E-02
432	  0.106372744	-2.979700E+01	  0.106372744	-1.556000E+00	  0.106372744	5.334300E+01	  0.106372744	-9.300000E-02
433	  0.106573142	-2.984500E+01	  0.106573142	-1.325000E+00	  0.106573142	5.332400E+01	  0.106573142	-7.900000E-02
434	  0.106773548	-2.986000E+01	  0.106773548	-1.697000E+00	  0.106773548	5.331800E+01	  0.106773548	-1.010000E-01
435	  0.106973946	-2.983200E+01	  0.106973946	-1.827000E+00	  0.106973946	5.332900E+01	  0.106973946	-1.090000E-01
436	  0.107174344	-2.983500E+01	  0.107174344	-1.857000E+00	  0.107174344	5.332800E+01	  0.107174344	-1.110000E-01
437	  0.107374750	-2.977800E+01	  0.107374750	-1.795000E+00	  0.107374750	5.335000E+01	  0.107374750	-1.080000E-01
438	  0.107575148	-2.985700E+01	  0.107575148	-2.157000E+00	  0.107575148	5.331800E+01	  0.107575148	-1.290000E-01
439	  0.107775547	-2.981500E+01	  0.107775547	-1.328000E+00	  0.107775547	5.333600E+01	  0.107775547	-7.900000E-02
440	  0.107975952	-2.989800E+01	  0.107975952	-1.748000E+00	  0.107975952	5.330300E+01	  0.107975952	-1.040000E-01
441	  0.108176351	-2.985400E+01	  0.108176351	-1.583000E+00	  0.108176351	5.332100E+01	  0.108176351	-9.400000E-02
442	  0.108376749	-2.987700E+01	  0.108376749	-1.566000E+00	  0.108376749	5.331100E+01	  0.108376749	-9.300000E-02
443	  0.108577155	-2.985500E+01	  0.108577155	-2.253000E+00	  0.108577155	5.331900E+01	  0.108577155	-1.340000E-01
444	  0.108777553	-2.992400E+01	  0.108777553	-2.054000E+00	  0.108777553	5.329200E+01	  0.108777553	-1.210000E-01
445	  0.108977959	-2.989900E+01	  0.108977959	-2.071000E+00	  0.108977959	5.330200E+01	  0.108977959	-1.230000E-01
446	  0.109178357	-2.992900E+01	  0.109178357	-2.648000E+00	  0.109178357	5.328800E+01	  0.109178357	-1.570000E-01
447	  0.109378755	-2.993700E+01	  0.109378755	-3.004000E+00	  0.109378755	5.328400E+01	  0.109378755	-1.780000E-01
448	  0.109579161	-2.997000E+01	  0.109579161	-3.323000E+00	  0.109579161	5.327000E+01	  0.109579161	-1.960000E-01
449	  0.109779559	-2.994900E+01	  0.109779559	-3.545000E+00	  0.109779559	5.327800E+01	  0.109779559	-2.090000E-01
450	  0.109979957	-2.995400E+01	  0.109979957	-3.506000E+00	  0.109979957	5.327600E+01	  0.109979957	-2.070000E-01
451	  0.110180363	-2.993500E+01	  0.110180363	-4.020000E+00	  0.110180363	5.328100E+01	  0.110180363	-2.380000E-01
452	  0.110380761	-2.991700E+01	  0.110380761	-4.504000E+00	  0.110380761	5.328600E+01	  0.110380761	-2.670000E-01
453	  0.110581160	-2.991000E+01	  0.110581160	-4.476000E+00	  0.110581160	5.328900E+01	  0.110581160	-2.660000E-01
454	  0.110781565	-2.995600E+01	  0.110781565	-4.724000E+00	  0.110781565	5.327000E+01	  0.110781565	-2.790000E-01
455	  0.110981964	-2.988600E+01	  0.110981964	-5.361000E+00	  0.110981964	5.329400E+01	  0.110981964	-3.190000E-01
456	  0.111182362	-2.989100E+01	  0.111182362	-5.990000E+00	  0.111182362	5.328700E+01	  0.111182362	-3.560000E-01
457	  0.111382768	-2.989100E+01	  0.111382768	-5.906000E+00	  0.111382768	5.328800E+01	  0.111382768	-3.510000E-01
458	  0.111583166	-2.983000E+01	  0.111583166	-5.322000E+00	  0.111583166	5.331600E+01	  0.111583166	-3.190000E-01
459	  0.111783572	-2.979000E+01	  0.111783572	-5.880000E+00	  0.111783572	5.332800E+01	  0.111783572	-3.540000E-01
460	  0.111983970	-2.972900E+01	  0.111983970	-5.939000E+00	  0.111983970	5.335200E+01	  0.111983970	-3.600000E-01
461	  0.112184368	-2.978600E+01	  0.112184368	-5.452000E+00	  0.112184368	5.333200E+01	  0.112184368	-3.280000E-01
462	  0.112384774	-2.969900E+01	  0.112384774	-6.349000E+00	  0.112384774	5.336100E+01	  0.112384774	-3.860000E-01
463	  0.112585172	-2.971100E+01	  0.112585172	-5.937000E+00	  0.112585172	5.335900E+01	  0.112585172	-3.610000E-01
464	  0.112785570	-2.965900E+01	  0.112785570	-6.167000E+00	  0.112785570	5.337800E+01	  0.112785570	-3.770000E-01
465	  0.112985976	-2.963700E+01	  0.112985976	-6.105000E+00	  0.112985976	5.338800E+01	  0.112985976	-3.740000E-01
466	  0.113186374	-2.973200E+01	  0.113186374	-6.115000E+00	  0.113186374	5.334900E+01	  0.113186374	-3.710000E-01
467	  0.113386773	-2.968900E+01	  0.113386773	-5.599000E+00	  0.113386773	5.337000E+01	  0.113386773	-3.410000E-01
468	  0.113587178	-2.968600E+01	  0.113587178	-5.639000E+00	  0.113587178	5.337100E+01	  0.113587178	-3.440000E-01
469	  0.113787577	-2.970700E+01	  0.113787577	-5.761000E+00	  0.113787577	5.336200E+01	  0.113787577	-3.500000E-01
470	  0.113987975	-2.974500E+01	  0.113987975	-5.517000E+00	  0.113987975	5.334800E+01	  0.113987975	-3.340000E-01
471	  0.114188381	-2.966800E+01	  0.114188381	-6.196000E+00	  0.114188381	5.337500E+01	  0.114188381	-3.780000E-01
472	  0.114388779	-2.974000E+01	  0.114388779	-6.010000E+00	  0.114388779	5.334700E+01	  0.114388779	-3.640000E-01
473	  0.114589177	-2.979200E+01	  0.114589177	-5.649000E+00	  0.114589177	5.332900E+01	  0.114589177	-3.400000E-01
474	  0.114789583	-2.978600E+01	  0.114789583	-6.119000E+00	  0.114789583	5.332800E+01	  0.114789583	-3.680000E-01
475	  0.114989981	-2.987100E+01	  0.114989981	-6.767000E+00	  0.114989981	5.329000E+01	  0.114989981	-4.030000E-01
476	  0.115190387	-2.985000E+01	  0.115190387	-6.898000E+00	  0.115190387	5.329700E+01	  0.115190387	-4.120000E-01
477	  0.115390785	-2.985000E+01	  0.115390785	-7.383000E+00	  0.115390785	5.329300E+01	  0.115390785	-4.410000E-01
478	  0.115591183	-2.989200E+01	  0.115591183	-7.285000E+00	  0.115591183	5.327800E+01	  0.115591183	-4.330000E-01
479	  0.115791589	-2.989200E+01	  0.115791589	-7.510000E+00	  0.115791589	5.327600E+01	  0.115791589	-4.460000E-01
480	  0.115991987	-2.984900E+01	  0.115991987	-8.047000E+00	  0.115991987	5.328800E+01	  0.115991987	-4.800000E-01
481	  0.116192386	-2.989400E+01	  0.116192386	-8.344000E+00	  0.116192386	5.326800E+01	  0.116192386	-4.950000E-01
482	  0.116392791	-2.979300E+01	  0.116392791	-8.452000E+00	  0.116392791	5.330600E+01	  0.116392791	-5.070000E-01
483	  0.116593190	-2.984800E+01	  0.116593190	-8.797000E+00	  0.116593190	5.328200E+01	  0.116593190	-5.250000E-01
484	  0.116793588	-2.984200E+01	  0.116793588	-9.169000E+00	  0.116793588	5.328000E+01	  0.116793588	-5.470000E-01
485	  0.116993994	-2.975800E+01	  0.116993994	-8.995000E+00	  0.116993994	5.331500E+01	  0.116993994	-5.420000E-01
486	  0.117194392	-2.966300E+01	  0.117194392	-8.976000E+00	  0.117194392	5.335200E+01	  0.117194392	-5.470000E-01
487	  0.117394790	-2.966300E+01	  0.117394790	-9.819000E+00	  0.117394790	5.334300E+01	  0.117394790	-5.980000E-01
488	  0.117595196	-2.966200E+01	  0.117595196	-9.717000E+00	  0.117595196	5.334500E+01	  0.117595196	-5.920000E-01
489	  0.117795594	-2.964300E+01	  0.117795594	-9.645000E+00	  0.117795594	5.335300E+01	  0.117795594	-5.890000E-01
490	  0.117995992	-2.964300E+01	  0.117995992	-9.584000E+00	  0.117995992	5.335400E+01	  0.117995992	-5.860000E-01
491	  0.118196398	-2.960800E+01	  0.118196398	-9.745000E+00	  0.118196398	5.336600E+01	  0.118196398	-5.980000E-01
492	  0.118396796	-2.966100E+01	  0.118396796	-9.276000E+00	  0.118396796	5.335000E+01	  0.118396796	-5.660000E-01
493	  0.118597202	-2.961500E+01	  0.118597202	-9.519000E+00	  0.118597202	5.336600E+01	  0.118597202	-5.840000E-01
494	  0.118797600	-2.966200E+01	  0.118797600	-9.156000E+00	  0.118797600	5.335100E+01	  0.118797600	-5.580000E-01
495	  0.118997999	-2.959500E+01	  0.118997999	-9.910000E+00	  0.118997999	5.337000E+01	  0.118997999	-6.090000E-01
496	  0.119198404	-2.970300E+01	  0.119198404	-9.503000E+00	  0.119198404	5.333100E+01	  0.119198404	-5.760000E-01
497	  0.119398803	-2.970200E+01	  0.119398803	-9.531000E+00	  0.119398803	5.333100E+01	  0.119398803	-5.780000E-01
498	  0.119599201	-2.967600E+01	  0.119599201	-9.694000E+00	  0.119599201	5.334000E+01	  0.119599201	-5.900000E-01
499	  0.119799607	-2.970500E+01	  0.119799607	-9.339000E+00	  0.119799607	5.333200E+01	  0.119799607	-5.660000E-01
500	  0.120000005	-2.971800E+01	  0.120000005	-9.914000E+00	  0.120000005	5.332100E+01	  0.120000005	-6.000000E-01
