! Anritsu VNA Master:             	Model: MS2036C/10/77
! SN:             	1601066
! /bd0/18may10/252.ns.m3.txt
! Existing Calibration Information:
! TYPE:             	Current Settings	Active Cal Settings
! TIME:             	05/10/2018 05:38:57 PM	05/10/2018 05:30:44 PM
! INTERNAL TEMP:    	58.8 C	57.8 C
! # POINTS:         	490	490
! START FREQ:       	20.000 MHz	20.000 MHz
! STOP FREQ:        	117.995 991 MHz	117.995 991 MHz
! SOURCE POWER:     	High	High
! IFBW:             	50 Hz	50 Hz
! AVG FACTOR:       	  1 	  1 
! REF PLANE 1:      	0 mm	0 mm
! REF PLANE 2:      	0 mm	0 mm
! CAL TYPE:         	Full S22	Full S22
! CAL METHOD:       	SOLT	SOLT
! CAL LINE TYPE:    	Coax	Coax
! DUT PORT 1:       	K-Conn(M)	K-Conn(M)
! DUT PORT 2:       	K-Conn(M)	K-Conn(M)
! CAL STATUS:       	OK: Accuracy High	--
! PROP-V:       	0.700
! CABLE LOSS:       	0.000 dB/m
! REF IMPEDANCE:       	50.0
! Trace Specific Parameters:	TR1	TR2	TR3	TR4
! TRACE.#.Y (GRAPH TYPE)	LOG MAG	PHASE	REAL IMPEDANCE	IMAGINARY IMPEDANCE
! TRACE.#.X 	FREQ.GHZ	FREQ.GHZ	FREQ.GHZ	FREQ.GHZ
! S-PARAMETER	S22	S22	S22	S22
! SMOOTH/APERTURE %	0	0	0	0
! WINDOW	NSL	NSL	NSL	NSL
! GATING	OFF	OFF	OFF	OFF
! FGTD	OFF	OFF	OFF	OFF
Marker Information per Trace:	TR1	TR2	TR3	TR4
!MK1	--	"MK1 TR2:  20.000 MHz,PH:-125.35°"	--	--
!MK2	--	--	"MK2 TR3:  70.100 200 MHz,Z:(16.712 ohm, -1.682 ohm)"	--
!MK3	--	--	--	--
!MK4	--	--	--	--
!MK5	--	--	--	--
!MK6	--	--	--	--
!MK7	--	--	--	--
!MK8	--	--	--	--
PNT	TR1.FREQ.GHZ	TR1.LOG MAG.dB	TR2.FREQ.GHZ	TR2.PHASE.deg	TR3.FREQ.GHZ	TR3.REAL IMPEDANCE.ohm	TR4.FREQ.GHZ	TR4.IMAGINARY IMPEDANCE.ohm
1	  0.020000000	-6.450000E-01	  0.020000000	-1.253510E+02	  0.020000000	2.351000E+00	  0.020000000	-2.578800E+01
2	  0.020200402	-6.480000E-01	  0.020200402	-1.268050E+02	  0.020200402	2.333000E+00	  0.020200402	-2.499100E+01
3	  0.020400802	-6.510000E-01	  0.020400802	-1.282600E+02	  0.020400802	2.315000E+00	  0.020400802	-2.420300E+01
4	  0.020601204	-6.540000E-01	  0.020601204	-1.297390E+02	  0.020601204	2.295000E+00	  0.020601204	-2.341300E+01
5	  0.020801604	-6.570000E-01	  0.020801604	-1.312390E+02	  0.020801604	2.280000E+00	  0.020801604	-2.262100E+01
6	  0.021002004	-6.590000E-01	  0.021002004	-1.327440E+02	  0.021002004	2.259000E+00	  0.021002004	-2.183500E+01
7	  0.021202406	-6.620000E-01	  0.021202406	-1.342560E+02	  0.021202406	2.245000E+00	  0.021202406	-2.105500E+01
8	  0.021402806	-6.650000E-01	  0.021402806	-1.357560E+02	  0.021402806	2.231000E+00	  0.021402806	-2.029000E+01
9	  0.021603208	-6.690000E-01	  0.021603208	-1.372660E+02	  0.021603208	2.221000E+00	  0.021603208	-1.952700E+01
10	  0.021803608	-6.730000E-01	  0.021803608	-1.387530E+02	  0.021803608	2.212000E+00	  0.021803608	-1.878400E+01
11	  0.022004008	-6.790000E-01	  0.022004008	-1.402740E+02	  0.022004008	2.208000E+00	  0.022004008	-1.803100E+01
12	  0.022204408	-6.850000E-01	  0.022204408	-1.417960E+02	  0.022204408	2.208000E+00	  0.022204408	-1.728500E+01
13	  0.022404809	-6.900000E-01	  0.022404809	-1.433410E+02	  0.022404809	2.205000E+00	  0.022404809	-1.653500E+01
14	  0.022605211	-6.920000E-01	  0.022605211	-1.449240E+02	  0.022605211	2.190000E+00	  0.022605211	-1.577300E+01
15	  0.022805611	-6.960000E-01	  0.022805611	-1.464840E+02	  0.022805611	2.184000E+00	  0.022805611	-1.502900E+01
16	  0.023006011	-7.000000E-01	  0.023006011	-1.480390E+02	  0.023006011	2.180000E+00	  0.023006011	-1.429300E+01
17	  0.023206413	-7.060000E-01	  0.023206413	-1.495900E+02	  0.023206413	2.183000E+00	  0.023206413	-1.356400E+01
18	  0.023406813	-7.110000E-01	  0.023406813	-1.511450E+02	  0.023406813	2.181000E+00	  0.023406813	-1.284000E+01
19	  0.023607215	-7.170000E-01	  0.023607215	-1.527160E+02	  0.023607215	2.185000E+00	  0.023607215	-1.211300E+01
20	  0.023807615	-7.250000E-01	  0.023807615	-1.543100E+02	  0.023807615	2.195000E+00	  0.023807615	-1.138000E+01
21	  0.024008015	-7.320000E-01	  0.024008015	-1.559140E+02	  0.024008015	2.204000E+00	  0.024008015	-1.064700E+01
22	  0.024208417	-7.400000E-01	  0.024208417	-1.575500E+02	  0.024208417	2.213000E+00	  0.024208417	-9.903000E+00
23	  0.024408817	-7.440000E-01	  0.024408817	-1.591930E+02	  0.024408817	2.214000E+00	  0.024408817	-9.162000E+00
24	  0.024609219	-7.510000E-01	  0.024609219	-1.608230E+02	  0.024609219	2.222000E+00	  0.024609219	-8.430000E+00
25	  0.024809619	-7.580000E-01	  0.024809619	-1.624710E+02	  0.024809619	2.233000E+00	  0.024809619	-7.693000E+00
26	  0.025010020	-7.680000E-01	  0.025010020	-1.641290E+02	  0.025010020	2.251000E+00	  0.025010020	-6.955000E+00
27	  0.025210422	-7.780000E-01	  0.025210422	-1.657920E+02	  0.025210422	2.273000E+00	  0.025210422	-6.218000E+00
28	  0.025410822	-7.890000E-01	  0.025410822	-1.674630E+02	  0.025410822	2.297000E+00	  0.025410822	-5.480000E+00
29	  0.025611224	-7.990000E-01	  0.025611224	-1.691460E+02	  0.025611224	2.321000E+00	  0.025611224	-4.739000E+00
30	  0.025811624	-8.090000E-01	  0.025811624	-1.708580E+02	  0.025811624	2.344000E+00	  0.025811624	-3.988000E+00
31	  0.026012026	-8.200000E-01	  0.026012026	-1.725680E+02	  0.026012026	2.370000E+00	  0.026012026	-3.239000E+00
32	  0.026212426	-8.310000E-01	  0.026212426	-1.742930E+02	  0.026212426	2.397000E+00	  0.026212426	-2.486000E+00
33	  0.026412826	-8.440000E-01	  0.026412826	-1.760160E+02	  0.026412826	2.430000E+00	  0.026412826	-1.734000E+00
34	  0.026613226	-8.580000E-01	  0.026613226	-1.777540E+02	  0.026613226	2.469000E+00	  0.026613226	-9.770000E-01
35	  0.026813626	-8.740000E-01	  0.026813626	-1.795050E+02	  0.026813626	2.516000E+00	  0.026813626	-2.150000E-01
36	  0.027014028	-8.900000E-01	  0.027014028	1.787330E+02	  0.027014028	2.561000E+00	  0.027014028	5.510000E-01
37	  0.027214428	-9.060000E-01	  0.027214428	1.769810E+02	  0.027214428	2.609000E+00	  0.027214428	1.313000E+00
38	  0.027414829	-9.240000E-01	  0.027414829	1.752150E+02	  0.027414829	2.662000E+00	  0.027414829	2.083000E+00
39	  0.027615231	-9.420000E-01	  0.027615231	1.734300E+02	  0.027615231	2.718000E+00	  0.027615231	2.861000E+00
40	  0.027815631	-9.600000E-01	  0.027815631	1.716410E+02	  0.027815631	2.777000E+00	  0.027815631	3.642000E+00
41	  0.028016033	-9.800000E-01	  0.028016033	1.698300E+02	  0.028016033	2.841000E+00	  0.028016033	4.434000E+00
42	  0.028216433	-1.001000E+00	  0.028216433	1.680170E+02	  0.028216433	2.910000E+00	  0.028216433	5.229000E+00
43	  0.028416833	-1.022000E+00	  0.028416833	1.661960E+02	  0.028416833	2.983000E+00	  0.028416833	6.031000E+00
44	  0.028617235	-1.045000E+00	  0.028617235	1.643640E+02	  0.028617235	3.061000E+00	  0.028617235	6.839000E+00
45	  0.028817635	-1.068000E+00	  0.028817635	1.625330E+02	  0.028817635	3.142000E+00	  0.028817635	7.651000E+00
46	  0.029018037	-1.093000E+00	  0.029018037	1.606970E+02	  0.029018037	3.234000E+00	  0.029018037	8.468000E+00
47	  0.029218437	-1.118000E+00	  0.029218437	1.588460E+02	  0.029218437	3.326000E+00	  0.029218437	9.296000E+00
48	  0.029418837	-1.145000E+00	  0.029418837	1.569810E+02	  0.029418837	3.429000E+00	  0.029418837	1.013500E+01
49	  0.029619239	-1.174000E+00	  0.029619239	1.550980E+02	  0.029619239	3.537000E+00	  0.029619239	1.098700E+01
50	  0.029819639	-1.203000E+00	  0.029819639	1.532280E+02	  0.029819639	3.653000E+00	  0.029819639	1.183800E+01
51	  0.030020041	-1.233000E+00	  0.030020041	1.513320E+02	  0.030020041	3.774000E+00	  0.030020041	1.270700E+01
52	  0.030220442	-1.263000E+00	  0.030220442	1.494450E+02	  0.030220442	3.898000E+00	  0.030220442	1.357900E+01
53	  0.030420844	-1.292000E+00	  0.030420844	1.475570E+02	  0.030420844	4.026000E+00	  0.030420844	1.445900E+01
54	  0.030621244	-1.325000E+00	  0.030621244	1.456830E+02	  0.030621244	4.169000E+00	  0.030621244	1.533900E+01
55	  0.030821642	-1.358000E+00	  0.030821642	1.437940E+02	  0.030821642	4.316000E+00	  0.030821642	1.623400E+01
56	  0.031022044	-1.394000E+00	  0.031022044	1.418890E+02	  0.031022044	4.479000E+00	  0.031022044	1.714600E+01
57	  0.031222444	-1.423000E+00	  0.031222444	1.399960E+02	  0.031222444	4.624000E+00	  0.031222444	1.806200E+01
58	  0.031422846	-1.458000E+00	  0.031422846	1.380610E+02	  0.031422846	4.798000E+00	  0.031422846	1.900800E+01
59	  0.031623244	-1.494000E+00	  0.031623244	1.361130E+02	  0.031623244	4.981000E+00	  0.031623244	1.997100E+01
60	  0.031823646	-1.526000E+00	  0.031823646	1.341860E+02	  0.031823646	5.157000E+00	  0.031823646	2.093600E+01
61	  0.032024048	-1.561000E+00	  0.032024048	1.322480E+02	  0.032024048	5.350000E+00	  0.032024048	2.191900E+01
62	  0.032224450	-1.597000E+00	  0.032224450	1.303100E+02	  0.032224450	5.557000E+00	  0.032224450	2.291400E+01
63	  0.032424849	-1.632000E+00	  0.032424849	1.283490E+02	  0.032424849	5.772000E+00	  0.032424849	2.393600E+01
64	  0.032625251	-1.667000E+00	  0.032625251	1.263660E+02	  0.032625251	5.992000E+00	  0.032625251	2.498500E+01
65	  0.032825653	-1.702000E+00	  0.032825653	1.243790E+02	  0.032825653	6.225000E+00	  0.032825653	2.605300E+01
66	  0.033026051	-1.736000E+00	  0.033026051	1.223780E+02	  0.033026051	6.470000E+00	  0.033026051	2.714500E+01
67	  0.033226453	-1.773000E+00	  0.033226453	1.203650E+02	  0.033226453	6.736000E+00	  0.033226453	2.826200E+01
68	  0.033426855	-1.807000E+00	  0.033426855	1.183560E+02	  0.033426855	7.000000E+00	  0.033426855	2.939800E+01
69	  0.033627257	-1.846000E+00	  0.033627257	1.163570E+02	  0.033627257	7.301000E+00	  0.033627257	3.054700E+01
70	  0.033827655	-1.885000E+00	  0.033827655	1.143450E+02	  0.033827655	7.618000E+00	  0.033827655	3.172500E+01
71	  0.034028057	-1.925000E+00	  0.034028057	1.123010E+02	  0.034028057	7.957000E+00	  0.034028057	3.294500E+01
72	  0.034228459	-1.967000E+00	  0.034228459	1.102770E+02	  0.034228459	8.325000E+00	  0.034228459	3.417600E+01
73	  0.034428857	-2.007000E+00	  0.034428857	1.082130E+02	  0.034428857	8.705000E+00	  0.034428857	3.546000E+01
74	  0.034629259	-2.054000E+00	  0.034629259	1.061270E+02	  0.034629259	9.141000E+00	  0.034629259	3.678100E+01
75	  0.034829661	-2.098000E+00	  0.034829661	1.040670E+02	  0.034829661	9.586000E+00	  0.034829661	3.811700E+01
76	  0.035030060	-2.144000E+00	  0.035030060	1.019900E+02	  0.035030060	1.006900E+01	  0.035030060	3.949400E+01
77	  0.035230462	-2.192000E+00	  0.035230462	9.990900E+01	  0.035230462	1.059500E+01	  0.035230462	4.090400E+01
78	  0.035430863	-2.241000E+00	  0.035430863	9.781100E+01	  0.035430863	1.115600E+01	  0.035430863	4.236000E+01
79	  0.035631265	-2.290000E+00	  0.035631265	9.573200E+01	  0.035631265	1.175400E+01	  0.035631265	4.383800E+01
80	  0.035831664	-2.341000E+00	  0.035831664	9.361800E+01	  0.035831664	1.240600E+01	  0.035831664	4.537700E+01
81	  0.036032066	-2.392000E+00	  0.036032066	9.150500E+01	  0.036032066	1.310000E+01	  0.036032066	4.695700E+01
82	  0.036232468	-2.443000E+00	  0.036232468	8.941200E+01	  0.036232468	1.384000E+01	  0.036232468	4.856100E+01
83	  0.036432866	-2.493000E+00	  0.036432866	8.729800E+01	  0.036432866	1.463200E+01	  0.036432866	5.022800E+01
84	  0.036633268	-2.544000E+00	  0.036633268	8.519200E+01	  0.036633268	1.548400E+01	  0.036633268	5.193200E+01
85	  0.036833670	-2.599000E+00	  0.036833670	8.306800E+01	  0.036833670	1.642800E+01	  0.036833670	5.369200E+01
86	  0.037034072	-2.653000E+00	  0.037034072	8.094400E+01	  0.037034072	1.743800E+01	  0.037034072	5.550200E+01
87	  0.037234470	-2.708000E+00	  0.037234470	7.882300E+01	  0.037234470	1.853100E+01	  0.037234470	5.735700E+01
88	  0.037434869	-2.761000E+00	  0.037434869	7.669000E+01	  0.037434869	1.969400E+01	  0.037434869	5.928300E+01
89	  0.037635271	-2.821000E+00	  0.037635271	7.455500E+01	  0.037635271	2.100100E+01	  0.037635271	6.124500E+01
90	  0.037835669	-2.881000E+00	  0.037835669	7.240300E+01	  0.037835669	2.243100E+01	  0.037835669	6.327300E+01
91	  0.038036071	-2.946000E+00	  0.038036071	7.025900E+01	  0.038036071	2.399800E+01	  0.038036071	6.533400E+01
92	  0.038236473	-3.012000E+00	  0.038236473	6.820300E+01	  0.038236473	2.565800E+01	  0.038236473	6.733800E+01
93	  0.038436871	-3.068000E+00	  0.038436871	6.610900E+01	  0.038436871	2.740200E+01	  0.038436871	6.947100E+01
94	  0.038637273	-3.123000E+00	  0.038637273	6.399700E+01	  0.038637273	2.929900E+01	  0.038637273	7.167900E+01
95	  0.038837675	-3.177000E+00	  0.038837675	6.188400E+01	  0.038837675	3.135800E+01	  0.038837675	7.394000E+01
96	  0.039038073	-3.230000E+00	  0.039038073	5.977200E+01	  0.039038073	3.358900E+01	  0.039038073	7.625300E+01
97	  0.039238475	-3.285000E+00	  0.039238475	5.767700E+01	  0.039238475	3.601700E+01	  0.039238475	7.857800E+01
98	  0.039438877	-3.339000E+00	  0.039438877	5.557900E+01	  0.039438877	3.866500E+01	  0.039438877	8.094100E+01
99	  0.039639279	-3.397000E+00	  0.039639279	5.348600E+01	  0.039639279	4.157400E+01	  0.039639279	8.329500E+01
100	  0.039839678	-3.454000E+00	  0.039839678	5.137300E+01	  0.039839678	4.477800E+01	  0.039839678	8.568000E+01
101	  0.040040080	-3.509000E+00	  0.040040080	4.925300E+01	  0.040040080	4.826300E+01	  0.040040080	8.809100E+01
102	  0.040240481	-3.563000E+00	  0.040240481	4.714300E+01	  0.040240481	5.205900E+01	  0.040240481	9.046100E+01
103	  0.040440880	-3.619000E+00	  0.040440880	4.507200E+01	  0.040440880	5.615100E+01	  0.040440880	9.270400E+01
104	  0.040641282	-3.674000E+00	  0.040641282	4.299600E+01	  0.040641282	6.062100E+01	  0.040641282	9.486300E+01
105	  0.040841684	-3.730000E+00	  0.040841684	4.092900E+01	  0.040841684	6.548100E+01	  0.040841684	9.686700E+01
106	  0.041042086	-3.787000E+00	  0.041042086	3.887900E+01	  0.041042086	7.073100E+01	  0.041042086	9.864800E+01
107	  0.041242484	-3.845000E+00	  0.041242484	3.681200E+01	  0.041242484	7.647300E+01	  0.041242484	1.001980E+02
108	  0.041442886	-3.901000E+00	  0.041442886	3.474900E+01	  0.041442886	8.266000E+01	  0.041442886	1.014400E+02
109	  0.041643288	-3.958000E+00	  0.041643288	3.268200E+01	  0.041643288	8.933600E+01	  0.041643288	1.022800E+02
110	  0.041843686	-4.012000E+00	  0.041843686	3.059800E+01	  0.041843686	9.653700E+01	  0.041843686	1.026900E+02
111	  0.042044088	-4.067000E+00	  0.042044088	2.854800E+01	  0.042044088	1.040940E+02	  0.042044088	1.024320E+02
112	  0.042244490	-4.122000E+00	  0.042244490	2.649600E+01	  0.042244490	1.120630E+02	  0.042244490	1.014850E+02
113	  0.042444889	-4.178000E+00	  0.042444889	2.444800E+01	  0.042444889	1.203690E+02	  0.042444889	9.966300E+01
114	  0.042645290	-4.233000E+00	  0.042645290	2.241000E+01	  0.042645290	1.288760E+02	  0.042645290	9.692900E+01
115	  0.042845692	-4.287000E+00	  0.042845692	2.038700E+01	  0.042845692	1.374350E+02	  0.042845692	9.316200E+01
116	  0.043046094	-4.340000E+00	  0.043046094	1.834200E+01	  0.043046094	1.460450E+02	  0.043046094	8.824600E+01
117	  0.043246493	-4.394000E+00	  0.043246493	1.631300E+01	  0.043246493	1.543210E+02	  0.043246493	8.212600E+01
118	  0.043446895	-4.445000E+00	  0.043446895	1.428600E+01	  0.043446895	1.621630E+02	  0.043446895	7.487200E+01
119	  0.043647297	-4.497000E+00	  0.043647297	1.227300E+01	  0.043647297	1.692160E+02	  0.043647297	6.646900E+01
120	  0.043847695	-4.546000E+00	  0.043847695	1.025900E+01	  0.043847695	1.753740E+02	  0.043847695	5.703100E+01
121	  0.044048097	-4.596000E+00	  0.044048097	8.270000E+00	  0.044048097	1.802760E+02	  0.044048097	4.678800E+01
122	  0.044248499	-4.645000E+00	  0.044248499	6.279000E+00	  0.044248499	1.838640E+02	  0.044248499	3.586600E+01
123	  0.044448901	-4.694000E+00	  0.044448901	4.328000E+00	  0.044448901	1.859630E+02	  0.044448901	2.474500E+01
124	  0.044649299	-4.743000E+00	  0.044649299	2.353000E+00	  0.044649299	1.866220E+02	  0.044649299	1.336000E+01
125	  0.044849701	-4.788000E+00	  0.044849701	3.930000E-01	  0.044849701	1.859420E+02	  0.044849701	2.201000E+00
126	  0.045050103	-4.831000E+00	  0.045050103	-1.551000E+00	  0.045050103	1.839610E+02	  0.045050103	-8.507000E+00
127	  0.045250501	-4.874000E+00	  0.045250501	-3.497000E+00	  0.045250501	1.807540E+02	  0.045250501	-1.865400E+01
128	  0.045450903	-4.916000E+00	  0.045450903	-5.416000E+00	  0.045450903	1.765680E+02	  0.045450903	-2.793100E+01
129	  0.045651305	-4.961000E+00	  0.045651305	-7.351000E+00	  0.045651305	1.713890E+02	  0.045651305	-3.638200E+01
130	  0.045851704	-4.999000E+00	  0.045851704	-9.251000E+00	  0.045851704	1.658310E+02	  0.045851704	-4.385200E+01
131	  0.046052102	-5.039000E+00	  0.046052102	-1.112600E+01	  0.046052102	1.598050E+02	  0.046052102	-5.028200E+01
132	  0.046252504	-5.078000E+00	  0.046252504	-1.299800E+01	  0.046252504	1.535010E+02	  0.046252504	-5.581300E+01
133	  0.046452906	-5.118000E+00	  0.046452906	-1.486900E+01	  0.046452906	1.470250E+02	  0.046452906	-6.046200E+01
134	  0.046653304	-5.155000E+00	  0.046653304	-1.673300E+01	  0.046653304	1.405780E+02	  0.046653304	-6.434800E+01
135	  0.046853706	-5.191000E+00	  0.046853706	-1.859600E+01	  0.046853706	1.341900E+02	  0.046853706	-6.750800E+01
136	  0.047054108	-5.223000E+00	  0.047054108	-2.046300E+01	  0.047054108	1.279340E+02	  0.047054108	-7.006900E+01
137	  0.047254506	-5.255000E+00	  0.047254506	-2.231700E+01	  0.047254506	1.218940E+02	  0.047254506	-7.201700E+01
138	  0.047454908	-5.285000E+00	  0.047454908	-2.415100E+01	  0.047454908	1.161340E+02	  0.047454908	-7.347000E+01
139	  0.047655310	-5.316000E+00	  0.047655310	-2.599300E+01	  0.047655310	1.105650E+02	  0.047655310	-7.442600E+01
140	  0.047855709	-5.346000E+00	  0.047855709	-2.777900E+01	  0.047855709	1.054110E+02	  0.047855709	-7.498400E+01
141	  0.048056111	-5.378000E+00	  0.048056111	-2.956900E+01	  0.048056111	1.004910E+02	  0.048056111	-7.518400E+01
142	  0.048256513	-5.406000E+00	  0.048256513	-3.137300E+01	  0.048256513	9.579700E+01	  0.048256513	-7.516800E+01
143	  0.048456915	-5.437000E+00	  0.048456915	-3.315000E+01	  0.048456915	9.141800E+01	  0.048456915	-7.487400E+01
144	  0.048657313	-5.463000E+00	  0.048657313	-3.493600E+01	  0.048657313	8.726200E+01	  0.048657313	-7.444500E+01
145	  0.048857715	-5.489000E+00	  0.048857715	-3.670800E+01	  0.048857715	8.337300E+01	  0.048857715	-7.384200E+01
146	  0.049058117	-5.510000E+00	  0.049058117	-3.849100E+01	  0.049058117	7.967300E+01	  0.049058117	-7.316000E+01
147	  0.049258515	-5.534000E+00	  0.049258515	-4.022800E+01	  0.049258515	7.628300E+01	  0.049258515	-7.232100E+01
148	  0.049458917	-5.559000E+00	  0.049458917	-4.195400E+01	  0.049458917	7.310800E+01	  0.049458917	-7.139200E+01
149	  0.049659319	-5.582000E+00	  0.049659319	-4.368500E+01	  0.049659319	7.010400E+01	  0.049659319	-7.039600E+01
150	  0.049859721	-5.604000E+00	  0.049859721	-4.540000E+01	  0.049859721	6.730100E+01	  0.049859721	-6.934800E+01
151	  0.050060119	-5.629000E+00	  0.050060119	-4.709000E+01	  0.050060119	6.470100E+01	  0.050060119	-6.824500E+01
152	  0.050260521	-5.646000E+00	  0.050260521	-4.877200E+01	  0.050260521	6.224100E+01	  0.050260521	-6.717300E+01
153	  0.050460923	-5.668000E+00	  0.050460923	-5.048800E+01	  0.050460923	5.988500E+01	  0.050460923	-6.601100E+01
154	  0.050661322	-5.683000E+00	  0.050661322	-5.216300E+01	  0.050661322	5.769400E+01	  0.050661322	-6.490200E+01
155	  0.050861724	-5.699000E+00	  0.050861724	-5.382400E+01	  0.050861724	5.564200E+01	  0.050861724	-6.377400E+01
156	  0.051062126	-5.718000E+00	  0.051062126	-5.548100E+01	  0.051062126	5.372300E+01	  0.051062126	-6.260800E+01
157	  0.051262524	-5.740000E+00	  0.051262524	-5.710900E+01	  0.051262524	5.195100E+01	  0.051262524	-6.143100E+01
158	  0.051462926	-5.758000E+00	  0.051462926	-5.873600E+01	  0.051462926	5.025900E+01	  0.051462926	-6.028200E+01
159	  0.051663328	-5.775000E+00	  0.051663328	-6.035400E+01	  0.051663328	4.866200E+01	  0.051663328	-5.914500E+01
160	  0.051863730	-5.791000E+00	  0.051863730	-6.196800E+01	  0.051863730	4.714800E+01	  0.051863730	-5.801600E+01
161	  0.052064128	-5.806000E+00	  0.052064128	-6.357700E+01	  0.052064128	4.571000E+01	  0.052064128	-5.690400E+01
162	  0.052264530	-5.817000E+00	  0.052264530	-6.515700E+01	  0.052264530	4.435900E+01	  0.052264530	-5.582900E+01
163	  0.052464932	-5.830000E+00	  0.052464932	-6.675600E+01	  0.052464932	4.306300E+01	  0.052464932	-5.474200E+01
164	  0.052665330	-5.845000E+00	  0.052665330	-6.834000E+01	  0.052665330	4.185500E+01	  0.052665330	-5.365700E+01
165	  0.052865732	-5.862000E+00	  0.052865732	-6.990500E+01	  0.052865732	4.072700E+01	  0.052865732	-5.258300E+01
166	  0.053066134	-5.874000E+00	  0.053066134	-7.144300E+01	  0.053066134	3.965200E+01	  0.053066134	-5.156000E+01
167	  0.053266536	-5.886000E+00	  0.053266536	-7.300800E+01	  0.053266536	3.861000E+01	  0.053266536	-5.052900E+01
168	  0.053466935	-5.899000E+00	  0.053466935	-7.452700E+01	  0.053466935	3.765400E+01	  0.053466935	-4.952900E+01
169	  0.053667337	-5.912000E+00	  0.053667337	-7.609600E+01	  0.053667337	3.670800E+01	  0.053667337	-4.851100E+01
170	  0.053867739	-5.921000E+00	  0.053867739	-7.761400E+01	  0.053867739	3.582000E+01	  0.053867739	-4.755100E+01
171	  0.054068137	-5.934000E+00	  0.054068137	-7.913600E+01	  0.054068137	3.498700E+01	  0.054068137	-4.658100E+01
172	  0.054268539	-5.941000E+00	  0.054268539	-8.065600E+01	  0.054268539	3.416800E+01	  0.054268539	-4.564500E+01
173	  0.054468941	-5.951000E+00	  0.054468941	-8.212300E+01	  0.054468941	3.342700E+01	  0.054468941	-4.473800E+01
174	  0.054669335	-5.967000E+00	  0.054669335	-8.362300E+01	  0.054669335	3.272000E+01	  0.054669335	-4.380500E+01
175	  0.054869737	-5.976000E+00	  0.054869737	-8.509000E+01	  0.054869737	3.203600E+01	  0.054869737	-4.292200E+01
176	  0.055070139	-5.984000E+00	  0.055070139	-8.653800E+01	  0.055070139	3.138600E+01	  0.055070139	-4.206300E+01
177	  0.055270538	-5.996000E+00	  0.055270538	-8.798100E+01	  0.055270538	3.077900E+01	  0.055270538	-4.120400E+01
178	  0.055470940	-6.002000E+00	  0.055470940	-8.942100E+01	  0.055470940	3.017500E+01	  0.055470940	-4.037500E+01
179	  0.055671342	-6.009000E+00	  0.055671342	-9.083400E+01	  0.055671342	2.961200E+01	  0.055671342	-3.956600E+01
180	  0.055871744	-6.013000E+00	  0.055871744	-9.225500E+01	  0.055871744	2.905600E+01	  0.055871744	-3.876800E+01
181	  0.056072142	-6.019000E+00	  0.056072142	-9.364700E+01	  0.056072142	2.854400E+01	  0.056072142	-3.798700E+01
182	  0.056272544	-6.025000E+00	  0.056272544	-9.500600E+01	  0.056272544	2.806000E+01	  0.056272544	-3.723400E+01
183	  0.056472946	-6.029000E+00	  0.056472946	-9.637800E+01	  0.056472946	2.758300E+01	  0.056472946	-3.648600E+01
184	  0.056673344	-6.036000E+00	  0.056673344	-9.769900E+01	  0.056673344	2.714900E+01	  0.056673344	-3.576700E+01
185	  0.056873746	-6.039000E+00	  0.056873746	-9.902100E+01	  0.056873746	2.672000E+01	  0.056873746	-3.506100E+01
186	  0.057074148	-6.041000E+00	  0.057074148	-1.003460E+02	  0.057074148	2.630300E+01	  0.057074148	-3.436200E+01
187	  0.057274550	-6.043000E+00	  0.057274550	-1.016830E+02	  0.057274550	2.589400E+01	  0.057274550	-3.366500E+01
188	  0.057474948	-6.042000E+00	  0.057474948	-1.029790E+02	  0.057474948	2.550300E+01	  0.057474948	-3.299900E+01
189	  0.057675350	-6.043000E+00	  0.057675350	-1.042930E+02	  0.057675350	2.512800E+01	  0.057675350	-3.232600E+01
190	  0.057875752	-6.048000E+00	  0.057875752	-1.055800E+02	  0.057875752	2.478600E+01	  0.057875752	-3.166500E+01
191	  0.058076151	-6.047000E+00	  0.058076151	-1.068910E+02	  0.058076151	2.442900E+01	  0.058076151	-3.100900E+01
192	  0.058276553	-6.043000E+00	  0.058276553	-1.081570E+02	  0.058276553	2.408900E+01	  0.058276553	-3.038400E+01
193	  0.058476955	-6.046000E+00	  0.058476955	-1.094130E+02	  0.058476955	2.378100E+01	  0.058476955	-2.975900E+01
194	  0.058677353	-6.044000E+00	  0.058677353	-1.106870E+02	  0.058677353	2.346700E+01	  0.058677353	-2.913700E+01
195	  0.058877755	-6.042000E+00	  0.058877755	-1.119760E+02	  0.058877755	2.315700E+01	  0.058877755	-2.851300E+01
196	  0.059078157	-6.037000E+00	  0.059078157	-1.132430E+02	  0.059078157	2.285400E+01	  0.059078157	-2.790900E+01
197	  0.059278559	-6.034000E+00	  0.059278559	-1.144980E+02	  0.059278559	2.257000E+01	  0.059278559	-2.731200E+01
198	  0.059478957	-6.033000E+00	  0.059478957	-1.157590E+02	  0.059478957	2.230100E+01	  0.059478957	-2.671300E+01
199	  0.059679359	-6.029000E+00	  0.059679359	-1.170390E+02	  0.059679359	2.202800E+01	  0.059679359	-2.611300E+01
200	  0.059879761	-6.025000E+00	  0.059879761	-1.182950E+02	  0.059879761	2.176700E+01	  0.059879761	-2.553000E+01
201	  0.060080159	-6.025000E+00	  0.060080159	-1.195370E+02	  0.060080159	2.153000E+01	  0.060080159	-2.495100E+01
202	  0.060280561	-6.026000E+00	  0.060280561	-1.208060E+02	  0.060280561	2.129800E+01	  0.060280561	-2.436400E+01
203	  0.060480963	-6.025000E+00	  0.060480963	-1.220730E+02	  0.060480963	2.106900E+01	  0.060480963	-2.378300E+01
204	  0.060681365	-6.021000E+00	  0.060681365	-1.233070E+02	  0.060681365	2.084500E+01	  0.060681365	-2.322500E+01
205	  0.060881764	-6.020000E+00	  0.060881764	-1.245470E+02	  0.060881764	2.063700E+01	  0.060881764	-2.266400E+01
206	  0.061082166	-6.015000E+00	  0.061082166	-1.257990E+02	  0.061082166	2.042200E+01	  0.061082166	-2.210500E+01
207	  0.061282568	-6.014000E+00	  0.061282568	-1.270520E+02	  0.061282568	2.022400E+01	  0.061282568	-2.154600E+01
208	  0.061482966	-6.011000E+00	  0.061482966	-1.282650E+02	  0.061482966	2.003300E+01	  0.061482966	-2.101000E+01
209	  0.061683368	-6.009000E+00	  0.061683368	-1.295060E+02	  0.061683368	1.984700E+01	  0.061683368	-2.046300E+01
210	  0.061883770	-6.009000E+00	  0.061883770	-1.307220E+02	  0.061883770	1.967800E+01	  0.061883770	-1.992900E+01
211	  0.062084168	-6.004000E+00	  0.062084168	-1.319280E+02	  0.062084168	1.950400E+01	  0.062084168	-1.940600E+01
212	  0.062284570	-6.002000E+00	  0.062284570	-1.331180E+02	  0.062284570	1.934400E+01	  0.062284570	-1.889000E+01
213	  0.062484972	-5.998000E+00	  0.062484972	-1.342810E+02	  0.062484972	1.918500E+01	  0.062484972	-1.839200E+01
214	  0.062685370	-5.997000E+00	  0.062685370	-1.355260E+02	  0.062685370	1.903300E+01	  0.062685370	-1.785700E+01
215	  0.062885776	-5.993000E+00	  0.062885776	-1.367140E+02	  0.062885776	1.888100E+01	  0.062885776	-1.735200E+01
216	  0.063086174	-5.990000E+00	  0.063086174	-1.378820E+02	  0.063086174	1.874300E+01	  0.063086174	-1.685700E+01
217	  0.063286573	-5.986000E+00	  0.063286573	-1.390590E+02	  0.063286573	1.860500E+01	  0.063286573	-1.636100E+01
218	  0.063486971	-5.981000E+00	  0.063486971	-1.401960E+02	  0.063486971	1.847000E+01	  0.063486971	-1.588500E+01
219	  0.063687377	-5.978000E+00	  0.063687377	-1.413340E+02	  0.063687377	1.834900E+01	  0.063687377	-1.540900E+01
220	  0.063887775	-5.976000E+00	  0.063887775	-1.424830E+02	  0.063887775	1.823300E+01	  0.063887775	-1.493000E+01
221	  0.064088173	-5.977000E+00	  0.064088173	-1.436320E+02	  0.064088173	1.812800E+01	  0.064088173	-1.445100E+01
222	  0.064288579	-5.972000E+00	  0.064288579	-1.447890E+02	  0.064288579	1.801100E+01	  0.064288579	-1.397500E+01
223	  0.064488977	-5.974000E+00	  0.064488977	-1.459210E+02	  0.064488977	1.791900E+01	  0.064488977	-1.350600E+01
224	  0.064689375	-5.975000E+00	  0.064689375	-1.470500E+02	  0.064689375	1.782700E+01	  0.064689375	-1.304100E+01
225	  0.064889781	-5.978000E+00	  0.064889781	-1.481880E+02	  0.064889781	1.774600E+01	  0.064889781	-1.257300E+01
226	  0.065090179	-5.977000E+00	  0.065090179	-1.492910E+02	  0.065090179	1.765700E+01	  0.065090179	-1.212300E+01
227	  0.065290578	-5.973000E+00	  0.065290578	-1.503970E+02	  0.065290578	1.756700E+01	  0.065290578	-1.167500E+01
228	  0.065490983	-5.977000E+00	  0.065490983	-1.515030E+02	  0.065490983	1.749900E+01	  0.065490983	-1.122500E+01
229	  0.065691382	-5.979000E+00	  0.065691382	-1.526330E+02	  0.065691382	1.743000E+01	  0.065691382	-1.076700E+01
230	  0.065891780	-5.980000E+00	  0.065891780	-1.537080E+02	  0.065891780	1.736200E+01	  0.065891780	-1.033400E+01
231	  0.066092186	-5.981000E+00	  0.066092186	-1.547940E+02	  0.066092186	1.730000E+01	  0.066092186	-9.897000E+00
232	  0.066292584	-5.986000E+00	  0.066292584	-1.558750E+02	  0.066292584	1.724900E+01	  0.066292584	-9.462000E+00
233	  0.066492982	-5.987000E+00	  0.066492982	-1.569760E+02	  0.066492982	1.719000E+01	  0.066492982	-9.022000E+00
234	  0.066693388	-5.989000E+00	  0.066693388	-1.580620E+02	  0.066693388	1.714000E+01	  0.066693388	-8.588000E+00
235	  0.066893786	-5.993000E+00	  0.066893786	-1.591440E+02	  0.066893786	1.709600E+01	  0.066893786	-8.157000E+00
236	  0.067094192	-5.993000E+00	  0.067094192	-1.601850E+02	  0.067094192	1.704600E+01	  0.067094192	-7.744000E+00
237	  0.067294590	-5.996000E+00	  0.067294590	-1.612820E+02	  0.067294590	1.700500E+01	  0.067294590	-7.309000E+00
238	  0.067494988	-6.000000E+00	  0.067494988	-1.623160E+02	  0.067494988	1.697200E+01	  0.067494988	-6.900000E+00
239	  0.067695394	-5.999000E+00	  0.067695394	-1.634110E+02	  0.067695394	1.692600E+01	  0.067695394	-6.469000E+00
240	  0.067895792	-6.003000E+00	  0.067895792	-1.644370E+02	  0.067895792	1.689800E+01	  0.067895792	-6.064000E+00
241	  0.068096191	-6.009000E+00	  0.068096191	-1.654990E+02	  0.068096191	1.687800E+01	  0.068096191	-5.646000E+00
242	  0.068296596	-6.011000E+00	  0.068296596	-1.665550E+02	  0.068296596	1.684800E+01	  0.068296596	-5.232000E+00
243	  0.068496995	-6.015000E+00	  0.068496995	-1.675640E+02	  0.068496995	1.682800E+01	  0.068496995	-4.836000E+00
244	  0.068697393	-6.019000E+00	  0.068697393	-1.685980E+02	  0.068697393	1.681000E+01	  0.068697393	-4.431000E+00
245	  0.068897791	-6.020000E+00	  0.068897791	-1.696370E+02	  0.068897791	1.678600E+01	  0.068897791	-4.026000E+00
246	  0.069098189	-6.019000E+00	  0.069098189	-1.706600E+02	  0.069098189	1.676300E+01	  0.069098189	-3.627000E+00
247	  0.069298595	-6.020000E+00	  0.069298595	-1.716570E+02	  0.069298595	1.674500E+01	  0.069298595	-3.239000E+00
248	  0.069498993	-6.024000E+00	  0.069498993	-1.726790E+02	  0.069498993	1.673600E+01	  0.069498993	-2.841000E+00
249	  0.069699399	-6.028000E+00	  0.069699399	-1.736790E+02	  0.069699399	1.673100E+01	  0.069699399	-2.452000E+00
250	  0.069899797	-6.029000E+00	  0.069899797	-1.746820E+02	  0.069899797	1.672200E+01	  0.069899797	-2.062000E+00
251	  0.070100196	-6.029000E+00	  0.070100196	-1.756630E+02	  0.070100196	1.671100E+01	  0.070100196	-1.681000E+00
252	  0.070300601	-6.034000E+00	  0.070300601	-1.766690E+02	  0.070300601	1.671500E+01	  0.070300601	-1.291000E+00
253	  0.070501000	-6.036000E+00	  0.070501000	-1.776300E+02	  0.070501000	1.671400E+01	  0.070501000	-9.180000E-01
254	  0.070701398	-6.041000E+00	  0.070701398	-1.786150E+02	  0.070701398	1.672200E+01	  0.070701398	-5.360000E-01
255	  0.070901804	-6.044000E+00	  0.070901804	-1.795510E+02	  0.070901804	1.672700E+01	  0.070901804	-1.730000E-01
256	  0.071102202	-6.051000E+00	  0.071102202	1.794400E+02	  0.071102202	1.674600E+01	  0.071102202	2.160000E-01
257	  0.071302600	-6.056000E+00	  0.071302600	1.784870E+02	  0.071302600	1.675900E+01	  0.071302600	5.850000E-01
258	  0.071503006	-6.064000E+00	  0.071503006	1.774990E+02	  0.071503006	1.678600E+01	  0.071503006	9.680000E-01
259	  0.071703404	-6.072000E+00	  0.071703404	1.765510E+02	  0.071703404	1.681200E+01	  0.071703404	1.335000E+00
260	  0.071903802	-6.078000E+00	  0.071903802	1.755730E+02	  0.071903802	1.683700E+01	  0.071903802	1.713000E+00
261	  0.072104208	-6.084000E+00	  0.072104208	1.746080E+02	  0.072104208	1.686200E+01	  0.072104208	2.087000E+00
262	  0.072304606	-6.091000E+00	  0.072304606	1.736530E+02	  0.072304606	1.689300E+01	  0.072304606	2.456000E+00
263	  0.072505005	-6.098000E+00	  0.072505005	1.727070E+02	  0.072505005	1.692600E+01	  0.072505005	2.822000E+00
264	  0.072705410	-6.102000E+00	  0.072705410	1.717580E+02	  0.072705410	1.695300E+01	  0.072705410	3.190000E+00
265	  0.072905809	-6.112000E+00	  0.072905809	1.707880E+02	  0.072905809	1.699800E+01	  0.072905809	3.564000E+00
266	  0.073106214	-6.119000E+00	  0.073106214	1.698340E+02	  0.073106214	1.703800E+01	  0.073106214	3.934000E+00
267	  0.073306613	-6.128000E+00	  0.073306613	1.688910E+02	  0.073306613	1.708300E+01	  0.073306613	4.299000E+00
268	  0.073507011	-6.135000E+00	  0.073507011	1.679250E+02	  0.073507011	1.712800E+01	  0.073507011	4.673000E+00
269	  0.073707417	-6.145000E+00	  0.073707417	1.669900E+02	  0.073707417	1.718100E+01	  0.073707417	5.035000E+00
270	  0.073907815	-6.150000E+00	  0.073907815	1.660480E+02	  0.073907815	1.722100E+01	  0.073907815	5.401000E+00
271	  0.074108213	-6.156000E+00	  0.074108213	1.651280E+02	  0.074108213	1.726900E+01	  0.074108213	5.758000E+00
272	  0.074308619	-6.163000E+00	  0.074308619	1.641870E+02	  0.074308619	1.732000E+01	  0.074308619	6.124000E+00
273	  0.074509017	-6.170000E+00	  0.074509017	1.632370E+02	  0.074509017	1.737400E+01	  0.074509017	6.493000E+00
274	  0.074709415	-6.179000E+00	  0.074709415	1.623510E+02	  0.074709415	1.743400E+01	  0.074709415	6.837000E+00
275	  0.074909821	-6.184000E+00	  0.074909821	1.613930E+02	  0.074909821	1.748900E+01	  0.074909821	7.211000E+00
276	  0.075110219	-6.189000E+00	  0.075110219	1.604860E+02	  0.075110219	1.754300E+01	  0.075110219	7.566000E+00
277	  0.075310618	-6.196000E+00	  0.075310618	1.595930E+02	  0.075310618	1.760200E+01	  0.075310618	7.914000E+00
278	  0.075511023	-6.201000E+00	  0.075511023	1.587010E+02	  0.075511023	1.766000E+01	  0.075511023	8.264000E+00
279	  0.075711422	-6.206000E+00	  0.075711422	1.578440E+02	  0.075711422	1.771800E+01	  0.075711422	8.600000E+00
280	  0.075911827	-6.209000E+00	  0.075911827	1.569470E+02	  0.075911827	1.777500E+01	  0.075911827	8.953000E+00
281	  0.076112226	-6.219000E+00	  0.076112226	1.560510E+02	  0.076112226	1.785200E+01	  0.076112226	9.303000E+00
282	  0.076312624	-6.229000E+00	  0.076312624	1.552020E+02	  0.076312624	1.792600E+01	  0.076312624	9.636000E+00
283	  0.076513030	-6.237000E+00	  0.076513030	1.543170E+02	  0.076513030	1.800400E+01	  0.076513030	9.984000E+00
284	  0.076713428	-6.242000E+00	  0.076713428	1.534660E+02	  0.076713428	1.807100E+01	  0.076713428	1.032000E+01
285	  0.076913826	-6.254000E+00	  0.076913826	1.525980E+02	  0.076913826	1.816000E+01	  0.076913826	1.066000E+01
286	  0.077114232	-6.263000E+00	  0.077114232	1.517680E+02	  0.077114232	1.823900E+01	  0.077114232	1.098800E+01
287	  0.077314630	-6.268000E+00	  0.077314630	1.509200E+02	  0.077314630	1.831400E+01	  0.077314630	1.132400E+01
288	  0.077515028	-6.277000E+00	  0.077515028	1.500810E+02	  0.077515028	1.839900E+01	  0.077515028	1.165600E+01
289	  0.077715434	-6.290000E+00	  0.077715434	1.492310E+02	  0.077715434	1.849800E+01	  0.077715434	1.199100E+01
290	  0.077915832	-6.297000E+00	  0.077915832	1.484080E+02	  0.077915832	1.858000E+01	  0.077915832	1.231800E+01
291	  0.078116231	-6.312000E+00	  0.078116231	1.475530E+02	  0.078116231	1.869100E+01	  0.078116231	1.265400E+01
292	  0.078316636	-6.327000E+00	  0.078316636	1.467160E+02	  0.078316636	1.880200E+01	  0.078316636	1.298400E+01
293	  0.078517035	-6.340000E+00	  0.078517035	1.458760E+02	  0.078517035	1.890800E+01	  0.078517035	1.331600E+01
294	  0.078717433	-6.353000E+00	  0.078717433	1.450110E+02	  0.078717433	1.902000E+01	  0.078717433	1.365900E+01
295	  0.078917839	-6.367000E+00	  0.078917839	1.442000E+02	  0.078917839	1.913200E+01	  0.078917839	1.398000E+01
296	  0.079118237	-6.381000E+00	  0.079118237	1.433800E+02	  0.079118237	1.924800E+01	  0.079118237	1.430500E+01
297	  0.079318643	-6.395000E+00	  0.079318643	1.425290E+02	  0.079318643	1.936800E+01	  0.079318643	1.464300E+01
298	  0.079519041	-6.412000E+00	  0.079519041	1.417070E+02	  0.079519041	1.949600E+01	  0.079519041	1.496800E+01
299	  0.079719439	-6.429000E+00	  0.079719439	1.408440E+02	  0.079719439	1.963300E+01	  0.079719439	1.530900E+01
300	  0.079919845	-6.445000E+00	  0.079919845	1.400040E+02	  0.079919845	1.976400E+01	  0.079919845	1.564300E+01
301	  0.080120243	-6.459000E+00	  0.080120243	1.391390E+02	  0.080120243	1.989800E+01	  0.080120243	1.598800E+01
302	  0.080320641	-6.473000E+00	  0.080320641	1.382920E+02	  0.080320641	2.003200E+01	  0.080320641	1.632700E+01
303	  0.080521047	-6.493000E+00	  0.080521047	1.374420E+02	  0.080521047	2.018300E+01	  0.080521047	1.666300E+01
304	  0.080721445	-6.508000E+00	  0.080721445	1.366410E+02	  0.080721445	2.032000E+01	  0.080721445	1.698400E+01
305	  0.080921844	-6.520000E+00	  0.080921844	1.357680E+02	  0.080921844	2.046000E+01	  0.080921844	1.733600E+01
306	  0.081122249	-6.540000E+00	  0.081122249	1.349240E+02	  0.081122249	2.062000E+01	  0.081122249	1.767100E+01
307	  0.081322648	-6.554000E+00	  0.081322648	1.341040E+02	  0.081322648	2.076500E+01	  0.081322648	1.800100E+01
308	  0.081523046	-6.566000E+00	  0.081523046	1.332740E+02	  0.081523046	2.090700E+01	  0.081523046	1.833800E+01
309	  0.081723452	-6.580000E+00	  0.081723452	1.324390E+02	  0.081723452	2.105900E+01	  0.081723452	1.867500E+01
310	  0.081923850	-6.591000E+00	  0.081923850	1.315930E+02	  0.081923850	2.120700E+01	  0.081923850	1.902100E+01
311	  0.082124248	-6.606000E+00	  0.082124248	1.308210E+02	  0.082124248	2.135800E+01	  0.082124248	1.933200E+01
312	  0.082324654	-6.620000E+00	  0.082324654	1.300070E+02	  0.082324654	2.151800E+01	  0.082324654	1.966200E+01
313	  0.082525052	-6.634000E+00	  0.082525052	1.292240E+02	  0.082525052	2.167200E+01	  0.082525052	1.998100E+01
314	  0.082725458	-6.646000E+00	  0.082725458	1.284490E+02	  0.082725458	2.182400E+01	  0.082725458	2.029800E+01
315	  0.082925856	-6.660000E+00	  0.082925856	1.276490E+02	  0.082925856	2.198900E+01	  0.082925856	2.062400E+01
316	  0.083126254	-6.679000E+00	  0.083126254	1.268750E+02	  0.083126254	2.216700E+01	  0.083126254	2.093400E+01
317	  0.083326660	-6.692000E+00	  0.083326660	1.261100E+02	  0.083326660	2.232800E+01	  0.083326660	2.124700E+01
318	  0.083527058	-6.707000E+00	  0.083527058	1.253390E+02	  0.083527058	2.250200E+01	  0.083527058	2.156000E+01
319	  0.083727457	-6.721000E+00	  0.083727457	1.245830E+02	  0.083727457	2.267000E+01	  0.083727457	2.186900E+01
320	  0.083927862	-6.744000E+00	  0.083927862	1.238500E+02	  0.083927862	2.286200E+01	  0.083927862	2.215900E+01
321	  0.084128261	-6.758000E+00	  0.084128261	1.230880E+02	  0.084128261	2.304000E+01	  0.084128261	2.247000E+01
322	  0.084328659	-6.782000E+00	  0.084328659	1.223420E+02	  0.084328659	2.324300E+01	  0.084328659	2.276500E+01
323	  0.084529065	-6.798000E+00	  0.084529065	1.216200E+02	  0.084529065	2.342400E+01	  0.084529065	2.305700E+01
324	  0.084729463	-6.820000E+00	  0.084729463	1.208890E+02	  0.084729463	2.362600E+01	  0.084729463	2.334700E+01
325	  0.084929854	-6.839000E+00	  0.084929854	1.201240E+02	  0.084929854	2.383100E+01	  0.084929854	2.365400E+01
326	  0.085130259	-6.864000E+00	  0.085130259	1.193720E+02	  0.085130259	2.405200E+01	  0.085130259	2.394800E+01
327	  0.085330658	-6.881000E+00	  0.085330658	1.186550E+02	  0.085330658	2.424600E+01	  0.085330658	2.423800E+01
328	  0.085531056	-6.904000E+00	  0.085531056	1.179230E+02	  0.085531056	2.446300E+01	  0.085531056	2.452700E+01
329	  0.085731462	-6.927000E+00	  0.085731462	1.171900E+02	  0.085731462	2.468400E+01	  0.085731462	2.481500E+01
330	  0.085931860	-6.952000E+00	  0.085931860	1.164580E+02	  0.085931860	2.491600E+01	  0.085931860	2.509900E+01
331	  0.086132258	-6.972000E+00	  0.086132258	1.157550E+02	  0.086132258	2.512900E+01	  0.086132258	2.537800E+01
332	  0.086332664	-6.998000E+00	  0.086332664	1.150330E+02	  0.086332664	2.536500E+01	  0.086332664	2.565700E+01
333	  0.086533062	-7.025000E+00	  0.086533062	1.143120E+02	  0.086533062	2.561000E+01	  0.086533062	2.593200E+01
334	  0.086733460	-7.050000E+00	  0.086733460	1.135510E+02	  0.086733460	2.585900E+01	  0.086733460	2.622900E+01
335	  0.086933866	-7.072000E+00	  0.086933866	1.128060E+02	  0.086933866	2.610100E+01	  0.086933866	2.652200E+01
336	  0.087134264	-7.099000E+00	  0.087134264	1.120880E+02	  0.087134264	2.635500E+01	  0.087134264	2.679500E+01
337	  0.087334670	-7.124000E+00	  0.087334670	1.113780E+02	  0.087334670	2.660500E+01	  0.087334670	2.706600E+01
338	  0.087535068	-7.151000E+00	  0.087535068	1.106550E+02	  0.087535068	2.686600E+01	  0.087535068	2.734000E+01
339	  0.087735467	-7.176000E+00	  0.087735467	1.099120E+02	  0.087735467	2.713300E+01	  0.087735467	2.762400E+01
340	  0.087935872	-7.203000E+00	  0.087935872	1.092130E+02	  0.087935872	2.739600E+01	  0.087935872	2.788500E+01
341	  0.088136271	-7.231000E+00	  0.088136271	1.085010E+02	  0.088136271	2.766900E+01	  0.088136271	2.815000E+01
342	  0.088336669	-7.257000E+00	  0.088336669	1.077790E+02	  0.088336669	2.794200E+01	  0.088336669	2.842100E+01
343	  0.088537075	-7.279000E+00	  0.088537075	1.070670E+02	  0.088537075	2.820600E+01	  0.088537075	2.869400E+01
344	  0.088737473	-7.303000E+00	  0.088737473	1.063770E+02	  0.088737473	2.847400E+01	  0.088737473	2.895300E+01
345	  0.088937871	-7.326000E+00	  0.088937871	1.056720E+02	  0.088937871	2.874600E+01	  0.088937871	2.922000E+01
346	  0.089138277	-7.357000E+00	  0.089138277	1.049790E+02	  0.089138277	2.904000E+01	  0.089138277	2.946500E+01
347	  0.089338675	-7.380000E+00	  0.089338675	1.043100E+02	  0.089338675	2.930800E+01	  0.089338675	2.971500E+01
348	  0.089539073	-7.410000E+00	  0.089539073	1.036290E+02	  0.089539073	2.960300E+01	  0.089539073	2.995500E+01
349	  0.089739479	-7.438000E+00	  0.089739479	1.029710E+02	  0.089739479	2.989000E+01	  0.089739479	3.018600E+01
350	  0.089939877	-7.464000E+00	  0.089939877	1.023480E+02	  0.089939877	3.016300E+01	  0.089939877	3.040600E+01
351	  0.090140276	-7.493000E+00	  0.090140276	1.016960E+02	  0.090140276	3.045900E+01	  0.090140276	3.062900E+01
352	  0.090340681	-7.518000E+00	  0.090340681	1.010540E+02	  0.090340681	3.074300E+01	  0.090340681	3.085500E+01
353	  0.090541080	-7.551000E+00	  0.090541080	1.004030E+02	  0.090541080	3.105400E+01	  0.090541080	3.106700E+01
354	  0.090741485	-7.576000E+00	  0.090741485	9.979900E+01	  0.090741485	3.133200E+01	  0.090741485	3.127400E+01
355	  0.090941884	-7.604000E+00	  0.090941884	9.919100E+01	  0.090941884	3.162200E+01	  0.090941884	3.147500E+01
356	  0.091142282	-7.640000E+00	  0.091142282	9.856900E+01	  0.091142282	3.194300E+01	  0.091142282	3.166200E+01
357	  0.091342688	-7.671000E+00	  0.091342688	9.798800E+01	  0.091342688	3.223500E+01	  0.091342688	3.184200E+01
358	  0.091543086	-7.705000E+00	  0.091543086	9.738400E+01	  0.091543086	3.255200E+01	  0.091543086	3.202000E+01
359	  0.091743484	-7.731000E+00	  0.091743484	9.679500E+01	  0.091743484	3.284200E+01	  0.091743484	3.221000E+01
360	  0.091943890	-7.764000E+00	  0.091943890	9.619600E+01	  0.091943890	3.315600E+01	  0.091943890	3.238700E+01
361	  0.092144288	-7.791000E+00	  0.092144288	9.558300E+01	  0.092144288	3.346400E+01	  0.092144288	3.258200E+01
362	  0.092344686	-7.828000E+00	  0.092344686	9.500800E+01	  0.092344686	3.379000E+01	  0.092344686	3.273200E+01
363	  0.092545092	-7.856000E+00	  0.092545092	9.442100E+01	  0.092545092	3.409500E+01	  0.092545092	3.290900E+01
364	  0.092745490	-7.887000E+00	  0.092745490	9.387400E+01	  0.092745490	3.439900E+01	  0.092745490	3.305700E+01
365	  0.092945889	-7.919000E+00	  0.092945889	9.330700E+01	  0.092945889	3.471300E+01	  0.092945889	3.321100E+01
366	  0.093146294	-7.960000E+00	  0.093146294	9.274800E+01	  0.093146294	3.505100E+01	  0.093146294	3.333600E+01
367	  0.093346693	-7.984000E+00	  0.093346693	9.220300E+01	  0.093346693	3.534100E+01	  0.093346693	3.349700E+01
368	  0.093547091	-8.022000E+00	  0.093547091	9.168100E+01	  0.093547091	3.566300E+01	  0.093547091	3.360700E+01
369	  0.093747497	-8.046000E+00	  0.093747497	9.110900E+01	  0.093747497	3.596900E+01	  0.093747497	3.377500E+01
370	  0.093947895	-8.084000E+00	  0.093947895	9.053100E+01	  0.093947895	3.631600E+01	  0.093947895	3.390600E+01
371	  0.094148301	-8.115000E+00	  0.094148301	8.999900E+01	  0.094148301	3.662900E+01	  0.094148301	3.403300E+01
372	  0.094348699	-8.144000E+00	  0.094348699	8.950500E+01	  0.094348699	3.692200E+01	  0.094348699	3.414900E+01
373	  0.094549097	-8.179000E+00	  0.094549097	8.897200E+01	  0.094549097	3.725200E+01	  0.094549097	3.425900E+01
374	  0.094749503	-8.210000E+00	  0.094749503	8.844700E+01	  0.094749503	3.756900E+01	  0.094749503	3.437500E+01
375	  0.094949901	-8.238000E+00	  0.094949901	8.795500E+01	  0.094949901	3.786500E+01	  0.094949901	3.448700E+01
376	  0.095150299	-8.266000E+00	  0.095150299	8.740900E+01	  0.095150299	3.818700E+01	  0.095150299	3.461600E+01
377	  0.095350705	-8.294000E+00	  0.095350705	8.693300E+01	  0.095350705	3.848100E+01	  0.095350705	3.471500E+01
378	  0.095551103	-8.324000E+00	  0.095551103	8.641400E+01	  0.095551103	3.880100E+01	  0.095551103	3.482300E+01
379	  0.095751502	-8.351000E+00	  0.095751502	8.593300E+01	  0.095751502	3.909600E+01	  0.095751502	3.492500E+01
380	  0.095951907	-8.380000E+00	  0.095951907	8.543900E+01	  0.095951907	3.940700E+01	  0.095951907	3.501900E+01
381	  0.096152306	-8.408000E+00	  0.096152306	8.499700E+01	  0.096152306	3.968900E+01	  0.096152306	3.509900E+01
382	  0.096352704	-8.432000E+00	  0.096352704	8.452500E+01	  0.096352704	3.998000E+01	  0.096352704	3.519700E+01
383	  0.096553110	-8.457000E+00	  0.096553110	8.407900E+01	  0.096553110	4.026200E+01	  0.096553110	3.528200E+01
384	  0.096753508	-8.481000E+00	  0.096753508	8.361000E+01	  0.096753508	4.055400E+01	  0.096753508	3.537500E+01
385	  0.096953906	-8.505000E+00	  0.096953906	8.316700E+01	  0.096953906	4.083500E+01	  0.096953906	3.545800E+01
386	  0.097154312	-8.533000E+00	  0.097154312	8.274600E+01	  0.097154312	4.111400E+01	  0.097154312	3.551900E+01
387	  0.097354710	-8.552000E+00	  0.097354710	8.230500E+01	  0.097354710	4.138600E+01	  0.097354710	3.561300E+01
388	  0.097555116	-8.578000E+00	  0.097555116	8.187900E+01	  0.097555116	4.166700E+01	  0.097555116	3.567700E+01
389	  0.097755514	-8.602000E+00	  0.097755514	8.144400E+01	  0.097755514	4.195000E+01	  0.097755514	3.574800E+01
390	  0.097955912	-8.624000E+00	  0.097955912	8.104700E+01	  0.097955912	4.221000E+01	  0.097955912	3.581100E+01
391	  0.098156318	-8.644000E+00	  0.098156318	8.062800E+01	  0.098156318	4.247800E+01	  0.098156318	3.588600E+01
392	  0.098356716	-8.667000E+00	  0.098356716	8.022400E+01	  0.098356716	4.274500E+01	  0.098356716	3.594600E+01
393	  0.098557115	-8.687000E+00	  0.098557115	7.983500E+01	  0.098557115	4.300100E+01	  0.098557115	3.600600E+01
394	  0.098757520	-8.708000E+00	  0.098757520	7.944200E+01	  0.098757520	4.326000E+01	  0.098757520	3.606500E+01
395	  0.098957919	-8.727000E+00	  0.098957919	7.902000E+01	  0.098957919	4.353300E+01	  0.098957919	3.613700E+01
396	  0.099158317	-8.739000E+00	  0.099158317	7.860600E+01	  0.099158317	4.378900E+01	  0.099158317	3.622900E+01
397	  0.099358723	-8.756000E+00	  0.099358723	7.820000E+01	  0.099358723	4.405200E+01	  0.099358723	3.630100E+01
398	  0.099559121	-8.777000E+00	  0.099559121	7.783700E+01	  0.099559121	4.429800E+01	  0.099559121	3.634500E+01
399	  0.099759519	-8.789000E+00	  0.099759519	7.743900E+01	  0.099759519	4.454900E+01	  0.099759519	3.642700E+01
400	  0.099959925	-8.795000E+00	  0.099959925	7.708000E+01	  0.099959925	4.476600E+01	  0.099959925	3.652000E+01
401	  0.100160323	-8.812000E+00	  0.100160323	7.661400E+01	  0.100160323	4.506800E+01	  0.100160323	3.660500E+01
402	  0.100360721	-8.828000E+00	  0.100360721	7.622400E+01	  0.100360721	4.532800E+01	  0.100360721	3.666300E+01
403	  0.100561127	-8.834000E+00	  0.100561127	7.584800E+01	  0.100561127	4.555900E+01	  0.100561127	3.675800E+01
404	  0.100761525	-8.833000E+00	  0.100761525	7.550500E+01	  0.100761525	4.575700E+01	  0.100761525	3.687000E+01
405	  0.100961931	-8.846000E+00	  0.100961931	7.509900E+01	  0.100961931	4.602400E+01	  0.100961931	3.694100E+01
406	  0.101162329	-8.846000E+00	  0.101162329	7.465300E+01	  0.101162329	4.629000E+01	  0.101162329	3.707700E+01
407	  0.101362728	-8.867000E+00	  0.101362728	7.430400E+01	  0.101362728	4.654200E+01	  0.101362728	3.709700E+01
408	  0.101563133	-8.865000E+00	  0.101563133	7.388400E+01	  0.101563133	4.679000E+01	  0.101563133	3.723300E+01
409	  0.101763532	-8.871000E+00	  0.101763532	7.354000E+01	  0.101763532	4.701200E+01	  0.101763532	3.731000E+01
410	  0.101963930	-8.873000E+00	  0.101963930	7.308900E+01	  0.101963930	4.729300E+01	  0.101963930	3.743500E+01
411	  0.102164328	-8.880000E+00	  0.102164328	7.277400E+01	  0.102164328	4.750400E+01	  0.102164328	3.749400E+01
412	  0.102364726	-8.874000E+00	  0.102364726	7.236500E+01	  0.102364726	4.774800E+01	  0.102364726	3.763600E+01
413	  0.102565125	-8.871000E+00	  0.102565125	7.196700E+01	  0.102565125	4.799200E+01	  0.102565125	3.776300E+01
414	  0.102765530	-8.878000E+00	  0.102765530	7.155300E+01	  0.102765530	4.826800E+01	  0.102765530	3.785000E+01
415	  0.102965929	-8.863000E+00	  0.102965929	7.118700E+01	  0.102965929	4.847500E+01	  0.102965929	3.801400E+01
416	  0.103166327	-8.861000E+00	  0.103166327	7.075500E+01	  0.103166327	4.875000E+01	  0.103166327	3.814500E+01
417	  0.103366733	-8.854000E+00	  0.103366733	7.038800E+01	  0.103366733	4.897700E+01	  0.103366733	3.827500E+01
418	  0.103567131	-8.859000E+00	  0.103567131	6.997000E+01	  0.103567131	4.926100E+01	  0.103567131	3.836500E+01
419	  0.103767529	-8.852000E+00	  0.103767529	6.956500E+01	  0.103767529	4.951600E+01	  0.103767529	3.850600E+01
420	  0.103967935	-8.854000E+00	  0.103967935	6.917400E+01	  0.103967935	4.978100E+01	  0.103967935	3.860100E+01
421	  0.104168333	-8.838000E+00	  0.104168333	6.874400E+01	  0.104168333	5.004300E+01	  0.104168333	3.878500E+01
422	  0.104368731	-8.827000E+00	  0.104368731	6.830000E+01	  0.104368731	5.032600E+01	  0.104368731	3.895100E+01
423	  0.104569137	-8.825000E+00	  0.104569137	6.784300E+01	  0.104569137	5.063800E+01	  0.104569137	3.907500E+01
424	  0.104769535	-8.814000E+00	  0.104769535	6.741600E+01	  0.104769535	5.091600E+01	  0.104769535	3.923400E+01
425	  0.104969934	-8.818000E+00	  0.104969934	6.694700E+01	  0.104969934	5.125100E+01	  0.104969934	3.933300E+01
426	  0.105170339	-8.808000E+00	  0.105170339	6.651700E+01	  0.105170339	5.153900E+01	  0.105170339	3.948700E+01
427	  0.105370738	-8.796000E+00	  0.105370738	6.605300E+01	  0.105370738	5.185000E+01	  0.105370738	3.965600E+01
428	  0.105571143	-8.789000E+00	  0.105571143	6.558900E+01	  0.105571143	5.217400E+01	  0.105571143	3.980100E+01
429	  0.105771542	-8.779000E+00	  0.105771542	6.511500E+01	  0.105771542	5.250400E+01	  0.105771542	3.996100E+01
430	  0.105971940	-8.766000E+00	  0.105971940	6.460200E+01	  0.105971940	5.286300E+01	  0.105971940	4.014100E+01
431	  0.106172346	-8.759000E+00	  0.106172346	6.413200E+01	  0.106172346	5.320200E+01	  0.106172346	4.028300E+01
432	  0.106372744	-8.751000E+00	  0.106372744	6.365700E+01	  0.106372744	5.354700E+01	  0.106372744	4.043000E+01
433	  0.106573142	-8.738000E+00	  0.106573142	6.307900E+01	  0.106573142	5.396800E+01	  0.106573142	4.062000E+01
434	  0.106773548	-8.736000E+00	  0.106773548	6.261700E+01	  0.106773548	5.432000E+01	  0.106773548	4.073000E+01
435	  0.106973946	-8.731000E+00	  0.106973946	6.202700E+01	  0.106973946	5.477100E+01	  0.106973946	4.087700E+01
436	  0.107174344	-8.713000E+00	  0.107174344	6.155900E+01	  0.107174344	5.511500E+01	  0.107174344	4.106800E+01
437	  0.107374750	-8.704000E+00	  0.107374750	6.095700E+01	  0.107374750	5.558300E+01	  0.107374750	4.123000E+01
438	  0.107575148	-8.687000E+00	  0.107575148	6.041200E+01	  0.107575148	5.600000E+01	  0.107575148	4.142500E+01
439	  0.107775547	-8.683000E+00	  0.107775547	5.985100E+01	  0.107775547	5.645200E+01	  0.107775547	4.155000E+01
440	  0.107975952	-8.665000E+00	  0.107975952	5.934100E+01	  0.107975952	5.685000E+01	  0.107975952	4.173900E+01
441	  0.108176351	-8.663000E+00	  0.108176351	5.879700E+01	  0.108176351	5.730000E+01	  0.108176351	4.184900E+01
442	  0.108376749	-8.652000E+00	  0.108376749	5.822700E+01	  0.108376749	5.776800E+01	  0.108376749	4.200400E+01
443	  0.108577155	-8.648000E+00	  0.108577155	5.765000E+01	  0.108577155	5.825600E+01	  0.108577155	4.211400E+01
444	  0.108777553	-8.637000E+00	  0.108777553	5.713100E+01	  0.108777553	5.869200E+01	  0.108777553	4.225600E+01
445	  0.108977959	-8.625000E+00	  0.108977959	5.654000E+01	  0.108977959	5.919600E+01	  0.108977959	4.240700E+01
446	  0.109178357	-8.622000E+00	  0.109178357	5.603300E+01	  0.109178357	5.963900E+01	  0.109178357	4.249500E+01
447	  0.109378755	-8.610000E+00	  0.109378755	5.540700E+01	  0.109378755	6.018600E+01	  0.109378755	4.264500E+01
448	  0.109579161	-8.593000E+00	  0.109579161	5.486300E+01	  0.109579161	6.066300E+01	  0.109579161	4.281200E+01
449	  0.109779559	-8.588000E+00	  0.109779559	5.427500E+01	  0.109779559	6.119600E+01	  0.109779559	4.290200E+01
450	  0.109979957	-8.578000E+00	  0.109979957	5.374500E+01	  0.109979957	6.167700E+01	  0.109979957	4.301800E+01
451	  0.110180363	-8.570000E+00	  0.110180363	5.314300E+01	  0.110180363	6.223300E+01	  0.110180363	4.312300E+01
452	  0.110380761	-8.559000E+00	  0.110380761	5.248600E+01	  0.110380761	6.284800E+01	  0.110380761	4.323800E+01
453	  0.110581160	-8.545000E+00	  0.110581160	5.194400E+01	  0.110581160	6.335700E+01	  0.110581160	4.336400E+01
454	  0.110781565	-8.537000E+00	  0.110781565	5.132500E+01	  0.110781565	6.395100E+01	  0.110781565	4.345500E+01
455	  0.110981964	-8.539000E+00	  0.110981964	5.070800E+01	  0.110981964	6.455400E+01	  0.110981964	4.347100E+01
456	  0.111182362	-8.531000E+00	  0.111182362	5.005900E+01	  0.111182362	6.519200E+01	  0.111182362	4.354300E+01
457	  0.111382768	-8.515000E+00	  0.111382768	4.944100E+01	  0.111382768	6.580500E+01	  0.111382768	4.365700E+01
458	  0.111583166	-8.507000E+00	  0.111583166	4.883300E+01	  0.111583166	6.641800E+01	  0.111583166	4.371700E+01
459	  0.111783572	-8.500000E+00	  0.111783572	4.813300E+01	  0.111783572	6.713200E+01	  0.111783572	4.375500E+01
460	  0.111983970	-8.488000E+00	  0.111983970	4.746100E+01	  0.111983970	6.782700E+01	  0.111983970	4.382300E+01
461	  0.112184368	-8.484000E+00	  0.112184368	4.679100E+01	  0.112184368	6.852700E+01	  0.112184368	4.382000E+01
462	  0.112384774	-8.473000E+00	  0.112384774	4.604300E+01	  0.112384774	6.932000E+01	  0.112384774	4.386000E+01
463	  0.112585172	-8.477000E+00	  0.112585172	4.534500E+01	  0.112585172	7.006200E+01	  0.112585172	4.377800E+01
464	  0.112785570	-8.468000E+00	  0.112785570	4.465300E+01	  0.112785570	7.081200E+01	  0.112785570	4.377200E+01
465	  0.112985976	-8.458000E+00	  0.112985976	4.391200E+01	  0.112985976	7.162700E+01	  0.112985976	4.375800E+01
466	  0.113186374	-8.460000E+00	  0.113186374	4.315200E+01	  0.113186374	7.246000E+01	  0.113186374	4.364500E+01
467	  0.113386773	-8.457000E+00	  0.113386773	4.240100E+01	  0.113386773	7.329600E+01	  0.113386773	4.354700E+01
468	  0.113587178	-8.452000E+00	  0.113587178	4.162600E+01	  0.113587178	7.417100E+01	  0.113587178	4.344400E+01
469	  0.113787577	-8.448000E+00	  0.113787577	4.083900E+01	  0.113787577	7.506400E+01	  0.113787577	4.330600E+01
470	  0.113987975	-8.444000E+00	  0.113987975	4.001500E+01	  0.113987975	7.601000E+01	  0.113987975	4.314200E+01
471	  0.114188381	-8.444000E+00	  0.114188381	3.920500E+01	  0.114188381	7.694100E+01	  0.114188381	4.293600E+01
472	  0.114388779	-8.446000E+00	  0.114388779	3.840500E+01	  0.114388779	7.786200E+01	  0.114388779	4.268900E+01
473	  0.114589177	-8.446000E+00	  0.114589177	3.757800E+01	  0.114589177	7.882500E+01	  0.114589177	4.242600E+01
474	  0.114789583	-8.448000E+00	  0.114789583	3.673500E+01	  0.114789583	7.980500E+01	  0.114789583	4.211000E+01
475	  0.114989981	-8.455000E+00	  0.114989981	3.589900E+01	  0.114989981	8.077100E+01	  0.114989981	4.173900E+01
476	  0.115190387	-8.454000E+00	  0.115190387	3.502100E+01	  0.115190387	8.181100E+01	  0.115190387	4.138600E+01
477	  0.115390785	-8.463000E+00	  0.115390785	3.411200E+01	  0.115390785	8.285900E+01	  0.115390785	4.090400E+01
478	  0.115591183	-8.465000E+00	  0.115591183	3.328000E+01	  0.115591183	8.383500E+01	  0.115591183	4.047700E+01
479	  0.115791589	-8.478000E+00	  0.115791589	3.234300E+01	  0.115791589	8.490000E+01	  0.115791589	3.988900E+01
480	  0.115991987	-8.490000E+00	  0.115991987	3.144500E+01	  0.115991987	8.591700E+01	  0.115991987	3.929200E+01
481	  0.116192386	-8.501000E+00	  0.116192386	3.053000E+01	  0.116192386	8.694700E+01	  0.116192386	3.865200E+01
482	  0.116392791	-8.516000E+00	  0.116392791	2.964900E+01	  0.116392791	8.791500E+01	  0.116392791	3.797300E+01
483	  0.116593190	-8.536000E+00	  0.116593190	2.871800E+01	  0.116593190	8.890400E+01	  0.116593190	3.718400E+01
484	  0.116793588	-8.556000E+00	  0.116793588	2.774500E+01	  0.116793588	8.992700E+01	  0.116793588	3.633300E+01
485	  0.116993994	-8.581000E+00	  0.116993994	2.676600E+01	  0.116993994	9.090600E+01	  0.116993994	3.539100E+01
486	  0.117194392	-8.602000E+00	  0.117194392	2.581700E+01	  0.117194392	9.185400E+01	  0.117194392	3.447400E+01
487	  0.117394790	-8.634000E+00	  0.117394790	2.482100E+01	  0.117394790	9.276200E+01	  0.117394790	3.339400E+01
488	  0.117595196	-8.662000E+00	  0.117595196	2.383000E+01	  0.117595196	9.365500E+01	  0.117595196	3.231000E+01
489	  0.117795594	-8.697000E+00	  0.117795594	2.285700E+01	  0.117795594	9.445500E+01	  0.117795594	3.116600E+01
490	  0.117995992	-8.726000E+00	  0.117995992	2.178300E+01	  0.117995992	9.535600E+01	  0.117995992	2.992700E+01
