! Anritsu VNA Master:             	Model: MS2036C/10/77
! SN:             	1601066
! /bd0/18may10/252.ns.m2.txt
! Existing Calibration Information:
! TYPE:             	Current Settings	Active Cal Settings
! TIME:             	05/10/2018 05:35:45 PM	05/10/2018 05:30:44 PM
! INTERNAL TEMP:    	58.5 C	57.8 C
! # POINTS:         	490	490
! START FREQ:       	20.000 MHz	20.000 MHz
! STOP FREQ:        	117.995 991 MHz	117.995 991 MHz
! SOURCE POWER:     	High	High
! IFBW:             	50 Hz	50 Hz
! AVG FACTOR:       	  1 	  1 
! REF PLANE 1:      	0 mm	0 mm
! REF PLANE 2:      	0 mm	0 mm
! CAL TYPE:         	Full S22	Full S22
! CAL METHOD:       	SOLT	SOLT
! CAL LINE TYPE:    	Coax	Coax
! DUT PORT 1:       	K-Conn(M)	K-Conn(M)
! DUT PORT 2:       	K-Conn(M)	K-Conn(M)
! CAL STATUS:       	OK: Accuracy High	--
! PROP-V:       	0.700
! CABLE LOSS:       	0.000 dB/m
! REF IMPEDANCE:       	50.0
! Trace Specific Parameters:	TR1	TR2	TR3	TR4
! TRACE.#.Y (GRAPH TYPE)	LOG MAG	PHASE	REAL IMPEDANCE	IMAGINARY IMPEDANCE
! TRACE.#.X 	FREQ.GHZ	FREQ.GHZ	FREQ.GHZ	FREQ.GHZ
! S-PARAMETER	S22	S22	S22	S22
! SMOOTH/APERTURE %	0	0	0	0
! WINDOW	NSL	NSL	NSL	NSL
! GATING	OFF	OFF	OFF	OFF
! FGTD	OFF	OFF	OFF	OFF
Marker Information per Trace:	TR1	TR2	TR3	TR4
!MK1	--	"MK1 TR2:  20.000 MHz,PH:-125.31°"	--	--
!MK2	--	--	"MK2 TR3:  70.100 200 MHz,Z:(16.712 ohm, -1.755 ohm)"	--
!MK3	--	--	--	--
!MK4	--	--	--	--
!MK5	--	--	--	--
!MK6	--	--	--	--
!MK7	--	--	--	--
!MK8	--	--	--	--
PNT	TR1.FREQ.GHZ	TR1.LOG MAG.dB	TR2.FREQ.GHZ	TR2.PHASE.deg	TR3.FREQ.GHZ	TR3.REAL IMPEDANCE.ohm	TR4.FREQ.GHZ	TR4.IMAGINARY IMPEDANCE.ohm
1	  0.020000000	-6.360000E-01	  0.020000000	-1.253080E+02	  0.020000000	2.320000E+00	  0.020000000	-2.581300E+01
2	  0.020200402	-6.400000E-01	  0.020200402	-1.267590E+02	  0.020200402	2.305000E+00	  0.020200402	-2.501700E+01
3	  0.020400802	-6.440000E-01	  0.020400802	-1.282080E+02	  0.020400802	2.289000E+00	  0.020400802	-2.423200E+01
4	  0.020601204	-6.460000E-01	  0.020601204	-1.296820E+02	  0.020601204	2.270000E+00	  0.020601204	-2.344400E+01
5	  0.020801604	-6.510000E-01	  0.020801604	-1.311920E+02	  0.020801604	2.258000E+00	  0.020801604	-2.264600E+01
6	  0.021002004	-6.530000E-01	  0.021002004	-1.326870E+02	  0.021002004	2.238000E+00	  0.021002004	-2.186600E+01
7	  0.021202406	-6.570000E-01	  0.021202406	-1.342020E+02	  0.021202406	2.227000E+00	  0.021202406	-2.108400E+01
8	  0.021402806	-6.590000E-01	  0.021402806	-1.357010E+02	  0.021402806	2.211000E+00	  0.021402806	-2.031800E+01
9	  0.021603208	-6.620000E-01	  0.021603208	-1.372060E+02	  0.021603208	2.198000E+00	  0.021603208	-1.955800E+01
10	  0.021803608	-6.670000E-01	  0.021803608	-1.387060E+02	  0.021803608	2.192000E+00	  0.021803608	-1.880800E+01
11	  0.022004008	-6.720000E-01	  0.022004008	-1.402280E+02	  0.022004008	2.188000E+00	  0.022004008	-1.805500E+01
12	  0.022204408	-6.780000E-01	  0.022204408	-1.417410E+02	  0.022204408	2.186000E+00	  0.022204408	-1.731200E+01
13	  0.022404809	-6.870000E-01	  0.022404809	-1.432850E+02	  0.022404809	2.196000E+00	  0.022404809	-1.656200E+01
14	  0.022605211	-6.890000E-01	  0.022605211	-1.448580E+02	  0.022605211	2.181000E+00	  0.022605211	-1.580500E+01
15	  0.022805611	-6.890000E-01	  0.022805611	-1.464310E+02	  0.022805611	2.165000E+00	  0.022805611	-1.505500E+01
16	  0.023006011	-6.930000E-01	  0.023006011	-1.479840E+02	  0.023006011	2.159000E+00	  0.023006011	-1.431900E+01
17	  0.023206413	-6.990000E-01	  0.023206413	-1.495400E+02	  0.023206413	2.161000E+00	  0.023206413	-1.358800E+01
18	  0.023406813	-7.050000E-01	  0.023406813	-1.510930E+02	  0.023406813	2.163000E+00	  0.023406813	-1.286400E+01
19	  0.023607215	-7.130000E-01	  0.023607215	-1.526520E+02	  0.023607215	2.174000E+00	  0.023607215	-1.214200E+01
20	  0.023807615	-7.200000E-01	  0.023807615	-1.542470E+02	  0.023807615	2.181000E+00	  0.023807615	-1.140900E+01
21	  0.024008015	-7.270000E-01	  0.024008015	-1.558480E+02	  0.024008015	2.189000E+00	  0.024008015	-1.067700E+01
22	  0.024208417	-7.350000E-01	  0.024208417	-1.574830E+02	  0.024208417	2.198000E+00	  0.024208417	-9.934000E+00
23	  0.024408817	-7.410000E-01	  0.024408817	-1.591230E+02	  0.024408817	2.203000E+00	  0.024408817	-9.194000E+00
24	  0.024609219	-7.470000E-01	  0.024609219	-1.607600E+02	  0.024609219	2.210000E+00	  0.024609219	-8.458000E+00
25	  0.024809619	-7.540000E-01	  0.024809619	-1.623980E+02	  0.024809619	2.223000E+00	  0.024809619	-7.725000E+00
26	  0.025010020	-7.630000E-01	  0.025010020	-1.640510E+02	  0.025010020	2.240000E+00	  0.025010020	-6.990000E+00
27	  0.025210422	-7.740000E-01	  0.025210422	-1.657130E+02	  0.025210422	2.261000E+00	  0.025210422	-6.253000E+00
28	  0.025410822	-7.850000E-01	  0.025410822	-1.673860E+02	  0.025410822	2.285000E+00	  0.025410822	-5.514000E+00
29	  0.025611224	-7.950000E-01	  0.025611224	-1.690730E+02	  0.025611224	2.309000E+00	  0.025611224	-4.771000E+00
30	  0.025811624	-8.060000E-01	  0.025811624	-1.707750E+02	  0.025811624	2.336000E+00	  0.025811624	-4.025000E+00
31	  0.026012026	-8.170000E-01	  0.026012026	-1.724890E+02	  0.026012026	2.360000E+00	  0.026012026	-3.274000E+00
32	  0.026212426	-8.270000E-01	  0.026212426	-1.742060E+02	  0.026212426	2.386000E+00	  0.026212426	-2.524000E+00
33	  0.026412826	-8.410000E-01	  0.026412826	-1.759330E+02	  0.026412826	2.421000E+00	  0.026412826	-1.770000E+00
34	  0.026613226	-8.550000E-01	  0.026613226	-1.776680E+02	  0.026613226	2.462000E+00	  0.026613226	-1.014000E+00
35	  0.026813626	-8.710000E-01	  0.026813626	-1.794140E+02	  0.026813626	2.505000E+00	  0.026813626	-2.540000E-01
36	  0.027014028	-8.870000E-01	  0.027014028	1.788270E+02	  0.027014028	2.551000E+00	  0.027014028	5.100000E-01
37	  0.027214428	-9.040000E-01	  0.027214428	1.770640E+02	  0.027214428	2.603000E+00	  0.027214428	1.277000E+00
38	  0.027414829	-9.200000E-01	  0.027414829	1.753000E+02	  0.027414829	2.652000E+00	  0.027414829	2.046000E+00
39	  0.027615231	-9.380000E-01	  0.027615231	1.735130E+02	  0.027615231	2.708000E+00	  0.027615231	2.824000E+00
40	  0.027815631	-9.570000E-01	  0.027815631	1.717220E+02	  0.027815631	2.768000E+00	  0.027815631	3.606000E+00
41	  0.028016033	-9.770000E-01	  0.028016033	1.699150E+02	  0.028016033	2.833000E+00	  0.028016033	4.397000E+00
42	  0.028216433	-9.980000E-01	  0.028216433	1.681060E+02	  0.028216433	2.901000E+00	  0.028216433	5.191000E+00
43	  0.028416833	-1.019000E+00	  0.028416833	1.662790E+02	  0.028416833	2.974000E+00	  0.028416833	5.994000E+00
44	  0.028617235	-1.041000E+00	  0.028617235	1.644540E+02	  0.028617235	3.049000E+00	  0.028617235	6.799000E+00
45	  0.028817635	-1.064000E+00	  0.028817635	1.626190E+02	  0.028817635	3.131000E+00	  0.028817635	7.613000E+00
46	  0.029018037	-1.090000E+00	  0.029018037	1.607820E+02	  0.029018037	3.224000E+00	  0.029018037	8.430000E+00
47	  0.029218437	-1.114000E+00	  0.029218437	1.589300E+02	  0.029218437	3.315000E+00	  0.029218437	9.258000E+00
48	  0.029418837	-1.141000E+00	  0.029418837	1.570670E+02	  0.029418837	3.416000E+00	  0.029418837	1.009600E+01
49	  0.029619239	-1.171000E+00	  0.029619239	1.551910E+02	  0.029619239	3.527000E+00	  0.029619239	1.094400E+01
50	  0.029819639	-1.201000E+00	  0.029819639	1.533110E+02	  0.029819639	3.644000E+00	  0.029819639	1.180000E+01
51	  0.030020041	-1.229000E+00	  0.030020041	1.514190E+02	  0.030020041	3.762000E+00	  0.030020041	1.266800E+01
52	  0.030220442	-1.260000E+00	  0.030220442	1.495350E+02	  0.030220442	3.887000E+00	  0.030220442	1.353800E+01
53	  0.030420844	-1.289000E+00	  0.030420844	1.476590E+02	  0.030420844	4.015000E+00	  0.030420844	1.441200E+01
54	  0.030621244	-1.323000E+00	  0.030621244	1.457770E+02	  0.030621244	4.159000E+00	  0.030621244	1.529500E+01
55	  0.030821642	-1.355000E+00	  0.030821642	1.438870E+02	  0.030821642	4.303000E+00	  0.030821642	1.619100E+01
56	  0.031022044	-1.390000E+00	  0.031022044	1.419980E+02	  0.031022044	4.464000E+00	  0.031022044	1.709400E+01
57	  0.031222444	-1.418000E+00	  0.031222444	1.400950E+02	  0.031222444	4.605000E+00	  0.031222444	1.801500E+01
58	  0.031422846	-1.453000E+00	  0.031422846	1.381590E+02	  0.031422846	4.777000E+00	  0.031422846	1.896000E+01
59	  0.031623244	-1.489000E+00	  0.031623244	1.362210E+02	  0.031623244	4.961000E+00	  0.031623244	1.991800E+01
60	  0.031823646	-1.520000E+00	  0.031823646	1.342910E+02	  0.031823646	5.135000E+00	  0.031823646	2.088400E+01
61	  0.032024048	-1.555000E+00	  0.032024048	1.323510E+02	  0.032024048	5.326000E+00	  0.032024048	2.186800E+01
62	  0.032224450	-1.591000E+00	  0.032224450	1.304190E+02	  0.032224450	5.532000E+00	  0.032224450	2.285900E+01
63	  0.032424849	-1.627000E+00	  0.032424849	1.284540E+02	  0.032424849	5.749000E+00	  0.032424849	2.388200E+01
64	  0.032625251	-1.661000E+00	  0.032625251	1.264650E+02	  0.032625251	5.968000E+00	  0.032625251	2.493300E+01
65	  0.032825653	-1.697000E+00	  0.032825653	1.244830E+02	  0.032825653	6.202000E+00	  0.032825653	2.599700E+01
66	  0.033026051	-1.732000E+00	  0.033026051	1.224750E+02	  0.033026051	6.446000E+00	  0.033026051	2.709300E+01
67	  0.033226453	-1.768000E+00	  0.033226453	1.204510E+02	  0.033226453	6.711000E+00	  0.033226453	2.821500E+01
68	  0.033426855	-1.803000E+00	  0.033426855	1.184460E+02	  0.033426855	6.979000E+00	  0.033426855	2.934800E+01
69	  0.033627257	-1.841000E+00	  0.033627257	1.164430E+02	  0.033627257	7.276000E+00	  0.033627257	3.049800E+01
70	  0.033827655	-1.881000E+00	  0.033827655	1.144390E+02	  0.033827655	7.596000E+00	  0.033827655	3.167000E+01
71	  0.034028057	-1.919000E+00	  0.034028057	1.123980E+02	  0.034028057	7.925000E+00	  0.034028057	3.288800E+01
72	  0.034228459	-1.961000E+00	  0.034228459	1.103520E+02	  0.034228459	8.292000E+00	  0.034228459	3.413300E+01
73	  0.034428857	-2.004000E+00	  0.034428857	1.083030E+02	  0.034428857	8.680000E+00	  0.034428857	3.540400E+01
74	  0.034629259	-2.047000E+00	  0.034629259	1.062110E+02	  0.034629259	9.101000E+00	  0.034629259	3.673100E+01
75	  0.034829661	-2.092000E+00	  0.034829661	1.041520E+02	  0.034829661	9.549000E+00	  0.034829661	3.806400E+01
76	  0.035030060	-2.138000E+00	  0.035030060	1.020860E+02	  0.035030060	1.003000E+01	  0.035030060	3.943300E+01
77	  0.035230462	-2.186000E+00	  0.035230462	1.000010E+02	  0.035230462	1.055100E+01	  0.035230462	4.084500E+01
78	  0.035430863	-2.233000E+00	  0.035430863	9.791100E+01	  0.035430863	1.110100E+01	  0.035430863	4.229600E+01
79	  0.035631265	-2.284000E+00	  0.035631265	9.582900E+01	  0.035631265	1.170600E+01	  0.035631265	4.377300E+01
80	  0.035831664	-2.333000E+00	  0.035831664	9.373200E+01	  0.035831664	1.234300E+01	  0.035831664	4.530000E+01
81	  0.036032066	-2.383000E+00	  0.036032066	9.162400E+01	  0.036032066	1.303100E+01	  0.036032066	4.687400E+01
82	  0.036232468	-2.433000E+00	  0.036232468	8.953800E+01	  0.036232468	1.375900E+01	  0.036232468	4.847300E+01
83	  0.036432866	-2.486000E+00	  0.036432866	8.742500E+01	  0.036432866	1.456400E+01	  0.036432866	5.013200E+01
84	  0.036633268	-2.537000E+00	  0.036633268	8.531000E+01	  0.036633268	1.541000E+01	  0.036633268	5.184300E+01
85	  0.036833670	-2.592000E+00	  0.036833670	8.320300E+01	  0.036833670	1.634700E+01	  0.036833670	5.358400E+01
86	  0.037034072	-2.646000E+00	  0.037034072	8.108000E+01	  0.037034072	1.734800E+01	  0.037034072	5.539300E+01
87	  0.037234470	-2.702000E+00	  0.037234470	7.897200E+01	  0.037234470	1.843500E+01	  0.037234470	5.723100E+01
88	  0.037434869	-2.755000E+00	  0.037434869	7.684000E+01	  0.037434869	1.959800E+01	  0.037434869	5.915000E+01
89	  0.037635271	-2.813000E+00	  0.037635271	7.470700E+01	  0.037635271	2.088300E+01	  0.037635271	6.111300E+01
90	  0.037835669	-2.876000E+00	  0.037835669	7.257600E+01	  0.037835669	2.230800E+01	  0.037835669	6.310900E+01
91	  0.038036071	-2.940000E+00	  0.038036071	7.041800E+01	  0.038036071	2.387400E+01	  0.038036071	6.518100E+01
92	  0.038236473	-3.006000E+00	  0.038236473	6.836100E+01	  0.038236473	2.552000E+01	  0.038236473	6.718600E+01
93	  0.038436871	-3.064000E+00	  0.038436871	6.628400E+01	  0.038436871	2.725500E+01	  0.038436871	6.928900E+01
94	  0.038637273	-3.118000E+00	  0.038637273	6.416800E+01	  0.038637273	2.913600E+01	  0.038637273	7.150200E+01
95	  0.038837675	-3.173000E+00	  0.038837675	6.204400E+01	  0.038837675	3.119900E+01	  0.038837675	7.376600E+01
96	  0.039038073	-3.228000E+00	  0.039038073	5.994200E+01	  0.039038073	3.341600E+01	  0.039038073	7.605700E+01
97	  0.039238475	-3.284000E+00	  0.039238475	5.783600E+01	  0.039238475	3.585400E+01	  0.039238475	7.837900E+01
98	  0.039438877	-3.339000E+00	  0.039438877	5.572700E+01	  0.039438877	3.850300E+01	  0.039438877	8.074500E+01
99	  0.039639279	-3.395000E+00	  0.039639279	5.363700E+01	  0.039639279	4.138300E+01	  0.039639279	8.310100E+01
100	  0.039839678	-3.454000E+00	  0.039839678	5.150900E+01	  0.039839678	4.459700E+01	  0.039839678	8.549200E+01
101	  0.040040080	-3.508000E+00	  0.040040080	4.939400E+01	  0.040040080	4.805400E+01	  0.040040080	8.789800E+01
102	  0.040240481	-3.562000E+00	  0.040240481	4.727500E+01	  0.040240481	5.183500E+01	  0.040240481	9.028500E+01
103	  0.040440880	-3.620000E+00	  0.040440880	4.519500E+01	  0.040440880	5.593800E+01	  0.040440880	9.252000E+01
104	  0.040641282	-3.674000E+00	  0.040641282	4.311400E+01	  0.040641282	6.038000E+01	  0.040641282	9.470800E+01
105	  0.040841684	-3.731000E+00	  0.040841684	4.103800E+01	  0.040841684	6.524600E+01	  0.040841684	9.671300E+01
106	  0.041042086	-3.787000E+00	  0.041042086	3.897700E+01	  0.041042086	7.049200E+01	  0.041042086	9.852800E+01
107	  0.041242484	-3.846000E+00	  0.041242484	3.690100E+01	  0.041242484	7.624700E+01	  0.041242484	1.000660E+02
108	  0.041442886	-3.901000E+00	  0.041442886	3.482800E+01	  0.041442886	8.243000E+01	  0.041442886	1.013560E+02
109	  0.041643288	-3.958000E+00	  0.041643288	3.276200E+01	  0.041643288	8.908300E+01	  0.041643288	1.022070E+02
110	  0.041843686	-4.012000E+00	  0.041843686	3.067900E+01	  0.041843686	9.625900E+01	  0.041843686	1.026380E+02
111	  0.042044088	-4.064000E+00	  0.042044088	2.862700E+01	  0.042044088	1.037890E+02	  0.042044088	1.024760E+02
112	  0.042244490	-4.120000E+00	  0.042244490	2.657300E+01	  0.042244490	1.117580E+02	  0.042244490	1.015410E+02
113	  0.042444889	-4.173000E+00	  0.042444889	2.453100E+01	  0.042444889	1.200320E+02	  0.042444889	9.982900E+01
114	  0.042645290	-4.229000E+00	  0.042645290	2.250100E+01	  0.042645290	1.285020E+02	  0.042645290	9.710900E+01
115	  0.042845692	-4.283000E+00	  0.042845692	2.047600E+01	  0.042845692	1.370720E+02	  0.042845692	9.339700E+01
116	  0.043046094	-4.336000E+00	  0.043046094	1.843900E+01	  0.043046094	1.456620E+02	  0.043046094	8.854900E+01
117	  0.043246493	-4.388000E+00	  0.043246493	1.641700E+01	  0.043246493	1.539630E+02	  0.043246493	8.256300E+01
118	  0.043446895	-4.439000E+00	  0.043446895	1.440500E+01	  0.043446895	1.617760E+02	  0.043446895	7.541100E+01
119	  0.043647297	-4.488000E+00	  0.043647297	1.239900E+01	  0.043647297	1.689270E+02	  0.043647297	6.715700E+01
120	  0.043847695	-4.541000E+00	  0.043847695	1.039100E+01	  0.043847695	1.750730E+02	  0.043847695	5.773500E+01
121	  0.044048097	-4.590000E+00	  0.044048097	8.414000E+00	  0.044048097	1.800250E+02	  0.044048097	4.759500E+01
122	  0.044248499	-4.640000E+00	  0.044248499	6.434000E+00	  0.044248499	1.836750E+02	  0.044248499	3.675000E+01
123	  0.044448901	-4.690000E+00	  0.044448901	4.487000E+00	  0.044448901	1.858530E+02	  0.044448901	2.566600E+01
124	  0.044649299	-4.739000E+00	  0.044649299	2.513000E+00	  0.044649299	1.866300E+02	  0.044649299	1.428200E+01
125	  0.044849701	-4.784000E+00	  0.044849701	5.670000E-01	  0.044849701	1.860570E+02	  0.044849701	3.182000E+00
126	  0.045050103	-4.828000E+00	  0.045050103	-1.379000E+00	  0.045050103	1.841750E+02	  0.045050103	-7.578000E+00
127	  0.045250501	-4.872000E+00	  0.045250501	-3.325000E+00	  0.045250501	1.810250E+02	  0.045250501	-1.777400E+01
128	  0.045450903	-4.914000E+00	  0.045450903	-5.251000E+00	  0.045450903	1.769160E+02	  0.045450903	-2.714700E+01
129	  0.045651305	-4.957000E+00	  0.045651305	-7.168000E+00	  0.045651305	1.719030E+02	  0.045651305	-3.561900E+01
130	  0.045851704	-4.999000E+00	  0.045851704	-9.070000E+00	  0.045851704	1.663040E+02	  0.045851704	-4.313100E+01
131	  0.046052102	-5.040000E+00	  0.046052102	-1.096300E+01	  0.046052102	1.602510E+02	  0.046052102	-4.968900E+01
132	  0.046252504	-5.081000E+00	  0.046252504	-1.285200E+01	  0.046252504	1.538860E+02	  0.046252504	-5.530300E+01
133	  0.046452906	-5.118000E+00	  0.046452906	-1.471300E+01	  0.046452906	1.475060E+02	  0.046452906	-6.003500E+01
134	  0.046653304	-5.159000E+00	  0.046653304	-1.657600E+01	  0.046653304	1.410150E+02	  0.046653304	-6.390700E+01
135	  0.046853706	-5.195000E+00	  0.046853706	-1.845400E+01	  0.046853706	1.345770E+02	  0.046853706	-6.714200E+01
136	  0.047054108	-5.228000E+00	  0.047054108	-2.032000E+01	  0.047054108	1.283330E+02	  0.047054108	-6.974400E+01
137	  0.047254506	-5.261000E+00	  0.047254506	-2.219000E+01	  0.047254506	1.222370E+02	  0.047254506	-7.174600E+01
138	  0.047454908	-5.290000E+00	  0.047454908	-2.404600E+01	  0.047454908	1.164150E+02	  0.047454908	-7.326900E+01
139	  0.047655310	-5.320000E+00	  0.047655310	-2.589700E+01	  0.047655310	1.108220E+02	  0.047655310	-7.428200E+01
140	  0.047855709	-5.351000E+00	  0.047855709	-2.768200E+01	  0.047855709	1.056630E+02	  0.047855709	-7.485500E+01
141	  0.048056111	-5.382000E+00	  0.048056111	-2.948200E+01	  0.048056111	1.007120E+02	  0.048056111	-7.507900E+01
142	  0.048256513	-5.409000E+00	  0.048256513	-3.128100E+01	  0.048256513	9.602500E+01	  0.048256513	-7.510100E+01
143	  0.048456915	-5.438000E+00	  0.048456915	-3.308400E+01	  0.048456915	9.157700E+01	  0.048456915	-7.485200E+01
144	  0.048657313	-5.464000E+00	  0.048657313	-3.487000E+01	  0.048657313	8.741300E+01	  0.048657313	-7.442500E+01
145	  0.048857715	-5.489000E+00	  0.048857715	-3.663000E+01	  0.048857715	8.354000E+01	  0.048857715	-7.385100E+01
146	  0.049058117	-5.509000E+00	  0.049058117	-3.842300E+01	  0.049058117	7.981100E+01	  0.049058117	-7.318300E+01
147	  0.049258515	-5.533000E+00	  0.049258515	-4.016500E+01	  0.049258515	7.640200E+01	  0.049258515	-7.235300E+01
148	  0.049458917	-5.556000E+00	  0.049458917	-4.187700E+01	  0.049458917	7.324100E+01	  0.049458917	-7.144900E+01
149	  0.049659319	-5.579000E+00	  0.049659319	-4.359200E+01	  0.049659319	7.025600E+01	  0.049659319	-7.047100E+01
150	  0.049859721	-5.600000E+00	  0.049859721	-4.531800E+01	  0.049859721	6.742000E+01	  0.049859721	-6.943400E+01
151	  0.050060119	-5.623000E+00	  0.050060119	-4.700100E+01	  0.050060119	6.481900E+01	  0.050060119	-6.835200E+01
152	  0.050260521	-5.643000E+00	  0.050260521	-4.869800E+01	  0.050260521	6.233600E+01	  0.050260521	-6.725000E+01
153	  0.050460923	-5.663000E+00	  0.050460923	-5.040300E+01	  0.050460923	5.998300E+01	  0.050460923	-6.610700E+01
154	  0.050661322	-5.679000E+00	  0.050661322	-5.204700E+01	  0.050661322	5.783000E+01	  0.050661322	-6.500800E+01
155	  0.050861724	-5.693000E+00	  0.050861724	-5.370500E+01	  0.050861724	5.576600E+01	  0.050861724	-6.389600E+01
156	  0.051062126	-5.712000E+00	  0.051062126	-5.535200E+01	  0.051062126	5.384700E+01	  0.051062126	-6.273700E+01
157	  0.051262524	-5.731000E+00	  0.051262524	-5.696700E+01	  0.051262524	5.207000E+01	  0.051262524	-6.159000E+01
158	  0.051462926	-5.752000E+00	  0.051462926	-5.858400E+01	  0.051462926	5.039400E+01	  0.051462926	-6.042100E+01
159	  0.051663328	-5.768000E+00	  0.051663328	-6.020400E+01	  0.051663328	4.878200E+01	  0.051663328	-5.928800E+01
160	  0.051863730	-5.787000E+00	  0.051863730	-6.179200E+01	  0.051863730	4.729900E+01	  0.051863730	-5.815500E+01
161	  0.052064128	-5.798000E+00	  0.052064128	-6.341000E+01	  0.052064128	4.583100E+01	  0.052064128	-5.705500E+01
162	  0.052264530	-5.812000E+00	  0.052264530	-6.498000E+01	  0.052264530	4.449100E+01	  0.052264530	-5.597200E+01
163	  0.052464932	-5.825000E+00	  0.052464932	-6.656600E+01	  0.052464932	4.320100E+01	  0.052464932	-5.488800E+01
164	  0.052665330	-5.842000E+00	  0.052665330	-6.814700E+01	  0.052665330	4.199100E+01	  0.052665330	-5.379700E+01
165	  0.052865732	-5.859000E+00	  0.052865732	-6.969900E+01	  0.052865732	4.087000E+01	  0.052865732	-5.272600E+01
166	  0.053066134	-5.872000E+00	  0.053066134	-7.124500E+01	  0.053066134	3.978800E+01	  0.053066134	-5.169200E+01
167	  0.053266536	-5.884000E+00	  0.053266536	-7.279700E+01	  0.053266536	3.874800E+01	  0.053266536	-5.066700E+01
168	  0.053466935	-5.901000E+00	  0.053466935	-7.432300E+01	  0.053466935	3.779300E+01	  0.053466935	-4.964800E+01
169	  0.053667337	-5.915000E+00	  0.053667337	-7.587400E+01	  0.053667337	3.685600E+01	  0.053667337	-4.863600E+01
170	  0.053867739	-5.926000E+00	  0.053867739	-7.739400E+01	  0.053867739	3.597100E+01	  0.053867739	-4.766500E+01
171	  0.054068137	-5.939000E+00	  0.054068137	-7.892300E+01	  0.054068137	3.512700E+01	  0.054068137	-4.669100E+01
172	  0.054268539	-5.945000E+00	  0.054268539	-8.044000E+01	  0.054268539	3.430200E+01	  0.054268539	-4.576000E+01
173	  0.054468941	-5.959000E+00	  0.054468941	-8.191600E+01	  0.054468941	3.356400E+01	  0.054468941	-4.483500E+01
174	  0.054669335	-5.973000E+00	  0.054669335	-8.342300E+01	  0.054669335	3.284700E+01	  0.054669335	-4.390000E+01
175	  0.054869737	-5.983000E+00	  0.054869737	-8.490600E+01	  0.054869737	3.215200E+01	  0.054869737	-4.300500E+01
176	  0.055070139	-5.993000E+00	  0.055070139	-8.634800E+01	  0.055070139	3.150600E+01	  0.055070139	-4.214600E+01
177	  0.055270538	-6.002000E+00	  0.055270538	-8.778900E+01	  0.055270538	3.088800E+01	  0.055270538	-4.129500E+01
178	  0.055470940	-6.009000E+00	  0.055470940	-8.923700E+01	  0.055470940	3.028100E+01	  0.055470940	-4.045800E+01
179	  0.055671342	-6.018000E+00	  0.055671342	-9.066400E+01	  0.055671342	2.971500E+01	  0.055671342	-3.963600E+01
180	  0.055871744	-6.020000E+00	  0.055871744	-9.208800E+01	  0.055871744	2.915000E+01	  0.055871744	-3.884000E+01
181	  0.056072142	-6.025000E+00	  0.056072142	-9.348800E+01	  0.056072142	2.862400E+01	  0.056072142	-3.806000E+01
182	  0.056272544	-6.032000E+00	  0.056272544	-9.484100E+01	  0.056272544	2.814400E+01	  0.056272544	-3.730700E+01
183	  0.056472946	-6.035000E+00	  0.056472946	-9.622900E+01	  0.056472946	2.765500E+01	  0.056472946	-3.655300E+01
184	  0.056673344	-6.043000E+00	  0.056673344	-9.756000E+01	  0.056673344	2.722300E+01	  0.056673344	-3.582400E+01
185	  0.056873746	-6.043000E+00	  0.056873746	-9.888700E+01	  0.056873746	2.677900E+01	  0.056873746	-3.512200E+01
186	  0.057074148	-6.046000E+00	  0.057074148	-1.002190E+02	  0.057074148	2.636000E+01	  0.057074148	-3.441800E+01
187	  0.057274550	-6.046000E+00	  0.057274550	-1.015540E+02	  0.057274550	2.594600E+01	  0.057274550	-3.372300E+01
188	  0.057474948	-6.043000E+00	  0.057474948	-1.028490E+02	  0.057474948	2.554500E+01	  0.057474948	-3.306400E+01
189	  0.057675350	-6.043000E+00	  0.057675350	-1.041460E+02	  0.057675350	2.517100E+01	  0.057675350	-3.239900E+01
190	  0.057875752	-6.046000E+00	  0.057875752	-1.054540E+02	  0.057875752	2.481500E+01	  0.057875752	-3.173100E+01
191	  0.058076151	-6.046000E+00	  0.058076151	-1.067590E+02	  0.058076151	2.446100E+01	  0.058076151	-3.107600E+01
192	  0.058276553	-6.042000E+00	  0.058276553	-1.080110E+02	  0.058276553	2.412300E+01	  0.058276553	-3.045800E+01
193	  0.058476955	-6.043000E+00	  0.058476955	-1.092890E+02	  0.058476955	2.380300E+01	  0.058476955	-2.982500E+01
194	  0.058677353	-6.039000E+00	  0.058677353	-1.105520E+02	  0.058677353	2.348300E+01	  0.058677353	-2.921100E+01
195	  0.058877755	-6.039000E+00	  0.058877755	-1.118510E+02	  0.058877755	2.317600E+01	  0.058877755	-2.857900E+01
196	  0.059078157	-6.035000E+00	  0.059078157	-1.131040E+02	  0.059078157	2.288000E+01	  0.059078157	-2.797900E+01
197	  0.059278559	-6.031000E+00	  0.059278559	-1.143640E+02	  0.059278559	2.259100E+01	  0.059278559	-2.738000E+01
198	  0.059478957	-6.031000E+00	  0.059478957	-1.156180E+02	  0.059478957	2.232400E+01	  0.059478957	-2.678300E+01
199	  0.059679359	-6.026000E+00	  0.059679359	-1.168860E+02	  0.059679359	2.204900E+01	  0.059679359	-2.618900E+01
200	  0.059879761	-6.024000E+00	  0.059879761	-1.181400E+02	  0.059879761	2.179300E+01	  0.059879761	-2.560400E+01
201	  0.060080159	-6.022000E+00	  0.060080159	-1.193960E+02	  0.060080159	2.154700E+01	  0.060080159	-2.502000E+01
202	  0.060280561	-6.023000E+00	  0.060280561	-1.206520E+02	  0.060280561	2.131700E+01	  0.060280561	-2.443800E+01
203	  0.060480963	-6.021000E+00	  0.060480963	-1.219070E+02	  0.060480963	2.108800E+01	  0.060480963	-2.386300E+01
204	  0.060681365	-6.020000E+00	  0.060681365	-1.231580E+02	  0.060681365	2.086700E+01	  0.060681365	-2.329400E+01
205	  0.060881764	-6.017000E+00	  0.060881764	-1.243880E+02	  0.060881764	2.065300E+01	  0.060881764	-2.273900E+01
206	  0.061082166	-6.013000E+00	  0.061082166	-1.256480E+02	  0.061082166	2.043700E+01	  0.061082166	-2.217600E+01
207	  0.061282568	-6.014000E+00	  0.061282568	-1.268950E+02	  0.061282568	2.024700E+01	  0.061282568	-2.161600E+01
208	  0.061482966	-6.010000E+00	  0.061482966	-1.281100E+02	  0.061482966	2.005500E+01	  0.061482966	-2.107900E+01
209	  0.061683368	-6.010000E+00	  0.061683368	-1.293440E+02	  0.061683368	1.987500E+01	  0.061683368	-2.053300E+01
210	  0.061883770	-6.009000E+00	  0.061883770	-1.305590E+02	  0.061883770	1.970100E+01	  0.061883770	-2.000000E+01
211	  0.062084168	-6.007000E+00	  0.062084168	-1.317720E+02	  0.062084168	1.953100E+01	  0.062084168	-1.947200E+01
212	  0.062284570	-6.004000E+00	  0.062284570	-1.329620E+02	  0.062284570	1.937000E+01	  0.062284570	-1.895600E+01
213	  0.062484972	-5.999000E+00	  0.062484972	-1.341500E+02	  0.062484972	1.920300E+01	  0.062484972	-1.844700E+01
214	  0.062685370	-5.996000E+00	  0.062685370	-1.353440E+02	  0.062685370	1.905100E+01	  0.062685370	-1.793600E+01
215	  0.062885776	-5.990000E+00	  0.062885776	-1.365500E+02	  0.062885776	1.889200E+01	  0.062885776	-1.742500E+01
216	  0.063086174	-5.988000E+00	  0.063086174	-1.377370E+02	  0.063086174	1.875400E+01	  0.063086174	-1.692000E+01
217	  0.063286573	-5.984000E+00	  0.063286573	-1.389140E+02	  0.063286573	1.861500E+01	  0.063286573	-1.642400E+01
218	  0.063486971	-5.982000E+00	  0.063486971	-1.400440E+02	  0.063486971	1.849100E+01	  0.063486971	-1.594800E+01
219	  0.063687377	-5.978000E+00	  0.063687377	-1.411900E+02	  0.063687377	1.836200E+01	  0.063687377	-1.547000E+01
220	  0.063887775	-5.977000E+00	  0.063887775	-1.423340E+02	  0.063887775	1.825000E+01	  0.063887775	-1.499200E+01
221	  0.064088173	-5.977000E+00	  0.064088173	-1.434930E+02	  0.064088173	1.814100E+01	  0.064088173	-1.450900E+01
222	  0.064288579	-5.973000E+00	  0.064288579	-1.446480E+02	  0.064288579	1.802400E+01	  0.064288579	-1.403300E+01
223	  0.064488977	-5.974000E+00	  0.064488977	-1.457830E+02	  0.064488977	1.793100E+01	  0.064488977	-1.356200E+01
224	  0.064689375	-5.976000E+00	  0.064689375	-1.469250E+02	  0.064689375	1.784100E+01	  0.064689375	-1.309100E+01
225	  0.064889781	-5.979000E+00	  0.064889781	-1.480240E+02	  0.064889781	1.776100E+01	  0.064889781	-1.263900E+01
226	  0.065090179	-5.977000E+00	  0.065090179	-1.491400E+02	  0.065090179	1.767000E+01	  0.065090179	-1.218500E+01
227	  0.065290578	-5.976000E+00	  0.065290578	-1.502450E+02	  0.065290578	1.758700E+01	  0.065290578	-1.173500E+01
228	  0.065490983	-5.977000E+00	  0.065490983	-1.513530E+02	  0.065490983	1.750900E+01	  0.065490983	-1.128600E+01
229	  0.065691382	-5.975000E+00	  0.065691382	-1.524690E+02	  0.065691382	1.742900E+01	  0.065691382	-1.083500E+01
230	  0.065891780	-5.976000E+00	  0.065891780	-1.535630E+02	  0.065891780	1.736100E+01	  0.065891780	-1.039400E+01
231	  0.066092186	-5.978000E+00	  0.066092186	-1.546540E+02	  0.066092186	1.730000E+01	  0.066092186	-9.954000E+00
232	  0.066292584	-5.983000E+00	  0.066292584	-1.557210E+02	  0.066292584	1.725100E+01	  0.066292584	-9.525000E+00
233	  0.066492982	-5.983000E+00	  0.066492982	-1.568070E+02	  0.066492982	1.718900E+01	  0.066492982	-9.090000E+00
234	  0.066693388	-5.985000E+00	  0.066693388	-1.579090E+02	  0.066693388	1.713700E+01	  0.066693388	-8.650000E+00
235	  0.066893786	-5.988000E+00	  0.066893786	-1.589630E+02	  0.066893786	1.709100E+01	  0.066893786	-8.230000E+00
236	  0.067094192	-5.989000E+00	  0.067094192	-1.600310E+02	  0.067094192	1.704300E+01	  0.067094192	-7.806000E+00
237	  0.067294590	-5.996000E+00	  0.067294590	-1.610920E+02	  0.067294590	1.701200E+01	  0.067294590	-7.384000E+00
238	  0.067494988	-5.996000E+00	  0.067494988	-1.621370E+02	  0.067494988	1.696700E+01	  0.067494988	-6.972000E+00
239	  0.067695394	-5.995000E+00	  0.067695394	-1.632130E+02	  0.067695394	1.692200E+01	  0.067695394	-6.548000E+00
240	  0.067895792	-6.001000E+00	  0.067895792	-1.642290E+02	  0.067895792	1.689900E+01	  0.067895792	-6.147000E+00
241	  0.068096191	-6.004000E+00	  0.068096191	-1.653160E+02	  0.068096191	1.687100E+01	  0.068096191	-5.719000E+00
242	  0.068296596	-6.008000E+00	  0.068296596	-1.663470E+02	  0.068296596	1.684700E+01	  0.068296596	-5.314000E+00
243	  0.068496995	-6.010000E+00	  0.068496995	-1.673580E+02	  0.068496995	1.682100E+01	  0.068496995	-4.918000E+00
244	  0.068697393	-6.014000E+00	  0.068697393	-1.683950E+02	  0.068697393	1.680300E+01	  0.068697393	-4.512000E+00
245	  0.068897791	-6.016000E+00	  0.068897791	-1.694320E+02	  0.068897791	1.678200E+01	  0.068897791	-4.106000E+00
246	  0.069098189	-6.016000E+00	  0.069098189	-1.704410E+02	  0.069098189	1.676000E+01	  0.069098189	-3.713000E+00
247	  0.069298595	-6.019000E+00	  0.069298595	-1.714360E+02	  0.069298595	1.674700E+01	  0.069298595	-3.325000E+00
248	  0.069498993	-6.019000E+00	  0.069498993	-1.724660E+02	  0.069498993	1.672700E+01	  0.069498993	-2.925000E+00
249	  0.069699399	-6.029000E+00	  0.069699399	-1.734740E+02	  0.069699399	1.673700E+01	  0.069699399	-2.531000E+00
250	  0.069899797	-6.025000E+00	  0.069899797	-1.744540E+02	  0.069899797	1.671400E+01	  0.069899797	-2.151000E+00
251	  0.070100196	-6.029000E+00	  0.070100196	-1.754750E+02	  0.070100196	1.671200E+01	  0.070100196	-1.754000E+00
252	  0.070300601	-6.035000E+00	  0.070300601	-1.764490E+02	  0.070300601	1.671800E+01	  0.070300601	-1.376000E+00
253	  0.070501000	-6.037000E+00	  0.070501000	-1.774290E+02	  0.070501000	1.671600E+01	  0.070501000	-9.960000E-01
254	  0.070701398	-6.040000E+00	  0.070701398	-1.784000E+02	  0.070701398	1.671900E+01	  0.070701398	-6.190000E-01
255	  0.070901804	-6.045000E+00	  0.070901804	-1.793510E+02	  0.070901804	1.673000E+01	  0.070901804	-2.510000E-01
256	  0.071102202	-6.052000E+00	  0.071102202	1.796520E+02	  0.071102202	1.674700E+01	  0.071102202	1.340000E-01
257	  0.071302600	-6.054000E+00	  0.071302600	1.786940E+02	  0.071302600	1.675400E+01	  0.071302600	5.050000E-01
258	  0.071503006	-6.063000E+00	  0.071503006	1.777160E+02	  0.071503006	1.678200E+01	  0.071503006	8.840000E-01
259	  0.071703404	-6.071000E+00	  0.071703404	1.767630E+02	  0.071703404	1.680700E+01	  0.071703404	1.253000E+00
260	  0.071903802	-6.079000E+00	  0.071903802	1.757980E+02	  0.071903802	1.683600E+01	  0.071903802	1.626000E+00
261	  0.072104208	-6.083000E+00	  0.072104208	1.748300E+02	  0.072104208	1.685700E+01	  0.072104208	2.001000E+00
262	  0.072304606	-6.091000E+00	  0.072304606	1.738680E+02	  0.072304606	1.688900E+01	  0.072304606	2.373000E+00
263	  0.072505005	-6.096000E+00	  0.072505005	1.729460E+02	  0.072505005	1.691800E+01	  0.072505005	2.729000E+00
264	  0.072705410	-6.100000E+00	  0.072705410	1.719920E+02	  0.072705410	1.694400E+01	  0.072705410	3.099000E+00
265	  0.072905809	-6.109000E+00	  0.072905809	1.710170E+02	  0.072905809	1.698600E+01	  0.072905809	3.476000E+00
266	  0.073106214	-6.116000E+00	  0.073106214	1.700600E+02	  0.073106214	1.702500E+01	  0.073106214	3.847000E+00
267	  0.073306613	-6.130000E+00	  0.073306613	1.691110E+02	  0.073306613	1.708200E+01	  0.073306613	4.213000E+00
268	  0.073507011	-6.134000E+00	  0.073507011	1.681590E+02	  0.073507011	1.711900E+01	  0.073507011	4.582000E+00
269	  0.073707417	-6.143000E+00	  0.073707417	1.672100E+02	  0.073707417	1.716900E+01	  0.073707417	4.950000E+00
270	  0.073907815	-6.149000E+00	  0.073907815	1.662740E+02	  0.073907815	1.721400E+01	  0.073907815	5.313000E+00
271	  0.074108213	-6.156000E+00	  0.074108213	1.653540E+02	  0.074108213	1.726000E+01	  0.074108213	5.670000E+00
272	  0.074308619	-6.162000E+00	  0.074308619	1.644150E+02	  0.074308619	1.730900E+01	  0.074308619	6.035000E+00
273	  0.074509017	-6.171000E+00	  0.074509017	1.634880E+02	  0.074509017	1.736800E+01	  0.074509017	6.395000E+00
274	  0.074709415	-6.175000E+00	  0.074709415	1.625750E+02	  0.074709415	1.741500E+01	  0.074709415	6.751000E+00
275	  0.074909821	-6.181000E+00	  0.074909821	1.616420E+02	  0.074909821	1.747000E+01	  0.074909821	7.114000E+00
276	  0.075110219	-6.188000E+00	  0.075110219	1.607410E+02	  0.075110219	1.752700E+01	  0.075110219	7.466000E+00
277	  0.075310618	-6.194000E+00	  0.075310618	1.598340E+02	  0.075310618	1.758600E+01	  0.075310618	7.820000E+00
278	  0.075511023	-6.200000E+00	  0.075511023	1.589410E+02	  0.075511023	1.764600E+01	  0.075511023	8.169000E+00
279	  0.075711422	-6.206000E+00	  0.075711422	1.580660E+02	  0.075711422	1.770500E+01	  0.075711422	8.512000E+00
280	  0.075911827	-6.214000E+00	  0.075911827	1.571810E+02	  0.075911827	1.777400E+01	  0.075911827	8.859000E+00
281	  0.076112226	-6.220000E+00	  0.076112226	1.563030E+02	  0.076112226	1.783800E+01	  0.076112226	9.203000E+00
282	  0.076312624	-6.227000E+00	  0.076312624	1.554340E+02	  0.076312624	1.790800E+01	  0.076312624	9.545000E+00
283	  0.076513030	-6.235000E+00	  0.076513030	1.545680E+02	  0.076513030	1.798200E+01	  0.076513030	9.885000E+00
284	  0.076713428	-6.242000E+00	  0.076713428	1.536850E+02	  0.076713428	1.805700E+01	  0.076713428	1.023300E+01
285	  0.076913826	-6.252000E+00	  0.076913826	1.528130E+02	  0.076913826	1.814000E+01	  0.076913826	1.057500E+01
286	  0.077114232	-6.261000E+00	  0.077114232	1.519770E+02	  0.077114232	1.821900E+01	  0.077114232	1.090500E+01
287	  0.077314630	-6.271000E+00	  0.077314630	1.511500E+02	  0.077314630	1.830400E+01	  0.077314630	1.123100E+01
288	  0.077515028	-6.276000E+00	  0.077515028	1.502980E+02	  0.077515028	1.838000E+01	  0.077515028	1.156900E+01
289	  0.077715434	-6.288000E+00	  0.077715434	1.494440E+02	  0.077715434	1.847800E+01	  0.077715434	1.190600E+01
290	  0.077915832	-6.299000E+00	  0.077915832	1.486280E+02	  0.077915832	1.856900E+01	  0.077915832	1.222800E+01
291	  0.078116231	-6.313000E+00	  0.078116231	1.477570E+02	  0.078116231	1.867600E+01	  0.078116231	1.257200E+01
292	  0.078316636	-6.324000E+00	  0.078316636	1.469230E+02	  0.078316636	1.877500E+01	  0.078316636	1.290200E+01
293	  0.078517035	-6.340000E+00	  0.078517035	1.460660E+02	  0.078517035	1.889300E+01	  0.078517035	1.323900E+01
294	  0.078717433	-6.349000E+00	  0.078717433	1.452290E+02	  0.078717433	1.899100E+01	  0.078717433	1.357300E+01
295	  0.078917839	-6.363000E+00	  0.078917839	1.443950E+02	  0.078917839	1.910300E+01	  0.078917839	1.390300E+01
296	  0.079118237	-6.378000E+00	  0.079118237	1.435920E+02	  0.079118237	1.921900E+01	  0.079118237	1.422100E+01
297	  0.079318643	-6.393000E+00	  0.079318643	1.427470E+02	  0.079318643	1.934200E+01	  0.079318643	1.455500E+01
298	  0.079519041	-6.406000E+00	  0.079519041	1.419010E+02	  0.079519041	1.946200E+01	  0.079519041	1.489200E+01
299	  0.079719439	-6.421000E+00	  0.079719439	1.410740E+02	  0.079719439	1.958700E+01	  0.079719439	1.522100E+01
300	  0.079919845	-6.435000E+00	  0.079919845	1.402360E+02	  0.079919845	1.971200E+01	  0.079919845	1.555500E+01
301	  0.080120243	-6.450000E+00	  0.080120243	1.393840E+02	  0.080120243	1.984700E+01	  0.080120243	1.589400E+01
302	  0.080320641	-6.466000E+00	  0.080320641	1.385430E+02	  0.080320641	1.998300E+01	  0.080320641	1.622900E+01
303	  0.080521047	-6.482000E+00	  0.080521047	1.376930E+02	  0.080521047	2.012300E+01	  0.080521047	1.656900E+01
304	  0.080721445	-6.497000E+00	  0.080721445	1.369010E+02	  0.080721445	2.025800E+01	  0.080721445	1.688500E+01
305	  0.080921844	-6.512000E+00	  0.080921844	1.360500E+02	  0.080921844	2.040400E+01	  0.080921844	1.722500E+01
306	  0.081122249	-6.530000E+00	  0.081122249	1.352390E+02	  0.081122249	2.055300E+01	  0.081122249	1.754800E+01
307	  0.081322648	-6.544000E+00	  0.081322648	1.344190E+02	  0.081322648	2.069600E+01	  0.081322648	1.787800E+01
308	  0.081523046	-6.560000E+00	  0.081523046	1.335850E+02	  0.081523046	2.084900E+01	  0.081523046	1.821300E+01
309	  0.081723452	-6.573000E+00	  0.081723452	1.327560E+02	  0.081723452	2.099500E+01	  0.081723452	1.854900E+01
310	  0.081923850	-6.583000E+00	  0.081923850	1.319460E+02	  0.081923850	2.113600E+01	  0.081923850	1.888000E+01
311	  0.082124248	-6.596000E+00	  0.082124248	1.311470E+02	  0.082124248	2.128400E+01	  0.082124248	1.920400E+01
312	  0.082324654	-6.612000E+00	  0.082324654	1.303380E+02	  0.082324654	2.144700E+01	  0.082324654	1.953000E+01
313	  0.082525052	-6.630000E+00	  0.082525052	1.295680E+02	  0.082525052	2.160900E+01	  0.082525052	1.983900E+01
314	  0.082725458	-6.643000E+00	  0.082725458	1.287920E+02	  0.082725458	2.176500E+01	  0.082725458	2.015400E+01
315	  0.082925856	-6.659000E+00	  0.082925856	1.280100E+02	  0.082925856	2.193000E+01	  0.082925856	2.047100E+01
316	  0.083126254	-6.676000E+00	  0.083126254	1.272250E+02	  0.083126254	2.210300E+01	  0.083126254	2.078700E+01
317	  0.083326660	-6.690000E+00	  0.083326660	1.264540E+02	  0.083326660	2.226800E+01	  0.083326660	2.110100E+01
318	  0.083527058	-6.710000E+00	  0.083527058	1.256880E+02	  0.083527058	2.245000E+01	  0.083527058	2.140700E+01
319	  0.083727457	-6.723000E+00	  0.083727457	1.249230E+02	  0.083727457	2.261600E+01	  0.083727457	2.172100E+01
320	  0.083927862	-6.746000E+00	  0.083927862	1.241750E+02	  0.083927862	2.281200E+01	  0.083927862	2.201600E+01
321	  0.084128261	-6.763000E+00	  0.084128261	1.234030E+02	  0.084128261	2.299600E+01	  0.084128261	2.232900E+01
322	  0.084328659	-6.784000E+00	  0.084328659	1.226660E+02	  0.084328659	2.319000E+01	  0.084328659	2.262200E+01
323	  0.084529065	-6.802000E+00	  0.084529065	1.219270E+02	  0.084529065	2.337700E+01	  0.084529065	2.291900E+01
324	  0.084729463	-6.826000E+00	  0.084729463	1.211880E+02	  0.084729463	2.358500E+01	  0.084729463	2.321000E+01
325	  0.084929854	-6.849000E+00	  0.084929854	1.204100E+02	  0.084929854	2.380400E+01	  0.084929854	2.351700E+01
326	  0.085130259	-6.867000E+00	  0.085130259	1.196600E+02	  0.085130259	2.400200E+01	  0.085130259	2.382000E+01
327	  0.085330658	-6.888000E+00	  0.085330658	1.189180E+02	  0.085330658	2.421100E+01	  0.085330658	2.411500E+01
328	  0.085531056	-6.913000E+00	  0.085531056	1.181660E+02	  0.085531056	2.444000E+01	  0.085531056	2.440800E+01
329	  0.085731462	-6.932000E+00	  0.085731462	1.174030E+02	  0.085731462	2.465500E+01	  0.085731462	2.471400E+01
330	  0.085931860	-6.954000E+00	  0.085931860	1.166810E+02	  0.085931860	2.487400E+01	  0.085931860	2.499900E+01
331	  0.086132258	-6.976000E+00	  0.086132258	1.159720E+02	  0.086132258	2.509300E+01	  0.086132258	2.527700E+01
332	  0.086332664	-7.001000E+00	  0.086332664	1.152410E+02	  0.086332664	2.532700E+01	  0.086332664	2.556200E+01
333	  0.086533062	-7.027000E+00	  0.086533062	1.145250E+02	  0.086533062	2.556500E+01	  0.086533062	2.583600E+01
334	  0.086733460	-7.051000E+00	  0.086733460	1.137650E+02	  0.086733460	2.581200E+01	  0.086733460	2.613300E+01
335	  0.086933866	-7.071000E+00	  0.086933866	1.129950E+02	  0.086933866	2.605500E+01	  0.086933866	2.643900E+01
336	  0.087134264	-7.095000E+00	  0.087134264	1.122950E+02	  0.087134264	2.629500E+01	  0.087134264	2.670900E+01
337	  0.087334670	-7.120000E+00	  0.087334670	1.115700E+02	  0.087334670	2.654700E+01	  0.087334670	2.698700E+01
338	  0.087535068	-7.145000E+00	  0.087535068	1.108520E+02	  0.087535068	2.680000E+01	  0.087535068	2.726200E+01
339	  0.087735467	-7.170000E+00	  0.087735467	1.101150E+02	  0.087735467	2.706400E+01	  0.087735467	2.754400E+01
340	  0.087935872	-7.195000E+00	  0.087935872	1.094440E+02	  0.087935872	2.731200E+01	  0.087935872	2.779700E+01
341	  0.088136271	-7.221000E+00	  0.088136271	1.087320E+02	  0.088136271	2.757900E+01	  0.088136271	2.806500E+01
342	  0.088336669	-7.247000E+00	  0.088336669	1.080180E+02	  0.088336669	2.784600E+01	  0.088336669	2.833400E+01
343	  0.088537075	-7.270000E+00	  0.088537075	1.073170E+02	  0.088537075	2.810900E+01	  0.088537075	2.860100E+01
344	  0.088737473	-7.292000E+00	  0.088737473	1.066370E+02	  0.088737473	2.836700E+01	  0.088737473	2.886000E+01
345	  0.088937871	-7.313000E+00	  0.088937871	1.059500E+02	  0.088937871	2.862400E+01	  0.088937871	2.912400E+01
346	  0.089138277	-7.345000E+00	  0.089138277	1.052660E+02	  0.089138277	2.892000E+01	  0.089138277	2.936300E+01
347	  0.089338675	-7.366000E+00	  0.089338675	1.046050E+02	  0.089338675	2.917900E+01	  0.089338675	2.961200E+01
348	  0.089539073	-7.397000E+00	  0.089539073	1.039530E+02	  0.089539073	2.946700E+01	  0.089539073	2.983700E+01
349	  0.089739479	-7.424000E+00	  0.089739479	1.033090E+02	  0.089739479	2.974500E+01	  0.089739479	3.006500E+01
350	  0.089939877	-7.455000E+00	  0.089939877	1.026840E+02	  0.089939877	3.003000E+01	  0.089939877	3.027600E+01
351	  0.090140276	-7.484000E+00	  0.090140276	1.020470E+02	  0.090140276	3.031800E+01	  0.090140276	3.049500E+01
352	  0.090340681	-7.508000E+00	  0.090340681	1.014100E+02	  0.090340681	3.059500E+01	  0.090340681	3.072100E+01
353	  0.090541080	-7.541000E+00	  0.090541080	1.007910E+02	  0.090541080	3.089400E+01	  0.090541080	3.092100E+01
354	  0.090741485	-7.572000E+00	  0.090741485	1.001790E+02	  0.090741485	3.118900E+01	  0.090741485	3.111900E+01
355	  0.090941884	-7.601000E+00	  0.090941884	9.957900E+01	  0.090941884	3.147900E+01	  0.090941884	3.131400E+01
356	  0.091142282	-7.633000E+00	  0.091142282	9.896500E+01	  0.091142282	3.178100E+01	  0.091142282	3.150800E+01
357	  0.091342688	-7.670000E+00	  0.091342688	9.839700E+01	  0.091342688	3.208900E+01	  0.091342688	3.166600E+01
358	  0.091543086	-7.705000E+00	  0.091543086	9.777700E+01	  0.091543086	3.241000E+01	  0.091543086	3.185200E+01
359	  0.091743484	-7.735000E+00	  0.091743484	9.719000E+01	  0.091743484	3.270700E+01	  0.091743484	3.203200E+01
360	  0.091943890	-7.768000E+00	  0.091943890	9.658900E+01	  0.091943890	3.302100E+01	  0.091943890	3.221000E+01
361	  0.092144288	-7.797000E+00	  0.092144288	9.596600E+01	  0.092144288	3.333600E+01	  0.092144288	3.240300E+01
362	  0.092344686	-7.833000E+00	  0.092344686	9.537500E+01	  0.092344686	3.366200E+01	  0.092344686	3.256300E+01
363	  0.092545092	-7.864000E+00	  0.092545092	9.480700E+01	  0.092545092	3.396800E+01	  0.092545092	3.272400E+01
364	  0.092745490	-7.897000E+00	  0.092745490	9.422700E+01	  0.092745490	3.428500E+01	  0.092745490	3.288400E+01
365	  0.092945889	-7.930000E+00	  0.092945889	9.365900E+01	  0.092945889	3.460100E+01	  0.092945889	3.303700E+01
366	  0.093146294	-7.972000E+00	  0.093146294	9.308600E+01	  0.093146294	3.494600E+01	  0.093146294	3.316400E+01
367	  0.093346693	-7.997000E+00	  0.093346693	9.252200E+01	  0.093346693	3.524500E+01	  0.093346693	3.333000E+01
368	  0.093547091	-8.035000E+00	  0.093547091	9.200000E+01	  0.093547091	3.556500E+01	  0.093547091	3.344000E+01
369	  0.093747497	-8.058000E+00	  0.093747497	9.141200E+01	  0.093747497	3.587200E+01	  0.093747497	3.361900E+01
370	  0.093947895	-8.094000E+00	  0.093947895	9.085100E+01	  0.093947895	3.620700E+01	  0.093947895	3.374700E+01
371	  0.094148301	-8.123000E+00	  0.094148301	9.030400E+01	  0.094148301	3.652000E+01	  0.094148301	3.388500E+01
372	  0.094348699	-8.157000E+00	  0.094348699	8.977100E+01	  0.094348699	3.684000E+01	  0.094348699	3.400400E+01
373	  0.094549097	-8.189000E+00	  0.094549097	8.925600E+01	  0.094549097	3.715300E+01	  0.094549097	3.411600E+01
374	  0.094749503	-8.219000E+00	  0.094749503	8.871300E+01	  0.094749503	3.747300E+01	  0.094749503	3.424400E+01
375	  0.094949901	-8.245000E+00	  0.094949901	8.822400E+01	  0.094949901	3.776100E+01	  0.094949901	3.435900E+01
376	  0.095150299	-8.271000E+00	  0.095150299	8.768300E+01	  0.095150299	3.807300E+01	  0.095150299	3.449500E+01
377	  0.095350705	-8.300000E+00	  0.095350705	8.721000E+01	  0.095350705	3.836600E+01	  0.095350705	3.459000E+01
378	  0.095551103	-8.327000E+00	  0.095551103	8.667200E+01	  0.095551103	3.868600E+01	  0.095551103	3.471600E+01
379	  0.095751502	-8.351000E+00	  0.095751502	8.619400E+01	  0.095751502	3.897200E+01	  0.095751502	3.482500E+01
380	  0.095951907	-8.380000E+00	  0.095951907	8.568700E+01	  0.095951907	3.928600E+01	  0.095951907	3.492700E+01
381	  0.096152306	-8.403000E+00	  0.096152306	8.526300E+01	  0.096152306	3.954900E+01	  0.096152306	3.501300E+01
382	  0.096352704	-8.430000E+00	  0.096352704	8.478500E+01	  0.096352704	3.984900E+01	  0.096352704	3.510500E+01
383	  0.096553110	-8.455000E+00	  0.096553110	8.434600E+01	  0.096553110	4.012400E+01	  0.096553110	3.519000E+01
384	  0.096753508	-8.478000E+00	  0.096753508	8.389600E+01	  0.096753508	4.040200E+01	  0.096753508	3.528200E+01
385	  0.096953906	-8.500000E+00	  0.096953906	8.347600E+01	  0.096953906	4.066600E+01	  0.096953906	3.536500E+01
386	  0.097154312	-8.525000E+00	  0.097154312	8.304700E+01	  0.097154312	4.094400E+01	  0.097154312	3.543500E+01
387	  0.097354710	-8.548000E+00	  0.097354710	8.260900E+01	  0.097354710	4.122200E+01	  0.097354710	3.551600E+01
388	  0.097555116	-8.571000E+00	  0.097555116	8.220600E+01	  0.097555116	4.148100E+01	  0.097555116	3.558500E+01
389	  0.097755514	-8.597000E+00	  0.097755514	8.180600E+01	  0.097755514	4.175000E+01	  0.097755514	3.563700E+01
390	  0.097955912	-8.621000E+00	  0.097955912	8.139200E+01	  0.097955912	4.202200E+01	  0.097955912	3.570100E+01
391	  0.098156318	-8.639000E+00	  0.098156318	8.099800E+01	  0.098156318	4.227000E+01	  0.098156318	3.577600E+01
392	  0.098356716	-8.660000E+00	  0.098356716	8.059900E+01	  0.098356716	4.252900E+01	  0.098356716	3.584100E+01
393	  0.098557115	-8.681000E+00	  0.098557115	8.020300E+01	  0.098557115	4.278900E+01	  0.098557115	3.590200E+01
394	  0.098757520	-8.700000E+00	  0.098757520	7.982300E+01	  0.098757520	4.303500E+01	  0.098757520	3.596400E+01
395	  0.098957919	-8.723000E+00	  0.098957919	7.940700E+01	  0.098957919	4.331400E+01	  0.098957919	3.602100E+01
396	  0.099158317	-8.740000E+00	  0.099158317	7.899600E+01	  0.099158317	4.357400E+01	  0.099158317	3.609900E+01
397	  0.099358723	-8.754000E+00	  0.099358723	7.860100E+01	  0.099358723	4.382200E+01	  0.099358723	3.617900E+01
398	  0.099559121	-8.776000E+00	  0.099559121	7.823500E+01	  0.099559121	4.407500E+01	  0.099559121	3.621600E+01
399	  0.099759519	-8.789000E+00	  0.099759519	7.783300E+01	  0.099759519	4.432700E+01	  0.099759519	3.629900E+01
400	  0.099959925	-8.797000E+00	  0.099959925	7.745700E+01	  0.099959925	4.455600E+01	  0.099959925	3.639100E+01
401	  0.100160323	-8.815000E+00	  0.100160323	7.705100E+01	  0.100160323	4.482300E+01	  0.100160323	3.645500E+01
402	  0.100360721	-8.830000E+00	  0.100360721	7.661700E+01	  0.100360721	4.510500E+01	  0.100360721	3.653300E+01
403	  0.100561127	-8.837000E+00	  0.100561127	7.624300E+01	  0.100561127	4.533400E+01	  0.100561127	3.662400E+01
404	  0.100761525	-8.840000E+00	  0.100761525	7.586800E+01	  0.100761525	4.556000E+01	  0.100761525	3.672800E+01
405	  0.100961931	-8.861000E+00	  0.100961931	7.546300E+01	  0.100961931	4.583900E+01	  0.100961931	3.677300E+01
406	  0.101162329	-8.862000E+00	  0.101162329	7.506300E+01	  0.101162329	4.607700E+01	  0.101162329	3.689100E+01
407	  0.101362728	-8.872000E+00	  0.101362728	7.464600E+01	  0.101362728	4.634600E+01	  0.101362728	3.697600E+01
408	  0.101563133	-8.874000E+00	  0.101563133	7.426000E+01	  0.101563133	4.658100E+01	  0.101563133	3.708600E+01
409	  0.101763532	-8.876000E+00	  0.101763532	7.387900E+01	  0.101763532	4.681700E+01	  0.101763532	3.718800E+01
410	  0.101963930	-8.875000E+00	  0.101963930	7.346600E+01	  0.101963930	4.706600E+01	  0.101963930	3.731400E+01
411	  0.102164328	-8.883000E+00	  0.102164328	7.309900E+01	  0.102164328	4.730700E+01	  0.102164328	3.739000E+01
412	  0.102364726	-8.875000E+00	  0.102364726	7.269200E+01	  0.102364726	4.754400E+01	  0.102364726	3.754000E+01
413	  0.102565125	-8.883000E+00	  0.102565125	7.229300E+01	  0.102565125	4.780900E+01	  0.102565125	3.762200E+01
414	  0.102765530	-8.882000E+00	  0.102765530	7.180500E+01	  0.102765530	4.811600E+01	  0.102765530	3.776200E+01
415	  0.102965929	-8.872000E+00	  0.102965929	7.148000E+01	  0.102965929	4.830400E+01	  0.102965929	3.789500E+01
416	  0.103166327	-8.865000E+00	  0.103166327	7.103600E+01	  0.103166327	4.857700E+01	  0.103166327	3.804800E+01
417	  0.103366733	-8.855000E+00	  0.103366733	7.064900E+01	  0.103366733	4.880800E+01	  0.103366733	3.820000E+01
418	  0.103567131	-8.859000E+00	  0.103567131	7.023200E+01	  0.103567131	4.908900E+01	  0.103567131	3.829400E+01
419	  0.103767529	-8.855000E+00	  0.103767529	6.981700E+01	  0.103767529	4.935500E+01	  0.103767529	3.842400E+01
420	  0.103967935	-8.852000E+00	  0.103967935	6.941500E+01	  0.103967935	4.961700E+01	  0.103967935	3.854400E+01
421	  0.104168333	-8.836000E+00	  0.104168333	6.896600E+01	  0.104168333	4.989000E+01	  0.104168333	3.873500E+01
422	  0.104368731	-8.821000E+00	  0.104368731	6.854700E+01	  0.104368731	5.014800E+01	  0.104368731	3.891400E+01
423	  0.104569137	-8.821000E+00	  0.104569137	6.812100E+01	  0.104569137	5.043900E+01	  0.104569137	3.902400E+01
424	  0.104769535	-8.817000E+00	  0.104769535	6.765200E+01	  0.104769535	5.075600E+01	  0.104769535	3.916200E+01
425	  0.104969934	-8.808000E+00	  0.104969934	6.714800E+01	  0.104969934	5.109300E+01	  0.104969934	3.933100E+01
426	  0.105170339	-8.797000E+00	  0.105170339	6.675400E+01	  0.105170339	5.135300E+01	  0.105170339	3.948000E+01
427	  0.105370738	-8.795000E+00	  0.105370738	6.630400E+01	  0.105370738	5.166900E+01	  0.105370738	3.960200E+01
428	  0.105571143	-8.776000E+00	  0.105571143	6.581000E+01	  0.105571143	5.199300E+01	  0.105571143	3.981100E+01
429	  0.105771542	-8.770000E+00	  0.105771542	6.531900E+01	  0.105771542	5.234100E+01	  0.105771542	3.995700E+01
430	  0.105971940	-8.761000E+00	  0.105971940	6.484300E+01	  0.105971940	5.267600E+01	  0.105971940	4.011000E+01
431	  0.106172346	-8.756000E+00	  0.106172346	6.437800E+01	  0.106172346	5.301300E+01	  0.106172346	4.024500E+01
432	  0.106372744	-8.749000E+00	  0.106372744	6.386800E+01	  0.106372744	5.338400E+01	  0.106372744	4.039500E+01
433	  0.106573142	-8.742000E+00	  0.106573142	6.336300E+01	  0.106573142	5.375700E+01	  0.106573142	4.054000E+01
434	  0.106773548	-8.728000E+00	  0.106773548	6.286400E+01	  0.106773548	5.411800E+01	  0.106773548	4.071800E+01
435	  0.106973946	-8.725000E+00	  0.106973946	6.232600E+01	  0.106973946	5.453000E+01	  0.106973946	4.084700E+01
436	  0.107174344	-8.711000E+00	  0.107174344	6.184900E+01	  0.107174344	5.488500E+01	  0.107174344	4.101700E+01
437	  0.107374750	-8.709000E+00	  0.107374750	6.128600E+01	  0.107374750	5.532600E+01	  0.107374750	4.114200E+01
438	  0.107575148	-8.694000E+00	  0.107575148	6.069700E+01	  0.107575148	5.577800E+01	  0.107575148	4.133600E+01
439	  0.107775547	-8.691000E+00	  0.107775547	6.015300E+01	  0.107775547	5.621400E+01	  0.107775547	4.145500E+01
440	  0.107975952	-8.674000E+00	  0.107975952	5.963700E+01	  0.107975952	5.661500E+01	  0.107975952	4.164200E+01
441	  0.108176351	-8.667000E+00	  0.108176351	5.912300E+01	  0.108176351	5.703300E+01	  0.108176351	4.177000E+01
442	  0.108376749	-8.658000E+00	  0.108376749	5.856800E+01	  0.108376749	5.748700E+01	  0.108376749	4.191400E+01
443	  0.108577155	-8.648000E+00	  0.108577155	5.802500E+01	  0.108577155	5.793500E+01	  0.108577155	4.205900E+01
444	  0.108777553	-8.642000E+00	  0.108777553	5.747400E+01	  0.108777553	5.840000E+01	  0.108777553	4.217800E+01
445	  0.108977959	-8.629000E+00	  0.108977959	5.692300E+01	  0.108977959	5.886500E+01	  0.108977959	4.233200E+01
446	  0.109178357	-8.622000E+00	  0.109178357	5.639300E+01	  0.109178357	5.932100E+01	  0.109178357	4.244600E+01
447	  0.109378755	-8.608000E+00	  0.109378755	5.576700E+01	  0.109378755	5.986300E+01	  0.109378755	4.261100E+01
448	  0.109579161	-8.594000E+00	  0.109579161	5.524900E+01	  0.109579161	6.031600E+01	  0.109579161	4.275900E+01
449	  0.109779559	-8.591000E+00	  0.109779559	5.469100E+01	  0.109779559	6.081900E+01	  0.109779559	4.284100E+01
450	  0.109979957	-8.577000E+00	  0.109979957	5.411700E+01	  0.109979957	6.133300E+01	  0.109979957	4.298900E+01
451	  0.110180363	-8.562000E+00	  0.110180363	5.352300E+01	  0.110180363	6.187400E+01	  0.110180363	4.313400E+01
452	  0.110380761	-8.556000E+00	  0.110380761	5.288400E+01	  0.110380761	6.246900E+01	  0.110380761	4.323000E+01
453	  0.110581160	-8.547000E+00	  0.110581160	5.232700E+01	  0.110581160	6.299200E+01	  0.110581160	4.332800E+01
454	  0.110781565	-8.534000E+00	  0.110781565	5.169500E+01	  0.110781565	6.359300E+01	  0.110781565	4.345100E+01
455	  0.110981964	-8.536000E+00	  0.110981964	5.110300E+01	  0.110981964	6.416700E+01	  0.110981964	4.347100E+01
456	  0.111182362	-8.523000E+00	  0.111182362	5.044100E+01	  0.111182362	6.481200E+01	  0.111182362	4.358400E+01
457	  0.111382768	-8.508000E+00	  0.111382768	4.983000E+01	  0.111382768	6.541600E+01	  0.111382768	4.369600E+01
458	  0.111583166	-8.499000E+00	  0.111583166	4.918100E+01	  0.111583166	6.606600E+01	  0.111583166	4.376400E+01
459	  0.111783572	-8.492000E+00	  0.111783572	4.853600E+01	  0.111783572	6.672100E+01	  0.111783572	4.381700E+01
460	  0.111983970	-8.479000E+00	  0.111983970	4.784300E+01	  0.111983970	6.743300E+01	  0.111983970	4.389100E+01
461	  0.112184368	-8.474000E+00	  0.112184368	4.716400E+01	  0.112184368	6.814000E+01	  0.112184368	4.391000E+01
462	  0.112384774	-8.469000E+00	  0.112384774	4.643400E+01	  0.112384774	6.890700E+01	  0.112384774	4.390800E+01
463	  0.112585172	-8.460000E+00	  0.112585172	4.571900E+01	  0.112585172	6.967200E+01	  0.112585172	4.392800E+01
464	  0.112785570	-8.464000E+00	  0.112785570	4.504300E+01	  0.112785570	7.039400E+01	  0.112785570	4.383900E+01
465	  0.112985976	-8.446000E+00	  0.112985976	4.429000E+01	  0.112985976	7.122300E+01	  0.112985976	4.388900E+01
466	  0.113186374	-8.450000E+00	  0.113186374	4.354400E+01	  0.113186374	7.203700E+01	  0.113186374	4.377000E+01
467	  0.113386773	-8.447000E+00	  0.113386773	4.283000E+01	  0.113386773	7.282900E+01	  0.113386773	4.369100E+01
468	  0.113587178	-8.447000E+00	  0.113587178	4.202500E+01	  0.113587178	7.372800E+01	  0.113587178	4.355600E+01
469	  0.113787577	-8.442000E+00	  0.113787577	4.124000E+01	  0.113787577	7.461900E+01	  0.113787577	4.344100E+01
470	  0.113987975	-8.437000E+00	  0.113987975	4.041100E+01	  0.113987975	7.556800E+01	  0.113987975	4.329300E+01
471	  0.114188381	-8.439000E+00	  0.114188381	3.963300E+01	  0.114188381	7.645700E+01	  0.114188381	4.308700E+01
472	  0.114388779	-8.438000E+00	  0.114388779	3.880400E+01	  0.114388779	7.741500E+01	  0.114388779	4.286800E+01
473	  0.114589177	-8.435000E+00	  0.114589177	3.797000E+01	  0.114589177	7.839000E+01	  0.114589177	4.263800E+01
474	  0.114789583	-8.441000E+00	  0.114789583	3.713100E+01	  0.114789583	7.935900E+01	  0.114789583	4.231000E+01
475	  0.114989981	-8.448000E+00	  0.114989981	3.629600E+01	  0.114989981	8.032200E+01	  0.114989981	4.195000E+01
476	  0.115190387	-8.449000E+00	  0.115190387	3.540700E+01	  0.115190387	8.136700E+01	  0.115190387	4.158500E+01
477	  0.115390785	-8.465000E+00	  0.115390785	3.452300E+01	  0.115390785	8.236600E+01	  0.115390785	4.107700E+01
478	  0.115591183	-8.460000E+00	  0.115591183	3.367300E+01	  0.115591183	8.338600E+01	  0.115591183	4.071300E+01
479	  0.115791589	-8.474000E+00	  0.115791589	3.274800E+01	  0.115791589	8.443400E+01	  0.115791589	4.013300E+01
480	  0.115991987	-8.488000E+00	  0.115991987	3.185900E+01	  0.115991987	8.543300E+01	  0.115991987	3.953900E+01
481	  0.116192386	-8.501000E+00	  0.116192386	3.093800E+01	  0.116192386	8.646800E+01	  0.116192386	3.890300E+01
482	  0.116392791	-8.516000E+00	  0.116392791	3.003100E+01	  0.116392791	8.746900E+01	  0.116392791	3.822300E+01
483	  0.116593190	-8.532000E+00	  0.116593190	2.911400E+01	  0.116593190	8.846600E+01	  0.116593190	3.749100E+01
484	  0.116793588	-8.554000E+00	  0.116793588	2.813600E+01	  0.116793588	8.948700E+01	  0.116793588	3.663000E+01
485	  0.116993994	-8.578000E+00	  0.116993994	2.719300E+01	  0.116993994	9.044100E+01	  0.116993994	3.574500E+01
486	  0.117194392	-8.600000E+00	  0.117194392	2.618600E+01	  0.117194392	9.145300E+01	  0.117194392	3.478600E+01
487	  0.117394790	-8.632000E+00	  0.117394790	2.515500E+01	  0.117394790	9.241200E+01	  0.117394790	3.369700E+01
488	  0.117595196	-8.662000E+00	  0.117595196	2.417900E+01	  0.117595196	9.328800E+01	  0.117595196	3.263100E+01
489	  0.117795594	-8.698000E+00	  0.117795594	2.320100E+01	  0.117795594	9.409500E+01	  0.117795594	3.148200E+01
490	  0.117995992	-8.730000E+00	  0.117995992	2.217900E+01	  0.117995992	9.493700E+01	  0.117995992	3.029400E+01
