! Anritsu VNA Master:             	Model: MS2036C/10/77
! SN:             	1601066
! /bd0/18may10/252.ns.m11.txt
! Existing Calibration Information:
! TYPE:             	Current Settings	Active Cal Settings
! TIME:             	05/10/2018 06:02:09 PM	05/10/2018 05:49:06 PM
! INTERNAL TEMP:    	59.8 C	59.5 C
! # POINTS:         	490	490
! START FREQ:       	20.000 MHz	20.000 MHz
! STOP FREQ:        	117.995 991 MHz	117.995 991 MHz
! SOURCE POWER:     	High	High
! IFBW:             	50 Hz	50 Hz
! AVG FACTOR:       	  1 	  1 
! REF PLANE 1:      	0 mm	0 mm
! REF PLANE 2:      	0 mm	0 mm
! CAL TYPE:         	Full S22	Full S22
! CAL METHOD:       	SOLT	SOLT
! CAL LINE TYPE:    	Coax	Coax
! DUT PORT 1:       	K-Conn(M)	K-Conn(M)
! DUT PORT 2:       	K-Conn(M)	K-Conn(M)
! CAL STATUS:       	OK: Accuracy High	--
! PROP-V:       	0.700
! CABLE LOSS:       	0.000 dB/m
! REF IMPEDANCE:       	50.0
! Trace Specific Parameters:	TR1	TR2	TR3	TR4
! TRACE.#.Y (GRAPH TYPE)	LOG MAG	PHASE	REAL IMPEDANCE	IMAGINARY IMPEDANCE
! TRACE.#.X 	FREQ.GHZ	FREQ.GHZ	FREQ.GHZ	FREQ.GHZ
! S-PARAMETER	S22	S22	S22	S22
! SMOOTH/APERTURE %	0	0	0	0
! WINDOW	NSL	NSL	NSL	NSL
! GATING	OFF	OFF	OFF	OFF
! FGTD	OFF	OFF	OFF	OFF
Marker Information per Trace:	TR1	TR2	TR3	TR4
!MK1	--	"MK1 TR2:  20.000 MHz,PH:-125.41°"	--	--
!MK2	--	--	"MK2 TR3:  70.100 200 MHz,Z:(16.697 ohm, -1.550 ohm)"	--
!MK3	--	--	--	--
!MK4	--	--	--	--
!MK5	--	--	--	--
!MK6	--	--	--	--
!MK7	--	--	--	--
!MK8	--	--	--	--
PNT	TR1.FREQ.GHZ	TR1.LOG MAG.dB	TR2.FREQ.GHZ	TR2.PHASE.deg	TR3.FREQ.GHZ	TR3.REAL IMPEDANCE.ohm	TR4.FREQ.GHZ	TR4.IMAGINARY IMPEDANCE.ohm
1	  0.020000000	-6.350000E-01	  0.020000000	-1.254130E+02	  0.020000000	2.315000E+00	  0.020000000	-2.575500E+01
2	  0.020200402	-6.380000E-01	  0.020200402	-1.268590E+02	  0.020200402	2.295000E+00	  0.020200402	-2.496300E+01
3	  0.020400802	-6.410000E-01	  0.020400802	-1.283090E+02	  0.020400802	2.276000E+00	  0.020400802	-2.417800E+01
4	  0.020601204	-6.450000E-01	  0.020601204	-1.297740E+02	  0.020601204	2.265000E+00	  0.020601204	-2.339500E+01
5	  0.020801604	-6.490000E-01	  0.020801604	-1.312780E+02	  0.020801604	2.251000E+00	  0.020801604	-2.260100E+01
6	  0.021002004	-6.520000E-01	  0.021002004	-1.327880E+02	  0.021002004	2.234000E+00	  0.021002004	-2.181300E+01
7	  0.021202406	-6.560000E-01	  0.021202406	-1.343090E+02	  0.021202406	2.222000E+00	  0.021202406	-2.102900E+01
8	  0.021402806	-6.590000E-01	  0.021402806	-1.358030E+02	  0.021402806	2.208000E+00	  0.021402806	-2.026700E+01
9	  0.021603208	-6.610000E-01	  0.021603208	-1.373230E+02	  0.021603208	2.192000E+00	  0.021603208	-1.949900E+01
10	  0.021803608	-6.660000E-01	  0.021803608	-1.388350E+02	  0.021803608	2.185000E+00	  0.021803608	-1.874400E+01
11	  0.022004008	-6.730000E-01	  0.022004008	-1.403350E+02	  0.022004008	2.188000E+00	  0.022004008	-1.800200E+01
12	  0.022204408	-6.780000E-01	  0.022204408	-1.418740E+02	  0.022204408	2.185000E+00	  0.022204408	-1.724800E+01
13	  0.022404809	-6.870000E-01	  0.022404809	-1.434170E+02	  0.022404809	2.191000E+00	  0.022404809	-1.649800E+01
14	  0.022605211	-6.880000E-01	  0.022605211	-1.450020E+02	  0.022605211	2.177000E+00	  0.022605211	-1.573600E+01
15	  0.022805611	-6.880000E-01	  0.022805611	-1.465750E+02	  0.022805611	2.160000E+00	  0.022805611	-1.498600E+01
16	  0.023006011	-6.940000E-01	  0.023006011	-1.481420E+02	  0.023006011	2.159000E+00	  0.023006011	-1.424500E+01
17	  0.023206413	-6.990000E-01	  0.023206413	-1.496980E+02	  0.023206413	2.160000E+00	  0.023206413	-1.351500E+01
18	  0.023406813	-7.050000E-01	  0.023406813	-1.512610E+02	  0.023406813	2.161000E+00	  0.023406813	-1.278600E+01
19	  0.023607215	-7.110000E-01	  0.023607215	-1.528380E+02	  0.023607215	2.165000E+00	  0.023607215	-1.205700E+01
20	  0.023807615	-7.190000E-01	  0.023807615	-1.544370E+02	  0.023807615	2.174000E+00	  0.023807615	-1.132200E+01
21	  0.024008015	-7.250000E-01	  0.024008015	-1.560490E+02	  0.024008015	2.181000E+00	  0.024008015	-1.058500E+01
22	  0.024208417	-7.330000E-01	  0.024208417	-1.576960E+02	  0.024208417	2.191000E+00	  0.024208417	-9.838000E+00
23	  0.024408817	-7.380000E-01	  0.024408817	-1.593300E+02	  0.024408817	2.195000E+00	  0.024408817	-9.100000E+00
24	  0.024609219	-7.450000E-01	  0.024609219	-1.609700E+02	  0.024609219	2.205000E+00	  0.024609219	-8.364000E+00
25	  0.024809619	-7.530000E-01	  0.024809619	-1.626150E+02	  0.024809619	2.216000E+00	  0.024809619	-7.629000E+00
26	  0.025010020	-7.620000E-01	  0.025010020	-1.642700E+02	  0.025010020	2.236000E+00	  0.025010020	-6.893000E+00
27	  0.025210422	-7.720000E-01	  0.025210422	-1.659340E+02	  0.025210422	2.257000E+00	  0.025210422	-6.155000E+00
28	  0.025410822	-7.830000E-01	  0.025410822	-1.676070E+02	  0.025410822	2.278000E+00	  0.025410822	-5.417000E+00
29	  0.025611224	-7.940000E-01	  0.025611224	-1.692900E+02	  0.025611224	2.304000E+00	  0.025611224	-4.676000E+00
30	  0.025811624	-8.050000E-01	  0.025811624	-1.709870E+02	  0.025811624	2.332000E+00	  0.025811624	-3.932000E+00
31	  0.026012026	-8.140000E-01	  0.026012026	-1.726950E+02	  0.026012026	2.353000E+00	  0.026012026	-3.184000E+00
32	  0.026212426	-8.250000E-01	  0.026212426	-1.744140E+02	  0.026212426	2.380000E+00	  0.026212426	-2.433000E+00
33	  0.026412826	-8.390000E-01	  0.026412826	-1.761310E+02	  0.026412826	2.418000E+00	  0.026412826	-1.684000E+00
34	  0.026613226	-8.530000E-01	  0.026613226	-1.778790E+02	  0.026613226	2.456000E+00	  0.026613226	-9.220000E-01
35	  0.026813626	-8.690000E-01	  0.026813626	-1.796180E+02	  0.026813626	2.499000E+00	  0.026813626	-1.660000E-01
36	  0.027014028	-8.840000E-01	  0.027014028	1.786300E+02	  0.027014028	2.543000E+00	  0.027014028	5.960000E-01
37	  0.027214428	-9.010000E-01	  0.027214428	1.768740E+02	  0.027214428	2.594000E+00	  0.027214428	1.360000E+00
38	  0.027414829	-9.190000E-01	  0.027414829	1.751070E+02	  0.027414829	2.649000E+00	  0.027414829	2.130000E+00
39	  0.027615231	-9.360000E-01	  0.027615231	1.733300E+02	  0.027615231	2.702000E+00	  0.027615231	2.905000E+00
40	  0.027815631	-9.560000E-01	  0.027815631	1.715420E+02	  0.027815631	2.765000E+00	  0.027815631	3.685000E+00
41	  0.028016033	-9.740000E-01	  0.028016033	1.697280E+02	  0.028016033	2.825000E+00	  0.028016033	4.479000E+00
42	  0.028216433	-9.960000E-01	  0.028216433	1.679180E+02	  0.028216433	2.898000E+00	  0.028216433	5.273000E+00
43	  0.028416833	-1.018000E+00	  0.028416833	1.660930E+02	  0.028416833	2.971000E+00	  0.028416833	6.076000E+00
44	  0.028617235	-1.039000E+00	  0.028617235	1.642630E+02	  0.028617235	3.046000E+00	  0.028617235	6.884000E+00
45	  0.028817635	-1.064000E+00	  0.028817635	1.624340E+02	  0.028817635	3.132000E+00	  0.028817635	7.695000E+00
46	  0.029018037	-1.088000E+00	  0.029018037	1.606040E+02	  0.029018037	3.220000E+00	  0.029018037	8.510000E+00
47	  0.029218437	-1.115000E+00	  0.029218437	1.587550E+02	  0.029218437	3.317000E+00	  0.029218437	9.337000E+00
48	  0.029418837	-1.143000E+00	  0.029418837	1.568810E+02	  0.029418837	3.423000E+00	  0.029418837	1.018000E+01
49	  0.029619239	-1.170000E+00	  0.029619239	1.550060E+02	  0.029619239	3.529000E+00	  0.029619239	1.102900E+01
50	  0.029819639	-1.199000E+00	  0.029819639	1.531290E+02	  0.029819639	3.642000E+00	  0.029819639	1.188400E+01
51	  0.030020041	-1.229000E+00	  0.030020041	1.512410E+02	  0.030020041	3.763000E+00	  0.030020041	1.275000E+01
52	  0.030220442	-1.257000E+00	  0.030220442	1.493540E+02	  0.030220442	3.884000E+00	  0.030220442	1.362300E+01
53	  0.030420844	-1.288000E+00	  0.030420844	1.474690E+02	  0.030420844	4.015000E+00	  0.030420844	1.450100E+01
54	  0.030621244	-1.321000E+00	  0.030621244	1.456060E+02	  0.030621244	4.158000E+00	  0.030621244	1.537600E+01
55	  0.030821642	-1.355000E+00	  0.030821642	1.437220E+02	  0.030821642	4.308000E+00	  0.030821642	1.626900E+01
56	  0.031022044	-1.388000E+00	  0.031022044	1.418120E+02	  0.031022044	4.460000E+00	  0.031022044	1.718400E+01
57	  0.031222444	-1.416000E+00	  0.031222444	1.399220E+02	  0.031222444	4.606000E+00	  0.031222444	1.809900E+01
58	  0.031422846	-1.451000E+00	  0.031422846	1.380090E+02	  0.031422846	4.775000E+00	  0.031422846	1.903500E+01
59	  0.031623244	-1.486000E+00	  0.031623244	1.360620E+02	  0.031623244	4.957000E+00	  0.031623244	1.999800E+01
60	  0.031823646	-1.520000E+00	  0.031823646	1.341330E+02	  0.031823646	5.138000E+00	  0.031823646	2.096500E+01
61	  0.032024048	-1.554000E+00	  0.032024048	1.322050E+02	  0.032024048	5.330000E+00	  0.032024048	2.194300E+01
62	  0.032224450	-1.590000E+00	  0.032224450	1.302640E+02	  0.032224450	5.534000E+00	  0.032224450	2.294000E+01
63	  0.032424849	-1.625000E+00	  0.032424849	1.283110E+02	  0.032424849	5.748000E+00	  0.032424849	2.395800E+01
64	  0.032625251	-1.659000E+00	  0.032625251	1.263300E+02	  0.032625251	5.967000E+00	  0.032625251	2.500700E+01
65	  0.032825653	-1.694000E+00	  0.032825653	1.243270E+02	  0.032825653	6.201000E+00	  0.032825653	2.608300E+01
66	  0.033026051	-1.727000E+00	  0.033026051	1.223220E+02	  0.033026051	6.439000E+00	  0.033026051	2.718000E+01
67	  0.033226453	-1.768000E+00	  0.033226453	1.203240E+02	  0.033226453	6.718000E+00	  0.033226453	2.828800E+01
68	  0.033426855	-1.801000E+00	  0.033426855	1.183110E+02	  0.033426855	6.981000E+00	  0.033426855	2.942700E+01
69	  0.033627257	-1.840000E+00	  0.033627257	1.163060E+02	  0.033627257	7.283000E+00	  0.033627257	3.058000E+01
70	  0.033827655	-1.880000E+00	  0.033827655	1.143110E+02	  0.033827655	7.602000E+00	  0.033827655	3.174800E+01
71	  0.034028057	-1.919000E+00	  0.034028057	1.122700E+02	  0.034028057	7.936000E+00	  0.034028057	3.296700E+01
72	  0.034228459	-1.959000E+00	  0.034228459	1.102400E+02	  0.034228459	8.294000E+00	  0.034228459	3.420400E+01
73	  0.034428857	-2.004000E+00	  0.034428857	1.081820E+02	  0.034428857	8.694000E+00	  0.034428857	3.548200E+01
74	  0.034629259	-2.044000E+00	  0.034629259	1.061120E+02	  0.034629259	9.098000E+00	  0.034629259	3.679900E+01
75	  0.034829661	-2.090000E+00	  0.034829661	1.040410E+02	  0.034829661	9.553000E+00	  0.034829661	3.814200E+01
76	  0.035030060	-2.138000E+00	  0.035030060	1.019620E+02	  0.035030060	1.004500E+01	  0.035030060	3.951900E+01
77	  0.035230462	-2.185000E+00	  0.035230462	9.989100E+01	  0.035230462	1.056100E+01	  0.035230462	4.092400E+01
78	  0.035430863	-2.234000E+00	  0.035430863	9.779800E+01	  0.035430863	1.112500E+01	  0.035430863	4.237700E+01
79	  0.035631265	-2.282000E+00	  0.035631265	9.572300E+01	  0.035631265	1.171600E+01	  0.035631265	4.385400E+01
80	  0.035831664	-2.331000E+00	  0.035831664	9.363100E+01	  0.035831664	1.235100E+01	  0.035831664	4.538000E+01
81	  0.036032066	-2.383000E+00	  0.036032066	9.153000E+01	  0.036032066	1.305000E+01	  0.036032066	4.694900E+01
82	  0.036232468	-2.433000E+00	  0.036232468	8.943000E+01	  0.036232468	1.378200E+01	  0.036232468	4.856200E+01
83	  0.036432866	-2.485000E+00	  0.036432866	8.732400E+01	  0.036432866	1.458300E+01	  0.036432866	5.021900E+01
84	  0.036633268	-2.537000E+00	  0.036633268	8.519000E+01	  0.036633268	1.544500E+01	  0.036633268	5.194600E+01
85	  0.036833670	-2.589000E+00	  0.036833670	8.308300E+01	  0.036833670	1.636300E+01	  0.036833670	5.369900E+01
86	  0.037034072	-2.644000E+00	  0.037034072	8.094900E+01	  0.037034072	1.737900E+01	  0.037034072	5.551800E+01
87	  0.037234470	-2.696000E+00	  0.037234470	7.883300E+01	  0.037234470	1.845000E+01	  0.037234470	5.737800E+01
88	  0.037434869	-2.752000E+00	  0.037434869	7.672000E+01	  0.037434869	1.962800E+01	  0.037434869	5.927600E+01
89	  0.037635271	-2.809000E+00	  0.037635271	7.460400E+01	  0.037635271	2.090500E+01	  0.037635271	6.122800E+01
90	  0.037835669	-2.871000E+00	  0.037835669	7.245700E+01	  0.037835669	2.233500E+01	  0.037835669	6.325000E+01
91	  0.038036071	-2.935000E+00	  0.038036071	7.034100E+01	  0.038036071	2.388100E+01	  0.038036071	6.528200E+01
92	  0.038236473	-3.001000E+00	  0.038236473	6.827400E+01	  0.038236473	2.553900E+01	  0.038236473	6.730100E+01
93	  0.038436871	-3.058000E+00	  0.038436871	6.618700E+01	  0.038436871	2.727400E+01	  0.038436871	6.942500E+01
94	  0.038637273	-3.112000E+00	  0.038637273	6.409700E+01	  0.038637273	2.914200E+01	  0.038637273	7.161300E+01
95	  0.038837675	-3.166000E+00	  0.038837675	6.198300E+01	  0.038837675	3.118400E+01	  0.038837675	7.388200E+01
96	  0.039038073	-3.221000E+00	  0.039038073	5.988000E+01	  0.039038073	3.341700E+01	  0.039038073	7.617200E+01
97	  0.039238475	-3.276000E+00	  0.039238475	5.779800E+01	  0.039238475	3.582100E+01	  0.039238475	7.848100E+01
98	  0.039438877	-3.332000E+00	  0.039438877	5.569800E+01	  0.039438877	3.847300E+01	  0.039438877	8.083500E+01
99	  0.039639279	-3.388000E+00	  0.039639279	5.361700E+01	  0.039639279	4.134200E+01	  0.039639279	8.318500E+01
100	  0.039839678	-3.445000E+00	  0.039839678	5.150400E+01	  0.039839678	4.452200E+01	  0.039839678	8.558000E+01
101	  0.040040080	-3.500000E+00	  0.040040080	4.938900E+01	  0.040040080	4.798700E+01	  0.040040080	8.798200E+01
102	  0.040240481	-3.557000E+00	  0.040240481	4.729600E+01	  0.040240481	5.175700E+01	  0.040240481	9.030900E+01
103	  0.040440880	-3.613000E+00	  0.040440880	4.520100E+01	  0.040440880	5.586900E+01	  0.040440880	9.258800E+01
104	  0.040641282	-3.669000E+00	  0.040641282	4.314900E+01	  0.040641282	6.027200E+01	  0.040641282	9.471900E+01
105	  0.040841684	-3.728000E+00	  0.040841684	4.106200E+01	  0.040841684	6.516600E+01	  0.040841684	9.672600E+01
106	  0.041042086	-3.784000E+00	  0.041042086	3.901300E+01	  0.041042086	7.038300E+01	  0.041042086	9.852700E+01
107	  0.041242484	-3.842000E+00	  0.041242484	3.694000E+01	  0.041242484	7.610700E+01	  0.041242484	1.001030E+02
108	  0.041442886	-3.899000E+00	  0.041442886	3.487400E+01	  0.041442886	8.227700E+01	  0.041442886	1.013610E+02
109	  0.041643288	-3.956000E+00	  0.041643288	3.279300E+01	  0.041643288	8.897200E+01	  0.041643288	1.022290E+02
110	  0.041843686	-4.010000E+00	  0.041843686	3.069100E+01	  0.041843686	9.620600E+01	  0.041843686	1.026780E+02
111	  0.042044088	-4.066000E+00	  0.042044088	2.864500E+01	  0.042044088	1.037290E+02	  0.042044088	1.024200E+02
112	  0.042244490	-4.122000E+00	  0.042244490	2.658000E+01	  0.042244490	1.117310E+02	  0.042244490	1.014910E+02
113	  0.042444889	-4.178000E+00	  0.042444889	2.452900E+01	  0.042444889	1.200280E+02	  0.042444889	9.970300E+01
114	  0.042645290	-4.233000E+00	  0.042645290	2.250000E+01	  0.042645290	1.284810E+02	  0.042645290	9.698100E+01
115	  0.042845692	-4.286000E+00	  0.042845692	2.045800E+01	  0.042845692	1.371220E+02	  0.042845692	9.328000E+01
116	  0.043046094	-4.340000E+00	  0.043046094	1.842500E+01	  0.043046094	1.456780E+02	  0.043046094	8.841900E+01
117	  0.043246493	-4.395000E+00	  0.043246493	1.635800E+01	  0.043246493	1.541110E+02	  0.043246493	8.222100E+01
118	  0.043446895	-4.446000E+00	  0.043446895	1.434000E+01	  0.043446895	1.619070E+02	  0.043446895	7.501000E+01
119	  0.043647297	-4.494000E+00	  0.043647297	1.232900E+01	  0.043647297	1.690570E+02	  0.043647297	6.674300E+01
120	  0.043847695	-4.545000E+00	  0.043847695	1.032500E+01	  0.043847695	1.751630E+02	  0.043847695	5.733400E+01
121	  0.044048097	-4.595000E+00	  0.044048097	8.327000E+00	  0.044048097	1.801480E+02	  0.044048097	4.708800E+01
122	  0.044248499	-4.646000E+00	  0.044248499	6.348000E+00	  0.044248499	1.836800E+02	  0.044248499	3.621600E+01
123	  0.044448901	-4.694000E+00	  0.044448901	4.385000E+00	  0.044448901	1.858840E+02	  0.044448901	2.506200E+01
124	  0.044649299	-4.740000E+00	  0.044649299	2.421000E+00	  0.044649299	1.866470E+02	  0.044649299	1.375400E+01
125	  0.044849701	-4.783000E+00	  0.044849701	4.680000E-01	  0.044849701	1.861220E+02	  0.044849701	2.627000E+00
126	  0.045050103	-4.827000E+00	  0.045050103	-1.468000E+00	  0.045050103	1.841420E+02	  0.045050103	-8.070000E+00
127	  0.045250501	-4.873000E+00	  0.045250501	-3.414000E+00	  0.045250501	1.808930E+02	  0.045250501	-1.823100E+01
128	  0.045450903	-4.916000E+00	  0.045450903	-5.321000E+00	  0.045450903	1.767440E+02	  0.045450903	-2.747300E+01
129	  0.045651305	-4.958000E+00	  0.045651305	-7.258000E+00	  0.045651305	1.716930E+02	  0.045651305	-3.601100E+01
130	  0.045851704	-4.998000E+00	  0.045851704	-9.142000E+00	  0.045851704	1.661310E+02	  0.045851704	-4.343000E+01
131	  0.046052102	-5.039000E+00	  0.046052102	-1.102100E+01	  0.046052102	1.601000E+02	  0.046052102	-4.990600E+01
132	  0.046252504	-5.080000E+00	  0.046252504	-1.289900E+01	  0.046252504	1.537670E+02	  0.046252504	-5.547100E+01
133	  0.046452906	-5.119000E+00	  0.046452906	-1.474000E+01	  0.046452906	1.474170E+02	  0.046452906	-6.010100E+01
134	  0.046653304	-5.157000E+00	  0.046653304	-1.660000E+01	  0.046653304	1.409660E+02	  0.046653304	-6.400100E+01
135	  0.046853706	-5.192000E+00	  0.046853706	-1.847000E+01	  0.046853706	1.345760E+02	  0.046853706	-6.725000E+01
136	  0.047054108	-5.228000E+00	  0.047054108	-2.031500E+01	  0.047054108	1.283530E+02	  0.047054108	-6.974700E+01
137	  0.047254506	-5.261000E+00	  0.047254506	-2.217900E+01	  0.047254506	1.222690E+02	  0.047254506	-7.172600E+01
138	  0.047454908	-5.293000E+00	  0.047454908	-2.401400E+01	  0.047454908	1.164850E+02	  0.047454908	-7.317000E+01
139	  0.047655310	-5.325000E+00	  0.047655310	-2.584700E+01	  0.047655310	1.109460E+02	  0.047655310	-7.416400E+01
140	  0.047855709	-5.357000E+00	  0.047855709	-2.765500E+01	  0.047855709	1.057170E+02	  0.047855709	-7.472200E+01
141	  0.048056111	-5.391000E+00	  0.048056111	-2.945600E+01	  0.048056111	1.007600E+02	  0.048056111	-7.492700E+01
142	  0.048256513	-5.422000E+00	  0.048256513	-3.124800E+01	  0.048256513	9.609200E+01	  0.048256513	-7.488700E+01
143	  0.048456915	-5.455000E+00	  0.048456915	-3.306000E+01	  0.048456915	9.162700E+01	  0.048456915	-7.458500E+01
144	  0.048657313	-5.479000E+00	  0.048657313	-3.482900E+01	  0.048657313	8.751300E+01	  0.048657313	-7.421400E+01
145	  0.048857715	-5.505000E+00	  0.048857715	-3.663300E+01	  0.048857715	8.355100E+01	  0.048857715	-7.362100E+01
146	  0.049058117	-5.531000E+00	  0.049058117	-3.843300E+01	  0.049058117	7.982700E+01	  0.049058117	-7.288700E+01
147	  0.049258515	-5.554000E+00	  0.049258515	-4.017800E+01	  0.049258515	7.642200E+01	  0.049258515	-7.209000E+01
148	  0.049458917	-5.576000E+00	  0.049458917	-4.194100E+01	  0.049458917	7.317400E+01	  0.049458917	-7.119300E+01
149	  0.049659319	-5.603000E+00	  0.049659319	-4.367300E+01	  0.049659319	7.018500E+01	  0.049659319	-7.016200E+01
150	  0.049859721	-5.625000E+00	  0.049859721	-4.539100E+01	  0.049859721	6.738000E+01	  0.049859721	-6.912900E+01
151	  0.050060119	-5.647000E+00	  0.050060119	-4.712700E+01	  0.050060119	6.470800E+01	  0.050060119	-6.803900E+01
152	  0.050260521	-5.667000E+00	  0.050260521	-4.885000E+01	  0.050260521	6.220100E+01	  0.050260521	-6.693200E+01
153	  0.050460923	-5.687000E+00	  0.050460923	-5.053700E+01	  0.050460923	5.989000E+01	  0.050460923	-6.580900E+01
154	  0.050661322	-5.702000E+00	  0.050661322	-5.225500E+01	  0.050661322	5.764600E+01	  0.050661322	-6.468900E+01
155	  0.050861724	-5.718000E+00	  0.050861724	-5.393000E+01	  0.050861724	5.558900E+01	  0.050861724	-6.355300E+01
156	  0.051062126	-5.735000E+00	  0.051062126	-5.560300E+01	  0.051062126	5.364800E+01	  0.051062126	-6.240200E+01
157	  0.051262524	-5.756000E+00	  0.051262524	-5.723900E+01	  0.051262524	5.187200E+01	  0.051262524	-6.123100E+01
158	  0.051462926	-5.772000E+00	  0.051462926	-5.886900E+01	  0.051462926	5.017400E+01	  0.051462926	-6.010500E+01
159	  0.051663328	-5.788000E+00	  0.051663328	-6.048300E+01	  0.051663328	4.858600E+01	  0.051663328	-5.897700E+01
160	  0.051863730	-5.803000E+00	  0.051863730	-6.211300E+01	  0.051863730	4.705900E+01	  0.051863730	-5.785000E+01
161	  0.052064128	-5.819000E+00	  0.052064128	-6.370600E+01	  0.052064128	4.564900E+01	  0.052064128	-5.674200E+01
162	  0.052264530	-5.824000E+00	  0.052264530	-6.532500E+01	  0.052264530	4.424300E+01	  0.052264530	-5.568300E+01
163	  0.052464932	-5.838000E+00	  0.052464932	-6.690700E+01	  0.052464932	4.297300E+01	  0.052464932	-5.460100E+01
164	  0.052665330	-5.853000E+00	  0.052665330	-6.848000E+01	  0.052665330	4.177900E+01	  0.052665330	-5.352600E+01
165	  0.052865732	-5.867000E+00	  0.052865732	-7.002300E+01	  0.052865732	4.065800E+01	  0.052865732	-5.248600E+01
166	  0.053066134	-5.883000E+00	  0.053066134	-7.157800E+01	  0.053066134	3.959300E+01	  0.053066134	-5.143400E+01
167	  0.053266536	-5.894000E+00	  0.053266536	-7.311400E+01	  0.053266536	3.857100E+01	  0.053266536	-5.042700E+01
168	  0.053466935	-5.907000E+00	  0.053466935	-7.465200E+01	  0.053466935	3.760600E+01	  0.053466935	-4.941700E+01
169	  0.053667337	-5.919000E+00	  0.053667337	-7.618200E+01	  0.053667337	3.668100E+01	  0.053667337	-4.843100E+01
170	  0.053867739	-5.930000E+00	  0.053867739	-7.770500E+01	  0.053867739	3.580400E+01	  0.053867739	-4.745900E+01
171	  0.054068137	-5.941000E+00	  0.054068137	-7.923200E+01	  0.054068137	3.496200E+01	  0.054068137	-4.649600E+01
172	  0.054268539	-5.951000E+00	  0.054268539	-8.072400E+01	  0.054268539	3.417000E+01	  0.054268539	-4.557000E+01
173	  0.054468941	-5.964000E+00	  0.054468941	-8.219400E+01	  0.054468941	3.344000E+01	  0.054468941	-4.465200E+01
174	  0.054669335	-5.976000E+00	  0.054669335	-8.368300E+01	  0.054669335	3.272600E+01	  0.054669335	-4.373800E+01
175	  0.054869737	-5.987000E+00	  0.054869737	-8.515900E+01	  0.054869737	3.204500E+01	  0.054869737	-4.284800E+01
176	  0.055070139	-6.000000E+00	  0.055070139	-8.660600E+01	  0.055070139	3.141600E+01	  0.055070139	-4.197400E+01
177	  0.055270538	-6.011000E+00	  0.055270538	-8.805000E+01	  0.055270538	3.080400E+01	  0.055270538	-4.112100E+01
178	  0.055470940	-6.020000E+00	  0.055470940	-8.949100E+01	  0.055470940	3.021400E+01	  0.055470940	-4.028400E+01
179	  0.055671342	-6.026000E+00	  0.055671342	-9.092700E+01	  0.055671342	2.963600E+01	  0.055671342	-3.946800E+01
180	  0.055871744	-6.031000E+00	  0.055871744	-9.233100E+01	  0.055871744	2.909200E+01	  0.055871744	-3.867900E+01
181	  0.056072142	-6.041000E+00	  0.056072142	-9.375000E+01	  0.056072142	2.858100E+01	  0.056072142	-3.787800E+01
182	  0.056272544	-6.046000E+00	  0.056272544	-9.512500E+01	  0.056272544	2.809000E+01	  0.056272544	-3.712000E+01
183	  0.056472946	-6.053000E+00	  0.056472946	-9.651300E+01	  0.056472946	2.762100E+01	  0.056472946	-3.635800E+01
184	  0.056673344	-6.055000E+00	  0.056673344	-9.784700E+01	  0.056673344	2.716600E+01	  0.056673344	-3.564600E+01
185	  0.056873746	-6.062000E+00	  0.056873746	-9.920700E+01	  0.056873746	2.674100E+01	  0.056873746	-3.491300E+01
186	  0.057074148	-6.064000E+00	  0.057074148	-1.005250E+02	  0.057074148	2.632500E+01	  0.057074148	-3.422100E+01
187	  0.057274550	-6.066000E+00	  0.057274550	-1.018680E+02	  0.057274550	2.591600E+01	  0.057274550	-3.352200E+01
188	  0.057474948	-6.061000E+00	  0.057474948	-1.031760E+02	  0.057474948	2.551200E+01	  0.057474948	-3.286000E+01
189	  0.057675350	-6.065000E+00	  0.057675350	-1.044950E+02	  0.057675350	2.514400E+01	  0.057675350	-3.218300E+01
190	  0.057875752	-6.063000E+00	  0.057875752	-1.058320E+02	  0.057875752	2.476800E+01	  0.057875752	-3.151000E+01
191	  0.058076151	-6.062000E+00	  0.058076151	-1.071200E+02	  0.058076151	2.441900E+01	  0.058076151	-3.086800E+01
192	  0.058276553	-6.059000E+00	  0.058276553	-1.083980E+02	  0.058276553	2.407900E+01	  0.058276553	-3.023800E+01
193	  0.058476955	-6.059000E+00	  0.058476955	-1.096860E+02	  0.058476955	2.375600E+01	  0.058476955	-2.960400E+01
194	  0.058677353	-6.054000E+00	  0.058677353	-1.109750E+02	  0.058677353	2.343200E+01	  0.058677353	-2.898100E+01
195	  0.058877755	-6.054000E+00	  0.058877755	-1.122590E+02	  0.058877755	2.313100E+01	  0.058877755	-2.835800E+01
196	  0.059078157	-6.047000E+00	  0.059078157	-1.135310E+02	  0.059078157	2.282300E+01	  0.059078157	-2.775600E+01
197	  0.059278559	-6.042000E+00	  0.059278559	-1.147900E+02	  0.059278559	2.253200E+01	  0.059278559	-2.716200E+01
198	  0.059478957	-6.037000E+00	  0.059478957	-1.160800E+02	  0.059478957	2.224700E+01	  0.059478957	-2.655500E+01
199	  0.059679359	-6.037000E+00	  0.059679359	-1.173500E+02	  0.059679359	2.199000E+01	  0.059679359	-2.595700E+01
200	  0.059879761	-6.032000E+00	  0.059879761	-1.186130E+02	  0.059879761	2.172600E+01	  0.059879761	-2.537300E+01
201	  0.060080159	-6.031000E+00	  0.060080159	-1.198550E+02	  0.060080159	2.148700E+01	  0.060080159	-2.479700E+01
202	  0.060280561	-6.027000E+00	  0.060280561	-1.211110E+02	  0.060280561	2.124500E+01	  0.060280561	-2.422200E+01
203	  0.060480963	-6.026000E+00	  0.060480963	-1.223640E+02	  0.060480963	2.102200E+01	  0.060480963	-2.364800E+01
204	  0.060681365	-6.024000E+00	  0.060681365	-1.236040E+02	  0.060681365	2.080300E+01	  0.060681365	-2.308700E+01
205	  0.060881764	-6.019000E+00	  0.060881764	-1.248390E+02	  0.060881764	2.058500E+01	  0.060881764	-2.253400E+01
206	  0.061082166	-6.015000E+00	  0.061082166	-1.260950E+02	  0.061082166	2.037500E+01	  0.061082166	-2.197200E+01
207	  0.061282568	-6.016000E+00	  0.061282568	-1.273190E+02	  0.061282568	2.019000E+01	  0.061282568	-2.142500E+01
208	  0.061482966	-6.013000E+00	  0.061482966	-1.285560E+02	  0.061482966	1.999900E+01	  0.061482966	-2.087800E+01
209	  0.061683368	-6.011000E+00	  0.061683368	-1.297840E+02	  0.061683368	1.981400E+01	  0.061683368	-2.033900E+01
210	  0.061883770	-6.010000E+00	  0.061883770	-1.310060E+02	  0.061883770	1.964300E+01	  0.061883770	-1.980300E+01
211	  0.062084168	-6.007000E+00	  0.062084168	-1.321960E+02	  0.062084168	1.947500E+01	  0.062084168	-1.928700E+01
212	  0.062284570	-6.005000E+00	  0.062284570	-1.334250E+02	  0.062284570	1.931300E+01	  0.062284570	-1.875500E+01
213	  0.062484972	-5.996000E+00	  0.062484972	-1.346060E+02	  0.062484972	1.914100E+01	  0.062484972	-1.825300E+01
214	  0.062685370	-5.993000E+00	  0.062685370	-1.358160E+02	  0.062685370	1.898700E+01	  0.062685370	-1.773600E+01
215	  0.062885776	-5.995000E+00	  0.062885776	-1.370090E+02	  0.062885776	1.885600E+01	  0.062885776	-1.722400E+01
216	  0.063086174	-5.987000E+00	  0.063086174	-1.381770E+02	  0.063086174	1.870300E+01	  0.063086174	-1.673400E+01
217	  0.063286573	-5.985000E+00	  0.063286573	-1.393600E+02	  0.063286573	1.857000E+01	  0.063286573	-1.623500E+01
218	  0.063486971	-5.982000E+00	  0.063486971	-1.405280E+02	  0.063486971	1.844100E+01	  0.063486971	-1.574500E+01
219	  0.063687377	-5.979000E+00	  0.063687377	-1.416670E+02	  0.063687377	1.831800E+01	  0.063687377	-1.526900E+01
220	  0.063887775	-5.977000E+00	  0.063887775	-1.428190E+02	  0.063887775	1.820300E+01	  0.063887775	-1.479000E+01
221	  0.064088173	-5.972000E+00	  0.064088173	-1.439850E+02	  0.064088173	1.808300E+01	  0.064088173	-1.430700E+01
222	  0.064288579	-5.969000E+00	  0.064288579	-1.451120E+02	  0.064288579	1.797500E+01	  0.064288579	-1.384200E+01
223	  0.064488977	-5.971000E+00	  0.064488977	-1.462930E+02	  0.064488977	1.787900E+01	  0.064488977	-1.335400E+01
224	  0.064689375	-5.973000E+00	  0.064689375	-1.473750E+02	  0.064689375	1.779500E+01	  0.064689375	-1.290900E+01
225	  0.064889781	-5.966000E+00	  0.064889781	-1.485310E+02	  0.064889781	1.768700E+01	  0.064889781	-1.243900E+01
226	  0.065090179	-5.966000E+00	  0.065090179	-1.496300E+02	  0.065090179	1.760400E+01	  0.065090179	-1.199000E+01
227	  0.065290578	-5.970000E+00	  0.065290578	-1.507160E+02	  0.065290578	1.753600E+01	  0.065290578	-1.154700E+01
228	  0.065490983	-5.972000E+00	  0.065490983	-1.518140E+02	  0.065490983	1.746400E+01	  0.065490983	-1.110100E+01
229	  0.065691382	-5.969000E+00	  0.065691382	-1.529320E+02	  0.065691382	1.738200E+01	  0.065691382	-1.065100E+01
230	  0.065891780	-5.972000E+00	  0.065891780	-1.540390E+02	  0.065891780	1.732100E+01	  0.065891780	-1.020400E+01
231	  0.066092186	-5.974000E+00	  0.066092186	-1.551180E+02	  0.066092186	1.726200E+01	  0.066092186	-9.769000E+00
232	  0.066292584	-5.973000E+00	  0.066292584	-1.562080E+02	  0.066292584	1.719500E+01	  0.066292584	-9.334000E+00
233	  0.066492982	-5.972000E+00	  0.066492982	-1.572870E+02	  0.066492982	1.713600E+01	  0.066492982	-8.903000E+00
234	  0.066693388	-5.976000E+00	  0.066693388	-1.583610E+02	  0.066693388	1.709000E+01	  0.066693388	-8.474000E+00
235	  0.066893786	-5.981000E+00	  0.066893786	-1.594100E+02	  0.066893786	1.705100E+01	  0.066893786	-8.055000E+00
236	  0.067094192	-5.981000E+00	  0.067094192	-1.604890E+02	  0.067094192	1.700200E+01	  0.067094192	-7.627000E+00
237	  0.067294590	-5.985000E+00	  0.067294590	-1.615450E+02	  0.067294590	1.696500E+01	  0.067294590	-7.208000E+00
238	  0.067494988	-5.988000E+00	  0.067494988	-1.625980E+02	  0.067494988	1.693000E+01	  0.067494988	-6.792000E+00
239	  0.067695394	-5.990000E+00	  0.067695394	-1.636690E+02	  0.067695394	1.689200E+01	  0.067695394	-6.369000E+00
240	  0.067895792	-5.996000E+00	  0.067895792	-1.647250E+02	  0.067895792	1.686800E+01	  0.067895792	-5.953000E+00
241	  0.068096191	-5.999000E+00	  0.068096191	-1.657900E+02	  0.068096191	1.684200E+01	  0.068096191	-5.534000E+00
242	  0.068296596	-6.000000E+00	  0.068296596	-1.668330E+02	  0.068296596	1.681200E+01	  0.068296596	-5.125000E+00
243	  0.068496995	-6.003000E+00	  0.068496995	-1.678490E+02	  0.068496995	1.678900E+01	  0.068496995	-4.727000E+00
244	  0.068697393	-6.010000E+00	  0.068697393	-1.689140E+02	  0.068697393	1.677900E+01	  0.068697393	-4.310000E+00
245	  0.068897791	-6.011000E+00	  0.068897791	-1.699180E+02	  0.068897791	1.675900E+01	  0.068897791	-3.918000E+00
246	  0.069098189	-6.009000E+00	  0.069098189	-1.709230E+02	  0.069098189	1.673200E+01	  0.069098189	-3.526000E+00
247	  0.069298595	-6.015000E+00	  0.069298595	-1.719600E+02	  0.069298595	1.672600E+01	  0.069298595	-3.122000E+00
248	  0.069498993	-6.014000E+00	  0.069498993	-1.730000E+02	  0.069498993	1.670700E+01	  0.069498993	-2.717000E+00
249	  0.069699399	-6.020000E+00	  0.069699399	-1.740190E+02	  0.069699399	1.670600E+01	  0.069699399	-2.320000E+00
250	  0.069899797	-6.025000E+00	  0.069899797	-1.750170E+02	  0.069899797	1.670700E+01	  0.069899797	-1.933000E+00
251	  0.070100196	-6.025000E+00	  0.070100196	-1.760040E+02	  0.070100196	1.669700E+01	  0.070100196	-1.549000E+00
252	  0.070300601	-6.026000E+00	  0.070300601	-1.769910E+02	  0.070300601	1.669100E+01	  0.070300601	-1.166000E+00
253	  0.070501000	-6.030000E+00	  0.070501000	-1.779740E+02	  0.070501000	1.669600E+01	  0.070501000	-7.850000E-01
254	  0.070701398	-6.030000E+00	  0.070701398	-1.789730E+02	  0.070701398	1.669400E+01	  0.070701398	-3.980000E-01
255	  0.070901804	-6.033000E+00	  0.070901804	-1.799280E+02	  0.070901804	1.669900E+01	  0.070901804	-2.700000E-02
256	  0.071102202	-6.039000E+00	  0.071102202	1.790760E+02	  0.071102202	1.671400E+01	  0.071102202	3.570000E-01
257	  0.071302600	-6.040000E+00	  0.071302600	1.780980E+02	  0.071302600	1.672100E+01	  0.071302600	7.360000E-01
258	  0.071503006	-6.043000E+00	  0.071503006	1.771320E+02	  0.071503006	1.673500E+01	  0.071503006	1.111000E+00
259	  0.071703404	-6.056000E+00	  0.071703404	1.761790E+02	  0.071703404	1.677500E+01	  0.071703404	1.480000E+00
260	  0.071903802	-6.057000E+00	  0.071903802	1.752180E+02	  0.071903802	1.678600E+01	  0.071903802	1.852000E+00
261	  0.072104208	-6.061000E+00	  0.072104208	1.742650E+02	  0.072104208	1.680700E+01	  0.072104208	2.221000E+00
262	  0.072304606	-6.071000E+00	  0.072304606	1.733250E+02	  0.072304606	1.684800E+01	  0.072304606	2.585000E+00
263	  0.072505005	-6.072000E+00	  0.072505005	1.723870E+02	  0.072505005	1.686500E+01	  0.072505005	2.949000E+00
264	  0.072705410	-6.079000E+00	  0.072705410	1.714250E+02	  0.072705410	1.690000E+01	  0.072705410	3.322000E+00
265	  0.072905809	-6.087000E+00	  0.072905809	1.704590E+02	  0.072905809	1.694000E+01	  0.072905809	3.696000E+00
266	  0.073106214	-6.094000E+00	  0.073106214	1.695420E+02	  0.073106214	1.698100E+01	  0.073106214	4.051000E+00
267	  0.073306613	-6.104000E+00	  0.073306613	1.686030E+02	  0.073306613	1.702900E+01	  0.073306613	4.415000E+00
268	  0.073507011	-6.114000E+00	  0.073507011	1.676700E+02	  0.073507011	1.708000E+01	  0.073507011	4.776000E+00
269	  0.073707417	-6.117000E+00	  0.073707417	1.667490E+02	  0.073707417	1.711600E+01	  0.073707417	5.135000E+00
270	  0.073907815	-6.126000E+00	  0.073907815	1.658180E+02	  0.073907815	1.716900E+01	  0.073907815	5.496000E+00
271	  0.074108213	-6.132000E+00	  0.074108213	1.648900E+02	  0.074108213	1.721600E+01	  0.074108213	5.857000E+00
272	  0.074308619	-6.138000E+00	  0.074308619	1.639730E+02	  0.074308619	1.726400E+01	  0.074308619	6.214000E+00
273	  0.074509017	-6.148000E+00	  0.074509017	1.630240E+02	  0.074509017	1.732500E+01	  0.074509017	6.582000E+00
274	  0.074709415	-6.152000E+00	  0.074709415	1.621240E+02	  0.074709415	1.737300E+01	  0.074709415	6.934000E+00
275	  0.074909821	-6.162000E+00	  0.074909821	1.611940E+02	  0.074909821	1.743900E+01	  0.074909821	7.296000E+00
276	  0.075110219	-6.173000E+00	  0.075110219	1.602900E+02	  0.075110219	1.750900E+01	  0.075110219	7.648000E+00
277	  0.075310618	-6.176000E+00	  0.075310618	1.593820E+02	  0.075310618	1.756100E+01	  0.075310618	8.004000E+00
278	  0.075511023	-6.182000E+00	  0.075511023	1.584720E+02	  0.075511023	1.762300E+01	  0.075511023	8.360000E+00
279	  0.075711422	-6.191000E+00	  0.075711422	1.576170E+02	  0.075711422	1.769000E+01	  0.075711422	8.695000E+00
280	  0.075911827	-6.200000E+00	  0.075911827	1.567230E+02	  0.075911827	1.776200E+01	  0.075911827	9.045000E+00
281	  0.076112226	-6.204000E+00	  0.076112226	1.558420E+02	  0.076112226	1.782300E+01	  0.076112226	9.392000E+00
282	  0.076312624	-6.216000E+00	  0.076312624	1.549650E+02	  0.076312624	1.790800E+01	  0.076312624	9.735000E+00
283	  0.076513030	-6.225000E+00	  0.076513030	1.540970E+02	  0.076513030	1.798400E+01	  0.076513030	1.007700E+01
284	  0.076713428	-6.234000E+00	  0.076713428	1.532020E+02	  0.076713428	1.806700E+01	  0.076713428	1.042800E+01
285	  0.076913826	-6.243000E+00	  0.076913826	1.523290E+02	  0.076913826	1.814700E+01	  0.076913826	1.077300E+01
286	  0.077114232	-6.250000E+00	  0.077114232	1.514700E+02	  0.077114232	1.822600E+01	  0.077114232	1.111300E+01
287	  0.077314630	-6.259000E+00	  0.077314630	1.506230E+02	  0.077314630	1.831100E+01	  0.077314630	1.144700E+01
288	  0.077515028	-6.268000E+00	  0.077515028	1.497610E+02	  0.077515028	1.840000E+01	  0.077515028	1.178800E+01
289	  0.077715434	-6.278000E+00	  0.077715434	1.489210E+02	  0.077715434	1.849100E+01	  0.077715434	1.212100E+01
290	  0.077915832	-6.289000E+00	  0.077915832	1.480470E+02	  0.077915832	1.858900E+01	  0.077915832	1.246700E+01
291	  0.078116231	-6.298000E+00	  0.078116231	1.472110E+02	  0.078116231	1.868100E+01	  0.078116231	1.280000E+01
292	  0.078316636	-6.311000E+00	  0.078316636	1.463620E+02	  0.078316636	1.878800E+01	  0.078316636	1.313600E+01
293	  0.078517035	-6.321000E+00	  0.078517035	1.455090E+02	  0.078517035	1.889000E+01	  0.078517035	1.347600E+01
294	  0.078717433	-6.336000E+00	  0.078717433	1.446570E+02	  0.078717433	1.900700E+01	  0.078717433	1.381300E+01
295	  0.078917839	-6.349000E+00	  0.078917839	1.438190E+02	  0.078917839	1.912000E+01	  0.078917839	1.414600E+01
296	  0.079118237	-6.359000E+00	  0.079118237	1.429790E+02	  0.079118237	1.922700E+01	  0.079118237	1.448200E+01
297	  0.079318643	-6.372000E+00	  0.079318643	1.421510E+02	  0.079318643	1.934400E+01	  0.079318643	1.481200E+01
298	  0.079519041	-6.387000E+00	  0.079519041	1.413100E+02	  0.079519041	1.947100E+01	  0.079519041	1.514700E+01
299	  0.079719439	-6.398000E+00	  0.079719439	1.404920E+02	  0.079719439	1.958500E+01	  0.079719439	1.547600E+01
300	  0.079919845	-6.415000E+00	  0.079919845	1.396520E+02	  0.079919845	1.972200E+01	  0.079919845	1.580900E+01
301	  0.080120243	-6.431000E+00	  0.080120243	1.388030E+02	  0.080120243	1.985800E+01	  0.080120243	1.614800E+01
302	  0.080320641	-6.444000E+00	  0.080320641	1.379700E+02	  0.080320641	1.998800E+01	  0.080320641	1.648300E+01
303	  0.080521047	-6.459000E+00	  0.080521047	1.371320E+02	  0.080521047	2.012700E+01	  0.080521047	1.681900E+01
304	  0.080721445	-6.473000E+00	  0.080721445	1.362920E+02	  0.080721445	2.026700E+01	  0.080721445	1.715600E+01
305	  0.080921844	-6.486000E+00	  0.080921844	1.354620E+02	  0.080921844	2.040500E+01	  0.080921844	1.749100E+01
306	  0.081122249	-6.502000E+00	  0.081122249	1.346660E+02	  0.081122249	2.054800E+01	  0.081122249	1.781100E+01
307	  0.081322648	-6.514000E+00	  0.081322648	1.338420E+02	  0.081322648	2.068800E+01	  0.081322648	1.814600E+01
308	  0.081523046	-6.531000E+00	  0.081523046	1.330270E+02	  0.081523046	2.084200E+01	  0.081523046	1.847300E+01
309	  0.081723452	-6.542000E+00	  0.081723452	1.321670E+02	  0.081723452	2.099200E+01	  0.081723452	1.882400E+01
310	  0.081923850	-6.555000E+00	  0.081923850	1.313590E+02	  0.081923850	2.114100E+01	  0.081923850	1.915300E+01
311	  0.082124248	-6.564000E+00	  0.082124248	1.305640E+02	  0.082124248	2.127800E+01	  0.082124248	1.948100E+01
312	  0.082324654	-6.583000E+00	  0.082324654	1.297790E+02	  0.082324654	2.144600E+01	  0.082324654	1.979600E+01
313	  0.082525052	-6.594000E+00	  0.082525052	1.289980E+02	  0.082525052	2.159600E+01	  0.082525052	2.011600E+01
314	  0.082725458	-6.611000E+00	  0.082725458	1.282420E+02	  0.082725458	2.175900E+01	  0.082725458	2.042100E+01
315	  0.082925856	-6.623000E+00	  0.082925856	1.274570E+02	  0.082925856	2.191500E+01	  0.082925856	2.074400E+01
316	  0.083126254	-6.644000E+00	  0.083126254	1.266670E+02	  0.083126254	2.210200E+01	  0.083126254	2.106000E+01
317	  0.083326660	-6.657000E+00	  0.083326660	1.259050E+02	  0.083326660	2.226300E+01	  0.083326660	2.137300E+01
318	  0.083527058	-6.672000E+00	  0.083527058	1.251500E+02	  0.083527058	2.243300E+01	  0.083527058	2.168100E+01
319	  0.083727457	-6.687000E+00	  0.083727457	1.243900E+02	  0.083727457	2.260600E+01	  0.083727457	2.199200E+01
320	  0.083927862	-6.705000E+00	  0.083927862	1.236410E+02	  0.083927862	2.278800E+01	  0.083927862	2.229500E+01
321	  0.084128261	-6.725000E+00	  0.084128261	1.228900E+02	  0.084128261	2.298200E+01	  0.084128261	2.259500E+01
322	  0.084328659	-6.742000E+00	  0.084328659	1.221700E+02	  0.084328659	2.316200E+01	  0.084328659	2.288700E+01
323	  0.084529065	-6.763000E+00	  0.084529065	1.214220E+02	  0.084529065	2.336200E+01	  0.084529065	2.318600E+01
324	  0.084729463	-6.784000E+00	  0.084729463	1.206760E+02	  0.084729463	2.356500E+01	  0.084729463	2.348400E+01
325	  0.084929854	-6.803000E+00	  0.084929854	1.199330E+02	  0.084929854	2.376400E+01	  0.084929854	2.378400E+01
326	  0.085130259	-6.824000E+00	  0.085130259	1.192140E+02	  0.085130259	2.396700E+01	  0.085130259	2.407100E+01
327	  0.085330658	-6.844000E+00	  0.085330658	1.184480E+02	  0.085330658	2.418200E+01	  0.085330658	2.437800E+01
328	  0.085531056	-6.867000E+00	  0.085531056	1.177330E+02	  0.085531056	2.439600E+01	  0.085531056	2.466100E+01
329	  0.085731462	-6.890000E+00	  0.085731462	1.169810E+02	  0.085731462	2.462200E+01	  0.085731462	2.495900E+01
330	  0.085931860	-6.907000E+00	  0.085931860	1.162680E+02	  0.085931860	2.482800E+01	  0.085931860	2.524700E+01
331	  0.086132258	-6.933000E+00	  0.086132258	1.155500E+02	  0.086132258	2.506200E+01	  0.086132258	2.552600E+01
332	  0.086332664	-6.959000E+00	  0.086332664	1.148350E+02	  0.086332664	2.529700E+01	  0.086332664	2.580300E+01
333	  0.086533062	-6.982000E+00	  0.086533062	1.140850E+02	  0.086533062	2.553700E+01	  0.086533062	2.609900E+01
334	  0.086733460	-7.007000E+00	  0.086733460	1.133890E+02	  0.086733460	2.577400E+01	  0.086733460	2.636600E+01
335	  0.086933866	-7.029000E+00	  0.086933866	1.126480E+02	  0.086933866	2.601400E+01	  0.086933866	2.666000E+01
336	  0.087134264	-7.051000E+00	  0.087134264	1.119220E+02	  0.087134264	2.625700E+01	  0.087134264	2.694600E+01
337	  0.087334670	-7.082000E+00	  0.087334670	1.111890E+02	  0.087334670	2.653000E+01	  0.087334670	2.721900E+01
338	  0.087535068	-7.109000E+00	  0.087535068	1.104920E+02	  0.087535068	2.678600E+01	  0.087535068	2.748300E+01
339	  0.087735467	-7.134000E+00	  0.087735467	1.097870E+02	  0.087735467	2.704200E+01	  0.087735467	2.775200E+01
340	  0.087935872	-7.159000E+00	  0.087935872	1.090820E+02	  0.087935872	2.730300E+01	  0.087935872	2.802000E+01
341	  0.088136271	-7.188000E+00	  0.088136271	1.083810E+02	  0.088136271	2.757600E+01	  0.088136271	2.828000E+01
342	  0.088336669	-7.212000E+00	  0.088336669	1.076840E+02	  0.088336669	2.783800E+01	  0.088336669	2.854500E+01
343	  0.088537075	-7.238000E+00	  0.088537075	1.069580E+02	  0.088537075	2.811800E+01	  0.088537075	2.881900E+01
344	  0.088737473	-7.266000E+00	  0.088737473	1.062680E+02	  0.088737473	2.839500E+01	  0.088737473	2.907300E+01
345	  0.088937871	-7.283000E+00	  0.088937871	1.055470E+02	  0.088937871	2.865700E+01	  0.088937871	2.935900E+01
346	  0.089138277	-7.314000E+00	  0.089138277	1.048580E+02	  0.089138277	2.895200E+01	  0.089138277	2.960300E+01
347	  0.089338675	-7.338000E+00	  0.089338675	1.042000E+02	  0.089338675	2.922000E+01	  0.089338675	2.984700E+01
348	  0.089539073	-7.373000E+00	  0.089539073	1.035670E+02	  0.089539073	2.951600E+01	  0.089539073	3.005700E+01
349	  0.089739479	-7.400000E+00	  0.089739479	1.028660E+02	  0.089739479	2.981300E+01	  0.089739479	3.031100E+01
350	  0.089939877	-7.425000E+00	  0.089939877	1.022360E+02	  0.089939877	3.008600E+01	  0.089939877	3.053600E+01
351	  0.090140276	-7.457000E+00	  0.090140276	1.015920E+02	  0.090140276	3.038700E+01	  0.090140276	3.075200E+01
352	  0.090340681	-7.479000E+00	  0.090340681	1.009660E+02	  0.090340681	3.065600E+01	  0.090340681	3.098100E+01
353	  0.090541080	-7.512000E+00	  0.090541080	1.003240E+02	  0.090541080	3.096900E+01	  0.090541080	3.118800E+01
354	  0.090741485	-7.540000E+00	  0.090741485	9.970700E+01	  0.090741485	3.126000E+01	  0.090741485	3.139600E+01
355	  0.090941884	-7.573000E+00	  0.090941884	9.908800E+01	  0.090941884	3.156700E+01	  0.090941884	3.159300E+01
356	  0.091142282	-7.606000E+00	  0.091142282	9.848400E+01	  0.091142282	3.187600E+01	  0.091142282	3.177700E+01
357	  0.091342688	-7.635000E+00	  0.091342688	9.786700E+01	  0.091342688	3.217700E+01	  0.091342688	3.197900E+01
358	  0.091543086	-7.665000E+00	  0.091543086	9.725500E+01	  0.091543086	3.248500E+01	  0.091543086	3.217200E+01
359	  0.091743484	-7.695000E+00	  0.091743484	9.668500E+01	  0.091743484	3.277900E+01	  0.091743484	3.234700E+01
360	  0.091943890	-7.728000E+00	  0.091943890	9.607800E+01	  0.091943890	3.310100E+01	  0.091943890	3.252500E+01
361	  0.092144288	-7.753000E+00	  0.092144288	9.548000E+01	  0.092144288	3.339800E+01	  0.092144288	3.272000E+01
362	  0.092344686	-7.789000E+00	  0.092344686	9.490500E+01	  0.092344686	3.372000E+01	  0.092344686	3.287400E+01
363	  0.092545092	-7.816000E+00	  0.092545092	9.430800E+01	  0.092545092	3.402700E+01	  0.092545092	3.306000E+01
364	  0.092745490	-7.851000E+00	  0.092745490	9.376800E+01	  0.092745490	3.434000E+01	  0.092745490	3.319700E+01
365	  0.092945889	-7.877000E+00	  0.092945889	9.320900E+01	  0.092945889	3.463700E+01	  0.092945889	3.336300E+01
366	  0.093146294	-7.916000E+00	  0.093146294	9.263300E+01	  0.093146294	3.497700E+01	  0.093146294	3.350300E+01
367	  0.093346693	-7.942000E+00	  0.093346693	9.210400E+01	  0.093346693	3.526700E+01	  0.093346693	3.365300E+01
368	  0.093547091	-7.974000E+00	  0.093547091	9.155400E+01	  0.093547091	3.558400E+01	  0.093547091	3.379400E+01
369	  0.093747497	-8.007000E+00	  0.093747497	9.103700E+01	  0.093747497	3.589300E+01	  0.093747497	3.391500E+01
370	  0.093947895	-8.034000E+00	  0.093947895	9.045600E+01	  0.093947895	3.621300E+01	  0.093947895	3.407900E+01
371	  0.094148301	-8.072000E+00	  0.094148301	8.994800E+01	  0.094148301	3.653600E+01	  0.094148301	3.417700E+01
372	  0.094348699	-8.093000E+00	  0.094348699	8.942100E+01	  0.094348699	3.682500E+01	  0.094348699	3.433000E+01
373	  0.094549097	-8.130000E+00	  0.094549097	8.892200E+01	  0.094549097	3.714500E+01	  0.094549097	3.442300E+01
374	  0.094749503	-8.158000E+00	  0.094749503	8.840200E+01	  0.094749503	3.745200E+01	  0.094749503	3.454800E+01
375	  0.094949901	-8.190000E+00	  0.094949901	8.792300E+01	  0.094949901	3.775300E+01	  0.094949901	3.464400E+01
376	  0.095150299	-8.219000E+00	  0.095150299	8.743200E+01	  0.095150299	3.805500E+01	  0.095150299	3.475000E+01
377	  0.095350705	-8.249000E+00	  0.095350705	8.693900E+01	  0.095350705	3.836100E+01	  0.095350705	3.485400E+01
378	  0.095551103	-8.275000E+00	  0.095551103	8.642900E+01	  0.095551103	3.866800E+01	  0.095551103	3.497000E+01
379	  0.095751502	-8.306000E+00	  0.095751502	8.591700E+01	  0.095751502	3.899100E+01	  0.095751502	3.507100E+01
380	  0.095951907	-8.334000E+00	  0.095951907	8.546900E+01	  0.095951907	3.927700E+01	  0.095951907	3.515400E+01
381	  0.096152306	-8.359000E+00	  0.096152306	8.498500E+01	  0.096152306	3.957200E+01	  0.096152306	3.526100E+01
382	  0.096352704	-8.388000E+00	  0.096352704	8.455400E+01	  0.096352704	3.985500E+01	  0.096352704	3.533100E+01
383	  0.096553110	-8.410000E+00	  0.096553110	8.408200E+01	  0.096553110	4.014400E+01	  0.096553110	3.543600E+01
384	  0.096753508	-8.437000E+00	  0.096753508	8.365900E+01	  0.096753508	4.042100E+01	  0.096753508	3.550400E+01
385	  0.096953906	-8.462000E+00	  0.096953906	8.320800E+01	  0.096953906	4.070900E+01	  0.096953906	3.558800E+01
386	  0.097154312	-8.489000E+00	  0.097154312	8.275400E+01	  0.097154312	4.100600E+01	  0.097154312	3.566300E+01
387	  0.097354710	-8.513000E+00	  0.097354710	8.234200E+01	  0.097354710	4.127400E+01	  0.097354710	3.573300E+01
388	  0.097555116	-8.538000E+00	  0.097555116	8.193400E+01	  0.097555116	4.154400E+01	  0.097555116	3.579400E+01
389	  0.097755514	-8.557000E+00	  0.097755514	8.151000E+01	  0.097755514	4.181100E+01	  0.097755514	3.587900E+01
390	  0.097955912	-8.580000E+00	  0.097955912	8.107600E+01	  0.097955912	4.209300E+01	  0.097955912	3.595300E+01
391	  0.098156318	-8.607000E+00	  0.098156318	8.068100E+01	  0.098156318	4.236500E+01	  0.098156318	3.599700E+01
392	  0.098356716	-8.625000E+00	  0.098356716	8.026800E+01	  0.098356716	4.262600E+01	  0.098356716	3.608000E+01
393	  0.098557115	-8.648000E+00	  0.098557115	7.986900E+01	  0.098557115	4.289500E+01	  0.098557115	3.613300E+01
394	  0.098757520	-8.659000E+00	  0.098757520	7.947200E+01	  0.098757520	4.313400E+01	  0.098757520	3.623100E+01
395	  0.098957919	-8.679000E+00	  0.098957919	7.905300E+01	  0.098957919	4.340800E+01	  0.098957919	3.630200E+01
396	  0.099158317	-8.699000E+00	  0.099158317	7.865300E+01	  0.099158317	4.367300E+01	  0.099158317	3.636300E+01
397	  0.099358723	-8.716000E+00	  0.099358723	7.823400E+01	  0.099358723	4.394400E+01	  0.099358723	3.644000E+01
398	  0.099559121	-8.733000E+00	  0.099559121	7.786300E+01	  0.099559121	4.418900E+01	  0.099559121	3.649700E+01
399	  0.099759519	-8.746000E+00	  0.099759519	7.744800E+01	  0.099759519	4.445200E+01	  0.099759519	3.658500E+01
400	  0.099959925	-8.758000E+00	  0.099959925	7.708500E+01	  0.099959925	4.468400E+01	  0.099959925	3.665800E+01
401	  0.100160323	-8.761000E+00	  0.100160323	7.672500E+01	  0.100160323	4.489800E+01	  0.100160323	3.676000E+01
402	  0.100360721	-8.783000E+00	  0.100360721	7.632000E+01	  0.100360721	4.517700E+01	  0.100360721	3.680800E+01
403	  0.100561127	-8.790000E+00	  0.100561127	7.585200E+01	  0.100561127	4.546600E+01	  0.100561127	3.692700E+01
404	  0.100761525	-8.797000E+00	  0.100761525	7.546800E+01	  0.100761525	4.570600E+01	  0.100761525	3.701900E+01
405	  0.100961931	-8.805000E+00	  0.100961931	7.509700E+01	  0.100961931	4.594200E+01	  0.100961931	3.710400E+01
406	  0.101162329	-8.804000E+00	  0.101162329	7.468000E+01	  0.101162329	4.619000E+01	  0.101162329	3.723400E+01
407	  0.101362728	-8.816000E+00	  0.101362728	7.434500E+01	  0.101362728	4.641600E+01	  0.101362728	3.729000E+01
408	  0.101563133	-8.813000E+00	  0.101563133	7.396400E+01	  0.101563133	4.664100E+01	  0.101563133	3.741500E+01
409	  0.101763532	-8.828000E+00	  0.101763532	7.354600E+01	  0.101763532	4.692600E+01	  0.101763532	3.748000E+01
410	  0.101963930	-8.821000E+00	  0.101963930	7.319800E+01	  0.101963930	4.712700E+01	  0.101963930	3.761400E+01
411	  0.102164328	-8.825000E+00	  0.102164328	7.279100E+01	  0.102164328	4.738700E+01	  0.102164328	3.771600E+01
412	  0.102364726	-8.827000E+00	  0.102364726	7.239400E+01	  0.102364726	4.763900E+01	  0.102364726	3.782600E+01
413	  0.102565125	-8.818000E+00	  0.102565125	7.195400E+01	  0.102565125	4.790000E+01	  0.102565125	3.799000E+01
414	  0.102765530	-8.815000E+00	  0.102765530	7.156000E+01	  0.102765530	4.814600E+01	  0.102765530	3.811300E+01
415	  0.102965929	-8.817000E+00	  0.102965929	7.123000E+01	  0.102965929	4.836100E+01	  0.102965929	3.820000E+01
416	  0.103166327	-8.805000E+00	  0.103166327	7.082300E+01	  0.103166327	4.860400E+01	  0.103166327	3.836400E+01
417	  0.103366733	-8.804000E+00	  0.103366733	7.040900E+01	  0.103366733	4.887200E+01	  0.103366733	3.848700E+01
418	  0.103567131	-8.800000E+00	  0.103567131	7.001400E+01	  0.103567131	4.912600E+01	  0.103567131	3.861000E+01
419	  0.103767529	-8.800000E+00	  0.103767529	6.960800E+01	  0.103767529	4.939500E+01	  0.103767529	3.872400E+01
420	  0.103967935	-8.787000E+00	  0.103967935	6.914000E+01	  0.103967935	4.968700E+01	  0.103967935	3.890500E+01
421	  0.104168333	-8.784000E+00	  0.104168333	6.878900E+01	  0.104168333	4.991900E+01	  0.104168333	3.901400E+01
422	  0.104368731	-8.777000E+00	  0.104368731	6.834500E+01	  0.104368731	5.021000E+01	  0.104368731	3.916400E+01
423	  0.104569137	-8.764000E+00	  0.104569137	6.794700E+01	  0.104569137	5.046100E+01	  0.104569137	3.932900E+01
424	  0.104769535	-8.758000E+00	  0.104769535	6.742800E+01	  0.104769535	5.081200E+01	  0.104769535	3.949200E+01
425	  0.104969934	-8.767000E+00	  0.104969934	6.700700E+01	  0.104969934	5.112400E+01	  0.104969934	3.955700E+01
426	  0.105170339	-8.739000E+00	  0.105170339	6.659100E+01	  0.105170339	5.137300E+01	  0.105170339	3.979200E+01
427	  0.105370738	-8.735000E+00	  0.105370738	6.617200E+01	  0.105370738	5.166600E+01	  0.105370738	3.991600E+01
428	  0.105571143	-8.723000E+00	  0.105571143	6.566400E+01	  0.105571143	5.201400E+01	  0.105571143	4.010100E+01
429	  0.105771542	-8.721000E+00	  0.105771542	6.519600E+01	  0.105771542	5.235300E+01	  0.105771542	4.022400E+01
430	  0.105971940	-8.714000E+00	  0.105971940	6.469700E+01	  0.105971940	5.271100E+01	  0.105971940	4.037700E+01
431	  0.106172346	-8.703000E+00	  0.106172346	6.420800E+01	  0.106172346	5.306000E+01	  0.106172346	4.054600E+01
432	  0.106372744	-8.696000E+00	  0.106372744	6.369000E+01	  0.106372744	5.344000E+01	  0.106372744	4.069800E+01
433	  0.106573142	-8.688000E+00	  0.106573142	6.318600E+01	  0.106573142	5.381300E+01	  0.106573142	4.085100E+01
434	  0.106773548	-8.684000E+00	  0.106773548	6.269800E+01	  0.106773548	5.418400E+01	  0.106773548	4.097900E+01
435	  0.106973946	-8.667000E+00	  0.106973946	6.220100E+01	  0.106973946	5.454700E+01	  0.106973946	4.117200E+01
436	  0.107174344	-8.659000E+00	  0.107174344	6.157700E+01	  0.107174344	5.502900E+01	  0.107174344	4.134300E+01
437	  0.107374750	-8.656000E+00	  0.107374750	6.108500E+01	  0.107374750	5.541700E+01	  0.107374750	4.146300E+01
438	  0.107575148	-8.649000E+00	  0.107575148	6.054100E+01	  0.107575148	5.584700E+01	  0.107575148	4.160400E+01
439	  0.107775547	-8.642000E+00	  0.107775547	6.000900E+01	  0.107775547	5.627200E+01	  0.107775547	4.174300E+01
440	  0.107975952	-8.632000E+00	  0.107975952	5.947500E+01	  0.107975952	5.670000E+01	  0.107975952	4.189700E+01
441	  0.108176351	-8.621000E+00	  0.108176351	5.896800E+01	  0.108176351	5.711000E+01	  0.108176351	4.204900E+01
442	  0.108376749	-8.610000E+00	  0.108376749	5.840600E+01	  0.108376749	5.757100E+01	  0.108376749	4.220500E+01
443	  0.108577155	-8.604000E+00	  0.108577155	5.785700E+01	  0.108577155	5.803200E+01	  0.108577155	4.233200E+01
444	  0.108777553	-8.597000E+00	  0.108777553	5.729400E+01	  0.108777553	5.851100E+01	  0.108777553	4.245700E+01
445	  0.108977959	-8.583000E+00	  0.108977959	5.674300E+01	  0.108977959	5.897700E+01	  0.108977959	4.262500E+01
446	  0.109178357	-8.574000E+00	  0.109178357	5.616800E+01	  0.109178357	5.947700E+01	  0.109178357	4.275800E+01
447	  0.109378755	-8.571000E+00	  0.109378755	5.561300E+01	  0.109378755	5.996900E+01	  0.109378755	4.284800E+01
448	  0.109579161	-8.560000E+00	  0.109579161	5.502800E+01	  0.109579161	6.048800E+01	  0.109579161	4.298900E+01
449	  0.109779559	-8.541000E+00	  0.109779559	5.447800E+01	  0.109779559	6.097600E+01	  0.109779559	4.316500E+01
450	  0.109979957	-8.542000E+00	  0.109979957	5.389300E+01	  0.109979957	6.151700E+01	  0.109979957	4.322400E+01
451	  0.110180363	-8.525000E+00	  0.110180363	5.330900E+01	  0.110180363	6.205200E+01	  0.110180363	4.338500E+01
452	  0.110380761	-8.513000E+00	  0.110380761	5.268800E+01	  0.110380761	6.263200E+01	  0.110380761	4.351100E+01
453	  0.110581160	-8.505000E+00	  0.110581160	5.207300E+01	  0.110581160	6.321600E+01	  0.110581160	4.361400E+01
454	  0.110781565	-8.496000E+00	  0.110781565	5.153000E+01	  0.110781565	6.373800E+01	  0.110781565	4.370300E+01
455	  0.110981964	-8.484000E+00	  0.110981964	5.084400E+01	  0.110981964	6.440500E+01	  0.110981964	4.382200E+01
456	  0.111182362	-8.472000E+00	  0.111182362	5.026300E+01	  0.111182362	6.497700E+01	  0.111182362	4.392300E+01
457	  0.111382768	-8.460000E+00	  0.111382768	4.959900E+01	  0.111382768	6.564000E+01	  0.111382768	4.402200E+01
458	  0.111583166	-8.454000E+00	  0.111583166	4.900200E+01	  0.111583166	6.624500E+01	  0.111583166	4.406900E+01
459	  0.111783572	-8.444000E+00	  0.111783572	4.831500E+01	  0.111783572	6.694900E+01	  0.111783572	4.413500E+01
460	  0.111983970	-8.433000E+00	  0.111983970	4.766300E+01	  0.111983970	6.762700E+01	  0.111983970	4.420700E+01
461	  0.112184368	-8.428000E+00	  0.112184368	4.696500E+01	  0.112184368	6.836000E+01	  0.112184368	4.421900E+01
462	  0.112384774	-8.421000E+00	  0.112384774	4.627500E+01	  0.112384774	6.909500E+01	  0.112384774	4.423900E+01
463	  0.112585172	-8.413000E+00	  0.112585172	4.557600E+01	  0.112585172	6.984800E+01	  0.112585172	4.425100E+01
464	  0.112785570	-8.410000E+00	  0.112785570	4.488700E+01	  0.112785570	7.059600E+01	  0.112785570	4.420800E+01
465	  0.112985976	-8.402000E+00	  0.112985976	4.414800E+01	  0.112985976	7.141100E+01	  0.112985976	4.419600E+01
466	  0.113186374	-8.395000E+00	  0.113186374	4.340600E+01	  0.113186374	7.223900E+01	  0.113186374	4.415300E+01
467	  0.113386773	-8.398000E+00	  0.113386773	4.268700E+01	  0.113386773	7.304000E+01	  0.113386773	4.402700E+01
468	  0.113587178	-8.387000E+00	  0.113587178	4.191400E+01	  0.113587178	7.392400E+01	  0.113587178	4.398000E+01
469	  0.113787577	-8.388000E+00	  0.113787577	4.114800E+01	  0.113787577	7.479600E+01	  0.113787577	4.382800E+01
470	  0.113987975	-8.384000E+00	  0.113987975	4.031400E+01	  0.113987975	7.576100E+01	  0.113987975	4.367500E+01
471	  0.114188381	-8.382000E+00	  0.114188381	3.950900E+01	  0.114188381	7.669700E+01	  0.114188381	4.348700E+01
472	  0.114388779	-8.397000E+00	  0.114388779	3.871400E+01	  0.114388779	7.759800E+01	  0.114388779	4.315600E+01
473	  0.114589177	-8.386000E+00	  0.114589177	3.794400E+01	  0.114589177	7.852300E+01	  0.114589177	4.300500E+01
474	  0.114789583	-8.391000E+00	  0.114789583	3.710200E+01	  0.114789583	7.950700E+01	  0.114789583	4.268600E+01
475	  0.114989981	-8.392000E+00	  0.114989981	3.624200E+01	  0.114989981	8.052900E+01	  0.114989981	4.236900E+01
476	  0.115190387	-8.400000E+00	  0.115190387	3.543300E+01	  0.115190387	8.147000E+01	  0.115190387	4.197700E+01
477	  0.115390785	-8.411000E+00	  0.115390785	3.456100E+01	  0.115390785	8.248200E+01	  0.115390785	4.151600E+01
478	  0.115591183	-8.417000E+00	  0.115591183	3.366200E+01	  0.115591183	8.353900E+01	  0.115591183	4.104900E+01
479	  0.115791589	-8.427000E+00	  0.115791589	3.280800E+01	  0.115791589	8.452700E+01	  0.115791589	4.054000E+01
480	  0.115991987	-8.444000E+00	  0.115991987	3.191100E+01	  0.115991987	8.553500E+01	  0.115991987	3.991300E+01
481	  0.116192386	-8.456000E+00	  0.116192386	3.099900E+01	  0.116192386	8.657600E+01	  0.116192386	3.929100E+01
482	  0.116392791	-8.476000E+00	  0.116392791	3.007200E+01	  0.116392791	8.758900E+01	  0.116392791	3.855400E+01
483	  0.116593190	-8.495000E+00	  0.116593190	2.915000E+01	  0.116593190	8.859200E+01	  0.116593190	3.780100E+01
484	  0.116793588	-8.515000E+00	  0.116793588	2.820100E+01	  0.116793588	8.959900E+01	  0.116793588	3.697200E+01
485	  0.116993994	-8.544000E+00	  0.116993994	2.724400E+01	  0.116993994	9.055800E+01	  0.116993994	3.604300E+01
486	  0.117194392	-8.572000E+00	  0.117194392	2.624400E+01	  0.117194392	9.153900E+01	  0.117194392	3.504000E+01
487	  0.117394790	-8.602000E+00	  0.117394790	2.528200E+01	  0.117394790	9.244100E+01	  0.117394790	3.402000E+01
488	  0.117595196	-8.633000E+00	  0.117595196	2.426800E+01	  0.117595196	9.336600E+01	  0.117595196	3.291500E+01
489	  0.117795594	-8.668000E+00	  0.117795594	2.327300E+01	  0.117795594	9.420600E+01	  0.117795594	3.175700E+01
490	  0.117995992	-8.710000E+00	  0.117995992	2.219100E+01	  0.117995992	9.505500E+01	  0.117995992	3.043800E+01
