! Anritsu VNA Master:             	Model: MS2036C/10/77
! SN:             	1601066
! /bd0/18may10/252.ns.m12.txt
! Existing Calibration Information:
! TYPE:             	Current Settings	Active Cal Settings
! TIME:             	05/10/2018 06:04:05 PM	05/10/2018 05:49:06 PM
! INTERNAL TEMP:    	59.8 C	59.5 C
! # POINTS:         	490	490
! START FREQ:       	20.000 MHz	20.000 MHz
! STOP FREQ:        	117.995 991 MHz	117.995 991 MHz
! SOURCE POWER:     	High	High
! IFBW:             	50 Hz	50 Hz
! AVG FACTOR:       	  1 	  1 
! REF PLANE 1:      	0 mm	0 mm
! REF PLANE 2:      	0 mm	0 mm
! CAL TYPE:         	Full S22	Full S22
! CAL METHOD:       	SOLT	SOLT
! CAL LINE TYPE:    	Coax	Coax
! DUT PORT 1:       	K-Conn(M)	K-Conn(M)
! DUT PORT 2:       	K-Conn(M)	K-Conn(M)
! CAL STATUS:       	OK: Accuracy High	--
! PROP-V:       	0.700
! CABLE LOSS:       	0.000 dB/m
! REF IMPEDANCE:       	50.0
! Trace Specific Parameters:	TR1	TR2	TR3	TR4
! TRACE.#.Y (GRAPH TYPE)	LOG MAG	PHASE	REAL IMPEDANCE	IMAGINARY IMPEDANCE
! TRACE.#.X 	FREQ.GHZ	FREQ.GHZ	FREQ.GHZ	FREQ.GHZ
! S-PARAMETER	S22	S22	S22	S22
! SMOOTH/APERTURE %	0	0	0	0
! WINDOW	NSL	NSL	NSL	NSL
! GATING	OFF	OFF	OFF	OFF
! FGTD	OFF	OFF	OFF	OFF
Marker Information per Trace:	TR1	TR2	TR3	TR4
!MK1	--	"MK1 TR2:  20.000 MHz,PH:-125.37°"	--	--
!MK2	--	--	"MK2 TR3:  70.100 200 MHz,Z:(16.716 ohm, -1.614 ohm)"	--
!MK3	--	--	--	--
!MK4	--	--	--	--
!MK5	--	--	--	--
!MK6	--	--	--	--
!MK7	--	--	--	--
!MK8	--	--	--	--
PNT	TR1.FREQ.GHZ	TR1.LOG MAG.dB	TR2.FREQ.GHZ	TR2.PHASE.deg	TR3.FREQ.GHZ	TR3.REAL IMPEDANCE.ohm	TR4.FREQ.GHZ	TR4.IMAGINARY IMPEDANCE.ohm
1	  0.020000000	-6.370000E-01	  0.020000000	-1.253680E+02	  0.020000000	2.323000E+00	  0.020000000	-2.578000E+01
2	  0.020200402	-6.410000E-01	  0.020200402	-1.268120E+02	  0.020200402	2.305000E+00	  0.020200402	-2.498800E+01
3	  0.020400802	-6.450000E-01	  0.020400802	-1.282610E+02	  0.020400802	2.291000E+00	  0.020400802	-2.420400E+01
4	  0.020601204	-6.490000E-01	  0.020601204	-1.297250E+02	  0.020601204	2.278000E+00	  0.020601204	-2.342100E+01
5	  0.020801604	-6.520000E-01	  0.020801604	-1.312270E+02	  0.020801604	2.263000E+00	  0.020801604	-2.262700E+01
6	  0.021002004	-6.550000E-01	  0.021002004	-1.327340E+02	  0.021002004	2.246000E+00	  0.021002004	-2.184100E+01
7	  0.021202406	-6.600000E-01	  0.021202406	-1.342580E+02	  0.021202406	2.236000E+00	  0.021202406	-2.105500E+01
8	  0.021402806	-6.630000E-01	  0.021402806	-1.357590E+02	  0.021402806	2.223000E+00	  0.021402806	-2.028800E+01
9	  0.021603208	-6.660000E-01	  0.021603208	-1.372720E+02	  0.021603208	2.209000E+00	  0.021603208	-1.952500E+01
10	  0.021803608	-6.700000E-01	  0.021803608	-1.387890E+02	  0.021803608	2.201000E+00	  0.021803608	-1.876700E+01
11	  0.022004008	-6.770000E-01	  0.022004008	-1.402990E+02	  0.022004008	2.201000E+00	  0.022004008	-1.801900E+01
12	  0.022204408	-6.840000E-01	  0.022204408	-1.418330E+02	  0.022204408	2.204000E+00	  0.022204408	-1.726700E+01
13	  0.022404809	-6.900000E-01	  0.022404809	-1.433810E+02	  0.022404809	2.201000E+00	  0.022404809	-1.651600E+01
14	  0.022605211	-6.920000E-01	  0.022605211	-1.449690E+02	  0.022605211	2.189000E+00	  0.022605211	-1.575100E+01
15	  0.022805611	-6.920000E-01	  0.022805611	-1.465340E+02	  0.022805611	2.171000E+00	  0.022805611	-1.500500E+01
16	  0.023006011	-6.980000E-01	  0.023006011	-1.481080E+02	  0.023006011	2.171000E+00	  0.023006011	-1.426100E+01
17	  0.023206413	-7.040000E-01	  0.023206413	-1.496680E+02	  0.023206413	2.173000E+00	  0.023206413	-1.352800E+01
18	  0.023406813	-7.090000E-01	  0.023406813	-1.512260E+02	  0.023406813	2.175000E+00	  0.023406813	-1.280200E+01
19	  0.023607215	-7.160000E-01	  0.023607215	-1.528160E+02	  0.023607215	2.180000E+00	  0.023607215	-1.206600E+01
20	  0.023807615	-7.230000E-01	  0.023807615	-1.544090E+02	  0.023807615	2.189000E+00	  0.023807615	-1.133400E+01
21	  0.024008015	-7.300000E-01	  0.024008015	-1.560250E+02	  0.024008015	2.196000E+00	  0.024008015	-1.059600E+01
22	  0.024208417	-7.370000E-01	  0.024208417	-1.576660E+02	  0.024208417	2.204000E+00	  0.024208417	-9.851000E+00
23	  0.024408817	-7.430000E-01	  0.024408817	-1.593020E+02	  0.024408817	2.210000E+00	  0.024408817	-9.113000E+00
24	  0.024609219	-7.490000E-01	  0.024609219	-1.609380E+02	  0.024609219	2.216000E+00	  0.024609219	-8.378000E+00
25	  0.024809619	-7.570000E-01	  0.024809619	-1.625830E+02	  0.024809619	2.228000E+00	  0.024809619	-7.643000E+00
26	  0.025010020	-7.650000E-01	  0.025010020	-1.642340E+02	  0.025010020	2.244000E+00	  0.025010020	-6.908000E+00
27	  0.025210422	-7.750000E-01	  0.025210422	-1.659000E+02	  0.025210422	2.266000E+00	  0.025210422	-6.170000E+00
28	  0.025410822	-7.860000E-01	  0.025410822	-1.675740E+02	  0.025410822	2.287000E+00	  0.025410822	-5.431000E+00
29	  0.025611224	-7.980000E-01	  0.025611224	-1.692590E+02	  0.025611224	2.315000E+00	  0.025611224	-4.690000E+00
30	  0.025811624	-8.080000E-01	  0.025811624	-1.709490E+02	  0.025811624	2.340000E+00	  0.025811624	-3.948000E+00
31	  0.026012026	-8.180000E-01	  0.026012026	-1.726600E+02	  0.026012026	2.364000E+00	  0.026012026	-3.199000E+00
32	  0.026212426	-8.290000E-01	  0.026212426	-1.743660E+02	  0.026212426	2.391000E+00	  0.026212426	-2.454000E+00
33	  0.026412826	-8.420000E-01	  0.026412826	-1.760850E+02	  0.026412826	2.427000E+00	  0.026412826	-1.704000E+00
34	  0.026613226	-8.560000E-01	  0.026613226	-1.778290E+02	  0.026613226	2.464000E+00	  0.026613226	-9.440000E-01
35	  0.026813626	-8.720000E-01	  0.026813626	-1.795700E+02	  0.026813626	2.510000E+00	  0.026813626	-1.870000E-01
36	  0.027014028	-8.880000E-01	  0.027014028	1.786800E+02	  0.027014028	2.555000E+00	  0.027014028	5.740000E-01
37	  0.027214428	-9.050000E-01	  0.027214428	1.769280E+02	  0.027214428	2.605000E+00	  0.027214428	1.336000E+00
38	  0.027414829	-9.240000E-01	  0.027414829	1.751570E+02	  0.027414829	2.662000E+00	  0.027414829	2.108000E+00
39	  0.027615231	-9.390000E-01	  0.027615231	1.733800E+02	  0.027615231	2.711000E+00	  0.027615231	2.883000E+00
40	  0.027815631	-9.590000E-01	  0.027815631	1.715870E+02	  0.027815631	2.775000E+00	  0.027815631	3.665000E+00
41	  0.028016033	-9.780000E-01	  0.028016033	1.697800E+02	  0.028016033	2.835000E+00	  0.028016033	4.456000E+00
42	  0.028216433	-1.000000E+00	  0.028216433	1.679700E+02	  0.028216433	2.908000E+00	  0.028216433	5.250000E+00
43	  0.028416833	-1.022000E+00	  0.028416833	1.661430E+02	  0.028416833	2.982000E+00	  0.028416833	6.054000E+00
44	  0.028617235	-1.044000E+00	  0.028617235	1.643090E+02	  0.028617235	3.058000E+00	  0.028617235	6.864000E+00
45	  0.028817635	-1.068000E+00	  0.028817635	1.624840E+02	  0.028817635	3.143000E+00	  0.028817635	7.672000E+00
46	  0.029018037	-1.093000E+00	  0.029018037	1.606550E+02	  0.029018037	3.233000E+00	  0.029018037	8.487000E+00
47	  0.029218437	-1.119000E+00	  0.029218437	1.588090E+02	  0.029218437	3.331000E+00	  0.029218437	9.312000E+00
48	  0.029418837	-1.147000E+00	  0.029418837	1.569320E+02	  0.029418837	3.434000E+00	  0.029418837	1.015700E+01
49	  0.029619239	-1.175000E+00	  0.029619239	1.550610E+02	  0.029619239	3.541000E+00	  0.029619239	1.100300E+01
50	  0.029819639	-1.203000E+00	  0.029819639	1.531840E+02	  0.029819639	3.652000E+00	  0.029819639	1.185800E+01
51	  0.030020041	-1.232000E+00	  0.030020041	1.512930E+02	  0.030020041	3.772000E+00	  0.030020041	1.272600E+01
52	  0.030220442	-1.262000E+00	  0.030220442	1.494110E+02	  0.030220442	3.895000E+00	  0.030220442	1.359500E+01
53	  0.030420844	-1.292000E+00	  0.030420844	1.475320E+02	  0.030420844	4.025000E+00	  0.030420844	1.447100E+01
54	  0.030621244	-1.325000E+00	  0.030621244	1.456590E+02	  0.030621244	4.169000E+00	  0.030621244	1.535000E+01
55	  0.030821642	-1.358000E+00	  0.030821642	1.437800E+02	  0.030821642	4.318000E+00	  0.030821642	1.624100E+01
56	  0.031022044	-1.392000E+00	  0.031022044	1.418790E+02	  0.031022044	4.472000E+00	  0.031022044	1.715100E+01
57	  0.031222444	-1.421000E+00	  0.031222444	1.399830E+02	  0.031222444	4.620000E+00	  0.031222444	1.806900E+01
58	  0.031422846	-1.455000E+00	  0.031422846	1.380700E+02	  0.031422846	4.787000E+00	  0.031422846	1.900400E+01
59	  0.031623244	-1.492000E+00	  0.031623244	1.361290E+02	  0.031623244	4.974000E+00	  0.031623244	1.996300E+01
60	  0.031823646	-1.525000E+00	  0.031823646	1.342000E+02	  0.031823646	5.153000E+00	  0.031823646	2.092900E+01
61	  0.032024048	-1.559000E+00	  0.032024048	1.322840E+02	  0.032024048	5.342000E+00	  0.032024048	2.190100E+01
62	  0.032224450	-1.594000E+00	  0.032224450	1.303390E+02	  0.032224450	5.545000E+00	  0.032224450	2.290000E+01
63	  0.032424849	-1.630000E+00	  0.032424849	1.283810E+02	  0.032424849	5.760000E+00	  0.032424849	2.392000E+01
64	  0.032625251	-1.665000E+00	  0.032625251	1.264120E+02	  0.032625251	5.985000E+00	  0.032625251	2.496100E+01
65	  0.032825653	-1.699000E+00	  0.032825653	1.244130E+02	  0.032825653	6.214000E+00	  0.032825653	2.603500E+01
66	  0.033026051	-1.733000E+00	  0.033026051	1.224140E+02	  0.033026051	6.454000E+00	  0.033026051	2.712600E+01
67	  0.033226453	-1.773000E+00	  0.033226453	1.204130E+02	  0.033226453	6.731000E+00	  0.033226453	2.823500E+01
68	  0.033426855	-1.805000E+00	  0.033426855	1.184040E+02	  0.033426855	6.991000E+00	  0.033426855	2.937100E+01
69	  0.033627257	-1.844000E+00	  0.033627257	1.163980E+02	  0.033627257	7.290000E+00	  0.033627257	3.052400E+01
70	  0.033827655	-1.886000E+00	  0.033827655	1.143990E+02	  0.033827655	7.616000E+00	  0.033827655	3.169200E+01
71	  0.034028057	-1.925000E+00	  0.034028057	1.123540E+02	  0.034028057	7.952000E+00	  0.034028057	3.291200E+01
72	  0.034228459	-1.964000E+00	  0.034228459	1.103370E+02	  0.034228459	8.307000E+00	  0.034228459	3.414000E+01
73	  0.034428857	-2.008000E+00	  0.034428857	1.082730E+02	  0.034428857	8.704000E+00	  0.034428857	3.542000E+01
74	  0.034629259	-2.049000E+00	  0.034629259	1.062000E+02	  0.034629259	9.111000E+00	  0.034629259	3.673700E+01
75	  0.034829661	-2.095000E+00	  0.034829661	1.041370E+02	  0.034829661	9.565000E+00	  0.034829661	3.807200E+01
76	  0.035030060	-2.141000E+00	  0.035030060	1.020530E+02	  0.035030060	1.004800E+01	  0.035030060	3.945300E+01
77	  0.035230462	-2.188000E+00	  0.035230462	9.997700E+01	  0.035230462	1.056600E+01	  0.035230462	4.085900E+01
78	  0.035430863	-2.238000E+00	  0.035430863	9.790200E+01	  0.035430863	1.112700E+01	  0.035430863	4.229700E+01
79	  0.035631265	-2.287000E+00	  0.035631265	9.582300E+01	  0.035631265	1.172100E+01	  0.035631265	4.377400E+01
80	  0.035831664	-2.336000E+00	  0.035831664	9.373200E+01	  0.035831664	1.235600E+01	  0.035831664	4.529700E+01
81	  0.036032066	-2.388000E+00	  0.036032066	9.163700E+01	  0.036032066	1.305100E+01	  0.036032066	4.685800E+01
82	  0.036232468	-2.438000E+00	  0.036232468	8.952900E+01	  0.036232468	1.378700E+01	  0.036232468	4.847300E+01
83	  0.036432866	-2.489000E+00	  0.036432866	8.743100E+01	  0.036432866	1.457900E+01	  0.036432866	5.012200E+01
84	  0.036633268	-2.541000E+00	  0.036633268	8.531100E+01	  0.036633268	1.543600E+01	  0.036633268	5.183400E+01
85	  0.036833670	-2.594000E+00	  0.036833670	8.320800E+01	  0.036833670	1.635700E+01	  0.036833670	5.357600E+01
86	  0.037034072	-2.648000E+00	  0.037034072	8.109200E+01	  0.037034072	1.735700E+01	  0.037034072	5.537700E+01
87	  0.037234470	-2.702000E+00	  0.037234470	7.896200E+01	  0.037234470	1.844000E+01	  0.037234470	5.724000E+01
88	  0.037434869	-2.758000E+00	  0.037434869	7.685700E+01	  0.037434869	1.960800E+01	  0.037434869	5.912600E+01
89	  0.037635271	-2.816000E+00	  0.037635271	7.473400E+01	  0.037635271	2.088800E+01	  0.037635271	6.107900E+01
90	  0.037835669	-2.876000E+00	  0.037835669	7.258200E+01	  0.037835669	2.230600E+01	  0.037835669	6.310400E+01
91	  0.038036071	-2.942000E+00	  0.038036071	7.046300E+01	  0.038036071	2.386200E+01	  0.038036071	6.512600E+01
92	  0.038236473	-3.008000E+00	  0.038236473	6.840000E+01	  0.038236473	2.551300E+01	  0.038236473	6.713300E+01
93	  0.038436871	-3.066000E+00	  0.038436871	6.631700E+01	  0.038436871	2.725000E+01	  0.038436871	6.924100E+01
94	  0.038637273	-3.120000E+00	  0.038637273	6.422100E+01	  0.038637273	2.911800E+01	  0.038637273	7.142600E+01
95	  0.038837675	-3.175000E+00	  0.038837675	6.210200E+01	  0.038837675	3.116300E+01	  0.038837675	7.368900E+01
96	  0.039038073	-3.229000E+00	  0.039038073	5.999600E+01	  0.039038073	3.337800E+01	  0.039038073	7.598200E+01
97	  0.039238475	-3.285000E+00	  0.039238475	5.791100E+01	  0.039238475	3.578300E+01	  0.039238475	7.828000E+01
98	  0.039438877	-3.341000E+00	  0.039438877	5.582000E+01	  0.039438877	3.841500E+01	  0.039438877	8.061400E+01
99	  0.039639279	-3.397000E+00	  0.039639279	5.372800E+01	  0.039639279	4.128600E+01	  0.039639279	8.296900E+01
100	  0.039839678	-3.455000E+00	  0.039839678	5.161000E+01	  0.039839678	4.447100E+01	  0.039839678	8.534900E+01
101	  0.040040080	-3.510000E+00	  0.040040080	4.950300E+01	  0.040040080	4.790600E+01	  0.040040080	8.773400E+01
102	  0.040240481	-3.567000E+00	  0.040240481	4.740200E+01	  0.040240481	5.166900E+01	  0.040240481	9.006000E+01
103	  0.040440880	-3.623000E+00	  0.040440880	4.530100E+01	  0.040440880	5.578000E+01	  0.040440880	9.233200E+01
104	  0.040641282	-3.679000E+00	  0.040641282	4.324500E+01	  0.040641282	6.017100E+01	  0.040641282	9.445700E+01
105	  0.040841684	-3.735000E+00	  0.040841684	4.116300E+01	  0.040841684	6.500900E+01	  0.040841684	9.648300E+01
106	  0.041042086	-3.792000E+00	  0.041042086	3.910400E+01	  0.041042086	7.022300E+01	  0.041042086	9.829800E+01
107	  0.041242484	-3.851000E+00	  0.041242484	3.703100E+01	  0.041242484	7.593800E+01	  0.041242484	9.983300E+01
108	  0.041442886	-3.906000E+00	  0.041442886	3.496900E+01	  0.041442886	8.204800E+01	  0.041442886	1.011260E+02
109	  0.041643288	-3.963000E+00	  0.041643288	3.288800E+01	  0.041643288	8.871500E+01	  0.041643288	1.019850E+02
110	  0.041843686	-4.019000E+00	  0.041843686	3.079700E+01	  0.041843686	9.588500E+01	  0.041843686	1.024000E+02
111	  0.042044088	-4.074000E+00	  0.042044088	2.874700E+01	  0.042044088	1.033720E+02	  0.042044088	1.022070E+02
112	  0.042244490	-4.129000E+00	  0.042244490	2.668400E+01	  0.042244490	1.113240E+02	  0.042244490	1.012920E+02
113	  0.042444889	-4.184000E+00	  0.042444889	2.464400E+01	  0.042444889	1.195380E+02	  0.042444889	9.957000E+01
114	  0.042645290	-4.241000E+00	  0.042645290	2.260600E+01	  0.042645290	1.279840E+02	  0.042645290	9.685600E+01
115	  0.042845692	-4.294000E+00	  0.042845692	2.056600E+01	  0.042845692	1.365740E+02	  0.042845692	9.319800E+01
116	  0.043046094	-4.347000E+00	  0.043046094	1.853000E+01	  0.043046094	1.451180E+02	  0.043046094	8.840500E+01
117	  0.043246493	-4.403000E+00	  0.043246493	1.647600E+01	  0.043246493	1.534620E+02	  0.043246493	8.229100E+01
118	  0.043446895	-4.453000E+00	  0.043446895	1.446300E+01	  0.043446895	1.612420E+02	  0.043446895	7.520000E+01
119	  0.043647297	-4.501000E+00	  0.043647297	1.244800E+01	  0.043647297	1.684100E+02	  0.043647297	6.700200E+01
120	  0.043847695	-4.553000E+00	  0.043847695	1.044400E+01	  0.043847695	1.745230E+02	  0.043847695	5.766800E+01
121	  0.044048097	-4.604000E+00	  0.044048097	8.453000E+00	  0.044048097	1.794890E+02	  0.044048097	4.752200E+01
122	  0.044248499	-4.653000E+00	  0.044248499	6.465000E+00	  0.044248499	1.831730E+02	  0.044248499	3.671600E+01
123	  0.044448901	-4.702000E+00	  0.044448901	4.506000E+00	  0.044448901	1.853920E+02	  0.044448901	2.563700E+01
124	  0.044649299	-4.750000E+00	  0.044649299	2.546000E+00	  0.044649299	1.861910E+02	  0.044649299	1.439700E+01
125	  0.044849701	-4.792000E+00	  0.044849701	5.750000E-01	  0.044849701	1.857490E+02	  0.044849701	3.213000E+00
126	  0.045050103	-4.838000E+00	  0.045050103	-1.353000E+00	  0.045050103	1.838160E+02	  0.045050103	-7.406000E+00
127	  0.045250501	-4.881000E+00	  0.045250501	-3.288000E+00	  0.045250501	1.807720E+02	  0.045250501	-1.751700E+01
128	  0.045450903	-4.925000E+00	  0.045450903	-5.206000E+00	  0.045450903	1.766220E+02	  0.045450903	-2.680100E+01
129	  0.045651305	-4.968000E+00	  0.045651305	-7.133000E+00	  0.045651305	1.716550E+02	  0.045651305	-3.530700E+01
130	  0.045851704	-5.008000E+00	  0.045851704	-9.028000E+00	  0.045851704	1.661570E+02	  0.045851704	-4.280800E+01
131	  0.046052102	-5.050000E+00	  0.046052102	-1.089700E+01	  0.046052102	1.601910E+02	  0.046052102	-4.926400E+01
132	  0.046252504	-5.091000E+00	  0.046252504	-1.277500E+01	  0.046252504	1.539030E+02	  0.046252504	-5.486400E+01
133	  0.046452906	-5.127000E+00	  0.046452906	-1.462200E+01	  0.046452906	1.476310E+02	  0.046452906	-5.961200E+01
134	  0.046653304	-5.167000E+00	  0.046653304	-1.649300E+01	  0.046653304	1.411420E+02	  0.046653304	-6.353200E+01
135	  0.046853706	-5.203000E+00	  0.046853706	-1.834500E+01	  0.046853706	1.348190E+02	  0.046853706	-6.675800E+01
136	  0.047054108	-5.237000E+00	  0.047054108	-2.020900E+01	  0.047054108	1.285880E+02	  0.047054108	-6.938800E+01
137	  0.047254506	-5.273000E+00	  0.047254506	-2.206400E+01	  0.047254506	1.225190E+02	  0.047254506	-7.134300E+01
138	  0.047454908	-5.304000E+00	  0.047454908	-2.388700E+01	  0.047454908	1.167890E+02	  0.047454908	-7.282200E+01
139	  0.047655310	-5.335000E+00	  0.047655310	-2.572500E+01	  0.047655310	1.112410E+02	  0.047655310	-7.386900E+01
140	  0.047855709	-5.366000E+00	  0.047855709	-2.753700E+01	  0.047855709	1.060080E+02	  0.047855709	-7.449400E+01
141	  0.048056111	-5.401000E+00	  0.048056111	-2.933300E+01	  0.048056111	1.010620E+02	  0.048056111	-7.471100E+01
142	  0.048256513	-5.432000E+00	  0.048256513	-3.112900E+01	  0.048256513	9.637700E+01	  0.048256513	-7.469100E+01
143	  0.048456915	-5.464000E+00	  0.048456915	-3.292700E+01	  0.048456915	9.194000E+01	  0.048456915	-7.442900E+01
144	  0.048657313	-5.490000E+00	  0.048657313	-3.470900E+01	  0.048657313	8.778900E+01	  0.048657313	-7.404600E+01
145	  0.048857715	-5.519000E+00	  0.048857715	-3.650200E+01	  0.048857715	8.384600E+01	  0.048857715	-7.345100E+01
146	  0.049058117	-5.543000E+00	  0.049058117	-3.829900E+01	  0.049058117	8.011800E+01	  0.049058117	-7.276800E+01
147	  0.049258515	-5.568000E+00	  0.049258515	-4.007300E+01	  0.049258515	7.665400E+01	  0.049258515	-7.194300E+01
148	  0.049458917	-5.589000E+00	  0.049458917	-4.182700E+01	  0.049458917	7.341500E+01	  0.049458917	-7.107900E+01
149	  0.049659319	-5.618000E+00	  0.049659319	-4.355800E+01	  0.049659319	7.042800E+01	  0.049659319	-7.003900E+01
150	  0.049859721	-5.640000E+00	  0.049859721	-4.528300E+01	  0.049859721	6.760200E+01	  0.049859721	-6.902100E+01
151	  0.050060119	-5.662000E+00	  0.050060119	-4.702000E+01	  0.050060119	6.492100E+01	  0.050060119	-6.794500E+01
152	  0.050260521	-5.681000E+00	  0.050260521	-4.874000E+01	  0.050260521	6.241100E+01	  0.050260521	-6.685600E+01
153	  0.050460923	-5.703000E+00	  0.050460923	-5.045400E+01	  0.050460923	6.006500E+01	  0.050460923	-6.570700E+01
154	  0.050661322	-5.717000E+00	  0.050661322	-5.216100E+01	  0.050661322	5.782700E+01	  0.050661322	-6.461500E+01
155	  0.050861724	-5.735000E+00	  0.050861724	-5.384600E+01	  0.050861724	5.575800E+01	  0.050861724	-6.346900E+01
156	  0.051062126	-5.750000E+00	  0.051062126	-5.552700E+01	  0.051062126	5.379700E+01	  0.051062126	-6.233400E+01
157	  0.051262524	-5.770000E+00	  0.051262524	-5.717000E+01	  0.051262524	5.200400E+01	  0.051262524	-6.117500E+01
158	  0.051462926	-5.785000E+00	  0.051462926	-5.880200E+01	  0.051462926	5.030000E+01	  0.051462926	-6.005300E+01
159	  0.051663328	-5.804000E+00	  0.051663328	-6.042100E+01	  0.051663328	4.871300E+01	  0.051663328	-5.891500E+01
160	  0.051863730	-5.815000E+00	  0.051863730	-6.205100E+01	  0.051863730	4.716900E+01	  0.051863730	-5.781200E+01
161	  0.052064128	-5.830000E+00	  0.052064128	-6.365400E+01	  0.052064128	4.574400E+01	  0.052064128	-5.670700E+01
162	  0.052264530	-5.838000E+00	  0.052264530	-6.526900E+01	  0.052264530	4.434700E+01	  0.052264530	-5.564300E+01
163	  0.052464932	-5.848000E+00	  0.052464932	-6.684900E+01	  0.052464932	4.306400E+01	  0.052464932	-5.458300E+01
164	  0.052665330	-5.861000E+00	  0.052665330	-6.842700E+01	  0.052665330	4.185300E+01	  0.052665330	-5.351800E+01
165	  0.052865732	-5.875000E+00	  0.052865732	-6.997200E+01	  0.052865732	4.073000E+01	  0.052865732	-5.247800E+01
166	  0.053066134	-5.891000E+00	  0.053066134	-7.151200E+01	  0.053066134	3.967200E+01	  0.053066134	-5.143900E+01
167	  0.053266536	-5.901000E+00	  0.053266536	-7.304800E+01	  0.053266536	3.864400E+01	  0.053266536	-5.043800E+01
168	  0.053466935	-5.915000E+00	  0.053466935	-7.457300E+01	  0.053466935	3.768700E+01	  0.053466935	-4.943500E+01
169	  0.053667337	-5.926000E+00	  0.053667337	-7.611000E+01	  0.053667337	3.675600E+01	  0.053667337	-4.844500E+01
170	  0.053867739	-5.938000E+00	  0.053867739	-7.762600E+01	  0.053867739	3.588000E+01	  0.053867739	-4.747800E+01
171	  0.054068137	-5.947000E+00	  0.054068137	-7.914600E+01	  0.054068137	3.503300E+01	  0.054068137	-4.652600E+01
172	  0.054268539	-5.956000E+00	  0.054268539	-8.063500E+01	  0.054268539	3.424100E+01	  0.054268539	-4.560200E+01
173	  0.054468941	-5.971000E+00	  0.054468941	-8.211000E+01	  0.054468941	3.350900E+01	  0.054468941	-4.467900E+01
174	  0.054669335	-5.982000E+00	  0.054669335	-8.358500E+01	  0.054669335	3.279700E+01	  0.054669335	-4.377700E+01
175	  0.054869737	-5.995000E+00	  0.054869737	-8.505500E+01	  0.054869737	3.212500E+01	  0.054869737	-4.288300E+01
176	  0.055070139	-6.008000E+00	  0.055070139	-8.650500E+01	  0.055070139	3.149100E+01	  0.055070139	-4.200900E+01
177	  0.055270538	-6.022000E+00	  0.055270538	-8.795300E+01	  0.055270538	3.089000E+01	  0.055270538	-4.114300E+01
178	  0.055470940	-6.030000E+00	  0.055470940	-8.940400E+01	  0.055470940	3.028900E+01	  0.055470940	-4.030400E+01
179	  0.055671342	-6.036000E+00	  0.055671342	-9.082400E+01	  0.055671342	2.971700E+01	  0.055671342	-3.949700E+01
180	  0.055871744	-6.042000E+00	  0.055871744	-9.224200E+01	  0.055871744	2.916900E+01	  0.055871744	-3.869800E+01
181	  0.056072142	-6.053000E+00	  0.056072142	-9.366000E+01	  0.056072142	2.866000E+01	  0.056072142	-3.789600E+01
182	  0.056272544	-6.060000E+00	  0.056272544	-9.505000E+01	  0.056272544	2.816700E+01	  0.056272544	-3.712800E+01
183	  0.056472946	-6.068000E+00	  0.056472946	-9.644700E+01	  0.056472946	2.769500E+01	  0.056472946	-3.636000E+01
184	  0.056673344	-6.070000E+00	  0.056673344	-9.778700E+01	  0.056673344	2.724100E+01	  0.056673344	-3.564300E+01
185	  0.056873746	-6.079000E+00	  0.056873746	-9.914200E+01	  0.056873746	2.682000E+01	  0.056873746	-3.491200E+01
186	  0.057074148	-6.081000E+00	  0.057074148	-1.004850E+02	  0.057074148	2.639600E+01	  0.057074148	-3.420700E+01
187	  0.057274550	-6.083000E+00	  0.057274550	-1.018280E+02	  0.057274550	2.598800E+01	  0.057274550	-3.350800E+01
188	  0.057474948	-6.080000E+00	  0.057474948	-1.031510E+02	  0.057474948	2.558300E+01	  0.057474948	-3.283600E+01
189	  0.057675350	-6.083000E+00	  0.057675350	-1.044570E+02	  0.057675350	2.521700E+01	  0.057675350	-3.216700E+01
190	  0.057875752	-6.082000E+00	  0.057875752	-1.057880E+02	  0.057875752	2.484200E+01	  0.057875752	-3.149900E+01
191	  0.058076151	-6.081000E+00	  0.058076151	-1.070930E+02	  0.058076151	2.448800E+01	  0.058076151	-3.084800E+01
192	  0.058276553	-6.078000E+00	  0.058276553	-1.083640E+02	  0.058276553	2.415000E+01	  0.058276553	-3.022300E+01
193	  0.058476955	-6.077000E+00	  0.058476955	-1.096570E+02	  0.058476955	2.382300E+01	  0.058476955	-2.958800E+01
194	  0.058677353	-6.074000E+00	  0.058677353	-1.109410E+02	  0.058677353	2.350100E+01	  0.058677353	-2.896700E+01
195	  0.058877755	-6.069000E+00	  0.058877755	-1.122280E+02	  0.058877755	2.318600E+01	  0.058877755	-2.835000E+01
196	  0.059078157	-6.062000E+00	  0.059078157	-1.134780E+02	  0.059078157	2.288000E+01	  0.059078157	-2.776000E+01
197	  0.059278559	-6.055000E+00	  0.059278559	-1.147510E+02	  0.059278559	2.258100E+01	  0.059278559	-2.716200E+01
198	  0.059478957	-6.050000E+00	  0.059478957	-1.160220E+02	  0.059478957	2.229700E+01	  0.059478957	-2.656600E+01
199	  0.059679359	-6.047000E+00	  0.059679359	-1.172780E+02	  0.059679359	2.203300E+01	  0.059679359	-2.597800E+01
200	  0.059879761	-6.042000E+00	  0.059879761	-1.185370E+02	  0.059879761	2.177200E+01	  0.059879761	-2.539500E+01
201	  0.060080159	-6.038000E+00	  0.060080159	-1.197570E+02	  0.060080159	2.152700E+01	  0.060080159	-2.483400E+01
202	  0.060280561	-6.034000E+00	  0.060280561	-1.210190E+02	  0.060280561	2.128400E+01	  0.060280561	-2.425600E+01
203	  0.060480963	-6.032000E+00	  0.060480963	-1.222610E+02	  0.060480963	2.105900E+01	  0.060480963	-2.368800E+01
204	  0.060681365	-6.031000E+00	  0.060681365	-1.234780E+02	  0.060681365	2.084600E+01	  0.060681365	-2.313600E+01
205	  0.060881764	-6.024000E+00	  0.060881764	-1.247240E+02	  0.060881764	2.062100E+01	  0.060881764	-2.257900E+01
206	  0.061082166	-6.021000E+00	  0.061082166	-1.259540E+02	  0.061082166	2.041500E+01	  0.061082166	-2.202900E+01
207	  0.061282568	-6.020000E+00	  0.061282568	-1.271750E+02	  0.061282568	2.022200E+01	  0.061282568	-2.148500E+01
208	  0.061482966	-6.016000E+00	  0.061482966	-1.284060E+02	  0.061482966	2.002700E+01	  0.061482966	-2.094200E+01
209	  0.061683368	-6.016000E+00	  0.061683368	-1.296230E+02	  0.061683368	1.985200E+01	  0.061683368	-2.040500E+01
210	  0.061883770	-6.015000E+00	  0.061883770	-1.308360E+02	  0.061883770	1.968000E+01	  0.061883770	-1.987400E+01
211	  0.062084168	-6.012000E+00	  0.062084168	-1.320180E+02	  0.062084168	1.951300E+01	  0.062084168	-1.936000E+01
212	  0.062284570	-6.011000E+00	  0.062284570	-1.332350E+02	  0.062284570	1.935300E+01	  0.062284570	-1.883200E+01
213	  0.062484972	-6.002000E+00	  0.062484972	-1.344200E+02	  0.062484972	1.918000E+01	  0.062484972	-1.832800E+01
214	  0.062685370	-6.000000E+00	  0.062685370	-1.356220E+02	  0.062685370	1.902900E+01	  0.062685370	-1.781400E+01
215	  0.062885776	-6.001000E+00	  0.062885776	-1.368100E+02	  0.062885776	1.889500E+01	  0.062885776	-1.730500E+01
216	  0.063086174	-5.995000E+00	  0.063086174	-1.379990E+02	  0.063086174	1.874500E+01	  0.063086174	-1.680300E+01
217	  0.063286573	-5.992000E+00	  0.063286573	-1.391880E+02	  0.063286573	1.860800E+01	  0.063286573	-1.630200E+01
218	  0.063486971	-5.990000E+00	  0.063486971	-1.403320E+02	  0.063486971	1.848100E+01	  0.063486971	-1.582200E+01
219	  0.063687377	-5.988000E+00	  0.063687377	-1.414830E+02	  0.063687377	1.836200E+01	  0.063687377	-1.534000E+01
220	  0.063887775	-5.986000E+00	  0.063887775	-1.426450E+02	  0.063887775	1.824400E+01	  0.063887775	-1.485700E+01
221	  0.064088173	-5.981000E+00	  0.064088173	-1.438030E+02	  0.064088173	1.812400E+01	  0.064088173	-1.437800E+01
222	  0.064288579	-5.976000E+00	  0.064288579	-1.449520E+02	  0.064288579	1.800700E+01	  0.064288579	-1.390500E+01
223	  0.064488977	-5.979000E+00	  0.064488977	-1.461320E+02	  0.064488977	1.791500E+01	  0.064488977	-1.341600E+01
224	  0.064689375	-5.978000E+00	  0.064689375	-1.472150E+02	  0.064689375	1.782200E+01	  0.064689375	-1.297100E+01
225	  0.064889781	-5.975000E+00	  0.064889781	-1.483740E+02	  0.064889781	1.772200E+01	  0.064889781	-1.249800E+01
226	  0.065090179	-5.977000E+00	  0.065090179	-1.494580E+02	  0.065090179	1.764600E+01	  0.065090179	-1.205500E+01
227	  0.065290578	-5.976000E+00	  0.065290578	-1.505680E+02	  0.065290578	1.756200E+01	  0.065290578	-1.160400E+01
228	  0.065490983	-5.976000E+00	  0.065490983	-1.516590E+02	  0.065490983	1.748500E+01	  0.065490983	-1.116200E+01
229	  0.065691382	-5.974000E+00	  0.065691382	-1.527710E+02	  0.065691382	1.740700E+01	  0.065691382	-1.071300E+01
230	  0.065891780	-5.972000E+00	  0.065891780	-1.538820E+02	  0.065891780	1.733200E+01	  0.065891780	-1.026700E+01
231	  0.066092186	-5.977000E+00	  0.066092186	-1.549560E+02	  0.066092186	1.727900E+01	  0.066092186	-9.833000E+00
232	  0.066292584	-5.975000E+00	  0.066292584	-1.560280E+02	  0.066292584	1.721200E+01	  0.066292584	-9.405000E+00
233	  0.066492982	-5.975000E+00	  0.066492982	-1.571180E+02	  0.066492982	1.715300E+01	  0.066492982	-8.969000E+00
234	  0.066693388	-5.979000E+00	  0.066693388	-1.581860E+02	  0.066693388	1.710600E+01	  0.066693388	-8.542000E+00
235	  0.066893786	-5.983000E+00	  0.066893786	-1.592420E+02	  0.066893786	1.706500E+01	  0.066893786	-8.121000E+00
236	  0.067094192	-5.981000E+00	  0.067094192	-1.603150E+02	  0.067094192	1.700900E+01	  0.067094192	-7.696000E+00
237	  0.067294590	-5.991000E+00	  0.067294590	-1.613600E+02	  0.067294590	1.698700E+01	  0.067294590	-7.280000E+00
238	  0.067494988	-5.991000E+00	  0.067494988	-1.624200E+02	  0.067494988	1.694500E+01	  0.067494988	-6.861000E+00
239	  0.067695394	-5.991000E+00	  0.067695394	-1.635110E+02	  0.067695394	1.690200E+01	  0.067695394	-6.431000E+00
240	  0.067895792	-5.998000E+00	  0.067895792	-1.645330E+02	  0.067895792	1.688100E+01	  0.067895792	-6.028000E+00
241	  0.068096191	-6.002000E+00	  0.068096191	-1.656000E+02	  0.068096191	1.685500E+01	  0.068096191	-5.608000E+00
242	  0.068296596	-6.005000E+00	  0.068296596	-1.666310E+02	  0.068296596	1.683000E+01	  0.068296596	-5.203000E+00
243	  0.068496995	-6.005000E+00	  0.068496995	-1.676580E+02	  0.068496995	1.680100E+01	  0.068496995	-4.801000E+00
244	  0.068697393	-6.014000E+00	  0.068697393	-1.687010E+02	  0.068697393	1.679400E+01	  0.068697393	-4.392000E+00
245	  0.068897791	-6.014000E+00	  0.068897791	-1.697230E+02	  0.068897791	1.677100E+01	  0.068897791	-3.993000E+00
246	  0.069098189	-6.013000E+00	  0.069098189	-1.707380E+02	  0.069098189	1.674400E+01	  0.069098189	-3.598000E+00
247	  0.069298595	-6.019000E+00	  0.069298595	-1.717620E+02	  0.069298595	1.674100E+01	  0.069298595	-3.198000E+00
248	  0.069498993	-6.019000E+00	  0.069498993	-1.728160E+02	  0.069498993	1.672100E+01	  0.069498993	-2.788000E+00
249	  0.069699399	-6.025000E+00	  0.069699399	-1.738230E+02	  0.069699399	1.672300E+01	  0.069699399	-2.396000E+00
250	  0.069899797	-6.030000E+00	  0.069899797	-1.748320E+02	  0.069899797	1.672100E+01	  0.069899797	-2.004000E+00
251	  0.070100196	-6.032000E+00	  0.070100196	-1.758370E+02	  0.070100196	1.671600E+01	  0.070100196	-1.614000E+00
252	  0.070300601	-6.030000E+00	  0.070300601	-1.768200E+02	  0.070300601	1.670300E+01	  0.070300601	-1.232000E+00
253	  0.070501000	-6.033000E+00	  0.070501000	-1.778120E+02	  0.070501000	1.670400E+01	  0.070501000	-8.470000E-01
254	  0.070701398	-6.035000E+00	  0.070701398	-1.787980E+02	  0.070701398	1.670600E+01	  0.070701398	-4.650000E-01
255	  0.070901804	-6.036000E+00	  0.070901804	-1.797700E+02	  0.070901804	1.670800E+01	  0.070901804	-8.800000E-02
256	  0.071102202	-6.040000E+00	  0.071102202	1.792290E+02	  0.071102202	1.671700E+01	  0.071102202	2.980000E-01
257	  0.071302600	-6.045000E+00	  0.071302600	1.782600E+02	  0.071302600	1.673400E+01	  0.071302600	6.730000E-01
258	  0.071503006	-6.046000E+00	  0.071503006	1.773010E+02	  0.071503006	1.674200E+01	  0.071503006	1.045000E+00
259	  0.071703404	-6.059000E+00	  0.071703404	1.763360E+02	  0.071703404	1.678100E+01	  0.071703404	1.419000E+00
260	  0.071903802	-6.058000E+00	  0.071903802	1.754020E+02	  0.071903802	1.678800E+01	  0.071903802	1.781000E+00
261	  0.072104208	-6.065000E+00	  0.072104208	1.744410E+02	  0.072104208	1.681700E+01	  0.072104208	2.153000E+00
262	  0.072304606	-6.070000E+00	  0.072304606	1.734930E+02	  0.072304606	1.684300E+01	  0.072304606	2.520000E+00
263	  0.072505005	-6.072000E+00	  0.072505005	1.725620E+02	  0.072505005	1.686200E+01	  0.072505005	2.881000E+00
264	  0.072705410	-6.080000E+00	  0.072705410	1.716220E+02	  0.072705410	1.689900E+01	  0.072705410	3.245000E+00
265	  0.072905809	-6.086000E+00	  0.072905809	1.706340E+02	  0.072905809	1.693600E+01	  0.072905809	3.628000E+00
266	  0.073106214	-6.096000E+00	  0.073106214	1.697380E+02	  0.073106214	1.698000E+01	  0.073106214	3.975000E+00
267	  0.073306613	-6.104000E+00	  0.073306613	1.688070E+02	  0.073306613	1.702500E+01	  0.073306613	4.336000E+00
268	  0.073507011	-6.111000E+00	  0.073507011	1.678600E+02	  0.073507011	1.706800E+01	  0.073507011	4.703000E+00
269	  0.073707417	-6.120000E+00	  0.073707417	1.669570E+02	  0.073707417	1.711800E+01	  0.073707417	5.053000E+00
270	  0.073907815	-6.125000E+00	  0.073907815	1.660380E+02	  0.073907815	1.715900E+01	  0.073907815	5.410000E+00
271	  0.074108213	-6.133000E+00	  0.074108213	1.650990E+02	  0.074108213	1.721000E+01	  0.074108213	5.775000E+00
272	  0.074308619	-6.142000E+00	  0.074308619	1.641890E+02	  0.074308619	1.726500E+01	  0.074308619	6.128000E+00
273	  0.074509017	-6.147000E+00	  0.074509017	1.632460E+02	  0.074509017	1.731500E+01	  0.074509017	6.496000E+00
274	  0.074709415	-6.156000E+00	  0.074709415	1.623590E+02	  0.074709415	1.737400E+01	  0.074709415	6.841000E+00
275	  0.074909821	-6.167000E+00	  0.074909821	1.614290E+02	  0.074909821	1.744100E+01	  0.074909821	7.202000E+00
276	  0.075110219	-6.175000E+00	  0.075110219	1.605020E+02	  0.075110219	1.750500E+01	  0.075110219	7.564000E+00
277	  0.075310618	-6.183000E+00	  0.075310618	1.596050E+02	  0.075310618	1.756800E+01	  0.075310618	7.914000E+00
278	  0.075511023	-6.191000E+00	  0.075511023	1.587050E+02	  0.075511023	1.763400E+01	  0.075511023	8.265000E+00
279	  0.075711422	-6.196000E+00	  0.075711422	1.578340E+02	  0.075711422	1.769200E+01	  0.075711422	8.607000E+00
280	  0.075911827	-6.204000E+00	  0.075911827	1.569390E+02	  0.075911827	1.776200E+01	  0.075911827	8.958000E+00
281	  0.076112226	-6.210000E+00	  0.076112226	1.560390E+02	  0.076112226	1.782900E+01	  0.076112226	9.312000E+00
282	  0.076312624	-6.224000E+00	  0.076312624	1.551240E+02	  0.076312624	1.791900E+01	  0.076312624	9.669000E+00
283	  0.076513030	-6.230000E+00	  0.076513030	1.542620E+02	  0.076513030	1.798700E+01	  0.076513030	1.000900E+01
284	  0.076713428	-6.241000E+00	  0.076713428	1.533750E+02	  0.076713428	1.807200E+01	  0.076713428	1.035700E+01
285	  0.076913826	-6.248000E+00	  0.076913826	1.525140E+02	  0.076913826	1.815000E+01	  0.076913826	1.069600E+01
286	  0.077114232	-6.255000E+00	  0.077114232	1.516350E+02	  0.077114232	1.822900E+01	  0.077114232	1.104400E+01
287	  0.077314630	-6.261000E+00	  0.077314630	1.507740E+02	  0.077314630	1.830600E+01	  0.077314630	1.138600E+01
288	  0.077515028	-6.275000E+00	  0.077515028	1.499240E+02	  0.077515028	1.840700E+01	  0.077515028	1.171900E+01
289	  0.077715434	-6.284000E+00	  0.077715434	1.490630E+02	  0.077715434	1.849500E+01	  0.077715434	1.206100E+01
290	  0.077915832	-6.291000E+00	  0.077915832	1.482180E+02	  0.077915832	1.857900E+01	  0.077915832	1.239800E+01
291	  0.078116231	-6.304000E+00	  0.078116231	1.473540E+02	  0.078116231	1.868500E+01	  0.078116231	1.273900E+01
292	  0.078316636	-6.310000E+00	  0.078316636	1.465160E+02	  0.078316636	1.877400E+01	  0.078316636	1.307400E+01
293	  0.078517035	-6.323000E+00	  0.078517035	1.456350E+02	  0.078517035	1.888300E+01	  0.078517035	1.342400E+01
294	  0.078717433	-6.335000E+00	  0.078717433	1.447890E+02	  0.078717433	1.899200E+01	  0.078717433	1.376000E+01
295	  0.078917839	-6.348000E+00	  0.078917839	1.439640E+02	  0.078917839	1.910400E+01	  0.078917839	1.408800E+01
296	  0.079118237	-6.357000E+00	  0.079118237	1.431490E+02	  0.079118237	1.920500E+01	  0.079118237	1.441500E+01
297	  0.079318643	-6.370000E+00	  0.079318643	1.423160E+02	  0.079318643	1.932200E+01	  0.079318643	1.474700E+01
298	  0.079519041	-6.383000E+00	  0.079519041	1.414820E+02	  0.079519041	1.944200E+01	  0.079519041	1.507900E+01
299	  0.079719439	-6.394000E+00	  0.079719439	1.406560E+02	  0.079719439	1.955800E+01	  0.079719439	1.541100E+01
300	  0.079919845	-6.409000E+00	  0.079919845	1.398190E+02	  0.079919845	1.968800E+01	  0.079919845	1.574400E+01
301	  0.080120243	-6.423000E+00	  0.080120243	1.389880E+02	  0.080120243	1.981500E+01	  0.080120243	1.607800E+01
302	  0.080320641	-6.438000E+00	  0.080320641	1.381580E+02	  0.080320641	1.995100E+01	  0.080320641	1.640900E+01
303	  0.080521047	-6.453000E+00	  0.080521047	1.373300E+02	  0.080521047	2.008700E+01	  0.080521047	1.674100E+01
304	  0.080721445	-6.466000E+00	  0.080721445	1.365110E+02	  0.080721445	2.022100E+01	  0.080721445	1.707100E+01
305	  0.080921844	-6.482000E+00	  0.080921844	1.356950E+02	  0.080921844	2.036300E+01	  0.080921844	1.739800E+01
306	  0.081122249	-6.499000E+00	  0.081122249	1.348880E+02	  0.081122249	2.051100E+01	  0.081122249	1.772100E+01
307	  0.081322648	-6.511000E+00	  0.081322648	1.340850E+02	  0.081322648	2.064900E+01	  0.081322648	1.804600E+01
308	  0.081523046	-6.527000E+00	  0.081523046	1.332450E+02	  0.081523046	2.080400E+01	  0.081523046	1.838400E+01
309	  0.081723452	-6.537000E+00	  0.081723452	1.324300E+02	  0.081723452	2.094200E+01	  0.081723452	1.871800E+01
310	  0.081923850	-6.553000E+00	  0.081923850	1.316240E+02	  0.081923850	2.109700E+01	  0.081923850	1.904300E+01
311	  0.082124248	-6.565000E+00	  0.082124248	1.307880E+02	  0.082124248	2.125100E+01	  0.082124248	1.938500E+01
312	  0.082324654	-6.581000E+00	  0.082324654	1.299770E+02	  0.082324654	2.141300E+01	  0.082324654	1.971300E+01
313	  0.082525052	-6.594000E+00	  0.082525052	1.292140E+02	  0.082525052	2.156300E+01	  0.082525052	2.002400E+01
314	  0.082725458	-6.615000E+00	  0.082725458	1.284450E+02	  0.082725458	2.173800E+01	  0.082725458	2.033100E+01
315	  0.082925856	-6.628000E+00	  0.082925856	1.276630E+02	  0.082925856	2.189800E+01	  0.082925856	2.065100E+01
316	  0.083126254	-6.647000E+00	  0.083126254	1.268860E+02	  0.083126254	2.207400E+01	  0.083126254	2.096300E+01
317	  0.083326660	-6.658000E+00	  0.083326660	1.261190E+02	  0.083326660	2.223000E+01	  0.083326660	2.128000E+01
318	  0.083527058	-6.674000E+00	  0.083527058	1.253250E+02	  0.083527058	2.241000E+01	  0.083527058	2.160300E+01
319	  0.083727457	-6.691000E+00	  0.083727457	1.245920E+02	  0.083727457	2.258300E+01	  0.083727457	2.190000E+01
320	  0.083927862	-6.709000E+00	  0.083927862	1.238260E+02	  0.083927862	2.276600E+01	  0.083927862	2.221000E+01
321	  0.084128261	-6.724000E+00	  0.084128261	1.231040E+02	  0.084128261	2.294000E+01	  0.084128261	2.250400E+01
322	  0.084328659	-6.745000E+00	  0.084328659	1.223480E+02	  0.084328659	2.313800E+01	  0.084328659	2.280600E+01
323	  0.084529065	-6.768000E+00	  0.084529065	1.216020E+02	  0.084529065	2.334200E+01	  0.084529065	2.310200E+01
324	  0.084729463	-6.788000E+00	  0.084729463	1.208840E+02	  0.084729463	2.353500E+01	  0.084729463	2.338900E+01
325	  0.084929854	-6.803000E+00	  0.084929854	1.201270E+02	  0.084929854	2.372500E+01	  0.084929854	2.370000E+01
326	  0.085130259	-6.824000E+00	  0.085130259	1.193760E+02	  0.085130259	2.393500E+01	  0.085130259	2.400000E+01
327	  0.085330658	-6.844000E+00	  0.085330658	1.186530E+02	  0.085330658	2.414000E+01	  0.085330658	2.428900E+01
328	  0.085531056	-6.867000E+00	  0.085531056	1.179030E+02	  0.085531056	2.436000E+01	  0.085531056	2.458700E+01
329	  0.085731462	-6.889000E+00	  0.085731462	1.171680E+02	  0.085731462	2.458000E+01	  0.085731462	2.487800E+01
330	  0.085931860	-6.908000E+00	  0.085931860	1.164720E+02	  0.085931860	2.478400E+01	  0.085931860	2.515700E+01
331	  0.086132258	-6.933000E+00	  0.086132258	1.157530E+02	  0.086132258	2.501700E+01	  0.086132258	2.543600E+01
332	  0.086332664	-6.961000E+00	  0.086332664	1.150180E+02	  0.086332664	2.526200E+01	  0.086332664	2.571900E+01
333	  0.086533062	-6.978000E+00	  0.086533062	1.142950E+02	  0.086533062	2.547600E+01	  0.086533062	2.601200E+01
334	  0.086733460	-7.005000E+00	  0.086733460	1.136030E+02	  0.086733460	2.571700E+01	  0.086733460	2.627600E+01
335	  0.086933866	-7.031000E+00	  0.086933866	1.128530E+02	  0.086933866	2.597000E+01	  0.086933866	2.656700E+01
336	  0.087134264	-7.050000E+00	  0.087134264	1.121550E+02	  0.087134264	2.619700E+01	  0.087134264	2.684400E+01
337	  0.087334670	-7.080000E+00	  0.087334670	1.114240E+02	  0.087334670	2.646500E+01	  0.087334670	2.711800E+01
338	  0.087535068	-7.108000E+00	  0.087535068	1.107100E+02	  0.087535068	2.672800E+01	  0.087535068	2.738800E+01
339	  0.087735467	-7.134000E+00	  0.087735467	1.100230E+02	  0.087735467	2.698100E+01	  0.087735467	2.764700E+01
340	  0.087935872	-7.163000E+00	  0.087935872	1.093240E+02	  0.087935872	2.724900E+01	  0.087935872	2.790700E+01
341	  0.088136271	-7.187000E+00	  0.088136271	1.086180E+02	  0.088136271	2.750800E+01	  0.088136271	2.817700E+01
342	  0.088336669	-7.213000E+00	  0.088336669	1.079080E+02	  0.088336669	2.778000E+01	  0.088336669	2.844400E+01
343	  0.088537075	-7.236000E+00	  0.088537075	1.071900E+02	  0.088537075	2.804700E+01	  0.088537075	2.871900E+01
344	  0.088737473	-7.266000E+00	  0.088737473	1.065170E+02	  0.088737473	2.832400E+01	  0.088737473	2.896200E+01
345	  0.088937871	-7.288000E+00	  0.088937871	1.057870E+02	  0.088937871	2.859900E+01	  0.088937871	2.924400E+01
346	  0.089138277	-7.319000E+00	  0.089138277	1.050700E+02	  0.089138277	2.890200E+01	  0.089138277	2.950000E+01
347	  0.089338675	-7.344000E+00	  0.089338675	1.044210E+02	  0.089338675	2.916900E+01	  0.089338675	2.973800E+01
348	  0.089539073	-7.375000E+00	  0.089539073	1.037840E+02	  0.089539073	2.945500E+01	  0.089539073	2.995600E+01
349	  0.089739479	-7.404000E+00	  0.089739479	1.030990E+02	  0.089739479	2.975200E+01	  0.089739479	3.020000E+01
350	  0.089939877	-7.426000E+00	  0.089939877	1.024650E+02	  0.089939877	3.001600E+01	  0.089939877	3.043400E+01
351	  0.090140276	-7.461000E+00	  0.090140276	1.018020E+02	  0.090140276	3.033100E+01	  0.090140276	3.065100E+01
352	  0.090340681	-7.479000E+00	  0.090340681	1.011770E+02	  0.090340681	3.058900E+01	  0.090340681	3.088600E+01
353	  0.090541080	-7.513000E+00	  0.090541080	1.005250E+02	  0.090541080	3.090200E+01	  0.090541080	3.109900E+01
354	  0.090741485	-7.541000E+00	  0.090741485	9.989600E+01	  0.090741485	3.119800E+01	  0.090741485	3.131100E+01
355	  0.090941884	-7.572000E+00	  0.090941884	9.929600E+01	  0.090941884	3.149200E+01	  0.090941884	3.150400E+01
356	  0.091142282	-7.605000E+00	  0.091142282	9.867400E+01	  0.091142282	3.180400E+01	  0.091142282	3.169900E+01
357	  0.091342688	-7.632000E+00	  0.091342688	9.807200E+01	  0.091342688	3.209400E+01	  0.091342688	3.189800E+01
358	  0.091543086	-7.662000E+00	  0.091543086	9.745700E+01	  0.091543086	3.240300E+01	  0.091543086	3.209200E+01
359	  0.091743484	-7.690000E+00	  0.091743484	9.687800E+01	  0.091743484	3.269300E+01	  0.091743484	3.227600E+01
360	  0.091943890	-7.723000E+00	  0.091943890	9.628600E+01	  0.091943890	3.300800E+01	  0.091943890	3.244900E+01
361	  0.092144288	-7.749000E+00	  0.092144288	9.568000E+01	  0.092144288	3.331100E+01	  0.092144288	3.264400E+01
362	  0.092344686	-7.782000E+00	  0.092344686	9.511300E+01	  0.092344686	3.361900E+01	  0.092344686	3.280500E+01
363	  0.092545092	-7.808000E+00	  0.092545092	9.453200E+01	  0.092545092	3.391700E+01	  0.092545092	3.298600E+01
364	  0.092745490	-7.843000E+00	  0.092745490	9.400700E+01	  0.092745490	3.422300E+01	  0.092745490	3.311700E+01
365	  0.092945889	-7.872000E+00	  0.092945889	9.345000E+01	  0.092945889	3.452400E+01	  0.092945889	3.327700E+01
366	  0.093146294	-7.907000E+00	  0.093146294	9.288800E+01	  0.093146294	3.484900E+01	  0.093146294	3.341900E+01
367	  0.093346693	-7.933000E+00	  0.093346693	9.236900E+01	  0.093346693	3.513300E+01	  0.093346693	3.356700E+01
368	  0.093547091	-7.967000E+00	  0.093547091	9.180400E+01	  0.093547091	3.546000E+01	  0.093547091	3.370900E+01
369	  0.093747497	-7.994000E+00	  0.093747497	9.130300E+01	  0.093747497	3.574500E+01	  0.093747497	3.384100E+01
370	  0.093947895	-8.028000E+00	  0.093947895	9.073700E+01	  0.093947895	3.607700E+01	  0.093947895	3.398000E+01
371	  0.094148301	-8.063000E+00	  0.094148301	9.022000E+01	  0.094148301	3.639600E+01	  0.094148301	3.409000E+01
372	  0.094348699	-8.091000E+00	  0.094348699	8.969000E+01	  0.094348699	3.670200E+01	  0.094348699	3.422600E+01
373	  0.094549097	-8.127000E+00	  0.094549097	8.920100E+01	  0.094549097	3.701400E+01	  0.094549097	3.431800E+01
374	  0.094749503	-8.154000E+00	  0.094749503	8.866100E+01	  0.094749503	3.732600E+01	  0.094749503	3.445600E+01
375	  0.094949901	-8.190000E+00	  0.094949901	8.818300E+01	  0.094949901	3.763500E+01	  0.094949901	3.454200E+01
376	  0.095150299	-8.216000E+00	  0.095150299	8.769700E+01	  0.095150299	3.792500E+01	  0.095150299	3.465500E+01
377	  0.095350705	-8.246000E+00	  0.095350705	8.719300E+01	  0.095350705	3.823500E+01	  0.095350705	3.476300E+01
378	  0.095551103	-8.279000E+00	  0.095551103	8.669700E+01	  0.095551103	3.855200E+01	  0.095551103	3.485400E+01
379	  0.095751502	-8.304000E+00	  0.095751502	8.617500E+01	  0.095751502	3.886100E+01	  0.095751502	3.497900E+01
380	  0.095951907	-8.336000E+00	  0.095951907	8.572300E+01	  0.095951907	3.915900E+01	  0.095951907	3.505200E+01
381	  0.096152306	-8.363000E+00	  0.096152306	8.521200E+01	  0.096152306	3.947200E+01	  0.096152306	3.516200E+01
382	  0.096352704	-8.389000E+00	  0.096352704	8.478300E+01	  0.096352704	3.974700E+01	  0.096352704	3.523900E+01
383	  0.096553110	-8.412000E+00	  0.096553110	8.432100E+01	  0.096553110	4.003000E+01	  0.096553110	3.534000E+01
384	  0.096753508	-8.441000E+00	  0.096753508	8.385500E+01	  0.096753508	4.033400E+01	  0.096753508	3.541700E+01
385	  0.096953906	-8.463000E+00	  0.096953906	8.342900E+01	  0.096953906	4.059900E+01	  0.096953906	3.550400E+01
386	  0.097154312	-8.490000E+00	  0.097154312	8.295000E+01	  0.097154312	4.090800E+01	  0.097154312	3.558900E+01
387	  0.097354710	-8.513000E+00	  0.097354710	8.253000E+01	  0.097354710	4.117700E+01	  0.097354710	3.566500E+01
388	  0.097555116	-8.539000E+00	  0.097555116	8.209200E+01	  0.097555116	4.146500E+01	  0.097555116	3.573400E+01
389	  0.097755514	-8.559000E+00	  0.097755514	8.167800E+01	  0.097755514	4.172800E+01	  0.097755514	3.581200E+01
390	  0.097955912	-8.576000E+00	  0.097955912	8.123900E+01	  0.097955912	4.199700E+01	  0.097955912	3.591100E+01
391	  0.098156318	-8.603000E+00	  0.098156318	8.083900E+01	  0.098156318	4.227100E+01	  0.098156318	3.595800E+01
392	  0.098356716	-8.622000E+00	  0.098356716	8.040900E+01	  0.098356716	4.254400E+01	  0.098356716	3.604000E+01
393	  0.098557115	-8.637000E+00	  0.098557115	8.002800E+01	  0.098557115	4.278400E+01	  0.098557115	3.611700E+01
394	  0.098757520	-8.654000E+00	  0.098757520	7.962000E+01	  0.098757520	4.304200E+01	  0.098757520	3.619900E+01
395	  0.098957919	-8.673000E+00	  0.098957919	7.921800E+01	  0.098957919	4.330600E+01	  0.098957919	3.626500E+01
396	  0.099158317	-8.690000E+00	  0.099158317	7.880600E+01	  0.099158317	4.356900E+01	  0.099158317	3.634300E+01
397	  0.099358723	-8.706000E+00	  0.099358723	7.841000E+01	  0.099358723	4.382400E+01	  0.099358723	3.641700E+01
398	  0.099559121	-8.723000E+00	  0.099559121	7.804600E+01	  0.099559121	4.406500E+01	  0.099559121	3.647500E+01
399	  0.099759519	-8.736000E+00	  0.099759519	7.763000E+01	  0.099759519	4.432800E+01	  0.099759519	3.656200E+01
400	  0.099959925	-8.751000E+00	  0.099959925	7.726300E+01	  0.099959925	4.456700E+01	  0.099959925	3.662800E+01
401	  0.100160323	-8.757000E+00	  0.100160323	7.690200E+01	  0.100160323	4.478700E+01	  0.100160323	3.672000E+01
402	  0.100360721	-8.773000E+00	  0.100360721	7.652700E+01	  0.100360721	4.503700E+01	  0.100360721	3.677900E+01
403	  0.100561127	-8.778000E+00	  0.100561127	7.610900E+01	  0.100561127	4.529000E+01	  0.100561127	3.689300E+01
404	  0.100761525	-8.791000E+00	  0.100761525	7.576300E+01	  0.100761525	4.551900E+01	  0.100761525	3.695200E+01
405	  0.100961931	-8.792000E+00	  0.100961931	7.534300E+01	  0.100961931	4.576900E+01	  0.100961931	3.707900E+01
406	  0.101162329	-8.796000E+00	  0.101162329	7.495600E+01	  0.101162329	4.600900E+01	  0.101162329	3.718100E+01
407	  0.101362728	-8.808000E+00	  0.101362728	7.460100E+01	  0.101362728	4.624500E+01	  0.101362728	3.724300E+01
408	  0.101563133	-8.816000E+00	  0.101563133	7.425900E+01	  0.101563133	4.646700E+01	  0.101563133	3.731600E+01
409	  0.101763532	-8.823000E+00	  0.101763532	7.383200E+01	  0.101763532	4.674000E+01	  0.101763532	3.741800E+01
410	  0.101963930	-8.816000E+00	  0.101963930	7.350300E+01	  0.101963930	4.692800E+01	  0.101963930	3.754400E+01
411	  0.102164328	-8.826000E+00	  0.102164328	7.305900E+01	  0.102164328	4.722200E+01	  0.102164328	3.763400E+01
412	  0.102364726	-8.821000E+00	  0.102364726	7.267500E+01	  0.102364726	4.745200E+01	  0.102364726	3.776700E+01
413	  0.102565125	-8.824000E+00	  0.102565125	7.221800E+01	  0.102565125	4.774400E+01	  0.102565125	3.788800E+01
414	  0.102765530	-8.823000E+00	  0.102765530	7.187900E+01	  0.102765530	4.795700E+01	  0.102765530	3.799000E+01
415	  0.102965929	-8.821000E+00	  0.102965929	7.152700E+01	  0.102965929	4.817800E+01	  0.102965929	3.809800E+01
416	  0.103166327	-8.813000E+00	  0.103166327	7.111700E+01	  0.103166327	4.842800E+01	  0.103166327	3.824800E+01
417	  0.103366733	-8.813000E+00	  0.103366733	7.069800E+01	  0.103366733	4.870100E+01	  0.103366733	3.836400E+01
418	  0.103567131	-8.809000E+00	  0.103567131	7.028500E+01	  0.103567131	4.896300E+01	  0.103567131	3.849800E+01
419	  0.103767529	-8.809000E+00	  0.103767529	6.989800E+01	  0.103767529	4.921900E+01	  0.103767529	3.860500E+01
420	  0.103967935	-8.800000E+00	  0.103967935	6.944500E+01	  0.103967935	4.950400E+01	  0.103967935	3.876900E+01
421	  0.104168333	-8.799000E+00	  0.104168333	6.906800E+01	  0.104168333	4.975700E+01	  0.104168333	3.887200E+01
422	  0.104368731	-8.783000E+00	  0.104368731	6.862500E+01	  0.104368731	5.002900E+01	  0.104368731	3.906100E+01
423	  0.104569137	-8.777000E+00	  0.104569137	6.819300E+01	  0.104569137	5.031400E+01	  0.104569137	3.920500E+01
424	  0.104769535	-8.764000E+00	  0.104769535	6.771300E+01	  0.104769535	5.062400E+01	  0.104769535	3.939000E+01
425	  0.104969934	-8.766000E+00	  0.104969934	6.728600E+01	  0.104969934	5.092500E+01	  0.104969934	3.949200E+01
426	  0.105170339	-8.750000E+00	  0.105170339	6.681700E+01	  0.105170339	5.123000E+01	  0.105170339	3.968400E+01
427	  0.105370738	-8.744000E+00	  0.105370738	6.637300E+01	  0.105370738	5.153700E+01	  0.105370738	3.982500E+01
428	  0.105571143	-8.726000E+00	  0.105571143	6.591600E+01	  0.105571143	5.183700E+01	  0.105571143	4.002100E+01
429	  0.105771542	-8.719000E+00	  0.105771542	6.543500E+01	  0.105771542	5.217600E+01	  0.105771542	4.017400E+01
430	  0.105971940	-8.709000E+00	  0.105971940	6.490900E+01	  0.105971940	5.254700E+01	  0.105971940	4.035000E+01
431	  0.106172346	-8.698000E+00	  0.106172346	6.444200E+01	  0.106172346	5.287700E+01	  0.106172346	4.051400E+01
432	  0.106372744	-8.693000E+00	  0.106372744	6.395700E+01	  0.106372744	5.323400E+01	  0.106372744	4.065100E+01
433	  0.106573142	-8.679000E+00	  0.106573142	6.341300E+01	  0.106573142	5.362600E+01	  0.106573142	4.084700E+01
434	  0.106773548	-8.672000E+00	  0.106773548	6.294600E+01	  0.106773548	5.397500E+01	  0.106773548	4.098600E+01
435	  0.106973946	-8.658000E+00	  0.106973946	6.245000E+01	  0.106973946	5.433900E+01	  0.106973946	4.116600E+01
436	  0.107174344	-8.646000E+00	  0.107174344	6.184200E+01	  0.107174344	5.480100E+01	  0.107174344	4.135800E+01
437	  0.107374750	-8.636000E+00	  0.107374750	6.131500E+01	  0.107374750	5.520700E+01	  0.107374750	4.151800E+01
438	  0.107575148	-8.630000E+00	  0.107575148	6.078400E+01	  0.107575148	5.562600E+01	  0.107575148	4.165700E+01
439	  0.107775547	-8.628000E+00	  0.107775547	6.023700E+01	  0.107775547	5.606800E+01	  0.107775547	4.177500E+01
440	  0.107975952	-8.605000E+00	  0.107975952	5.974400E+01	  0.107975952	5.644400E+01	  0.107975952	4.199700E+01
441	  0.108176351	-8.595000E+00	  0.108176351	5.920600E+01	  0.108176351	5.687900E+01	  0.108176351	4.215200E+01
442	  0.108376749	-8.588000E+00	  0.108376749	5.864000E+01	  0.108376749	5.734800E+01	  0.108376749	4.229200E+01
443	  0.108577155	-8.588000E+00	  0.108577155	5.808500E+01	  0.108577155	5.782000E+01	  0.108577155	4.238600E+01
444	  0.108777553	-8.578000E+00	  0.108777553	5.750200E+01	  0.108777553	5.831100E+01	  0.108777553	4.253700E+01
445	  0.108977959	-8.568000E+00	  0.108977959	5.695000E+01	  0.108977959	5.878200E+01	  0.108977959	4.267700E+01
446	  0.109178357	-8.564000E+00	  0.109178357	5.633600E+01	  0.109178357	5.931800E+01	  0.109178357	4.279200E+01
447	  0.109378755	-8.558000E+00	  0.109378755	5.578900E+01	  0.109378755	5.980000E+01	  0.109378755	4.290100E+01
448	  0.109579161	-8.551000E+00	  0.109579161	5.518700E+01	  0.109579161	6.033700E+01	  0.109579161	4.302100E+01
449	  0.109779559	-8.534000E+00	  0.109779559	5.461400E+01	  0.109779559	6.084600E+01	  0.109779559	4.319300E+01
450	  0.109979957	-8.533000E+00	  0.109979957	5.404500E+01	  0.109979957	6.137000E+01	  0.109979957	4.326000E+01
451	  0.110180363	-8.517000E+00	  0.110180363	5.348300E+01	  0.110180363	6.188300E+01	  0.110180363	4.341700E+01
452	  0.110380761	-8.508000E+00	  0.110380761	5.282800E+01	  0.110380761	6.249600E+01	  0.110380761	4.353200E+01
453	  0.110581160	-8.504000E+00	  0.110581160	5.222800E+01	  0.110581160	6.306700E+01	  0.110581160	4.360600E+01
454	  0.110781565	-8.492000E+00	  0.110781565	5.165000E+01	  0.110781565	6.361900E+01	  0.110781565	4.372400E+01
455	  0.110981964	-8.489000E+00	  0.110981964	5.096600E+01	  0.110981964	6.428600E+01	  0.110981964	4.378300E+01
456	  0.111182362	-8.477000E+00	  0.111182362	5.040500E+01	  0.111182362	6.483700E+01	  0.111182362	4.388500E+01
457	  0.111382768	-8.468000E+00	  0.111382768	4.971700E+01	  0.111382768	6.552300E+01	  0.111382768	4.396500E+01
458	  0.111583166	-8.455000E+00	  0.111583166	4.912300E+01	  0.111583166	6.612200E+01	  0.111583166	4.406300E+01
459	  0.111783572	-8.446000E+00	  0.111783572	4.848200E+01	  0.111783572	6.677700E+01	  0.111783572	4.412600E+01
460	  0.111983970	-8.437000E+00	  0.111983970	4.782200E+01	  0.111983970	6.746000E+01	  0.111983970	4.417900E+01
461	  0.112184368	-8.429000E+00	  0.112184368	4.713700E+01	  0.112184368	6.817900E+01	  0.112184368	4.422000E+01
462	  0.112384774	-8.428000E+00	  0.112384774	4.640100E+01	  0.112384774	6.895800E+01	  0.112384774	4.419600E+01
463	  0.112585172	-8.415000E+00	  0.112585172	4.571000E+01	  0.112585172	6.970200E+01	  0.112585172	4.424200E+01
464	  0.112785570	-8.410000E+00	  0.112785570	4.502900E+01	  0.112785570	7.044100E+01	  0.112785570	4.422600E+01
465	  0.112985976	-8.403000E+00	  0.112985976	4.429100E+01	  0.112985976	7.125300E+01	  0.112985976	4.420500E+01
466	  0.113186374	-8.400000E+00	  0.113186374	4.353700E+01	  0.113186374	7.208900E+01	  0.113186374	4.413700E+01
467	  0.113386773	-8.396000E+00	  0.113386773	4.284400E+01	  0.113386773	7.286500E+01	  0.113386773	4.406400E+01
468	  0.113587178	-8.392000E+00	  0.113587178	4.210400E+01	  0.113587178	7.370300E+01	  0.113587178	4.397800E+01
469	  0.113787577	-8.392000E+00	  0.113787577	4.132500E+01	  0.113787577	7.458800E+01	  0.113787577	4.383100E+01
470	  0.113987975	-8.381000E+00	  0.113987975	4.050200E+01	  0.113987975	7.554900E+01	  0.113987975	4.374100E+01
471	  0.114188381	-8.389000E+00	  0.114188381	3.976000E+01	  0.114188381	7.639400E+01	  0.114188381	4.349600E+01
472	  0.114388779	-8.392000E+00	  0.114388779	3.893300E+01	  0.114388779	7.735000E+01	  0.114388779	4.325400E+01
473	  0.114589177	-8.390000E+00	  0.114589177	3.816600E+01	  0.114589177	7.825500E+01	  0.114589177	4.304700E+01
474	  0.114789583	-8.395000E+00	  0.114789583	3.733400E+01	  0.114789583	7.922500E+01	  0.114789583	4.273700E+01
475	  0.114989981	-8.398000E+00	  0.114989981	3.647600E+01	  0.114989981	8.023200E+01	  0.114989981	4.240400E+01
476	  0.115190387	-8.400000E+00	  0.115190387	3.566600E+01	  0.115190387	8.119400E+01	  0.115190387	4.207700E+01
477	  0.115390785	-8.416000E+00	  0.115390785	3.479600E+01	  0.115390785	8.218700E+01	  0.115390785	4.158500E+01
478	  0.115591183	-8.417000E+00	  0.115591183	3.390500E+01	  0.115591183	8.324800E+01	  0.115591183	4.116700E+01
479	  0.115791589	-8.435000E+00	  0.115791589	3.304900E+01	  0.115791589	8.421100E+01	  0.115791589	4.059800E+01
480	  0.115991987	-8.445000E+00	  0.115991987	3.215600E+01	  0.115991987	8.523900E+01	  0.115991987	4.004200E+01
481	  0.116192386	-8.461000E+00	  0.116192386	3.126000E+01	  0.116192386	8.624700E+01	  0.116192386	3.940800E+01
482	  0.116392791	-8.482000E+00	  0.116392791	3.036000E+01	  0.116392791	8.722600E+01	  0.116392791	3.869400E+01
483	  0.116593190	-8.504000E+00	  0.116593190	2.939100E+01	  0.116593190	8.826900E+01	  0.116593190	3.789500E+01
484	  0.116793588	-8.525000E+00	  0.116793588	2.844400E+01	  0.116793588	8.927100E+01	  0.116793588	3.707200E+01
485	  0.116993994	-8.548000E+00	  0.116993994	2.749800E+01	  0.116993994	9.024700E+01	  0.116993994	3.620700E+01
486	  0.117194392	-8.577000E+00	  0.117194392	2.647700E+01	  0.117194392	9.125400E+01	  0.117194392	3.519500E+01
487	  0.117394790	-8.604000E+00	  0.117394790	2.550400E+01	  0.117394790	9.218700E+01	  0.117394790	3.419600E+01
488	  0.117595196	-8.639000E+00	  0.117595196	2.450300E+01	  0.117595196	9.307400E+01	  0.117595196	3.307700E+01
489	  0.117795594	-8.668000E+00	  0.117795594	2.351700E+01	  0.117795594	9.394700E+01	  0.117795594	3.198000E+01
490	  0.117995992	-8.712000E+00	  0.117995992	2.242300E+01	  0.117995992	9.480300E+01	  0.117995992	3.064700E+01
