! Anritsu VNA Master:             	Model: MS2036C/10/77
! SN:             	1601066
! /card0/usr/uu.s11.19p46.txt
! Existing Calibration Information:
! TYPE:             	Current Settings	Active Cal Settings
! TIME:             	05/23/2018 11:42:40 AM	05/23/2018 11:36:58 AM
! INTERNAL TEMP:    	48.5 C	48.8 C
! # POINTS:         	500	500
! START FREQ:       	20.000 MHz	20.000 MHz
! STOP FREQ:        	120.000 MHz	120.000 MHz
! SOURCE POWER:     	High	High
! IFBW:             	50 Hz	50 Hz
! AVG FACTOR:       	  1 	  1 
! REF PLANE 1:      	0 mm	0 mm
! REF PLANE 2:      	0 mm	0 mm
! CAL TYPE:         	Full S11	Full S11
! CAL METHOD:       	SOLT	SOLT
! CAL LINE TYPE:    	Coax	Coax
! DUT PORT 1:       	K-Conn(M)	K-Conn(M)
! DUT PORT 2:       	K-Conn(M)	K-Conn(M)
! CAL STATUS:       	OK: Accuracy High	--
! PROP-V:       	0.700
! CABLE LOSS:       	0.000 dB/m
! REF IMPEDANCE:       	50.0
! Trace Specific Parameters:	TR1	TR2	TR3	TR4
! TRACE.#.Y (GRAPH TYPE)	LOG MAG	PHASE	REAL IMPEDANCE	IMAGINARY IMPEDANCE
! TRACE.#.X 	FREQ.GHZ	FREQ.GHZ	FREQ.GHZ	FREQ.GHZ
! S-PARAMETER	S11	S11	S11	S11
! SMOOTH/APERTURE %	0	0	0	0
! WINDOW	NSL	NSL	NSL	NSL
! GATING	OFF	OFF	OFF	OFF
! FGTD	OFF	OFF	OFF	OFF
Marker Information per Trace:	TR1	TR2	TR3	TR4
!MK1	--	--	--	--
!MK2	--	--	--	--
!MK3	--	--	--	--
!MK4	--	--	--	--
!MK5	--	--	--	--
!MK6	--	--	--	--
!MK7	--	--	--	--
!MK8	--	--	--	--
PNT	TR1.FREQ.GHZ	TR1.LOG MAG.dB	TR2.FREQ.GHZ	TR2.PHASE.deg	TR3.FREQ.GHZ	TR3.REAL IMPEDANCE.ohm	TR4.FREQ.GHZ	TR4.IMAGINARY IMPEDANCE.ohm
1	  0.020000000	-7.258000E+00	  0.020000000	1.557490E+02	  0.020000000	2.051900E+01	  0.020000000	9.000000E+00
2	  0.020200402	-7.260000E+00	  0.020200402	1.555050E+02	  0.020200402	2.054000E+01	  0.020200402	9.091000E+00
3	  0.020400802	-7.261000E+00	  0.020400802	1.552570E+02	  0.020400802	2.055900E+01	  0.020400802	9.184000E+00
4	  0.020601204	-7.263000E+00	  0.020601204	1.550380E+02	  0.020601204	2.057700E+01	  0.020601204	9.266000E+00
5	  0.020801604	-7.262000E+00	  0.020801604	1.547960E+02	  0.020801604	2.059100E+01	  0.020801604	9.358000E+00
6	  0.021002004	-7.261000E+00	  0.021002004	1.545540E+02	  0.021002004	2.060500E+01	  0.021002004	9.449000E+00
7	  0.021202406	-7.263000E+00	  0.021202406	1.543210E+02	  0.021202406	2.062600E+01	  0.021202406	9.537000E+00
8	  0.021402806	-7.262000E+00	  0.021402806	1.540950E+02	  0.021402806	2.064000E+01	  0.021402806	9.622000E+00
9	  0.021603208	-7.265000E+00	  0.021603208	1.538380E+02	  0.021603208	2.066400E+01	  0.021603208	9.719000E+00
10	  0.021803608	-7.264000E+00	  0.021803608	1.535980E+02	  0.021803608	2.067800E+01	  0.021803608	9.810000E+00
11	  0.022004008	-7.266000E+00	  0.022004008	1.533860E+02	  0.022004008	2.069900E+01	  0.022004008	9.889000E+00
12	  0.022204408	-7.267000E+00	  0.022204408	1.531160E+02	  0.022204408	2.072000E+01	  0.022204408	9.991000E+00
13	  0.022404809	-7.268000E+00	  0.022404809	1.528960E+02	  0.022404809	2.074000E+01	  0.022404809	1.007400E+01
14	  0.022605211	-7.266000E+00	  0.022605211	1.526490E+02	  0.022605211	2.075200E+01	  0.022605211	1.016800E+01
15	  0.022805611	-7.266000E+00	  0.022805611	1.524070E+02	  0.022805611	2.077100E+01	  0.022805611	1.026000E+01
16	  0.023006011	-7.268000E+00	  0.023006011	1.521770E+02	  0.023006011	2.079300E+01	  0.023006011	1.034600E+01
17	  0.023206413	-7.269000E+00	  0.023206413	1.519340E+02	  0.023206413	2.081400E+01	  0.023206413	1.043800E+01
18	  0.023406813	-7.271000E+00	  0.023406813	1.516990E+02	  0.023406813	2.083700E+01	  0.023406813	1.052600E+01
19	  0.023607215	-7.271000E+00	  0.023607215	1.514660E+02	  0.023607215	2.085500E+01	  0.023607215	1.061500E+01
20	  0.023807615	-7.271000E+00	  0.023807615	1.512130E+02	  0.023807615	2.087300E+01	  0.023807615	1.071100E+01
21	  0.024008015	-7.271000E+00	  0.024008015	1.509830E+02	  0.024008015	2.089200E+01	  0.024008015	1.079900E+01
22	  0.024208417	-7.271000E+00	  0.024208417	1.507490E+02	  0.024208417	2.091000E+01	  0.024208417	1.088800E+01
23	  0.024408817	-7.270000E+00	  0.024408817	1.505120E+02	  0.024408817	2.092800E+01	  0.024408817	1.097800E+01
24	  0.024609219	-7.273000E+00	  0.024609219	1.502620E+02	  0.024609219	2.095400E+01	  0.024609219	1.107200E+01
25	  0.024809619	-7.273000E+00	  0.024809619	1.500220E+02	  0.024809619	2.097400E+01	  0.024809619	1.116400E+01
26	  0.025010020	-7.274000E+00	  0.025010020	1.497880E+02	  0.025010020	2.099700E+01	  0.025010020	1.125200E+01
27	  0.025210422	-7.276000E+00	  0.025210422	1.495630E+02	  0.025210422	2.101800E+01	  0.025210422	1.133700E+01
28	  0.025410822	-7.275000E+00	  0.025410822	1.493180E+02	  0.025410822	2.103800E+01	  0.025410822	1.143100E+01
29	  0.025611224	-7.278000E+00	  0.025611224	1.490840E+02	  0.025611224	2.106400E+01	  0.025611224	1.151900E+01
30	  0.025811624	-7.277000E+00	  0.025811624	1.488430E+02	  0.025811624	2.108200E+01	  0.025811624	1.161200E+01
31	  0.026012026	-7.276000E+00	  0.026012026	1.486070E+02	  0.026012026	2.110100E+01	  0.026012026	1.170200E+01
32	  0.026212426	-7.278000E+00	  0.026212426	1.483730E+02	  0.026212426	2.112500E+01	  0.026212426	1.179100E+01
33	  0.026412826	-7.276000E+00	  0.026412826	1.481280E+02	  0.026412826	2.114200E+01	  0.026412826	1.188600E+01
34	  0.026613226	-7.278000E+00	  0.026613226	1.478740E+02	  0.026613226	2.116900E+01	  0.026613226	1.198200E+01
35	  0.026813626	-7.278000E+00	  0.026813626	1.476240E+02	  0.026813626	2.119200E+01	  0.026813626	1.207800E+01
36	  0.027014028	-7.279000E+00	  0.027014028	1.474010E+02	  0.027014028	2.121600E+01	  0.027014028	1.216200E+01
37	  0.027214428	-7.277000E+00	  0.027214428	1.471620E+02	  0.027214428	2.123000E+01	  0.027214428	1.225600E+01
38	  0.027414829	-7.279000E+00	  0.027414829	1.469210E+02	  0.027414829	2.125900E+01	  0.027414829	1.234600E+01
39	  0.027615231	-7.279000E+00	  0.027615231	1.466910E+02	  0.027615231	2.128000E+01	  0.027615231	1.243500E+01
40	  0.027815631	-7.279000E+00	  0.027815631	1.464460E+02	  0.027815631	2.130200E+01	  0.027815631	1.252900E+01
41	  0.028016033	-7.278000E+00	  0.028016033	1.462220E+02	  0.028016033	2.132100E+01	  0.028016033	1.261600E+01
42	  0.028216433	-7.281000E+00	  0.028216433	1.459750E+02	  0.028216433	2.135100E+01	  0.028216433	1.270900E+01
43	  0.028416833	-7.281000E+00	  0.028416833	1.457490E+02	  0.028416833	2.137200E+01	  0.028416833	1.279600E+01
44	  0.028617235	-7.280000E+00	  0.028617235	1.455040E+02	  0.028617235	2.139400E+01	  0.028617235	1.289100E+01
45	  0.028817635	-7.279000E+00	  0.028817635	1.452740E+02	  0.028817635	2.141400E+01	  0.028817635	1.298100E+01
46	  0.029018037	-7.278000E+00	  0.029018037	1.450420E+02	  0.029018037	2.143200E+01	  0.029018037	1.307100E+01
47	  0.029218437	-7.279000E+00	  0.029218437	1.448040E+02	  0.029218437	2.145900E+01	  0.029218437	1.316200E+01
48	  0.029418837	-7.278000E+00	  0.029418837	1.445720E+02	  0.029418837	2.148100E+01	  0.029418837	1.325200E+01
49	  0.029619239	-7.278000E+00	  0.029619239	1.443390E+02	  0.029619239	2.150200E+01	  0.029619239	1.334300E+01
50	  0.029819639	-7.278000E+00	  0.029819639	1.440990E+02	  0.029819639	2.152700E+01	  0.029819639	1.343500E+01
51	  0.030020041	-7.275000E+00	  0.030020041	1.438690E+02	  0.030020041	2.154400E+01	  0.030020041	1.352600E+01
52	  0.030220442	-7.275000E+00	  0.030220442	1.436200E+02	  0.030220442	2.156900E+01	  0.030220442	1.362300E+01
53	  0.030420844	-7.275000E+00	  0.030420844	1.433930E+02	  0.030420844	2.159300E+01	  0.030420844	1.371000E+01
54	  0.030621244	-7.273000E+00	  0.030621244	1.431490E+02	  0.030621244	2.161300E+01	  0.030621244	1.380700E+01
55	  0.030821644	-7.273000E+00	  0.030821644	1.429080E+02	  0.030821644	2.163700E+01	  0.030821644	1.390000E+01
56	  0.031022044	-7.273000E+00	  0.031022044	1.426730E+02	  0.031022044	2.166300E+01	  0.031022044	1.399100E+01
57	  0.031222444	-7.258000E+00	  0.031222444	1.425110E+02	  0.031222444	2.164100E+01	  0.031222444	1.406500E+01
58	  0.031422846	-7.256000E+00	  0.031422846	1.422630E+02	  0.031422846	2.166200E+01	  0.031422846	1.416300E+01
59	  0.031623244	-7.258000E+00	  0.031623244	1.420360E+02	  0.031623244	2.169100E+01	  0.031623244	1.425000E+01
60	  0.031823646	-7.258000E+00	  0.031823646	1.417830E+02	  0.031823646	2.171800E+01	  0.031823646	1.434900E+01
61	  0.032024048	-7.259000E+00	  0.032024048	1.415430E+02	  0.032024048	2.174600E+01	  0.032024048	1.444200E+01
62	  0.032224450	-7.258000E+00	  0.032224450	1.413060E+02	  0.032224450	2.177100E+01	  0.032224450	1.453400E+01
63	  0.032424849	-7.255000E+00	  0.032424849	1.410810E+02	  0.032424849	2.178900E+01	  0.032424849	1.462500E+01
64	  0.032625251	-7.257000E+00	  0.032625251	1.408310E+02	  0.032625251	2.182200E+01	  0.032625251	1.472100E+01
65	  0.032825653	-7.257000E+00	  0.032825653	1.405660E+02	  0.032825653	2.185200E+01	  0.032825653	1.482500E+01
66	  0.033026051	-7.260000E+00	  0.033026051	1.403460E+02	  0.033026051	2.188300E+01	  0.033026051	1.490900E+01
67	  0.033226453	-7.259000E+00	  0.033226453	1.400960E+02	  0.033226453	2.191000E+01	  0.033226453	1.500800E+01
68	  0.033426855	-7.257000E+00	  0.033426855	1.398570E+02	  0.033426855	2.193300E+01	  0.033426855	1.510200E+01
69	  0.033627257	-7.258000E+00	  0.033627257	1.396170E+02	  0.033627257	2.196200E+01	  0.033627257	1.519600E+01
70	  0.033827655	-7.258000E+00	  0.033827655	1.393850E+02	  0.033827655	2.199100E+01	  0.033827655	1.528700E+01
71	  0.034028057	-7.258000E+00	  0.034028057	1.391460E+02	  0.034028057	2.201700E+01	  0.034028057	1.538100E+01
72	  0.034228459	-7.259000E+00	  0.034228459	1.388940E+02	  0.034228459	2.205100E+01	  0.034228459	1.547900E+01
73	  0.034428857	-7.259000E+00	  0.034428857	1.386570E+02	  0.034428857	2.207900E+01	  0.034428857	1.557200E+01
74	  0.034629259	-7.258000E+00	  0.034629259	1.383940E+02	  0.034629259	2.210900E+01	  0.034629259	1.567700E+01
75	  0.034829661	-7.260000E+00	  0.034829661	1.381540E+02	  0.034829661	2.214200E+01	  0.034829661	1.577000E+01
76	  0.035030060	-7.259000E+00	  0.035030060	1.379290E+02	  0.035030060	2.216800E+01	  0.035030060	1.585900E+01
77	  0.035230462	-7.259000E+00	  0.035230462	1.376820E+02	  0.035230462	2.219800E+01	  0.035230462	1.595700E+01
78	  0.035430863	-7.258000E+00	  0.035430863	1.374490E+02	  0.035430863	2.222400E+01	  0.035430863	1.605000E+01
79	  0.035631265	-7.260000E+00	  0.035631265	1.372130E+02	  0.035631265	2.225800E+01	  0.035631265	1.614200E+01
80	  0.035831664	-7.262000E+00	  0.035831664	1.369570E+02	  0.035831664	2.229700E+01	  0.035831664	1.624100E+01
81	  0.036032066	-7.261000E+00	  0.036032066	1.367270E+02	  0.036032066	2.232400E+01	  0.036032066	1.633200E+01
82	  0.036232468	-7.259000E+00	  0.036232468	1.364900E+02	  0.036232468	2.234800E+01	  0.036232468	1.642800E+01
83	  0.036432866	-7.259000E+00	  0.036432866	1.362410E+02	  0.036432866	2.238100E+01	  0.036432866	1.652600E+01
84	  0.036633268	-7.260000E+00	  0.036633268	1.360170E+02	  0.036633268	2.241100E+01	  0.036633268	1.661500E+01
85	  0.036833670	-7.259000E+00	  0.036833670	1.357700E+02	  0.036833670	2.244200E+01	  0.036833670	1.671400E+01
86	  0.037034072	-7.262000E+00	  0.037034072	1.355360E+02	  0.037034072	2.247900E+01	  0.037034072	1.680400E+01
87	  0.037234470	-7.262000E+00	  0.037234470	1.352890E+02	  0.037234470	2.251100E+01	  0.037234470	1.690300E+01
88	  0.037434869	-7.259000E+00	  0.037434869	1.350670E+02	  0.037434869	2.253400E+01	  0.037434869	1.699400E+01
89	  0.037635271	-7.259000E+00	  0.037635271	1.348220E+02	  0.037635271	2.256600E+01	  0.037635271	1.709100E+01
90	  0.037835669	-7.258000E+00	  0.037835669	1.345830E+02	  0.037835669	2.259600E+01	  0.037835669	1.718700E+01
91	  0.038036071	-7.259000E+00	  0.038036071	1.343510E+02	  0.038036071	2.263100E+01	  0.038036071	1.727900E+01
92	  0.038236473	-7.260000E+00	  0.038236473	1.341180E+02	  0.038236473	2.266500E+01	  0.038236473	1.737100E+01
93	  0.038436871	-7.258000E+00	  0.038436871	1.338890E+02	  0.038436871	2.269200E+01	  0.038436871	1.746400E+01
94	  0.038637273	-7.259000E+00	  0.038637273	1.336400E+02	  0.038637273	2.272800E+01	  0.038637273	1.756300E+01
95	  0.038837675	-7.259000E+00	  0.038837675	1.334230E+02	  0.038837675	2.275800E+01	  0.038837675	1.765000E+01
96	  0.039038073	-7.261000E+00	  0.039038073	1.331790E+02	  0.039038073	2.279700E+01	  0.039038073	1.774600E+01
97	  0.039238475	-7.259000E+00	  0.039238475	1.329320E+02	  0.039238475	2.282800E+01	  0.039238475	1.784600E+01
98	  0.039438877	-7.258000E+00	  0.039438877	1.327080E+02	  0.039438877	2.285700E+01	  0.039438877	1.793800E+01
99	  0.039639279	-7.258000E+00	  0.039639279	1.324610E+02	  0.039639279	2.289300E+01	  0.039639279	1.803600E+01
100	  0.039839678	-7.256000E+00	  0.039839678	1.322240E+02	  0.039839678	2.292300E+01	  0.039839678	1.813300E+01
101	  0.040040080	-7.257000E+00	  0.040040080	1.319990E+02	  0.040040080	2.295800E+01	  0.040040080	1.822300E+01
102	  0.040240481	-7.256000E+00	  0.040240481	1.317690E+02	  0.040240481	2.298800E+01	  0.040240481	1.831700E+01
103	  0.040440880	-7.256000E+00	  0.040440880	1.315140E+02	  0.040440880	2.302700E+01	  0.040440880	1.841900E+01
104	  0.040641282	-7.256000E+00	  0.040641282	1.312960E+02	  0.040641282	2.305900E+01	  0.040641282	1.850700E+01
105	  0.040841684	-7.257000E+00	  0.040841684	1.310520E+02	  0.040841684	2.309700E+01	  0.040841684	1.860500E+01
106	  0.041042086	-7.254000E+00	  0.041042086	1.308250E+02	  0.041042086	2.312500E+01	  0.041042086	1.869900E+01
107	  0.041242484	-7.255000E+00	  0.041242484	1.305950E+02	  0.041242484	2.316100E+01	  0.041242484	1.879100E+01
108	  0.041442886	-7.256000E+00	  0.041442886	1.303630E+02	  0.041442886	2.319900E+01	  0.041442886	1.888400E+01
109	  0.041643288	-7.254000E+00	  0.041643288	1.301300E+02	  0.041643288	2.322900E+01	  0.041643288	1.898000E+01
110	  0.041843686	-7.254000E+00	  0.041843686	1.298930E+02	  0.041843686	2.326600E+01	  0.041843686	1.907700E+01
111	  0.042044088	-7.253000E+00	  0.042044088	1.296540E+02	  0.042044088	2.330100E+01	  0.042044088	1.917400E+01
112	  0.042244490	-7.255000E+00	  0.042244490	1.294090E+02	  0.042244490	2.334600E+01	  0.042244490	1.927100E+01
113	  0.042444889	-7.253000E+00	  0.042444889	1.291990E+02	  0.042444889	2.337300E+01	  0.042444889	1.935900E+01
114	  0.042645290	-7.253000E+00	  0.042645290	1.289470E+02	  0.042645290	2.341100E+01	  0.042645290	1.946200E+01
115	  0.042845692	-7.253000E+00	  0.042845692	1.287210E+02	  0.042845692	2.344900E+01	  0.042845692	1.955300E+01
116	  0.043046094	-7.252000E+00	  0.043046094	1.284890E+02	  0.043046094	2.348300E+01	  0.043046094	1.964900E+01
117	  0.043246493	-7.251000E+00	  0.043246493	1.282460E+02	  0.043246493	2.352100E+01	  0.043246493	1.974900E+01
118	  0.043446895	-7.251000E+00	  0.043446895	1.280190E+02	  0.043446895	2.355700E+01	  0.043446895	1.984200E+01
119	  0.043647297	-7.251000E+00	  0.043647297	1.277710E+02	  0.043647297	2.359800E+01	  0.043647297	1.994300E+01
120	  0.043847695	-7.250000E+00	  0.043847695	1.275430E+02	  0.043847695	2.363300E+01	  0.043847695	2.003700E+01
121	  0.044048097	-7.253000E+00	  0.044048097	1.272970E+02	  0.044048097	2.368000E+01	  0.044048097	2.013500E+01
122	  0.044248499	-7.250000E+00	  0.044248499	1.270650E+02	  0.044248499	2.371000E+01	  0.044248499	2.023300E+01
123	  0.044448901	-7.252000E+00	  0.044448901	1.268300E+02	  0.044448901	2.375600E+01	  0.044448901	2.032800E+01
124	  0.044649299	-7.250000E+00	  0.044649299	1.265980E+02	  0.044649299	2.379000E+01	  0.044649299	2.042500E+01
125	  0.044849701	-7.250000E+00	  0.044849701	1.263460E+02	  0.044849701	2.383300E+01	  0.044849701	2.052800E+01
126	  0.045050103	-7.249000E+00	  0.045050103	1.261270E+02	  0.045050103	2.386800E+01	  0.045050103	2.061900E+01
127	  0.045250501	-7.248000E+00	  0.045250501	1.258860E+02	  0.045250501	2.390700E+01	  0.045250501	2.071900E+01
128	  0.045450903	-7.245000E+00	  0.045450903	1.256590E+02	  0.045450903	2.393800E+01	  0.045450903	2.081600E+01
129	  0.045651305	-7.249000E+00	  0.045651305	1.254280E+02	  0.045651305	2.398900E+01	  0.045651305	2.090700E+01
130	  0.045851704	-7.248000E+00	  0.045851704	1.251820E+02	  0.045851704	2.403000E+01	  0.045851704	2.100900E+01
131	  0.046052106	-7.245000E+00	  0.046052106	1.249430E+02	  0.046052106	2.406300E+01	  0.046052106	2.111200E+01
132	  0.046252504	-7.246000E+00	  0.046252504	1.247130E+02	  0.046252504	2.410800E+01	  0.046252504	2.120500E+01
133	  0.046452906	-7.245000E+00	  0.046452906	1.244670E+02	  0.046452906	2.414900E+01	  0.046452906	2.130800E+01
134	  0.046653304	-7.247000E+00	  0.046653304	1.242430E+02	  0.046653304	2.419400E+01	  0.046653304	2.139900E+01
135	  0.046853706	-7.245000E+00	  0.046853706	1.239950E+02	  0.046853706	2.423300E+01	  0.046853706	2.150400E+01
136	  0.047054108	-7.244000E+00	  0.047054108	1.237600E+02	  0.047054108	2.427400E+01	  0.047054108	2.160300E+01
137	  0.047254506	-7.242000E+00	  0.047254506	1.235240E+02	  0.047254506	2.431300E+01	  0.047254506	2.170300E+01
138	  0.047454908	-7.242000E+00	  0.047454908	1.232810E+02	  0.047454908	2.435800E+01	  0.047454908	2.180300E+01
139	  0.047655310	-7.242000E+00	  0.047655310	1.230520E+02	  0.047655310	2.439900E+01	  0.047655310	2.189900E+01
140	  0.047855709	-7.243000E+00	  0.047855709	1.228080E+02	  0.047855709	2.444700E+01	  0.047855709	2.200000E+01
141	  0.048056111	-7.240000E+00	  0.048056111	1.225600E+02	  0.048056111	2.448700E+01	  0.048056111	2.210700E+01
142	  0.048256513	-7.236000E+00	  0.048256513	1.223220E+02	  0.048256513	2.452100E+01	  0.048256513	2.221100E+01
143	  0.048456915	-7.236000E+00	  0.048456915	1.220990E+02	  0.048456915	2.456400E+01	  0.048456915	2.230400E+01
144	  0.048657313	-7.236000E+00	  0.048657313	1.218550E+02	  0.048657313	2.460800E+01	  0.048657313	2.240700E+01
145	  0.048857715	-7.235000E+00	  0.048857715	1.216250E+02	  0.048857715	2.465100E+01	  0.048857715	2.250400E+01
146	  0.049058117	-7.234000E+00	  0.049058117	1.213810E+02	  0.049058117	2.469700E+01	  0.049058117	2.260700E+01
147	  0.049258515	-7.236000E+00	  0.049258515	1.211640E+02	  0.049258515	2.474300E+01	  0.049258515	2.269600E+01
148	  0.049458917	-7.234000E+00	  0.049458917	1.209220E+02	  0.049458917	2.478600E+01	  0.049458917	2.280000E+01
149	  0.049659319	-7.233000E+00	  0.049659319	1.206750E+02	  0.049659319	2.483300E+01	  0.049659319	2.290500E+01
150	  0.049859721	-7.229000E+00	  0.049859721	1.204550E+02	  0.049859721	2.486500E+01	  0.049859721	2.300200E+01
151	  0.050060119	-7.232000E+00	  0.050060119	1.202240E+02	  0.050060119	2.491900E+01	  0.050060119	2.309600E+01
152	  0.050260521	-7.228000E+00	  0.050260521	1.199930E+02	  0.050260521	2.495600E+01	  0.050260521	2.319800E+01
153	  0.050460923	-7.229000E+00	  0.050460923	1.197540E+02	  0.050460923	2.500500E+01	  0.050460923	2.329900E+01
154	  0.050661322	-7.230000E+00	  0.050661322	1.195080E+02	  0.050661322	2.506000E+01	  0.050661322	2.340000E+01
155	  0.050861724	-7.228000E+00	  0.050861724	1.192810E+02	  0.050861724	2.510000E+01	  0.050861724	2.349900E+01
156	  0.051062126	-7.228000E+00	  0.051062126	1.190480E+02	  0.051062126	2.514800E+01	  0.051062126	2.359800E+01
157	  0.051262524	-7.229000E+00	  0.051262524	1.188070E+02	  0.051262524	2.520100E+01	  0.051262524	2.369800E+01
158	  0.051462926	-7.224000E+00	  0.051462926	1.185810E+02	  0.051462926	2.523400E+01	  0.051462926	2.380100E+01
159	  0.051663328	-7.225000E+00	  0.051663328	1.183620E+02	  0.051663328	2.528400E+01	  0.051663328	2.389200E+01
160	  0.051863730	-7.222000E+00	  0.051863730	1.181110E+02	  0.051863730	2.532800E+01	  0.051863730	2.400300E+01
161	  0.052064128	-7.225000E+00	  0.052064128	1.178660E+02	  0.052064128	2.538700E+01	  0.052064128	2.410300E+01
162	  0.052264530	-7.223000E+00	  0.052264530	1.176430E+02	  0.052264530	2.543100E+01	  0.052264530	2.420000E+01
163	  0.052464932	-7.221000E+00	  0.052464932	1.174040E+02	  0.052464932	2.547700E+01	  0.052464932	2.430500E+01
164	  0.052665330	-7.220000E+00	  0.052665330	1.171750E+02	  0.052665330	2.552400E+01	  0.052665330	2.440400E+01
165	  0.052865732	-7.218000E+00	  0.052865732	1.169450E+02	  0.052865732	2.556800E+01	  0.052865732	2.450600E+01
166	  0.053066134	-7.219000E+00	  0.053066134	1.167250E+02	  0.053066134	2.562000E+01	  0.053066134	2.459800E+01
167	  0.053266536	-7.219000E+00	  0.053266536	1.164960E+02	  0.053266536	2.566900E+01	  0.053266536	2.469600E+01
168	  0.053466935	-7.219000E+00	  0.053466935	1.162420E+02	  0.053466935	2.572500E+01	  0.053466935	2.480500E+01
169	  0.053667337	-7.217000E+00	  0.053667337	1.160180E+02	  0.053667337	2.576900E+01	  0.053667337	2.490400E+01
170	  0.053867739	-7.218000E+00	  0.053867739	1.157940E+02	  0.053867739	2.582400E+01	  0.053867739	2.499800E+01
171	  0.054068137	-7.214000E+00	  0.054068137	1.155600E+02	  0.054068137	2.586600E+01	  0.054068137	2.510400E+01
172	  0.054268539	-7.215000E+00	  0.054268539	1.153260E+02	  0.054268539	2.592000E+01	  0.054268539	2.520400E+01
173	  0.054468941	-7.213000E+00	  0.054468941	1.150980E+02	  0.054468941	2.596700E+01	  0.054468941	2.530500E+01
174	  0.054669339	-7.212000E+00	  0.054669339	1.148630E+02	  0.054669339	2.602000E+01	  0.054669339	2.540700E+01
175	  0.054869737	-7.214000E+00	  0.054869737	1.146400E+02	  0.054869737	2.607600E+01	  0.054869737	2.550100E+01
176	  0.055070139	-7.209000E+00	  0.055070139	1.144150E+02	  0.055070139	2.611500E+01	  0.055070139	2.560500E+01
177	  0.055270538	-7.209000E+00	  0.055270538	1.141740E+02	  0.055270538	2.617000E+01	  0.055270538	2.571000E+01
178	  0.055470940	-7.207000E+00	  0.055470940	1.139560E+02	  0.055470940	2.621600E+01	  0.055470940	2.580700E+01
179	  0.055671342	-7.209000E+00	  0.055671342	1.137330E+02	  0.055671342	2.627500E+01	  0.055671342	2.590000E+01
180	  0.055871744	-7.208000E+00	  0.055871744	1.134870E+02	  0.055871744	2.632900E+01	  0.055871744	2.600900E+01
181	  0.056072142	-7.206000E+00	  0.056072142	1.132640E+02	  0.056072142	2.637800E+01	  0.056072142	2.610800E+01
182	  0.056272544	-7.206000E+00	  0.056272544	1.130220E+02	  0.056272544	2.643700E+01	  0.056272544	2.621300E+01
183	  0.056472946	-7.207000E+00	  0.056472946	1.128030E+02	  0.056472946	2.649300E+01	  0.056472946	2.630700E+01
184	  0.056673344	-7.203000E+00	  0.056673344	1.125670E+02	  0.056673344	2.654000E+01	  0.056673344	2.641500E+01
185	  0.056873746	-7.206000E+00	  0.056873746	1.123420E+02	  0.056873746	2.660300E+01	  0.056873746	2.650900E+01
186	  0.057074148	-7.205000E+00	  0.057074148	1.121180E+02	  0.057074148	2.665600E+01	  0.057074148	2.660800E+01
187	  0.057274550	-7.201000E+00	  0.057274550	1.118800E+02	  0.057274550	2.670300E+01	  0.057274550	2.671800E+01
188	  0.057474948	-7.202000E+00	  0.057474948	1.116660E+02	  0.057474948	2.676000E+01	  0.057474948	2.681000E+01
189	  0.057675350	-7.201000E+00	  0.057675350	1.114330E+02	  0.057675350	2.681500E+01	  0.057675350	2.691300E+01
190	  0.057875752	-7.201000E+00	  0.057875752	1.111880E+02	  0.057875752	2.687700E+01	  0.057875752	2.702100E+01
191	  0.058076151	-7.201000E+00	  0.058076151	1.109580E+02	  0.058076151	2.693500E+01	  0.058076151	2.712200E+01
192	  0.058276553	-7.200000E+00	  0.058276553	1.107310E+02	  0.058276553	2.698900E+01	  0.058276553	2.722300E+01
193	  0.058476955	-7.200000E+00	  0.058476955	1.105140E+02	  0.058476955	2.704400E+01	  0.058476955	2.731900E+01
194	  0.058677353	-7.200000E+00	  0.058677353	1.102820E+02	  0.058677353	2.710700E+01	  0.058677353	2.742000E+01
195	  0.058877755	-7.199000E+00	  0.058877755	1.100530E+02	  0.058877755	2.716400E+01	  0.058877755	2.752200E+01
196	  0.059078157	-7.201000E+00	  0.059078157	1.098220E+02	  0.059078157	2.722800E+01	  0.059078157	2.762100E+01
197	  0.059278559	-7.199000E+00	  0.059278559	1.095930E+02	  0.059278559	2.728300E+01	  0.059278559	2.772500E+01
198	  0.059478957	-7.198000E+00	  0.059478957	1.093620E+02	  0.059478957	2.734000E+01	  0.059478957	2.782900E+01
199	  0.059679359	-7.197000E+00	  0.059679359	1.091370E+02	  0.059679359	2.739900E+01	  0.059679359	2.792900E+01
200	  0.059879761	-7.198000E+00	  0.059879761	1.089190E+02	  0.059879761	2.745900E+01	  0.059879761	2.802400E+01
201	  0.060080159	-7.196000E+00	  0.060080159	1.086680E+02	  0.060080159	2.752300E+01	  0.060080159	2.813800E+01
202	  0.060280561	-7.197000E+00	  0.060280561	1.084500E+02	  0.060280561	2.758200E+01	  0.060280561	2.823400E+01
203	  0.060480963	-7.198000E+00	  0.060480963	1.082150E+02	  0.060480963	2.765000E+01	  0.060480963	2.833600E+01
204	  0.060681365	-7.196000E+00	  0.060681365	1.079860E+02	  0.060681365	2.770800E+01	  0.060681365	2.844000E+01
205	  0.060881764	-7.195000E+00	  0.060881764	1.077700E+02	  0.060881764	2.776500E+01	  0.060881764	2.853800E+01
206	  0.061082166	-7.193000E+00	  0.061082166	1.075290E+02	  0.061082166	2.782500E+01	  0.061082166	2.865000E+01
207	  0.061282568	-7.193000E+00	  0.061282568	1.072940E+02	  0.061282568	2.789000E+01	  0.061282568	2.875400E+01
208	  0.061482966	-7.190000E+00	  0.061482966	1.070750E+02	  0.061482966	2.794400E+01	  0.061482966	2.885600E+01
209	  0.061683368	-7.188000E+00	  0.061683368	1.068430E+02	  0.061683368	2.800400E+01	  0.061683368	2.896300E+01
210	  0.061883770	-7.187000E+00	  0.061883770	1.066220E+02	  0.061883770	2.806300E+01	  0.061883770	2.906400E+01
211	  0.062084168	-7.187000E+00	  0.062084168	1.064000E+02	  0.062084168	2.812700E+01	  0.062084168	2.916300E+01
212	  0.062284570	-7.185000E+00	  0.062284570	1.061740E+02	  0.062284570	2.818500E+01	  0.062284570	2.926800E+01
213	  0.062484972	-7.172000E+00	  0.062484972	1.060330E+02	  0.062484972	2.818700E+01	  0.062484972	2.935600E+01
214	  0.062685370	-7.169000E+00	  0.062685370	1.057950E+02	  0.062685370	2.824800E+01	  0.062685370	2.946800E+01
215	  0.062885776	-7.170000E+00	  0.062885776	1.055900E+02	  0.062885776	2.831000E+01	  0.062885776	2.955800E+01
216	  0.063086174	-7.173000E+00	  0.063086174	1.053660E+02	  0.063086174	2.838400E+01	  0.063086174	2.965400E+01
217	  0.063286573	-7.169000E+00	  0.063286573	1.051390E+02	  0.063286573	2.844000E+01	  0.063286573	2.976300E+01
218	  0.063486971	-7.167000E+00	  0.063486971	1.049110E+02	  0.063486971	2.850200E+01	  0.063486971	2.986900E+01
219	  0.063687377	-7.169000E+00	  0.063687377	1.046900E+02	  0.063687377	2.857300E+01	  0.063687377	2.996500E+01
220	  0.063887775	-7.168000E+00	  0.063887775	1.044420E+02	  0.063887775	2.864600E+01	  0.063887775	3.007800E+01
221	  0.064088173	-7.168000E+00	  0.064088173	1.042050E+02	  0.064088173	2.871500E+01	  0.064088173	3.018700E+01
222	  0.064288579	-7.168000E+00	  0.064288579	1.039850E+02	  0.064288579	2.878300E+01	  0.064288579	3.028500E+01
223	  0.064488977	-7.168000E+00	  0.064488977	1.037760E+02	  0.064488977	2.884700E+01	  0.064488977	3.037900E+01
224	  0.064689375	-7.162000E+00	  0.064689375	1.035470E+02	  0.064689375	2.889900E+01	  0.064689375	3.049600E+01
225	  0.064889781	-7.165000E+00	  0.064889781	1.033070E+02	  0.064889781	2.898200E+01	  0.064889781	3.059900E+01
226	  0.065090179	-7.164000E+00	  0.065090179	1.030630E+02	  0.065090179	2.905400E+01	  0.065090179	3.071100E+01
227	  0.065290578	-7.159000E+00	  0.065290578	1.028520E+02	  0.065290578	2.910600E+01	  0.065290578	3.081600E+01
228	  0.065490983	-7.161000E+00	  0.065490983	1.026250E+02	  0.065490983	2.918400E+01	  0.065490983	3.091500E+01
229	  0.065691382	-7.162000E+00	  0.065691382	1.023940E+02	  0.065691382	2.926000E+01	  0.065691382	3.101800E+01
230	  0.065891780	-7.159000E+00	  0.065891780	1.021430E+02	  0.065891780	2.932900E+01	  0.065891780	3.114000E+01
231	  0.066092186	-7.157000E+00	  0.066092186	1.019200E+02	  0.066092186	2.939700E+01	  0.066092186	3.124400E+01
232	  0.066292584	-7.157000E+00	  0.066292584	1.017130E+02	  0.066292584	2.946100E+01	  0.066292584	3.134000E+01
233	  0.066492982	-7.157000E+00	  0.066492982	1.014920E+02	  0.066492982	2.953400E+01	  0.066492982	3.144000E+01
234	  0.066693388	-7.153000E+00	  0.066693388	1.012370E+02	  0.066693388	2.960500E+01	  0.066693388	3.156500E+01
235	  0.066893786	-7.150000E+00	  0.066893786	1.010120E+02	  0.066893786	2.966900E+01	  0.066893786	3.167500E+01
236	  0.067094192	-7.154000E+00	  0.067094192	1.008130E+02	  0.067094192	2.974600E+01	  0.067094192	3.175700E+01
237	  0.067294590	-7.150000E+00	  0.067294590	1.005690E+02	  0.067294590	2.981600E+01	  0.067294590	3.187700E+01
238	  0.067494988	-7.153000E+00	  0.067494988	1.003420E+02	  0.067494988	2.990000E+01	  0.067494988	3.197500E+01
239	  0.067695394	-7.149000E+00	  0.067695394	1.001160E+02	  0.067695394	2.996400E+01	  0.067695394	3.208700E+01
240	  0.067895792	-7.150000E+00	  0.067895792	9.984400E+01	  0.067895792	3.005900E+01	  0.067895792	3.221000E+01
241	  0.068096191	-7.150000E+00	  0.068096191	9.965100E+01	  0.068096191	3.012400E+01	  0.068096191	3.229800E+01
242	  0.068296596	-7.145000E+00	  0.068296596	9.945500E+01	  0.068296596	3.017400E+01	  0.068296596	3.240100E+01
243	  0.068496995	-7.148000E+00	  0.068496995	9.921000E+01	  0.068496995	3.026600E+01	  0.068496995	3.250800E+01
244	  0.068697393	-7.142000E+00	  0.068697393	9.896600E+01	  0.068697393	3.033500E+01	  0.068697393	3.263200E+01
245	  0.068897791	-7.147000E+00	  0.068897791	9.874500E+01	  0.068897791	3.042500E+01	  0.068897791	3.272400E+01
246	  0.069098189	-7.143000E+00	  0.069098189	9.851700E+01	  0.069098189	3.049200E+01	  0.069098189	3.283800E+01
247	  0.069298595	-7.146000E+00	  0.069298595	9.827600E+01	  0.069298595	3.058600E+01	  0.069298595	3.294300E+01
248	  0.069498993	-7.144000E+00	  0.069498993	9.807400E+01	  0.069498993	3.065200E+01	  0.069498993	3.304000E+01
249	  0.069699399	-7.144000E+00	  0.069699399	9.782600E+01	  0.069699399	3.074000E+01	  0.069699399	3.315500E+01
250	  0.069899797	-7.144000E+00	  0.069899797	9.757300E+01	  0.069899797	3.083000E+01	  0.069899797	3.327300E+01
251	  0.070100196	-7.144000E+00	  0.070100196	9.737900E+01	  0.070100196	3.089900E+01	  0.070100196	3.336400E+01
252	  0.070300601	-7.137000E+00	  0.070300601	9.714000E+01	  0.070300601	3.096300E+01	  0.070300601	3.349200E+01
253	  0.070501000	-7.139000E+00	  0.070501000	9.692900E+01	  0.070501000	3.104800E+01	  0.070501000	3.358300E+01
254	  0.070701398	-7.138000E+00	  0.070701398	9.669600E+01	  0.070701398	3.112800E+01	  0.070701398	3.369500E+01
255	  0.070901804	-7.136000E+00	  0.070901804	9.647400E+01	  0.070901804	3.120300E+01	  0.070901804	3.380300E+01
256	  0.071102202	-7.137000E+00	  0.071102202	9.625100E+01	  0.071102202	3.128800E+01	  0.071102202	3.390500E+01
257	  0.071302600	-7.137000E+00	  0.071302600	9.601200E+01	  0.071302600	3.137900E+01	  0.071302600	3.401500E+01
258	  0.071503006	-7.138000E+00	  0.071503006	9.579300E+01	  0.071503006	3.146400E+01	  0.071503006	3.411500E+01
259	  0.071703404	-7.135000E+00	  0.071703404	9.555900E+01	  0.071703404	3.154200E+01	  0.071703404	3.423100E+01
260	  0.071903802	-7.135000E+00	  0.071903802	9.534200E+01	  0.071903802	3.162400E+01	  0.071903802	3.433400E+01
261	  0.072104208	-7.131000E+00	  0.072104208	9.512500E+01	  0.072104208	3.169300E+01	  0.072104208	3.444600E+01
262	  0.072304606	-7.132000E+00	  0.072304606	9.485600E+01	  0.072304606	3.179900E+01	  0.072304606	3.456900E+01
263	  0.072505005	-7.130000E+00	  0.072505005	9.464300E+01	  0.072505005	3.187600E+01	  0.072505005	3.467300E+01
264	  0.072705410	-7.130000E+00	  0.072705410	9.443300E+01	  0.072705410	3.195600E+01	  0.072705410	3.477300E+01
265	  0.072905809	-7.129000E+00	  0.072905809	9.421800E+01	  0.072905809	3.203900E+01	  0.072905809	3.487400E+01
266	  0.073106214	-7.130000E+00	  0.073106214	9.399000E+01	  0.073106214	3.212900E+01	  0.073106214	3.498000E+01
267	  0.073306613	-7.127000E+00	  0.073306613	9.371700E+01	  0.073306613	3.222800E+01	  0.073306613	3.511500E+01
268	  0.073507011	-7.126000E+00	  0.073507011	9.351700E+01	  0.073507011	3.230500E+01	  0.073507011	3.521200E+01
269	  0.073707417	-7.126000E+00	  0.073707417	9.328100E+01	  0.073707417	3.239700E+01	  0.073707417	3.532500E+01
270	  0.073907815	-7.123000E+00	  0.073907815	9.308900E+01	  0.073907815	3.246500E+01	  0.073907815	3.542300E+01
271	  0.074108213	-7.121000E+00	  0.074108213	9.284200E+01	  0.074108213	3.255900E+01	  0.074108213	3.554400E+01
272	  0.074308619	-7.123000E+00	  0.074308619	9.261100E+01	  0.074308619	3.265800E+01	  0.074308619	3.564900E+01
273	  0.074509017	-7.124000E+00	  0.074509017	9.237800E+01	  0.074509017	3.275600E+01	  0.074509017	3.575600E+01
274	  0.074709415	-7.122000E+00	  0.074709415	9.214500E+01	  0.074709415	3.284700E+01	  0.074709415	3.587000E+01
275	  0.074909821	-7.118000E+00	  0.074909821	9.190800E+01	  0.074909821	3.293200E+01	  0.074909821	3.599300E+01
276	  0.075110219	-7.116000E+00	  0.075110219	9.170800E+01	  0.075110219	3.300900E+01	  0.075110219	3.609200E+01
277	  0.075310618	-7.119000E+00	  0.075310618	9.147300E+01	  0.075310618	3.311500E+01	  0.075310618	3.619700E+01
278	  0.075511023	-7.115000E+00	  0.075511023	9.125900E+01	  0.075511023	3.319400E+01	  0.075511023	3.630800E+01
279	  0.075711422	-7.115000E+00	  0.075711422	9.103200E+01	  0.075711422	3.328900E+01	  0.075711422	3.641600E+01
280	  0.075911827	-7.112000E+00	  0.075911827	9.080300E+01	  0.075911827	3.337800E+01	  0.075911827	3.653200E+01
281	  0.076112226	-7.113000E+00	  0.076112226	9.058000E+01	  0.076112226	3.347300E+01	  0.076112226	3.663800E+01
282	  0.076312624	-7.114000E+00	  0.076312624	9.032600E+01	  0.076312624	3.358800E+01	  0.076312624	3.675400E+01
283	  0.076513030	-7.110000E+00	  0.076513030	9.011600E+01	  0.076513030	3.366600E+01	  0.076513030	3.686500E+01
284	  0.076713428	-7.110000E+00	  0.076713428	8.989300E+01	  0.076713428	3.376100E+01	  0.076713428	3.697300E+01
285	  0.076913826	-7.109000E+00	  0.076913826	8.966900E+01	  0.076913826	3.385600E+01	  0.076913826	3.708200E+01
286	  0.077114232	-7.111000E+00	  0.077114232	8.944000E+01	  0.077114232	3.396500E+01	  0.077114232	3.718400E+01
287	  0.077314630	-7.109000E+00	  0.077314630	8.921400E+01	  0.077314630	3.405800E+01	  0.077314630	3.729800E+01
288	  0.077515028	-7.109000E+00	  0.077515028	8.899600E+01	  0.077515028	3.415300E+01	  0.077515028	3.740400E+01
289	  0.077715434	-7.105000E+00	  0.077715434	8.874500E+01	  0.077715434	3.425400E+01	  0.077715434	3.753400E+01
290	  0.077915832	-7.109000E+00	  0.077915832	8.850800E+01	  0.077915832	3.437400E+01	  0.077915832	3.763400E+01
291	  0.078116231	-7.105000E+00	  0.078116231	8.829300E+01	  0.078116231	3.445700E+01	  0.078116231	3.775100E+01
292	  0.078316636	-7.105000E+00	  0.078316636	8.807300E+01	  0.078316636	3.455800E+01	  0.078316636	3.785400E+01
293	  0.078517035	-7.104000E+00	  0.078517035	8.783900E+01	  0.078517035	3.466200E+01	  0.078517035	3.797000E+01
294	  0.078717433	-7.102000E+00	  0.078717433	8.760700E+01	  0.078717433	3.476300E+01	  0.078717433	3.808600E+01
295	  0.078917839	-7.107000E+00	  0.078917839	8.735600E+01	  0.078917839	3.489400E+01	  0.078917839	3.819300E+01
296	  0.079118237	-7.105000E+00	  0.079118237	8.714800E+01	  0.079118237	3.498400E+01	  0.079118237	3.829900E+01
297	  0.079318643	-7.100000E+00	  0.079318643	8.692000E+01	  0.079318643	3.507500E+01	  0.079318643	3.842300E+01
298	  0.079519041	-7.102000E+00	  0.079519041	8.669500E+01	  0.079519041	3.518800E+01	  0.079519041	3.852500E+01
299	  0.079719439	-7.100000E+00	  0.079719439	8.645900E+01	  0.079719439	3.529600E+01	  0.079719439	3.864200E+01
300	  0.079919845	-7.097000E+00	  0.079919845	8.624100E+01	  0.079919845	3.539100E+01	  0.079919845	3.875600E+01
301	  0.080120243	-7.098000E+00	  0.080120243	8.600400E+01	  0.080120243	3.550800E+01	  0.080120243	3.886700E+01
302	  0.080320641	-7.097000E+00	  0.080320641	8.577000E+01	  0.080320641	3.561500E+01	  0.080320641	3.898400E+01
303	  0.080521047	-7.092000E+00	  0.080521047	8.554900E+01	  0.080521047	3.570800E+01	  0.080521047	3.910600E+01
304	  0.080721445	-7.095000E+00	  0.080721445	8.531800E+01	  0.080721445	3.583100E+01	  0.080721445	3.920600E+01
305	  0.080921844	-7.095000E+00	  0.080921844	8.510100E+01	  0.080921844	3.593800E+01	  0.080921844	3.931000E+01
306	  0.081122249	-7.094000E+00	  0.081122249	8.488500E+01	  0.081122249	3.604200E+01	  0.081122249	3.941700E+01
307	  0.081322648	-7.093000E+00	  0.081322648	8.464800E+01	  0.081322648	3.615500E+01	  0.081322648	3.953600E+01
308	  0.081523046	-7.093000E+00	  0.081523046	8.442200E+01	  0.081523046	3.626900E+01	  0.081523046	3.964400E+01
309	  0.081723452	-7.091000E+00	  0.081723452	8.419100E+01	  0.081723452	3.637800E+01	  0.081723452	3.976200E+01
310	  0.081923850	-7.090000E+00	  0.081923850	8.395900E+01	  0.081923850	3.649200E+01	  0.081923850	3.987900E+01
311	  0.082124248	-7.091000E+00	  0.082124248	8.375100E+01	  0.082124248	3.660100E+01	  0.082124248	3.997500E+01
312	  0.082324654	-7.091000E+00	  0.082324654	8.353200E+01	  0.082324654	3.671300E+01	  0.082324654	4.008000E+01
313	  0.082525052	-7.091000E+00	  0.082525052	8.329300E+01	  0.082525052	3.683600E+01	  0.082525052	4.019500E+01
314	  0.082725458	-7.089000E+00	  0.082725458	8.306200E+01	  0.082725458	3.695000E+01	  0.082725458	4.031400E+01
315	  0.082925856	-7.090000E+00	  0.082925856	8.282200E+01	  0.082925856	3.708000E+01	  0.082925856	4.042400E+01
316	  0.083126254	-7.087000E+00	  0.083126254	8.260200E+01	  0.083126254	3.718400E+01	  0.083126254	4.054300E+01
317	  0.083326660	-7.088000E+00	  0.083326660	8.239300E+01	  0.083326660	3.729900E+01	  0.083326660	4.063800E+01
318	  0.083527058	-7.084000E+00	  0.083527058	8.215800E+01	  0.083527058	3.741100E+01	  0.083527058	4.076600E+01
319	  0.083727457	-7.086000E+00	  0.083727457	8.192900E+01	  0.083727457	3.753800E+01	  0.083727457	4.087000E+01
320	  0.083927862	-7.086000E+00	  0.083927862	8.170600E+01	  0.083927862	3.765800E+01	  0.083927862	4.097700E+01
321	  0.084128261	-7.083000E+00	  0.084128261	8.146200E+01	  0.084128261	3.778200E+01	  0.084128261	4.110400E+01
322	  0.084328659	-7.083000E+00	  0.084328659	8.125000E+01	  0.084328659	3.789500E+01	  0.084328659	4.120800E+01
323	  0.084529065	-7.082000E+00	  0.084529065	8.102600E+01	  0.084529065	3.801500E+01	  0.084529065	4.132000E+01
324	  0.084729463	-7.083000E+00	  0.084729463	8.078900E+01	  0.084729463	3.814900E+01	  0.084729463	4.142900E+01
325	  0.084929861	-7.081000E+00	  0.084929861	8.058100E+01	  0.084929861	3.825700E+01	  0.084929861	4.153700E+01
326	  0.085130267	-7.080000E+00	  0.085130267	8.034200E+01	  0.085130267	3.838700E+01	  0.085130267	4.165600E+01
327	  0.085330658	-7.080000E+00	  0.085330658	8.012900E+01	  0.085330658	3.850600E+01	  0.085330658	4.176000E+01
328	  0.085531056	-7.081000E+00	  0.085531056	7.989500E+01	  0.085531056	3.864200E+01	  0.085531056	4.186600E+01
329	  0.085731462	-7.079000E+00	  0.085731462	7.966800E+01	  0.085731462	3.876400E+01	  0.085731462	4.198300E+01
330	  0.085931860	-7.080000E+00	  0.085931860	7.943100E+01	  0.085931860	3.890100E+01	  0.085931860	4.209500E+01
331	  0.086132258	-7.076000E+00	  0.086132258	7.923200E+01	  0.086132258	3.900300E+01	  0.086132258	4.220600E+01
332	  0.086332664	-7.079000E+00	  0.086332664	7.899800E+01	  0.086332664	3.914700E+01	  0.086332664	4.230800E+01
333	  0.086533062	-7.076000E+00	  0.086533062	7.877100E+01	  0.086533062	3.927100E+01	  0.086533062	4.242600E+01
334	  0.086733460	-7.077000E+00	  0.086733460	7.854800E+01	  0.086733460	3.940300E+01	  0.086733460	4.253100E+01
335	  0.086933866	-7.077000E+00	  0.086933866	7.831700E+01	  0.086933866	3.953800E+01	  0.086933866	4.264300E+01
336	  0.087134264	-7.077000E+00	  0.087134264	7.809500E+01	  0.087134264	3.967000E+01	  0.087134264	4.274800E+01
337	  0.087334670	-7.076000E+00	  0.087334670	7.786800E+01	  0.087334670	3.980000E+01	  0.087334670	4.286300E+01
338	  0.087535068	-7.074000E+00	  0.087535068	7.765700E+01	  0.087535068	3.992100E+01	  0.087535068	4.297100E+01
339	  0.087735467	-7.071000E+00	  0.087735467	7.743200E+01	  0.087735467	4.004700E+01	  0.087735467	4.309100E+01
340	  0.087935872	-7.073000E+00	  0.087935872	7.717900E+01	  0.087935872	4.020700E+01	  0.087935872	4.320300E+01
341	  0.088136271	-7.074000E+00	  0.088136271	7.697100E+01	  0.088136271	4.033600E+01	  0.088136271	4.329900E+01
342	  0.088336669	-7.070000E+00	  0.088336669	7.674100E+01	  0.088336669	4.046500E+01	  0.088336669	4.342500E+01
343	  0.088537075	-7.072000E+00	  0.088537075	7.651000E+01	  0.088537075	4.061200E+01	  0.088537075	4.352900E+01
344	  0.088737473	-7.070000E+00	  0.088737473	7.628100E+01	  0.088737473	4.074600E+01	  0.088737473	4.364900E+01
345	  0.088937871	-7.073000E+00	  0.088937871	7.606200E+01	  0.088937871	4.089200E+01	  0.088937871	4.374000E+01
346	  0.089138277	-7.069000E+00	  0.089138277	7.583500E+01	  0.089138277	4.102300E+01	  0.089138277	4.386400E+01
347	  0.089338675	-7.069000E+00	  0.089338675	7.561400E+01	  0.089338675	4.116300E+01	  0.089338675	4.396900E+01
348	  0.089539073	-7.068000E+00	  0.089539073	7.540400E+01	  0.089539073	4.129200E+01	  0.089539073	4.407500E+01
349	  0.089739479	-7.069000E+00	  0.089739479	7.517400E+01	  0.089739479	4.144200E+01	  0.089739479	4.418100E+01
350	  0.089939877	-7.068000E+00	  0.089939877	7.494900E+01	  0.089939877	4.158300E+01	  0.089939877	4.429100E+01
351	  0.090140276	-7.069000E+00	  0.090140276	7.471400E+01	  0.090140276	4.173700E+01	  0.090140276	4.440000E+01
352	  0.090340681	-7.068000E+00	  0.090340681	7.449600E+01	  0.090340681	4.187600E+01	  0.090340681	4.450800E+01
353	  0.090541080	-7.069000E+00	  0.090541080	7.426700E+01	  0.090541080	4.202700E+01	  0.090541080	4.461400E+01
354	  0.090741485	-7.068000E+00	  0.090741485	7.404600E+01	  0.090741485	4.216900E+01	  0.090741485	4.472400E+01
355	  0.090941884	-7.067000E+00	  0.090941884	7.382200E+01	  0.090941884	4.231600E+01	  0.090941884	4.483200E+01
356	  0.091142282	-7.069000E+00	  0.091142282	7.358600E+01	  0.091142282	4.247800E+01	  0.091142282	4.493700E+01
357	  0.091342688	-7.067000E+00	  0.091342688	7.335300E+01	  0.091342688	4.262700E+01	  0.091342688	4.505600E+01
358	  0.091543086	-7.066000E+00	  0.091543086	7.314700E+01	  0.091543086	4.276200E+01	  0.091543086	4.515700E+01
359	  0.091743484	-7.065000E+00	  0.091743484	7.291300E+01	  0.091743484	4.291800E+01	  0.091743484	4.527300E+01
360	  0.091943890	-7.064000E+00	  0.091943890	7.269200E+01	  0.091943890	4.306400E+01	  0.091943890	4.538200E+01
361	  0.092144288	-7.063000E+00	  0.092144288	7.244700E+01	  0.092144288	4.323100E+01	  0.092144288	4.549900E+01
362	  0.092344686	-7.062000E+00	  0.092344686	7.224700E+01	  0.092344686	4.336400E+01	  0.092344686	4.560100E+01
363	  0.092545092	-7.063000E+00	  0.092545092	7.200600E+01	  0.092545092	4.353600E+01	  0.092545092	4.570600E+01
364	  0.092745490	-7.062000E+00	  0.092745490	7.178700E+01	  0.092745490	4.368500E+01	  0.092745490	4.581500E+01
365	  0.092945889	-7.063000E+00	  0.092945889	7.156400E+01	  0.092945889	4.384300E+01	  0.092945889	4.591600E+01
366	  0.093146294	-7.063000E+00	  0.093146294	7.132300E+01	  0.093146294	4.401200E+01	  0.093146294	4.603000E+01
367	  0.093346693	-7.060000E+00	  0.093346693	7.110700E+01	  0.093346693	4.415700E+01	  0.093346693	4.614400E+01
368	  0.093547091	-7.061000E+00	  0.093547091	7.089400E+01	  0.093547091	4.431200E+01	  0.093547091	4.623800E+01
369	  0.093747497	-7.059000E+00	  0.093747497	7.065800E+01	  0.093747497	4.447500E+01	  0.093747497	4.635900E+01
370	  0.093947895	-7.058000E+00	  0.093947895	7.043500E+01	  0.093947895	4.463200E+01	  0.093947895	4.646800E+01
371	  0.094148301	-7.057000E+00	  0.094148301	7.021000E+01	  0.094148301	4.479200E+01	  0.094148301	4.657800E+01
372	  0.094348699	-7.057000E+00	  0.094348699	6.999100E+01	  0.094348699	4.495200E+01	  0.094348699	4.668000E+01
373	  0.094549097	-7.057000E+00	  0.094549097	6.975800E+01	  0.094549097	4.512600E+01	  0.094549097	4.678400E+01
374	  0.094749503	-7.053000E+00	  0.094749503	6.952900E+01	  0.094749503	4.528200E+01	  0.094749503	4.691100E+01
375	  0.094949901	-7.054000E+00	  0.094949901	6.930100E+01	  0.094949901	4.545500E+01	  0.094949901	4.701100E+01
376	  0.095150299	-7.050000E+00	  0.095150299	6.908400E+01	  0.095150299	4.560400E+01	  0.095150299	4.713300E+01
377	  0.095350705	-7.051000E+00	  0.095350705	6.884300E+01	  0.095350705	4.579000E+01	  0.095350705	4.723700E+01
378	  0.095551103	-7.050000E+00	  0.095551103	6.863900E+01	  0.095551103	4.593900E+01	  0.095551103	4.733900E+01
379	  0.095751502	-7.050000E+00	  0.095751502	6.839400E+01	  0.095751502	4.612600E+01	  0.095751502	4.745100E+01
380	  0.095951907	-7.048000E+00	  0.095951907	6.817600E+01	  0.095951907	4.628900E+01	  0.095951907	4.755800E+01
381	  0.096152306	-7.046000E+00	  0.096152306	6.795900E+01	  0.096152306	4.644900E+01	  0.096152306	4.766700E+01
382	  0.096352704	-7.046000E+00	  0.096352704	6.774500E+01	  0.096352704	4.661600E+01	  0.096352704	4.776300E+01
383	  0.096553110	-7.046000E+00	  0.096553110	6.748600E+01	  0.096553110	4.681600E+01	  0.096553110	4.788500E+01
384	  0.096753508	-7.044000E+00	  0.096753508	6.727700E+01	  0.096753508	4.697600E+01	  0.096753508	4.798700E+01
385	  0.096953906	-7.042000E+00	  0.096953906	6.705500E+01	  0.096953906	4.714400E+01	  0.096953906	4.809900E+01
386	  0.097154312	-7.040000E+00	  0.097154312	6.682400E+01	  0.097154312	4.732000E+01	  0.097154312	4.821600E+01
387	  0.097354710	-7.042000E+00	  0.097354710	6.660600E+01	  0.097354710	4.750300E+01	  0.097354710	4.830100E+01
388	  0.097555116	-7.040000E+00	  0.097555116	6.638500E+01	  0.097555116	4.767300E+01	  0.097555116	4.841200E+01
389	  0.097755514	-7.038000E+00	  0.097755514	6.615800E+01	  0.097755514	4.785100E+01	  0.097755514	4.852500E+01
390	  0.097955912	-7.040000E+00	  0.097955912	6.592300E+01	  0.097955912	4.804800E+01	  0.097955912	4.861800E+01
391	  0.098156318	-7.037000E+00	  0.098156318	6.571200E+01	  0.098156318	4.821200E+01	  0.098156318	4.872800E+01
392	  0.098356716	-7.034000E+00	  0.098356716	6.549600E+01	  0.098356716	4.838100E+01	  0.098356716	4.883900E+01
393	  0.098557115	-7.033000E+00	  0.098557115	6.527500E+01	  0.098557115	4.855900E+01	  0.098557115	4.894600E+01
394	  0.098757520	-7.031000E+00	  0.098757520	6.503100E+01	  0.098757520	4.875800E+01	  0.098757520	4.906100E+01
395	  0.098957919	-7.030000E+00	  0.098957919	6.482300E+01	  0.098957919	4.892900E+01	  0.098957919	4.916200E+01
396	  0.099158317	-7.029000E+00	  0.099158317	6.458200E+01	  0.099158317	4.913000E+01	  0.099158317	4.927000E+01
397	  0.099358723	-7.031000E+00	  0.099358723	6.436600E+01	  0.099358723	4.931700E+01	  0.099358723	4.935700E+01
398	  0.099559121	-7.029000E+00	  0.099559121	6.414100E+01	  0.099559121	4.950400E+01	  0.099559121	4.946500E+01
399	  0.099759519	-7.028000E+00	  0.099759519	6.389900E+01	  0.099759519	4.970800E+01	  0.099759519	4.957600E+01
400	  0.099959925	-7.022000E+00	  0.099959925	6.370500E+01	  0.099959925	4.985900E+01	  0.099959925	4.969300E+01
401	  0.100160323	-7.023000E+00	  0.100160323	6.349400E+01	  0.100160323	5.004400E+01	  0.100160323	4.978000E+01
402	  0.100360721	-7.020000E+00	  0.100360721	6.327100E+01	  0.100360721	5.023100E+01	  0.100360721	4.989200E+01
403	  0.100561127	-7.020000E+00	  0.100561127	6.306800E+01	  0.100561127	5.040800E+01	  0.100561127	4.998100E+01
404	  0.100761525	-7.017000E+00	  0.100761525	6.284100E+01	  0.100761525	5.060100E+01	  0.100761525	5.009300E+01
405	  0.100961931	-7.019000E+00	  0.100961931	6.264600E+01	  0.100961931	5.077900E+01	  0.100961931	5.016600E+01
406	  0.101162329	-7.018000E+00	  0.101162329	6.239400E+01	  0.101162329	5.100200E+01	  0.101162329	5.027700E+01
407	  0.101362728	-7.010000E+00	  0.101362728	6.218200E+01	  0.101362728	5.116700E+01	  0.101362728	5.041900E+01
408	  0.101563133	-7.015000E+00	  0.101563133	6.194600E+01	  0.101563133	5.139500E+01	  0.101563133	5.048800E+01
409	  0.101763532	-7.009000E+00	  0.101763532	6.173800E+01	  0.101763532	5.156800E+01	  0.101763532	5.061100E+01
410	  0.101963930	-7.011000E+00	  0.101963930	6.151500E+01	  0.101963930	5.177800E+01	  0.101963930	5.069000E+01
411	  0.102164336	-7.013000E+00	  0.102164336	6.131100E+01	  0.102164336	5.197000E+01	  0.102164336	5.076400E+01
412	  0.102364734	-7.008000E+00	  0.102364734	6.104100E+01	  0.102364734	5.220700E+01	  0.102364734	5.090500E+01
413	  0.102565132	-7.006000E+00	  0.102565132	6.083300E+01	  0.102565132	5.239600E+01	  0.102565132	5.100100E+01
414	  0.102765530	-7.010000E+00	  0.102765530	6.064700E+01	  0.102765530	5.257900E+01	  0.102765530	5.105500E+01
415	  0.102965929	-7.007000E+00	  0.102965929	6.041000E+01	  0.102965929	5.279500E+01	  0.102965929	5.116800E+01
416	  0.103166327	-7.005000E+00	  0.103166327	6.021500E+01	  0.103166327	5.297400E+01	  0.103166327	5.126000E+01
417	  0.103366733	-7.004000E+00	  0.103366733	5.994600E+01	  0.103366733	5.322600E+01	  0.103366733	5.137700E+01
418	  0.103567131	-7.002000E+00	  0.103567131	5.974500E+01	  0.103567131	5.341200E+01	  0.103567131	5.147100E+01
419	  0.103767529	-7.003000E+00	  0.103767529	5.952500E+01	  0.103767529	5.362600E+01	  0.103767529	5.155400E+01
420	  0.103967935	-7.001000E+00	  0.103967935	5.928900E+01	  0.103967935	5.385000E+01	  0.103967935	5.165900E+01
421	  0.104168333	-6.999000E+00	  0.104168333	5.908500E+01	  0.104168333	5.404400E+01	  0.104168333	5.175100E+01
422	  0.104368731	-7.000000E+00	  0.104368731	5.885900E+01	  0.104368731	5.426700E+01	  0.104368731	5.183500E+01
423	  0.104569137	-6.999000E+00	  0.104569137	5.864200E+01	  0.104569137	5.448100E+01	  0.104569137	5.192200E+01
424	  0.104769535	-6.997000E+00	  0.104769535	5.843500E+01	  0.104769535	5.467900E+01	  0.104769535	5.201800E+01
425	  0.104969934	-6.994000E+00	  0.104969934	5.820900E+01	  0.104969934	5.489700E+01	  0.104969934	5.212300E+01
426	  0.105170339	-6.992000E+00	  0.105170339	5.798500E+01	  0.105170339	5.511500E+01	  0.105170339	5.222700E+01
427	  0.105370738	-6.995000E+00	  0.105370738	5.775300E+01	  0.105370738	5.535700E+01	  0.105370738	5.229200E+01
428	  0.105571143	-6.995000E+00	  0.105571143	5.751900E+01	  0.105571143	5.559500E+01	  0.105571143	5.237700E+01
429	  0.105771542	-6.998000E+00	  0.105771542	5.731600E+01	  0.105771542	5.580800E+01	  0.105771542	5.243900E+01
430	  0.105971940	-6.994000E+00	  0.105971940	5.712000E+01	  0.105971940	5.600000E+01	  0.105971940	5.253600E+01
431	  0.106172346	-6.992000E+00	  0.106172346	5.687700E+01	  0.106172346	5.624400E+01	  0.106172346	5.264100E+01
432	  0.106372744	-6.992000E+00	  0.106372744	5.665400E+01	  0.106372744	5.647600E+01	  0.106372744	5.272200E+01
433	  0.106573142	-6.990000E+00	  0.106573142	5.643900E+01	  0.106573142	5.669500E+01	  0.106573142	5.281200E+01
434	  0.106773548	-6.991000E+00	  0.106773548	5.621400E+01	  0.106773548	5.693200E+01	  0.106773548	5.289000E+01
435	  0.106973946	-6.988000E+00	  0.106973946	5.599600E+01	  0.106973946	5.715600E+01	  0.106973946	5.298400E+01
436	  0.107174344	-6.989000E+00	  0.107174344	5.577000E+01	  0.107174344	5.739700E+01	  0.107174344	5.306200E+01
437	  0.107374750	-6.987000E+00	  0.107374750	5.555100E+01	  0.107374750	5.762600E+01	  0.107374750	5.315100E+01
438	  0.107575148	-6.983000E+00	  0.107575148	5.533900E+01	  0.107575148	5.784500E+01	  0.107575148	5.325100E+01
439	  0.107775547	-6.982000E+00	  0.107775547	5.512300E+01	  0.107775547	5.807500E+01	  0.107775547	5.333400E+01
440	  0.107975952	-6.986000E+00	  0.107975952	5.489800E+01	  0.107975952	5.832900E+01	  0.107975952	5.338000E+01
441	  0.108176351	-6.982000E+00	  0.108176351	5.466600E+01	  0.108176351	5.857400E+01	  0.108176351	5.348700E+01
442	  0.108376749	-6.982000E+00	  0.108376749	5.445700E+01	  0.108376749	5.880100E+01	  0.108376749	5.356100E+01
443	  0.108577155	-6.976000E+00	  0.108577155	5.424100E+01	  0.108577155	5.902700E+01	  0.108577155	5.367700E+01
444	  0.108777553	-6.981000E+00	  0.108777553	5.399800E+01	  0.108777553	5.930600E+01	  0.108777553	5.372200E+01
445	  0.108977959	-6.976000E+00	  0.108977959	5.377500E+01	  0.108977959	5.954400E+01	  0.108977959	5.383000E+01
446	  0.109178357	-6.978000E+00	  0.109178357	5.356800E+01	  0.109178357	5.978300E+01	  0.109178357	5.387600E+01
447	  0.109378755	-6.972000E+00	  0.109378755	5.336000E+01	  0.109378755	6.000400E+01	  0.109378755	5.398900E+01
448	  0.109579161	-6.977000E+00	  0.109579161	5.311300E+01	  0.109579161	6.029500E+01	  0.109579161	5.402700E+01
449	  0.109779559	-6.976000E+00	  0.109779559	5.291000E+01	  0.109779559	6.052300E+01	  0.109779559	5.410100E+01
450	  0.109979957	-6.974000E+00	  0.109979957	5.270300E+01	  0.109979957	6.075700E+01	  0.109979957	5.417900E+01
451	  0.110180363	-6.970000E+00	  0.110180363	5.246300E+01	  0.110180363	6.102500E+01	  0.110180363	5.428300E+01
452	  0.110380761	-6.969000E+00	  0.110380761	5.222600E+01	  0.110380761	6.129800E+01	  0.110380761	5.436200E+01
453	  0.110581160	-6.967000E+00	  0.110581160	5.201800E+01	  0.110581160	6.153800E+01	  0.110581160	5.443600E+01
454	  0.110781565	-6.965000E+00	  0.110781565	5.180700E+01	  0.110781565	6.178000E+01	  0.110781565	5.451600E+01
455	  0.110981964	-6.966000E+00	  0.110981964	5.159900E+01	  0.110981964	6.202600E+01	  0.110981964	5.456900E+01
456	  0.111182362	-6.964000E+00	  0.111182362	5.135400E+01	  0.111182362	6.231400E+01	  0.111182362	5.465000E+01
457	  0.111382768	-6.963000E+00	  0.111382768	5.115400E+01	  0.111382768	6.255200E+01	  0.111382768	5.471100E+01
458	  0.111583166	-6.962000E+00	  0.111583166	5.091900E+01	  0.111583166	6.283100E+01	  0.111583166	5.478300E+01
459	  0.111783572	-6.961000E+00	  0.111783572	5.069800E+01	  0.111783572	6.309500E+01	  0.111783572	5.485400E+01
460	  0.111983970	-6.961000E+00	  0.111983970	5.049000E+01	  0.111983970	6.334700E+01	  0.111983970	5.490700E+01
461	  0.112184368	-6.959000E+00	  0.112184368	5.027600E+01	  0.112184368	6.360500E+01	  0.112184368	5.497700E+01
462	  0.112384774	-6.957000E+00	  0.112384774	5.005400E+01	  0.112384774	6.387200E+01	  0.112384774	5.505500E+01
463	  0.112585172	-6.957000E+00	  0.112585172	4.983500E+01	  0.112585172	6.414200E+01	  0.112585172	5.510900E+01
464	  0.112785570	-6.958000E+00	  0.112785570	4.961600E+01	  0.112785570	6.441500E+01	  0.112785570	5.515300E+01
465	  0.112985976	-6.955000E+00	  0.112985976	4.938400E+01	  0.112985976	6.469900E+01	  0.112985976	5.523400E+01
466	  0.113186374	-6.961000E+00	  0.113186374	4.917500E+01	  0.113186374	6.497000E+01	  0.113186374	5.523100E+01
467	  0.113386773	-6.955000E+00	  0.113386773	4.895000E+01	  0.113386773	6.524200E+01	  0.113386773	5.533400E+01
468	  0.113587178	-6.958000E+00	  0.113587178	4.871900E+01	  0.113587178	6.553900E+01	  0.113587178	5.536100E+01
469	  0.113787577	-6.955000E+00	  0.113787577	4.849000E+01	  0.113787577	6.582500E+01	  0.113787577	5.544100E+01
470	  0.113987975	-6.955000E+00	  0.113987975	4.829700E+01	  0.113987975	6.607200E+01	  0.113987975	5.547700E+01
471	  0.114188381	-6.950000E+00	  0.114188381	4.807000E+01	  0.114188381	6.635500E+01	  0.114188381	5.557100E+01
472	  0.114388779	-6.948000E+00	  0.114388779	4.785100E+01	  0.114388779	6.663600E+01	  0.114388779	5.562900E+01
473	  0.114589177	-6.950000E+00	  0.114589177	4.762600E+01	  0.114589177	6.693000E+01	  0.114589177	5.565900E+01
474	  0.114789583	-6.950000E+00	  0.114789583	4.743100E+01	  0.114789583	6.718400E+01	  0.114789583	5.569700E+01
475	  0.114989981	-6.949000E+00	  0.114989981	4.720500E+01	  0.114989981	6.747800E+01	  0.114989981	5.575000E+01
476	  0.115190387	-6.947000E+00	  0.115190387	4.700000E+01	  0.115190387	6.774700E+01	  0.115190387	5.580400E+01
477	  0.115390785	-6.946000E+00	  0.115390785	4.678800E+01	  0.115390785	6.802600E+01	  0.115390785	5.584800E+01
478	  0.115591183	-6.946000E+00	  0.115591183	4.655600E+01	  0.115591183	6.833400E+01	  0.115591183	5.588800E+01
479	  0.115791589	-6.945000E+00	  0.115791589	4.633300E+01	  0.115791589	6.863200E+01	  0.115791589	5.593400E+01
480	  0.115991987	-6.942000E+00	  0.115991987	4.611900E+01	  0.115991987	6.891600E+01	  0.115991987	5.599100E+01
481	  0.116192386	-6.944000E+00	  0.116192386	4.591800E+01	  0.116192386	6.918900E+01	  0.116192386	5.600300E+01
482	  0.116392791	-6.939000E+00	  0.116392791	4.567500E+01	  0.116392791	6.951400E+01	  0.116392791	5.608200E+01
483	  0.116593190	-6.939000E+00	  0.116593190	4.547500E+01	  0.116593190	6.978700E+01	  0.116593190	5.611600E+01
484	  0.116793588	-6.942000E+00	  0.116793588	4.526800E+01	  0.116793588	7.007400E+01	  0.116793588	5.611100E+01
485	  0.116993994	-6.939000E+00	  0.116993994	4.501700E+01	  0.116993994	7.041600E+01	  0.116993994	5.616700E+01
486	  0.117194392	-6.938000E+00	  0.117194392	4.481600E+01	  0.117194392	7.069300E+01	  0.117194392	5.620800E+01
487	  0.117394790	-6.938000E+00	  0.117394790	4.460600E+01	  0.117394790	7.098500E+01	  0.117394790	5.623100E+01
488	  0.117595196	-6.942000E+00	  0.117595196	4.437300E+01	  0.117595196	7.131200E+01	  0.117595196	5.622000E+01
489	  0.117795594	-6.934000E+00	  0.117795594	4.418100E+01	  0.117795594	7.157700E+01	  0.117795594	5.630900E+01
490	  0.117995992	-6.936000E+00	  0.117995992	4.395600E+01	  0.117995992	7.189600E+01	  0.117995992	5.630600E+01
491	  0.118196398	-6.933000E+00	  0.118196398	4.372800E+01	  0.118196398	7.221800E+01	  0.118196398	5.635500E+01
492	  0.118396796	-6.937000E+00	  0.118396796	4.349800E+01	  0.118396796	7.254600E+01	  0.118396796	5.634200E+01
493	  0.118597202	-6.933000E+00	  0.118597202	4.328700E+01	  0.118597202	7.284700E+01	  0.118597202	5.638900E+01
494	  0.118797600	-6.935000E+00	  0.118797600	4.307400E+01	  0.118797600	7.315400E+01	  0.118797600	5.638700E+01
495	  0.118997999	-6.932000E+00	  0.118997999	4.286900E+01	  0.118997999	7.344900E+01	  0.118997999	5.642300E+01
496	  0.119198404	-6.930000E+00	  0.119198404	4.265100E+01	  0.119198404	7.376400E+01	  0.119198404	5.645000E+01
497	  0.119398803	-6.928000E+00	  0.119398803	4.243500E+01	  0.119398803	7.407900E+01	  0.119398803	5.647700E+01
498	  0.119599201	-6.925000E+00	  0.119599201	4.220000E+01	  0.119599201	7.442100E+01	  0.119599201	5.651400E+01
499	  0.119799607	-6.928000E+00	  0.119799607	4.198200E+01	  0.119799607	7.474200E+01	  0.119799607	5.649600E+01
500	  0.120000005	-6.927000E+00	  0.120000005	4.176300E+01	  0.120000005	7.506600E+01	  0.120000005	5.650500E+01
