! Anritsu VNA Master:             	Model: MS2036C/10/77
! SN:             	1601066
! /card0/usr/uu.s11.66pf.txt
! Existing Calibration Information:
! TYPE:             	Current Settings	Active Cal Settings
! TIME:             	05/23/2018 12:01:06 PM	05/23/2018 11:36:58 AM
! INTERNAL TEMP:    	48.5 C	48.8 C
! # POINTS:         	500	500
! START FREQ:       	20.000 MHz	20.000 MHz
! STOP FREQ:        	120.000 MHz	120.000 MHz
! SOURCE POWER:     	High	High
! IFBW:             	50 Hz	50 Hz
! AVG FACTOR:       	  1 	  1 
! REF PLANE 1:      	0 mm	0 mm
! REF PLANE 2:      	0 mm	0 mm
! CAL TYPE:         	Full S11	Full S11
! CAL METHOD:       	SOLT	SOLT
! CAL LINE TYPE:    	Coax	Coax
! DUT PORT 1:       	K-Conn(M)	K-Conn(M)
! DUT PORT 2:       	K-Conn(M)	K-Conn(M)
! CAL STATUS:       	OK: Accuracy High	--
! PROP-V:       	0.700
! CABLE LOSS:       	0.000 dB/m
! REF IMPEDANCE:       	50.0
! Trace Specific Parameters:	TR1	TR2	TR3	TR4
! TRACE.#.Y (GRAPH TYPE)	LOG MAG	PHASE	REAL IMPEDANCE	IMAGINARY IMPEDANCE
! TRACE.#.X 	FREQ.GHZ	FREQ.GHZ	FREQ.GHZ	FREQ.GHZ
! S-PARAMETER	S11	S11	S11	S11
! SMOOTH/APERTURE %	0	0	0	0
! WINDOW	NSL	NSL	NSL	NSL
! GATING	OFF	OFF	OFF	OFF
! FGTD	OFF	OFF	OFF	OFF
Marker Information per Trace:	TR1	TR2	TR3	TR4
!MK1	--	--	--	--
!MK2	--	--	--	--
!MK3	--	--	--	--
!MK4	--	--	--	--
!MK5	--	--	--	--
!MK6	--	--	--	--
!MK7	--	--	--	--
!MK8	--	--	--	--
PNT	TR1.FREQ.GHZ	TR1.LOG MAG.dB	TR2.FREQ.GHZ	TR2.PHASE.deg	TR3.FREQ.GHZ	TR3.REAL IMPEDANCE.ohm	TR4.FREQ.GHZ	TR4.IMAGINARY IMPEDANCE.ohm
1	  0.020000000	-3.200000E-02	  0.020000000	-6.713900E+01	  0.020000000	3.040000E-01	  0.020000000	-7.534100E+01
2	  0.020200402	-3.100000E-02	  0.020200402	-6.777300E+01	  0.020200402	2.930000E-01	  0.020200402	-7.444400E+01
3	  0.020400802	-3.300000E-02	  0.020400802	-6.839700E+01	  0.020400802	3.020000E-01	  0.020400802	-7.357500E+01
4	  0.020601204	-3.400000E-02	  0.020601204	-6.902400E+01	  0.020601204	3.110000E-01	  0.020601204	-7.271500E+01
5	  0.020801604	-3.600000E-02	  0.020801604	-6.966600E+01	  0.020801604	3.170000E-01	  0.020801604	-7.185000E+01
6	  0.021002004	-3.600000E-02	  0.021002004	-7.029500E+01	  0.021002004	3.190000E-01	  0.021002004	-7.101500E+01
7	  0.021202406	-3.700000E-02	  0.021202406	-7.092200E+01	  0.021202406	3.210000E-01	  0.021202406	-7.019700E+01
8	  0.021402806	-3.700000E-02	  0.021402806	-7.153800E+01	  0.021402806	3.160000E-01	  0.021402806	-6.940400E+01
9	  0.021603208	-4.100000E-02	  0.021603208	-7.216900E+01	  0.021603208	3.410000E-01	  0.021603208	-6.860400E+01
10	  0.021803608	-4.200000E-02	  0.021803608	-7.279400E+01	  0.021803608	3.480000E-01	  0.021803608	-6.782300E+01
11	  0.022004008	-4.300000E-02	  0.022004008	-7.341700E+01	  0.022004008	3.460000E-01	  0.022004008	-6.705700E+01
12	  0.022204408	-4.400000E-02	  0.022204408	-7.405200E+01	  0.022204408	3.510000E-01	  0.022204408	-6.628800E+01
13	  0.022404809	-4.300000E-02	  0.022404809	-7.467300E+01	  0.022404809	3.400000E-01	  0.022404809	-6.554500E+01
14	  0.022605211	-4.400000E-02	  0.022605211	-7.528600E+01	  0.022605211	3.410000E-01	  0.022605211	-6.482300E+01
15	  0.022805611	-4.100000E-02	  0.022805611	-7.591500E+01	  0.022805611	3.180000E-01	  0.022805611	-6.409300E+01
16	  0.023006011	-4.300000E-02	  0.023006011	-7.654500E+01	  0.023006011	3.230000E-01	  0.023006011	-6.337100E+01
17	  0.023206413	-4.400000E-02	  0.023206413	-7.716900E+01	  0.023206413	3.280000E-01	  0.023206413	-6.266600E+01
18	  0.023406813	-4.500000E-02	  0.023406813	-7.777500E+01	  0.023406813	3.350000E-01	  0.023406813	-6.199100E+01
19	  0.023607215	-4.600000E-02	  0.023607215	-7.840100E+01	  0.023607215	3.370000E-01	  0.023607215	-6.130300E+01
20	  0.023807615	-4.500000E-02	  0.023807615	-7.902500E+01	  0.023807615	3.200000E-01	  0.023807615	-6.062600E+01
21	  0.024008015	-4.500000E-02	  0.024008015	-7.964700E+01	  0.024008015	3.190000E-01	  0.024008015	-5.996000E+01
22	  0.024208417	-4.600000E-02	  0.024208417	-8.026500E+01	  0.024208417	3.210000E-01	  0.024208417	-5.930700E+01
23	  0.024408817	-4.700000E-02	  0.024408817	-8.088000E+01	  0.024408817	3.270000E-01	  0.024408817	-5.866500E+01
24	  0.024609219	-4.700000E-02	  0.024609219	-8.148600E+01	  0.024609219	3.230000E-01	  0.024609219	-5.804000E+01
25	  0.024809619	-4.900000E-02	  0.024809619	-8.211600E+01	  0.024809619	3.300000E-01	  0.024809619	-5.739900E+01
26	  0.025010020	-4.800000E-02	  0.025010020	-8.272400E+01	  0.025010020	3.210000E-01	  0.025010020	-5.678800E+01
27	  0.025210422	-4.800000E-02	  0.025210422	-8.334200E+01	  0.025210422	3.180000E-01	  0.025210422	-5.617400E+01
28	  0.025410822	-5.000000E-02	  0.025410822	-8.395700E+01	  0.025410822	3.220000E-01	  0.025410822	-5.557100E+01
29	  0.025611224	-4.900000E-02	  0.025611224	-8.456500E+01	  0.025611224	3.120000E-01	  0.025611224	-5.498100E+01
30	  0.025811624	-5.000000E-02	  0.025811624	-8.518400E+01	  0.025811624	3.190000E-01	  0.025811624	-5.438800E+01
31	  0.026012026	-5.100000E-02	  0.026012026	-8.579600E+01	  0.026012026	3.200000E-01	  0.026012026	-5.380800E+01
32	  0.026212426	-5.100000E-02	  0.026212426	-8.641400E+01	  0.026212426	3.130000E-01	  0.026212426	-5.323000E+01
33	  0.026412826	-5.200000E-02	  0.026412826	-8.702400E+01	  0.026412826	3.210000E-01	  0.026412826	-5.266500E+01
34	  0.026613226	-5.300000E-02	  0.026613226	-8.762500E+01	  0.026613226	3.190000E-01	  0.026613226	-5.211500E+01
35	  0.026813626	-5.500000E-02	  0.026813626	-8.823600E+01	  0.026813626	3.310000E-01	  0.026813626	-5.156100E+01
36	  0.027014028	-5.500000E-02	  0.027014028	-8.884400E+01	  0.027014028	3.240000E-01	  0.027014028	-5.101700E+01
37	  0.027214428	-5.700000E-02	  0.027214428	-8.946000E+01	  0.027214428	3.360000E-01	  0.027214428	-5.047100E+01
38	  0.027414829	-5.900000E-02	  0.027414829	-9.007100E+01	  0.027414829	3.410000E-01	  0.027414829	-4.993600E+01
39	  0.027615231	-6.100000E-02	  0.027615231	-9.067300E+01	  0.027615231	3.470000E-01	  0.027615231	-4.941400E+01
40	  0.027815631	-6.200000E-02	  0.027815631	-9.127600E+01	  0.027815631	3.500000E-01	  0.027815631	-4.889700E+01
41	  0.028016033	-6.400000E-02	  0.028016033	-9.189300E+01	  0.028016033	3.580000E-01	  0.028016033	-4.837200E+01
42	  0.028216433	-6.600000E-02	  0.028216433	-9.249100E+01	  0.028216433	3.650000E-01	  0.028216433	-4.786900E+01
43	  0.028416833	-6.700000E-02	  0.028416833	-9.308500E+01	  0.028416833	3.660000E-01	  0.028416833	-4.737600E+01
44	  0.028617235	-6.800000E-02	  0.028617235	-9.368100E+01	  0.028617235	3.720000E-01	  0.028617235	-4.688400E+01
45	  0.028817635	-7.200000E-02	  0.028817635	-9.428000E+01	  0.028817635	3.860000E-01	  0.028817635	-4.639600E+01
46	  0.029018037	-7.300000E-02	  0.029018037	-9.488100E+01	  0.029018037	3.910000E-01	  0.029018037	-4.591000E+01
47	  0.029218437	-7.500000E-02	  0.029218437	-9.547400E+01	  0.029218437	3.960000E-01	  0.029218437	-4.543500E+01
48	  0.029418837	-7.800000E-02	  0.029418837	-9.606400E+01	  0.029418837	4.090000E-01	  0.029418837	-4.496700E+01
49	  0.029619239	-7.900000E-02	  0.029619239	-9.665200E+01	  0.029619239	4.080000E-01	  0.029619239	-4.450500E+01
50	  0.029819639	-8.200000E-02	  0.029819639	-9.723500E+01	  0.029819639	4.190000E-01	  0.029819639	-4.405200E+01
51	  0.030020041	-8.400000E-02	  0.030020041	-9.782300E+01	  0.030020041	4.280000E-01	  0.030020041	-4.359800E+01
52	  0.030220442	-8.600000E-02	  0.030220442	-9.839800E+01	  0.030220442	4.360000E-01	  0.030220442	-4.315800E+01
53	  0.030420844	-8.800000E-02	  0.030420844	-9.897500E+01	  0.030420844	4.400000E-01	  0.030420844	-4.272000E+01
54	  0.030621244	-9.100000E-02	  0.030621244	-9.956000E+01	  0.030621244	4.490000E-01	  0.030621244	-4.228000E+01
55	  0.030821644	-9.200000E-02	  0.030821644	-1.001290E+02	  0.030821644	4.520000E-01	  0.030821644	-4.185600E+01
56	  0.031022044	-9.400000E-02	  0.031022044	-1.006990E+02	  0.031022044	4.560000E-01	  0.031022044	-4.143500E+01
57	  0.031222444	-9.200000E-02	  0.031222444	-1.012900E+02	  0.031222444	4.450000E-01	  0.031222444	-4.100200E+01
58	  0.031422846	-9.400000E-02	  0.031422846	-1.018480E+02	  0.031422846	4.500000E-01	  0.031422846	-4.059600E+01
59	  0.031623244	-9.600000E-02	  0.031623244	-1.024000E+02	  0.031623244	4.550000E-01	  0.031623244	-4.019800E+01
60	  0.031823646	-9.700000E-02	  0.031823646	-1.029750E+02	  0.031823646	4.590000E-01	  0.031823646	-3.978600E+01
61	  0.032024048	-1.010000E-01	  0.032024048	-1.035270E+02	  0.032024048	4.730000E-01	  0.032024048	-3.939400E+01
62	  0.032224450	-1.020000E-01	  0.032224450	-1.040760E+02	  0.032224450	4.720000E-01	  0.032224450	-3.900800E+01
63	  0.032424849	-1.030000E-01	  0.032424849	-1.046440E+02	  0.032424849	4.760000E-01	  0.032424849	-3.861000E+01
64	  0.032625251	-1.060000E-01	  0.032625251	-1.051900E+02	  0.032625251	4.840000E-01	  0.032625251	-3.823200E+01
65	  0.032825653	-1.060000E-01	  0.032825653	-1.057340E+02	  0.032825653	4.800000E-01	  0.032825653	-3.785700E+01
66	  0.033026051	-1.080000E-01	  0.033026051	-1.062880E+02	  0.033026051	4.880000E-01	  0.033026051	-3.747800E+01
67	  0.033226453	-1.100000E-01	  0.033226453	-1.068490E+02	  0.033226453	4.910000E-01	  0.033226453	-3.709700E+01
68	  0.033426855	-1.100000E-01	  0.033426855	-1.074000E+02	  0.033426855	4.910000E-01	  0.033426855	-3.672500E+01
69	  0.033627257	-1.130000E-01	  0.033627257	-1.079500E+02	  0.033627257	4.990000E-01	  0.033627257	-3.635800E+01
70	  0.033827655	-1.130000E-01	  0.033827655	-1.085060E+02	  0.033827655	4.970000E-01	  0.033827655	-3.598800E+01
71	  0.034028057	-1.150000E-01	  0.034028057	-1.090570E+02	  0.034028057	5.000000E-01	  0.034028057	-3.562400E+01
72	  0.034228459	-1.160000E-01	  0.034228459	-1.095870E+02	  0.034228459	5.020000E-01	  0.034228459	-3.527700E+01
73	  0.034428857	-1.170000E-01	  0.034428857	-1.101540E+02	  0.034428857	5.030000E-01	  0.034428857	-3.490700E+01
74	  0.034629259	-1.190000E-01	  0.034629259	-1.106860E+02	  0.034629259	5.090000E-01	  0.034629259	-3.456300E+01
75	  0.034829661	-1.190000E-01	  0.034829661	-1.112320E+02	  0.034829661	5.060000E-01	  0.034829661	-3.421200E+01
76	  0.035030060	-1.190000E-01	  0.035030060	-1.117910E+02	  0.035030060	5.020000E-01	  0.035030060	-3.385500E+01
77	  0.035230462	-1.220000E-01	  0.035230462	-1.123380E+02	  0.035230462	5.090000E-01	  0.035230462	-3.350800E+01
78	  0.035430863	-1.230000E-01	  0.035430863	-1.128770E+02	  0.035430863	5.120000E-01	  0.035430863	-3.316800E+01
79	  0.035631265	-1.240000E-01	  0.035631265	-1.134230E+02	  0.035631265	5.130000E-01	  0.035631265	-3.282600E+01
80	  0.035831664	-1.240000E-01	  0.035831664	-1.139480E+02	  0.035831664	5.090000E-01	  0.035831664	-3.250000E+01
81	  0.036032066	-1.260000E-01	  0.036032066	-1.144970E+02	  0.036032066	5.130000E-01	  0.036032066	-3.216000E+01
82	  0.036232468	-1.260000E-01	  0.036232468	-1.150380E+02	  0.036232468	5.110000E-01	  0.036232468	-3.182700E+01
83	  0.036432866	-1.270000E-01	  0.036432866	-1.155810E+02	  0.036432866	5.130000E-01	  0.036432866	-3.149500E+01
84	  0.036633268	-1.260000E-01	  0.036633268	-1.161160E+02	  0.036633268	5.050000E-01	  0.036633268	-3.117000E+01
85	  0.036833670	-1.260000E-01	  0.036833670	-1.166600E+02	  0.036833670	5.040000E-01	  0.036833670	-3.084100E+01
86	  0.037034072	-1.280000E-01	  0.037034072	-1.171870E+02	  0.037034072	5.080000E-01	  0.037034072	-3.052500E+01
87	  0.037234470	-1.280000E-01	  0.037234470	-1.177250E+02	  0.037234470	5.060000E-01	  0.037234470	-3.020300E+01
88	  0.037434869	-1.270000E-01	  0.037434869	-1.182550E+02	  0.037434869	4.990000E-01	  0.037434869	-2.988900E+01
89	  0.037635271	-1.290000E-01	  0.037635271	-1.187870E+02	  0.037635271	5.050000E-01	  0.037635271	-2.957400E+01
90	  0.037835669	-1.290000E-01	  0.037835669	-1.193280E+02	  0.037835669	5.010000E-01	  0.037835669	-2.925700E+01
91	  0.038036071	-1.310000E-01	  0.038036071	-1.198540E+02	  0.038036071	5.040000E-01	  0.038036071	-2.894900E+01
92	  0.038236473	-1.280000E-01	  0.038236473	-1.203780E+02	  0.038236473	4.930000E-01	  0.038236473	-2.864500E+01
93	  0.038436871	-1.300000E-01	  0.038436871	-1.209080E+02	  0.038436871	4.960000E-01	  0.038436871	-2.833900E+01
94	  0.038637273	-1.300000E-01	  0.038637273	-1.214250E+02	  0.038637273	4.940000E-01	  0.038637273	-2.804100E+01
95	  0.038837675	-1.300000E-01	  0.038837675	-1.219610E+02	  0.038837675	4.910000E-01	  0.038837675	-2.773500E+01
96	  0.039038073	-1.310000E-01	  0.039038073	-1.224700E+02	  0.039038073	4.910000E-01	  0.039038073	-2.744500E+01
97	  0.039238475	-1.300000E-01	  0.039238475	-1.229920E+02	  0.039238475	4.860000E-01	  0.039238475	-2.715000E+01
98	  0.039438877	-1.340000E-01	  0.039438877	-1.235150E+02	  0.039438877	4.970000E-01	  0.039438877	-2.685500E+01
99	  0.039639279	-1.330000E-01	  0.039639279	-1.240280E+02	  0.039639279	4.930000E-01	  0.039639279	-2.656700E+01
100	  0.039839678	-1.360000E-01	  0.039839678	-1.245540E+02	  0.039839678	4.990000E-01	  0.039839678	-2.627300E+01
101	  0.040040080	-1.360000E-01	  0.040040080	-1.250630E+02	  0.040040080	4.990000E-01	  0.040040080	-2.599000E+01
102	  0.040240481	-1.350000E-01	  0.040240481	-1.255840E+02	  0.040240481	4.930000E-01	  0.040240481	-2.570300E+01
103	  0.040440880	-1.360000E-01	  0.040440880	-1.261010E+02	  0.040440880	4.940000E-01	  0.040440880	-2.541800E+01
104	  0.040641282	-1.360000E-01	  0.040641282	-1.266150E+02	  0.040641282	4.930000E-01	  0.040641282	-2.513600E+01
105	  0.040841684	-1.370000E-01	  0.040841684	-1.271200E+02	  0.040841684	4.950000E-01	  0.040841684	-2.486100E+01
106	  0.041042086	-1.390000E-01	  0.041042086	-1.276380E+02	  0.041042086	4.980000E-01	  0.041042086	-2.458000E+01
107	  0.041242484	-1.400000E-01	  0.041242484	-1.281470E+02	  0.041242484	5.000000E-01	  0.041242484	-2.430400E+01
108	  0.041442886	-1.400000E-01	  0.041442886	-1.286540E+02	  0.041442886	4.990000E-01	  0.041442886	-2.403200E+01
109	  0.041643288	-1.410000E-01	  0.041643288	-1.291730E+02	  0.041643288	4.990000E-01	  0.041643288	-2.375300E+01
110	  0.041843686	-1.420000E-01	  0.041843686	-1.296730E+02	  0.041843686	4.990000E-01	  0.041843686	-2.348700E+01
111	  0.042044088	-1.420000E-01	  0.042044088	-1.301790E+02	  0.042044088	4.970000E-01	  0.042044088	-2.321700E+01
112	  0.042244490	-1.440000E-01	  0.042244490	-1.306730E+02	  0.042244490	5.030000E-01	  0.042244490	-2.295600E+01
113	  0.042444889	-1.440000E-01	  0.042444889	-1.311940E+02	  0.042444889	4.990000E-01	  0.042444889	-2.268200E+01
114	  0.042645290	-1.450000E-01	  0.042645290	-1.316890E+02	  0.042645290	5.030000E-01	  0.042645290	-2.242200E+01
115	  0.042845692	-1.440000E-01	  0.042845692	-1.321920E+02	  0.042845692	4.990000E-01	  0.042845692	-2.215800E+01
116	  0.043046094	-1.460000E-01	  0.043046094	-1.327030E+02	  0.043046094	5.030000E-01	  0.043046094	-2.189200E+01
117	  0.043246493	-1.480000E-01	  0.043246493	-1.332000E+02	  0.043246493	5.060000E-01	  0.043246493	-2.163400E+01
118	  0.043446895	-1.490000E-01	  0.043446895	-1.337000E+02	  0.043446895	5.100000E-01	  0.043446895	-2.137600E+01
119	  0.043647297	-1.490000E-01	  0.043647297	-1.341940E+02	  0.043647297	5.070000E-01	  0.043647297	-2.112100E+01
120	  0.043847695	-1.500000E-01	  0.043847695	-1.347020E+02	  0.043847695	5.080000E-01	  0.043847695	-2.086100E+01
121	  0.044048097	-1.510000E-01	  0.044048097	-1.351950E+02	  0.044048097	5.080000E-01	  0.044048097	-2.060900E+01
122	  0.044248499	-1.530000E-01	  0.044248499	-1.356980E+02	  0.044248499	5.140000E-01	  0.044248499	-2.035200E+01
123	  0.044448901	-1.550000E-01	  0.044448901	-1.361860E+02	  0.044448901	5.200000E-01	  0.044448901	-2.010400E+01
124	  0.044649299	-1.560000E-01	  0.044649299	-1.366830E+02	  0.044649299	5.190000E-01	  0.044649299	-1.985300E+01
125	  0.044849701	-1.570000E-01	  0.044849701	-1.371820E+02	  0.044849701	5.220000E-01	  0.044849701	-1.960100E+01
126	  0.045050103	-1.580000E-01	  0.045050103	-1.376790E+02	  0.045050103	5.230000E-01	  0.045050103	-1.935200E+01
127	  0.045250501	-1.580000E-01	  0.045250501	-1.381740E+02	  0.045250501	5.230000E-01	  0.045250501	-1.910400E+01
128	  0.045450903	-1.610000E-01	  0.045450903	-1.386800E+02	  0.045450903	5.290000E-01	  0.045450903	-1.885100E+01
129	  0.045651305	-1.620000E-01	  0.045651305	-1.391740E+02	  0.045651305	5.330000E-01	  0.045651305	-1.860500E+01
130	  0.045851704	-1.640000E-01	  0.045851704	-1.396600E+02	  0.045851704	5.370000E-01	  0.045851704	-1.836400E+01
131	  0.046052106	-1.660000E-01	  0.046052106	-1.401530E+02	  0.046052106	5.410000E-01	  0.046052106	-1.812100E+01
132	  0.046252504	-1.660000E-01	  0.046252504	-1.406450E+02	  0.046252504	5.400000E-01	  0.046252504	-1.787800E+01
133	  0.046452906	-1.670000E-01	  0.046452906	-1.411410E+02	  0.046452906	5.410000E-01	  0.046452906	-1.763400E+01
134	  0.046653304	-1.680000E-01	  0.046653304	-1.416300E+02	  0.046653304	5.430000E-01	  0.046653304	-1.739500E+01
135	  0.046853706	-1.700000E-01	  0.046853706	-1.421180E+02	  0.046853706	5.470000E-01	  0.046853706	-1.715600E+01
136	  0.047054108	-1.650000E-01	  0.047054108	-1.425880E+02	  0.047054108	5.310000E-01	  0.047054108	-1.692700E+01
137	  0.047254506	-1.660000E-01	  0.047254506	-1.430800E+02	  0.047254506	5.340000E-01	  0.047254506	-1.668800E+01
138	  0.047454908	-1.680000E-01	  0.047454908	-1.435550E+02	  0.047454908	5.360000E-01	  0.047454908	-1.645900E+01
139	  0.047655310	-1.670000E-01	  0.047655310	-1.440470E+02	  0.047655310	5.320000E-01	  0.047655310	-1.622100E+01
140	  0.047855709	-1.680000E-01	  0.047855709	-1.445300E+02	  0.047855709	5.340000E-01	  0.047855709	-1.598800E+01
141	  0.048056111	-1.690000E-01	  0.048056111	-1.450140E+02	  0.048056111	5.360000E-01	  0.048056111	-1.575600E+01
142	  0.048256513	-1.710000E-01	  0.048256513	-1.454960E+02	  0.048256513	5.390000E-01	  0.048256513	-1.552500E+01
143	  0.048456915	-1.710000E-01	  0.048456915	-1.459800E+02	  0.048456915	5.380000E-01	  0.048456915	-1.529400E+01
144	  0.048657313	-1.720000E-01	  0.048657313	-1.464590E+02	  0.048657313	5.410000E-01	  0.048657313	-1.506500E+01
145	  0.048857715	-1.730000E-01	  0.048857715	-1.469310E+02	  0.048857715	5.430000E-01	  0.048857715	-1.484100E+01
146	  0.049058117	-1.730000E-01	  0.049058117	-1.474160E+02	  0.049058117	5.420000E-01	  0.049058117	-1.461100E+01
147	  0.049258515	-1.730000E-01	  0.049258515	-1.478940E+02	  0.049258515	5.410000E-01	  0.049258515	-1.438500E+01
148	  0.049458917	-1.740000E-01	  0.049458917	-1.483740E+02	  0.049458917	5.420000E-01	  0.049458917	-1.415900E+01
149	  0.049659319	-1.760000E-01	  0.049659319	-1.488410E+02	  0.049659319	5.460000E-01	  0.049659319	-1.393900E+01
150	  0.049859721	-1.750000E-01	  0.049859721	-1.493270E+02	  0.049859721	5.440000E-01	  0.049859721	-1.371100E+01
151	  0.050060119	-1.770000E-01	  0.050060119	-1.497910E+02	  0.050060119	5.490000E-01	  0.050060119	-1.349300E+01
152	  0.050260521	-1.770000E-01	  0.050260521	-1.502600E+02	  0.050260521	5.470000E-01	  0.050260521	-1.327400E+01
153	  0.050460923	-1.770000E-01	  0.050460923	-1.507340E+02	  0.050460923	5.450000E-01	  0.050460923	-1.305200E+01
154	  0.050661322	-1.780000E-01	  0.050661322	-1.512000E+02	  0.050661322	5.470000E-01	  0.050661322	-1.283600E+01
155	  0.050861724	-1.790000E-01	  0.050861724	-1.516620E+02	  0.050861724	5.480000E-01	  0.050861724	-1.262100E+01
156	  0.051062126	-1.800000E-01	  0.051062126	-1.521280E+02	  0.051062126	5.500000E-01	  0.051062126	-1.240500E+01
157	  0.051262524	-1.800000E-01	  0.051262524	-1.525970E+02	  0.051262524	5.500000E-01	  0.051262524	-1.218800E+01
158	  0.051462926	-1.810000E-01	  0.051462926	-1.530620E+02	  0.051462926	5.510000E-01	  0.051462926	-1.197300E+01
159	  0.051663328	-1.820000E-01	  0.051663328	-1.535240E+02	  0.051663328	5.530000E-01	  0.051663328	-1.176000E+01
160	  0.051863730	-1.820000E-01	  0.051863730	-1.539840E+02	  0.051863730	5.530000E-01	  0.051863730	-1.154900E+01
161	  0.052064128	-1.830000E-01	  0.052064128	-1.544420E+02	  0.052064128	5.540000E-01	  0.052064128	-1.133900E+01
162	  0.052264530	-1.820000E-01	  0.052264530	-1.548990E+02	  0.052264530	5.520000E-01	  0.052264530	-1.112900E+01
163	  0.052464932	-1.830000E-01	  0.052464932	-1.553520E+02	  0.052464932	5.530000E-01	  0.052464932	-1.092200E+01
164	  0.052665330	-1.850000E-01	  0.052665330	-1.558080E+02	  0.052665330	5.570000E-01	  0.052665330	-1.071400E+01
165	  0.052865732	-1.860000E-01	  0.052865732	-1.562640E+02	  0.052865732	5.610000E-01	  0.052865732	-1.050500E+01
166	  0.053066134	-1.850000E-01	  0.053066134	-1.567200E+02	  0.053066134	5.570000E-01	  0.053066134	-1.029800E+01
167	  0.053266536	-1.880000E-01	  0.053266536	-1.571690E+02	  0.053266536	5.640000E-01	  0.053266536	-1.009400E+01
168	  0.053466935	-1.870000E-01	  0.053466935	-1.576270E+02	  0.053466935	5.610000E-01	  0.053466935	-9.886000E+00
169	  0.053667337	-1.890000E-01	  0.053667337	-1.580680E+02	  0.053667337	5.660000E-01	  0.053667337	-9.686000E+00
170	  0.053867739	-1.890000E-01	  0.053867739	-1.585270E+02	  0.053867739	5.650000E-01	  0.053867739	-9.479000E+00
171	  0.054068137	-1.900000E-01	  0.054068137	-1.589780E+02	  0.054068137	5.670000E-01	  0.054068137	-9.275000E+00
172	  0.054268539	-1.900000E-01	  0.054268539	-1.594220E+02	  0.054268539	5.660000E-01	  0.054268539	-9.075000E+00
173	  0.054468941	-1.930000E-01	  0.054468941	-1.598770E+02	  0.054468941	5.730000E-01	  0.054468941	-8.870000E+00
174	  0.054669339	-1.920000E-01	  0.054669339	-1.603200E+02	  0.054669339	5.700000E-01	  0.054669339	-8.671000E+00
175	  0.054869737	-1.940000E-01	  0.054869737	-1.607670E+02	  0.054869737	5.740000E-01	  0.054869737	-8.470000E+00
176	  0.055070139	-1.950000E-01	  0.055070139	-1.612140E+02	  0.055070139	5.770000E-01	  0.055070139	-8.269000E+00
177	  0.055270538	-1.960000E-01	  0.055270538	-1.616640E+02	  0.055270538	5.790000E-01	  0.055270538	-8.068000E+00
178	  0.055470940	-1.970000E-01	  0.055470940	-1.621110E+02	  0.055470940	5.810000E-01	  0.055470940	-7.868000E+00
179	  0.055671342	-1.970000E-01	  0.055671342	-1.625590E+02	  0.055671342	5.810000E-01	  0.055671342	-7.668000E+00
180	  0.055871744	-1.980000E-01	  0.055871744	-1.630050E+02	  0.055871744	5.830000E-01	  0.055871744	-7.469000E+00
181	  0.056072142	-1.980000E-01	  0.056072142	-1.634470E+02	  0.056072142	5.820000E-01	  0.056072142	-7.272000E+00
182	  0.056272544	-1.990000E-01	  0.056272544	-1.638900E+02	  0.056272544	5.870000E-01	  0.056272544	-7.074000E+00
183	  0.056472946	-2.010000E-01	  0.056472946	-1.643320E+02	  0.056472946	5.900000E-01	  0.056472946	-6.878000E+00
184	  0.056673344	-2.020000E-01	  0.056673344	-1.647660E+02	  0.056673344	5.920000E-01	  0.056673344	-6.685000E+00
185	  0.056873746	-2.030000E-01	  0.056873746	-1.652090E+02	  0.056873746	5.960000E-01	  0.056873746	-6.488000E+00
186	  0.057074148	-2.030000E-01	  0.057074148	-1.656510E+02	  0.057074148	5.950000E-01	  0.057074148	-6.292000E+00
187	  0.057274550	-2.060000E-01	  0.057274550	-1.660890E+02	  0.057274550	6.030000E-01	  0.057274550	-6.098000E+00
188	  0.057474948	-2.070000E-01	  0.057474948	-1.665230E+02	  0.057474948	6.050000E-01	  0.057474948	-5.906000E+00
189	  0.057675350	-2.090000E-01	  0.057675350	-1.669620E+02	  0.057675350	6.100000E-01	  0.057675350	-5.712000E+00
190	  0.057875752	-2.080000E-01	  0.057875752	-1.674010E+02	  0.057875752	6.080000E-01	  0.057875752	-5.518000E+00
191	  0.058076151	-2.100000E-01	  0.058076151	-1.678390E+02	  0.058076151	6.130000E-01	  0.058076151	-5.325000E+00
192	  0.058276553	-2.120000E-01	  0.058276553	-1.682630E+02	  0.058276553	6.170000E-01	  0.058276553	-5.138000E+00
193	  0.058476955	-2.130000E-01	  0.058476955	-1.686990E+02	  0.058476955	6.200000E-01	  0.058476955	-4.946000E+00
194	  0.058677353	-2.150000E-01	  0.058677353	-1.691340E+02	  0.058677353	6.250000E-01	  0.058677353	-4.754000E+00
195	  0.058877755	-2.160000E-01	  0.058877755	-1.695710E+02	  0.058877755	6.280000E-01	  0.058877755	-4.562000E+00
196	  0.059078157	-2.170000E-01	  0.059078157	-1.700010E+02	  0.059078157	6.300000E-01	  0.059078157	-4.372000E+00
197	  0.059278559	-2.180000E-01	  0.059278559	-1.704360E+02	  0.059278559	6.330000E-01	  0.059278559	-4.182000E+00
198	  0.059478957	-2.200000E-01	  0.059478957	-1.708600E+02	  0.059478957	6.380000E-01	  0.059478957	-3.995000E+00
199	  0.059679359	-2.210000E-01	  0.059679359	-1.712920E+02	  0.059679359	6.400000E-01	  0.059679359	-3.805000E+00
200	  0.059879761	-2.220000E-01	  0.059879761	-1.717170E+02	  0.059879761	6.430000E-01	  0.059879761	-3.619000E+00
201	  0.060080159	-2.220000E-01	  0.060080159	-1.721440E+02	  0.060080159	6.430000E-01	  0.060080159	-3.432000E+00
202	  0.060280561	-2.230000E-01	  0.060280561	-1.725750E+02	  0.060280561	6.470000E-01	  0.060280561	-3.243000E+00
203	  0.060480963	-2.240000E-01	  0.060480963	-1.730100E+02	  0.060480963	6.470000E-01	  0.060480963	-3.052000E+00
204	  0.060681365	-2.260000E-01	  0.060681365	-1.734280E+02	  0.060681365	6.530000E-01	  0.060681365	-2.869000E+00
205	  0.060881764	-2.260000E-01	  0.060881764	-1.738560E+02	  0.060881764	6.540000E-01	  0.060881764	-2.682000E+00
206	  0.061082166	-2.280000E-01	  0.061082166	-1.742830E+02	  0.061082166	6.580000E-01	  0.061082166	-2.495000E+00
207	  0.061282568	-2.280000E-01	  0.061282568	-1.747110E+02	  0.061282568	6.580000E-01	  0.061282568	-2.308000E+00
208	  0.061482966	-2.270000E-01	  0.061482966	-1.751190E+02	  0.061482966	6.550000E-01	  0.061482966	-2.130000E+00
209	  0.061683368	-2.270000E-01	  0.061683368	-1.755430E+02	  0.061683368	6.550000E-01	  0.061683368	-1.945000E+00
210	  0.061883770	-2.280000E-01	  0.061883770	-1.759610E+02	  0.061883770	6.580000E-01	  0.061883770	-1.762000E+00
211	  0.062084168	-2.290000E-01	  0.062084168	-1.763810E+02	  0.062084168	6.590000E-01	  0.062084168	-1.579000E+00
212	  0.062284570	-2.290000E-01	  0.062284570	-1.767980E+02	  0.062284570	6.590000E-01	  0.062284570	-1.397000E+00
213	  0.062484972	-2.240000E-01	  0.062484972	-1.771690E+02	  0.062484972	6.450000E-01	  0.062484972	-1.234000E+00
214	  0.062685370	-2.250000E-01	  0.062685370	-1.775780E+02	  0.062685370	6.490000E-01	  0.062685370	-1.056000E+00
215	  0.062885776	-2.260000E-01	  0.062885776	-1.780010E+02	  0.062885776	6.520000E-01	  0.062885776	-8.720000E-01
216	  0.063086174	-2.270000E-01	  0.063086174	-1.784060E+02	  0.063086174	6.550000E-01	  0.063086174	-6.950000E-01
217	  0.063286573	-2.270000E-01	  0.063286573	-1.788190E+02	  0.063286573	6.560000E-01	  0.063286573	-5.140000E-01
218	  0.063486971	-2.290000E-01	  0.063486971	-1.792490E+02	  0.063486971	6.600000E-01	  0.063486971	-3.270000E-01
219	  0.063687377	-2.310000E-01	  0.063687377	-1.796520E+02	  0.063687377	6.650000E-01	  0.063687377	-1.510000E-01
220	  0.063887775	-2.320000E-01	  0.063887775	1.799200E+02	  0.063887775	6.690000E-01	  0.063887775	3.400000E-02
221	  0.064088173	-2.320000E-01	  0.064088173	1.795140E+02	  0.064088173	6.680000E-01	  0.064088173	2.110000E-01
222	  0.064288579	-2.330000E-01	  0.064288579	1.791020E+02	  0.064288579	6.710000E-01	  0.064288579	3.910000E-01
223	  0.064488977	-2.330000E-01	  0.064488977	1.786940E+02	  0.064488977	6.710000E-01	  0.064488977	5.690000E-01
224	  0.064689375	-2.360000E-01	  0.064689375	1.782790E+02	  0.064689375	6.790000E-01	  0.064689375	7.500000E-01
225	  0.064889781	-2.350000E-01	  0.064889781	1.778660E+02	  0.064889781	6.770000E-01	  0.064889781	9.300000E-01
226	  0.065090179	-2.360000E-01	  0.065090179	1.774630E+02	  0.065090179	6.810000E-01	  0.065090179	1.106000E+00
227	  0.065290578	-2.370000E-01	  0.065290578	1.770520E+02	  0.065290578	6.840000E-01	  0.065290578	1.285000E+00
228	  0.065490983	-2.390000E-01	  0.065490983	1.766500E+02	  0.065490983	6.890000E-01	  0.065490983	1.461000E+00
229	  0.065691382	-2.390000E-01	  0.065691382	1.762330E+02	  0.065691382	6.900000E-01	  0.065691382	1.643000E+00
230	  0.065891780	-2.390000E-01	  0.065891780	1.758260E+02	  0.065891780	6.890000E-01	  0.065891780	1.821000E+00
231	  0.066092186	-2.390000E-01	  0.066092186	1.754220E+02	  0.066092186	6.910000E-01	  0.066092186	1.997000E+00
232	  0.066292584	-2.400000E-01	  0.066292584	1.750110E+02	  0.066292584	6.920000E-01	  0.066292584	2.177000E+00
233	  0.066492982	-2.400000E-01	  0.066492982	1.746190E+02	  0.066492982	6.930000E-01	  0.066492982	2.348000E+00
234	  0.066693388	-2.390000E-01	  0.066693388	1.741940E+02	  0.066693388	6.910000E-01	  0.066693388	2.534000E+00
235	  0.066893786	-2.400000E-01	  0.066893786	1.737930E+02	  0.066893786	6.940000E-01	  0.066893786	2.710000E+00
236	  0.067094192	-2.420000E-01	  0.067094192	1.733970E+02	  0.067094192	6.990000E-01	  0.067094192	2.883000E+00
237	  0.067294590	-2.420000E-01	  0.067294590	1.729850E+02	  0.067294590	6.990000E-01	  0.067294590	3.063000E+00
238	  0.067494988	-2.420000E-01	  0.067494988	1.725930E+02	  0.067494988	7.010000E-01	  0.067494988	3.235000E+00
239	  0.067695394	-2.430000E-01	  0.067695394	1.721890E+02	  0.067695394	7.040000E-01	  0.067695394	3.412000E+00
240	  0.067895792	-2.420000E-01	  0.067895792	1.717800E+02	  0.067895792	7.010000E-01	  0.067895792	3.591000E+00
241	  0.068096191	-2.440000E-01	  0.068096191	1.713950E+02	  0.068096191	7.080000E-01	  0.068096191	3.760000E+00
242	  0.068296596	-2.450000E-01	  0.068296596	1.709960E+02	  0.068296596	7.100000E-01	  0.068296596	3.936000E+00
243	  0.068496995	-2.440000E-01	  0.068496995	1.705950E+02	  0.068496995	7.090000E-01	  0.068496995	4.112000E+00
244	  0.068697393	-2.450000E-01	  0.068697393	1.701920E+02	  0.068697393	7.110000E-01	  0.068697393	4.289000E+00
245	  0.068897791	-2.470000E-01	  0.068897791	1.698040E+02	  0.068897791	7.190000E-01	  0.068897791	4.459000E+00
246	  0.069098189	-2.470000E-01	  0.069098189	1.694050E+02	  0.069098189	7.190000E-01	  0.069098189	4.634000E+00
247	  0.069298595	-2.460000E-01	  0.069298595	1.690110E+02	  0.069298595	7.160000E-01	  0.069298595	4.808000E+00
248	  0.069498993	-2.480000E-01	  0.069498993	1.686160E+02	  0.069498993	7.210000E-01	  0.069498993	4.982000E+00
249	  0.069699399	-2.480000E-01	  0.069699399	1.682290E+02	  0.069699399	7.210000E-01	  0.069699399	5.153000E+00
250	  0.069899797	-2.490000E-01	  0.069899797	1.678360E+02	  0.069899797	7.240000E-01	  0.069899797	5.326000E+00
251	  0.070100196	-2.490000E-01	  0.070100196	1.674440E+02	  0.070100196	7.260000E-01	  0.070100196	5.499000E+00
252	  0.070300601	-2.490000E-01	  0.070300601	1.670560E+02	  0.070300601	7.260000E-01	  0.070300601	5.670000E+00
253	  0.070501000	-2.510000E-01	  0.070501000	1.666780E+02	  0.070501000	7.340000E-01	  0.070501000	5.837000E+00
254	  0.070701398	-2.520000E-01	  0.070701398	1.662810E+02	  0.070701398	7.360000E-01	  0.070701398	6.013000E+00
255	  0.070901804	-2.520000E-01	  0.070901804	1.658900E+02	  0.070901804	7.370000E-01	  0.070901804	6.186000E+00
256	  0.071102202	-2.530000E-01	  0.071102202	1.655160E+02	  0.071102202	7.420000E-01	  0.071102202	6.351000E+00
257	  0.071302600	-2.530000E-01	  0.071302600	1.651190E+02	  0.071302600	7.420000E-01	  0.071302600	6.528000E+00
258	  0.071503006	-2.540000E-01	  0.071503006	1.647400E+02	  0.071503006	7.460000E-01	  0.071503006	6.696000E+00
259	  0.071703404	-2.540000E-01	  0.071703404	1.643590E+02	  0.071703404	7.450000E-01	  0.071703404	6.865000E+00
260	  0.071903802	-2.530000E-01	  0.071903802	1.639720E+02	  0.071903802	7.450000E-01	  0.071903802	7.037000E+00
261	  0.072104208	-2.550000E-01	  0.072104208	1.635920E+02	  0.072104208	7.510000E-01	  0.072104208	7.206000E+00
262	  0.072304606	-2.540000E-01	  0.072304606	1.632040E+02	  0.072304606	7.490000E-01	  0.072304606	7.379000E+00
263	  0.072505005	-2.550000E-01	  0.072505005	1.628290E+02	  0.072505005	7.520000E-01	  0.072505005	7.546000E+00
264	  0.072705410	-2.540000E-01	  0.072705410	1.624490E+02	  0.072705410	7.510000E-01	  0.072705410	7.716000E+00
265	  0.072905809	-2.560000E-01	  0.072905809	1.620760E+02	  0.072905809	7.570000E-01	  0.072905809	7.883000E+00
266	  0.073106214	-2.570000E-01	  0.073106214	1.616960E+02	  0.073106214	7.610000E-01	  0.073106214	8.053000E+00
267	  0.073306613	-2.560000E-01	  0.073306613	1.613170E+02	  0.073306613	7.590000E-01	  0.073306613	8.222000E+00
268	  0.073507011	-2.580000E-01	  0.073507011	1.609380E+02	  0.073507011	7.650000E-01	  0.073507011	8.392000E+00
269	  0.073707417	-2.590000E-01	  0.073707417	1.605680E+02	  0.073707417	7.680000E-01	  0.073707417	8.558000E+00
270	  0.073907815	-2.580000E-01	  0.073907815	1.602030E+02	  0.073907815	7.660000E-01	  0.073907815	8.722000E+00
271	  0.074108213	-2.580000E-01	  0.074108213	1.598210E+02	  0.074108213	7.680000E-01	  0.074108213	8.894000E+00
272	  0.074308619	-2.590000E-01	  0.074308619	1.594380E+02	  0.074308619	7.690000E-01	  0.074308619	9.067000E+00
273	  0.074509017	-2.610000E-01	  0.074509017	1.590710E+02	  0.074509017	7.760000E-01	  0.074509017	9.232000E+00
274	  0.074709415	-2.600000E-01	  0.074709415	1.586940E+02	  0.074709415	7.770000E-01	  0.074709415	9.402000E+00
275	  0.074909821	-2.610000E-01	  0.074909821	1.583130E+02	  0.074909821	7.810000E-01	  0.074909821	9.574000E+00
276	  0.075110219	-2.610000E-01	  0.075110219	1.579590E+02	  0.075110219	7.810000E-01	  0.075110219	9.735000E+00
277	  0.075310618	-2.620000E-01	  0.075310618	1.575770E+02	  0.075310618	7.830000E-01	  0.075310618	9.908000E+00
278	  0.075511023	-2.620000E-01	  0.075511023	1.572040E+02	  0.075511023	7.860000E-01	  0.075511023	1.007700E+01
279	  0.075711422	-2.630000E-01	  0.075711422	1.568350E+02	  0.075711422	7.910000E-01	  0.075711422	1.024500E+01
280	  0.075911827	-2.640000E-01	  0.075911827	1.564710E+02	  0.075911827	7.940000E-01	  0.075911827	1.041000E+01
281	  0.076112226	-2.650000E-01	  0.076112226	1.560950E+02	  0.076112226	7.980000E-01	  0.076112226	1.058100E+01
282	  0.076312624	-2.670000E-01	  0.076312624	1.557250E+02	  0.076312624	8.040000E-01	  0.076312624	1.075000E+01
283	  0.076513030	-2.670000E-01	  0.076513030	1.553550E+02	  0.076513030	8.060000E-01	  0.076513030	1.091900E+01
284	  0.076713428	-2.690000E-01	  0.076713428	1.549850E+02	  0.076713428	8.130000E-01	  0.076713428	1.108800E+01
285	  0.076913826	-2.700000E-01	  0.076913826	1.546160E+02	  0.076913826	8.170000E-01	  0.076913826	1.125700E+01
286	  0.077114232	-2.710000E-01	  0.077114232	1.542510E+02	  0.077114232	8.230000E-01	  0.077114232	1.142400E+01
287	  0.077314630	-2.730000E-01	  0.077314630	1.538770E+02	  0.077314630	8.280000E-01	  0.077314630	1.159600E+01
288	  0.077515028	-2.750000E-01	  0.077515028	1.535140E+02	  0.077515028	8.380000E-01	  0.077515028	1.176300E+01
289	  0.077715434	-2.760000E-01	  0.077715434	1.531420E+02	  0.077715434	8.400000E-01	  0.077715434	1.193500E+01
290	  0.077915832	-2.790000E-01	  0.077915832	1.527730E+02	  0.077915832	8.500000E-01	  0.077915832	1.210500E+01
291	  0.078116231	-2.800000E-01	  0.078116231	1.524090E+02	  0.078116231	8.540000E-01	  0.078116231	1.227300E+01
292	  0.078316636	-2.810000E-01	  0.078316636	1.520440E+02	  0.078316636	8.590000E-01	  0.078316636	1.244200E+01
293	  0.078517035	-2.810000E-01	  0.078517035	1.516770E+02	  0.078517035	8.620000E-01	  0.078517035	1.261200E+01
294	  0.078717433	-2.820000E-01	  0.078717433	1.512980E+02	  0.078717433	8.660000E-01	  0.078717433	1.278800E+01
295	  0.078917839	-2.840000E-01	  0.078917839	1.509300E+02	  0.078917839	8.730000E-01	  0.078917839	1.295900E+01
296	  0.079118237	-2.870000E-01	  0.079118237	1.505670E+02	  0.079118237	8.850000E-01	  0.079118237	1.312800E+01
297	  0.079318643	-2.860000E-01	  0.079318643	1.501970E+02	  0.079318643	8.810000E-01	  0.079318643	1.330100E+01
298	  0.079519041	-2.870000E-01	  0.079519041	1.498290E+02	  0.079519041	8.880000E-01	  0.079519041	1.347300E+01
299	  0.079719439	-2.880000E-01	  0.079719439	1.494660E+02	  0.079719439	8.930000E-01	  0.079719439	1.364300E+01
300	  0.079919845	-2.880000E-01	  0.079919845	1.491020E+02	  0.079919845	8.940000E-01	  0.079919845	1.381300E+01
301	  0.080120243	-2.920000E-01	  0.080120243	1.487300E+02	  0.080120243	9.080000E-01	  0.080120243	1.398800E+01
302	  0.080320641	-2.920000E-01	  0.080320641	1.483600E+02	  0.080320641	9.090000E-01	  0.080320641	1.416200E+01
303	  0.080521047	-2.920000E-01	  0.080521047	1.479990E+02	  0.080521047	9.090000E-01	  0.080521047	1.433300E+01
304	  0.080721445	-2.930000E-01	  0.080721445	1.476340E+02	  0.080721445	9.170000E-01	  0.080721445	1.450500E+01
305	  0.080921844	-2.950000E-01	  0.080921844	1.472740E+02	  0.080921844	9.240000E-01	  0.080921844	1.467600E+01
306	  0.081122249	-2.950000E-01	  0.081122249	1.469210E+02	  0.081122249	9.260000E-01	  0.081122249	1.484300E+01
307	  0.081322648	-2.970000E-01	  0.081322648	1.465470E+02	  0.081322648	9.330000E-01	  0.081322648	1.502000E+01
308	  0.081523046	-2.960000E-01	  0.081523046	1.461850E+02	  0.081523046	9.320000E-01	  0.081523046	1.519300E+01
309	  0.081723452	-2.980000E-01	  0.081723452	1.458230E+02	  0.081723452	9.400000E-01	  0.081723452	1.536500E+01
310	  0.081923850	-2.980000E-01	  0.081923850	1.454590E+02	  0.081923850	9.410000E-01	  0.081923850	1.553900E+01
311	  0.082124248	-2.990000E-01	  0.082124248	1.451100E+02	  0.082124248	9.460000E-01	  0.082124248	1.570600E+01
312	  0.082324654	-2.990000E-01	  0.082324654	1.447520E+02	  0.082324654	9.490000E-01	  0.082324654	1.587800E+01
313	  0.082525052	-3.010000E-01	  0.082525052	1.443860E+02	  0.082525052	9.570000E-01	  0.082525052	1.605400E+01
314	  0.082725458	-3.010000E-01	  0.082725458	1.440210E+02	  0.082725458	9.580000E-01	  0.082725458	1.623000E+01
315	  0.082925856	-3.030000E-01	  0.082925856	1.436660E+02	  0.082925856	9.680000E-01	  0.082925856	1.640100E+01
316	  0.083126254	-3.020000E-01	  0.083126254	1.433090E+02	  0.083126254	9.640000E-01	  0.083126254	1.657400E+01
317	  0.083326660	-3.040000E-01	  0.083326660	1.429580E+02	  0.083326660	9.750000E-01	  0.083326660	1.674300E+01
318	  0.083527058	-3.030000E-01	  0.083527058	1.425970E+02	  0.083527058	9.740000E-01	  0.083527058	1.691900E+01
319	  0.083727457	-3.050000E-01	  0.083727457	1.422390E+02	  0.083727457	9.810000E-01	  0.083727457	1.709300E+01
320	  0.083927862	-3.040000E-01	  0.083927862	1.418920E+02	  0.083927862	9.810000E-01	  0.083927862	1.726200E+01
321	  0.084128261	-3.040000E-01	  0.084128261	1.415320E+02	  0.084128261	9.840000E-01	  0.084128261	1.743800E+01
322	  0.084328659	-3.050000E-01	  0.084328659	1.411860E+02	  0.084328659	9.890000E-01	  0.084328659	1.760800E+01
323	  0.084529065	-3.050000E-01	  0.084529065	1.408340E+02	  0.084529065	9.910000E-01	  0.084529065	1.778000E+01
324	  0.084729463	-3.070000E-01	  0.084729463	1.404790E+02	  0.084729463	9.990000E-01	  0.084729463	1.795500E+01
325	  0.084929861	-3.090000E-01	  0.084929861	1.401290E+02	  0.084929861	1.007000E+00	  0.084929861	1.812700E+01
326	  0.085130267	-3.080000E-01	  0.085130267	1.397740E+02	  0.085130267	1.005000E+00	  0.085130267	1.830300E+01
327	  0.085330658	-3.080000E-01	  0.085330658	1.394340E+02	  0.085330658	1.009000E+00	  0.085330658	1.847200E+01
328	  0.085531056	-3.100000E-01	  0.085531056	1.390780E+02	  0.085531056	1.016000E+00	  0.085531056	1.864800E+01
329	  0.085731462	-3.100000E-01	  0.085731462	1.387330E+02	  0.085731462	1.019000E+00	  0.085731462	1.882000E+01
330	  0.085931860	-3.110000E-01	  0.085931860	1.383860E+02	  0.085931860	1.024000E+00	  0.085931860	1.899200E+01
331	  0.086132258	-3.110000E-01	  0.086132258	1.380400E+02	  0.086132258	1.027000E+00	  0.086132258	1.916500E+01
332	  0.086332664	-3.120000E-01	  0.086332664	1.377020E+02	  0.086332664	1.034000E+00	  0.086332664	1.933500E+01
333	  0.086533062	-3.120000E-01	  0.086533062	1.373490E+02	  0.086533062	1.037000E+00	  0.086533062	1.951200E+01
334	  0.086733460	-3.130000E-01	  0.086733460	1.370030E+02	  0.086733460	1.040000E+00	  0.086733460	1.968600E+01
335	  0.086933866	-3.140000E-01	  0.086933866	1.366490E+02	  0.086933866	1.046000E+00	  0.086933866	1.986400E+01
336	  0.087134264	-3.140000E-01	  0.087134264	1.363120E+02	  0.087134264	1.050000E+00	  0.087134264	2.003500E+01
337	  0.087334670	-3.150000E-01	  0.087334670	1.359670E+02	  0.087334670	1.054000E+00	  0.087334670	2.020900E+01
338	  0.087535068	-3.150000E-01	  0.087535068	1.356290E+02	  0.087535068	1.058000E+00	  0.087535068	2.038100E+01
339	  0.087735467	-3.160000E-01	  0.087735467	1.352810E+02	  0.087735467	1.064000E+00	  0.087735467	2.055900E+01
340	  0.087935872	-3.170000E-01	  0.087935872	1.349310E+02	  0.087935872	1.069000E+00	  0.087935872	2.073700E+01
341	  0.088136271	-3.190000E-01	  0.088136271	1.345940E+02	  0.088136271	1.081000E+00	  0.088136271	2.091000E+01
342	  0.088336669	-3.170000E-01	  0.088336669	1.342480E+02	  0.088336669	1.074000E+00	  0.088336669	2.108700E+01
343	  0.088537075	-3.190000E-01	  0.088537075	1.339070E+02	  0.088537075	1.085000E+00	  0.088537075	2.126200E+01
344	  0.088737473	-3.180000E-01	  0.088737473	1.335620E+02	  0.088737473	1.085000E+00	  0.088737473	2.144100E+01
345	  0.088937871	-3.210000E-01	  0.088937871	1.332260E+02	  0.088937871	1.097000E+00	  0.088937871	2.161400E+01
346	  0.089138277	-3.210000E-01	  0.089138277	1.328820E+02	  0.089138277	1.101000E+00	  0.089138277	2.179200E+01
347	  0.089338675	-3.220000E-01	  0.089338675	1.325380E+02	  0.089338675	1.106000E+00	  0.089338675	2.197100E+01
348	  0.089539073	-3.210000E-01	  0.089539073	1.322030E+02	  0.089539073	1.107000E+00	  0.089539073	2.214500E+01
349	  0.089739479	-3.230000E-01	  0.089739479	1.318650E+02	  0.089739479	1.118000E+00	  0.089739479	2.232200E+01
350	  0.089939877	-3.230000E-01	  0.089939877	1.315340E+02	  0.089939877	1.120000E+00	  0.089939877	2.249500E+01
351	  0.090140276	-3.250000E-01	  0.090140276	1.311800E+02	  0.090140276	1.131000E+00	  0.090140276	2.268100E+01
352	  0.090340681	-3.240000E-01	  0.090340681	1.308450E+02	  0.090340681	1.130000E+00	  0.090340681	2.285800E+01
353	  0.090541080	-3.260000E-01	  0.090541080	1.305040E+02	  0.090541080	1.140000E+00	  0.090541080	2.303800E+01
354	  0.090741485	-3.280000E-01	  0.090741485	1.301790E+02	  0.090741485	1.147000E+00	  0.090741485	2.320900E+01
355	  0.090941884	-3.280000E-01	  0.090941884	1.298290E+02	  0.090941884	1.152000E+00	  0.090941884	2.339600E+01
356	  0.091142282	-3.290000E-01	  0.091142282	1.294960E+02	  0.091142282	1.158000E+00	  0.091142282	2.357200E+01
357	  0.091342688	-3.300000E-01	  0.091342688	1.291440E+02	  0.091342688	1.165000E+00	  0.091342688	2.376000E+01
358	  0.091543086	-3.310000E-01	  0.091543086	1.288260E+02	  0.091543086	1.172000E+00	  0.091543086	2.393100E+01
359	  0.091743484	-3.290000E-01	  0.091743484	1.284740E+02	  0.091743484	1.170000E+00	  0.091743484	2.412000E+01
360	  0.091943890	-3.310000E-01	  0.091943890	1.281460E+02	  0.091943890	1.177000E+00	  0.091943890	2.429600E+01
361	  0.092144288	-3.300000E-01	  0.092144288	1.278070E+02	  0.092144288	1.178000E+00	  0.092144288	2.447900E+01
362	  0.092344686	-3.320000E-01	  0.092344686	1.274750E+02	  0.092344686	1.190000E+00	  0.092344686	2.465900E+01
363	  0.092545092	-3.320000E-01	  0.092545092	1.271220E+02	  0.092545092	1.194000E+00	  0.092545092	2.485000E+01
364	  0.092745490	-3.320000E-01	  0.092745490	1.267990E+02	  0.092745490	1.197000E+00	  0.092745490	2.502600E+01
365	  0.092945889	-3.340000E-01	  0.092945889	1.264650E+02	  0.092945889	1.206000E+00	  0.092945889	2.520900E+01
366	  0.093146294	-3.350000E-01	  0.093146294	1.261290E+02	  0.093146294	1.213000E+00	  0.093146294	2.539300E+01
367	  0.093346693	-3.330000E-01	  0.093346693	1.257970E+02	  0.093346693	1.212000E+00	  0.093346693	2.557500E+01
368	  0.093547091	-3.350000E-01	  0.093547091	1.254690E+02	  0.093547091	1.223000E+00	  0.093547091	2.575600E+01
369	  0.093747497	-3.350000E-01	  0.093747497	1.251230E+02	  0.093747497	1.224000E+00	  0.093747497	2.594700E+01
370	  0.093947895	-3.350000E-01	  0.093947895	1.247900E+02	  0.093947895	1.229000E+00	  0.093947895	2.613200E+01
371	  0.094148301	-3.330000E-01	  0.094148301	1.244540E+02	  0.094148301	1.225000E+00	  0.094148301	2.631900E+01
372	  0.094348699	-3.350000E-01	  0.094348699	1.241240E+02	  0.094348699	1.238000E+00	  0.094348699	2.650300E+01
373	  0.094549097	-3.350000E-01	  0.094549097	1.237890E+02	  0.094549097	1.238000E+00	  0.094549097	2.669000E+01
374	  0.094749503	-3.330000E-01	  0.094749503	1.234620E+02	  0.094749503	1.237000E+00	  0.094749503	2.687400E+01
375	  0.094949901	-3.340000E-01	  0.094949901	1.231200E+02	  0.094949901	1.244000E+00	  0.094949901	2.706600E+01
376	  0.095150299	-3.320000E-01	  0.095150299	1.227950E+02	  0.095150299	1.239000E+00	  0.095150299	2.725000E+01
377	  0.095350705	-3.340000E-01	  0.095350705	1.224560E+02	  0.095350705	1.252000E+00	  0.095350705	2.744200E+01
378	  0.095551103	-3.320000E-01	  0.095551103	1.221380E+02	  0.095551103	1.250000E+00	  0.095551103	2.762300E+01
379	  0.095751502	-3.340000E-01	  0.095751502	1.218050E+02	  0.095751502	1.261000E+00	  0.095751502	2.781300E+01
380	  0.095951907	-3.350000E-01	  0.095951907	1.214750E+02	  0.095951907	1.270000E+00	  0.095951907	2.800100E+01
381	  0.096152306	-3.330000E-01	  0.096152306	1.211490E+02	  0.096152306	1.263000E+00	  0.096152306	2.818900E+01
382	  0.096352704	-3.330000E-01	  0.096352704	1.208220E+02	  0.096352704	1.270000E+00	  0.096352704	2.837700E+01
383	  0.096553110	-3.340000E-01	  0.096553110	1.204730E+02	  0.096553110	1.275000E+00	  0.096553110	2.857800E+01
384	  0.096753508	-3.340000E-01	  0.096753508	1.201560E+02	  0.096753508	1.281000E+00	  0.096753508	2.876200E+01
385	  0.096953906	-3.340000E-01	  0.096953906	1.198260E+02	  0.096953906	1.284000E+00	  0.096953906	2.895400E+01
386	  0.097154312	-3.330000E-01	  0.097154312	1.194950E+02	  0.097154312	1.287000E+00	  0.097154312	2.914700E+01
387	  0.097354710	-3.340000E-01	  0.097354710	1.191760E+02	  0.097354710	1.295000E+00	  0.097354710	2.933400E+01
388	  0.097555116	-3.340000E-01	  0.097555116	1.188500E+02	  0.097555116	1.297000E+00	  0.097555116	2.952500E+01
389	  0.097755514	-3.330000E-01	  0.097755514	1.185230E+02	  0.097755514	1.300000E+00	  0.097755514	2.971700E+01
390	  0.097955912	-3.360000E-01	  0.097955912	1.181930E+02	  0.097955912	1.313000E+00	  0.097955912	2.991300E+01
391	  0.098156318	-3.350000E-01	  0.098156318	1.178780E+02	  0.098156318	1.316000E+00	  0.098156318	3.010000E+01
392	  0.098356716	-3.350000E-01	  0.098356716	1.175430E+02	  0.098356716	1.318000E+00	  0.098356716	3.029900E+01
393	  0.098557115	-3.340000E-01	  0.098557115	1.172230E+02	  0.098557115	1.322000E+00	  0.098557115	3.049000E+01
394	  0.098757520	-3.360000E-01	  0.098757520	1.169020E+02	  0.098757520	1.331000E+00	  0.098757520	3.068200E+01
395	  0.098957919	-3.350000E-01	  0.098957919	1.165850E+02	  0.098957919	1.335000E+00	  0.098957919	3.087300E+01
396	  0.099158317	-3.350000E-01	  0.099158317	1.162610E+02	  0.099158317	1.339000E+00	  0.099158317	3.106900E+01
397	  0.099358723	-3.370000E-01	  0.099358723	1.159410E+02	  0.099358723	1.350000E+00	  0.099358723	3.126200E+01
398	  0.099559121	-3.390000E-01	  0.099559121	1.156220E+02	  0.099559121	1.363000E+00	  0.099559121	3.145600E+01
399	  0.099759519	-3.380000E-01	  0.099759519	1.152830E+02	  0.099759519	1.366000E+00	  0.099759519	3.166200E+01
400	  0.099959925	-3.420000E-01	  0.099959925	1.149420E+02	  0.099959925	1.384000E+00	  0.099959925	3.187100E+01
401	  0.100160323	-3.440000E-01	  0.100160323	1.146410E+02	  0.100160323	1.397000E+00	  0.100160323	3.205500E+01
402	  0.100360721	-3.410000E-01	  0.100360721	1.143130E+02	  0.100360721	1.393000E+00	  0.100360721	3.225800E+01
403	  0.100561127	-3.430000E-01	  0.100561127	1.140000E+02	  0.100561127	1.403000E+00	  0.100561127	3.245200E+01
404	  0.100761525	-3.420000E-01	  0.100761525	1.136850E+02	  0.100761525	1.407000E+00	  0.100761525	3.264700E+01
405	  0.100961931	-3.410000E-01	  0.100961931	1.133840E+02	  0.100961931	1.407000E+00	  0.100961931	3.283500E+01
406	  0.101162329	-3.440000E-01	  0.101162329	1.130550E+02	  0.101162329	1.426000E+00	  0.101162329	3.304000E+01
407	  0.101362728	-3.390000E-01	  0.101362728	1.127210E+02	  0.101362728	1.407000E+00	  0.101362728	3.325000E+01
408	  0.101563133	-3.430000E-01	  0.101563133	1.124010E+02	  0.101563133	1.429000E+00	  0.101563133	3.345200E+01
409	  0.101763532	-3.390000E-01	  0.101763532	1.120870E+02	  0.101763532	1.419000E+00	  0.101763532	3.365100E+01
410	  0.101963930	-3.390000E-01	  0.101963930	1.117700E+02	  0.101963930	1.426000E+00	  0.101963930	3.385200E+01
411	  0.102164336	-3.430000E-01	  0.102164336	1.114700E+02	  0.102164336	1.446000E+00	  0.102164336	3.404300E+01
412	  0.102364734	-3.410000E-01	  0.102364734	1.111120E+02	  0.102364734	1.444000E+00	  0.102364734	3.427200E+01
413	  0.102565132	-3.430000E-01	  0.102565132	1.108110E+02	  0.102565132	1.457000E+00	  0.102565132	3.446500E+01
414	  0.102765530	-3.420000E-01	  0.102765530	1.105150E+02	  0.102765530	1.458000E+00	  0.102765530	3.465600E+01
415	  0.102965929	-3.420000E-01	  0.102965929	1.101920E+02	  0.102965929	1.465000E+00	  0.102965929	3.486500E+01
416	  0.103166327	-3.410000E-01	  0.103166327	1.098870E+02	  0.103166327	1.466000E+00	  0.103166327	3.506300E+01
417	  0.103366733	-3.430000E-01	  0.103366733	1.095560E+02	  0.103366733	1.481000E+00	  0.103366733	3.527900E+01
418	  0.103567131	-3.390000E-01	  0.103567131	1.092610E+02	  0.103567131	1.470000E+00	  0.103567131	3.547200E+01
419	  0.103767529	-3.410000E-01	  0.103767529	1.089360E+02	  0.103767529	1.482000E+00	  0.103767529	3.568500E+01
420	  0.103967935	-3.390000E-01	  0.103967935	1.086170E+02	  0.103967935	1.483000E+00	  0.103967935	3.589600E+01
421	  0.104168333	-3.410000E-01	  0.104168333	1.083130E+02	  0.104168333	1.494000E+00	  0.104168333	3.609700E+01
422	  0.104368731	-3.410000E-01	  0.104368731	1.079980E+02	  0.104368731	1.503000E+00	  0.104368731	3.630600E+01
423	  0.104569137	-3.390000E-01	  0.104569137	1.076900E+02	  0.104569137	1.497000E+00	  0.104569137	3.651200E+01
424	  0.104769535	-3.440000E-01	  0.104769535	1.073820E+02	  0.104769535	1.527000E+00	  0.104769535	3.671800E+01
425	  0.104969934	-3.400000E-01	  0.104969934	1.070490E+02	  0.104969934	1.513000E+00	  0.104969934	3.694200E+01
426	  0.105170339	-3.390000E-01	  0.105170339	1.067440E+02	  0.105170339	1.517000E+00	  0.105170339	3.714900E+01
427	  0.105370738	-3.430000E-01	  0.105370738	1.064340E+02	  0.105370738	1.542000E+00	  0.105370738	3.735800E+01
428	  0.105571143	-3.430000E-01	  0.105571143	1.061100E+02	  0.105571143	1.549000E+00	  0.105571143	3.757900E+01
429	  0.105771542	-3.440000E-01	  0.105771542	1.058060E+02	  0.105771542	1.559000E+00	  0.105771542	3.778700E+01
430	  0.105971940	-3.410000E-01	  0.105971940	1.055240E+02	  0.105971940	1.550000E+00	  0.105971940	3.798000E+01
431	  0.106172346	-3.420000E-01	  0.106172346	1.051890E+02	  0.106172346	1.562000E+00	  0.106172346	3.821100E+01
432	  0.106372744	-3.430000E-01	  0.106372744	1.048590E+02	  0.106372744	1.575000E+00	  0.106372744	3.844000E+01
433	  0.106573142	-3.450000E-01	  0.106573142	1.045560E+02	  0.106573142	1.587000E+00	  0.106573142	3.865000E+01
434	  0.106773548	-3.460000E-01	  0.106773548	1.042510E+02	  0.106773548	1.597000E+00	  0.106773548	3.886200E+01
435	  0.106973946	-3.440000E-01	  0.106973946	1.039410E+02	  0.106973946	1.596000E+00	  0.106973946	3.908000E+01
436	  0.107174344	-3.450000E-01	  0.107174344	1.036220E+02	  0.107174344	1.611000E+00	  0.107174344	3.930500E+01
437	  0.107374750	-3.430000E-01	  0.107374750	1.033210E+02	  0.107374750	1.606000E+00	  0.107374750	3.951800E+01
438	  0.107575148	-3.430000E-01	  0.107575148	1.030170E+02	  0.107575148	1.613000E+00	  0.107575148	3.973300E+01
439	  0.107775547	-3.400000E-01	  0.107775547	1.027030E+02	  0.107775547	1.607000E+00	  0.107775547	3.995800E+01
440	  0.107975952	-3.470000E-01	  0.107975952	1.023930E+02	  0.107975952	1.645000E+00	  0.107975952	4.017900E+01
441	  0.108176351	-3.440000E-01	  0.108176351	1.020750E+02	  0.108176351	1.638000E+00	  0.108176351	4.040800E+01
442	  0.108376749	-3.440000E-01	  0.108376749	1.017740E+02	  0.108376749	1.647000E+00	  0.108376749	4.062600E+01
443	  0.108577155	-3.410000E-01	  0.108577155	1.014650E+02	  0.108577155	1.640000E+00	  0.108577155	4.085000E+01
444	  0.108777553	-3.440000E-01	  0.108777553	1.011490E+02	  0.108777553	1.663000E+00	  0.108777553	4.108000E+01
445	  0.108977959	-3.430000E-01	  0.108977959	1.008710E+02	  0.108977959	1.663000E+00	  0.108977959	4.128300E+01
446	  0.109178357	-3.460000E-01	  0.109178357	1.005500E+02	  0.109178357	1.683000E+00	  0.109178357	4.151900E+01
447	  0.109378755	-3.420000E-01	  0.109378755	1.002480E+02	  0.109378755	1.674000E+00	  0.109378755	4.174200E+01
448	  0.109579161	-3.490000E-01	  0.109579161	9.992900E+01	  0.109579161	1.714000E+00	  0.109579161	4.197800E+01
449	  0.109779559	-3.450000E-01	  0.109779559	9.965600E+01	  0.109779559	1.701000E+00	  0.109779559	4.218200E+01
450	  0.109979957	-3.450000E-01	  0.109979957	9.933400E+01	  0.109979957	1.712000E+00	  0.109979957	4.242300E+01
451	  0.110180363	-3.420000E-01	  0.110180363	9.903800E+01	  0.110180363	1.705000E+00	  0.110180363	4.264600E+01
452	  0.110380761	-3.440000E-01	  0.110380761	9.871400E+01	  0.110380761	1.721000E+00	  0.110380761	4.289000E+01
453	  0.110581160	-3.450000E-01	  0.110581160	9.841100E+01	  0.110581160	1.732000E+00	  0.110581160	4.312000E+01
454	  0.110781565	-3.420000E-01	  0.110781565	9.811700E+01	  0.110781565	1.727000E+00	  0.110781565	4.334400E+01
455	  0.110981964	-3.430000E-01	  0.110981964	9.782600E+01	  0.110981964	1.738000E+00	  0.110981964	4.356700E+01
456	  0.111182362	-3.420000E-01	  0.111182362	9.751800E+01	  0.111182362	1.742000E+00	  0.111182362	4.380400E+01
457	  0.111382768	-3.420000E-01	  0.111382768	9.721200E+01	  0.111382768	1.752000E+00	  0.111382768	4.404000E+01
458	  0.111583166	-3.450000E-01	  0.111583166	9.689500E+01	  0.111583166	1.774000E+00	  0.111583166	4.428600E+01
459	  0.111783572	-3.420000E-01	  0.111783572	9.660900E+01	  0.111783572	1.765000E+00	  0.111783572	4.450900E+01
460	  0.111983970	-3.420000E-01	  0.111983970	9.630200E+01	  0.111983970	1.776000E+00	  0.111983970	4.475000E+01
461	  0.112184368	-3.440000E-01	  0.112184368	9.601400E+01	  0.112184368	1.793000E+00	  0.112184368	4.497600E+01
462	  0.112384774	-3.420000E-01	  0.112384774	9.570600E+01	  0.112384774	1.790000E+00	  0.112384774	4.522000E+01
463	  0.112585172	-3.430000E-01	  0.112585172	9.540500E+01	  0.112585172	1.807000E+00	  0.112585172	4.545900E+01
464	  0.112785570	-3.420000E-01	  0.112785570	9.511000E+01	  0.112785570	1.808000E+00	  0.112785570	4.569500E+01
465	  0.112985976	-3.430000E-01	  0.112985976	9.479600E+01	  0.112985976	1.823000E+00	  0.112985976	4.594700E+01
466	  0.113186374	-3.460000E-01	  0.113186374	9.451200E+01	  0.113186374	1.845000E+00	  0.113186374	4.617500E+01
467	  0.113386773	-3.430000E-01	  0.113386773	9.420600E+01	  0.113386773	1.843000E+00	  0.113386773	4.642300E+01
468	  0.113587178	-3.450000E-01	  0.113587178	9.391300E+01	  0.113587178	1.861000E+00	  0.113587178	4.666100E+01
469	  0.113787577	-3.470000E-01	  0.113787577	9.360800E+01	  0.113787577	1.880000E+00	  0.113787577	4.691100E+01
470	  0.113987975	-3.450000E-01	  0.113987975	9.332500E+01	  0.113987975	1.877000E+00	  0.113987975	4.714300E+01
471	  0.114188381	-3.440000E-01	  0.114188381	9.302300E+01	  0.114188381	1.883000E+00	  0.114188381	4.739300E+01
472	  0.114388779	-3.430000E-01	  0.114388779	9.269500E+01	  0.114388779	1.890000E+00	  0.114388779	4.766600E+01
473	  0.114589177	-3.460000E-01	  0.114589177	9.241400E+01	  0.114589177	1.913000E+00	  0.114589177	4.789900E+01
474	  0.114789583	-3.450000E-01	  0.114789583	9.213400E+01	  0.114789583	1.917000E+00	  0.114789583	4.813400E+01
475	  0.114989981	-3.450000E-01	  0.114989981	9.182700E+01	  0.114989981	1.928000E+00	  0.114989981	4.839200E+01
476	  0.115190387	-3.460000E-01	  0.115190387	9.153600E+01	  0.115190387	1.938000E+00	  0.115190387	4.863900E+01
477	  0.115390785	-3.460000E-01	  0.115390785	9.123600E+01	  0.115390785	1.949000E+00	  0.115390785	4.889400E+01
478	  0.115591183	-3.470000E-01	  0.115591183	9.093400E+01	  0.115591183	1.969000E+00	  0.115591183	4.915200E+01
479	  0.115791589	-3.480000E-01	  0.115791589	9.063900E+01	  0.115791589	1.983000E+00	  0.115791589	4.940500E+01
480	  0.115991987	-3.450000E-01	  0.115991987	9.033800E+01	  0.115991987	1.974000E+00	  0.115991987	4.966600E+01
481	  0.116192386	-3.470000E-01	  0.116192386	9.006400E+01	  0.116192386	1.998000E+00	  0.116192386	4.990400E+01
482	  0.116392791	-3.470000E-01	  0.116392791	8.975900E+01	  0.116392791	2.009000E+00	  0.116392791	5.017000E+01
483	  0.116593190	-3.450000E-01	  0.116593190	8.944600E+01	  0.116593190	2.007000E+00	  0.116593190	5.044400E+01
484	  0.116793588	-3.470000E-01	  0.116793588	8.917500E+01	  0.116793588	2.030000E+00	  0.116793588	5.068300E+01
485	  0.116993994	-3.480000E-01	  0.116993994	8.885100E+01	  0.116993994	2.047000E+00	  0.116993994	5.097000E+01
486	  0.117194392	-3.450000E-01	  0.117194392	8.857200E+01	  0.117194392	2.038000E+00	  0.117194392	5.121900E+01
487	  0.117394790	-3.470000E-01	  0.117394790	8.828900E+01	  0.117394790	2.058000E+00	  0.117394790	5.147200E+01
488	  0.117595196	-3.500000E-01	  0.117595196	8.798500E+01	  0.117595196	2.089000E+00	  0.117595196	5.174500E+01
489	  0.117795594	-3.460000E-01	  0.117795594	8.768500E+01	  0.117795594	2.076000E+00	  0.117795594	5.201800E+01
490	  0.117995992	-3.470000E-01	  0.117995992	8.739900E+01	  0.117995992	2.096000E+00	  0.117995992	5.227800E+01
491	  0.118196398	-3.460000E-01	  0.118196398	8.710300E+01	  0.118196398	2.097000E+00	  0.118196398	5.254900E+01
492	  0.118396796	-3.500000E-01	  0.118396796	8.681200E+01	  0.118396796	2.134000E+00	  0.118396796	5.281600E+01
493	  0.118597202	-3.460000E-01	  0.118597202	8.650600E+01	  0.118597202	2.125000E+00	  0.118597202	5.310000E+01
494	  0.118797600	-3.460000E-01	  0.118797600	8.622900E+01	  0.118797600	2.134000E+00	  0.118797600	5.335700E+01
495	  0.118997999	-3.440000E-01	  0.118997999	8.593000E+01	  0.118997999	2.136000E+00	  0.118997999	5.363800E+01
496	  0.119198404	-3.450000E-01	  0.119198404	8.564200E+01	  0.119198404	2.148000E+00	  0.119198404	5.390900E+01
497	  0.119398803	-3.440000E-01	  0.119398803	8.534400E+01	  0.119398803	2.156000E+00	  0.119398803	5.419100E+01
498	  0.119599201	-3.440000E-01	  0.119599201	8.503100E+01	  0.119599201	2.168000E+00	  0.119599201	5.448800E+01
499	  0.119799607	-3.450000E-01	  0.119799607	8.476100E+01	  0.119799607	2.187000E+00	  0.119799607	5.474600E+01
500	  0.120000005	-3.450000E-01	  0.120000005	8.445900E+01	  0.120000005	2.198000E+00	  0.120000005	5.503700E+01
