! Anritsu VNA Master:             	Model: MS2036C/10/77
! SN:             	1601066
! /bd0/18may09/b255.ew.m3.txt
! Existing Calibration Information:
! TYPE:             	Current Settings	Active Cal Settings
! TIME:             	05/09/2018 08:13:08 PM	05/09/2018 08:05:48 PM
! INTERNAL TEMP:    	54.3 C	54.5 C
! # POINTS:         	494	494
! START FREQ:       	20.000 MHz	20.000 MHz
! STOP FREQ:        	118.797 594 MHz	118.797 594 MHz
! SOURCE POWER:     	High	High
! IFBW:             	50 Hz	50 Hz
! AVG FACTOR:       	  1 	  1 
! REF PLANE 1:      	0 mm	0 mm
! REF PLANE 2:      	0 mm	0 mm
! CAL TYPE:         	Full S22	Full S22
! CAL METHOD:       	SOLT	SOLT
! CAL LINE TYPE:    	Coax	Coax
! DUT PORT 1:       	K-Conn(M)	K-Conn(M)
! DUT PORT 2:       	K-Conn(M)	K-Conn(M)
! CAL STATUS:       	OK: Accuracy High	--
! PROP-V:       	0.700
! CABLE LOSS:       	0.000 dB/m
! REF IMPEDANCE:       	50.0
! Trace Specific Parameters:	TR1	TR2	TR3	TR4
! TRACE.#.Y (GRAPH TYPE)	LOG MAG	PHASE	REAL IMPEDANCE	IMAGINARY IMPEDANCE
! TRACE.#.X 	FREQ.GHZ	FREQ.GHZ	FREQ.GHZ	FREQ.GHZ
! S-PARAMETER	S22	S22	S22	S22
! SMOOTH/APERTURE %	0	0	0	0
! WINDOW	NSL	NSL	NSL	NSL
! GATING	OFF	OFF	OFF	OFF
! FGTD	OFF	OFF	OFF	OFF
Marker Information per Trace:	TR1	TR2	TR3	TR4
!MK1	--	"MK1 TR2:  20.000 MHz,PH:-125.59°"	--	--
!MK2	--	--	"MK2 TR3:  70.100 200 MHz,Z:(16.686 ohm, -1.438 ohm)"	--
!MK3	--	--	--	--
!MK4	--	--	--	--
!MK5	--	--	--	--
!MK6	--	--	--	--
!MK7	--	--	--	--
!MK8	--	--	--	--
PNT	TR1.FREQ.GHZ	TR1.LOG MAG.dB	TR2.FREQ.GHZ	TR2.PHASE.deg	TR3.FREQ.GHZ	TR3.REAL IMPEDANCE.ohm	TR4.FREQ.GHZ	TR4.IMAGINARY IMPEDANCE.ohm
1	  0.020000000	-9.060000E-01	  0.020000000	-1.255890E+02	  0.020000000	3.291000E+00	  0.020000000	-2.561400E+01
2	  0.020200402	-9.130000E-01	  0.020200402	-1.270250E+02	  0.020200402	3.276000E+00	  0.020200402	-2.482900E+01
3	  0.020400802	-9.210000E-01	  0.020400802	-1.284800E+02	  0.020400802	3.264000E+00	  0.020400802	-2.404400E+01
4	  0.020601204	-9.300000E-01	  0.020601204	-1.299490E+02	  0.020601204	3.256000E+00	  0.020601204	-2.326000E+01
5	  0.020801604	-9.420000E-01	  0.020801604	-1.314440E+02	  0.020801604	3.259000E+00	  0.020801604	-2.247300E+01
6	  0.021002004	-9.490000E-01	  0.021002004	-1.329550E+02	  0.021002004	3.244000E+00	  0.021002004	-2.168600E+01
7	  0.021202406	-9.580000E-01	  0.021202406	-1.344650E+02	  0.021202406	3.238000E+00	  0.021202406	-2.090900E+01
8	  0.021402806	-9.670000E-01	  0.021402806	-1.359540E+02	  0.021402806	3.234000E+00	  0.021402806	-2.015100E+01
9	  0.021603208	-9.750000E-01	  0.021603208	-1.374580E+02	  0.021603208	3.229000E+00	  0.021603208	-1.939400E+01
10	  0.021803608	-9.860000E-01	  0.021803608	-1.389550E+02	  0.021803608	3.233000E+00	  0.021803608	-1.864700E+01
11	  0.022004008	-9.960000E-01	  0.022004008	-1.404510E+02	  0.022004008	3.235000E+00	  0.022004008	-1.790900E+01
12	  0.022204408	-1.009000E+00	  0.022204408	-1.419630E+02	  0.022204408	3.244000E+00	  0.022204408	-1.716900E+01
13	  0.022404809	-1.019000E+00	  0.022404809	-1.435230E+02	  0.022404809	3.247000E+00	  0.022404809	-1.641300E+01
14	  0.022605211	-1.025000E+00	  0.022605211	-1.450880E+02	  0.022605211	3.240000E+00	  0.022605211	-1.566200E+01
15	  0.022805611	-1.037000E+00	  0.022805611	-1.466470E+02	  0.022805611	3.249000E+00	  0.022805611	-1.492000E+01
16	  0.023006011	-1.047000E+00	  0.023006011	-1.482020E+02	  0.023006011	3.253000E+00	  0.023006011	-1.418600E+01
17	  0.023206413	-1.058000E+00	  0.023206413	-1.497530E+02	  0.023206413	3.262000E+00	  0.023206413	-1.345900E+01
18	  0.023406813	-1.067000E+00	  0.023406813	-1.513140E+02	  0.023406813	3.267000E+00	  0.023406813	-1.273300E+01
19	  0.023607215	-1.079000E+00	  0.023607215	-1.528840E+02	  0.023607215	3.282000E+00	  0.023607215	-1.200700E+01
20	  0.023807615	-1.092000E+00	  0.023807615	-1.544610E+02	  0.023807615	3.301000E+00	  0.023807615	-1.128400E+01
21	  0.024008015	-1.106000E+00	  0.024008015	-1.560800E+02	  0.024008015	3.322000E+00	  0.024008015	-1.054600E+01
22	  0.024208417	-1.117000E+00	  0.024208417	-1.577080E+02	  0.024208417	3.336000E+00	  0.024208417	-9.808000E+00
23	  0.024408817	-1.128000E+00	  0.024408817	-1.593520E+02	  0.024408817	3.350000E+00	  0.024408817	-9.068000E+00
24	  0.024609219	-1.138000E+00	  0.024609219	-1.609790E+02	  0.024609219	3.364000E+00	  0.024609219	-8.339000E+00
25	  0.024809619	-1.152000E+00	  0.024809619	-1.626270E+02	  0.024809619	3.388000E+00	  0.024809619	-7.604000E+00
26	  0.025010020	-1.168000E+00	  0.025010020	-1.642860E+02	  0.025010020	3.421000E+00	  0.025010020	-6.867000E+00
27	  0.025210422	-1.182000E+00	  0.025210422	-1.659380E+02	  0.025210422	3.448000E+00	  0.025210422	-6.137000E+00
28	  0.025410822	-1.198000E+00	  0.025410822	-1.676080E+02	  0.025410822	3.484000E+00	  0.025410822	-5.402000E+00
29	  0.025611224	-1.214000E+00	  0.025611224	-1.692880E+02	  0.025611224	3.520000E+00	  0.025611224	-4.664000E+00
30	  0.025811624	-1.230000E+00	  0.025811624	-1.709860E+02	  0.025811624	3.558000E+00	  0.025811624	-3.920000E+00
31	  0.026012026	-1.246000E+00	  0.026012026	-1.726960E+02	  0.026012026	3.596000E+00	  0.026012026	-3.174000E+00
32	  0.026212426	-1.262000E+00	  0.026212426	-1.744100E+02	  0.026212426	3.635000E+00	  0.026212426	-2.427000E+00
33	  0.026412826	-1.279000E+00	  0.026412826	-1.761320E+02	  0.026412826	3.681000E+00	  0.026412826	-1.678000E+00
34	  0.026613226	-1.298000E+00	  0.026613226	-1.778690E+02	  0.026613226	3.732000E+00	  0.026613226	-9.240000E-01
35	  0.026813626	-1.319000E+00	  0.026813626	-1.796150E+02	  0.026813626	3.789000E+00	  0.026813626	-1.660000E-01
36	  0.027014028	-1.339000E+00	  0.027014028	1.786480E+02	  0.027014028	3.849000E+00	  0.027014028	5.860000E-01
37	  0.027214428	-1.361000E+00	  0.027214428	1.768860E+02	  0.027214428	3.912000E+00	  0.027214428	1.350000E+00
38	  0.027414829	-1.383000E+00	  0.027414829	1.751320E+02	  0.027414829	3.979000E+00	  0.027414829	2.111000E+00
39	  0.027615231	-1.404000E+00	  0.027615231	1.733470E+02	  0.027615231	4.046000E+00	  0.027615231	2.886000E+00
40	  0.027815631	-1.427000E+00	  0.027815631	1.715720E+02	  0.027815631	4.120000E+00	  0.027815631	3.658000E+00
41	  0.028016033	-1.452000E+00	  0.028016033	1.697630E+02	  0.028016033	4.202000E+00	  0.028016033	4.447000E+00
42	  0.028216433	-1.478000E+00	  0.028216433	1.679640E+02	  0.028216433	4.292000E+00	  0.028216433	5.232000E+00
43	  0.028416833	-1.504000E+00	  0.028416833	1.661510E+02	  0.028416833	4.382000E+00	  0.028416833	6.026000E+00
44	  0.028617235	-1.528000E+00	  0.028617235	1.643380E+02	  0.028617235	4.471000E+00	  0.028617235	6.822000E+00
45	  0.028817635	-1.555000E+00	  0.028817635	1.625150E+02	  0.028817635	4.570000E+00	  0.028817635	7.626000E+00
46	  0.029018037	-1.583000E+00	  0.029018037	1.607010E+02	  0.029018037	4.676000E+00	  0.029018037	8.428000E+00
47	  0.029218437	-1.613000E+00	  0.029218437	1.588600E+02	  0.029218437	4.789000E+00	  0.029218437	9.247000E+00
48	  0.029418837	-1.642000E+00	  0.029418837	1.569890E+02	  0.029418837	4.907000E+00	  0.029418837	1.008300E+01
49	  0.029619239	-1.672000E+00	  0.029619239	1.551270E+02	  0.029619239	5.031000E+00	  0.029619239	1.091900E+01
50	  0.029819639	-1.704000E+00	  0.029819639	1.532520E+02	  0.029819639	5.164000E+00	  0.029819639	1.176700E+01
51	  0.030020041	-1.736000E+00	  0.030020041	1.513720E+02	  0.030020041	5.303000E+00	  0.030020041	1.262200E+01
52	  0.030220442	-1.766000E+00	  0.030220442	1.494750E+02	  0.030220442	5.441000E+00	  0.030220442	1.349200E+01
53	  0.030420844	-1.799000E+00	  0.030420844	1.475930E+02	  0.030420844	5.591000E+00	  0.030420844	1.436100E+01
54	  0.030621244	-1.834000E+00	  0.030621244	1.457050E+02	  0.030621244	5.756000E+00	  0.030621244	1.524000E+01
55	  0.030821642	-1.869000E+00	  0.030821642	1.438160E+02	  0.030821642	5.925000E+00	  0.030821642	1.612600E+01
56	  0.031022044	-1.905000E+00	  0.031022044	1.418880E+02	  0.031022044	6.105000E+00	  0.031022044	1.704000E+01
57	  0.031222444	-1.934000E+00	  0.031222444	1.399930E+02	  0.031222444	6.270000E+00	  0.031222444	1.794800E+01
58	  0.031422846	-1.972000E+00	  0.031422846	1.380260E+02	  0.031422846	6.472000E+00	  0.031422846	1.889900E+01
59	  0.031623244	-2.009000E+00	  0.031623244	1.360670E+02	  0.031623244	6.678000E+00	  0.031623244	1.985600E+01
60	  0.031823646	-2.046000E+00	  0.031823646	1.341240E+02	  0.031823646	6.896000E+00	  0.031823646	2.081700E+01
61	  0.032024048	-2.086000E+00	  0.032024048	1.321710E+02	  0.032024048	7.132000E+00	  0.032024048	2.179300E+01
62	  0.032224450	-2.126000E+00	  0.032224450	1.302130E+02	  0.032224450	7.376000E+00	  0.032224450	2.278400E+01
63	  0.032424849	-2.167000E+00	  0.032424849	1.282200E+02	  0.032424849	7.640000E+00	  0.032424849	2.380700E+01
64	  0.032625251	-2.207000E+00	  0.032625251	1.262340E+02	  0.032625251	7.912000E+00	  0.032625251	2.484000E+01
65	  0.032825653	-2.249000E+00	  0.032825653	1.242100E+02	  0.032825653	8.204000E+00	  0.032825653	2.590800E+01
66	  0.033026051	-2.290000E+00	  0.033026051	1.222180E+02	  0.033026051	8.506000E+00	  0.033026051	2.697500E+01
67	  0.033226453	-2.331000E+00	  0.033226453	1.201810E+02	  0.033226453	8.824000E+00	  0.033226453	2.808400E+01
68	  0.033426855	-2.372000E+00	  0.033426855	1.181860E+02	  0.033426855	9.159000E+00	  0.033426855	2.918700E+01
69	  0.033627257	-2.417000E+00	  0.033627257	1.161710E+02	  0.033627257	9.523000E+00	  0.033627257	3.031900E+01
70	  0.033827655	-2.461000E+00	  0.033827655	1.141490E+02	  0.033827655	9.905000E+00	  0.033827655	3.147400E+01
71	  0.034028057	-2.505000E+00	  0.034028057	1.121510E+02	  0.034028057	1.030400E+01	  0.034028057	3.263600E+01
72	  0.034228459	-2.550000E+00	  0.034228459	1.100980E+02	  0.034228459	1.073900E+01	  0.034228459	3.385100E+01
73	  0.034428857	-2.597000E+00	  0.034428857	1.080610E+02	  0.034428857	1.119700E+01	  0.034428857	3.508000E+01
74	  0.034629259	-2.642000E+00	  0.034629259	1.059990E+02	  0.034629259	1.168300E+01	  0.034629259	3.634900E+01
75	  0.034829661	-2.692000E+00	  0.034829661	1.039320E+02	  0.034829661	1.221500E+01	  0.034829661	3.764200E+01
76	  0.035030060	-2.741000E+00	  0.035030060	1.018670E+02	  0.035030060	1.277300E+01	  0.035030060	3.896200E+01
77	  0.035230462	-2.789000E+00	  0.035230462	9.981000E+01	  0.035230462	1.336100E+01	  0.035230462	4.030400E+01
78	  0.035430863	-2.837000E+00	  0.035430863	9.774600E+01	  0.035430863	1.398800E+01	  0.035430863	4.168100E+01
79	  0.035631265	-2.885000E+00	  0.035631265	9.568600E+01	  0.035631265	1.465000E+01	  0.035631265	4.308500E+01
80	  0.035831664	-2.933000E+00	  0.035831664	9.361200E+01	  0.035831664	1.535900E+01	  0.035831664	4.453000E+01
81	  0.036032066	-2.983000E+00	  0.036032066	9.152900E+01	  0.036032066	1.612300E+01	  0.036032066	4.601200E+01
82	  0.036232468	-3.031000E+00	  0.036232468	8.945200E+01	  0.036232468	1.692500E+01	  0.036232468	4.752800E+01
83	  0.036432866	-3.080000E+00	  0.036432866	8.734200E+01	  0.036432866	1.779900E+01	  0.036432866	4.910300E+01
84	  0.036633268	-3.122000E+00	  0.036633268	8.526400E+01	  0.036633268	1.868600E+01	  0.036633268	5.070300E+01
85	  0.036833670	-3.168000E+00	  0.036833670	8.316400E+01	  0.036833670	1.966600E+01	  0.036833670	5.235300E+01
86	  0.037034072	-3.212000E+00	  0.037034072	8.104800E+01	  0.037034072	2.070700E+01	  0.037034072	5.406200E+01
87	  0.037234470	-3.251000E+00	  0.037234470	7.893400E+01	  0.037234470	2.179700E+01	  0.037234470	5.582700E+01
88	  0.037434869	-3.287000E+00	  0.037434869	7.677500E+01	  0.037434869	2.296800E+01	  0.037434869	5.768900E+01
89	  0.037635271	-3.320000E+00	  0.037635271	7.456700E+01	  0.037635271	2.424000E+01	  0.037635271	5.966100E+01
90	  0.037835669	-3.361000E+00	  0.037835669	7.226400E+01	  0.037835669	2.572400E+01	  0.037835669	6.175000E+01
91	  0.038036071	-3.412000E+00	  0.038036071	6.988200E+01	  0.038036071	2.744800E+01	  0.038036071	6.394300E+01
92	  0.038236473	-3.484000E+00	  0.038236473	6.754500E+01	  0.038236473	2.944400E+01	  0.038236473	6.605100E+01
93	  0.038436871	-3.566000E+00	  0.038436871	6.528600E+01	  0.038436871	3.163600E+01	  0.038436871	6.805300E+01
94	  0.038637273	-3.646000E+00	  0.038637273	6.311500E+01	  0.038637273	3.391400E+01	  0.038637273	6.998500E+01
95	  0.038837675	-3.717000E+00	  0.038837675	6.099100E+01	  0.038837675	3.628000E+01	  0.038837675	7.191000E+01
96	  0.039038073	-3.783000E+00	  0.039038073	5.891700E+01	  0.039038073	3.873900E+01	  0.039038073	7.381800E+01
97	  0.039238475	-3.847000E+00	  0.039238475	5.682100E+01	  0.039238475	4.140800E+01	  0.039238475	7.575100E+01
98	  0.039438877	-3.906000E+00	  0.039438877	5.473900E+01	  0.039438877	4.424500E+01	  0.039438877	7.768200E+01
99	  0.039639279	-3.964000E+00	  0.039639279	5.265300E+01	  0.039639279	4.730200E+01	  0.039639279	7.960400E+01
100	  0.039839678	-4.020000E+00	  0.039839678	5.053300E+01	  0.039839678	5.065300E+01	  0.039839678	8.152800E+01
101	  0.040040080	-4.075000E+00	  0.040040080	4.844200E+01	  0.040040080	5.422300E+01	  0.040040080	8.337100E+01
102	  0.040240481	-4.128000E+00	  0.040240481	4.634200E+01	  0.040240481	5.807900E+01	  0.040240481	8.516800E+01
103	  0.040440880	-4.179000E+00	  0.040440880	4.424700E+01	  0.040440880	6.223700E+01	  0.040440880	8.684700E+01
104	  0.040641282	-4.232000E+00	  0.040641282	4.214300E+01	  0.040641282	6.674700E+01	  0.040641282	8.837800E+01
105	  0.040841684	-4.285000E+00	  0.040841684	4.006700E+01	  0.040841684	7.155300E+01	  0.040841684	8.967400E+01
106	  0.041042086	-4.337000E+00	  0.041042086	3.799800E+01	  0.041042086	7.669300E+01	  0.041042086	9.072200E+01
107	  0.041242484	-4.389000E+00	  0.041242484	3.590300E+01	  0.041242484	8.225500E+01	  0.041242484	9.150400E+01
108	  0.041442886	-4.440000E+00	  0.041442886	3.380200E+01	  0.041442886	8.820300E+01	  0.041442886	9.193000E+01
109	  0.041643288	-4.488000E+00	  0.041643288	3.171500E+01	  0.041643288	9.446700E+01	  0.041643288	9.194500E+01
110	  0.041843686	-4.537000E+00	  0.041843686	2.960900E+01	  0.041843686	1.011370E+02	  0.041843686	9.144900E+01
111	  0.042044088	-4.585000E+00	  0.042044088	2.753300E+01	  0.042044088	1.080180E+02	  0.042044088	9.033700E+01
112	  0.042244490	-4.632000E+00	  0.042244490	2.545300E+01	  0.042244490	1.151620E+02	  0.042244490	8.853800E+01
113	  0.042444889	-4.680000E+00	  0.042444889	2.338100E+01	  0.042444889	1.224410E+02	  0.042444889	8.595300E+01
114	  0.042645290	-4.726000E+00	  0.042645290	2.132500E+01	  0.042645290	1.297400E+02	  0.042645290	8.257400E+01
115	  0.042845692	-4.775000E+00	  0.042845692	1.925900E+01	  0.042845692	1.369840E+02	  0.042845692	7.819100E+01
116	  0.043046094	-4.819000E+00	  0.043046094	1.719800E+01	  0.043046094	1.440340E+02	  0.043046094	7.294600E+01
117	  0.043246493	-4.864000E+00	  0.043246493	1.514700E+01	  0.043246493	1.506770E+02	  0.043246493	6.675800E+01
118	  0.043446895	-4.905000E+00	  0.043446895	1.311100E+01	  0.043446895	1.567980E+02	  0.043446895	5.975800E+01
119	  0.043647297	-4.945000E+00	  0.043647297	1.106800E+01	  0.043647297	1.622170E+02	  0.043647297	5.184500E+01
120	  0.043847695	-4.986000E+00	  0.043847695	9.023000E+00	  0.043847695	1.667690E+02	  0.043847695	4.315400E+01
121	  0.044048097	-5.026000E+00	  0.044048097	7.022000E+00	  0.044048097	1.701950E+02	  0.044048097	3.402700E+01
122	  0.044248499	-5.064000E+00	  0.044248499	5.008000E+00	  0.044248499	1.725810E+02	  0.044248499	2.443200E+01
123	  0.044448901	-5.105000E+00	  0.044448901	3.017000E+00	  0.044448901	1.736580E+02	  0.044448901	1.469100E+01
124	  0.044649299	-5.140000E+00	  0.044649299	1.018000E+00	  0.044649299	1.737280E+02	  0.044649299	4.924000E+00
125	  0.044849701	-5.176000E+00	  0.044849701	-9.540000E-01	  0.044849701	1.726160E+02	  0.044849701	-4.549000E+00
126	  0.045050103	-5.208000E+00	  0.045050103	-2.945000E+00	  0.045050103	1.705210E+02	  0.045050103	-1.377100E+01
127	  0.045250501	-5.241000E+00	  0.045250501	-4.908000E+00	  0.045250501	1.674500E+02	  0.045250501	-2.236200E+01
128	  0.045450903	-5.276000E+00	  0.045450903	-6.857000E+00	  0.045450903	1.635030E+02	  0.045450903	-3.024400E+01
129	  0.045651305	-5.308000E+00	  0.045651305	-8.790000E+00	  0.045651305	1.589990E+02	  0.045651305	-3.738700E+01
130	  0.045851704	-5.338000E+00	  0.045851704	-1.073700E+01	  0.045851704	1.539560E+02	  0.045851704	-4.385300E+01
131	  0.046052102	-5.368000E+00	  0.046052102	-1.265600E+01	  0.046052102	1.486020E+02	  0.046052102	-4.947000E+01
132	  0.046252504	-5.395000E+00	  0.046252504	-1.455400E+01	  0.046252504	1.430870E+02	  0.046252504	-5.432900E+01
133	  0.046452906	-5.426000E+00	  0.046452906	-1.646400E+01	  0.046452906	1.373060E+02	  0.046452906	-5.841500E+01
134	  0.046653304	-5.451000E+00	  0.046653304	-1.835800E+01	  0.046653304	1.316090E+02	  0.046653304	-6.189700E+01
135	  0.046853706	-5.479000E+00	  0.046853706	-2.025400E+01	  0.046853706	1.258910E+02	  0.046853706	-6.470700E+01
136	  0.047054108	-5.506000E+00	  0.047054108	-2.214200E+01	  0.047054108	1.202910E+02	  0.047054108	-6.694700E+01
137	  0.047254506	-5.527000E+00	  0.047254506	-2.402100E+01	  0.047254506	1.148910E+02	  0.047254506	-6.875800E+01
138	  0.047454908	-5.551000E+00	  0.047454908	-2.589800E+01	  0.047454908	1.096390E+02	  0.047454908	-7.005700E+01
139	  0.047655310	-5.574000E+00	  0.047655310	-2.772900E+01	  0.047655310	1.047020E+02	  0.047655310	-7.093500E+01
140	  0.047855709	-5.599000E+00	  0.047855709	-2.955100E+01	  0.047855709	9.998300E+01	  0.047855709	-7.143700E+01
141	  0.048056111	-5.624000E+00	  0.048056111	-3.138700E+01	  0.048056111	9.544700E+01	  0.048056111	-7.166200E+01
142	  0.048256513	-5.645000E+00	  0.048256513	-3.319500E+01	  0.048256513	9.120000E+01	  0.048256513	-7.167000E+01
143	  0.048456915	-5.665000E+00	  0.048456915	-3.501300E+01	  0.048456915	8.714300E+01	  0.048456915	-7.147300E+01
144	  0.048657313	-5.685000E+00	  0.048657313	-3.681500E+01	  0.048657313	8.332800E+01	  0.048657313	-7.110400E+01
145	  0.048857715	-5.705000E+00	  0.048857715	-3.860800E+01	  0.048857715	7.973400E+01	  0.048857715	-7.055200E+01
146	  0.049058117	-5.717000E+00	  0.049058117	-4.038700E+01	  0.049058117	7.634700E+01	  0.049058117	-6.998200E+01
147	  0.049258515	-5.736000E+00	  0.049258515	-4.215300E+01	  0.049258515	7.317800E+01	  0.049258515	-6.921200E+01
148	  0.049458917	-5.752000E+00	  0.049458917	-4.391200E+01	  0.049458917	7.018800E+01	  0.049458917	-6.839200E+01
149	  0.049659319	-5.770000E+00	  0.049659319	-4.564600E+01	  0.049659319	6.740900E+01	  0.049659319	-6.747200E+01
150	  0.049859721	-5.785000E+00	  0.049859721	-4.736600E+01	  0.049859721	6.479400E+01	  0.049859721	-6.653700E+01
151	  0.050060119	-5.801000E+00	  0.050060119	-4.907900E+01	  0.050060119	6.233600E+01	  0.050060119	-6.553900E+01
152	  0.050260521	-5.813000E+00	  0.050260521	-5.079900E+01	  0.050260521	5.998900E+01	  0.050260521	-6.453100E+01
153	  0.050460923	-5.824000E+00	  0.050460923	-5.251100E+01	  0.050460923	5.777700E+01	  0.050460923	-6.350100E+01
154	  0.050661322	-5.833000E+00	  0.050661322	-5.418100E+01	  0.050661322	5.572800E+01	  0.050661322	-6.247700E+01
155	  0.050861724	-5.842000E+00	  0.050861724	-5.583900E+01	  0.050861724	5.379800E+01	  0.050861724	-6.144200E+01
156	  0.051062126	-5.856000E+00	  0.051062126	-5.751700E+01	  0.051062126	5.196600E+01	  0.051062126	-6.034000E+01
157	  0.051262524	-5.865000E+00	  0.051262524	-5.914700E+01	  0.051262524	5.026300E+01	  0.051262524	-5.929100E+01
158	  0.051462926	-5.874000E+00	  0.051462926	-6.076600E+01	  0.051462926	4.865700E+01	  0.051462926	-5.823900E+01
159	  0.051663328	-5.881000E+00	  0.051663328	-6.240200E+01	  0.051663328	4.711000E+01	  0.051663328	-5.718100E+01
160	  0.051863730	-5.890000E+00	  0.051863730	-6.400000E+01	  0.051863730	4.567700E+01	  0.051863730	-5.613700E+01
161	  0.052064128	-5.897000E+00	  0.052064128	-6.561300E+01	  0.052064128	4.430000E+01	  0.052064128	-5.508800E+01
162	  0.052264530	-5.898000E+00	  0.052264530	-6.720000E+01	  0.052264530	4.298400E+01	  0.052264530	-5.409400E+01
163	  0.052464932	-5.904000E+00	  0.052464932	-6.878500E+01	  0.052464932	4.175200E+01	  0.052464932	-5.307400E+01
164	  0.052665330	-5.913000E+00	  0.052665330	-7.032300E+01	  0.052665330	4.062500E+01	  0.052665330	-5.207200E+01
165	  0.052865732	-5.921000E+00	  0.052865732	-7.187300E+01	  0.052865732	3.953900E+01	  0.052865732	-5.107400E+01
166	  0.053066134	-5.926000E+00	  0.053066134	-7.344000E+01	  0.053066134	3.848200E+01	  0.053066134	-5.008200E+01
167	  0.053266536	-5.935000E+00	  0.053266536	-7.496100E+01	  0.053266536	3.751800E+01	  0.053266536	-4.911000E+01
168	  0.053466935	-5.937000E+00	  0.053466935	-7.645800E+01	  0.053466935	3.658400E+01	  0.053466935	-4.818800E+01
169	  0.053667337	-5.943000E+00	  0.053667337	-7.797200E+01	  0.053667337	3.569700E+01	  0.053667337	-4.724700E+01
170	  0.053867739	-5.946000E+00	  0.053867739	-7.948600E+01	  0.053867739	3.483600E+01	  0.053867739	-4.632600E+01
171	  0.054068137	-5.952000E+00	  0.054068137	-8.098100E+01	  0.054068137	3.403400E+01	  0.054068137	-4.541300E+01
172	  0.054268539	-5.952000E+00	  0.054268539	-8.246000E+01	  0.054268539	3.325500E+01	  0.054268539	-4.453600E+01
173	  0.054468941	-5.960000E+00	  0.054468941	-8.391800E+01	  0.054468941	3.254800E+01	  0.054468941	-4.365400E+01
174	  0.054669335	-5.967000E+00	  0.054669335	-8.539600E+01	  0.054669335	3.185500E+01	  0.054669335	-4.277400E+01
175	  0.054869737	-5.971000E+00	  0.054869737	-8.682600E+01	  0.054869737	3.120600E+01	  0.054869737	-4.193600E+01
176	  0.055070139	-5.978000E+00	  0.055070139	-8.824700E+01	  0.055070139	3.059400E+01	  0.055070139	-4.110600E+01
177	  0.055270538	-5.980000E+00	  0.055270538	-8.967200E+01	  0.055270538	2.999000E+01	  0.055270538	-4.029400E+01
178	  0.055470940	-5.982000E+00	  0.055470940	-9.109100E+01	  0.055470940	2.940900E+01	  0.055470940	-3.949400E+01
179	  0.055671342	-5.985000E+00	  0.055671342	-9.251300E+01	  0.055671342	2.885500E+01	  0.055671342	-3.869700E+01
180	  0.055871744	-5.985000E+00	  0.055871744	-9.389300E+01	  0.055871744	2.832700E+01	  0.055871744	-3.793800E+01
181	  0.056072142	-5.988000E+00	  0.056072142	-9.528600E+01	  0.056072142	2.782600E+01	  0.056072142	-3.717100E+01
182	  0.056272544	-5.988000E+00	  0.056272544	-9.667500E+01	  0.056272544	2.733400E+01	  0.056272544	-3.642100E+01
183	  0.056472946	-5.990000E+00	  0.056472946	-9.800600E+01	  0.056472946	2.688500E+01	  0.056472946	-3.570600E+01
184	  0.056673344	-5.988000E+00	  0.056673344	-9.934900E+01	  0.056673344	2.643800E+01	  0.056673344	-3.499700E+01
185	  0.056873746	-5.992000E+00	  0.056873746	-1.006920E+02	  0.056873746	2.602400E+01	  0.056873746	-3.428300E+01
186	  0.057074148	-5.990000E+00	  0.057074148	-1.020250E+02	  0.057074148	2.560900E+01	  0.057074148	-3.359300E+01
187	  0.057274550	-5.990000E+00	  0.057274550	-1.033410E+02	  0.057274550	2.522300E+01	  0.057274550	-3.291200E+01
188	  0.057474948	-5.986000E+00	  0.057474948	-1.046780E+02	  0.057474948	2.482700E+01	  0.057474948	-3.223600E+01
189	  0.057675350	-5.985000E+00	  0.057675350	-1.060020E+02	  0.057675350	2.446300E+01	  0.057675350	-3.156400E+01
190	  0.057875752	-5.983000E+00	  0.057875752	-1.073100E+02	  0.057875752	2.410900E+01	  0.057875752	-3.090900E+01
191	  0.058076151	-5.981000E+00	  0.058076151	-1.086070E+02	  0.058076151	2.377100E+01	  0.058076151	-3.026400E+01
192	  0.058276553	-5.982000E+00	  0.058276553	-1.098960E+02	  0.058276553	2.345400E+01	  0.058276553	-2.962500E+01
193	  0.058476955	-5.978000E+00	  0.058476955	-1.111680E+02	  0.058476955	2.313900E+01	  0.058476955	-2.900500E+01
194	  0.058677353	-5.977000E+00	  0.058677353	-1.124760E+02	  0.058677353	2.283700E+01	  0.058677353	-2.836800E+01
195	  0.058877755	-5.975000E+00	  0.058877755	-1.137540E+02	  0.058877755	2.254600E+01	  0.058877755	-2.775200E+01
196	  0.059078157	-5.973000E+00	  0.059078157	-1.150360E+02	  0.059078157	2.226200E+01	  0.059078157	-2.714100E+01
197	  0.059278559	-5.968000E+00	  0.059278559	-1.163020E+02	  0.059278559	2.198600E+01	  0.059278559	-2.654300E+01
198	  0.059478957	-5.964000E+00	  0.059478957	-1.175870E+02	  0.059478957	2.171600E+01	  0.059478957	-2.594100E+01
199	  0.059679359	-5.964000E+00	  0.059679359	-1.188390E+02	  0.059679359	2.147300E+01	  0.059679359	-2.535300E+01
200	  0.059879761	-5.964000E+00	  0.059879761	-1.200860E+02	  0.059879761	2.123900E+01	  0.059879761	-2.477200E+01
201	  0.060080159	-5.964000E+00	  0.060080159	-1.213380E+02	  0.060080159	2.101600E+01	  0.060080159	-2.419100E+01
202	  0.060280561	-5.965000E+00	  0.060280561	-1.225790E+02	  0.060280561	2.080000E+01	  0.060280561	-2.362000E+01
203	  0.060480963	-5.961000E+00	  0.060480963	-1.238290E+02	  0.060480963	2.057900E+01	  0.060480963	-2.305300E+01
204	  0.060681365	-5.960000E+00	  0.060681365	-1.250750E+02	  0.060681365	2.037400E+01	  0.060681365	-2.248800E+01
205	  0.060881764	-5.958000E+00	  0.060881764	-1.262980E+02	  0.060881764	2.017500E+01	  0.060881764	-2.194000E+01
206	  0.061082166	-5.957000E+00	  0.061082166	-1.275310E+02	  0.061082166	1.998500E+01	  0.061082166	-2.138800E+01
207	  0.061282568	-5.957000E+00	  0.061282568	-1.287760E+02	  0.061282568	1.980300E+01	  0.061282568	-2.083400E+01
208	  0.061482966	-5.957000E+00	  0.061482966	-1.299720E+02	  0.061482966	1.963200E+01	  0.061482966	-2.030600E+01
209	  0.061683368	-5.956000E+00	  0.061683368	-1.311940E+02	  0.061683368	1.946300E+01	  0.061683368	-1.976900E+01
210	  0.061883770	-5.953000E+00	  0.061883770	-1.323900E+02	  0.061883770	1.929700E+01	  0.061883770	-1.924800E+01
211	  0.062084168	-5.957000E+00	  0.062084168	-1.336020E+02	  0.062084168	1.915300E+01	  0.062084168	-1.871900E+01
212	  0.062284570	-5.954000E+00	  0.062284570	-1.347830E+02	  0.062284570	1.899900E+01	  0.062284570	-1.821100E+01
213	  0.062484972	-5.944000E+00	  0.062484972	-1.359510E+02	  0.062484972	1.883200E+01	  0.062484972	-1.771600E+01
214	  0.062685370	-5.942000E+00	  0.062685370	-1.371350E+02	  0.062685370	1.869000E+01	  0.062685370	-1.721100E+01
215	  0.062885776	-5.941000E+00	  0.062885776	-1.383250E+02	  0.062885776	1.855700E+01	  0.062885776	-1.670400E+01
216	  0.063086174	-5.938000E+00	  0.063086174	-1.394810E+02	  0.063086174	1.842700E+01	  0.063086174	-1.621600E+01
217	  0.063286573	-5.939000E+00	  0.063286573	-1.406340E+02	  0.063286573	1.831100E+01	  0.063286573	-1.572900E+01
218	  0.063486971	-5.939000E+00	  0.063486971	-1.417910E+02	  0.063486971	1.819500E+01	  0.063486971	-1.524300E+01
219	  0.063687377	-5.935000E+00	  0.063687377	-1.429280E+02	  0.063687377	1.807700E+01	  0.063687377	-1.477000E+01
220	  0.063887775	-5.933000E+00	  0.063887775	-1.440550E+02	  0.063887775	1.796800E+01	  0.063887775	-1.430200E+01
221	  0.064088173	-5.935000E+00	  0.064088173	-1.452260E+02	  0.064088173	1.787100E+01	  0.064088173	-1.381500E+01
222	  0.064288579	-5.936000E+00	  0.064288579	-1.463400E+02	  0.064288579	1.778100E+01	  0.064288579	-1.335400E+01
223	  0.064488977	-5.936000E+00	  0.064488977	-1.474690E+02	  0.064488977	1.768800E+01	  0.064488977	-1.288900E+01
224	  0.064689375	-5.937000E+00	  0.064689375	-1.485980E+02	  0.064689375	1.760400E+01	  0.064689375	-1.242600E+01
225	  0.064889781	-5.936000E+00	  0.064889781	-1.497260E+02	  0.064889781	1.751500E+01	  0.064889781	-1.196600E+01
226	  0.065090179	-5.939000E+00	  0.065090179	-1.508370E+02	  0.065090179	1.744400E+01	  0.065090179	-1.151200E+01
227	  0.065290578	-5.941000E+00	  0.065290578	-1.519040E+02	  0.065290578	1.737500E+01	  0.065290578	-1.107900E+01
228	  0.065490983	-5.941000E+00	  0.065490983	-1.529950E+02	  0.065490983	1.730400E+01	  0.065490983	-1.063700E+01
229	  0.065691382	-5.939000E+00	  0.065691382	-1.540700E+02	  0.065691382	1.723200E+01	  0.065691382	-1.020500E+01
230	  0.065891780	-5.944000E+00	  0.065891780	-1.551780E+02	  0.065891780	1.718000E+01	  0.065891780	-9.757000E+00
231	  0.066092186	-5.951000E+00	  0.066092186	-1.562250E+02	  0.066092186	1.713600E+01	  0.066092186	-9.335000E+00
232	  0.066292584	-5.951000E+00	  0.066292584	-1.572970E+02	  0.066292584	1.707800E+01	  0.066292584	-8.906000E+00
233	  0.066492982	-5.958000E+00	  0.066492982	-1.583650E+02	  0.066492982	1.704100E+01	  0.066492982	-8.478000E+00
234	  0.066693388	-5.961000E+00	  0.066693388	-1.593920E+02	  0.066693388	1.699900E+01	  0.066693388	-8.069000E+00
235	  0.066893786	-5.964000E+00	  0.066893786	-1.604440E+02	  0.066893786	1.695700E+01	  0.066893786	-7.650000E+00
236	  0.067094192	-5.967000E+00	  0.067094192	-1.614720E+02	  0.067094192	1.692100E+01	  0.067094192	-7.242000E+00
237	  0.067294590	-5.968000E+00	  0.067294590	-1.624910E+02	  0.067294590	1.688200E+01	  0.067294590	-6.839000E+00
238	  0.067494988	-5.976000E+00	  0.067494988	-1.635230E+02	  0.067494988	1.686100E+01	  0.067494988	-6.431000E+00
239	  0.067695394	-5.980000E+00	  0.067695394	-1.645420E+02	  0.067695394	1.683500E+01	  0.067695394	-6.028000E+00
240	  0.067895792	-5.982000E+00	  0.067895792	-1.655480E+02	  0.067895792	1.680700E+01	  0.067895792	-5.632000E+00
241	  0.068096191	-5.991000E+00	  0.068096191	-1.665530E+02	  0.068096191	1.679600E+01	  0.068096191	-5.237000E+00
242	  0.068296596	-5.996000E+00	  0.068296596	-1.675580E+02	  0.068296596	1.678000E+01	  0.068296596	-4.842000E+00
243	  0.068496995	-5.995000E+00	  0.068496995	-1.685370E+02	  0.068496995	1.675100E+01	  0.068496995	-4.460000E+00
244	  0.068697393	-6.000000E+00	  0.068697393	-1.695250E+02	  0.068697393	1.673800E+01	  0.068697393	-4.073000E+00
245	  0.068897791	-6.008000E+00	  0.068897791	-1.704900E+02	  0.068897791	1.673600E+01	  0.068897791	-3.695000E+00
246	  0.069098189	-6.005000E+00	  0.069098189	-1.714900E+02	  0.069098189	1.670900E+01	  0.069098189	-3.306000E+00
247	  0.069298595	-6.010000E+00	  0.069298595	-1.724530E+02	  0.069298595	1.670600E+01	  0.069298595	-2.930000E+00
248	  0.069498993	-6.012000E+00	  0.069498993	-1.734400E+02	  0.069498993	1.669400E+01	  0.069498993	-2.546000E+00
249	  0.069699399	-6.017000E+00	  0.069699399	-1.744010E+02	  0.069699399	1.669500E+01	  0.069699399	-2.172000E+00
250	  0.069899797	-6.020000E+00	  0.069899797	-1.753520E+02	  0.069899797	1.669000E+01	  0.069899797	-1.803000E+00
251	  0.070100196	-6.022000E+00	  0.070100196	-1.762920E+02	  0.070100196	1.668500E+01	  0.070100196	-1.438000E+00
252	  0.070300601	-6.024000E+00	  0.070300601	-1.772460E+02	  0.070300601	1.668500E+01	  0.070300601	-1.067000E+00
253	  0.070501000	-6.023000E+00	  0.070501000	-1.782040E+02	  0.070501000	1.667700E+01	  0.070501000	-6.960000E-01
254	  0.070701398	-6.026000E+00	  0.070701398	-1.791210E+02	  0.070701398	1.668100E+01	  0.070701398	-3.400000E-01
255	  0.070901804	-6.027000E+00	  0.070901804	1.799180E+02	  0.070901804	1.668300E+01	  0.070901804	3.100000E-02
256	  0.071102202	-6.031000E+00	  0.071102202	1.789680E+02	  0.071102202	1.669500E+01	  0.071102202	3.990000E-01
257	  0.071302600	-6.031000E+00	  0.071302600	1.780360E+02	  0.071302600	1.669900E+01	  0.071302600	7.610000E-01
258	  0.071503006	-6.038000E+00	  0.071503006	1.771060E+02	  0.071503006	1.672100E+01	  0.071503006	1.121000E+00
259	  0.071703404	-6.038000E+00	  0.071703404	1.761840E+02	  0.071703404	1.673000E+01	  0.071703404	1.479000E+00
260	  0.071903802	-6.046000E+00	  0.071903802	1.752490E+02	  0.071903802	1.675900E+01	  0.071903802	1.841000E+00
261	  0.072104208	-6.049000E+00	  0.072104208	1.742930E+02	  0.072104208	1.677700E+01	  0.072104208	2.212000E+00
262	  0.072304606	-6.050000E+00	  0.072304606	1.733940E+02	  0.072304606	1.679200E+01	  0.072304606	2.560000E+00
263	  0.072505005	-6.051000E+00	  0.072505005	1.724560E+02	  0.072505005	1.681000E+01	  0.072505005	2.924000E+00
264	  0.072705410	-6.052000E+00	  0.072705410	1.715410E+02	  0.072705410	1.683000E+01	  0.072705410	3.280000E+00
265	  0.072905809	-6.058000E+00	  0.072905809	1.706240E+02	  0.072905809	1.686300E+01	  0.072905809	3.636000E+00
266	  0.073106214	-6.063000E+00	  0.073106214	1.697070E+02	  0.073106214	1.689600E+01	  0.073106214	3.992000E+00
267	  0.073306613	-6.069000E+00	  0.073306613	1.687960E+02	  0.073306613	1.693500E+01	  0.073306613	4.346000E+00
268	  0.073507011	-6.074000E+00	  0.073507011	1.678720E+02	  0.073507011	1.697100E+01	  0.073507011	4.705000E+00
269	  0.073707417	-6.075000E+00	  0.073707417	1.669780E+02	  0.073707417	1.699900E+01	  0.073707417	5.054000E+00
270	  0.073907815	-6.080000E+00	  0.073907815	1.660630E+02	  0.073907815	1.704200E+01	  0.073907815	5.410000E+00
271	  0.074108213	-6.087000E+00	  0.074108213	1.651570E+02	  0.074108213	1.709000E+01	  0.074108213	5.763000E+00
272	  0.074308619	-6.094000E+00	  0.074308619	1.642430E+02	  0.074308619	1.714000E+01	  0.074308619	6.119000E+00
273	  0.074509017	-6.097000E+00	  0.074509017	1.633390E+02	  0.074509017	1.718200E+01	  0.074509017	6.472000E+00
274	  0.074709415	-6.101000E+00	  0.074709415	1.624520E+02	  0.074709415	1.722900E+01	  0.074709415	6.819000E+00
275	  0.074909821	-6.111000E+00	  0.074909821	1.615600E+02	  0.074909821	1.729100E+01	  0.074909821	7.167000E+00
276	  0.075110219	-6.118000E+00	  0.075110219	1.606700E+02	  0.075110219	1.735000E+01	  0.075110219	7.515000E+00
277	  0.075310618	-6.122000E+00	  0.075310618	1.598080E+02	  0.075310618	1.739900E+01	  0.075310618	7.853000E+00
278	  0.075511023	-6.126000E+00	  0.075511023	1.589280E+02	  0.075511023	1.745300E+01	  0.075511023	8.199000E+00
279	  0.075711422	-6.130000E+00	  0.075711422	1.580570E+02	  0.075711422	1.750800E+01	  0.075711422	8.542000E+00
280	  0.075911827	-6.137000E+00	  0.075911827	1.571830E+02	  0.075911827	1.757300E+01	  0.075911827	8.886000E+00
281	  0.076112226	-6.146000E+00	  0.076112226	1.563120E+02	  0.076112226	1.764600E+01	  0.076112226	9.227000E+00
282	  0.076312624	-6.156000E+00	  0.076312624	1.554650E+02	  0.076312624	1.771900E+01	  0.076312624	9.560000E+00
283	  0.076513030	-6.164000E+00	  0.076513030	1.545970E+02	  0.076513030	1.779400E+01	  0.076513030	9.902000E+00
284	  0.076713428	-6.176000E+00	  0.076713428	1.537150E+02	  0.076713428	1.788100E+01	  0.076713428	1.024900E+01
285	  0.076913826	-6.185000E+00	  0.076913826	1.528530E+02	  0.076913826	1.796100E+01	  0.076913826	1.058900E+01
286	  0.077114232	-6.192000E+00	  0.077114232	1.520120E+02	  0.077114232	1.803500E+01	  0.077114232	1.092300E+01
287	  0.077314630	-6.203000E+00	  0.077314630	1.511510E+02	  0.077314630	1.812600E+01	  0.077314630	1.126200E+01
288	  0.077515028	-6.214000E+00	  0.077515028	1.503130E+02	  0.077515028	1.821600E+01	  0.077515028	1.159400E+01
289	  0.077715434	-6.226000E+00	  0.077715434	1.494830E+02	  0.077715434	1.831000E+01	  0.077715434	1.192100E+01
290	  0.077915832	-6.234000E+00	  0.077915832	1.486120E+02	  0.077915832	1.839900E+01	  0.077915832	1.226800E+01
291	  0.078116231	-6.242000E+00	  0.078116231	1.477730E+02	  0.078116231	1.848800E+01	  0.078116231	1.260300E+01
292	  0.078316636	-6.256000E+00	  0.078316636	1.469300E+02	  0.078316636	1.859300E+01	  0.078316636	1.293700E+01
293	  0.078517035	-6.272000E+00	  0.078517035	1.460530E+02	  0.078517035	1.871100E+01	  0.078517035	1.328400E+01
294	  0.078717433	-6.286000E+00	  0.078717433	1.452190E+02	  0.078717433	1.882200E+01	  0.078717433	1.361500E+01
295	  0.078917839	-6.294000E+00	  0.078917839	1.443780E+02	  0.078917839	1.891900E+01	  0.078917839	1.395200E+01
296	  0.079118237	-6.311000E+00	  0.079118237	1.435640E+02	  0.079118237	1.904300E+01	  0.079118237	1.427400E+01
297	  0.079318643	-6.323000E+00	  0.079318643	1.427310E+02	  0.079318643	1.915400E+01	  0.079318643	1.460700E+01
298	  0.079519041	-6.337000E+00	  0.079519041	1.418970E+02	  0.079519041	1.927500E+01	  0.079519041	1.494000E+01
299	  0.079719439	-6.351000E+00	  0.079719439	1.410910E+02	  0.079719439	1.939500E+01	  0.079719439	1.526200E+01
300	  0.079919845	-6.366000E+00	  0.079919845	1.402440E+02	  0.079919845	1.952600E+01	  0.079919845	1.560000E+01
301	  0.080120243	-6.378000E+00	  0.080120243	1.394070E+02	  0.080120243	1.964900E+01	  0.080120243	1.593700E+01
302	  0.080320641	-6.395000E+00	  0.080320641	1.385810E+02	  0.080320641	1.978600E+01	  0.080320641	1.626600E+01
303	  0.080521047	-6.408000E+00	  0.080521047	1.377750E+02	  0.080521047	1.991400E+01	  0.080521047	1.659000E+01
304	  0.080721445	-6.425000E+00	  0.080721445	1.369690E+02	  0.080721445	2.005300E+01	  0.080721445	1.691300E+01
305	  0.080921844	-6.442000E+00	  0.080921844	1.361660E+02	  0.080921844	2.019600E+01	  0.080921844	1.723400E+01
306	  0.081122249	-6.455000E+00	  0.081122249	1.353790E+02	  0.081122249	2.033000E+01	  0.081122249	1.755200E+01
307	  0.081322648	-6.470000E+00	  0.081322648	1.345700E+02	  0.081322648	2.047400E+01	  0.081322648	1.787800E+01
308	  0.081523046	-6.484000E+00	  0.081523046	1.337490E+02	  0.081523046	2.061900E+01	  0.081523046	1.821000E+01
309	  0.081723452	-6.499000E+00	  0.081723452	1.329770E+02	  0.081723452	2.076100E+01	  0.081723452	1.852200E+01
310	  0.081923850	-6.511000E+00	  0.081923850	1.321720E+02	  0.081923850	2.090400E+01	  0.081923850	1.885000E+01
311	  0.082124248	-6.527000E+00	  0.082124248	1.313980E+02	  0.082124248	2.105600E+01	  0.082124248	1.916300E+01
312	  0.082324654	-6.541000E+00	  0.082324654	1.306460E+02	  0.082324654	2.120200E+01	  0.082324654	1.946800E+01
313	  0.082525052	-6.557000E+00	  0.082525052	1.298830E+02	  0.082525052	2.136000E+01	  0.082525052	1.977600E+01
314	  0.082725458	-6.573000E+00	  0.082725458	1.291490E+02	  0.082725458	2.151200E+01	  0.082725458	2.007300E+01
315	  0.082925856	-6.591000E+00	  0.082925856	1.284040E+02	  0.082925856	2.167800E+01	  0.082925856	2.037200E+01
316	  0.083126254	-6.613000E+00	  0.083126254	1.276310E+02	  0.083126254	2.185900E+01	  0.083126254	2.068000E+01
317	  0.083326660	-6.631000E+00	  0.083326660	1.268890E+02	  0.083326660	2.202900E+01	  0.083326660	2.097900E+01
318	  0.083527058	-6.645000E+00	  0.083527058	1.261260E+02	  0.083527058	2.219200E+01	  0.083527058	2.129100E+01
319	  0.083727457	-6.663000E+00	  0.083727457	1.254100E+02	  0.083727457	2.236300E+01	  0.083727457	2.157900E+01
320	  0.083927862	-6.684000E+00	  0.083927862	1.246660E+02	  0.083927862	2.254900E+01	  0.083927862	2.187600E+01
321	  0.084128261	-6.705000E+00	  0.084128261	1.239410E+02	  0.084128261	2.273700E+01	  0.084128261	2.216400E+01
322	  0.084328659	-6.728000E+00	  0.084328659	1.232150E+02	  0.084328659	2.293000E+01	  0.084328659	2.245200E+01
323	  0.084529065	-6.747000E+00	  0.084529065	1.225340E+02	  0.084529065	2.311000E+01	  0.084529065	2.272300E+01
324	  0.084729463	-6.770000E+00	  0.084729463	1.217990E+02	  0.084729463	2.331200E+01	  0.084729463	2.301400E+01
325	  0.084929854	-6.788000E+00	  0.084929854	1.210450E+02	  0.084929854	2.350500E+01	  0.084929854	2.331900E+01
326	  0.085130259	-6.808000E+00	  0.085130259	1.203270E+02	  0.085130259	2.370100E+01	  0.085130259	2.360600E+01
327	  0.085330658	-6.827000E+00	  0.085330658	1.195910E+02	  0.085330658	2.390100E+01	  0.085330658	2.390200E+01
328	  0.085531056	-6.855000E+00	  0.085531056	1.189040E+02	  0.085531056	2.412100E+01	  0.085531056	2.416400E+01
329	  0.085731462	-6.878000E+00	  0.085731462	1.181700E+02	  0.085731462	2.433900E+01	  0.085731462	2.445400E+01
330	  0.085931860	-6.903000E+00	  0.085931860	1.174790E+02	  0.085931860	2.455500E+01	  0.085931860	2.472200E+01
331	  0.086132258	-6.924000E+00	  0.086132258	1.167900E+02	  0.086132258	2.476200E+01	  0.086132258	2.499400E+01
332	  0.086332664	-6.949000E+00	  0.086332664	1.160780E+02	  0.086332664	2.499000E+01	  0.086332664	2.527000E+01
333	  0.086533062	-6.974000E+00	  0.086533062	1.153740E+02	  0.086533062	2.521900E+01	  0.086533062	2.554300E+01
334	  0.086733460	-6.996000E+00	  0.086733460	1.146850E+02	  0.086733460	2.543900E+01	  0.086733460	2.581300E+01
335	  0.086933866	-7.016000E+00	  0.086933866	1.139930E+02	  0.086933866	2.565800E+01	  0.086933866	2.608600E+01
336	  0.087134264	-7.039000E+00	  0.087134264	1.133280E+02	  0.087134264	2.588000E+01	  0.087134264	2.634400E+01
337	  0.087334670	-7.062000E+00	  0.087334670	1.126040E+02	  0.087334670	2.612300E+01	  0.087334670	2.662600E+01
338	  0.087535068	-7.090000E+00	  0.087535068	1.119170E+02	  0.087535068	2.637100E+01	  0.087535068	2.688500E+01
339	  0.087735467	-7.117000E+00	  0.087735467	1.112630E+02	  0.087735467	2.661400E+01	  0.087735467	2.712800E+01
340	  0.087935872	-7.145000E+00	  0.087935872	1.105900E+02	  0.087935872	2.686800E+01	  0.087935872	2.737700E+01
341	  0.088136271	-7.168000E+00	  0.088136271	1.099150E+02	  0.088136271	2.710800E+01	  0.088136271	2.763700E+01
342	  0.088336669	-7.192000E+00	  0.088336669	1.092500E+02	  0.088336669	2.735300E+01	  0.088336669	2.788900E+01
343	  0.088537075	-7.217000E+00	  0.088537075	1.085800E+02	  0.088537075	2.760700E+01	  0.088537075	2.814000E+01
344	  0.088737473	-7.244000E+00	  0.088737473	1.079380E+02	  0.088737473	2.786100E+01	  0.088737473	2.837400E+01
345	  0.088937871	-7.266000E+00	  0.088937871	1.072510E+02	  0.088937871	2.811700E+01	  0.088937871	2.863700E+01
346	  0.089138277	-7.289000E+00	  0.089138277	1.066220E+02	  0.089138277	2.836100E+01	  0.089138277	2.887200E+01
347	  0.089338675	-7.317000E+00	  0.089338675	1.059690E+02	  0.089338675	2.863200E+01	  0.089338675	2.910600E+01
348	  0.089539073	-7.344000E+00	  0.089539073	1.053320E+02	  0.089539073	2.889800E+01	  0.089539073	2.933500E+01
349	  0.089739479	-7.373000E+00	  0.089739479	1.046850E+02	  0.089739479	2.917600E+01	  0.089739479	2.956300E+01
350	  0.089939877	-7.402000E+00	  0.089939877	1.040430E+02	  0.089939877	2.945300E+01	  0.089939877	2.978800E+01
351	  0.090140276	-7.427000E+00	  0.090140276	1.034240E+02	  0.090140276	2.971800E+01	  0.090140276	3.000900E+01
352	  0.090340681	-7.454000E+00	  0.090340681	1.027820E+02	  0.090340681	2.999700E+01	  0.090340681	3.023500E+01
353	  0.090541080	-7.486000E+00	  0.090541080	1.021430E+02	  0.090541080	3.029400E+01	  0.090541080	3.044700E+01
354	  0.090741485	-7.509000E+00	  0.090741485	1.015410E+02	  0.090741485	3.055500E+01	  0.090741485	3.066300E+01
355	  0.090941884	-7.540000E+00	  0.090941884	1.009070E+02	  0.090941884	3.085400E+01	  0.090941884	3.087100E+01
356	  0.091142282	-7.575000E+00	  0.091142282	1.003130E+02	  0.091142282	3.115300E+01	  0.091142282	3.105400E+01
357	  0.091342688	-7.605000E+00	  0.091342688	9.968400E+01	  0.091342688	3.145500E+01	  0.091342688	3.125900E+01
358	  0.091543086	-7.637000E+00	  0.091543086	9.905600E+01	  0.091543086	3.176200E+01	  0.091543086	3.145900E+01
359	  0.091743484	-7.661000E+00	  0.091743484	9.842700E+01	  0.091743484	3.205100E+01	  0.091743484	3.167600E+01
360	  0.091943890	-7.693000E+00	  0.091943890	9.783900E+01	  0.091943890	3.235200E+01	  0.091943890	3.185500E+01
361	  0.092144288	-7.721000E+00	  0.092144288	9.720100E+01	  0.092144288	3.266400E+01	  0.092144288	3.206100E+01
362	  0.092344686	-7.751000E+00	  0.092344686	9.659100E+01	  0.092344686	3.297400E+01	  0.092344686	3.225000E+01
363	  0.092545092	-7.782000E+00	  0.092545092	9.598800E+01	  0.092545092	3.328600E+01	  0.092545092	3.243100E+01
364	  0.092745490	-7.815000E+00	  0.092745490	9.541300E+01	  0.092745490	3.359700E+01	  0.092745490	3.259300E+01
365	  0.092945889	-7.844000E+00	  0.092945889	9.484700E+01	  0.092945889	3.389700E+01	  0.092945889	3.275900E+01
366	  0.093146294	-7.874000E+00	  0.093146294	9.424300E+01	  0.093146294	3.421600E+01	  0.093146294	3.293700E+01
367	  0.093346693	-7.905000E+00	  0.093346693	9.363300E+01	  0.093346693	3.454300E+01	  0.093346693	3.311300E+01
368	  0.093547091	-7.932000E+00	  0.093547091	9.307000E+01	  0.093547091	3.484300E+01	  0.093547091	3.327700E+01
369	  0.093747497	-7.958000E+00	  0.093747497	9.250300E+01	  0.093747497	3.514800E+01	  0.093747497	3.344200E+01
370	  0.093947895	-7.991000E+00	  0.093947895	9.192400E+01	  0.093947895	3.547700E+01	  0.093947895	3.359200E+01
371	  0.094148301	-8.019000E+00	  0.094148301	9.136400E+01	  0.094148301	3.578800E+01	  0.094148301	3.374600E+01
372	  0.094348699	-8.049000E+00	  0.094348699	9.082100E+01	  0.094348699	3.609900E+01	  0.094348699	3.388500E+01
373	  0.094549097	-8.082000E+00	  0.094549097	9.027900E+01	  0.094549097	3.642000E+01	  0.094549097	3.401300E+01
374	  0.094749503	-8.110000E+00	  0.094749503	8.977100E+01	  0.094749503	3.671700E+01	  0.094749503	3.413800E+01
375	  0.094949901	-8.141000E+00	  0.094949901	8.926000E+01	  0.094949901	3.702300E+01	  0.094949901	3.425500E+01
376	  0.095150299	-8.165000E+00	  0.095150299	8.872600E+01	  0.095150299	3.732400E+01	  0.095150299	3.439900E+01
377	  0.095350705	-8.190000E+00	  0.095350705	8.822400E+01	  0.095350705	3.761700E+01	  0.095350705	3.452400E+01
378	  0.095551103	-8.218000E+00	  0.095551103	8.771200E+01	  0.095551103	3.792300E+01	  0.095551103	3.464300E+01
379	  0.095751502	-8.244000E+00	  0.095751502	8.723000E+01	  0.095751502	3.821300E+01	  0.095751502	3.475400E+01
380	  0.095951907	-8.275000E+00	  0.095951907	8.678200E+01	  0.095951907	3.850200E+01	  0.095951907	3.483200E+01
381	  0.096152306	-8.300000E+00	  0.096152306	8.629200E+01	  0.096152306	3.879800E+01	  0.096152306	3.494500E+01
382	  0.096352704	-8.324000E+00	  0.096352704	8.582600E+01	  0.096352704	3.908000E+01	  0.096352704	3.504900E+01
383	  0.096553110	-8.349000E+00	  0.096553110	8.538100E+01	  0.096553110	3.935600E+01	  0.096553110	3.514200E+01
384	  0.096753508	-8.374000E+00	  0.096753508	8.494100E+01	  0.096753508	3.963200E+01	  0.096753508	3.522900E+01
385	  0.096953906	-8.399000E+00	  0.096953906	8.453800E+01	  0.096953906	3.989100E+01	  0.096953906	3.530100E+01
386	  0.097154312	-8.424000E+00	  0.097154312	8.405900E+01	  0.097154312	4.018900E+01	  0.097154312	3.539900E+01
387	  0.097354710	-8.447000E+00	  0.097354710	8.366500E+01	  0.097354710	4.044300E+01	  0.097354710	3.546800E+01
388	  0.097555116	-8.474000E+00	  0.097555116	8.323300E+01	  0.097555116	4.072600E+01	  0.097555116	3.553900E+01
389	  0.097755514	-8.498000E+00	  0.097755514	8.282900E+01	  0.097755514	4.098800E+01	  0.097755514	3.560700E+01
390	  0.097955912	-8.523000E+00	  0.097955912	8.245200E+01	  0.097955912	4.124200E+01	  0.097955912	3.565700E+01
391	  0.098156318	-8.542000E+00	  0.098156318	8.204200E+01	  0.098156318	4.149800E+01	  0.098156318	3.574200E+01
392	  0.098356716	-8.564000E+00	  0.098356716	8.166100E+01	  0.098356716	4.174800E+01	  0.098356716	3.580200E+01
393	  0.098557115	-8.582000E+00	  0.098557115	8.125300E+01	  0.098557115	4.200500E+01	  0.098557115	3.588300E+01
394	  0.098757520	-8.608000E+00	  0.098757520	8.083100E+01	  0.098757520	4.228800E+01	  0.098757520	3.594100E+01
395	  0.098957919	-8.621000E+00	  0.098957919	8.045900E+01	  0.098957919	4.251600E+01	  0.098957919	3.602500E+01
396	  0.099158317	-8.643000E+00	  0.099158317	8.005900E+01	  0.099158317	4.278000E+01	  0.099158317	3.608600E+01
397	  0.099358723	-8.661000E+00	  0.099358723	7.964800E+01	  0.099358723	4.304200E+01	  0.099358723	3.616400E+01
398	  0.099559121	-8.674000E+00	  0.099559121	7.927700E+01	  0.099559121	4.327500E+01	  0.099559121	3.624200E+01
399	  0.099759519	-8.690000E+00	  0.099759519	7.886200E+01	  0.099759519	4.353900E+01	  0.099759519	3.632300E+01
400	  0.099959925	-8.693000E+00	  0.099959925	7.853100E+01	  0.099959925	4.372800E+01	  0.099959925	3.642500E+01
401	  0.100160323	-8.709000E+00	  0.100160323	7.816500E+01	  0.100160323	4.396800E+01	  0.100160323	3.648600E+01
402	  0.100360721	-8.726000E+00	  0.100360721	7.777700E+01	  0.100360721	4.422200E+01	  0.100360721	3.655300E+01
403	  0.100561127	-8.736000E+00	  0.100561127	7.734400E+01	  0.100561127	4.448900E+01	  0.100561127	3.665700E+01
404	  0.100761525	-8.747000E+00	  0.100761525	7.699500E+01	  0.100761525	4.471300E+01	  0.100761525	3.672800E+01
405	  0.100961931	-8.748000E+00	  0.100961931	7.663600E+01	  0.100961931	4.492100E+01	  0.100961931	3.684000E+01
406	  0.101162329	-8.753000E+00	  0.101162329	7.629200E+01	  0.101162329	4.513200E+01	  0.101162329	3.693000E+01
407	  0.101362728	-8.759000E+00	  0.101362728	7.584100E+01	  0.101362728	4.540800E+01	  0.101362728	3.704900E+01
408	  0.101563133	-8.761000E+00	  0.101563133	7.549900E+01	  0.101563133	4.561400E+01	  0.101563133	3.714900E+01
409	  0.101763532	-8.771000E+00	  0.101763532	7.509200E+01	  0.101763532	4.587600E+01	  0.101763532	3.723900E+01
410	  0.101963930	-8.775000E+00	  0.101963930	7.468600E+01	  0.101963930	4.612700E+01	  0.101963930	3.734900E+01
411	  0.102164328	-8.775000E+00	  0.102164328	7.431400E+01	  0.102164328	4.635200E+01	  0.102164328	3.746100E+01
412	  0.102364726	-8.777000E+00	  0.102364726	7.385800E+01	  0.102364726	4.663300E+01	  0.102364726	3.759600E+01
413	  0.102565125	-8.777000E+00	  0.102565125	7.348300E+01	  0.102565125	4.686400E+01	  0.102565125	3.770800E+01
414	  0.102765530	-8.768000E+00	  0.102765530	7.308900E+01	  0.102765530	4.709100E+01	  0.102765530	3.786100E+01
415	  0.102965929	-8.768000E+00	  0.102965929	7.270100E+01	  0.102965929	4.733200E+01	  0.102965929	3.797900E+01
416	  0.103166327	-8.762000E+00	  0.103166327	7.224500E+01	  0.103166327	4.760700E+01	  0.103166327	3.814000E+01
417	  0.103366733	-8.762000E+00	  0.103366733	7.185000E+01	  0.103366733	4.786000E+01	  0.103366733	3.825500E+01
418	  0.103567131	-8.763000E+00	  0.103567131	7.142500E+01	  0.103567131	4.813400E+01	  0.103567131	3.837500E+01
419	  0.103767529	-8.752000E+00	  0.103767529	7.096300E+01	  0.103767529	4.841400E+01	  0.103767529	3.855100E+01
420	  0.103967935	-8.743000E+00	  0.103967935	7.053500E+01	  0.103967935	4.867600E+01	  0.103967935	3.871400E+01
421	  0.104168333	-8.747000E+00	  0.104168333	7.011300E+01	  0.104168333	4.896200E+01	  0.104168333	3.881700E+01
422	  0.104368731	-8.746000E+00	  0.104368731	6.972000E+01	  0.104368731	4.922200E+01	  0.104368731	3.893100E+01
423	  0.104569137	-8.733000E+00	  0.104569137	6.926300E+01	  0.104569137	4.950700E+01	  0.104569137	3.911300E+01
424	  0.104769535	-8.733000E+00	  0.104769535	6.874400E+01	  0.104769535	4.985900E+01	  0.104769535	3.925800E+01
425	  0.104969934	-8.721000E+00	  0.104969934	6.833200E+01	  0.104969934	5.012000E+01	  0.104969934	3.942100E+01
426	  0.105170339	-8.719000E+00	  0.105170339	6.785200E+01	  0.105170339	5.045000E+01	  0.105170339	3.955800E+01
427	  0.105370738	-8.713000E+00	  0.105370738	6.733600E+01	  0.105370738	5.080000E+01	  0.105370738	3.972300E+01
428	  0.105571143	-8.713000E+00	  0.105571143	6.683100E+01	  0.105571143	5.115900E+01	  0.105571143	3.985200E+01
429	  0.105771542	-8.708000E+00	  0.105771542	6.637800E+01	  0.105771542	5.147300E+01	  0.105771542	3.999500E+01
430	  0.105971940	-8.706000E+00	  0.105971940	6.588400E+01	  0.105971940	5.182600E+01	  0.105971940	4.012800E+01
431	  0.106172346	-8.703000E+00	  0.106172346	6.539700E+01	  0.106172346	5.217700E+01	  0.106172346	4.026200E+01
432	  0.106372744	-8.700000E+00	  0.106372744	6.488400E+01	  0.106372744	5.255100E+01	  0.106372744	4.039900E+01
433	  0.106573142	-8.692000E+00	  0.106573142	6.439100E+01	  0.106573142	5.290700E+01	  0.106573142	4.055300E+01
434	  0.106773548	-8.693000E+00	  0.106773548	6.384900E+01	  0.106773548	5.331600E+01	  0.106773548	4.067400E+01
435	  0.106973946	-8.682000E+00	  0.106973946	6.338000E+01	  0.106973946	5.365600E+01	  0.106973946	4.084000E+01
436	  0.107174344	-8.680000E+00	  0.107174344	6.291000E+01	  0.107174344	5.401400E+01	  0.107174344	4.095100E+01
437	  0.107374750	-8.672000E+00	  0.107374750	6.232600E+01	  0.107374750	5.445600E+01	  0.107374750	4.112000E+01
438	  0.107575148	-8.664000E+00	  0.107575148	6.177800E+01	  0.107575148	5.487600E+01	  0.107575148	4.127900E+01
439	  0.107775547	-8.662000E+00	  0.107775547	6.132100E+01	  0.107775547	5.523600E+01	  0.107775547	4.138200E+01
440	  0.107975952	-8.651000E+00	  0.107975952	6.078900E+01	  0.107975952	5.565000E+01	  0.107975952	4.154400E+01
441	  0.108176351	-8.648000E+00	  0.108176351	6.026800E+01	  0.108176351	5.606700E+01	  0.108176351	4.166600E+01
442	  0.108376749	-8.638000E+00	  0.108376749	5.974300E+01	  0.108376749	5.648600E+01	  0.108376749	4.181400E+01
443	  0.108577155	-8.637000E+00	  0.108577155	5.923400E+01	  0.108577155	5.690600E+01	  0.108577155	4.191500E+01
444	  0.108777553	-8.628000E+00	  0.108777553	5.865800E+01	  0.108777553	5.737800E+01	  0.108777553	4.206100E+01
445	  0.108977959	-8.624000E+00	  0.108977959	5.805400E+01	  0.108977959	5.788600E+01	  0.108977959	4.218500E+01
446	  0.109178357	-8.614000E+00	  0.109178357	5.752300E+01	  0.109178357	5.833100E+01	  0.109178357	4.232600E+01
447	  0.109378755	-8.604000E+00	  0.109378755	5.700400E+01	  0.109378755	5.877100E+01	  0.109378755	4.246300E+01
448	  0.109579161	-8.593000E+00	  0.109579161	5.640600E+01	  0.109579161	5.928400E+01	  0.109579161	4.261300E+01
449	  0.109779559	-8.594000E+00	  0.109779559	5.590200E+01	  0.109779559	5.973100E+01	  0.109779559	4.267500E+01
450	  0.109979957	-8.583000E+00	  0.109979957	5.529700E+01	  0.109979957	6.026300E+01	  0.109979957	4.282000E+01
451	  0.110180363	-8.575000E+00	  0.110180363	5.471300E+01	  0.110180363	6.078600E+01	  0.110180363	4.293700E+01
452	  0.110380761	-8.570000E+00	  0.110380761	5.410200E+01	  0.110380761	6.134300E+01	  0.110380761	4.302900E+01
453	  0.110581160	-8.568000E+00	  0.110581160	5.343900E+01	  0.110581160	6.195600E+01	  0.110581160	4.310500E+01
454	  0.110781565	-8.567000E+00	  0.110781565	5.288300E+01	  0.110781565	6.247600E+01	  0.110781565	4.316100E+01
455	  0.110981964	-8.560000E+00	  0.110981964	5.227600E+01	  0.110981964	6.304700E+01	  0.110981964	4.325100E+01
456	  0.111182362	-8.548000E+00	  0.111182362	5.163400E+01	  0.111182362	6.365700E+01	  0.111182362	4.336400E+01
457	  0.111382768	-8.543000E+00	  0.111382768	5.101900E+01	  0.111382768	6.425100E+01	  0.111382768	4.342900E+01
458	  0.111583166	-8.549000E+00	  0.111583166	5.031800E+01	  0.111583166	6.493900E+01	  0.111583166	4.341400E+01
459	  0.111783572	-8.545000E+00	  0.111783572	4.969700E+01	  0.111783572	6.555300E+01	  0.111783572	4.345300E+01
460	  0.111983970	-8.541000E+00	  0.111983970	4.901600E+01	  0.111983970	6.623400E+01	  0.111983970	4.349000E+01
461	  0.112184368	-8.539000E+00	  0.112184368	4.829500E+01	  0.112184368	6.696300E+01	  0.112184368	4.350000E+01
462	  0.112384774	-8.542000E+00	  0.112384774	4.764000E+01	  0.112384774	6.763100E+01	  0.112384774	4.346100E+01
463	  0.112585172	-8.548000E+00	  0.112585172	4.697600E+01	  0.112585172	6.831400E+01	  0.112585172	4.338900E+01
464	  0.112785570	-8.545000E+00	  0.112785570	4.622500E+01	  0.112785570	6.909600E+01	  0.112785570	4.336700E+01
465	  0.112985976	-8.546000E+00	  0.112985976	4.552600E+01	  0.112985976	6.983000E+01	  0.112985976	4.330600E+01
466	  0.113186374	-8.553000E+00	  0.113186374	4.474600E+01	  0.113186374	7.065400E+01	  0.113186374	4.318500E+01
467	  0.113386773	-8.548000E+00	  0.113386773	4.403700E+01	  0.113386773	7.141600E+01	  0.113386773	4.313500E+01
468	  0.113587178	-8.558000E+00	  0.113587178	4.330700E+01	  0.113587178	7.219400E+01	  0.113587178	4.296100E+01
469	  0.113787577	-8.559000E+00	  0.113787577	4.255100E+01	  0.113787577	7.301500E+01	  0.113787577	4.282900E+01
470	  0.113987975	-8.565000E+00	  0.113987975	4.178100E+01	  0.113987975	7.385100E+01	  0.113987975	4.264200E+01
471	  0.114188381	-8.575000E+00	  0.114188381	4.094200E+01	  0.114188381	7.476200E+01	  0.114188381	4.239000E+01
472	  0.114388779	-8.579000E+00	  0.114388779	4.022200E+01	  0.114388779	7.555600E+01	  0.114388779	4.219300E+01
473	  0.114589177	-8.590000E+00	  0.114589177	3.936700E+01	  0.114589177	7.648800E+01	  0.114589177	4.188200E+01
474	  0.114789583	-8.590000E+00	  0.114789583	3.858600E+01	  0.114789583	7.736700E+01	  0.114789583	4.165900E+01
475	  0.114989981	-8.601000E+00	  0.114989981	3.779700E+01	  0.114989981	7.823100E+01	  0.114989981	4.132200E+01
476	  0.115190387	-8.614000E+00	  0.115190387	3.693900E+01	  0.115190387	7.917100E+01	  0.115190387	4.092500E+01
477	  0.115390785	-8.631000E+00	  0.115390785	3.610000E+01	  0.115390785	8.007800E+01	  0.115390785	4.048100E+01
478	  0.115591183	-8.644000E+00	  0.115591183	3.524700E+01	  0.115591183	8.100800E+01	  0.115591183	4.003300E+01
479	  0.115791589	-8.661000E+00	  0.115791589	3.441300E+01	  0.115791589	8.190200E+01	  0.115791589	3.953300E+01
480	  0.115991987	-8.681000E+00	  0.115991987	3.351200E+01	  0.115991987	8.285400E+01	  0.115991987	3.895200E+01
481	  0.116192386	-8.699000E+00	  0.116192386	3.265300E+01	  0.116192386	8.376100E+01	  0.116192386	3.837800E+01
482	  0.116392791	-8.725000E+00	  0.116392791	3.175400E+01	  0.116392791	8.467000E+01	  0.116392791	3.768900E+01
483	  0.116593190	-8.745000E+00	  0.116593190	3.090600E+01	  0.116593190	8.553600E+01	  0.116593190	3.705100E+01
484	  0.116793588	-8.774000E+00	  0.116793588	2.995200E+01	  0.116793588	8.646700E+01	  0.116793588	3.625000E+01
485	  0.116993994	-8.803000E+00	  0.116993994	2.902100E+01	  0.116993994	8.735100E+01	  0.116993994	3.542500E+01
486	  0.117194392	-8.839000E+00	  0.117194392	2.811600E+01	  0.117194392	8.815500E+01	  0.117194392	3.454100E+01
487	  0.117394790	-8.875000E+00	  0.117394790	2.713700E+01	  0.117394790	8.901500E+01	  0.117394790	3.357800E+01
488	  0.117595196	-8.908000E+00	  0.117595196	2.620000E+01	  0.117595196	8.981700E+01	  0.117595196	3.263500E+01
489	  0.117795594	-8.956000E+00	  0.117795594	2.523300E+01	  0.117795594	9.053800E+01	  0.117795594	3.153800E+01
490	  0.117995992	-8.999000E+00	  0.117995992	2.422300E+01	  0.117995992	9.129500E+01	  0.117995992	3.041300E+01
491	  0.118196398	-9.046000E+00	  0.118196398	2.324100E+01	  0.118196398	9.196200E+01	  0.118196398	2.925900E+01
492	  0.118396796	-9.096000E+00	  0.118396796	2.219400E+01	  0.118396796	9.262400E+01	  0.118396796	2.800200E+01
493	  0.118597202	-9.145000E+00	  0.118597202	2.115700E+01	  0.118597202	9.324100E+01	  0.118597202	2.673900E+01
494	  0.118797600	-9.200000E+00	  0.118797600	2.004100E+01	  0.118797600	9.383800E+01	  0.118797600	2.534600E+01
