! Anritsu VNA Master:             	Model: MS2036C/10/77
! SN:             	1601066
! /bd0/18may10/256.ew.m9.txt
! Existing Calibration Information:
! TYPE:             	Current Settings	Active Cal Settings
! TIME:             	05/10/2018 10:31:14 AM	05/10/2018 10:22:12 AM
! INTERNAL TEMP:    	47.3 C	47.0 C
! # POINTS:         	494	494
! START FREQ:       	20.000 MHz	20.000 MHz
! STOP FREQ:        	118.797 594 MHz	118.797 594 MHz
! SOURCE POWER:     	High	High
! IFBW:             	50 Hz	50 Hz
! AVG FACTOR:       	  1 	  1 
! REF PLANE 1:      	0 mm	0 mm
! REF PLANE 2:      	0 mm	0 mm
! CAL TYPE:         	Full S22	Full S22
! CAL METHOD:       	SOLT	SOLT
! CAL LINE TYPE:    	Coax	Coax
! DUT PORT 1:       	K-Conn(M)	K-Conn(M)
! DUT PORT 2:       	K-Conn(M)	K-Conn(M)
! CAL STATUS:       	OK: Accuracy High	--
! PROP-V:       	0.700
! CABLE LOSS:       	0.000 dB/m
! REF IMPEDANCE:       	50.0
! Trace Specific Parameters:	TR1	TR2	TR3	TR4
! TRACE.#.Y (GRAPH TYPE)	LOG MAG	PHASE	REAL IMPEDANCE	IMAGINARY IMPEDANCE
! TRACE.#.X 	FREQ.GHZ	FREQ.GHZ	FREQ.GHZ	FREQ.GHZ
! S-PARAMETER	S22	S22	S22	S22
! SMOOTH/APERTURE %	0	0	0	0
! WINDOW	NSL	NSL	NSL	NSL
! GATING	OFF	OFF	OFF	OFF
! FGTD	OFF	OFF	OFF	OFF
Marker Information per Trace:	TR1	TR2	TR3	TR4
!MK1	--	"MK1 TR2:  20.000 MHz,PH:-127.01°"	--	--
!MK2	--	--	"MK2 TR3:  70.100 200 MHz,Z:(16.377 ohm, -1.268 ohm)"	--
!MK3	--	--	--	--
!MK4	--	--	--	--
!MK5	--	--	--	--
!MK6	--	--	--	--
!MK7	--	--	--	--
!MK8	--	--	--	--
PNT	TR1.FREQ.GHZ	TR1.LOG MAG.dB	TR2.FREQ.GHZ	TR2.PHASE.deg	TR3.FREQ.GHZ	TR3.REAL IMPEDANCE.ohm	TR4.FREQ.GHZ	TR4.IMAGINARY IMPEDANCE.ohm
1	  0.020000000	-6.100000E-01	  0.020000000	-1.270080E+02	  0.020000000	2.193000E+00	  0.020000000	-2.488500E+01
2	  0.020200402	-6.140000E-01	  0.020200402	-1.284790E+02	  0.020200402	2.179000E+00	  0.020200402	-2.409100E+01
3	  0.020400802	-6.170000E-01	  0.020400802	-1.299610E+02	  0.020400802	2.162000E+00	  0.020400802	-2.330000E+01
4	  0.020601204	-6.210000E-01	  0.020601204	-1.314500E+02	  0.020601204	2.151000E+00	  0.020601204	-2.251400E+01
5	  0.020801604	-6.260000E-01	  0.020801604	-1.329850E+02	  0.020801604	2.143000E+00	  0.020801604	-2.171400E+01
6	  0.021002004	-6.300000E-01	  0.021002004	-1.345270E+02	  0.021002004	2.131000E+00	  0.021002004	-2.092000E+01
7	  0.021202406	-6.360000E-01	  0.021202406	-1.360640E+02	  0.021202406	2.127000E+00	  0.021202406	-2.013700E+01
8	  0.021402806	-6.380000E-01	  0.021402806	-1.376010E+02	  0.021402806	2.112000E+00	  0.021402806	-1.936200E+01
9	  0.021603208	-6.420000E-01	  0.021603208	-1.391340E+02	  0.021603208	2.105000E+00	  0.021603208	-1.859800E+01
10	  0.021803608	-6.470000E-01	  0.021803608	-1.406710E+02	  0.021803608	2.100000E+00	  0.021803608	-1.783900E+01
11	  0.022004008	-6.530000E-01	  0.022004008	-1.422230E+02	  0.022004008	2.099000E+00	  0.022004008	-1.708000E+01
12	  0.022204408	-6.590000E-01	  0.022204408	-1.437890E+02	  0.022204408	2.098000E+00	  0.022204408	-1.632100E+01
13	  0.022404809	-6.650000E-01	  0.022404809	-1.453940E+02	  0.022404809	2.099000E+00	  0.022404809	-1.555100E+01
14	  0.022605211	-6.690000E-01	  0.022605211	-1.469790E+02	  0.022605211	2.094000E+00	  0.022605211	-1.479600E+01
15	  0.022805611	-6.790000E-01	  0.022805611	-1.485690E+02	  0.022805611	2.108000E+00	  0.022805611	-1.404500E+01
16	  0.023006011	-6.850000E-01	  0.023006011	-1.501590E+02	  0.023006011	2.110000E+00	  0.023006011	-1.330000E+01
17	  0.023206413	-6.890000E-01	  0.023206413	-1.517530E+02	  0.023206413	2.108000E+00	  0.023206413	-1.255900E+01
18	  0.023406813	-6.940000E-01	  0.023406813	-1.533620E+02	  0.023406813	2.110000E+00	  0.023406813	-1.181600E+01
19	  0.023607215	-7.030000E-01	  0.023607215	-1.549670E+02	  0.023607215	2.124000E+00	  0.023607215	-1.108000E+01
20	  0.023807615	-7.160000E-01	  0.023807615	-1.565940E+02	  0.023807615	2.149000E+00	  0.023807615	-1.033800E+01
21	  0.024008015	-7.250000E-01	  0.024008015	-1.582390E+02	  0.024008015	2.164000E+00	  0.024008015	-9.593000E+00
22	  0.024208417	-7.320000E-01	  0.024208417	-1.598980E+02	  0.024208417	2.174000E+00	  0.024208417	-8.845000E+00
23	  0.024408817	-7.400000E-01	  0.024408817	-1.615590E+02	  0.024408817	2.187000E+00	  0.024408817	-8.101000E+00
24	  0.024609219	-7.490000E-01	  0.024609219	-1.632280E+02	  0.024609219	2.202000E+00	  0.024609219	-7.356000E+00
25	  0.024809619	-7.590000E-01	  0.024809619	-1.648920E+02	  0.024809619	2.223000E+00	  0.024809619	-6.617000E+00
26	  0.025010020	-7.720000E-01	  0.025010020	-1.665640E+02	  0.025010020	2.252000E+00	  0.025010020	-5.877000E+00
27	  0.025210422	-7.830000E-01	  0.025210422	-1.682460E+02	  0.025210422	2.277000E+00	  0.025210422	-5.135000E+00
28	  0.025410822	-7.960000E-01	  0.025410822	-1.699370E+02	  0.025410822	2.309000E+00	  0.025410822	-4.392000E+00
29	  0.025611224	-8.110000E-01	  0.025611224	-1.716530E+02	  0.025611224	2.345000E+00	  0.025611224	-3.640000E+00
30	  0.025811624	-8.230000E-01	  0.025811624	-1.733770E+02	  0.025811624	2.377000E+00	  0.025811624	-2.886000E+00
31	  0.026012026	-8.360000E-01	  0.026012026	-1.751080E+02	  0.026012026	2.408000E+00	  0.026012026	-2.130000E+00
32	  0.026212426	-8.500000E-01	  0.026212426	-1.768540E+02	  0.026212426	2.446000E+00	  0.026212426	-1.369000E+00
33	  0.026412826	-8.670000E-01	  0.026412826	-1.786030E+02	  0.026412826	2.494000E+00	  0.026412826	-6.070000E-01
34	  0.026613226	-8.810000E-01	  0.026613226	1.796320E+02	  0.026613226	2.535000E+00	  0.026613226	1.590000E-01
35	  0.026813626	-8.990000E-01	  0.026813626	1.778620E+02	  0.026813626	2.586000E+00	  0.026813626	9.300000E-01
36	  0.027014028	-9.170000E-01	  0.027014028	1.760850E+02	  0.027014028	2.641000E+00	  0.027014028	1.703000E+00
37	  0.027214428	-9.340000E-01	  0.027214428	1.743110E+02	  0.027214428	2.694000E+00	  0.027214428	2.477000E+00
38	  0.027414829	-9.530000E-01	  0.027414829	1.725170E+02	  0.027414829	2.753000E+00	  0.027414829	3.259000E+00
39	  0.027615231	-9.720000E-01	  0.027615231	1.707060E+02	  0.027615231	2.814000E+00	  0.027615231	4.050000E+00
40	  0.027815631	-9.930000E-01	  0.027815631	1.688980E+02	  0.027815631	2.883000E+00	  0.027815631	4.843000E+00
41	  0.028016033	-1.014000E+00	  0.028016033	1.670730E+02	  0.028016033	2.953000E+00	  0.028016033	5.644000E+00
42	  0.028216433	-1.038000E+00	  0.028216433	1.652380E+02	  0.028216433	3.034000E+00	  0.028216433	6.453000E+00
43	  0.028416833	-1.059000E+00	  0.028416833	1.633960E+02	  0.028416833	3.111000E+00	  0.028416833	7.268000E+00
44	  0.028617235	-1.082000E+00	  0.028617235	1.615540E+02	  0.028617235	3.193000E+00	  0.028617235	8.086000E+00
45	  0.028817635	-1.105000E+00	  0.028817635	1.597170E+02	  0.028817635	3.279000E+00	  0.028817635	8.906000E+00
46	  0.029018037	-1.133000E+00	  0.029018037	1.578760E+02	  0.029018037	3.380000E+00	  0.029018037	9.731000E+00
47	  0.029218437	-1.160000E+00	  0.029218437	1.560230E+02	  0.029218437	3.484000E+00	  0.029218437	1.056700E+01
48	  0.029418837	-1.186000E+00	  0.029418837	1.541430E+02	  0.029418837	3.589000E+00	  0.029418837	1.142100E+01
49	  0.029619239	-1.215000E+00	  0.029619239	1.522660E+02	  0.029619239	3.705000E+00	  0.029619239	1.227900E+01
50	  0.029819639	-1.244000E+00	  0.029819639	1.503930E+02	  0.029819639	3.824000E+00	  0.029819639	1.314100E+01
51	  0.030020041	-1.272000E+00	  0.030020041	1.484970E+02	  0.030020041	3.946000E+00	  0.030020041	1.402100E+01
52	  0.030220442	-1.301000E+00	  0.030220442	1.466070E+02	  0.030220442	4.072000E+00	  0.030220442	1.490600E+01
53	  0.030420844	-1.330000E+00	  0.030420844	1.447270E+02	  0.030420844	4.206000E+00	  0.030420844	1.579300E+01
54	  0.030621244	-1.362000E+00	  0.030621244	1.428390E+02	  0.030621244	4.353000E+00	  0.030621244	1.669200E+01
55	  0.030821642	-1.396000E+00	  0.030821642	1.409360E+02	  0.030821642	4.513000E+00	  0.030821642	1.760800E+01
56	  0.031022044	-1.429000E+00	  0.031022044	1.390120E+02	  0.031022044	4.672000E+00	  0.031022044	1.854400E+01
57	  0.031222444	-1.458000E+00	  0.031222444	1.370930E+02	  0.031222444	4.830000E+00	  0.031222444	1.948900E+01
58	  0.031422846	-1.491000E+00	  0.031422846	1.351240E+02	  0.031422846	5.007000E+00	  0.031422846	2.047000E+01
59	  0.031623244	-1.527000E+00	  0.031623244	1.331510E+02	  0.031623244	5.199000E+00	  0.031623244	2.146400E+01
60	  0.031823646	-1.561000E+00	  0.031823646	1.311770E+02	  0.031823646	5.396000E+00	  0.031823646	2.247300E+01
61	  0.032024048	-1.599000E+00	  0.032024048	1.292080E+02	  0.032024048	5.614000E+00	  0.032024048	2.349200E+01
62	  0.032224450	-1.636000E+00	  0.032224450	1.272200E+02	  0.032224450	5.840000E+00	  0.032224450	2.453600E+01
63	  0.032424849	-1.676000E+00	  0.032424849	1.252180E+02	  0.032424849	6.086000E+00	  0.032424849	2.560400E+01
64	  0.032625251	-1.715000E+00	  0.032625251	1.231940E+02	  0.032625251	6.341000E+00	  0.032625251	2.670000E+01
65	  0.032825653	-1.754000E+00	  0.032825653	1.211610E+02	  0.032825653	6.612000E+00	  0.032825653	2.782000E+01
66	  0.033026051	-1.794000E+00	  0.033026051	1.191050E+02	  0.033026051	6.899000E+00	  0.033026051	2.897200E+01
67	  0.033226453	-1.835000E+00	  0.033226453	1.170810E+02	  0.033226453	7.203000E+00	  0.033226453	3.012700E+01
68	  0.033426855	-1.877000E+00	  0.033426855	1.150290E+02	  0.033426855	7.529000E+00	  0.033426855	3.131900E+01
69	  0.033627257	-1.918000E+00	  0.033627257	1.129860E+02	  0.033627257	7.866000E+00	  0.033627257	3.252900E+01
70	  0.033827655	-1.963000E+00	  0.033827655	1.109390E+02	  0.033827655	8.240000E+00	  0.033827655	3.376500E+01
71	  0.034028057	-2.007000E+00	  0.034028057	1.088790E+02	  0.034028057	8.634000E+00	  0.034028057	3.503300E+01
72	  0.034228459	-2.052000E+00	  0.034228459	1.068120E+02	  0.034228459	9.051000E+00	  0.034228459	3.633400E+01
73	  0.034428857	-2.098000E+00	  0.034428857	1.047500E+02	  0.034428857	9.498000E+00	  0.034428857	3.765900E+01
74	  0.034629259	-2.146000E+00	  0.034629259	1.026540E+02	  0.034629259	9.985000E+00	  0.034629259	3.903600E+01
75	  0.034829661	-2.191000E+00	  0.034829661	1.005770E+02	  0.034829661	1.048800E+01	  0.034829661	4.043400E+01
76	  0.035030060	-2.242000E+00	  0.035030060	9.850400E+01	  0.035030060	1.104600E+01	  0.035030060	4.185700E+01
77	  0.035230462	-2.288000E+00	  0.035230462	9.641600E+01	  0.035230462	1.162200E+01	  0.035230462	4.333100E+01
78	  0.035430863	-2.337000E+00	  0.035430863	9.433600E+01	  0.035430863	1.224500E+01	  0.035430863	4.483300E+01
79	  0.035631265	-2.389000E+00	  0.035631265	9.227200E+01	  0.035631265	1.292500E+01	  0.035631265	4.635600E+01
80	  0.035831664	-2.439000E+00	  0.035831664	9.017400E+01	  0.035831664	1.364600E+01	  0.035831664	4.794900E+01
81	  0.036032066	-2.488000E+00	  0.036032066	8.810700E+01	  0.036032066	1.440100E+01	  0.036032066	4.956100E+01
82	  0.036232468	-2.538000E+00	  0.036232468	8.603500E+01	  0.036232468	1.521900E+01	  0.036232468	5.121800E+01
83	  0.036432866	-2.590000E+00	  0.036432866	8.393800E+01	  0.036432866	1.611600E+01	  0.036432866	5.293700E+01
84	  0.036633268	-2.643000E+00	  0.036633268	8.182700E+01	  0.036633268	1.708600E+01	  0.036633268	5.471500E+01
85	  0.036833670	-2.698000E+00	  0.036833670	7.975200E+01	  0.036833670	1.813000E+01	  0.036833670	5.650400E+01
86	  0.037034072	-2.753000E+00	  0.037034072	7.766400E+01	  0.037034072	1.925700E+01	  0.037034072	5.835400E+01
87	  0.037234470	-2.807000E+00	  0.037234470	7.556500E+01	  0.037234470	2.046900E+01	  0.037234470	6.026800E+01
88	  0.037434869	-2.859000E+00	  0.037434869	7.347200E+01	  0.037434869	2.176200E+01	  0.037434869	6.223400E+01
89	  0.037635271	-2.914000E+00	  0.037635271	7.135700E+01	  0.037635271	2.318800E+01	  0.037635271	6.426800E+01
90	  0.037835669	-2.971000E+00	  0.037835669	6.923800E+01	  0.037835669	2.475300E+01	  0.037835669	6.635200E+01
91	  0.038036071	-3.029000E+00	  0.038036071	6.710100E+01	  0.038036071	2.646400E+01	  0.038036071	6.850600E+01
92	  0.038236473	-3.087000E+00	  0.038236473	6.497500E+01	  0.038236473	2.832400E+01	  0.038236473	7.069600E+01
93	  0.038436871	-3.147000E+00	  0.038436871	6.283700E+01	  0.038436871	3.036100E+01	  0.038436871	7.294600E+01
94	  0.038637273	-3.205000E+00	  0.038637273	6.070600E+01	  0.038637273	3.256600E+01	  0.038637273	7.523500E+01
95	  0.038837675	-3.261000E+00	  0.038837675	5.860000E+01	  0.038837675	3.491900E+01	  0.038837675	7.755200E+01
96	  0.039038073	-3.315000E+00	  0.039038073	5.649000E+01	  0.039038073	3.747900E+01	  0.039038073	7.991800E+01
97	  0.039238475	-3.373000E+00	  0.039238475	5.436000E+01	  0.039238475	4.033300E+01	  0.039238475	8.230600E+01
98	  0.039438877	-3.432000E+00	  0.039438877	5.226200E+01	  0.039438877	4.341200E+01	  0.039438877	8.466200E+01
99	  0.039639279	-3.490000E+00	  0.039639279	5.012100E+01	  0.039639279	4.683400E+01	  0.039639279	8.706800E+01
100	  0.039839678	-3.546000E+00	  0.039839678	4.800300E+01	  0.039839678	5.051800E+01	  0.039839678	8.944700E+01
101	  0.040040080	-3.601000E+00	  0.040040080	4.586400E+01	  0.040040080	5.457500E+01	  0.040040080	9.181500E+01
102	  0.040240481	-3.657000E+00	  0.040240481	4.374300E+01	  0.040240481	5.899200E+01	  0.040240481	9.406400E+01
103	  0.040440880	-3.712000E+00	  0.040440880	4.164300E+01	  0.040440880	6.376400E+01	  0.040440880	9.617900E+01
104	  0.040641282	-3.768000E+00	  0.040641282	3.954400E+01	  0.040641282	6.897000E+01	  0.040641282	9.811300E+01
105	  0.040841684	-3.822000E+00	  0.040841684	3.747300E+01	  0.040841684	7.455400E+01	  0.040841684	9.980600E+01
106	  0.041042086	-3.879000E+00	  0.041042086	3.539500E+01	  0.041042086	8.064200E+01	  0.041042086	1.011690E+02
107	  0.041242484	-3.936000E+00	  0.041242484	3.331800E+01	  0.041242484	8.720700E+01	  0.041242484	1.021540E+02
108	  0.041442886	-3.991000E+00	  0.041442886	3.122800E+01	  0.041442886	9.429000E+01	  0.041442886	1.027150E+02
109	  0.041643288	-4.043000E+00	  0.041643288	2.914300E+01	  0.041643288	1.018310E+02	  0.041643288	1.027630E+02
110	  0.041843686	-4.098000E+00	  0.041843686	2.708100E+01	  0.041843686	1.097450E+02	  0.041843686	1.020620E+02
111	  0.042044088	-4.151000E+00	  0.042044088	2.503700E+01	  0.042044088	1.179680E+02	  0.042044088	1.005720E+02
112	  0.042244490	-4.203000E+00	  0.042244490	2.300500E+01	  0.042244490	1.264360E+02	  0.042244490	9.822300E+01
113	  0.042444889	-4.256000E+00	  0.042444889	2.097900E+01	  0.042444889	1.350450E+02	  0.042444889	9.482100E+01
114	  0.042645290	-4.308000E+00	  0.042645290	1.896400E+01	  0.042645290	1.436270E+02	  0.042645290	9.034100E+01
115	  0.042845692	-4.362000E+00	  0.042845692	1.695400E+01	  0.042845692	1.519810E+02	  0.042845692	8.462800E+01
116	  0.043046094	-4.413000E+00	  0.043046094	1.494800E+01	  0.043046094	1.599790E+02	  0.043046094	7.782900E+01
117	  0.043246493	-4.463000E+00	  0.043246493	1.293100E+01	  0.043246493	1.674040E+02	  0.043246493	6.979100E+01
118	  0.043446895	-4.509000E+00	  0.043446895	1.094500E+01	  0.043446895	1.739660E+02	  0.043446895	6.085600E+01
119	  0.043647297	-4.555000E+00	  0.043647297	8.954000E+00	  0.043647297	1.794860E+02	  0.043647297	5.090800E+01
120	  0.043847695	-4.603000E+00	  0.043847695	6.972000E+00	  0.043847695	1.836430E+02	  0.043847695	4.015800E+01
121	  0.044048097	-4.649000E+00	  0.044048097	4.988000E+00	  0.044048097	1.864560E+02	  0.044048097	2.889500E+01
122	  0.044248499	-4.693000E+00	  0.044248499	3.021000E+00	  0.044248499	1.877790E+02	  0.044248499	1.745600E+01
123	  0.044448901	-4.736000E+00	  0.044448901	1.068000E+00	  0.044448901	1.876990E+02	  0.044448901	6.111000E+00
124	  0.044649299	-4.780000E+00	  0.044649299	-9.080000E-01	  0.044649299	1.861180E+02	  0.044649299	-5.098000E+00
125	  0.044849701	-4.822000E+00	  0.044849701	-2.854000E+00	  0.044849701	1.832750E+02	  0.044849701	-1.562500E+01
126	  0.045050103	-4.861000E+00	  0.045050103	-4.820000E+00	  0.045050103	1.793470E+02	  0.045050103	-2.557100E+01
127	  0.045250501	-4.905000E+00	  0.045250501	-6.767000E+00	  0.045250501	1.743360E+02	  0.045250501	-3.451500E+01
128	  0.045450903	-4.944000E+00	  0.045450903	-8.703000E+00	  0.045450903	1.687070E+02	  0.045450903	-4.250900E+01
129	  0.045651305	-4.983000E+00	  0.045651305	-1.064600E+01	  0.045651305	1.625050E+02	  0.045651305	-4.956200E+01
130	  0.045851704	-5.019000E+00	  0.045851704	-1.254700E+01	  0.045851704	1.561060E+02	  0.045851704	-5.553700E+01
131	  0.046052102	-5.057000E+00	  0.046052102	-1.445600E+01	  0.046052102	1.494360E+02	  0.046052102	-6.058900E+01
132	  0.046252504	-5.095000E+00	  0.046252504	-1.632500E+01	  0.046252504	1.428030E+02	  0.046252504	-6.465300E+01
133	  0.046452906	-5.133000E+00	  0.046452906	-1.818300E+01	  0.046452906	1.362550E+02	  0.046452906	-6.792200E+01
134	  0.046653304	-5.166000E+00	  0.046653304	-2.002400E+01	  0.046653304	1.299270E+02	  0.046653304	-7.055200E+01
135	  0.046853706	-5.200000E+00	  0.046853706	-2.183500E+01	  0.046853706	1.238550E+02	  0.046853706	-7.252500E+01
136	  0.047054108	-5.224000E+00	  0.047054108	-2.366500E+01	  0.047054108	1.180010E+02	  0.047054108	-7.418400E+01
137	  0.047254506	-5.248000E+00	  0.047254506	-2.550600E+01	  0.047254506	1.123230E+02	  0.047254506	-7.537200E+01
138	  0.047454908	-5.271000E+00	  0.047454908	-2.733300E+01	  0.047454908	1.069260E+02	  0.047454908	-7.613600E+01
139	  0.047655310	-5.293000E+00	  0.047655310	-2.916000E+01	  0.047655310	1.017800E+02	  0.047655310	-7.655200E+01
140	  0.047855709	-5.317000E+00	  0.047855709	-3.096600E+01	  0.047855709	9.694100E+01	  0.047855709	-7.659400E+01
141	  0.048056111	-5.340000E+00	  0.048056111	-3.277900E+01	  0.048056111	9.234400E+01	  0.048056111	-7.641300E+01
142	  0.048256513	-5.362000E+00	  0.048256513	-3.459100E+01	  0.048256513	8.800000E+01	  0.048256513	-7.600900E+01
143	  0.048456915	-5.386000E+00	  0.048456915	-3.639200E+01	  0.048456915	8.393500E+01	  0.048456915	-7.538000E+01
144	  0.048657313	-5.410000E+00	  0.048657313	-3.820100E+01	  0.048657313	8.008900E+01	  0.048657313	-7.459900E+01
145	  0.048857715	-5.431000E+00	  0.048857715	-3.999200E+01	  0.048857715	7.650500E+01	  0.048857715	-7.372700E+01
146	  0.049058117	-5.452000E+00	  0.049058117	-4.176300E+01	  0.049058117	7.317000E+01	  0.049058117	-7.276700E+01
147	  0.049258515	-5.478000E+00	  0.049258515	-4.351200E+01	  0.049258515	7.009100E+01	  0.049258515	-7.166500E+01
148	  0.049458917	-5.498000E+00	  0.049458917	-4.526600E+01	  0.049458917	6.716800E+01	  0.049458917	-7.056700E+01
149	  0.049659319	-5.524000E+00	  0.049659319	-4.698300E+01	  0.049659319	6.450000E+01	  0.049659319	-6.937000E+01
150	  0.049859721	-5.546000E+00	  0.049859721	-4.870400E+01	  0.049859721	6.196800E+01	  0.049859721	-6.818500E+01
151	  0.050060119	-5.570000E+00	  0.050060119	-5.041500E+01	  0.050060119	5.960800E+01	  0.050060119	-6.695200E+01
152	  0.050260521	-5.589000E+00	  0.050260521	-5.212100E+01	  0.050260521	5.737400E+01	  0.050260521	-6.574200E+01
153	  0.050460923	-5.609000E+00	  0.050460923	-5.383500E+01	  0.050460923	5.526000E+01	  0.050460923	-6.450800E+01
154	  0.050661322	-5.625000E+00	  0.050661322	-5.552100E+01	  0.050661322	5.328900E+01	  0.050661322	-6.330600E+01
155	  0.050861724	-5.643000E+00	  0.050861724	-5.720700E+01	  0.050861724	5.143600E+01	  0.050861724	-6.208100E+01
156	  0.051062126	-5.661000E+00	  0.051062126	-5.884200E+01	  0.051062126	4.973600E+01	  0.051062126	-6.089200E+01
157	  0.051262524	-5.684000E+00	  0.051262524	-6.050200E+01	  0.051262524	4.812500E+01	  0.051262524	-5.965500E+01
158	  0.051462926	-5.698000E+00	  0.051462926	-6.214400E+01	  0.051462926	4.658400E+01	  0.051462926	-5.848800E+01
159	  0.051663328	-5.716000E+00	  0.051663328	-6.376600E+01	  0.051663328	4.515700E+01	  0.051663328	-5.731800E+01
160	  0.051863730	-5.733000E+00	  0.051863730	-6.539100E+01	  0.051863730	4.380000E+01	  0.051863730	-5.615700E+01
161	  0.052064128	-5.747000E+00	  0.052064128	-6.702100E+01	  0.052064128	4.249200E+01	  0.052064128	-5.502200E+01
162	  0.052264530	-5.757000E+00	  0.052264530	-6.859900E+01	  0.052264530	4.127900E+01	  0.052264530	-5.394500E+01
163	  0.052464932	-5.771000E+00	  0.052464932	-7.018300E+01	  0.052464932	4.013900E+01	  0.052464932	-5.285200E+01
164	  0.052665330	-5.784000E+00	  0.052665330	-7.175500E+01	  0.052665330	3.905600E+01	  0.052665330	-5.178400E+01
165	  0.052865732	-5.797000E+00	  0.052865732	-7.328300E+01	  0.052865732	3.805700E+01	  0.052865732	-5.075200E+01
166	  0.053066134	-5.811000E+00	  0.053066134	-7.484900E+01	  0.053066134	3.708200E+01	  0.053066134	-4.970700E+01
167	  0.053266536	-5.824000E+00	  0.053266536	-7.636600E+01	  0.053266536	3.618200E+01	  0.053266536	-4.870400E+01
168	  0.053466935	-5.837000E+00	  0.053466935	-7.789100E+01	  0.053466935	3.531700E+01	  0.053466935	-4.771000E+01
169	  0.053667337	-5.847000E+00	  0.053667337	-7.940300E+01	  0.053667337	3.448900E+01	  0.053667337	-4.674200E+01
170	  0.053867739	-5.858000E+00	  0.053867739	-8.090400E+01	  0.053867739	3.370600E+01	  0.053867739	-4.579200E+01
171	  0.054068137	-5.868000E+00	  0.054068137	-8.239500E+01	  0.054068137	3.295800E+01	  0.054068137	-4.486300E+01
172	  0.054268539	-5.878000E+00	  0.054268539	-8.391000E+01	  0.054268539	3.223300E+01	  0.054268539	-4.392800E+01
173	  0.054468941	-5.887000E+00	  0.054468941	-8.534000E+01	  0.054468941	3.157700E+01	  0.054468941	-4.305500E+01
174	  0.054669335	-5.902000E+00	  0.054669335	-8.681700E+01	  0.054669335	3.094500E+01	  0.054669335	-4.215100E+01
175	  0.054869737	-5.911000E+00	  0.054869737	-8.826400E+01	  0.054869737	3.033600E+01	  0.054869737	-4.128900E+01
176	  0.055070139	-5.920000E+00	  0.055070139	-8.968800E+01	  0.055070139	2.975800E+01	  0.055070139	-4.045200E+01
177	  0.055270538	-5.927000E+00	  0.055270538	-9.113900E+01	  0.055270538	2.918900E+01	  0.055270538	-3.961300E+01
178	  0.055470940	-5.938000E+00	  0.055470940	-9.257500E+01	  0.055470940	2.865900E+01	  0.055470940	-3.878300E+01
179	  0.055671342	-5.946000E+00	  0.055671342	-9.398600E+01	  0.055671342	2.815000E+01	  0.055671342	-3.798400E+01
180	  0.055871744	-5.953000E+00	  0.055871744	-9.540200E+01	  0.055871744	2.766000E+01	  0.055871744	-3.719100E+01
181	  0.056072142	-5.960000E+00	  0.056072142	-9.678900E+01	  0.056072142	2.719400E+01	  0.056072142	-3.642500E+01
182	  0.056272544	-5.969000E+00	  0.056272544	-9.819000E+01	  0.056272544	2.675000E+01	  0.056272544	-3.565400E+01
183	  0.056472946	-5.974000E+00	  0.056472946	-9.955900E+01	  0.056472946	2.632200E+01	  0.056472946	-3.491500E+01
184	  0.056673344	-5.982000E+00	  0.056673344	-1.009270E+02	  0.056673344	2.591800E+01	  0.056673344	-3.418000E+01
185	  0.056873746	-5.986000E+00	  0.056873746	-1.022990E+02	  0.056873746	2.551400E+01	  0.056873746	-3.345900E+01
186	  0.057074148	-5.992000E+00	  0.057074148	-1.036580E+02	  0.057074148	2.513800E+01	  0.057074148	-3.274500E+01
187	  0.057274550	-5.998000E+00	  0.057274550	-1.050100E+02	  0.057274550	2.477500E+01	  0.057274550	-3.204500E+01
188	  0.057474948	-6.001000E+00	  0.057474948	-1.063650E+02	  0.057474948	2.441600E+01	  0.057474948	-3.135400E+01
189	  0.057675350	-6.005000E+00	  0.057675350	-1.077040E+02	  0.057675350	2.408100E+01	  0.057675350	-3.067300E+01
190	  0.057875752	-6.010000E+00	  0.057875752	-1.090070E+02	  0.057875752	2.376600E+01	  0.057875752	-3.001800E+01
191	  0.058076151	-6.016000E+00	  0.058076151	-1.103510E+02	  0.058076151	2.345700E+01	  0.058076151	-2.934600E+01
192	  0.058276553	-6.020000E+00	  0.058276553	-1.116230E+02	  0.058276553	2.317000E+01	  0.058276553	-2.871800E+01
193	  0.058476955	-6.022000E+00	  0.058476955	-1.129150E+02	  0.058476955	2.287900E+01	  0.058476955	-2.808900E+01
194	  0.058677353	-6.026000E+00	  0.058677353	-1.142000E+02	  0.058677353	2.260900E+01	  0.058677353	-2.746600E+01
195	  0.058877755	-6.030000E+00	  0.058877755	-1.154770E+02	  0.058877755	2.235000E+01	  0.058877755	-2.685100E+01
196	  0.059078157	-6.031000E+00	  0.059078157	-1.167500E+02	  0.059078157	2.209000E+01	  0.059078157	-2.624800E+01
197	  0.059278559	-6.032000E+00	  0.059278559	-1.179900E+02	  0.059278559	2.184800E+01	  0.059278559	-2.566300E+01
198	  0.059478957	-6.035000E+00	  0.059478957	-1.192240E+02	  0.059478957	2.161900E+01	  0.059478957	-2.508400E+01
199	  0.059679359	-6.042000E+00	  0.059679359	-1.204690E+02	  0.059679359	2.140800E+01	  0.059679359	-2.450000E+01
200	  0.059879761	-6.046000E+00	  0.059879761	-1.216820E+02	  0.059879761	2.120100E+01	  0.059879761	-2.393800E+01
201	  0.060080159	-6.053000E+00	  0.060080159	-1.228920E+02	  0.060080159	2.101200E+01	  0.060080159	-2.337700E+01
202	  0.060280561	-6.058000E+00	  0.060280561	-1.240890E+02	  0.060280561	2.082600E+01	  0.060280561	-2.282900E+01
203	  0.060480963	-6.064000E+00	  0.060480963	-1.252690E+02	  0.060480963	2.065100E+01	  0.060480963	-2.229100E+01
204	  0.060681365	-6.067000E+00	  0.060681365	-1.264380E+02	  0.060681365	2.047400E+01	  0.060681365	-2.176600E+01
205	  0.060881764	-6.072000E+00	  0.060881764	-1.276150E+02	  0.060881764	2.030800E+01	  0.060881764	-2.123800E+01
206	  0.061082166	-6.077000E+00	  0.061082166	-1.287880E+02	  0.061082166	2.014900E+01	  0.061082166	-2.071500E+01
207	  0.061282568	-6.085000E+00	  0.061282568	-1.299590E+02	  0.061282568	2.000400E+01	  0.061282568	-2.019300E+01
208	  0.061482966	-6.088000E+00	  0.061482966	-1.311180E+02	  0.061482966	1.985400E+01	  0.061482966	-1.968400E+01
209	  0.061683368	-6.094000E+00	  0.061683368	-1.322680E+02	  0.061683368	1.971600E+01	  0.061683368	-1.918000E+01
210	  0.061883770	-6.099000E+00	  0.061883770	-1.333980E+02	  0.061883770	1.958300E+01	  0.061883770	-1.868800E+01
211	  0.062084168	-6.102000E+00	  0.062084168	-1.345230E+02	  0.062084168	1.944900E+01	  0.062084168	-1.820300E+01
212	  0.062284570	-6.105000E+00	  0.062284570	-1.356610E+02	  0.062284570	1.932000E+01	  0.062284570	-1.771400E+01
213	  0.062484972	-6.102000E+00	  0.062484972	-1.367450E+02	  0.062484972	1.918600E+01	  0.062484972	-1.725600E+01
214	  0.062685370	-6.102000E+00	  0.062685370	-1.378740E+02	  0.062685370	1.905600E+01	  0.062685370	-1.677800E+01
215	  0.062885776	-6.101000E+00	  0.062885776	-1.389900E+02	  0.062885776	1.893000E+01	  0.062885776	-1.630900E+01
216	  0.063086174	-6.103000E+00	  0.063086174	-1.401090E+02	  0.063086174	1.881900E+01	  0.063086174	-1.583800E+01
217	  0.063286573	-6.101000E+00	  0.063286573	-1.411740E+02	  0.063286573	1.870300E+01	  0.063286573	-1.539600E+01
218	  0.063486971	-6.097000E+00	  0.063486971	-1.422790E+02	  0.063486971	1.858400E+01	  0.063486971	-1.493800E+01
219	  0.063687377	-6.094000E+00	  0.063687377	-1.433470E+02	  0.063687377	1.847300E+01	  0.063687377	-1.449800E+01
220	  0.063887775	-6.086000E+00	  0.063887775	-1.444620E+02	  0.063887775	1.835100E+01	  0.063887775	-1.404200E+01
221	  0.064088173	-6.080000E+00	  0.064088173	-1.455600E+02	  0.064088173	1.823700E+01	  0.064088173	-1.359500E+01
222	  0.064288579	-6.076000E+00	  0.064288579	-1.466330E+02	  0.064288579	1.813300E+01	  0.064288579	-1.315700E+01
223	  0.064488977	-6.066000E+00	  0.064488977	-1.477090E+02	  0.064488977	1.802000E+01	  0.064488977	-1.272300E+01
224	  0.064689375	-6.064000E+00	  0.064689375	-1.487820E+02	  0.064689375	1.792900E+01	  0.064689375	-1.228700E+01
225	  0.064889781	-6.053000E+00	  0.064889781	-1.498510E+02	  0.064889781	1.782000E+01	  0.064889781	-1.185900E+01
226	  0.065090179	-6.041000E+00	  0.065090179	-1.509280E+02	  0.065090179	1.771000E+01	  0.065090179	-1.142800E+01
227	  0.065290578	-6.035000E+00	  0.065290578	-1.519860E+02	  0.065290578	1.762100E+01	  0.065290578	-1.100400E+01
228	  0.065490983	-6.019000E+00	  0.065490983	-1.530420E+02	  0.065490983	1.750800E+01	  0.065490983	-1.058500E+01
229	  0.065691382	-6.010000E+00	  0.065691382	-1.541130E+02	  0.065691382	1.741700E+01	  0.065691382	-1.015800E+01
230	  0.065891780	-6.003000E+00	  0.065891780	-1.551610E+02	  0.065891780	1.733400E+01	  0.065891780	-9.741000E+00
231	  0.066092186	-5.993000E+00	  0.066092186	-1.561980E+02	  0.066092186	1.725100E+01	  0.066092186	-9.330000E+00
232	  0.066292584	-5.981000E+00	  0.066292584	-1.572610E+02	  0.066292584	1.716000E+01	  0.066292584	-8.910000E+00
233	  0.066492982	-5.972000E+00	  0.066492982	-1.583030E+02	  0.066492982	1.708200E+01	  0.066492982	-8.498000E+00
234	  0.066693388	-5.965000E+00	  0.066693388	-1.593060E+02	  0.066693388	1.701300E+01	  0.066693388	-8.101000E+00
235	  0.066893786	-5.958000E+00	  0.066893786	-1.603610E+02	  0.066893786	1.694600E+01	  0.066893786	-7.685000E+00
236	  0.067094192	-5.945000E+00	  0.067094192	-1.613880E+02	  0.067094192	1.686800E+01	  0.067094192	-7.282000E+00
237	  0.067294590	-5.942000E+00	  0.067294590	-1.624220E+02	  0.067294590	1.681600E+01	  0.067294590	-6.874000E+00
238	  0.067494988	-5.934000E+00	  0.067494988	-1.634410E+02	  0.067494988	1.675600E+01	  0.067494988	-6.473000E+00
239	  0.067695394	-5.929000E+00	  0.067695394	-1.644610E+02	  0.067695394	1.670500E+01	  0.067695394	-6.072000E+00
240	  0.067895792	-5.926000E+00	  0.067895792	-1.654940E+02	  0.067895792	1.666300E+01	  0.067895792	-5.666000E+00
241	  0.068096191	-5.922000E+00	  0.068096191	-1.665280E+02	  0.068096191	1.661800E+01	  0.068096191	-5.260000E+00
242	  0.068296596	-5.919000E+00	  0.068296596	-1.675500E+02	  0.068296596	1.658100E+01	  0.068296596	-4.859000E+00
243	  0.068496995	-5.918000E+00	  0.068496995	-1.685510E+02	  0.068496995	1.655000E+01	  0.068496995	-4.467000E+00
244	  0.068697393	-5.915000E+00	  0.068697393	-1.695910E+02	  0.068697393	1.651800E+01	  0.068697393	-4.060000E+00
245	  0.068897791	-5.908000E+00	  0.068897791	-1.706240E+02	  0.068897791	1.647800E+01	  0.068897791	-3.657000E+00
246	  0.069098189	-5.910000E+00	  0.069098189	-1.716380E+02	  0.069098189	1.646100E+01	  0.069098189	-3.260000E+00
247	  0.069298595	-5.907000E+00	  0.069298595	-1.726570E+02	  0.069298595	1.643600E+01	  0.069298595	-2.862000E+00
248	  0.069498993	-5.903000E+00	  0.069498993	-1.737290E+02	  0.069498993	1.641100E+01	  0.069498993	-2.444000E+00
249	  0.069699399	-5.906000E+00	  0.069699399	-1.747520E+02	  0.069699399	1.640300E+01	  0.069699399	-2.045000E+00
250	  0.069899797	-5.903000E+00	  0.069899797	-1.757270E+02	  0.069899797	1.638600E+01	  0.069899797	-1.665000E+00
251	  0.070100196	-5.902000E+00	  0.070100196	-1.767470E+02	  0.070100196	1.637600E+01	  0.070100196	-1.267000E+00
252	  0.070300601	-5.903000E+00	  0.070300601	-1.777680E+02	  0.070300601	1.637200E+01	  0.070300601	-8.690000E-01
253	  0.070501000	-5.900000E+00	  0.070501000	-1.787920E+02	  0.070501000	1.636000E+01	  0.070501000	-4.700000E-01
254	  0.070701398	-5.896000E+00	  0.070701398	-1.797990E+02	  0.070701398	1.634700E+01	  0.070701398	-7.800000E-02
255	  0.070901804	-5.897000E+00	  0.070901804	1.791980E+02	  0.070901804	1.635000E+01	  0.070901804	3.120000E-01
256	  0.071102202	-5.897000E+00	  0.071102202	1.781850E+02	  0.071102202	1.635400E+01	  0.071102202	7.060000E-01
257	  0.071302600	-5.896000E+00	  0.071302600	1.771560E+02	  0.071302600	1.635600E+01	  0.071302600	1.108000E+00
258	  0.071503006	-5.894000E+00	  0.071503006	1.762030E+02	  0.071503006	1.635800E+01	  0.071503006	1.479000E+00
259	  0.071703404	-5.894000E+00	  0.071703404	1.752030E+02	  0.071703404	1.636900E+01	  0.071703404	1.869000E+00
260	  0.071903802	-5.897000E+00	  0.071903802	1.742110E+02	  0.071903802	1.638700E+01	  0.071903802	2.257000E+00
261	  0.072104208	-5.897000E+00	  0.072104208	1.732630E+02	  0.072104208	1.640100E+01	  0.072104208	2.627000E+00
262	  0.072304606	-5.898000E+00	  0.072304606	1.722640E+02	  0.072304606	1.641900E+01	  0.072304606	3.017000E+00
263	  0.072505005	-5.897000E+00	  0.072505005	1.713040E+02	  0.072505005	1.643400E+01	  0.072505005	3.392000E+00
264	  0.072705410	-5.898000E+00	  0.072705410	1.703380E+02	  0.072705410	1.645800E+01	  0.072705410	3.770000E+00
265	  0.072905809	-5.897000E+00	  0.072905809	1.693660E+02	  0.072905809	1.647800E+01	  0.072905809	4.151000E+00
266	  0.073106214	-5.902000E+00	  0.073106214	1.684240E+02	  0.073106214	1.651400E+01	  0.073106214	4.520000E+00
267	  0.073306613	-5.903000E+00	  0.073306613	1.674660E+02	  0.073306613	1.654200E+01	  0.073306613	4.896000E+00
268	  0.073507011	-5.908000E+00	  0.073507011	1.665320E+02	  0.073507011	1.658200E+01	  0.073507011	5.262000E+00
269	  0.073707417	-5.911000E+00	  0.073707417	1.656010E+02	  0.073707417	1.661900E+01	  0.073707417	5.627000E+00
270	  0.073907815	-5.916000E+00	  0.073907815	1.646590E+02	  0.073907815	1.666400E+01	  0.073907815	5.997000E+00
271	  0.074108213	-5.915000E+00	  0.074108213	1.637480E+02	  0.074108213	1.669400E+01	  0.074108213	6.357000E+00
272	  0.074308619	-5.926000E+00	  0.074308619	1.628200E+02	  0.074308619	1.676000E+01	  0.074308619	6.721000E+00
273	  0.074509017	-5.928000E+00	  0.074509017	1.618830E+02	  0.074509017	1.680300E+01	  0.074509017	7.090000E+00
274	  0.074709415	-5.935000E+00	  0.074709415	1.609630E+02	  0.074709415	1.686000E+01	  0.074709415	7.453000E+00
275	  0.074909821	-5.945000E+00	  0.074909821	1.600420E+02	  0.074909821	1.692600E+01	  0.074909821	7.815000E+00
276	  0.075110219	-5.953000E+00	  0.075110219	1.591200E+02	  0.075110219	1.699100E+01	  0.075110219	8.179000E+00
277	  0.075310618	-5.959000E+00	  0.075310618	1.582190E+02	  0.075310618	1.705100E+01	  0.075310618	8.536000E+00
278	  0.075511023	-5.968000E+00	  0.075511023	1.573160E+02	  0.075511023	1.712300E+01	  0.075511023	8.893000E+00
279	  0.075711422	-5.973000E+00	  0.075711422	1.564060E+02	  0.075711422	1.718500E+01	  0.075711422	9.254000E+00
280	  0.075911827	-5.982000E+00	  0.075911827	1.554810E+02	  0.075911827	1.726200E+01	  0.075911827	9.621000E+00
281	  0.076112226	-5.994000E+00	  0.076112226	1.545800E+02	  0.076112226	1.734600E+01	  0.076112226	9.978000E+00
282	  0.076312624	-6.002000E+00	  0.076312624	1.536570E+02	  0.076312624	1.742500E+01	  0.076312624	1.034500E+01
283	  0.076513030	-6.012000E+00	  0.076513030	1.527260E+02	  0.076513030	1.751000E+01	  0.076513030	1.071500E+01
284	  0.076713428	-6.024000E+00	  0.076713428	1.518240E+02	  0.076713428	1.760400E+01	  0.076713428	1.107400E+01
285	  0.076913826	-6.036000E+00	  0.076913826	1.509020E+02	  0.076913826	1.770000E+01	  0.076913826	1.144100E+01
286	  0.077114232	-6.047000E+00	  0.077114232	1.500070E+02	  0.077114232	1.779300E+01	  0.077114232	1.179800E+01
287	  0.077314630	-6.058000E+00	  0.077314630	1.491280E+02	  0.077314630	1.788800E+01	  0.077314630	1.214900E+01
288	  0.077515028	-6.068000E+00	  0.077515028	1.482110E+02	  0.077515028	1.798500E+01	  0.077515028	1.251700E+01
289	  0.077715434	-6.081000E+00	  0.077715434	1.473180E+02	  0.077715434	1.809200E+01	  0.077715434	1.287400E+01
290	  0.077915832	-6.091000E+00	  0.077915832	1.464200E+02	  0.077915832	1.819300E+01	  0.077915832	1.323600E+01
291	  0.078116231	-6.104000E+00	  0.078116231	1.455320E+02	  0.078116231	1.830400E+01	  0.078116231	1.359200E+01
292	  0.078316636	-6.116000E+00	  0.078316636	1.446220E+02	  0.078316636	1.841700E+01	  0.078316636	1.395900E+01
293	  0.078517035	-6.125000E+00	  0.078517035	1.437430E+02	  0.078517035	1.852200E+01	  0.078517035	1.431600E+01
294	  0.078717433	-6.144000E+00	  0.078717433	1.428580E+02	  0.078717433	1.865500E+01	  0.078717433	1.466900E+01
295	  0.078917839	-6.152000E+00	  0.078917839	1.419870E+02	  0.078917839	1.876400E+01	  0.078917839	1.502400E+01
296	  0.079118237	-6.166000E+00	  0.079118237	1.411250E+02	  0.079118237	1.888600E+01	  0.079118237	1.537300E+01
297	  0.079318643	-6.182000E+00	  0.079318643	1.402450E+02	  0.079318643	1.902200E+01	  0.079318643	1.572800E+01
298	  0.079519041	-6.195000E+00	  0.079519041	1.393980E+02	  0.079519041	1.914600E+01	  0.079519041	1.607200E+01
299	  0.079719439	-6.211000E+00	  0.079719439	1.385430E+02	  0.079719439	1.928400E+01	  0.079719439	1.641700E+01
300	  0.079919845	-6.227000E+00	  0.079919845	1.376800E+02	  0.079919845	1.942500E+01	  0.079919845	1.676800E+01
301	  0.080120243	-6.240000E+00	  0.080120243	1.368160E+02	  0.080120243	1.956000E+01	  0.080120243	1.712100E+01
302	  0.080320641	-6.257000E+00	  0.080320641	1.359750E+02	  0.080320641	1.970700E+01	  0.080320641	1.746100E+01
303	  0.080521047	-6.274000E+00	  0.080521047	1.351330E+02	  0.080521047	1.985800E+01	  0.080521047	1.780300E+01
304	  0.080721445	-6.290000E+00	  0.080721445	1.342990E+02	  0.080721445	2.000600E+01	  0.080721445	1.814300E+01
305	  0.080921844	-6.306000E+00	  0.080921844	1.334780E+02	  0.080921844	2.015700E+01	  0.080921844	1.847800E+01
306	  0.081122249	-6.325000E+00	  0.081122249	1.326660E+02	  0.081122249	2.031800E+01	  0.081122249	1.880700E+01
307	  0.081322648	-6.344000E+00	  0.081322648	1.318620E+02	  0.081322648	2.048000E+01	  0.081322648	1.913300E+01
308	  0.081523046	-6.365000E+00	  0.081523046	1.310250E+02	  0.081523046	2.065500E+01	  0.081523046	1.947100E+01
309	  0.081723452	-6.378000E+00	  0.081723452	1.301940E+02	  0.081723452	2.081000E+01	  0.081723452	1.981500E+01
310	  0.081923850	-6.397000E+00	  0.081923850	1.293950E+02	  0.081923850	2.097800E+01	  0.081923850	2.014100E+01
311	  0.082124248	-6.419000E+00	  0.082124248	1.285920E+02	  0.082124248	2.116300E+01	  0.082124248	2.046500E+01
312	  0.082324654	-6.441000E+00	  0.082324654	1.278000E+02	  0.082324654	2.134700E+01	  0.082324654	2.078400E+01
313	  0.082525052	-6.461000E+00	  0.082525052	1.270100E+02	  0.082525052	2.152700E+01	  0.082525052	2.110600E+01
314	  0.082725458	-6.487000E+00	  0.082725458	1.262350E+02	  0.082725458	2.172400E+01	  0.082725458	2.141500E+01
315	  0.082925856	-6.511000E+00	  0.082925856	1.254490E+02	  0.082925856	2.192400E+01	  0.082925856	2.173000E+01
316	  0.083126254	-6.533000E+00	  0.083126254	1.246240E+02	  0.083126254	2.212700E+01	  0.083126254	2.206400E+01
317	  0.083326660	-6.556000E+00	  0.083326660	1.238570E+02	  0.083326660	2.232400E+01	  0.083326660	2.237300E+01
318	  0.083527058	-6.583000E+00	  0.083527058	1.230790E+02	  0.083527058	2.253800E+01	  0.083527058	2.268200E+01
319	  0.083727457	-6.611000E+00	  0.083727457	1.222780E+02	  0.083727457	2.276600E+01	  0.083727457	2.299900E+01
320	  0.083927862	-6.638000E+00	  0.083927862	1.214960E+02	  0.083927862	2.298800E+01	  0.083927862	2.330900E+01
321	  0.084128261	-6.661000E+00	  0.084128261	1.207370E+02	  0.084128261	2.319700E+01	  0.084128261	2.361400E+01
322	  0.084328659	-6.690000E+00	  0.084328659	1.200000E+02	  0.084328659	2.342400E+01	  0.084328659	2.390200E+01
323	  0.084529065	-6.714000E+00	  0.084529065	1.192400E+02	  0.084529065	2.364400E+01	  0.084529065	2.420500E+01
324	  0.084729463	-6.745000E+00	  0.084729463	1.184700E+02	  0.084729463	2.388900E+01	  0.084729463	2.450400E+01
325	  0.084929854	-6.773000E+00	  0.084929854	1.177010E+02	  0.084929854	2.413000E+01	  0.084929854	2.480500E+01
326	  0.085130259	-6.800000E+00	  0.085130259	1.169490E+02	  0.085130259	2.436900E+01	  0.085130259	2.510000E+01
327	  0.085330658	-6.827000E+00	  0.085330658	1.161930E+02	  0.085330658	2.461000E+01	  0.085330658	2.539600E+01
328	  0.085531056	-6.858000E+00	  0.085531056	1.154690E+02	  0.085531056	2.486000E+01	  0.085531056	2.567300E+01
329	  0.085731462	-6.887000E+00	  0.085731462	1.147630E+02	  0.085731462	2.510400E+01	  0.085731462	2.594200E+01
330	  0.085931860	-6.911000E+00	  0.085931860	1.140660E+02	  0.085931860	2.533600E+01	  0.085931860	2.621500E+01
331	  0.086132258	-6.945000E+00	  0.086132258	1.133740E+02	  0.086132258	2.559700E+01	  0.086132258	2.647000E+01
332	  0.086332664	-6.972000E+00	  0.086332664	1.126960E+02	  0.086332664	2.583700E+01	  0.086332664	2.672900E+01
333	  0.086533062	-7.001000E+00	  0.086533062	1.120060E+02	  0.086533062	2.608900E+01	  0.086533062	2.699000E+01
334	  0.086733460	-7.024000E+00	  0.086733460	1.113750E+02	  0.086733460	2.631400E+01	  0.086733460	2.723200E+01
335	  0.086933866	-7.052000E+00	  0.086933866	1.107290E+02	  0.086933866	2.655800E+01	  0.086933866	2.747400E+01
336	  0.087134264	-7.075000E+00	  0.087134264	1.100740E+02	  0.087134264	2.679700E+01	  0.087134264	2.772500E+01
337	  0.087334670	-7.097000E+00	  0.087334670	1.094500E+02	  0.087334670	2.702300E+01	  0.087334670	2.796600E+01
338	  0.087535068	-7.118000E+00	  0.087535068	1.088250E+02	  0.087535068	2.725200E+01	  0.087535068	2.820700E+01
339	  0.087735467	-7.131000E+00	  0.087735467	1.082280E+02	  0.087735467	2.745000E+01	  0.087735467	2.845100E+01
340	  0.087935872	-7.153000E+00	  0.087935872	1.075930E+02	  0.087935872	2.768900E+01	  0.087935872	2.869400E+01
341	  0.088136271	-7.161000E+00	  0.088136271	1.069390E+02	  0.088136271	2.789700E+01	  0.088136271	2.897100E+01
342	  0.088336669	-7.174000E+00	  0.088336669	1.062890E+02	  0.088336669	2.811900E+01	  0.088336669	2.923800E+01
343	  0.088537075	-7.182000E+00	  0.088537075	1.056140E+02	  0.088537075	2.833800E+01	  0.088537075	2.952500E+01
344	  0.088737473	-7.194000E+00	  0.088737473	1.049360E+02	  0.088737473	2.857500E+01	  0.088737473	2.980500E+01
345	  0.088937871	-7.202000E+00	  0.088937871	1.042170E+02	  0.088937871	2.881400E+01	  0.088937871	3.011200E+01
346	  0.089138277	-7.218000E+00	  0.089138277	1.035250E+02	  0.089138277	2.907300E+01	  0.089138277	3.039200E+01
347	  0.089338675	-7.238000E+00	  0.089338675	1.028210E+02	  0.089338675	2.935000E+01	  0.089338675	3.066800E+01
348	  0.089539073	-7.255000E+00	  0.089539073	1.021150E+02	  0.089539073	2.962500E+01	  0.089539073	3.095000E+01
349	  0.089739479	-7.275000E+00	  0.089739479	1.014090E+02	  0.089739479	2.991200E+01	  0.089739479	3.122600E+01
350	  0.089939877	-7.295000E+00	  0.089939877	1.006940E+02	  0.089939877	3.020700E+01	  0.089939877	3.150400E+01
351	  0.090140276	-7.315000E+00	  0.090140276	9.994800E+01	  0.090140276	3.051800E+01	  0.090140276	3.179400E+01
352	  0.090340681	-7.342000E+00	  0.090340681	9.926800E+01	  0.090340681	3.082900E+01	  0.090340681	3.204100E+01
353	  0.090541080	-7.362000E+00	  0.090541080	9.854300E+01	  0.090541080	3.114000E+01	  0.090541080	3.232100E+01
354	  0.090741485	-7.393000E+00	  0.090741485	9.789400E+01	  0.090741485	3.146300E+01	  0.090741485	3.253900E+01
355	  0.090941884	-7.417000E+00	  0.090941884	9.719300E+01	  0.090941884	3.178800E+01	  0.090941884	3.279500E+01
356	  0.091142282	-7.455000E+00	  0.091142282	9.651500E+01	  0.091142282	3.214900E+01	  0.091142282	3.300600E+01
357	  0.091342688	-7.481000E+00	  0.091342688	9.583300E+01	  0.091342688	3.247900E+01	  0.091342688	3.324700E+01
358	  0.091543086	-7.509000E+00	  0.091543086	9.519800E+01	  0.091543086	3.280200E+01	  0.091543086	3.345900E+01
359	  0.091743484	-7.544000E+00	  0.091743484	9.452300E+01	  0.091743484	3.316500E+01	  0.091743484	3.366900E+01
360	  0.091943890	-7.566000E+00	  0.091943890	9.386000E+01	  0.091943890	3.349100E+01	  0.091943890	3.390400E+01
361	  0.092144288	-7.604000E+00	  0.092144288	9.322500E+01	  0.092144288	3.385400E+01	  0.092144288	3.408400E+01
362	  0.092344686	-7.633000E+00	  0.092344686	9.256000E+01	  0.092344686	3.420800E+01	  0.092344686	3.429900E+01
363	  0.092545092	-7.668000E+00	  0.092545092	9.196500E+01	  0.092545092	3.455600E+01	  0.092545092	3.446100E+01
364	  0.092745490	-7.697000E+00	  0.092745490	9.130800E+01	  0.092745490	3.491300E+01	  0.092745490	3.466700E+01
365	  0.092945889	-7.733000E+00	  0.092945889	9.073300E+01	  0.092945889	3.526100E+01	  0.092945889	3.481500E+01
366	  0.093146294	-7.765000E+00	  0.093146294	9.009400E+01	  0.093146294	3.562700E+01	  0.093146294	3.499900E+01
367	  0.093346693	-7.800000E+00	  0.093346693	8.953100E+01	  0.093346693	3.597200E+01	  0.093346693	3.513800E+01
368	  0.093547091	-7.831000E+00	  0.093547091	8.893100E+01	  0.093547091	3.632700E+01	  0.093547091	3.530000E+01
369	  0.093747497	-7.869000E+00	  0.093747497	8.835700E+01	  0.093747497	3.669000E+01	  0.093747497	3.543200E+01
370	  0.093947895	-7.901000E+00	  0.093947895	8.776900E+01	  0.093947895	3.704700E+01	  0.093947895	3.558100E+01
371	  0.094148301	-7.942000E+00	  0.094148301	8.717600E+01	  0.094148301	3.743600E+01	  0.094148301	3.570000E+01
372	  0.094348699	-7.975000E+00	  0.094348699	8.663900E+01	  0.094348699	3.777700E+01	  0.094348699	3.582100E+01
373	  0.094549097	-8.014000E+00	  0.094549097	8.606900E+01	  0.094549097	3.815300E+01	  0.094549097	3.593300E+01
374	  0.094749503	-8.045000E+00	  0.094749503	8.552500E+01	  0.094749503	3.849900E+01	  0.094749503	3.605400E+01
375	  0.094949901	-8.082000E+00	  0.094949901	8.497600E+01	  0.094949901	3.886400E+01	  0.094949901	3.615800E+01
376	  0.095150299	-8.121000E+00	  0.095150299	8.442100E+01	  0.095150299	3.924200E+01	  0.095150299	3.625000E+01
377	  0.095350705	-8.154000E+00	  0.095350705	8.388500E+01	  0.095350705	3.959500E+01	  0.095350705	3.635400E+01
378	  0.095551103	-8.193000E+00	  0.095551103	8.332600E+01	  0.095551103	3.997800E+01	  0.095551103	3.644400E+01
379	  0.095751502	-8.225000E+00	  0.095751502	8.279500E+01	  0.095751502	4.033000E+01	  0.095751502	3.654200E+01
380	  0.095951907	-8.268000E+00	  0.095951907	8.229400E+01	  0.095951907	4.069800E+01	  0.095951907	3.658700E+01
381	  0.096152306	-8.303000E+00	  0.096152306	8.174600E+01	  0.096152306	4.107200E+01	  0.096152306	3.667400E+01
382	  0.096352704	-8.340000E+00	  0.096352704	8.124600E+01	  0.096352704	4.142800E+01	  0.096352704	3.673300E+01
383	  0.096553110	-8.366000E+00	  0.096553110	8.074000E+01	  0.096553110	4.176300E+01	  0.096553110	3.682600E+01
384	  0.096753508	-8.401000E+00	  0.096753508	8.025100E+01	  0.096753508	4.211200E+01	  0.096753508	3.688100E+01
385	  0.096953906	-8.444000E+00	  0.096953906	7.974200E+01	  0.096953906	4.249000E+01	  0.096953906	3.691200E+01
386	  0.097154312	-8.474000E+00	  0.097154312	7.924600E+01	  0.097154312	4.283500E+01	  0.097154312	3.697800E+01
387	  0.097354710	-8.509000E+00	  0.097354710	7.874100E+01	  0.097354710	4.319700E+01	  0.097354710	3.702700E+01
388	  0.097555116	-8.546000E+00	  0.097555116	7.828700E+01	  0.097555116	4.353700E+01	  0.097555116	3.704900E+01
389	  0.097755514	-8.581000E+00	  0.097755514	7.785000E+01	  0.097755514	4.386300E+01	  0.097755514	3.706700E+01
390	  0.097955912	-8.610000E+00	  0.097955912	7.738200E+01	  0.097955912	4.419200E+01	  0.097955912	3.712000E+01
391	  0.098156318	-8.640000E+00	  0.098156318	7.692900E+01	  0.098156318	4.452000E+01	  0.098156318	3.715500E+01
392	  0.098356716	-8.671000E+00	  0.098356716	7.650400E+01	  0.098356716	4.483400E+01	  0.098356716	3.717600E+01
393	  0.098557115	-8.704000E+00	  0.098557115	7.609100E+01	  0.098557115	4.514400E+01	  0.098557115	3.718500E+01
394	  0.098757520	-8.732000E+00	  0.098757520	7.561600E+01	  0.098757520	4.548300E+01	  0.098757520	3.722700E+01
395	  0.098957919	-8.762000E+00	  0.098957919	7.520300E+01	  0.098957919	4.579000E+01	  0.098957919	3.724100E+01
396	  0.099158317	-8.788000E+00	  0.099158317	7.479900E+01	  0.099158317	4.608600E+01	  0.099158317	3.726300E+01
397	  0.099358723	-8.811000E+00	  0.099358723	7.437400E+01	  0.099358723	4.638800E+01	  0.099358723	3.730200E+01
398	  0.099559121	-8.838000E+00	  0.099559121	7.398100E+01	  0.099559121	4.668000E+01	  0.099559121	3.731000E+01
399	  0.099759519	-8.865000E+00	  0.099759519	7.359500E+01	  0.099759519	4.696700E+01	  0.099759519	3.731900E+01
400	  0.099959925	-8.890000E+00	  0.099959925	7.323700E+01	  0.099959925	4.723500E+01	  0.099959925	3.732200E+01
401	  0.100160323	-8.911000E+00	  0.100160323	7.289100E+01	  0.100160323	4.749000E+01	  0.100160323	3.733300E+01
402	  0.100360721	-8.928000E+00	  0.100360721	7.249100E+01	  0.100360721	4.776900E+01	  0.100360721	3.737900E+01
403	  0.100561127	-8.951000E+00	  0.100561127	7.213300E+01	  0.100561127	4.803500E+01	  0.100561127	3.738500E+01
404	  0.100761525	-8.970000E+00	  0.100761525	7.176900E+01	  0.100761525	4.829900E+01	  0.100761525	3.740500E+01
405	  0.100961931	-8.990000E+00	  0.100961931	7.142900E+01	  0.100961931	4.855000E+01	  0.100961931	3.741300E+01
406	  0.101162329	-9.004000E+00	  0.101162329	7.109800E+01	  0.101162329	4.878500E+01	  0.101162329	3.744400E+01
407	  0.101362728	-9.025000E+00	  0.101362728	7.071800E+01	  0.101362728	4.906500E+01	  0.101362728	3.745400E+01
408	  0.101563133	-9.046000E+00	  0.101563133	7.045000E+01	  0.101563133	4.927300E+01	  0.101563133	3.743500E+01
409	  0.101763532	-9.052000E+00	  0.101763532	7.008600E+01	  0.101763532	4.951700E+01	  0.101763532	3.750400E+01
410	  0.101963930	-9.070000E+00	  0.101963930	6.977700E+01	  0.101963930	4.974800E+01	  0.101963930	3.750500E+01
411	  0.102164328	-9.077000E+00	  0.102164328	6.942200E+01	  0.102164328	4.999200E+01	  0.102164328	3.756100E+01
412	  0.102364726	-9.099000E+00	  0.102364726	6.907900E+01	  0.102364726	5.025300E+01	  0.102364726	3.755000E+01
413	  0.102565125	-9.105000E+00	  0.102565125	6.872100E+01	  0.102565125	5.049900E+01	  0.102565125	3.761000E+01
414	  0.102765530	-9.118000E+00	  0.102765530	6.846500E+01	  0.102765530	5.068900E+01	  0.102765530	3.761400E+01
415	  0.102965929	-9.119000E+00	  0.102965929	6.808900E+01	  0.102965929	5.094300E+01	  0.102965929	3.769600E+01
416	  0.103166327	-9.130000E+00	  0.103166327	6.776100E+01	  0.103166327	5.117800E+01	  0.103166327	3.772500E+01
417	  0.103366733	-9.133000E+00	  0.103366733	6.741500E+01	  0.103366733	5.141800E+01	  0.103366733	3.778800E+01
418	  0.103567131	-9.134000E+00	  0.103567131	6.703300E+01	  0.103567131	5.167800E+01	  0.103567131	3.786900E+01
419	  0.103767529	-9.133000E+00	  0.103767529	6.673600E+01	  0.103767529	5.188000E+01	  0.103767529	3.794000E+01
420	  0.103967935	-9.142000E+00	  0.103967935	6.631400E+01	  0.103967935	5.218500E+01	  0.103967935	3.798700E+01
421	  0.104168333	-9.140000E+00	  0.104168333	6.602200E+01	  0.104168333	5.238400E+01	  0.104168333	3.806000E+01
422	  0.104368731	-9.141000E+00	  0.104368731	6.558600E+01	  0.104368731	5.269000E+01	  0.104368731	3.814700E+01
423	  0.104569137	-9.130000E+00	  0.104569137	6.521400E+01	  0.104569137	5.293700E+01	  0.104569137	3.827300E+01
424	  0.104769535	-9.131000E+00	  0.104769535	6.488200E+01	  0.104769535	5.317400E+01	  0.104769535	3.833700E+01
425	  0.104969934	-9.119000E+00	  0.104969934	6.449700E+01	  0.104969934	5.343400E+01	  0.104969934	3.846600E+01
426	  0.105170339	-9.109000E+00	  0.105170339	6.406100E+01	  0.105170339	5.373600E+01	  0.105170339	3.859800E+01
427	  0.105370738	-9.100000E+00	  0.105370738	6.364100E+01	  0.105370738	5.402900E+01	  0.105370738	3.872400E+01
428	  0.105571143	-9.089000E+00	  0.105571143	6.328600E+01	  0.105571143	5.427700E+01	  0.105571143	3.884100E+01
429	  0.105771542	-9.074000E+00	  0.105771542	6.281400E+01	  0.105771542	5.460700E+01	  0.105771542	3.900200E+01
430	  0.105971940	-9.059000E+00	  0.105971940	6.241800E+01	  0.105971940	5.488500E+01	  0.105971940	3.914900E+01
431	  0.106172346	-9.056000E+00	  0.106172346	6.199200E+01	  0.106172346	5.520200E+01	  0.106172346	3.923900E+01
432	  0.106372744	-9.034000E+00	  0.106372744	6.151800E+01	  0.106372744	5.553800E+01	  0.106372744	3.942900E+01
433	  0.106573142	-9.016000E+00	  0.106573142	6.103300E+01	  0.106573142	5.589100E+01	  0.106573142	3.960300E+01
434	  0.106773548	-8.995000E+00	  0.106773548	6.061700E+01	  0.106773548	5.619100E+01	  0.106773548	3.977600E+01
435	  0.106973946	-8.973000E+00	  0.106973946	6.009100E+01	  0.106973946	5.658100E+01	  0.106973946	3.997200E+01
436	  0.107174344	-8.959000E+00	  0.107174344	5.961900E+01	  0.107174344	5.694100E+01	  0.107174344	4.012000E+01
437	  0.107374750	-8.938000E+00	  0.107374750	5.910600E+01	  0.107374750	5.733200E+01	  0.107374750	4.030500E+01
438	  0.107575148	-8.912000E+00	  0.107575148	5.857300E+01	  0.107575148	5.774000E+01	  0.107575148	4.052500E+01
439	  0.107775547	-8.888000E+00	  0.107775547	5.806300E+01	  0.107775547	5.813700E+01	  0.107775547	4.072600E+01
440	  0.107975952	-8.867000E+00	  0.107975952	5.759300E+01	  0.107975952	5.850900E+01	  0.107975952	4.090000E+01
441	  0.108176351	-8.847000E+00	  0.108176351	5.702700E+01	  0.108176351	5.896800E+01	  0.108176351	4.108400E+01
442	  0.108376749	-8.816000E+00	  0.108376749	5.651600E+01	  0.108376749	5.937800E+01	  0.108376749	4.132200E+01
443	  0.108577155	-8.801000E+00	  0.108577155	5.595100E+01	  0.108577155	5.985300E+01	  0.108577155	4.146900E+01
444	  0.108777553	-8.779000E+00	  0.108777553	5.532500E+01	  0.108777553	6.038400E+01	  0.108777553	4.166500E+01
445	  0.108977959	-8.755000E+00	  0.108977959	5.475000E+01	  0.108977959	6.087700E+01	  0.108977959	4.186000E+01
446	  0.109178357	-8.739000E+00	  0.109178357	5.415900E+01	  0.109178357	6.139600E+01	  0.109178357	4.200700E+01
447	  0.109378755	-8.715000E+00	  0.109378755	5.355100E+01	  0.109378755	6.193500E+01	  0.109378755	4.220200E+01
448	  0.109579161	-8.696000E+00	  0.109579161	5.290300E+01	  0.109579161	6.252000E+01	  0.109579161	4.236400E+01
449	  0.109779559	-8.675000E+00	  0.109779559	5.227300E+01	  0.109779559	6.309800E+01	  0.109779559	4.253300E+01
450	  0.109979957	-8.656000E+00	  0.109979957	5.165900E+01	  0.109979957	6.367000E+01	  0.109979957	4.268200E+01
451	  0.110180363	-8.646000E+00	  0.110180363	5.099200E+01	  0.110180363	6.430400E+01	  0.110180363	4.277200E+01
452	  0.110380761	-8.632000E+00	  0.110380761	5.029700E+01	  0.110380761	6.497300E+01	  0.110380761	4.288200E+01
453	  0.110581160	-8.613000E+00	  0.110581160	4.962500E+01	  0.110581160	6.563000E+01	  0.110581160	4.301400E+01
454	  0.110781565	-8.605000E+00	  0.110781565	4.893300E+01	  0.110781565	6.631500E+01	  0.110781565	4.306800E+01
455	  0.110981964	-8.595000E+00	  0.110981964	4.821600E+01	  0.110981964	6.703600E+01	  0.110981964	4.311900E+01
456	  0.111182362	-8.588000E+00	  0.111182362	4.753700E+01	  0.111182362	6.772600E+01	  0.111182362	4.314800E+01
457	  0.111382768	-8.576000E+00	  0.111382768	4.682300E+01	  0.111382768	6.846200E+01	  0.111382768	4.319600E+01
458	  0.111583166	-8.573000E+00	  0.111583166	4.608800E+01	  0.111583166	6.922600E+01	  0.111583166	4.316300E+01
459	  0.111783572	-8.570000E+00	  0.111783572	4.535300E+01	  0.111783572	6.999800E+01	  0.111783572	4.312100E+01
460	  0.111983970	-8.561000E+00	  0.111983970	4.463300E+01	  0.111983970	7.076700E+01	  0.111983970	4.311500E+01
461	  0.112184368	-8.562000E+00	  0.112184368	4.380800E+01	  0.112184368	7.164900E+01	  0.112184368	4.300500E+01
462	  0.112384774	-8.556000E+00	  0.112384774	4.309800E+01	  0.112384774	7.242200E+01	  0.112384774	4.293900E+01
463	  0.112585172	-8.559000E+00	  0.112585172	4.231300E+01	  0.112585172	7.327500E+01	  0.112585172	4.278700E+01
464	  0.112785570	-8.564000E+00	  0.112785570	4.152200E+01	  0.112785570	7.413700E+01	  0.112785570	4.259400E+01
465	  0.112985976	-8.560000E+00	  0.112985976	4.071000E+01	  0.112985976	7.504200E+01	  0.112985976	4.244900E+01
466	  0.113186374	-8.565000E+00	  0.113186374	3.995300E+01	  0.113186374	7.587800E+01	  0.113186374	4.222500E+01
467	  0.113386773	-8.569000E+00	  0.113386773	3.912700E+01	  0.113386773	7.679800E+01	  0.113386773	4.197300E+01
468	  0.113587178	-8.572000E+00	  0.113587178	3.831000E+01	  0.113587178	7.771300E+01	  0.113587178	4.170500E+01
469	  0.113787577	-8.583000E+00	  0.113787577	3.749200E+01	  0.113787577	7.861700E+01	  0.113787577	4.135600E+01
470	  0.113987975	-8.589000E+00	  0.113987975	3.666400E+01	  0.113987975	7.954400E+01	  0.113987975	4.100900E+01
471	  0.114188381	-8.589000E+00	  0.114188381	3.581900E+01	  0.114188381	8.050700E+01	  0.114188381	4.067900E+01
472	  0.114388779	-8.602000E+00	  0.114388779	3.497500E+01	  0.114388779	8.143800E+01	  0.114388779	4.023100E+01
473	  0.114589177	-8.611000E+00	  0.114589177	3.413800E+01	  0.114589177	8.236900E+01	  0.114589177	3.978100E+01
474	  0.114789583	-8.621000E+00	  0.114789583	3.331400E+01	  0.114789583	8.327700E+01	  0.114789583	3.930200E+01
475	  0.114989981	-8.628000E+00	  0.114989981	3.244100E+01	  0.114989981	8.425100E+01	  0.114989981	3.879600E+01
476	  0.115190387	-8.640000E+00	  0.115190387	3.156500E+01	  0.115190387	8.520100E+01	  0.115190387	3.821000E+01
477	  0.115390785	-8.652000E+00	  0.115390785	3.067400E+01	  0.115390785	8.616700E+01	  0.115390785	3.759500E+01
478	  0.115591183	-8.664000E+00	  0.115591183	2.978300E+01	  0.115591183	8.712000E+01	  0.115591183	3.694200E+01
479	  0.115791589	-8.684000E+00	  0.115791589	2.888000E+01	  0.115791589	8.804000E+01	  0.115791589	3.618700E+01
480	  0.115991987	-8.691000E+00	  0.115991987	2.795300E+01	  0.115991987	8.903800E+01	  0.115991987	3.548500E+01
481	  0.116192386	-8.706000E+00	  0.116192386	2.705900E+01	  0.116192386	8.994400E+01	  0.116192386	3.470900E+01
482	  0.116392791	-8.725000E+00	  0.116392791	2.606400E+01	  0.116392791	9.092100E+01	  0.116392791	3.379100E+01
483	  0.116593190	-8.750000E+00	  0.116593190	2.511300E+01	  0.116593190	9.179200E+01	  0.116593190	3.282700E+01
484	  0.116793588	-8.771000E+00	  0.116793588	2.408800E+01	  0.116793588	9.273800E+01	  0.116793588	3.179300E+01
485	  0.116993994	-8.797000E+00	  0.116993994	2.310500E+01	  0.116993994	9.358700E+01	  0.116993994	3.073200E+01
486	  0.117194392	-8.829000E+00	  0.117194392	2.210800E+01	  0.117194392	9.437300E+01	  0.117194392	2.957800E+01
487	  0.117394790	-8.861000E+00	  0.117394790	2.104700E+01	  0.117394790	9.518100E+01	  0.117394790	2.832900E+01
488	  0.117595196	-8.900000E+00	  0.117595196	2.002300E+01	  0.117595196	9.586100E+01	  0.117595196	2.704300E+01
489	  0.117795594	-8.938000E+00	  0.117795594	1.894200E+01	  0.117795594	9.655400E+01	  0.117795594	2.567900E+01
490	  0.117995992	-8.976000E+00	  0.117995992	1.783300E+01	  0.117995992	9.721300E+01	  0.117995992	2.425200E+01
491	  0.118196398	-9.020000E+00	  0.118196398	1.673800E+01	  0.118196398	9.776500E+01	  0.118196398	2.278900E+01
492	  0.118396796	-9.068000E+00	  0.118396796	1.562000E+01	  0.118396796	9.823900E+01	  0.118396796	2.125600E+01
493	  0.118597202	-9.124000E+00	  0.118597202	1.446300E+01	  0.118597202	9.861600E+01	  0.118597202	1.963000E+01
494	  0.118797600	-9.174000E+00	  0.118797600	1.332400E+01	  0.118797600	9.896400E+01	  0.118797600	1.804700E+01
