! Anritsu VNA Master:             	Model: MS2036C/10/77
! SN:             	1601066
! /bd0/18may09/252.ns.m8.txt
! Existing Calibration Information:
! TYPE:             	Current Settings	Active Cal Settings
! TIME:             	05/09/2018 09:09:39 AM	05/09/2018 09:02:47 AM
! INTERNAL TEMP:    	41.3 C	40.3 C
! # POINTS:         	500	500
! START FREQ:       	20.000 MHz	20.000 MHz
! STOP FREQ:        	120.000 MHz	120.000 MHz
! SOURCE POWER:     	High	High
! IFBW:             	50 Hz	50 Hz
! AVG FACTOR:       	  1 	  1 
! REF PLANE 1:      	0 mm	0 mm
! REF PLANE 2:      	0 mm	0 mm
! CAL TYPE:         	Full S11	Full S11
! CAL METHOD:       	SOLT	SOLT
! CAL LINE TYPE:    	Coax	Coax
! DUT PORT 1:       	K-Conn(F)	K-Conn(F)
! DUT PORT 2:       	K-Conn(F)	K-Conn(F)
! CAL STATUS:       	OK: Accuracy High	--
! PROP-V:       	0.700
! CABLE LOSS:       	0.000 dB/m
! REF IMPEDANCE:       	50.0
! Trace Specific Parameters:	TR1	TR2	TR3	TR4
! TRACE.#.Y (GRAPH TYPE)	LOG MAG	PHASE	REAL IMPEDANCE	IMAGINARY IMPEDANCE
! TRACE.#.X 	FREQ.GHZ	FREQ.GHZ	FREQ.GHZ	FREQ.GHZ
! S-PARAMETER	S11	S11	S11	S11
! SMOOTH/APERTURE %	0	0	0	0
! WINDOW	NSL	NSL	NSL	NSL
! GATING	OFF	OFF	OFF	OFF
! FGTD	OFF	OFF	OFF	OFF
Marker Information per Trace:	TR1	TR2	TR3	TR4
!MK1	--	"MK1 TR2:  20.000 MHz,PH:-123.80°"	--	--
!MK2	--	--	"MK2 TR3:  70.100 200 MHz,Z:(16.467 ohm, -3.860 ohm)"	--
!MK3	--	--	--	--
!MK4	--	--	--	--
!MK5	--	--	--	--
!MK6	--	--	--	--
!MK7	--	--	--	--
!MK8	--	--	--	--
PNT	TR1.FREQ.GHZ	TR1.LOG MAG.dB	TR2.FREQ.GHZ	TR2.PHASE.deg	TR3.FREQ.GHZ	TR3.REAL IMPEDANCE.ohm	TR4.FREQ.GHZ	TR4.IMAGINARY IMPEDANCE.ohm
1	  0.020000000	-5.910000E-01	  0.020000000	-1.237980E+02	  0.020000000	2.186000E+00	  0.020000000	-2.665800E+01
2	  0.020200402	-5.910000E-01	  0.020200402	-1.252160E+02	  0.020200402	2.158000E+00	  0.020200402	-2.587000E+01
3	  0.020400802	-5.920000E-01	  0.020400802	-1.266420E+02	  0.020400802	2.132000E+00	  0.020400802	-2.508700E+01
4	  0.020601204	-5.940000E-01	  0.020601204	-1.280780E+02	  0.020601204	2.115000E+00	  0.020601204	-2.430900E+01
5	  0.020801604	-6.000000E-01	  0.020801604	-1.295320E+02	  0.020801604	2.112000E+00	  0.020801604	-2.352900E+01
6	  0.021002004	-6.060000E-01	  0.021002004	-1.310160E+02	  0.021002004	2.106000E+00	  0.021002004	-2.274400E+01
7	  0.021202406	-6.130000E-01	  0.021202406	-1.325270E+02	  0.021202406	2.107000E+00	  0.021202406	-2.195300E+01
8	  0.021402806	-6.210000E-01	  0.021402806	-1.340000E+02	  0.021402806	2.109000E+00	  0.021402806	-2.119100E+01
9	  0.021603208	-6.220000E-01	  0.021603208	-1.354910E+02	  0.021603208	2.090000E+00	  0.021603208	-2.042900E+01
10	  0.021803608	-6.280000E-01	  0.021803608	-1.369780E+02	  0.021803608	2.088000E+00	  0.021803608	-1.967600E+01
11	  0.022004008	-6.340000E-01	  0.022004008	-1.384770E+02	  0.022004008	2.088000E+00	  0.022004008	-1.892500E+01
12	  0.022204408	-6.380000E-01	  0.022204408	-1.399910E+02	  0.022204408	2.079000E+00	  0.022204408	-1.817400E+01
13	  0.022404809	-6.420000E-01	  0.022404809	-1.415060E+02	  0.022404809	2.074000E+00	  0.022404809	-1.743000E+01
14	  0.022605211	-6.460000E-01	  0.022605211	-1.430560E+02	  0.022605211	2.067000E+00	  0.022605211	-1.667600E+01
15	  0.022805611	-6.510000E-01	  0.022805611	-1.446000E+02	  0.022805611	2.066000E+00	  0.022805611	-1.593200E+01
16	  0.023006011	-6.540000E-01	  0.023006011	-1.461180E+02	  0.023006011	2.056000E+00	  0.023006011	-1.520600E+01
17	  0.023206413	-6.540000E-01	  0.023206413	-1.476410E+02	  0.023206413	2.042000E+00	  0.023206413	-1.448400E+01
18	  0.023406813	-6.560000E-01	  0.023406813	-1.491700E+02	  0.023406813	2.031000E+00	  0.023406813	-1.376500E+01
19	  0.023607215	-6.620000E-01	  0.023607215	-1.507140E+02	  0.023607215	2.035000E+00	  0.023607215	-1.304300E+01
20	  0.023807615	-6.690000E-01	  0.023807615	-1.522650E+02	  0.023807615	2.043000E+00	  0.023807615	-1.232300E+01
21	  0.024008015	-6.790000E-01	  0.024008015	-1.538330E+02	  0.024008015	2.060000E+00	  0.024008015	-1.160100E+01
22	  0.024208417	-6.870000E-01	  0.024208417	-1.554140E+02	  0.024208417	2.072000E+00	  0.024208417	-1.087700E+01
23	  0.024408817	-6.940000E-01	  0.024408817	-1.570100E+02	  0.024408817	2.079000E+00	  0.024408817	-1.015000E+01
24	  0.024609219	-7.020000E-01	  0.024609219	-1.586050E+02	  0.024609219	2.092000E+00	  0.024609219	-9.428000E+00
25	  0.024809619	-7.090000E-01	  0.024809619	-1.602060E+02	  0.024809619	2.104000E+00	  0.024809619	-8.708000E+00
26	  0.025010020	-7.200000E-01	  0.025010020	-1.618060E+02	  0.025010020	2.126000E+00	  0.025010020	-7.991000E+00
27	  0.025210422	-7.310000E-01	  0.025210422	-1.634290E+02	  0.025210422	2.149000E+00	  0.025210422	-7.267000E+00
28	  0.025410822	-7.440000E-01	  0.025410822	-1.650670E+02	  0.025410822	2.177000E+00	  0.025410822	-6.540000E+00
29	  0.025611224	-7.570000E-01	  0.025611224	-1.667300E+02	  0.025611224	2.208000E+00	  0.025611224	-5.804000E+00
30	  0.025811624	-7.690000E-01	  0.025811624	-1.684120E+02	  0.025811624	2.235000E+00	  0.025811624	-5.063000E+00
31	  0.026012026	-7.760000E-01	  0.026012026	-1.700970E+02	  0.026012026	2.251000E+00	  0.026012026	-4.322000E+00
32	  0.026212426	-7.860000E-01	  0.026212426	-1.717930E+02	  0.026212426	2.272000E+00	  0.026212426	-3.579000E+00
33	  0.026412826	-7.990000E-01	  0.026412826	-1.734870E+02	  0.026412826	2.307000E+00	  0.026412826	-2.838000E+00
34	  0.026613226	-8.120000E-01	  0.026613226	-1.751930E+02	  0.026613226	2.341000E+00	  0.026613226	-2.093000E+00
35	  0.026813626	-8.280000E-01	  0.026813626	-1.769200E+02	  0.026813626	2.383000E+00	  0.026813626	-1.340000E+00
36	  0.027014028	-8.420000E-01	  0.027014028	-1.786500E+02	  0.027014028	2.422000E+00	  0.027014028	-5.870000E-01
37	  0.027214428	-8.570000E-01	  0.027214428	1.796090E+02	  0.027214428	2.466000E+00	  0.027214428	1.700000E-01
38	  0.027414829	-8.720000E-01	  0.027414829	1.778460E+02	  0.027414829	2.509000E+00	  0.027414829	9.370000E-01
39	  0.027615231	-8.880000E-01	  0.027615231	1.760810E+02	  0.027615231	2.557000E+00	  0.027615231	1.705000E+00
40	  0.027815631	-9.080000E-01	  0.027815631	1.743070E+02	  0.027815631	2.618000E+00	  0.027815631	2.478000E+00
41	  0.028016033	-9.300000E-01	  0.028016033	1.725150E+02	  0.028016033	2.686000E+00	  0.028016033	3.261000E+00
42	  0.028216433	-9.520000E-01	  0.028216433	1.707120E+02	  0.028216433	2.755000E+00	  0.028216433	4.049000E+00
43	  0.028416833	-9.710000E-01	  0.028416833	1.689140E+02	  0.028416833	2.820000E+00	  0.028416833	4.836000E+00
44	  0.028617235	-9.930000E-01	  0.028617235	1.671280E+02	  0.028617235	2.892000E+00	  0.028617235	5.621000E+00
45	  0.028817635	-1.012000E+00	  0.028817635	1.653410E+02	  0.028817635	2.959000E+00	  0.028817635	6.408000E+00
46	  0.029018037	-1.033000E+00	  0.029018037	1.635560E+02	  0.029018037	3.034000E+00	  0.029018037	7.198000E+00
47	  0.029218437	-1.055000E+00	  0.029218437	1.617740E+02	  0.029218437	3.113000E+00	  0.029218437	7.990000E+00
48	  0.029418837	-1.080000E+00	  0.029418837	1.599800E+02	  0.029418837	3.202000E+00	  0.029418837	8.790000E+00
49	  0.029619239	-1.108000E+00	  0.029619239	1.581770E+02	  0.029619239	3.304000E+00	  0.029619239	9.598000E+00
50	  0.029819639	-1.137000E+00	  0.029819639	1.563520E+02	  0.029819639	3.413000E+00	  0.029819639	1.042000E+01
51	  0.030020041	-1.170000E+00	  0.030020041	1.545060E+02	  0.030020041	3.535000E+00	  0.030020041	1.125700E+01
52	  0.030220442	-1.200000E+00	  0.030220442	1.526480E+02	  0.030220442	3.651000E+00	  0.030220442	1.210500E+01
53	  0.030420844	-1.230000E+00	  0.030420844	1.507860E+02	  0.030420844	3.775000E+00	  0.030420844	1.296000E+01
54	  0.030621244	-1.263000E+00	  0.030621244	1.489400E+02	  0.030621244	3.907000E+00	  0.030621244	1.381500E+01
55	  0.030821644	-1.297000E+00	  0.030821644	1.470910E+02	  0.030821644	4.049000E+00	  0.030821644	1.467700E+01
56	  0.031022044	-1.332000E+00	  0.031022044	1.452330E+02	  0.031022044	4.199000E+00	  0.031022044	1.555200E+01
57	  0.031222444	-1.367000E+00	  0.031222444	1.433710E+02	  0.031222444	4.355000E+00	  0.031222444	1.643600E+01
58	  0.031422846	-1.402000E+00	  0.031422846	1.414480E+02	  0.031422846	4.516000E+00	  0.031422846	1.735800E+01
59	  0.031623244	-1.438000E+00	  0.031623244	1.395280E+02	  0.031623244	4.686000E+00	  0.031623244	1.828900E+01
60	  0.031823646	-1.470000E+00	  0.031823646	1.375930E+02	  0.031823646	4.851000E+00	  0.031823646	1.923800E+01
61	  0.032024048	-1.501000E+00	  0.032024048	1.356020E+02	  0.032024048	5.021000E+00	  0.032024048	2.022600E+01
62	  0.032224450	-1.533000E+00	  0.032224450	1.336900E+02	  0.032224450	5.200000E+00	  0.032224450	2.118700E+01
63	  0.032424849	-1.564000E+00	  0.032424849	1.317650E+02	  0.032424849	5.381000E+00	  0.032424849	2.216700E+01
64	  0.032625251	-1.597000E+00	  0.032625251	1.298360E+02	  0.032625251	5.580000E+00	  0.032625251	2.316200E+01
65	  0.032825653	-1.635000E+00	  0.032825653	1.279040E+02	  0.032825653	5.802000E+00	  0.032825653	2.417100E+01
66	  0.033026051	-1.673000E+00	  0.033026051	1.259510E+02	  0.033026051	6.038000E+00	  0.033026051	2.520700E+01
67	  0.033226453	-1.720000E+00	  0.033226453	1.239920E+02	  0.033226453	6.312000E+00	  0.033226453	2.625800E+01
68	  0.033426855	-1.766000E+00	  0.033426855	1.220070E+02	  0.033426855	6.604000E+00	  0.033426855	2.734000E+01
69	  0.033627257	-1.815000E+00	  0.033627257	1.199840E+02	  0.033627257	6.919000E+00	  0.033627257	2.846000E+01
70	  0.033827655	-1.867000E+00	  0.033827655	1.179380E+02	  0.033827655	7.261000E+00	  0.033827655	2.961100E+01
71	  0.034028057	-1.913000E+00	  0.034028057	1.158400E+02	  0.034028057	7.603000E+00	  0.034028057	3.081700E+01
72	  0.034228459	-1.958000E+00	  0.034228459	1.137220E+02	  0.034228459	7.962000E+00	  0.034228459	3.205800E+01
73	  0.034428857	-2.000000E+00	  0.034428857	1.115910E+02	  0.034428857	8.332000E+00	  0.034428857	3.333600E+01
74	  0.034629259	-2.044000E+00	  0.034629259	1.094730E+02	  0.034629259	8.726000E+00	  0.034629259	3.463100E+01
75	  0.034829661	-2.085000E+00	  0.034829661	1.073680E+02	  0.034829661	9.129000E+00	  0.034829661	3.594800E+01
76	  0.035030060	-2.125000E+00	  0.035030060	1.052520E+02	  0.035030060	9.557000E+00	  0.035030060	3.730200E+01
77	  0.035230462	-2.163000E+00	  0.035230462	1.031530E+02	  0.035230462	9.994000E+00	  0.035230462	3.868000E+01
78	  0.035430863	-2.203000E+00	  0.035430863	1.010700E+02	  0.035430863	1.046900E+01	  0.035430863	4.007700E+01
79	  0.035631265	-2.245000E+00	  0.035631265	9.899100E+01	  0.035631265	1.098500E+01	  0.035631265	4.150400E+01
80	  0.035831664	-2.290000E+00	  0.035831664	9.692100E+01	  0.035831664	1.154200E+01	  0.035831664	4.295700E+01
81	  0.036032066	-2.333000E+00	  0.036032066	9.485900E+01	  0.036032066	1.212600E+01	  0.036032066	4.444100E+01
82	  0.036232468	-2.378000E+00	  0.036232468	9.278200E+01	  0.036232468	1.276200E+01	  0.036232468	4.597400E+01
83	  0.036432866	-2.429000E+00	  0.036432866	9.074000E+01	  0.036432866	1.346100E+01	  0.036432866	4.751100E+01
84	  0.036633268	-2.486000E+00	  0.036633268	8.871500E+01	  0.036633268	1.424300E+01	  0.036633268	4.906200E+01
85	  0.036833670	-2.545000E+00	  0.036833670	8.663700E+01	  0.036833670	1.509500E+01	  0.036833670	5.069500E+01
86	  0.037034072	-2.605000E+00	  0.037034072	8.453300E+01	  0.037034072	1.602600E+01	  0.037034072	5.238800E+01
87	  0.037234470	-2.667000E+00	  0.037234470	8.242600E+01	  0.037234470	1.703500E+01	  0.037234470	5.412400E+01
88	  0.037434869	-2.732000E+00	  0.037434869	8.028000E+01	  0.037434869	1.814800E+01	  0.037434869	5.593400E+01
89	  0.037635271	-2.796000E+00	  0.037635271	7.811000E+01	  0.037635271	1.935500E+01	  0.037635271	5.781400E+01
90	  0.037835669	-2.863000E+00	  0.037835669	7.593400E+01	  0.037835669	2.067700E+01	  0.037835669	5.974300E+01
91	  0.038036071	-2.932000E+00	  0.038036071	7.378400E+01	  0.038036071	2.210700E+01	  0.038036071	6.168600E+01
92	  0.038236473	-2.994000E+00	  0.038236473	7.167200E+01	  0.038236473	2.358100E+01	  0.038236473	6.366000E+01
93	  0.038436871	-3.038000E+00	  0.038436871	6.953900E+01	  0.038436871	2.506200E+01	  0.038436871	6.577000E+01
94	  0.038637273	-3.087000E+00	  0.038637273	6.741700E+01	  0.038637273	2.670000E+01	  0.038637273	6.790700E+01
95	  0.038837675	-3.134000E+00	  0.038837675	6.528300E+01	  0.038837675	2.846800E+01	  0.038837675	7.012200E+01
96	  0.039038073	-3.177000E+00	  0.039038073	6.317800E+01	  0.039038073	3.034000E+01	  0.039038073	7.238100E+01
97	  0.039238475	-3.227000E+00	  0.039238475	6.111000E+01	  0.039238475	3.239800E+01	  0.039238475	7.461600E+01
98	  0.039438877	-3.282000E+00	  0.039438877	5.905900E+01	  0.039438877	3.466800E+01	  0.039438877	7.683900E+01
99	  0.039639279	-3.340000E+00	  0.039639279	5.700200E+01	  0.039639279	3.716000E+01	  0.039639279	7.908300E+01
100	  0.039839678	-3.404000E+00	  0.039839678	5.493100E+01	  0.039839678	3.995100E+01	  0.039839678	8.131400E+01
101	  0.040040080	-3.467000E+00	  0.040040080	5.285200E+01	  0.040040080	4.297500E+01	  0.040040080	8.357500E+01
102	  0.040240481	-3.533000E+00	  0.040240481	5.076500E+01	  0.040240481	4.631500E+01	  0.040240481	8.579400E+01
103	  0.040440880	-3.597000E+00	  0.040440880	4.864400E+01	  0.040440880	4.997800E+01	  0.040440880	8.804900E+01
104	  0.040641282	-3.658000E+00	  0.040641282	4.655700E+01	  0.040641282	5.389800E+01	  0.040641282	9.021700E+01
105	  0.040841684	-3.720000E+00	  0.040841684	4.445600E+01	  0.040841684	5.819500E+01	  0.040841684	9.230700E+01
106	  0.041042086	-3.783000E+00	  0.041042086	4.236100E+01	  0.041042086	6.287300E+01	  0.041042086	9.424400E+01
107	  0.041242484	-3.843000E+00	  0.041242484	4.025900E+01	  0.041242484	6.793600E+01	  0.041242484	9.606400E+01
108	  0.041442886	-3.900000E+00	  0.041442886	3.815600E+01	  0.041442886	7.342000E+01	  0.041442886	9.768200E+01
109	  0.041643288	-3.958000E+00	  0.041643288	3.606900E+01	  0.041643288	7.931400E+01	  0.041643288	9.899700E+01
110	  0.041843686	-4.012000E+00	  0.041843686	3.397700E+01	  0.041843686	8.565200E+01	  0.041843686	1.000340E+02
111	  0.042044088	-4.067000E+00	  0.042044088	3.190700E+01	  0.042044088	9.240100E+01	  0.042044088	1.005750E+02
112	  0.042244490	-4.118000E+00	  0.042244490	2.986800E+01	  0.042244490	9.947400E+01	  0.042244490	1.006550E+02
113	  0.042444889	-4.172000E+00	  0.042444889	2.783700E+01	  0.042444889	1.069390E+02	  0.042444889	1.000680E+02
114	  0.042645290	-4.225000E+00	  0.042645290	2.578600E+01	  0.042645290	1.148400E+02	  0.042645290	9.873900E+01
115	  0.042845692	-4.281000E+00	  0.042845692	2.376100E+01	  0.042845692	1.229130E+02	  0.042845692	9.651200E+01
116	  0.043046094	-4.335000E+00	  0.043046094	2.171600E+01	  0.043046094	1.312460E+02	  0.043046094	9.337600E+01
117	  0.043246493	-4.389000E+00	  0.043246493	1.969400E+01	  0.043246493	1.395060E+02	  0.043246493	8.918200E+01
118	  0.043446895	-4.441000E+00	  0.043446895	1.766300E+01	  0.043446895	1.476990E+02	  0.043446895	8.394200E+01
119	  0.043647297	-4.495000E+00	  0.043647297	1.564100E+01	  0.043647297	1.554650E+02	  0.043647297	7.747900E+01
120	  0.043847695	-4.547000E+00	  0.043847695	1.362600E+01	  0.043847695	1.626910E+02	  0.043847695	6.997200E+01
121	  0.044048097	-4.602000E+00	  0.044048097	1.160900E+01	  0.044048097	1.690510E+02	  0.044048097	6.129700E+01
122	  0.044248499	-4.652000E+00	  0.044248499	9.606000E+00	  0.044248499	1.744730E+02	  0.044248499	5.183800E+01
123	  0.044448901	-4.705000E+00	  0.044448901	7.597000E+00	  0.044448901	1.786600E+02	  0.044448901	4.154100E+01
124	  0.044649299	-4.750000E+00	  0.044649299	5.590000E+00	  0.044649299	1.817460E+02	  0.044649299	3.081600E+01
125	  0.044849701	-4.796000E+00	  0.044849701	3.596000E+00	  0.044849701	1.833700E+02	  0.044849701	1.980800E+01
126	  0.045050103	-4.836000E+00	  0.045050103	1.612000E+00	  0.045050103	1.837370E+02	  0.045050103	8.821000E+00
127	  0.045250501	-4.877000E+00	  0.045250501	-3.650000E-01	  0.045250501	1.827190E+02	  0.045250501	-1.968000E+00
128	  0.045450903	-4.918000E+00	  0.045450903	-2.280000E+00	  0.045450903	1.804240E+02	  0.045450903	-1.202800E+01
129	  0.045651305	-4.959000E+00	  0.045651305	-4.207000E+00	  0.045651305	1.770080E+02	  0.045651305	-2.155000E+01
130	  0.045851704	-4.998000E+00	  0.045851704	-6.114000E+00	  0.045851704	1.727560E+02	  0.045851704	-3.027500E+01
131	  0.046052106	-5.034000E+00	  0.046052106	-8.018000E+00	  0.046052106	1.678210E+02	  0.046052106	-3.820900E+01
132	  0.046252504	-5.071000E+00	  0.046252504	-9.909000E+00	  0.046252504	1.623050E+02	  0.046252504	-4.522600E+01
133	  0.046452906	-5.105000E+00	  0.046452906	-1.177500E+01	  0.046452906	1.564670E+02	  0.046452906	-5.131400E+01
134	  0.046653304	-5.137000E+00	  0.046653304	-1.365800E+01	  0.046653304	1.503580E+02	  0.046653304	-5.666500E+01
135	  0.046853706	-5.169000E+00	  0.046853706	-1.549100E+01	  0.046853706	1.442190E+02	  0.046853706	-6.104600E+01
136	  0.047054108	-5.198000E+00	  0.047054108	-1.734800E+01	  0.047054108	1.380160E+02	  0.047054108	-6.482100E+01
137	  0.047254506	-5.226000E+00	  0.047254506	-1.917300E+01	  0.047254506	1.319410E+02	  0.047254506	-6.784600E+01
138	  0.047454908	-5.254000E+00	  0.047454908	-2.096400E+01	  0.047454908	1.260690E+02	  0.047454908	-7.020200E+01
139	  0.047655310	-5.279000E+00	  0.047655310	-2.275200E+01	  0.047655310	1.203760E+02	  0.047655310	-7.206700E+01
140	  0.047855709	-5.310000E+00	  0.047855709	-2.450500E+01	  0.047855709	1.149280E+02	  0.047855709	-7.331300E+01
141	  0.048056111	-5.338000E+00	  0.048056111	-2.624400E+01	  0.048056111	1.097460E+02	  0.048056111	-7.419900E+01
142	  0.048256513	-5.366000E+00	  0.048256513	-2.800600E+01	  0.048256513	1.047220E+02	  0.048256513	-7.474100E+01
143	  0.048456915	-5.396000E+00	  0.048456915	-2.976000E+01	  0.048456915	9.995000E+01	  0.048456915	-7.493600E+01
144	  0.048657313	-5.422000E+00	  0.048657313	-3.149700E+01	  0.048657313	9.546700E+01	  0.048657313	-7.493300E+01
145	  0.048857715	-5.448000E+00	  0.048857715	-3.325000E+01	  0.048857715	9.117800E+01	  0.048857715	-7.469400E+01
146	  0.049058117	-5.474000E+00	  0.049058117	-3.500900E+01	  0.049058117	8.710200E+01	  0.049058117	-7.427200E+01
147	  0.049258515	-5.497000E+00	  0.049258515	-3.671300E+01	  0.049258515	8.337100E+01	  0.049258515	-7.372800E+01
148	  0.049458917	-5.522000E+00	  0.049458917	-3.844400E+01	  0.049458917	7.978900E+01	  0.049458917	-7.300900E+01
149	  0.049659319	-5.550000E+00	  0.049659319	-4.017100E+01	  0.049659319	7.642700E+01	  0.049659319	-7.213500E+01
150	  0.049859721	-5.574000E+00	  0.049859721	-4.189400E+01	  0.049859721	7.325600E+01	  0.049859721	-7.123000E+01
151	  0.050060119	-5.597000E+00	  0.050060119	-4.363500E+01	  0.050060119	7.023500E+01	  0.050060119	-7.024100E+01
152	  0.050260521	-5.615000E+00	  0.050260521	-4.537500E+01	  0.050260521	6.737600E+01	  0.050260521	-6.924200E+01
153	  0.050460923	-5.630000E+00	  0.050460923	-4.711400E+01	  0.050460923	6.467000E+01	  0.050460923	-6.821900E+01
154	  0.050661322	-5.648000E+00	  0.050661322	-4.882800E+01	  0.050661322	6.216300E+01	  0.050661322	-6.713000E+01
155	  0.050861724	-5.661000E+00	  0.050861724	-5.054400E+01	  0.050861724	5.978400E+01	  0.050861724	-6.603700E+01
156	  0.051062126	-5.673000E+00	  0.051062126	-5.223700E+01	  0.051062126	5.756000E+01	  0.051062126	-6.494200E+01
157	  0.051262524	-5.688000E+00	  0.051262524	-5.388100E+01	  0.051262524	5.552700E+01	  0.051262524	-6.383100E+01
158	  0.051462926	-5.696000E+00	  0.051462926	-5.552400E+01	  0.051462926	5.357900E+01	  0.051462926	-6.275800E+01
159	  0.051663328	-5.707000E+00	  0.051663328	-5.714000E+01	  0.051663328	5.177800E+01	  0.051663328	-6.165600E+01
160	  0.051863730	-5.721000E+00	  0.051863730	-5.878400E+01	  0.051863730	5.005300E+01	  0.051863730	-6.051000E+01
161	  0.052064128	-5.736000E+00	  0.052064128	-6.039000E+01	  0.052064128	4.845800E+01	  0.052064128	-5.938400E+01
162	  0.052264530	-5.746000E+00	  0.052264530	-6.202300E+01	  0.052264530	4.690400E+01	  0.052264530	-5.826600E+01
163	  0.052464932	-5.756000E+00	  0.052464932	-6.364400E+01	  0.052464932	4.543900E+01	  0.052464932	-5.715700E+01
164	  0.052665330	-5.768000E+00	  0.052665330	-6.524200E+01	  0.052665330	4.407500E+01	  0.052665330	-5.605800E+01
165	  0.052865732	-5.778000E+00	  0.052865732	-6.684300E+01	  0.052865732	4.277200E+01	  0.052865732	-5.496700E+01
166	  0.053066134	-5.785000E+00	  0.053066134	-6.845200E+01	  0.053066134	4.151300E+01	  0.053066134	-5.389700E+01
167	  0.053266536	-5.792000E+00	  0.053266536	-7.001900E+01	  0.053266536	4.034800E+01	  0.053266536	-5.285600E+01
168	  0.053466935	-5.796000E+00	  0.053466935	-7.159600E+01	  0.053466935	3.922000E+01	  0.053466935	-5.182800E+01
169	  0.053667337	-5.795000E+00	  0.053667337	-7.313900E+01	  0.053667337	3.814600E+01	  0.053667337	-5.085300E+01
170	  0.053867739	-5.797000E+00	  0.053867739	-7.466700E+01	  0.053867739	3.714400E+01	  0.053867739	-4.987800E+01
171	  0.054068137	-5.795000E+00	  0.054068137	-7.615500E+01	  0.054068137	3.619100E+01	  0.054068137	-4.895500E+01
172	  0.054268539	-5.798000E+00	  0.054268539	-7.762700E+01	  0.054268539	3.531500E+01	  0.054268539	-4.802300E+01
173	  0.054468941	-5.802000E+00	  0.054468941	-7.908100E+01	  0.054468941	3.449000E+01	  0.054468941	-4.710700E+01
174	  0.054669339	-5.804000E+00	  0.054669339	-8.051800E+01	  0.054669339	3.369800E+01	  0.054669339	-4.622100E+01
175	  0.054869737	-5.811000E+00	  0.054869737	-8.191100E+01	  0.054869737	3.298400E+01	  0.054869737	-4.534800E+01
176	  0.055070139	-5.817000E+00	  0.055070139	-8.329900E+01	  0.055070139	3.229900E+01	  0.055070139	-4.449100E+01
177	  0.055270538	-5.825000E+00	  0.055270538	-8.471100E+01	  0.055270538	3.163600E+01	  0.055270538	-4.362100E+01
178	  0.055470940	-5.832000E+00	  0.055470940	-8.613500E+01	  0.055470940	3.099000E+01	  0.055470940	-4.275900E+01
179	  0.055671342	-5.839000E+00	  0.055671342	-8.751100E+01	  0.055671342	3.039100E+01	  0.055671342	-4.193500E+01
180	  0.055871744	-5.849000E+00	  0.055871744	-8.890500E+01	  0.055871744	2.982500E+01	  0.055871744	-4.109700E+01
181	  0.056072142	-5.859000E+00	  0.056072142	-9.029500E+01	  0.056072142	2.927800E+01	  0.056072142	-4.027400E+01
182	  0.056272544	-5.869000E+00	  0.056272544	-9.168300E+01	  0.056272544	2.875300E+01	  0.056272544	-3.946200E+01
183	  0.056472946	-5.874000E+00	  0.056472946	-9.306500E+01	  0.056472946	2.823400E+01	  0.056472946	-3.867300E+01
184	  0.056673344	-5.880000E+00	  0.056673344	-9.444300E+01	  0.056673344	2.774300E+01	  0.056673344	-3.789200E+01
185	  0.056873746	-5.886000E+00	  0.056873746	-9.580800E+01	  0.056873746	2.727100E+01	  0.056873746	-3.712900E+01
186	  0.057074148	-5.884000E+00	  0.057074148	-9.720700E+01	  0.057074148	2.678000E+01	  0.057074148	-3.637000E+01
187	  0.057274550	-5.886000E+00	  0.057274550	-9.854700E+01	  0.057274550	2.634100E+01	  0.057274550	-3.564300E+01
188	  0.057474948	-5.887000E+00	  0.057474948	-9.988300E+01	  0.057474948	2.591500E+01	  0.057474948	-3.492600E+01
189	  0.057675350	-5.888000E+00	  0.057675350	-1.012020E+02	  0.057675350	2.550900E+01	  0.057675350	-3.422600E+01
190	  0.057875752	-5.889000E+00	  0.057875752	-1.024910E+02	  0.057875752	2.512600E+01	  0.057875752	-3.354700E+01
191	  0.058076151	-5.888000E+00	  0.058076151	-1.037820E+02	  0.058076151	2.474800E+01	  0.058076151	-3.287800E+01
192	  0.058276553	-5.889000E+00	  0.058276553	-1.050460E+02	  0.058276553	2.439800E+01	  0.058276553	-3.222400E+01
193	  0.058476955	-5.891000E+00	  0.058476955	-1.063050E+02	  0.058476955	2.406700E+01	  0.058476955	-3.157600E+01
194	  0.058677353	-5.891000E+00	  0.058677353	-1.075830E+02	  0.058677353	2.373300E+01	  0.058677353	-3.092800E+01
195	  0.058877755	-5.890000E+00	  0.058877755	-1.088320E+02	  0.058877755	2.341400E+01	  0.058877755	-3.030200E+01
196	  0.059078157	-5.889000E+00	  0.059078157	-1.100910E+02	  0.059078157	2.310500E+01	  0.059078157	-2.967600E+01
197	  0.059278559	-5.893000E+00	  0.059278559	-1.113250E+02	  0.059278559	2.282800E+01	  0.059278559	-2.905800E+01
198	  0.059478957	-5.891000E+00	  0.059478957	-1.125950E+02	  0.059478957	2.253200E+01	  0.059478957	-2.843800E+01
199	  0.059679359	-5.890000E+00	  0.059679359	-1.138190E+02	  0.059679359	2.225900E+01	  0.059679359	-2.784400E+01
200	  0.059879761	-5.892000E+00	  0.059879761	-1.150620E+02	  0.059879761	2.200200E+01	  0.059879761	-2.724000E+01
201	  0.060080159	-5.886000E+00	  0.060080159	-1.162430E+02	  0.060080159	2.174100E+01	  0.060080159	-2.668100E+01
202	  0.060280561	-5.884000E+00	  0.060280561	-1.174750E+02	  0.060280561	2.148700E+01	  0.060280561	-2.609800E+01
203	  0.060480963	-5.884000E+00	  0.060480963	-1.186850E+02	  0.060480963	2.125600E+01	  0.060480963	-2.552500E+01
204	  0.060681365	-5.879000E+00	  0.060681365	-1.198760E+02	  0.060681365	2.101800E+01	  0.060681365	-2.497200E+01
205	  0.060881764	-5.872000E+00	  0.060881764	-1.210850E+02	  0.060881764	2.077900E+01	  0.060881764	-2.441600E+01
206	  0.061082166	-5.867000E+00	  0.061082166	-1.222870E+02	  0.061082166	2.055300E+01	  0.061082166	-2.386500E+01
207	  0.061282568	-5.865000E+00	  0.061282568	-1.234440E+02	  0.061282568	2.035400E+01	  0.061282568	-2.333400E+01
208	  0.061482966	-5.861000E+00	  0.061482966	-1.245910E+02	  0.061482966	2.015200E+01	  0.061482966	-2.281400E+01
209	  0.061683368	-5.860000E+00	  0.061683368	-1.257180E+02	  0.061683368	1.997100E+01	  0.061683368	-2.230200E+01
210	  0.061883770	-5.858000E+00	  0.061883770	-1.268540E+02	  0.061883770	1.979300E+01	  0.061883770	-2.179000E+01
211	  0.062084168	-5.853000E+00	  0.062084168	-1.279800E+02	  0.062084168	1.961100E+01	  0.062084168	-2.128900E+01
212	  0.062284570	-5.852000E+00	  0.062284570	-1.291120E+02	  0.062284570	1.944500E+01	  0.062284570	-2.078400E+01
213	  0.062484972	-5.855000E+00	  0.062484972	-1.302300E+02	  0.062484972	1.929800E+01	  0.062484972	-2.028500E+01
214	  0.062685370	-5.853000E+00	  0.062685370	-1.313570E+02	  0.062685370	1.914200E+01	  0.062685370	-1.978800E+01
215	  0.062885776	-5.857000E+00	  0.062885776	-1.324630E+02	  0.062885776	1.901000E+01	  0.062885776	-1.929800E+01
216	  0.063086174	-5.856000E+00	  0.063086174	-1.336010E+02	  0.063086174	1.886300E+01	  0.063086174	-1.880200E+01
217	  0.063286573	-5.857000E+00	  0.063286573	-1.347480E+02	  0.063286573	1.872600E+01	  0.063286573	-1.830200E+01
218	  0.063486971	-5.859000E+00	  0.063486971	-1.358860E+02	  0.063486971	1.859800E+01	  0.063486971	-1.780900E+01
219	  0.063687377	-5.857000E+00	  0.063687377	-1.369870E+02	  0.063687377	1.846800E+01	  0.063687377	-1.733700E+01
220	  0.063887775	-5.853000E+00	  0.063887775	-1.381340E+02	  0.063887775	1.833000E+01	  0.063887775	-1.684900E+01
221	  0.064088173	-5.848000E+00	  0.064088173	-1.392670E+02	  0.064088173	1.819700E+01	  0.064088173	-1.636800E+01
222	  0.064288579	-5.849000E+00	  0.064288579	-1.403610E+02	  0.064288579	1.808800E+01	  0.064288579	-1.590400E+01
223	  0.064488977	-5.848000E+00	  0.064488977	-1.414520E+02	  0.064488977	1.797700E+01	  0.064488977	-1.544400E+01
224	  0.064689375	-5.847000E+00	  0.064689375	-1.425340E+02	  0.064689375	1.787200E+01	  0.064689375	-1.498900E+01
225	  0.064889781	-5.845000E+00	  0.064889781	-1.436260E+02	  0.064889781	1.776400E+01	  0.064889781	-1.453300E+01
226	  0.065090179	-5.843000E+00	  0.065090179	-1.446680E+02	  0.065090179	1.766600E+01	  0.065090179	-1.409900E+01
227	  0.065290578	-5.843000E+00	  0.065290578	-1.457430E+02	  0.065290578	1.757400E+01	  0.065290578	-1.365200E+01
228	  0.065490983	-5.844000E+00	  0.065490983	-1.467930E+02	  0.065490983	1.749100E+01	  0.065490983	-1.321700E+01
229	  0.065691382	-5.845000E+00	  0.065691382	-1.478420E+02	  0.065691382	1.741100E+01	  0.065691382	-1.278400E+01
230	  0.065891780	-5.844000E+00	  0.065891780	-1.488940E+02	  0.065891780	1.732800E+01	  0.065891780	-1.235200E+01
231	  0.066092186	-5.847000E+00	  0.066092186	-1.499390E+02	  0.066092186	1.726100E+01	  0.066092186	-1.192200E+01
232	  0.066292584	-5.846000E+00	  0.066292584	-1.509960E+02	  0.066292584	1.718300E+01	  0.066292584	-1.149000E+01
233	  0.066492982	-5.847000E+00	  0.066492982	-1.520300E+02	  0.066492982	1.711700E+01	  0.066492982	-1.106900E+01
234	  0.066693388	-5.847000E+00	  0.066693388	-1.530420E+02	  0.066693388	1.704900E+01	  0.066693388	-1.065800E+01
235	  0.066893786	-5.850000E+00	  0.066893786	-1.540520E+02	  0.066893786	1.699500E+01	  0.066893786	-1.024800E+01
236	  0.067094192	-5.853000E+00	  0.067094192	-1.550850E+02	  0.067094192	1.694200E+01	  0.067094192	-9.829000E+00
237	  0.067294590	-5.853000E+00	  0.067294590	-1.561250E+02	  0.067294590	1.688500E+01	  0.067294590	-9.411000E+00
238	  0.067494988	-5.857000E+00	  0.067494988	-1.571520E+02	  0.067494988	1.683900E+01	  0.067494988	-8.997000E+00
239	  0.067695394	-5.860000E+00	  0.067695394	-1.581820E+02	  0.067695394	1.679400E+01	  0.067695394	-8.584000E+00
240	  0.067895792	-5.862000E+00	  0.067895792	-1.591900E+02	  0.067895792	1.674800E+01	  0.067895792	-8.180000E+00
241	  0.068096191	-5.867000E+00	  0.068096191	-1.602110E+02	  0.068096191	1.671400E+01	  0.068096191	-7.772000E+00
242	  0.068296596	-5.869000E+00	  0.068296596	-1.612220E+02	  0.068296596	1.667600E+01	  0.068296596	-7.369000E+00
243	  0.068496995	-5.871000E+00	  0.068496995	-1.621950E+02	  0.068496995	1.664100E+01	  0.068496995	-6.982000E+00
244	  0.068697393	-5.878000E+00	  0.068697393	-1.632040E+02	  0.068697393	1.661800E+01	  0.068697393	-6.581000E+00
245	  0.068897791	-5.875000E+00	  0.068897791	-1.641850E+02	  0.068897791	1.657400E+01	  0.068897791	-6.194000E+00
246	  0.069098189	-5.882000E+00	  0.069098189	-1.651800E+02	  0.069098189	1.655700E+01	  0.069098189	-5.800000E+00
247	  0.069298595	-5.886000E+00	  0.069298595	-1.661750E+02	  0.069298595	1.653600E+01	  0.069298595	-5.407000E+00
248	  0.069498993	-5.890000E+00	  0.069498993	-1.671830E+02	  0.069498993	1.651600E+01	  0.069498993	-5.009000E+00
249	  0.069699399	-5.895000E+00	  0.069699399	-1.681720E+02	  0.069699399	1.650100E+01	  0.069699399	-4.620000E+00
250	  0.069899797	-5.898000E+00	  0.069899797	-1.691350E+02	  0.069899797	1.648400E+01	  0.069899797	-4.241000E+00
251	  0.070100196	-5.900000E+00	  0.070100196	-1.701090E+02	  0.070100196	1.646700E+01	  0.070100196	-3.860000E+00
252	  0.070300601	-5.901000E+00	  0.070300601	-1.710960E+02	  0.070300601	1.645000E+01	  0.070300601	-3.473000E+00
253	  0.070501000	-5.908000E+00	  0.070501000	-1.720860E+02	  0.070501000	1.644800E+01	  0.070501000	-3.085000E+00
254	  0.070701398	-5.904000E+00	  0.070701398	-1.730640E+02	  0.070701398	1.642200E+01	  0.070701398	-2.704000E+00
255	  0.070901804	-5.905000E+00	  0.070901804	-1.740210E+02	  0.070901804	1.641000E+01	  0.070901804	-2.330000E+00
256	  0.071102202	-5.910000E+00	  0.071102202	-1.749960E+02	  0.071102202	1.641200E+01	  0.071102202	-1.949000E+00
257	  0.071302600	-5.912000E+00	  0.071302600	-1.759360E+02	  0.071302600	1.640700E+01	  0.071302600	-1.582000E+00
258	  0.071503006	-5.917000E+00	  0.071503006	-1.768440E+02	  0.071503006	1.641200E+01	  0.071503006	-1.229000E+00
259	  0.071703404	-5.918000E+00	  0.071703404	-1.777960E+02	  0.071703404	1.640900E+01	  0.071703404	-8.580000E-01
260	  0.071903802	-5.918000E+00	  0.071903802	-1.787190E+02	  0.071903802	1.640800E+01	  0.071903802	-4.980000E-01
261	  0.072104208	-5.925000E+00	  0.072104208	-1.796450E+02	  0.072104208	1.642400E+01	  0.072104208	-1.370000E-01
262	  0.072304606	-5.928000E+00	  0.072304606	1.794470E+02	  0.072304606	1.643000E+01	  0.072304606	2.140000E-01
263	  0.072505005	-5.935000E+00	  0.072505005	1.785430E+02	  0.072505005	1.644900E+01	  0.072505005	5.660000E-01
264	  0.072705410	-5.937000E+00	  0.072705410	1.776440E+02	  0.072705410	1.645800E+01	  0.072705410	9.160000E-01
265	  0.072905809	-5.942000E+00	  0.072905809	1.767050E+02	  0.072905809	1.647800E+01	  0.072905809	1.281000E+00
266	  0.073106214	-5.944000E+00	  0.073106214	1.758420E+02	  0.073106214	1.649000E+01	  0.073106214	1.617000E+00
267	  0.073306613	-5.950000E+00	  0.073306613	1.749740E+02	  0.073306613	1.651500E+01	  0.073306613	1.955000E+00
268	  0.073507011	-5.956000E+00	  0.073507011	1.740690E+02	  0.073507011	1.654300E+01	  0.073507011	2.306000E+00
269	  0.073707417	-5.963000E+00	  0.073707417	1.731660E+02	  0.073707417	1.657300E+01	  0.073707417	2.658000E+00
270	  0.073907815	-5.969000E+00	  0.073907815	1.723200E+02	  0.073907815	1.660200E+01	  0.073907815	2.987000E+00
271	  0.074108213	-5.976000E+00	  0.074108213	1.714390E+02	  0.074108213	1.663500E+01	  0.074108213	3.330000E+00
272	  0.074308619	-5.985000E+00	  0.074308619	1.705650E+02	  0.074308619	1.667600E+01	  0.074308619	3.669000E+00
273	  0.074509017	-5.992000E+00	  0.074509017	1.696820E+02	  0.074509017	1.671500E+01	  0.074509017	4.013000E+00
274	  0.074709415	-6.000000E+00	  0.074709415	1.688000E+02	  0.074709415	1.675700E+01	  0.074709415	4.356000E+00
275	  0.074909821	-6.012000E+00	  0.074909821	1.679310E+02	  0.074909821	1.681100E+01	  0.074909821	4.693000E+00
276	  0.075110219	-6.020000E+00	  0.075110219	1.670670E+02	  0.075110219	1.685700E+01	  0.075110219	5.029000E+00
277	  0.075310618	-6.031000E+00	  0.075310618	1.662010E+02	  0.075310618	1.691200E+01	  0.075310618	5.366000E+00
278	  0.075511023	-6.042000E+00	  0.075511023	1.653470E+02	  0.075511023	1.696700E+01	  0.075511023	5.698000E+00
279	  0.075711422	-6.051000E+00	  0.075711422	1.645050E+02	  0.075711422	1.702000E+01	  0.075711422	6.026000E+00
280	  0.075911827	-6.061000E+00	  0.075911827	1.636170E+02	  0.075911827	1.707700E+01	  0.075911827	6.372000E+00
281	  0.076112226	-6.073000E+00	  0.076112226	1.627400E+02	  0.076112226	1.714400E+01	  0.076112226	6.713000E+00
282	  0.076312624	-6.085000E+00	  0.076312624	1.618890E+02	  0.076312624	1.720900E+01	  0.076312624	7.045000E+00
283	  0.076513030	-6.094000E+00	  0.076513030	1.609820E+02	  0.076513030	1.727200E+01	  0.076513030	7.399000E+00
284	  0.076713428	-6.100000E+00	  0.076713428	1.601210E+02	  0.076713428	1.732800E+01	  0.076713428	7.737000E+00
285	  0.076913826	-6.113000E+00	  0.076913826	1.592580E+02	  0.076913826	1.740300E+01	  0.076913826	8.073000E+00
286	  0.077114232	-6.119000E+00	  0.077114232	1.584250E+02	  0.077114232	1.746200E+01	  0.077114232	8.400000E+00
287	  0.077314630	-6.128000E+00	  0.077314630	1.575720E+02	  0.077314630	1.752800E+01	  0.077314630	8.735000E+00
288	  0.077515028	-6.137000E+00	  0.077515028	1.567450E+02	  0.077515028	1.759800E+01	  0.077515028	9.059000E+00
289	  0.077715434	-6.148000E+00	  0.077715434	1.559010E+02	  0.077715434	1.767400E+01	  0.077715434	9.390000E+00
290	  0.077915832	-6.157000E+00	  0.077915832	1.550540E+02	  0.077915832	1.774700E+01	  0.077915832	9.723000E+00
291	  0.078116231	-6.170000E+00	  0.078116231	1.542240E+02	  0.078116231	1.783300E+01	  0.078116231	1.004900E+01
292	  0.078316636	-6.180000E+00	  0.078316636	1.533910E+02	  0.078316636	1.791100E+01	  0.078316636	1.037700E+01
293	  0.078517035	-6.193000E+00	  0.078517035	1.525650E+02	  0.078517035	1.800000E+01	  0.078517035	1.070100E+01
294	  0.078717433	-6.203000E+00	  0.078717433	1.517460E+02	  0.078717433	1.808300E+01	  0.078717433	1.102400E+01
295	  0.078917839	-6.215000E+00	  0.078917839	1.509260E+02	  0.078917839	1.817400E+01	  0.078917839	1.134700E+01
296	  0.079118237	-6.225000E+00	  0.079118237	1.501240E+02	  0.079118237	1.825900E+01	  0.079118237	1.166400E+01
297	  0.079318643	-6.237000E+00	  0.079318643	1.493110E+02	  0.079318643	1.835300E+01	  0.079318643	1.198500E+01
298	  0.079519041	-6.249000E+00	  0.079519041	1.485020E+02	  0.079519041	1.844500E+01	  0.079519041	1.230500E+01
299	  0.079719439	-6.264000E+00	  0.079719439	1.477360E+02	  0.079719439	1.854900E+01	  0.079719439	1.260600E+01
300	  0.079919845	-6.281000E+00	  0.079919845	1.468970E+02	  0.079919845	1.866300E+01	  0.079919845	1.293700E+01
301	  0.080120243	-6.290000E+00	  0.080120243	1.460830E+02	  0.080120243	1.875600E+01	  0.080120243	1.326100E+01
302	  0.080320641	-6.303000E+00	  0.080320641	1.453210E+02	  0.080320641	1.885800E+01	  0.080320641	1.356300E+01
303	  0.080521047	-6.319000E+00	  0.080521047	1.445170E+02	  0.080521047	1.897500E+01	  0.080521047	1.388000E+01
304	  0.080721445	-6.333000E+00	  0.080721445	1.437270E+02	  0.080721445	1.908700E+01	  0.080721445	1.419300E+01
305	  0.080921844	-6.350000E+00	  0.080921844	1.429250E+02	  0.080921844	1.920800E+01	  0.080921844	1.451000E+01
306	  0.081122249	-6.368000E+00	  0.081122249	1.421610E+02	  0.081122249	1.933100E+01	  0.081122249	1.481100E+01
307	  0.081322648	-6.384000E+00	  0.081322648	1.413660E+02	  0.081322648	1.945600E+01	  0.081322648	1.512600E+01
308	  0.081523046	-6.397000E+00	  0.081523046	1.405710E+02	  0.081523046	1.957500E+01	  0.081523046	1.544300E+01
309	  0.081723452	-6.419000E+00	  0.081723452	1.397900E+02	  0.081723452	1.971800E+01	  0.081723452	1.575000E+01
310	  0.081923850	-6.434000E+00	  0.081923850	1.390360E+02	  0.081923850	1.984100E+01	  0.081923850	1.604900E+01
311	  0.082124248	-6.455000E+00	  0.082124248	1.382570E+02	  0.082124248	1.998700E+01	  0.082124248	1.635500E+01
312	  0.082324654	-6.472000E+00	  0.082324654	1.375110E+02	  0.082324654	2.011800E+01	  0.082324654	1.665100E+01
313	  0.082525052	-6.491000E+00	  0.082525052	1.367250E+02	  0.082525052	2.026400E+01	  0.082525052	1.696200E+01
314	  0.082725458	-6.518000E+00	  0.082725458	1.359600E+02	  0.082725458	2.043100E+01	  0.082725458	1.725800E+01
315	  0.082925856	-6.536000E+00	  0.082925856	1.351550E+02	  0.082925856	2.057900E+01	  0.082925856	1.757900E+01
316	  0.083126254	-6.553000E+00	  0.083126254	1.343390E+02	  0.083126254	2.073100E+01	  0.083126254	1.790400E+01
317	  0.083326660	-6.576000E+00	  0.083326660	1.335810E+02	  0.083326660	2.089400E+01	  0.083326660	1.820100E+01
318	  0.083527058	-6.595000E+00	  0.083527058	1.328000E+02	  0.083527058	2.105100E+01	  0.083527058	1.851000E+01
319	  0.083727457	-6.611000E+00	  0.083727457	1.320390E+02	  0.083727457	2.120200E+01	  0.083727457	1.881500E+01
320	  0.083927862	-6.624000E+00	  0.083927862	1.312520E+02	  0.083927862	2.134800E+01	  0.083927862	1.913300E+01
321	  0.084128261	-6.645000E+00	  0.084128261	1.305290E+02	  0.084128261	2.150900E+01	  0.084128261	1.941800E+01
322	  0.084328659	-6.662000E+00	  0.084328659	1.297750E+02	  0.084328659	2.166700E+01	  0.084328659	1.972000E+01
323	  0.084529065	-6.680000E+00	  0.084529065	1.290040E+02	  0.084529065	2.183500E+01	  0.084529065	2.002800E+01
324	  0.084729463	-6.697000E+00	  0.084729463	1.282900E+02	  0.084729463	2.199400E+01	  0.084729463	2.031200E+01
325	  0.084929861	-6.717000E+00	  0.084929861	1.275510E+02	  0.084929861	2.216400E+01	  0.084929861	2.060600E+01
326	  0.085130267	-6.734000E+00	  0.085130267	1.268440E+02	  0.085130267	2.232700E+01	  0.085130267	2.088800E+01
327	  0.085330658	-6.752000E+00	  0.085330658	1.261370E+02	  0.085330658	2.249500E+01	  0.085330658	2.116900E+01
328	  0.085531056	-6.772000E+00	  0.085531056	1.254170E+02	  0.085531056	2.267100E+01	  0.085531056	2.145400E+01
329	  0.085731462	-6.795000E+00	  0.085731462	1.247390E+02	  0.085731462	2.285100E+01	  0.085731462	2.171800E+01
330	  0.085931860	-6.817000E+00	  0.085931860	1.240520E+02	  0.085931860	2.303400E+01	  0.085931860	2.198700E+01
331	  0.086132258	-6.840000E+00	  0.086132258	1.233850E+02	  0.086132258	2.321900E+01	  0.086132258	2.224500E+01
332	  0.086332664	-6.862000E+00	  0.086332664	1.226650E+02	  0.086332664	2.341200E+01	  0.086332664	2.252700E+01
333	  0.086533062	-6.883000E+00	  0.086533062	1.219540E+02	  0.086533062	2.360300E+01	  0.086533062	2.280700E+01
334	  0.086733460	-6.911000E+00	  0.086733460	1.212930E+02	  0.086733460	2.380800E+01	  0.086733460	2.305700E+01
335	  0.086933866	-6.933000E+00	  0.086933866	1.205580E+02	  0.086933866	2.401200E+01	  0.086933866	2.334500E+01
336	  0.087134264	-6.954000E+00	  0.087134264	1.198830E+02	  0.087134264	2.420700E+01	  0.087134264	2.360800E+01
337	  0.087334670	-6.977000E+00	  0.087334670	1.191830E+02	  0.087334670	2.441200E+01	  0.087334670	2.388100E+01
338	  0.087535068	-7.004000E+00	  0.087535068	1.185330E+02	  0.087535068	2.462200E+01	  0.087535068	2.412400E+01
339	  0.087735467	-7.029000E+00	  0.087735467	1.178480E+02	  0.087735467	2.483800E+01	  0.087735467	2.438600E+01
340	  0.087935872	-7.054000E+00	  0.087935872	1.171770E+02	  0.087935872	2.505300E+01	  0.087935872	2.464100E+01
341	  0.088136271	-7.078000E+00	  0.088136271	1.165080E+02	  0.088136271	2.526600E+01	  0.088136271	2.489600E+01
342	  0.088336669	-7.101000E+00	  0.088336669	1.158320E+02	  0.088336669	2.548300E+01	  0.088336669	2.515500E+01
343	  0.088537075	-7.131000E+00	  0.088537075	1.151820E+02	  0.088537075	2.571500E+01	  0.088537075	2.539200E+01
344	  0.088737473	-7.161000E+00	  0.088737473	1.145200E+02	  0.088737473	2.595200E+01	  0.088737473	2.563400E+01
345	  0.088937871	-7.185000E+00	  0.088937871	1.138690E+02	  0.088937871	2.617400E+01	  0.088937871	2.587900E+01
346	  0.089138277	-7.217000E+00	  0.089138277	1.132030E+02	  0.089138277	2.642500E+01	  0.089138277	2.611700E+01
347	  0.089338675	-7.246000E+00	  0.089338675	1.125730E+02	  0.089338675	2.666100E+01	  0.089338675	2.634300E+01
348	  0.089539073	-7.280000E+00	  0.089539073	1.119130E+02	  0.089539073	2.692100E+01	  0.089539073	2.657400E+01
349	  0.089739479	-7.308000E+00	  0.089739479	1.112540E+02	  0.089739479	2.716700E+01	  0.089739479	2.681300E+01
350	  0.089939877	-7.337000E+00	  0.089939877	1.106160E+02	  0.089939877	2.741300E+01	  0.089939877	2.704000E+01
351	  0.090140276	-7.365000E+00	  0.090140276	1.099410E+02	  0.090140276	2.767000E+01	  0.090140276	2.728400E+01
352	  0.090340681	-7.395000E+00	  0.090340681	1.092860E+02	  0.090340681	2.792900E+01	  0.090340681	2.751500E+01
353	  0.090541080	-7.427000E+00	  0.090541080	1.086470E+02	  0.090541080	2.819200E+01	  0.090541080	2.773400E+01
354	  0.090741485	-7.454000E+00	  0.090741485	1.080330E+02	  0.090741485	2.843900E+01	  0.090741485	2.795000E+01
355	  0.090941884	-7.481000E+00	  0.090941884	1.073840E+02	  0.090941884	2.869700E+01	  0.090941884	2.818000E+01
356	  0.091142282	-7.510000E+00	  0.091142282	1.067590E+02	  0.091142282	2.895900E+01	  0.091142282	2.839400E+01
357	  0.091342688	-7.536000E+00	  0.091342688	1.061540E+02	  0.091342688	2.920800E+01	  0.091342688	2.860500E+01
358	  0.091543086	-7.562000E+00	  0.091543086	1.055600E+02	  0.091543086	2.945700E+01	  0.091543086	2.881000E+01
359	  0.091743484	-7.588000E+00	  0.091743484	1.049980E+02	  0.091743484	2.969800E+01	  0.091743484	2.900000E+01
360	  0.091943890	-7.613000E+00	  0.091943890	1.044210E+02	  0.091943890	2.994300E+01	  0.091943890	2.919800E+01
361	  0.092144288	-7.646000E+00	  0.092144288	1.038750E+02	  0.092144288	3.020300E+01	  0.092144288	2.936500E+01
362	  0.092344686	-7.671000E+00	  0.092344686	1.033030E+02	  0.092344686	3.045100E+01	  0.092344686	2.955900E+01
363	  0.092545092	-7.705000E+00	  0.092545092	1.027920E+02	  0.092545092	3.070900E+01	  0.092545092	2.970500E+01
364	  0.092745490	-7.735000E+00	  0.092745490	1.022770E+02	  0.092745490	3.095700E+01	  0.092745490	2.986100E+01
365	  0.092945889	-7.770000E+00	  0.092945889	1.017850E+02	  0.092945889	3.121600E+01	  0.092945889	2.999400E+01
366	  0.093146294	-7.798000E+00	  0.093146294	1.012230E+02	  0.093146294	3.148000E+01	  0.093146294	3.017100E+01
367	  0.093346693	-7.835000E+00	  0.093346693	1.007230E+02	  0.093346693	3.175000E+01	  0.093346693	3.030000E+01
368	  0.093547091	-7.868000E+00	  0.093547091	1.002130E+02	  0.093547091	3.201400E+01	  0.093547091	3.044000E+01
369	  0.093747497	-7.902000E+00	  0.093747497	9.971700E+01	  0.093747497	3.227700E+01	  0.093747497	3.057100E+01
370	  0.093947895	-7.936000E+00	  0.093947895	9.922900E+01	  0.093947895	3.254000E+01	  0.093947895	3.069600E+01
371	  0.094148301	-7.974000E+00	  0.094148301	9.873400E+01	  0.094148301	3.281800E+01	  0.094148301	3.081400E+01
372	  0.094348699	-8.010000E+00	  0.094348699	9.823200E+01	  0.094348699	3.309200E+01	  0.094348699	3.093900E+01
373	  0.094549097	-8.042000E+00	  0.094549097	9.777500E+01	  0.094549097	3.334600E+01	  0.094549097	3.104900E+01
374	  0.094749503	-8.075000E+00	  0.094749503	9.730700E+01	  0.094749503	3.360300E+01	  0.094749503	3.116300E+01
375	  0.094949901	-8.107000E+00	  0.094949901	9.681300E+01	  0.094949901	3.387100E+01	  0.094949901	3.128700E+01
376	  0.095150299	-8.140000E+00	  0.095150299	9.632700E+01	  0.095150299	3.414200E+01	  0.095150299	3.140200E+01
377	  0.095350705	-8.181000E+00	  0.095350705	9.584000E+01	  0.095350705	3.443300E+01	  0.095350705	3.149800E+01
378	  0.095551103	-8.210000E+00	  0.095551103	9.538900E+01	  0.095551103	3.468300E+01	  0.095551103	3.160500E+01
379	  0.095751502	-8.248000E+00	  0.095751502	9.493200E+01	  0.095751502	3.495600E+01	  0.095751502	3.169300E+01
380	  0.095951907	-8.286000E+00	  0.095951907	9.451000E+01	  0.095951907	3.522200E+01	  0.095951907	3.176100E+01
381	  0.096152306	-8.321000E+00	  0.096152306	9.407000E+01	  0.096152306	3.548600E+01	  0.096152306	3.184500E+01
382	  0.096352704	-8.354000E+00	  0.096352704	9.358800E+01	  0.096352704	3.576100E+01	  0.096352704	3.194900E+01
383	  0.096553110	-8.385000E+00	  0.096553110	9.311300E+01	  0.096553110	3.603100E+01	  0.096553110	3.205200E+01
384	  0.096753508	-8.414000E+00	  0.096753508	9.269300E+01	  0.096753508	3.627700E+01	  0.096753508	3.213700E+01
385	  0.096953906	-8.450000E+00	  0.096953906	9.221700E+01	  0.096953906	3.656300E+01	  0.096953906	3.222300E+01
386	  0.097154312	-8.478000E+00	  0.097154312	9.178700E+01	  0.097154312	3.681000E+01	  0.097154312	3.231300E+01
387	  0.097354710	-8.498000E+00	  0.097354710	9.136000E+01	  0.097354710	3.703900E+01	  0.097354710	3.242000E+01
388	  0.097555116	-8.530000E+00	  0.097555116	9.090900E+01	  0.097555116	3.730900E+01	  0.097555116	3.250200E+01
389	  0.097755514	-8.556000E+00	  0.097755514	9.049500E+01	  0.097755514	3.755000E+01	  0.097755514	3.258400E+01
390	  0.097955912	-8.576000E+00	  0.097955912	9.007500E+01	  0.097955912	3.778000E+01	  0.097955912	3.268400E+01
391	  0.098156318	-8.595000E+00	  0.098156318	8.966500E+01	  0.098156318	3.800300E+01	  0.098156318	3.278400E+01
392	  0.098356716	-8.615000E+00	  0.098356716	8.929700E+01	  0.098356716	3.821500E+01	  0.098356716	3.286100E+01
393	  0.098557115	-8.630000E+00	  0.098557115	8.889900E+01	  0.098557115	3.842600E+01	  0.098557115	3.296500E+01
394	  0.098757520	-8.647000E+00	  0.098757520	8.849900E+01	  0.098757520	3.864300E+01	  0.098757520	3.306500E+01
395	  0.098957919	-8.660000E+00	  0.098957919	8.813100E+01	  0.098957919	3.883900E+01	  0.098957919	3.316000E+01
396	  0.099158317	-8.673000E+00	  0.099158317	8.776700E+01	  0.099158317	3.903600E+01	  0.099158317	3.325400E+01
397	  0.099358723	-8.690000E+00	  0.099358723	8.743900E+01	  0.099358723	3.922600E+01	  0.099358723	3.332000E+01
398	  0.099559121	-8.707000E+00	  0.099559121	8.712400E+01	  0.099559121	3.941000E+01	  0.099559121	3.338400E+01
399	  0.099759519	-8.718000E+00	  0.099759519	8.680300E+01	  0.099759519	3.958500E+01	  0.099759519	3.346400E+01
400	  0.099959925	-8.729000E+00	  0.099959925	8.649100E+01	  0.099959925	3.975500E+01	  0.099959925	3.354300E+01
401	  0.100160323	-8.744000E+00	  0.100160323	8.615600E+01	  0.100160323	3.994700E+01	  0.100160323	3.361600E+01
402	  0.100360721	-8.753000E+00	  0.100360721	8.585000E+01	  0.100360721	4.011200E+01	  0.100360721	3.369500E+01
403	  0.100561127	-8.761000E+00	  0.100561127	8.555300E+01	  0.100561127	4.027200E+01	  0.100561127	3.377500E+01
404	  0.100761525	-8.776000E+00	  0.100761525	8.515600E+01	  0.100761525	4.049500E+01	  0.100761525	3.386900E+01
405	  0.100961931	-8.785000E+00	  0.100961931	8.489300E+01	  0.100961931	4.064100E+01	  0.100961931	3.393300E+01
406	  0.101162329	-8.793000E+00	  0.101162329	8.460100E+01	  0.101162329	4.080100E+01	  0.101162329	3.400800E+01
407	  0.101362728	-8.805000E+00	  0.101362728	8.427000E+01	  0.101362728	4.098900E+01	  0.101362728	3.408600E+01
408	  0.101563133	-8.817000E+00	  0.101563133	8.394600E+01	  0.101563133	4.117600E+01	  0.101563133	3.415700E+01
409	  0.101763532	-8.826000E+00	  0.101763532	8.364100E+01	  0.101763532	4.134500E+01	  0.101763532	3.423400E+01
410	  0.101963930	-8.830000E+00	  0.101963930	8.325800E+01	  0.101963930	4.154400E+01	  0.101963930	3.435200E+01
411	  0.102164336	-8.838000E+00	  0.102164336	8.297300E+01	  0.102164336	4.170600E+01	  0.102164336	3.442100E+01
412	  0.102364734	-8.842000E+00	  0.102364734	8.257100E+01	  0.102364734	4.191600E+01	  0.102364734	3.454500E+01
413	  0.102565132	-8.854000E+00	  0.102565132	8.222700E+01	  0.102565132	4.211900E+01	  0.102565132	3.461900E+01
414	  0.102765530	-8.858000E+00	  0.102765530	8.187600E+01	  0.102765530	4.230600E+01	  0.102765530	3.472600E+01
415	  0.102965929	-8.854000E+00	  0.102965929	8.150500E+01	  0.102965929	4.248900E+01	  0.102965929	3.486100E+01
416	  0.103166327	-8.858000E+00	  0.103166327	8.115500E+01	  0.103166327	4.267800E+01	  0.103166327	3.496600E+01
417	  0.103366733	-8.861000E+00	  0.103366733	8.074400E+01	  0.103366733	4.289900E+01	  0.103366733	3.509100E+01
418	  0.103567131	-8.864000E+00	  0.103567131	8.031500E+01	  0.103567131	4.313300E+01	  0.103567131	3.522100E+01
419	  0.103767529	-8.856000E+00	  0.103767529	7.991400E+01	  0.103767529	4.332900E+01	  0.103767529	3.538100E+01
420	  0.103967935	-8.860000E+00	  0.103967935	7.946800E+01	  0.103967935	4.357900E+01	  0.103967935	3.551100E+01
421	  0.104168333	-8.855000E+00	  0.104168333	7.902200E+01	  0.104168333	4.381000E+01	  0.104168333	3.567400E+01
422	  0.104368731	-8.851000E+00	  0.104368731	7.857100E+01	  0.104368731	4.404900E+01	  0.104368731	3.583300E+01
423	  0.104569137	-8.848000E+00	  0.104569137	7.810300E+01	  0.104569137	4.430100E+01	  0.104569137	3.599500E+01
424	  0.104769535	-8.828000E+00	  0.104769535	7.759700E+01	  0.104769535	4.454100E+01	  0.104769535	3.623200E+01
425	  0.104969934	-8.825000E+00	  0.104969934	7.719700E+01	  0.104969934	4.476200E+01	  0.104969934	3.637000E+01
426	  0.105170339	-8.806000E+00	  0.105170339	7.665600E+01	  0.105170339	4.503100E+01	  0.105170339	3.661400E+01
427	  0.105370738	-8.788000E+00	  0.105370738	7.620100E+01	  0.105370738	4.525700E+01	  0.105370738	3.682700E+01
428	  0.105571143	-8.776000E+00	  0.105571143	7.572300E+01	  0.105571143	4.551100E+01	  0.105571143	3.702400E+01
429	  0.105771542	-8.759000E+00	  0.105771542	7.521100E+01	  0.105771542	4.578100E+01	  0.105771542	3.724700E+01
430	  0.105971940	-8.742000E+00	  0.105971940	7.469900E+01	  0.105971940	4.605200E+01	  0.105971940	3.747600E+01
431	  0.106172346	-8.723000E+00	  0.106172346	7.419300E+01	  0.106172346	4.632000E+01	  0.106172346	3.770900E+01
432	  0.106372744	-8.704000E+00	  0.106372744	7.373000E+01	  0.106372744	4.656500E+01	  0.106372744	3.792800E+01
433	  0.106573142	-8.689000E+00	  0.106573142	7.322700E+01	  0.106573142	4.684500E+01	  0.106573142	3.814700E+01
434	  0.106773548	-8.674000E+00	  0.106773548	7.276000E+01	  0.106773548	4.710700E+01	  0.106773548	3.835200E+01
435	  0.106973946	-8.648000E+00	  0.106973946	7.224700E+01	  0.106973946	4.738300E+01	  0.106973946	3.861400E+01
436	  0.107174344	-8.629000E+00	  0.107174344	7.167900E+01	  0.107174344	4.770800E+01	  0.107174344	3.887000E+01
437	  0.107374750	-8.617000E+00	  0.107374750	7.118400E+01	  0.107374750	4.800700E+01	  0.107374750	3.907100E+01
438	  0.107575148	-8.594000E+00	  0.107575148	7.068000E+01	  0.107575148	4.829400E+01	  0.107575148	3.932200E+01
439	  0.107775547	-8.583000E+00	  0.107775547	7.019200E+01	  0.107775547	4.859700E+01	  0.107775547	3.951500E+01
440	  0.107975952	-8.567000E+00	  0.107975952	6.966800E+01	  0.107975952	4.892000E+01	  0.107975952	3.973900E+01
441	  0.108176351	-8.556000E+00	  0.108176351	6.911200E+01	  0.108176351	4.927800E+01	  0.108176351	3.995400E+01
442	  0.108376749	-8.548000E+00	  0.108376749	6.866600E+01	  0.108376749	4.957000E+01	  0.108376749	4.012000E+01
443	  0.108577155	-8.533000E+00	  0.108577155	6.803200E+01	  0.108577155	4.998600E+01	  0.108577155	4.037000E+01
444	  0.108777553	-8.520000E+00	  0.108777553	6.756100E+01	  0.108777553	5.029600E+01	  0.108777553	4.056400E+01
445	  0.108977959	-8.514000E+00	  0.108977959	6.699500E+01	  0.108977959	5.069000E+01	  0.108977959	4.074900E+01
446	  0.109178357	-8.512000E+00	  0.109178357	6.648300E+01	  0.109178357	5.105800E+01	  0.109178357	4.090000E+01
447	  0.109378755	-8.499000E+00	  0.109378755	6.587500E+01	  0.109378755	5.148100E+01	  0.109378755	4.112700E+01
448	  0.109579161	-8.496000E+00	  0.109579161	6.531600E+01	  0.109579161	5.189100E+01	  0.109579161	4.129300E+01
449	  0.109779559	-8.494000E+00	  0.109779559	6.479300E+01	  0.109779559	5.228100E+01	  0.109779559	4.144000E+01
450	  0.109979957	-8.486000E+00	  0.109979957	6.420600E+01	  0.109979957	5.271400E+01	  0.109979957	4.162900E+01
451	  0.110180363	-8.483000E+00	  0.110180363	6.360200E+01	  0.110180363	5.317500E+01	  0.110180363	4.179500E+01
452	  0.110380761	-8.480000E+00	  0.110380761	6.298200E+01	  0.110380761	5.365400E+01	  0.110380761	4.196300E+01
453	  0.110581160	-8.475000E+00	  0.110581160	6.238300E+01	  0.110581160	5.412000E+01	  0.110581160	4.213300E+01
454	  0.110781565	-8.465000E+00	  0.110781565	6.174100E+01	  0.110781565	5.462000E+01	  0.110781565	4.233300E+01
455	  0.110981964	-8.461000E+00	  0.110981964	6.107700E+01	  0.110981964	5.515300E+01	  0.110981964	4.250200E+01
456	  0.111182362	-8.461000E+00	  0.111182362	6.047900E+01	  0.111182362	5.564600E+01	  0.111182362	4.263300E+01
457	  0.111382768	-8.453000E+00	  0.111382768	5.975900E+01	  0.111382768	5.623400E+01	  0.111382768	4.283000E+01
458	  0.111583166	-8.452000E+00	  0.111583166	5.908600E+01	  0.111583166	5.680400E+01	  0.111583166	4.296600E+01
459	  0.111783572	-8.442000E+00	  0.111783572	5.840400E+01	  0.111783572	5.737600E+01	  0.111783572	4.315800E+01
460	  0.111983970	-8.438000E+00	  0.111983970	5.769300E+01	  0.111983970	5.799000E+01	  0.111983970	4.331100E+01
461	  0.112184368	-8.428000E+00	  0.112184368	5.698600E+01	  0.112184368	5.860300E+01	  0.112184368	4.349000E+01
462	  0.112384774	-8.424000E+00	  0.112384774	5.625000E+01	  0.112384774	5.925900E+01	  0.112384774	4.362900E+01
463	  0.112585172	-8.421000E+00	  0.112585172	5.553800E+01	  0.112585172	5.990300E+01	  0.112585172	4.375700E+01
464	  0.112785570	-8.410000E+00	  0.112785570	5.479100E+01	  0.112785570	6.058100E+01	  0.112785570	4.392600E+01
465	  0.112985976	-8.410000E+00	  0.112985976	5.402400E+01	  0.112985976	6.129800E+01	  0.112985976	4.402000E+01
466	  0.113186374	-8.398000E+00	  0.113186374	5.328700E+01	  0.113186374	6.198900E+01	  0.113186374	4.418300E+01
467	  0.113386773	-8.394000E+00	  0.113386773	5.250000E+01	  0.113386773	6.274400E+01	  0.113386773	4.428300E+01
468	  0.113587178	-8.393000E+00	  0.113587178	5.170100E+01	  0.113587178	6.352400E+01	  0.113587178	4.435400E+01
469	  0.113787577	-8.381000E+00	  0.113787577	5.090800E+01	  0.113787577	6.430400E+01	  0.113787577	4.449200E+01
470	  0.113987975	-8.385000E+00	  0.113987975	5.010900E+01	  0.113987975	6.510900E+01	  0.113987975	4.450500E+01
471	  0.114188381	-8.385000E+00	  0.114188381	4.931300E+01	  0.114188381	6.592000E+01	  0.114188381	4.453100E+01
472	  0.114388779	-8.378000E+00	  0.114388779	4.850200E+01	  0.114388779	6.675600E+01	  0.114388779	4.459000E+01
473	  0.114589177	-8.378000E+00	  0.114589177	4.772000E+01	  0.114589177	6.757300E+01	  0.114589177	4.458900E+01
474	  0.114789583	-8.380000E+00	  0.114789583	4.689700E+01	  0.114789583	6.844400E+01	  0.114789583	4.455400E+01
475	  0.114989981	-8.382000E+00	  0.114989981	4.606200E+01	  0.114989981	6.933700E+01	  0.114989981	4.449800E+01
476	  0.115190387	-8.392000E+00	  0.115190387	4.517000E+01	  0.115190387	7.029900E+01	  0.115190387	4.436500E+01
477	  0.115390785	-8.403000E+00	  0.115390785	4.430700E+01	  0.115390785	7.123600E+01	  0.115390785	4.420700E+01
478	  0.115591183	-8.413000E+00	  0.115591183	4.347000E+01	  0.115591183	7.215100E+01	  0.115591183	4.402900E+01
479	  0.115791589	-8.419000E+00	  0.115791589	4.255800E+01	  0.115791589	7.316200E+01	  0.115791589	4.385100E+01
480	  0.115991987	-8.435000E+00	  0.115991987	4.169900E+01	  0.115991987	7.410900E+01	  0.115991987	4.358200E+01
481	  0.116192386	-8.452000E+00	  0.116192386	4.076400E+01	  0.116192386	7.514300E+01	  0.116192386	4.326000E+01
482	  0.116392791	-8.466000E+00	  0.116392791	3.984900E+01	  0.116392791	7.616300E+01	  0.116392791	4.293900E+01
483	  0.116593190	-8.489000E+00	  0.116593190	3.892500E+01	  0.116593190	7.717900E+01	  0.116593190	4.251700E+01
484	  0.116793588	-8.515000E+00	  0.116793588	3.795200E+01	  0.116793588	7.824100E+01	  0.116793588	4.201900E+01
485	  0.116993994	-8.540000E+00	  0.116993994	3.698800E+01	  0.116993994	7.929300E+01	  0.116993994	4.150300E+01
486	  0.117194392	-8.568000E+00	  0.117194392	3.603600E+01	  0.117194392	8.031400E+01	  0.117194392	4.092400E+01
487	  0.117394790	-8.599000E+00	  0.117394790	3.502600E+01	  0.117394790	8.138600E+01	  0.117394790	4.027000E+01
488	  0.117595196	-8.633000E+00	  0.117595196	3.402200E+01	  0.117595196	8.243100E+01	  0.117595196	3.956000E+01
489	  0.117795594	-8.666000E+00	  0.117795594	3.301200E+01	  0.117795594	8.346900E+01	  0.117795594	3.880900E+01
490	  0.117995992	-8.700000E+00	  0.117995992	3.196900E+01	  0.117995992	8.452300E+01	  0.117995992	3.799600E+01
491	  0.118196398	-8.745000E+00	  0.118196398	3.092600E+01	  0.118196398	8.551300E+01	  0.118196398	3.706300E+01
492	  0.118396796	-8.792000E+00	  0.118396796	2.981600E+01	  0.118396796	8.653900E+01	  0.118396796	3.603200E+01
493	  0.118597202	-8.838000E+00	  0.118597202	2.873300E+01	  0.118597202	8.750500E+01	  0.118597202	3.498300E+01
494	  0.118797600	-8.888000E+00	  0.118797600	2.755400E+01	  0.118797600	8.851400E+01	  0.118797600	3.379500E+01
495	  0.118997999	-8.945000E+00	  0.118997999	2.643700E+01	  0.118997999	8.938500E+01	  0.118997999	3.256900E+01
496	  0.119198404	-9.005000E+00	  0.119198404	2.530400E+01	  0.119198404	9.020200E+01	  0.119198404	3.127200E+01
497	  0.119398803	-9.062000E+00	  0.119398803	2.411900E+01	  0.119398803	9.103700E+01	  0.119398803	2.992300E+01
498	  0.119599201	-9.140000E+00	  0.119599201	2.295200E+01	  0.119599201	9.167800E+01	  0.119599201	2.842900E+01
499	  0.119799607	-9.205000E+00	  0.119799607	2.174700E+01	  0.119799607	9.235500E+01	  0.119799607	2.694900E+01
500	  0.120000005	-9.281000E+00	  0.120000005	2.047500E+01	  0.120000005	9.296300E+01	  0.120000005	2.533100E+01
