! Anritsu VNA Master:             	Model: MS2036C/10/77
! SN:             	1601066
! /bd0/18may09/252.ns.m10.txt
! Existing Calibration Information:
! TYPE:             	Current Settings	Active Cal Settings
! TIME:             	05/09/2018 09:13:46 AM	05/09/2018 09:02:47 AM
! INTERNAL TEMP:    	42.0 C	40.3 C
! # POINTS:         	500	500
! START FREQ:       	20.000 MHz	20.000 MHz
! STOP FREQ:        	120.000 MHz	120.000 MHz
! SOURCE POWER:     	High	High
! IFBW:             	50 Hz	50 Hz
! AVG FACTOR:       	  1 	  1 
! REF PLANE 1:      	0 mm	0 mm
! REF PLANE 2:      	0 mm	0 mm
! CAL TYPE:         	Full S11	Full S11
! CAL METHOD:       	SOLT	SOLT
! CAL LINE TYPE:    	Coax	Coax
! DUT PORT 1:       	K-Conn(F)	K-Conn(F)
! DUT PORT 2:       	K-Conn(F)	K-Conn(F)
! CAL STATUS:       	OK: Accuracy High	--
! PROP-V:       	0.700
! CABLE LOSS:       	0.000 dB/m
! REF IMPEDANCE:       	50.0
! Trace Specific Parameters:	TR1	TR2	TR3	TR4
! TRACE.#.Y (GRAPH TYPE)	LOG MAG	PHASE	REAL IMPEDANCE	IMAGINARY IMPEDANCE
! TRACE.#.X 	FREQ.GHZ	FREQ.GHZ	FREQ.GHZ	FREQ.GHZ
! S-PARAMETER	S11	S11	S11	S11
! SMOOTH/APERTURE %	0	0	0	0
! WINDOW	NSL	NSL	NSL	NSL
! GATING	OFF	OFF	OFF	OFF
! FGTD	OFF	OFF	OFF	OFF
Marker Information per Trace:	TR1	TR2	TR3	TR4
!MK1	--	"MK1 TR2:  20.000 MHz,PH:-123.55°"	--	--
!MK2	--	--	"MK2 TR3:  70.100 200 MHz,Z:(16.531 ohm, -4.228 ohm)"	--
!MK3	--	--	--	--
!MK4	--	--	--	--
!MK5	--	--	--	--
!MK6	--	--	--	--
!MK7	--	--	--	--
!MK8	--	--	--	--
PNT	TR1.FREQ.GHZ	TR1.LOG MAG.dB	TR2.FREQ.GHZ	TR2.PHASE.deg	TR3.FREQ.GHZ	TR3.REAL IMPEDANCE.ohm	TR4.FREQ.GHZ	TR4.IMAGINARY IMPEDANCE.ohm
1	  0.020000000	-5.940000E-01	  0.020000000	-1.235530E+02	  0.020000000	2.201000E+00	  0.020000000	-2.679500E+01
2	  0.020200402	-5.920000E-01	  0.020200402	-1.249670E+02	  0.020200402	2.168000E+00	  0.020200402	-2.600800E+01
3	  0.020400802	-5.940000E-01	  0.020400802	-1.263840E+02	  0.020400802	2.145000E+00	  0.020400802	-2.522800E+01
4	  0.020601204	-5.960000E-01	  0.020601204	-1.278190E+02	  0.020601204	2.127000E+00	  0.020601204	-2.444800E+01
5	  0.020801604	-6.020000E-01	  0.020801604	-1.292690E+02	  0.020801604	2.120000E+00	  0.020801604	-2.366900E+01
6	  0.021002004	-6.070000E-01	  0.021002004	-1.307490E+02	  0.021002004	2.116000E+00	  0.021002004	-2.288400E+01
7	  0.021202406	-6.140000E-01	  0.021202406	-1.322590E+02	  0.021202406	2.112000E+00	  0.021202406	-2.209300E+01
8	  0.021402806	-6.200000E-01	  0.021402806	-1.337310E+02	  0.021402806	2.112000E+00	  0.021402806	-2.133000E+01
9	  0.021603208	-6.230000E-01	  0.021603208	-1.352230E+02	  0.021603208	2.096000E+00	  0.021603208	-2.056500E+01
10	  0.021803608	-6.280000E-01	  0.021803608	-1.367050E+02	  0.021803608	2.092000E+00	  0.021803608	-1.981400E+01
11	  0.022004008	-6.350000E-01	  0.022004008	-1.381850E+02	  0.022004008	2.093000E+00	  0.022004008	-1.907100E+01
12	  0.022204408	-6.370000E-01	  0.022204408	-1.397090E+02	  0.022204408	2.079000E+00	  0.022204408	-1.831400E+01
13	  0.022404809	-6.410000E-01	  0.022404809	-1.412190E+02	  0.022404809	2.073000E+00	  0.022404809	-1.757100E+01
14	  0.022605211	-6.460000E-01	  0.022605211	-1.427560E+02	  0.022605211	2.071000E+00	  0.022605211	-1.682200E+01
15	  0.022805611	-6.520000E-01	  0.022805611	-1.442900E+02	  0.022805611	2.072000E+00	  0.022805611	-1.608000E+01
16	  0.023006011	-6.530000E-01	  0.023006011	-1.458100E+02	  0.023006011	2.059000E+00	  0.023006011	-1.535300E+01
17	  0.023206413	-6.520000E-01	  0.023206413	-1.473310E+02	  0.023206413	2.038000E+00	  0.023206413	-1.463000E+01
18	  0.023406813	-6.540000E-01	  0.023406813	-1.488460E+02	  0.023406813	2.029000E+00	  0.023406813	-1.391700E+01
19	  0.023607215	-6.600000E-01	  0.023607215	-1.503900E+02	  0.023607215	2.032000E+00	  0.023607215	-1.319400E+01
20	  0.023807615	-6.680000E-01	  0.023807615	-1.519310E+02	  0.023807615	2.043000E+00	  0.023807615	-1.247800E+01
21	  0.024008015	-6.780000E-01	  0.024008015	-1.534850E+02	  0.024008015	2.058000E+00	  0.024008015	-1.176100E+01
22	  0.024208417	-6.860000E-01	  0.024208417	-1.550690E+02	  0.024208417	2.070000E+00	  0.024208417	-1.103400E+01
23	  0.024408817	-6.940000E-01	  0.024408817	-1.566500E+02	  0.024408817	2.082000E+00	  0.024408817	-1.031400E+01
24	  0.024609219	-7.010000E-01	  0.024609219	-1.582470E+02	  0.024609219	2.092000E+00	  0.024609219	-9.590000E+00
25	  0.024809619	-7.090000E-01	  0.024809619	-1.598440E+02	  0.024809619	2.105000E+00	  0.024809619	-8.870000E+00
26	  0.025010020	-7.190000E-01	  0.025010020	-1.614400E+02	  0.025010020	2.125000E+00	  0.025010020	-8.155000E+00
27	  0.025210422	-7.300000E-01	  0.025210422	-1.630560E+02	  0.025210422	2.149000E+00	  0.025210422	-7.433000E+00
28	  0.025410822	-7.430000E-01	  0.025410822	-1.646920E+02	  0.025410822	2.178000E+00	  0.025410822	-6.706000E+00
29	  0.025611224	-7.570000E-01	  0.025611224	-1.663620E+02	  0.025611224	2.210000E+00	  0.025611224	-5.967000E+00
30	  0.025811624	-7.680000E-01	  0.025811624	-1.680420E+02	  0.025811624	2.233000E+00	  0.025811624	-5.226000E+00
31	  0.026012026	-7.760000E-01	  0.026012026	-1.697260E+02	  0.026012026	2.251000E+00	  0.026012026	-4.485000E+00
32	  0.026212426	-7.870000E-01	  0.026212426	-1.714250E+02	  0.026212426	2.278000E+00	  0.026212426	-3.740000E+00
33	  0.026412826	-7.990000E-01	  0.026412826	-1.731260E+02	  0.026412826	2.307000E+00	  0.026412826	-2.996000E+00
34	  0.026613226	-8.120000E-01	  0.026613226	-1.748330E+02	  0.026613226	2.341000E+00	  0.026613226	-2.250000E+00
35	  0.026813626	-8.270000E-01	  0.026813626	-1.765680E+02	  0.026813626	2.383000E+00	  0.026813626	-1.494000E+00
36	  0.027014028	-8.420000E-01	  0.027014028	-1.783010E+02	  0.027014028	2.422000E+00	  0.027014028	-7.390000E-01
37	  0.027214428	-8.570000E-01	  0.027214428	1.799580E+02	  0.027214428	2.464000E+00	  0.027214428	1.800000E-02
38	  0.027414829	-8.710000E-01	  0.027414829	1.781910E+02	  0.027414829	2.507000E+00	  0.027414829	7.870000E-01
39	  0.027615231	-8.880000E-01	  0.027615231	1.764220E+02	  0.027615231	2.556000E+00	  0.027615231	1.557000E+00
40	  0.027815631	-9.070000E-01	  0.027815631	1.746440E+02	  0.027815631	2.615000E+00	  0.027815631	2.332000E+00
41	  0.028016033	-9.290000E-01	  0.028016033	1.728540E+02	  0.028016033	2.682000E+00	  0.028016033	3.112000E+00
42	  0.028216433	-9.500000E-01	  0.028216433	1.710640E+02	  0.028216433	2.748000E+00	  0.028216433	3.895000E+00
43	  0.028416833	-9.700000E-01	  0.028416833	1.692580E+02	  0.028416833	2.814000E+00	  0.028416833	4.686000E+00
44	  0.028617235	-9.900000E-01	  0.028617235	1.674730E+02	  0.028617235	2.881000E+00	  0.028617235	5.469000E+00
45	  0.028817635	-1.009000E+00	  0.028817635	1.656960E+02	  0.028817635	2.946000E+00	  0.028817635	6.252000E+00
46	  0.029018037	-1.029000E+00	  0.029018037	1.639160E+02	  0.029018037	3.019000E+00	  0.029018037	7.039000E+00
47	  0.029218437	-1.051000E+00	  0.029218437	1.621400E+02	  0.029218437	3.097000E+00	  0.029218437	7.827000E+00
48	  0.029418837	-1.076000E+00	  0.029418837	1.603630E+02	  0.029418837	3.187000E+00	  0.029418837	8.618000E+00
49	  0.029619239	-1.103000E+00	  0.029619239	1.585680E+02	  0.029619239	3.285000E+00	  0.029619239	9.422000E+00
50	  0.029819639	-1.132000E+00	  0.029819639	1.567580E+02	  0.029819639	3.392000E+00	  0.029819639	1.023700E+01
51	  0.030020041	-1.165000E+00	  0.030020041	1.549260E+02	  0.030020041	3.513000E+00	  0.030020041	1.106600E+01
52	  0.030220442	-1.193000E+00	  0.030220442	1.530780E+02	  0.030220442	3.625000E+00	  0.030220442	1.190800E+01
53	  0.030420844	-1.224000E+00	  0.030420844	1.512340E+02	  0.030420844	3.748000E+00	  0.030420844	1.275400E+01
54	  0.030621244	-1.257000E+00	  0.030621244	1.494000E+02	  0.030621244	3.881000E+00	  0.030621244	1.360100E+01
55	  0.030821644	-1.291000E+00	  0.030821644	1.475690E+02	  0.030821644	4.020000E+00	  0.030821644	1.445400E+01
56	  0.031022044	-1.328000E+00	  0.031022044	1.457120E+02	  0.031022044	4.176000E+00	  0.031022044	1.532500E+01
57	  0.031222444	-1.363000E+00	  0.031222444	1.438700E+02	  0.031222444	4.330000E+00	  0.031222444	1.619700E+01
58	  0.031422846	-1.398000E+00	  0.031422846	1.419560E+02	  0.031422846	4.490000E+00	  0.031422846	1.711300E+01
59	  0.031623244	-1.434000E+00	  0.031623244	1.400400E+02	  0.031623244	4.659000E+00	  0.031623244	1.803900E+01
60	  0.031823646	-1.467000E+00	  0.031823646	1.381130E+02	  0.031823646	4.824000E+00	  0.031823646	1.898100E+01
61	  0.032024048	-1.498000E+00	  0.032024048	1.361900E+02	  0.032024048	4.991000E+00	  0.032024048	1.993100E+01
62	  0.032224450	-1.530000E+00	  0.032224450	1.342700E+02	  0.032224450	5.169000E+00	  0.032224450	2.089200E+01
63	  0.032424849	-1.561000E+00	  0.032424849	1.323480E+02	  0.032424849	5.347000E+00	  0.032424849	2.186700E+01
64	  0.032625251	-1.596000E+00	  0.032625251	1.304220E+02	  0.032625251	5.548000E+00	  0.032625251	2.285600E+01
65	  0.032825653	-1.632000E+00	  0.032825653	1.284870E+02	  0.032825653	5.763000E+00	  0.032825653	2.386300E+01
66	  0.033026051	-1.672000E+00	  0.033026051	1.265310E+02	  0.033026051	6.003000E+00	  0.033026051	2.489400E+01
67	  0.033226453	-1.718000E+00	  0.033226453	1.245900E+02	  0.033226453	6.271000E+00	  0.033226453	2.593100E+01
68	  0.033426855	-1.765000E+00	  0.033426855	1.225780E+02	  0.033426855	6.564000E+00	  0.033426855	2.702200E+01
69	  0.033627257	-1.815000E+00	  0.033627257	1.205780E+02	  0.033627257	6.879000E+00	  0.033627257	2.812300E+01
70	  0.033827655	-1.865000E+00	  0.033827655	1.185300E+02	  0.033827655	7.211000E+00	  0.033827655	2.927000E+01
71	  0.034028057	-1.910000E+00	  0.034028057	1.164230E+02	  0.034028057	7.544000E+00	  0.034028057	3.047400E+01
72	  0.034228459	-1.958000E+00	  0.034228459	1.143150E+02	  0.034228459	7.910000E+00	  0.034228459	3.170200E+01
73	  0.034428857	-2.000000E+00	  0.034428857	1.121720E+02	  0.034428857	8.274000E+00	  0.034428857	3.297800E+01
74	  0.034629259	-2.044000E+00	  0.034629259	1.100530E+02	  0.034629259	8.664000E+00	  0.034629259	3.426500E+01
75	  0.034829661	-2.083000E+00	  0.034829661	1.079540E+02	  0.034829661	9.056000E+00	  0.034829661	3.557100E+01
76	  0.035030060	-2.124000E+00	  0.035030060	1.058340E+02	  0.035030060	9.479000E+00	  0.035030060	3.691900E+01
77	  0.035230462	-2.162000E+00	  0.035230462	1.037340E+02	  0.035230462	9.915000E+00	  0.035230462	3.828700E+01
78	  0.035430863	-2.202000E+00	  0.035430863	1.016550E+02	  0.035430863	1.038000E+01	  0.035430863	3.967200E+01
79	  0.035631265	-2.245000E+00	  0.035631265	9.958700E+01	  0.035631265	1.089100E+01	  0.035631265	4.107800E+01
80	  0.035831664	-2.288000E+00	  0.035831664	9.750700E+01	  0.035831664	1.143500E+01	  0.035831664	4.252900E+01
81	  0.036032066	-2.332000E+00	  0.036032066	9.546400E+01	  0.036032066	1.200700E+01	  0.036032066	4.398800E+01
82	  0.036232468	-2.378000E+00	  0.036232468	9.337400E+01	  0.036232468	1.264100E+01	  0.036232468	4.551700E+01
83	  0.036432866	-2.428000E+00	  0.036432866	9.134000E+01	  0.036432866	1.332800E+01	  0.036432866	4.703500E+01
84	  0.036633268	-2.487000E+00	  0.036633268	8.930800E+01	  0.036633268	1.410100E+01	  0.036633268	4.857700E+01
85	  0.036833670	-2.546000E+00	  0.036833670	8.722800E+01	  0.036833670	1.494500E+01	  0.036833670	5.019600E+01
86	  0.037034072	-2.608000E+00	  0.037034072	8.511900E+01	  0.037034072	1.587000E+01	  0.037034072	5.187500E+01
87	  0.037234470	-2.671000E+00	  0.037234470	8.300100E+01	  0.037234470	1.687200E+01	  0.037234470	5.360300E+01
88	  0.037434869	-2.735000E+00	  0.037434869	8.085300E+01	  0.037434869	1.796300E+01	  0.037434869	5.540100E+01
89	  0.037635271	-2.799000E+00	  0.037635271	7.867600E+01	  0.037635271	1.914900E+01	  0.037635271	5.727200E+01
90	  0.037835669	-2.867000E+00	  0.037835669	7.650000E+01	  0.037835669	2.046100E+01	  0.037835669	5.917700E+01
91	  0.038036071	-2.938000E+00	  0.038036071	7.433800E+01	  0.038036071	2.188500E+01	  0.038036071	6.110800E+01
92	  0.038236473	-2.996000E+00	  0.038236473	7.221500E+01	  0.038236473	2.331300E+01	  0.038236473	6.308800E+01
93	  0.038436871	-3.041000E+00	  0.038436871	7.007500E+01	  0.038436871	2.477800E+01	  0.038436871	6.518200E+01
94	  0.038637273	-3.089000E+00	  0.038637273	6.795400E+01	  0.038637273	2.637300E+01	  0.038637273	6.730500E+01
95	  0.038837675	-3.134000E+00	  0.038837675	6.575800E+01	  0.038837675	2.813800E+01	  0.038837675	6.957900E+01
96	  0.039038073	-3.179000E+00	  0.039038073	6.365000E+01	  0.039038073	2.999600E+01	  0.039038073	7.181300E+01
97	  0.039238475	-3.226000E+00	  0.039238475	6.157200E+01	  0.039238475	3.200700E+01	  0.039238475	7.405600E+01
98	  0.039438877	-3.282000E+00	  0.039438877	5.952700E+01	  0.039438877	3.423300E+01	  0.039438877	7.625500E+01
99	  0.039639279	-3.337000E+00	  0.039639279	5.748300E+01	  0.039639279	3.665300E+01	  0.039639279	7.848200E+01
100	  0.039839678	-3.400000E+00	  0.039839678	5.542700E+01	  0.039839678	3.936000E+01	  0.039839678	8.069600E+01
101	  0.040040080	-3.462000E+00	  0.040040080	5.335600E+01	  0.040040080	4.230500E+01	  0.040040080	8.294600E+01
102	  0.040240481	-3.525000E+00	  0.040240481	5.126400E+01	  0.040240481	4.556100E+01	  0.040240481	8.519600E+01
103	  0.040440880	-3.587000E+00	  0.040440880	4.917800E+01	  0.040440880	4.907700E+01	  0.040440880	8.742700E+01
104	  0.040641282	-3.649000E+00	  0.040641282	4.711400E+01	  0.040641282	5.288300E+01	  0.040641282	8.956700E+01
105	  0.040841684	-3.709000E+00	  0.040841684	4.503500E+01	  0.040841684	5.703200E+01	  0.040841684	9.166500E+01
106	  0.041042086	-3.771000E+00	  0.041042086	4.295100E+01	  0.041042086	6.156300E+01	  0.041042086	9.364000E+01
107	  0.041242484	-3.830000E+00	  0.041242484	4.089200E+01	  0.041242484	6.641400E+01	  0.041242484	9.545400E+01
108	  0.041442886	-3.890000E+00	  0.041442886	3.881000E+01	  0.041442886	7.172300E+01	  0.041442886	9.709400E+01
109	  0.041643288	-3.944000E+00	  0.041643288	3.674200E+01	  0.041643288	7.739900E+01	  0.041643288	9.852300E+01
110	  0.041843686	-4.001000E+00	  0.041843686	3.467400E+01	  0.041843686	8.353300E+01	  0.041843686	9.959600E+01
111	  0.042044088	-4.058000E+00	  0.042044088	3.263000E+01	  0.042044088	9.004400E+01	  0.042044088	1.002370E+02
112	  0.042244490	-4.111000E+00	  0.042244490	3.060100E+01	  0.042244490	9.692100E+01	  0.042244490	1.004490E+02
113	  0.042444889	-4.167000E+00	  0.042444889	2.858900E+01	  0.042444889	1.041590E+02	  0.042444889	9.999500E+01
114	  0.042645290	-4.222000E+00	  0.042645290	2.654700E+01	  0.042645290	1.118670E+02	  0.042645290	9.890800E+01
115	  0.042845692	-4.280000E+00	  0.042845692	2.453600E+01	  0.042845692	1.197410E+02	  0.042845692	9.691800E+01
116	  0.043046094	-4.336000E+00	  0.043046094	2.251100E+01	  0.043046094	1.278670E+02	  0.043046094	9.409000E+01
117	  0.043246493	-4.392000E+00	  0.043246493	2.047300E+01	  0.043246493	1.361180E+02	  0.043246493	9.025000E+01
118	  0.043446895	-4.446000E+00	  0.043446895	1.843500E+01	  0.043446895	1.442930E+02	  0.043446895	8.535600E+01
119	  0.043647297	-4.500000E+00	  0.043647297	1.640400E+01	  0.043647297	1.521680E+02	  0.043647297	7.934600E+01
120	  0.043847695	-4.558000E+00	  0.043847695	1.435500E+01	  0.043847695	1.595360E+02	  0.043847695	7.201300E+01
121	  0.044048097	-4.612000E+00	  0.044048097	1.234500E+01	  0.044048097	1.661140E+02	  0.044048097	6.384000E+01
122	  0.044248499	-4.664000E+00	  0.044248499	1.031800E+01	  0.044248499	1.718440E+02	  0.044248499	5.464900E+01
123	  0.044448901	-4.717000E+00	  0.044448901	8.286000E+00	  0.044448901	1.764270E+02	  0.044448901	4.458700E+01
124	  0.044649299	-4.763000E+00	  0.044649299	6.249000E+00	  0.044649299	1.799660E+02	  0.044649299	3.399400E+01
125	  0.044849701	-4.810000E+00	  0.044849701	4.221000E+00	  0.044849701	1.820270E+02	  0.044849701	2.300100E+01
126	  0.045050103	-4.847000E+00	  0.045050103	2.230000E+00	  0.045050103	1.829420E+02	  0.045050103	1.211600E+01
127	  0.045250501	-4.887000E+00	  0.045250501	2.310000E-01	  0.045250501	1.823710E+02	  0.045250501	1.244000E+00
128	  0.045450903	-4.925000E+00	  0.045450903	-1.700000E+00	  0.045450903	1.805640E+02	  0.045450903	-8.960000E+00
129	  0.045651305	-4.962000E+00	  0.045651305	-3.640000E+00	  0.045651305	1.776200E+02	  0.045651305	-1.870200E+01
130	  0.045851704	-4.997000E+00	  0.045851704	-5.549000E+00	  0.045851704	1.737860E+02	  0.045851704	-2.766100E+01
131	  0.046052106	-5.032000E+00	  0.046052106	-7.450000E+00	  0.046052106	1.691230E+02	  0.046052106	-3.581500E+01
132	  0.046252504	-5.064000E+00	  0.046252504	-9.341000E+00	  0.046252504	1.639110E+02	  0.046252504	-4.314700E+01
133	  0.046452906	-5.097000E+00	  0.046452906	-1.119700E+01	  0.046452906	1.582610E+02	  0.046452906	-4.948100E+01
134	  0.046653304	-5.125000E+00	  0.046653304	-1.306000E+01	  0.046653304	1.523670E+02	  0.046653304	-5.510200E+01
135	  0.046853706	-5.156000E+00	  0.046853706	-1.487100E+01	  0.046853706	1.463520E+02	  0.046853706	-5.970300E+01
136	  0.047054108	-5.180000E+00	  0.047054108	-1.669700E+01	  0.047054108	1.403050E+02	  0.047054108	-6.373900E+01
137	  0.047254506	-5.207000E+00	  0.047254506	-1.848700E+01	  0.047254506	1.343260E+02	  0.047254506	-6.696500E+01
138	  0.047454908	-5.235000E+00	  0.047454908	-2.024700E+01	  0.047454908	1.284850E+02	  0.047454908	-6.947900E+01
139	  0.047655310	-5.261000E+00	  0.047655310	-2.198200E+01	  0.047655310	1.228680E+02	  0.047655310	-7.146700E+01
140	  0.047855709	-5.290000E+00	  0.047855709	-2.370100E+01	  0.047855709	1.174370E+02	  0.047855709	-7.290300E+01
141	  0.048056111	-5.319000E+00	  0.048056111	-2.540400E+01	  0.048056111	1.122510E+02	  0.048056111	-7.391900E+01
142	  0.048256513	-5.350000E+00	  0.048256513	-2.712100E+01	  0.048256513	1.072230E+02	  0.048256513	-7.454000E+01
143	  0.048456915	-5.380000E+00	  0.048456915	-2.884000E+01	  0.048456915	1.024230E+02	  0.048456915	-7.487000E+01
144	  0.048657313	-5.411000E+00	  0.048657313	-3.054200E+01	  0.048657313	9.789800E+01	  0.048657313	-7.490500E+01
145	  0.048857715	-5.442000E+00	  0.048857715	-3.226000E+01	  0.048857715	9.356400E+01	  0.048857715	-7.471600E+01
146	  0.049058117	-5.470000E+00	  0.049058117	-3.401000E+01	  0.049058117	8.938900E+01	  0.049058117	-7.437300E+01
147	  0.049258515	-5.500000E+00	  0.049258515	-3.568900E+01	  0.049258515	8.560200E+01	  0.049258515	-7.383100E+01
148	  0.049458917	-5.529000E+00	  0.049458917	-3.742400E+01	  0.049458917	8.190400E+01	  0.049458917	-7.314000E+01
149	  0.049659319	-5.563000E+00	  0.049659319	-3.914600E+01	  0.049659319	7.845200E+01	  0.049659319	-7.228100E+01
150	  0.049859721	-5.590000E+00	  0.049859721	-4.088900E+01	  0.049859721	7.515100E+01	  0.049859721	-7.139500E+01
151	  0.050060119	-5.618000E+00	  0.050060119	-4.264400E+01	  0.050060119	7.202500E+01	  0.050060119	-7.041000E+01
152	  0.050260521	-5.640000E+00	  0.050260521	-4.441500E+01	  0.050260521	6.903600E+01	  0.050260521	-6.941700E+01
153	  0.050460923	-5.659000E+00	  0.050460923	-4.616800E+01	  0.050460923	6.624200E+01	  0.050460923	-6.839700E+01
154	  0.050661322	-5.678000E+00	  0.050661322	-4.794400E+01	  0.050661322	6.357600E+01	  0.050661322	-6.730500E+01
155	  0.050861724	-5.695000E+00	  0.050861724	-4.967800E+01	  0.050861724	6.111600E+01	  0.050861724	-6.621600E+01
156	  0.051062126	-5.711000E+00	  0.051062126	-5.142100E+01	  0.051062126	5.878200E+01	  0.051062126	-6.509200E+01
157	  0.051262524	-5.726000E+00	  0.051262524	-5.310600E+01	  0.051262524	5.664800E+01	  0.051262524	-6.398100E+01
158	  0.051462926	-5.734000E+00	  0.051462926	-5.479500E+01	  0.051462926	5.460100E+01	  0.051462926	-6.290000E+01
159	  0.051663328	-5.744000E+00	  0.051663328	-5.646300E+01	  0.051663328	5.269200E+01	  0.051663328	-6.180400E+01
160	  0.051863730	-5.757000E+00	  0.051863730	-5.814000E+01	  0.051863730	5.088900E+01	  0.051863730	-6.066600E+01
161	  0.052064128	-5.769000E+00	  0.052064128	-5.981300E+01	  0.052064128	4.918300E+01	  0.052064128	-5.952900E+01
162	  0.052264530	-5.774000E+00	  0.052264530	-6.146500E+01	  0.052264530	4.755900E+01	  0.052264530	-5.844700E+01
163	  0.052464932	-5.782000E+00	  0.052464932	-6.309300E+01	  0.052464932	4.605500E+01	  0.052464932	-5.735400E+01
164	  0.052665330	-5.790000E+00	  0.052665330	-6.473800E+01	  0.052665330	4.460600E+01	  0.052665330	-5.625700E+01
165	  0.052865732	-5.795000E+00	  0.052865732	-6.634300E+01	  0.052865732	4.325700E+01	  0.052865732	-5.519700E+01
166	  0.053066134	-5.797000E+00	  0.053066134	-6.795900E+01	  0.053066134	4.195200E+01	  0.053066134	-5.414900E+01
167	  0.053266536	-5.800000E+00	  0.053266536	-6.952500E+01	  0.053266536	4.075200E+01	  0.053266536	-5.313300E+01
168	  0.053466935	-5.799000E+00	  0.053466935	-7.110900E+01	  0.053466935	3.957900E+01	  0.053466935	-5.212700E+01
169	  0.053667337	-5.796000E+00	  0.053667337	-7.262900E+01	  0.053667337	3.849900E+01	  0.053667337	-5.117200E+01
170	  0.053867739	-5.794000E+00	  0.053867739	-7.416000E+01	  0.053867739	3.746000E+01	  0.053867739	-5.021200E+01
171	  0.054068137	-5.789000E+00	  0.054068137	-7.562700E+01	  0.054068137	3.649600E+01	  0.054068137	-4.931100E+01
172	  0.054268539	-5.790000E+00	  0.054268539	-7.705900E+01	  0.054268539	3.562200E+01	  0.054268539	-4.840700E+01
173	  0.054468941	-5.792000E+00	  0.054468941	-7.848900E+01	  0.054468941	3.478600E+01	  0.054468941	-4.751200E+01
174	  0.054669339	-5.791000E+00	  0.054669339	-7.989500E+01	  0.054669339	3.398800E+01	  0.054669339	-4.664800E+01
175	  0.054869737	-5.799000E+00	  0.054869737	-8.126200E+01	  0.054869737	3.327800E+01	  0.054869737	-4.578400E+01
176	  0.055070139	-5.804000E+00	  0.055070139	-8.263600E+01	  0.055070139	3.258200E+01	  0.055070139	-4.493400E+01
177	  0.055270538	-5.813000E+00	  0.055270538	-8.400000E+01	  0.055270538	3.193500E+01	  0.055270538	-4.408400E+01
178	  0.055470940	-5.819000E+00	  0.055470940	-8.538600E+01	  0.055470940	3.129000E+01	  0.055470940	-4.324100E+01
179	  0.055671342	-5.829000E+00	  0.055671342	-8.677300E+01	  0.055671342	3.068400E+01	  0.055671342	-4.239600E+01
180	  0.055871744	-5.838000E+00	  0.055871744	-8.812800E+01	  0.055871744	3.011900E+01	  0.055871744	-4.157700E+01
181	  0.056072142	-5.853000E+00	  0.056072142	-8.950700E+01	  0.056072142	2.958300E+01	  0.056072142	-4.074100E+01
182	  0.056272544	-5.863000E+00	  0.056272544	-9.088300E+01	  0.056272544	2.905300E+01	  0.056272544	-3.992800E+01
183	  0.056472946	-5.872000E+00	  0.056472946	-9.227400E+01	  0.056472946	2.853400E+01	  0.056472946	-3.912000E+01
184	  0.056673344	-5.880000E+00	  0.056673344	-9.363900E+01	  0.056673344	2.803900E+01	  0.056673344	-3.833900E+01
185	  0.056873746	-5.886000E+00	  0.056873746	-9.501800E+01	  0.056873746	2.755600E+01	  0.056873746	-3.756000E+01
186	  0.057074148	-5.888000E+00	  0.057074148	-9.641000E+01	  0.057074148	2.706700E+01	  0.057074148	-3.679500E+01
187	  0.057274550	-5.892000E+00	  0.057274550	-9.777300E+01	  0.057274550	2.661600E+01	  0.057274550	-3.604700E+01
188	  0.057474948	-5.895000E+00	  0.057474948	-9.910700E+01	  0.057474948	2.619000E+01	  0.057474948	-3.532300E+01
189	  0.057675350	-5.895000E+00	  0.057675350	-1.004370E+02	  0.057675350	2.576700E+01	  0.057675350	-3.461700E+01
190	  0.057875752	-5.897000E+00	  0.057875752	-1.017500E+02	  0.057875752	2.537200E+01	  0.057875752	-3.392100E+01
191	  0.058076151	-5.895000E+00	  0.058076151	-1.030560E+02	  0.058076151	2.498200E+01	  0.058076151	-3.324100E+01
192	  0.058276553	-5.893000E+00	  0.058276553	-1.043390E+02	  0.058276553	2.460900E+01	  0.058276553	-3.258100E+01
193	  0.058476955	-5.895000E+00	  0.058476955	-1.055950E+02	  0.058476955	2.426800E+01	  0.058476955	-3.193200E+01
194	  0.058677353	-5.895000E+00	  0.058677353	-1.068860E+02	  0.058677353	2.392500E+01	  0.058677353	-3.127500E+01
195	  0.058877755	-5.892000E+00	  0.058877755	-1.081530E+02	  0.058877755	2.359000E+01	  0.058877755	-3.064000E+01
196	  0.059078157	-5.887000E+00	  0.059078157	-1.094000E+02	  0.059078157	2.326500E+01	  0.059078157	-3.002300E+01
197	  0.059278559	-5.890000E+00	  0.059278559	-1.106390E+02	  0.059278559	2.297800E+01	  0.059278559	-2.940200E+01
198	  0.059478957	-5.887000E+00	  0.059478957	-1.119170E+02	  0.059478957	2.267100E+01	  0.059478957	-2.877700E+01
199	  0.059679359	-5.882000E+00	  0.059679359	-1.131150E+02	  0.059679359	2.238800E+01	  0.059679359	-2.819700E+01
200	  0.059879761	-5.880000E+00	  0.059879761	-1.143540E+02	  0.059879761	2.211200E+01	  0.059879761	-2.759900E+01
201	  0.060080159	-5.874000E+00	  0.060080159	-1.155410E+02	  0.060080159	2.184500E+01	  0.060080159	-2.703400E+01
202	  0.060280561	-5.870000E+00	  0.060280561	-1.167440E+02	  0.060280561	2.158900E+01	  0.060280561	-2.646300E+01
203	  0.060480963	-5.868000E+00	  0.060480963	-1.179350E+02	  0.060480963	2.134700E+01	  0.060480963	-2.590000E+01
204	  0.060681365	-5.861000E+00	  0.060681365	-1.191130E+02	  0.060681365	2.110300E+01	  0.060681365	-2.535200E+01
205	  0.060881764	-5.853000E+00	  0.060881764	-1.202990E+02	  0.060881764	2.086000E+01	  0.060881764	-2.480500E+01
206	  0.061082166	-5.853000E+00	  0.061082166	-1.214710E+02	  0.061082166	2.065100E+01	  0.061082166	-2.425900E+01
207	  0.061282568	-5.847000E+00	  0.061282568	-1.226100E+02	  0.061282568	2.043900E+01	  0.061282568	-2.373800E+01
208	  0.061482966	-5.842000E+00	  0.061482966	-1.237500E+02	  0.061482966	2.023300E+01	  0.061482966	-2.321900E+01
209	  0.061683368	-5.841000E+00	  0.061683368	-1.248420E+02	  0.061683368	2.005400E+01	  0.061683368	-2.272000E+01
210	  0.061883770	-5.840000E+00	  0.061883770	-1.259640E+02	  0.061883770	1.987500E+01	  0.061883770	-2.221100E+01
211	  0.062084168	-5.837000E+00	  0.062084168	-1.270740E+02	  0.062084168	1.969600E+01	  0.062084168	-2.171200E+01
212	  0.062284570	-5.839000E+00	  0.062284570	-1.281840E+02	  0.062284570	1.954000E+01	  0.062284570	-2.121100E+01
213	  0.062484972	-5.841000E+00	  0.062484972	-1.292810E+02	  0.062484972	1.939000E+01	  0.062484972	-2.071900E+01
214	  0.062685370	-5.843000E+00	  0.062685370	-1.303900E+02	  0.062685370	1.924200E+01	  0.062685370	-2.022400E+01
215	  0.062885776	-5.849000E+00	  0.062885776	-1.314930E+02	  0.062885776	1.911100E+01	  0.062885776	-1.973200E+01
216	  0.063086174	-5.848000E+00	  0.063086174	-1.326240E+02	  0.063086174	1.896400E+01	  0.063086174	-1.923500E+01
217	  0.063286573	-5.852000E+00	  0.063286573	-1.337700E+02	  0.063286573	1.883200E+01	  0.063286573	-1.873100E+01
218	  0.063486971	-5.855000E+00	  0.063486971	-1.349000E+02	  0.063486971	1.870200E+01	  0.063486971	-1.823800E+01
219	  0.063687377	-5.852000E+00	  0.063687377	-1.359890E+02	  0.063687377	1.856700E+01	  0.063687377	-1.777000E+01
220	  0.063887775	-5.852000E+00	  0.063887775	-1.371700E+02	  0.063887775	1.843200E+01	  0.063887775	-1.726200E+01
221	  0.064088173	-5.846000E+00	  0.064088173	-1.382810E+02	  0.064088173	1.829600E+01	  0.064088173	-1.679000E+01
222	  0.064288579	-5.849000E+00	  0.064288579	-1.393800E+02	  0.064288579	1.818700E+01	  0.064288579	-1.632000E+01
223	  0.064488977	-5.848000E+00	  0.064488977	-1.404680E+02	  0.064488977	1.807300E+01	  0.064488977	-1.585900E+01
224	  0.064689375	-5.846000E+00	  0.064689375	-1.415600E+02	  0.064689375	1.796100E+01	  0.064689375	-1.539900E+01
225	  0.064889781	-5.845000E+00	  0.064889781	-1.426530E+02	  0.064889781	1.785500E+01	  0.064889781	-1.494000E+01
226	  0.065090179	-5.842000E+00	  0.065090179	-1.436830E+02	  0.065090179	1.775200E+01	  0.065090179	-1.451100E+01
227	  0.065290578	-5.843000E+00	  0.065290578	-1.447390E+02	  0.065290578	1.766000E+01	  0.065290578	-1.407000E+01
228	  0.065490983	-5.841000E+00	  0.065490983	-1.458250E+02	  0.065490983	1.756400E+01	  0.065490983	-1.361900E+01
229	  0.065691382	-5.842000E+00	  0.065691382	-1.468740E+02	  0.065691382	1.748100E+01	  0.065691382	-1.318400E+01
230	  0.065891780	-5.843000E+00	  0.065891780	-1.478950E+02	  0.065891780	1.740300E+01	  0.065891780	-1.276200E+01
231	  0.066092186	-5.843000E+00	  0.066092186	-1.489360E+02	  0.066092186	1.732200E+01	  0.066092186	-1.233500E+01
232	  0.066292584	-5.845000E+00	  0.066292584	-1.499890E+02	  0.066292584	1.725300E+01	  0.066292584	-1.190200E+01
233	  0.066492982	-5.846000E+00	  0.066492982	-1.510020E+02	  0.066492982	1.718300E+01	  0.066492982	-1.148800E+01
234	  0.066693388	-5.846000E+00	  0.066693388	-1.520240E+02	  0.066693388	1.711400E+01	  0.066693388	-1.107100E+01
235	  0.066893786	-5.852000E+00	  0.066893786	-1.530180E+02	  0.066893786	1.706600E+01	  0.066893786	-1.066500E+01
236	  0.067094192	-5.852000E+00	  0.067094192	-1.540420E+02	  0.067094192	1.700200E+01	  0.067094192	-1.025100E+01
237	  0.067294590	-5.855000E+00	  0.067294590	-1.550720E+02	  0.067294590	1.694800E+01	  0.067294590	-9.834000E+00
238	  0.067494988	-5.858000E+00	  0.067494988	-1.560830E+02	  0.067494988	1.690000E+01	  0.067494988	-9.426000E+00
239	  0.067695394	-5.866000E+00	  0.067695394	-1.571120E+02	  0.067695394	1.686400E+01	  0.067695394	-9.010000E+00
240	  0.067895792	-5.868000E+00	  0.067895792	-1.581300E+02	  0.067895792	1.681700E+01	  0.067895792	-8.602000E+00
241	  0.068096191	-5.873000E+00	  0.068096191	-1.591520E+02	  0.068096191	1.678100E+01	  0.068096191	-8.192000E+00
242	  0.068296596	-5.880000E+00	  0.068296596	-1.601520E+02	  0.068296596	1.675100E+01	  0.068296596	-7.791000E+00
243	  0.068496995	-5.882000E+00	  0.068496995	-1.611330E+02	  0.068496995	1.671200E+01	  0.068496995	-7.401000E+00
244	  0.068697393	-5.890000E+00	  0.068697393	-1.621490E+02	  0.068697393	1.669000E+01	  0.068697393	-6.996000E+00
245	  0.068897791	-5.890000E+00	  0.068897791	-1.631520E+02	  0.068897791	1.665200E+01	  0.068897791	-6.598000E+00
246	  0.069098189	-5.897000E+00	  0.069098189	-1.641530E+02	  0.069098189	1.663400E+01	  0.069098189	-6.201000E+00
247	  0.069298595	-5.902000E+00	  0.069298595	-1.651520E+02	  0.069298595	1.661100E+01	  0.069298595	-5.806000E+00
248	  0.069498993	-5.905000E+00	  0.069498993	-1.661920E+02	  0.069498993	1.658500E+01	  0.069498993	-5.396000E+00
249	  0.069699399	-5.910000E+00	  0.069699399	-1.671830E+02	  0.069699399	1.656900E+01	  0.069699399	-5.005000E+00
250	  0.069899797	-5.917000E+00	  0.069899797	-1.681600E+02	  0.069899797	1.656000E+01	  0.069899797	-4.621000E+00
251	  0.070100196	-5.916000E+00	  0.070100196	-1.691640E+02	  0.070100196	1.653000E+01	  0.070100196	-4.227000E+00
252	  0.070300601	-5.919000E+00	  0.070300601	-1.701740E+02	  0.070300601	1.651500E+01	  0.070300601	-3.831000E+00
253	  0.070501000	-5.917000E+00	  0.070501000	-1.712000E+02	  0.070501000	1.648900E+01	  0.070501000	-3.431000E+00
254	  0.070701398	-5.917000E+00	  0.070701398	-1.721650E+02	  0.070701398	1.647100E+01	  0.070701398	-3.053000E+00
255	  0.070901804	-5.923000E+00	  0.070901804	-1.731310E+02	  0.070901804	1.647000E+01	  0.070901804	-2.675000E+00
256	  0.071102202	-5.922000E+00	  0.071102202	-1.741100E+02	  0.071102202	1.645300E+01	  0.071102202	-2.294000E+00
257	  0.071302600	-5.920000E+00	  0.071302600	-1.750800E+02	  0.071302600	1.643700E+01	  0.071302600	-1.916000E+00
258	  0.071503006	-5.924000E+00	  0.071503006	-1.760040E+02	  0.071503006	1.643700E+01	  0.071503006	-1.555000E+00
259	  0.071703404	-5.923000E+00	  0.071703404	-1.769420E+02	  0.071703404	1.642900E+01	  0.071703404	-1.190000E+00
260	  0.071903802	-5.923000E+00	  0.071903802	-1.778700E+02	  0.071903802	1.642200E+01	  0.071903802	-8.280000E-01
261	  0.072104208	-5.926000E+00	  0.072104208	-1.787720E+02	  0.072104208	1.642600E+01	  0.072104208	-4.770000E-01
262	  0.072304606	-5.928000E+00	  0.072304606	-1.796890E+02	  0.072304606	1.643100E+01	  0.072304606	-1.200000E-01
263	  0.072505005	-5.932000E+00	  0.072505005	1.794250E+02	  0.072505005	1.644000E+01	  0.072505005	2.230000E-01
264	  0.072705410	-5.931000E+00	  0.072705410	1.785320E+02	  0.072705410	1.644100E+01	  0.072705410	5.710000E-01
265	  0.072905809	-5.934000E+00	  0.072905809	1.776370E+02	  0.072905809	1.645100E+01	  0.072905809	9.190000E-01
266	  0.073106214	-5.942000E+00	  0.073106214	1.767720E+02	  0.073106214	1.647700E+01	  0.073106214	1.255000E+00
267	  0.073306613	-5.941000E+00	  0.073306613	1.759100E+02	  0.073306613	1.648300E+01	  0.073306613	1.591000E+00
268	  0.073507011	-5.949000E+00	  0.073507011	1.750380E+02	  0.073507011	1.651300E+01	  0.073507011	1.930000E+00
269	  0.073707417	-5.956000E+00	  0.073707417	1.741660E+02	  0.073707417	1.654000E+01	  0.073707417	2.269000E+00
270	  0.073907815	-5.963000E+00	  0.073907815	1.733080E+02	  0.073907815	1.657000E+01	  0.073907815	2.602000E+00
271	  0.074108213	-5.968000E+00	  0.074108213	1.724680E+02	  0.074108213	1.659600E+01	  0.074108213	2.929000E+00
272	  0.074308619	-5.979000E+00	  0.074308619	1.715880E+02	  0.074308619	1.664000E+01	  0.074308619	3.271000E+00
273	  0.074509017	-5.989000E+00	  0.074509017	1.707060E+02	  0.074509017	1.668500E+01	  0.074509017	3.614000E+00
274	  0.074709415	-6.001000E+00	  0.074709415	1.698360E+02	  0.074709415	1.673300E+01	  0.074709415	3.951000E+00
275	  0.074909821	-6.013000E+00	  0.074909821	1.689900E+02	  0.074909821	1.678600E+01	  0.074909821	4.279000E+00
276	  0.075110219	-6.021000E+00	  0.075110219	1.681230E+02	  0.075110219	1.682900E+01	  0.075110219	4.617000E+00
277	  0.075310618	-6.034000E+00	  0.075310618	1.672570E+02	  0.075310618	1.688600E+01	  0.075310618	4.953000E+00
278	  0.075511023	-6.044000E+00	  0.075511023	1.664230E+02	  0.075511023	1.693800E+01	  0.075511023	5.277000E+00
279	  0.075711422	-6.054000E+00	  0.075711422	1.655540E+02	  0.075711422	1.699200E+01	  0.075711422	5.615000E+00
280	  0.075911827	-6.069000E+00	  0.075911827	1.646530E+02	  0.075911827	1.706000E+01	  0.075911827	5.964000E+00
281	  0.076112226	-6.082000E+00	  0.076112226	1.637680E+02	  0.076112226	1.712600E+01	  0.076112226	6.308000E+00
282	  0.076312624	-6.091000E+00	  0.076312624	1.628880E+02	  0.076312624	1.718500E+01	  0.076312624	6.651000E+00
283	  0.076513030	-6.102000E+00	  0.076513030	1.620070E+02	  0.076513030	1.725000E+01	  0.076513030	6.994000E+00
284	  0.076713428	-6.107000E+00	  0.076713428	1.610860E+02	  0.076713428	1.730300E+01	  0.076713428	7.354000E+00
285	  0.076913826	-6.119000E+00	  0.076913826	1.602340E+02	  0.076913826	1.737200E+01	  0.076913826	7.686000E+00
286	  0.077114232	-6.125000E+00	  0.077114232	1.593950E+02	  0.077114232	1.742800E+01	  0.077114232	8.015000E+00
287	  0.077314630	-6.131000E+00	  0.077314630	1.585520E+02	  0.077314630	1.748400E+01	  0.077314630	8.346000E+00
288	  0.077515028	-6.144000E+00	  0.077515028	1.576980E+02	  0.077515028	1.756200E+01	  0.077515028	8.679000E+00
289	  0.077715434	-6.151000E+00	  0.077715434	1.568510E+02	  0.077715434	1.762900E+01	  0.077715434	9.012000E+00
290	  0.077915832	-6.158000E+00	  0.077915832	1.560080E+02	  0.077915832	1.769400E+01	  0.077915832	9.344000E+00
291	  0.078116231	-6.169000E+00	  0.078116231	1.551720E+02	  0.078116231	1.777100E+01	  0.078116231	9.672000E+00
292	  0.078316636	-6.176000E+00	  0.078316636	1.543410E+02	  0.078316636	1.784200E+01	  0.078316636	9.999000E+00
293	  0.078517035	-6.188000E+00	  0.078517035	1.535150E+02	  0.078517035	1.792600E+01	  0.078517035	1.032400E+01
294	  0.078717433	-6.196000E+00	  0.078717433	1.527030E+02	  0.078717433	1.800100E+01	  0.078717433	1.064400E+01
295	  0.078917839	-6.210000E+00	  0.078917839	1.518950E+02	  0.078917839	1.809000E+01	  0.078917839	1.096100E+01
296	  0.079118237	-6.216000E+00	  0.079118237	1.511100E+02	  0.079118237	1.816300E+01	  0.079118237	1.127300E+01
297	  0.079318643	-6.228000E+00	  0.079318643	1.503080E+02	  0.079318643	1.825300E+01	  0.079318643	1.158900E+01
298	  0.079519041	-6.240000E+00	  0.079519041	1.495400E+02	  0.079519041	1.834300E+01	  0.079519041	1.189200E+01
299	  0.079719439	-6.256000E+00	  0.079719439	1.487680E+02	  0.079719439	1.844500E+01	  0.079719439	1.219400E+01
300	  0.079919845	-6.268000E+00	  0.079919845	1.479730E+02	  0.079919845	1.854000E+01	  0.079919845	1.250800E+01
301	  0.080120243	-6.280000E+00	  0.080120243	1.471620E+02	  0.080120243	1.863800E+01	  0.080120243	1.283000E+01
302	  0.080320641	-6.294000E+00	  0.080320641	1.464040E+02	  0.080320641	1.873900E+01	  0.080320641	1.312900E+01
303	  0.080521047	-6.313000E+00	  0.080521047	1.456150E+02	  0.080521047	1.886000E+01	  0.080521047	1.343700E+01
304	  0.080721445	-6.327000E+00	  0.080721445	1.448500E+02	  0.080721445	1.896600E+01	  0.080721445	1.374000E+01
305	  0.080921844	-6.346000E+00	  0.080921844	1.440560E+02	  0.080921844	1.909000E+01	  0.080921844	1.405200E+01
306	  0.081122249	-6.364000E+00	  0.081122249	1.432770E+02	  0.081122249	1.921300E+01	  0.081122249	1.435700E+01
307	  0.081322648	-6.386000E+00	  0.081322648	1.425010E+02	  0.081322648	1.934600E+01	  0.081322648	1.466100E+01
308	  0.081523046	-6.401000E+00	  0.081523046	1.416990E+02	  0.081523046	1.946900E+01	  0.081523046	1.497800E+01
309	  0.081723452	-6.423000E+00	  0.081723452	1.409050E+02	  0.081723452	1.960900E+01	  0.081723452	1.528900E+01
310	  0.081923850	-6.440000E+00	  0.081923850	1.401360E+02	  0.081923850	1.973600E+01	  0.081923850	1.559300E+01
311	  0.082124248	-6.461000E+00	  0.082124248	1.393400E+02	  0.082124248	1.988000E+01	  0.082124248	1.590500E+01
312	  0.082324654	-6.480000E+00	  0.082324654	1.385710E+02	  0.082324654	2.001900E+01	  0.082324654	1.620700E+01
313	  0.082525052	-6.499000E+00	  0.082525052	1.377850E+02	  0.082525052	2.016100E+01	  0.082525052	1.651700E+01
314	  0.082725458	-6.526000E+00	  0.082725458	1.370050E+02	  0.082725458	2.032400E+01	  0.082725458	1.681900E+01
315	  0.082925856	-6.544000E+00	  0.082925856	1.361900E+02	  0.082925856	2.047400E+01	  0.082925856	1.714200E+01
316	  0.083126254	-6.561000E+00	  0.083126254	1.353440E+02	  0.083126254	2.062400E+01	  0.083126254	1.747900E+01
317	  0.083326660	-6.580000E+00	  0.083326660	1.345690E+02	  0.083326660	2.077500E+01	  0.083326660	1.778500E+01
318	  0.083527058	-6.599000E+00	  0.083527058	1.337230E+02	  0.083527058	2.093700E+01	  0.083527058	1.812200E+01
319	  0.083727457	-6.613000E+00	  0.083727457	1.329600E+02	  0.083727457	2.108000E+01	  0.083727457	1.842700E+01
320	  0.083927862	-6.623000E+00	  0.083927862	1.321430E+02	  0.083927862	2.122000E+01	  0.083927862	1.876000E+01
321	  0.084128261	-6.640000E+00	  0.084128261	1.314290E+02	  0.084128261	2.136700E+01	  0.084128261	1.904400E+01
322	  0.084328659	-6.655000E+00	  0.084328659	1.306480E+02	  0.084328659	2.152000E+01	  0.084328659	1.935800E+01
323	  0.084529065	-6.671000E+00	  0.084529065	1.299110E+02	  0.084529065	2.167300E+01	  0.084529065	1.965300E+01
324	  0.084729463	-6.685000E+00	  0.084729463	1.291770E+02	  0.084729463	2.182300E+01	  0.084729463	1.994900E+01
325	  0.084929861	-6.698000E+00	  0.084929861	1.284760E+02	  0.084929861	2.196500E+01	  0.084929861	2.023300E+01
326	  0.085130267	-6.716000E+00	  0.085130267	1.277770E+02	  0.085130267	2.212500E+01	  0.085130267	2.051100E+01
327	  0.085330658	-6.732000E+00	  0.085330658	1.270720E+02	  0.085330658	2.228300E+01	  0.085330658	2.079300E+01
328	  0.085531056	-6.747000E+00	  0.085531056	1.263810E+02	  0.085531056	2.244000E+01	  0.085531056	2.107000E+01
329	  0.085731462	-6.770000E+00	  0.085731462	1.257320E+02	  0.085731462	2.261100E+01	  0.085731462	2.132300E+01
330	  0.085931860	-6.787000E+00	  0.085931860	1.250840E+02	  0.085931860	2.277100E+01	  0.085931860	2.157900E+01
331	  0.086132258	-6.809000E+00	  0.086132258	1.244430E+02	  0.086132258	2.294300E+01	  0.086132258	2.182900E+01
332	  0.086332664	-6.832000E+00	  0.086332664	1.237560E+02	  0.086332664	2.312900E+01	  0.086332664	2.209600E+01
333	  0.086533062	-6.853000E+00	  0.086533062	1.230750E+02	  0.086533062	2.331000E+01	  0.086533062	2.236300E+01
334	  0.086733460	-6.881000E+00	  0.086733460	1.224340E+02	  0.086733460	2.350800E+01	  0.086733460	2.260400E+01
335	  0.086933866	-6.907000E+00	  0.086933866	1.217740E+02	  0.086933866	2.370600E+01	  0.086933866	2.285500E+01
336	  0.087134264	-6.931000E+00	  0.087134264	1.210860E+02	  0.087134264	2.390400E+01	  0.087134264	2.312100E+01
337	  0.087334670	-6.954000E+00	  0.087334670	1.204160E+02	  0.087334670	2.410100E+01	  0.087334670	2.337900E+01
338	  0.087535068	-6.983000E+00	  0.087535068	1.197730E+02	  0.087535068	2.431000E+01	  0.087535068	2.361800E+01
339	  0.087735467	-7.012000E+00	  0.087735467	1.191120E+02	  0.087735467	2.452700E+01	  0.087735467	2.386400E+01
340	  0.087935872	-7.040000E+00	  0.087935872	1.184670E+02	  0.087935872	2.473800E+01	  0.087935872	2.410400E+01
341	  0.088136271	-7.067000E+00	  0.088136271	1.178010E+02	  0.088136271	2.495600E+01	  0.088136271	2.435300E+01
342	  0.088336669	-7.096000E+00	  0.088336669	1.171360E+02	  0.088336669	2.518100E+01	  0.088336669	2.459800E+01
343	  0.088537075	-7.128000E+00	  0.088537075	1.164540E+02	  0.088537075	2.542100E+01	  0.088537075	2.484700E+01
344	  0.088737473	-7.160000E+00	  0.088737473	1.157850E+02	  0.088737473	2.566200E+01	  0.088737473	2.508800E+01
345	  0.088937871	-7.187000E+00	  0.088937871	1.151330E+02	  0.088937871	2.588600E+01	  0.088937871	2.532900E+01
346	  0.089138277	-7.219000E+00	  0.089138277	1.144440E+02	  0.089138277	2.613500E+01	  0.089138277	2.557800E+01
347	  0.089338675	-7.251000E+00	  0.089338675	1.138000E+02	  0.089338675	2.637700E+01	  0.089338675	2.580600E+01
348	  0.089539073	-7.287000E+00	  0.089539073	1.131230E+02	  0.089539073	2.664500E+01	  0.089539073	2.604000E+01
349	  0.089739479	-7.317000E+00	  0.089739479	1.124170E+02	  0.089739479	2.690200E+01	  0.089739479	2.629500E+01
350	  0.089939877	-7.343000E+00	  0.089939877	1.117490E+02	  0.089939877	2.714200E+01	  0.089939877	2.654000E+01
351	  0.090140276	-7.372000E+00	  0.090140276	1.110420E+02	  0.090140276	2.740300E+01	  0.090140276	2.679700E+01
352	  0.090340681	-7.400000E+00	  0.090340681	1.103620E+02	  0.090340681	2.765800E+01	  0.090340681	2.704300E+01
353	  0.090541080	-7.425000E+00	  0.090541080	1.096830E+02	  0.090541080	2.791000E+01	  0.090541080	2.729000E+01
354	  0.090741485	-7.454000E+00	  0.090741485	1.090610E+02	  0.090741485	2.815800E+01	  0.090741485	2.750700E+01
355	  0.090941884	-7.472000E+00	  0.090941884	1.084130E+02	  0.090941884	2.838600E+01	  0.090941884	2.775300E+01
356	  0.091142282	-7.501000E+00	  0.091142282	1.077980E+02	  0.091142282	2.863900E+01	  0.091142282	2.796400E+01
357	  0.091342688	-7.521000E+00	  0.091342688	1.071850E+02	  0.091342688	2.886900E+01	  0.091342688	2.819000E+01
358	  0.091543086	-7.543000E+00	  0.091543086	1.065970E+02	  0.091543086	2.909900E+01	  0.091543086	2.840100E+01
359	  0.091743484	-7.563000E+00	  0.091743484	1.060360E+02	  0.091743484	2.931900E+01	  0.091743484	2.860300E+01
360	  0.091943890	-7.585000E+00	  0.091943890	1.054820E+02	  0.091943890	2.954300E+01	  0.091943890	2.880000E+01
361	  0.092144288	-7.613000E+00	  0.092144288	1.049590E+02	  0.092144288	2.977900E+01	  0.092144288	2.896800E+01
362	  0.092344686	-7.634000E+00	  0.092344686	1.044360E+02	  0.092344686	2.999600E+01	  0.092344686	2.915000E+01
363	  0.092545092	-7.666000E+00	  0.092545092	1.039460E+02	  0.092545092	3.023600E+01	  0.092545092	2.929500E+01
364	  0.092745490	-7.693000E+00	  0.092745490	1.034610E+02	  0.092745490	3.046400E+01	  0.092745490	2.944600E+01
365	  0.092945889	-7.725000E+00	  0.092945889	1.030000E+02	  0.092945889	3.070000E+01	  0.092945889	2.957500E+01
366	  0.093146294	-7.753000E+00	  0.093146294	1.025230E+02	  0.093146294	3.093000E+01	  0.093146294	2.971800E+01
367	  0.093346693	-7.787000E+00	  0.093346693	1.020520E+02	  0.093346693	3.117800E+01	  0.093346693	2.984400E+01
368	  0.093547091	-7.824000E+00	  0.093547091	1.015750E+02	  0.093547091	3.143400E+01	  0.093547091	2.996700E+01
369	  0.093747497	-7.857000E+00	  0.093747497	1.011320E+02	  0.093747497	3.167300E+01	  0.093747497	3.008000E+01
370	  0.093947895	-7.894000E+00	  0.093947895	1.006970E+02	  0.093947895	3.192200E+01	  0.093947895	3.017900E+01
371	  0.094148301	-7.935000E+00	  0.094148301	1.002220E+02	  0.094148301	3.219400E+01	  0.094148301	3.028800E+01
372	  0.094348699	-7.976000E+00	  0.094348699	9.976700E+01	  0.094348699	3.246300E+01	  0.094348699	3.038200E+01
373	  0.094549097	-8.012000E+00	  0.094549097	9.936800E+01	  0.094549097	3.269900E+01	  0.094549097	3.046500E+01
374	  0.094749503	-8.050000E+00	  0.094749503	9.890100E+01	  0.094749503	3.296400E+01	  0.094749503	3.057000E+01
375	  0.094949901	-8.088000E+00	  0.094949901	9.844000E+01	  0.094949901	3.323000E+01	  0.094949901	3.066900E+01
376	  0.095150299	-8.131000E+00	  0.095150299	9.796500E+01	  0.095150299	3.351500E+01	  0.095150299	3.076100E+01
377	  0.095350705	-8.173000E+00	  0.095350705	9.749200E+01	  0.095350705	3.379900E+01	  0.095350705	3.085100E+01
378	  0.095551103	-8.211000E+00	  0.095551103	9.703500E+01	  0.095551103	3.406700E+01	  0.095551103	3.094300E+01
379	  0.095751502	-8.252000E+00	  0.095751502	9.655000E+01	  0.095751502	3.435500E+01	  0.095751502	3.103700E+01
380	  0.095951907	-8.295000E+00	  0.095951907	9.612000E+01	  0.095951907	3.462700E+01	  0.095951907	3.110300E+01
381	  0.096152306	-8.334000E+00	  0.096152306	9.565500E+01	  0.096152306	3.490600E+01	  0.096152306	3.118800E+01
382	  0.096352704	-8.372000E+00	  0.096352704	9.515200E+01	  0.096352704	3.519600E+01	  0.096352704	3.129000E+01
383	  0.096553110	-8.410000E+00	  0.096553110	9.464200E+01	  0.096553110	3.548900E+01	  0.096553110	3.139300E+01
384	  0.096753508	-8.436000E+00	  0.096753508	9.416700E+01	  0.096753508	3.574200E+01	  0.096753508	3.150900E+01
385	  0.096953906	-8.474000E+00	  0.096953906	9.367400E+01	  0.096953906	3.603400E+01	  0.096953906	3.160000E+01
386	  0.097154312	-8.509000E+00	  0.097154312	9.321600E+01	  0.097154312	3.630500E+01	  0.097154312	3.168400E+01
387	  0.097354710	-8.526000E+00	  0.097354710	9.271600E+01	  0.097354710	3.655000E+01	  0.097354710	3.182700E+01
388	  0.097555116	-8.556000E+00	  0.097555116	9.225900E+01	  0.097555116	3.681100E+01	  0.097555116	3.192100E+01
389	  0.097755514	-8.579000E+00	  0.097755514	9.178500E+01	  0.097755514	3.706500E+01	  0.097755514	3.203500E+01
390	  0.097955912	-8.594000E+00	  0.097955912	9.133500E+01	  0.097955912	3.729000E+01	  0.097955912	3.216300E+01
391	  0.098156318	-8.611000E+00	  0.098156318	9.086900E+01	  0.098156318	3.752600E+01	  0.098156318	3.229100E+01
392	  0.098356716	-8.626000E+00	  0.098356716	9.049700E+01	  0.098356716	3.772200E+01	  0.098356716	3.238600E+01
393	  0.098557115	-8.636000E+00	  0.098557115	9.008700E+01	  0.098557115	3.792100E+01	  0.098557115	3.251200E+01
394	  0.098757520	-8.646000E+00	  0.098757520	8.966300E+01	  0.098757520	3.812900E+01	  0.098757520	3.263800E+01
395	  0.098957919	-8.652000E+00	  0.098957919	8.931700E+01	  0.098957919	3.829500E+01	  0.098957919	3.274700E+01
396	  0.099158317	-8.662000E+00	  0.099158317	8.899200E+01	  0.099158317	3.846100E+01	  0.099158317	3.284000E+01
397	  0.099358723	-8.676000E+00	  0.099358723	8.865500E+01	  0.099358723	3.864500E+01	  0.099358723	3.292100E+01
398	  0.099559121	-8.684000E+00	  0.099559121	8.834600E+01	  0.099559121	3.880200E+01	  0.099559121	3.300900E+01
399	  0.099759519	-8.690000E+00	  0.099759519	8.805900E+01	  0.099759519	3.894500E+01	  0.099759519	3.309600E+01
400	  0.099959925	-8.700000E+00	  0.099959925	8.778300E+01	  0.099959925	3.909300E+01	  0.099959925	3.316700E+01
401	  0.100160323	-8.710000E+00	  0.100160323	8.744900E+01	  0.100160323	3.926900E+01	  0.100160323	3.325600E+01
402	  0.100360721	-8.719000E+00	  0.100360721	8.724400E+01	  0.100360721	3.938200E+01	  0.100360721	3.330500E+01
403	  0.100561127	-8.720000E+00	  0.100561127	8.697900E+01	  0.100561127	3.950700E+01	  0.100561127	3.339600E+01
404	  0.100761525	-8.734000E+00	  0.100761525	8.665700E+01	  0.100761525	3.969000E+01	  0.100761525	3.346800E+01
405	  0.100961931	-8.750000E+00	  0.100961931	8.641800E+01	  0.100961931	3.983800E+01	  0.100961931	3.350500E+01
406	  0.101162329	-8.758000E+00	  0.101162329	8.615700E+01	  0.101162329	3.998000E+01	  0.101162329	3.357100E+01
407	  0.101362728	-8.771000E+00	  0.101362728	8.593000E+01	  0.101362728	4.011500E+01	  0.101362728	3.361300E+01
408	  0.101563133	-8.786000E+00	  0.101563133	8.559300E+01	  0.101563133	4.030900E+01	  0.101563133	3.368500E+01
409	  0.101763532	-8.799000E+00	  0.101763532	8.534000E+01	  0.101763532	4.046000E+01	  0.101763532	3.373200E+01
410	  0.101963930	-8.814000E+00	  0.101963930	8.499500E+01	  0.101963930	4.066000E+01	  0.101963930	3.380400E+01
411	  0.102164336	-8.825000E+00	  0.102164336	8.473800E+01	  0.102164336	4.080800E+01	  0.102164336	3.386000E+01
412	  0.102364734	-8.838000E+00	  0.102364734	8.432000E+01	  0.102364734	4.104000E+01	  0.102364734	3.396100E+01
413	  0.102565132	-8.851000E+00	  0.102565132	8.397400E+01	  0.102565132	4.123700E+01	  0.102565132	3.404000E+01
414	  0.102765530	-8.863000E+00	  0.102765530	8.366900E+01	  0.102765530	4.141500E+01	  0.102765530	3.410500E+01
415	  0.102965929	-8.870000E+00	  0.102965929	8.330600E+01	  0.102965929	4.161000E+01	  0.102965929	3.420400E+01
416	  0.103166327	-8.873000E+00	  0.103166327	8.292200E+01	  0.103166327	4.180800E+01	  0.103166327	3.432500E+01
417	  0.103366733	-8.876000E+00	  0.103366733	8.251200E+01	  0.103366733	4.202200E+01	  0.103366733	3.445100E+01
418	  0.103567131	-8.888000E+00	  0.103567131	8.201600E+01	  0.103567131	4.230000E+01	  0.103567131	3.457700E+01
419	  0.103767529	-8.889000E+00	  0.103767529	8.161300E+01	  0.103767529	4.250900E+01	  0.103767529	3.470700E+01
420	  0.103967935	-8.897000E+00	  0.103967935	8.109000E+01	  0.103967935	4.279700E+01	  0.103967935	3.485200E+01
421	  0.104168333	-8.887000E+00	  0.104168333	8.065400E+01	  0.104168333	4.300400E+01	  0.104168333	3.503000E+01
422	  0.104368731	-8.893000E+00	  0.104368731	8.014900E+01	  0.104368731	4.328400E+01	  0.104368731	3.517500E+01
423	  0.104569137	-8.885000E+00	  0.104569137	7.962500E+01	  0.104569137	4.354700E+01	  0.104569137	3.537100E+01
424	  0.104769535	-8.868000E+00	  0.104769535	7.906100E+01	  0.104769535	4.381700E+01	  0.104769535	3.561300E+01
425	  0.104969934	-8.863000E+00	  0.104969934	7.859500E+01	  0.104969934	4.405900E+01	  0.104969934	3.578500E+01
426	  0.105170339	-8.844000E+00	  0.105170339	7.805100E+01	  0.105170339	4.432200E+01	  0.105170339	3.602500E+01
427	  0.105370738	-8.825000E+00	  0.105370738	7.750000E+01	  0.105370738	4.459100E+01	  0.105370738	3.627200E+01
428	  0.105571143	-8.806000E+00	  0.105571143	7.701400E+01	  0.105571143	4.482600E+01	  0.105571143	3.650000E+01
429	  0.105771542	-8.794000E+00	  0.105771542	7.644800E+01	  0.105771542	4.512700E+01	  0.105771542	3.672400E+01
430	  0.105971940	-8.764000E+00	  0.105971940	7.590000E+01	  0.105971940	4.538400E+01	  0.105971940	3.701100E+01
431	  0.106172346	-8.742000E+00	  0.106172346	7.538000E+01	  0.106172346	4.564500E+01	  0.106172346	3.726300E+01
432	  0.106372744	-8.726000E+00	  0.106372744	7.493100E+01	  0.106372744	4.587900E+01	  0.106372744	3.746800E+01
433	  0.106573142	-8.698000E+00	  0.106573142	7.438300E+01	  0.106573142	4.615300E+01	  0.106573142	3.774900E+01
434	  0.106773548	-8.680000E+00	  0.106773548	7.393500E+01	  0.106773548	4.638900E+01	  0.106773548	3.796300E+01
435	  0.106973946	-8.656000E+00	  0.106973946	7.346800E+01	  0.106973946	4.662800E+01	  0.106973946	3.820800E+01
436	  0.107174344	-8.627000E+00	  0.107174344	7.290100E+01	  0.107174344	4.692500E+01	  0.107174344	3.850100E+01
437	  0.107374750	-8.611000E+00	  0.107374750	7.241700E+01	  0.107374750	4.719900E+01	  0.107374750	3.871800E+01
438	  0.107575148	-8.587000E+00	  0.107575148	7.191400E+01	  0.107575148	4.747200E+01	  0.107575148	3.897800E+01
439	  0.107775547	-8.572000E+00	  0.107775547	7.145100E+01	  0.107775547	4.774300E+01	  0.107775547	3.918100E+01
440	  0.107975952	-8.549000E+00	  0.107975952	7.093400E+01	  0.107975952	4.803600E+01	  0.107975952	3.944200E+01
441	  0.108176351	-8.543000E+00	  0.108176351	7.044000E+01	  0.108176351	4.835100E+01	  0.108176351	3.961900E+01
442	  0.108376749	-8.531000E+00	  0.108376749	7.001900E+01	  0.108376749	4.861200E+01	  0.108376749	3.979500E+01
443	  0.108577155	-8.516000E+00	  0.108577155	6.945100E+01	  0.108577155	4.896900E+01	  0.108577155	4.003400E+01
444	  0.108777553	-8.511000E+00	  0.108777553	6.897400E+01	  0.108777553	4.928700E+01	  0.108777553	4.019900E+01
445	  0.108977959	-8.504000E+00	  0.108977959	6.843900E+01	  0.108977959	4.964600E+01	  0.108977959	4.038500E+01
446	  0.109178357	-8.497000E+00	  0.109178357	6.792000E+01	  0.109178357	4.999700E+01	  0.109178357	4.057000E+01
447	  0.109378755	-8.489000E+00	  0.109378755	6.738200E+01	  0.109378755	5.036500E+01	  0.109378755	4.076300E+01
448	  0.109579161	-8.488000E+00	  0.109579161	6.681300E+01	  0.109579161	5.077300E+01	  0.109579161	4.092700E+01
449	  0.109779559	-8.487000E+00	  0.109779559	6.631800E+01	  0.109779559	5.113300E+01	  0.109779559	4.106700E+01
450	  0.109979957	-8.488000E+00	  0.109979957	6.575400E+01	  0.109979957	5.154900E+01	  0.109979957	4.121700E+01
451	  0.110180363	-8.487000E+00	  0.110180363	6.512800E+01	  0.110180363	5.201600E+01	  0.110180363	4.138700E+01
452	  0.110380761	-8.484000E+00	  0.110380761	6.453200E+01	  0.110380761	5.246100E+01	  0.110380761	4.155800E+01
453	  0.110581160	-8.482000E+00	  0.110581160	6.391000E+01	  0.110581160	5.293500E+01	  0.110581160	4.172400E+01
454	  0.110781565	-8.478000E+00	  0.110781565	6.330500E+01	  0.110781565	5.339800E+01	  0.110781565	4.189500E+01
455	  0.110981964	-8.476000E+00	  0.110981964	6.260300E+01	  0.110981964	5.394600E+01	  0.110981964	4.207700E+01
456	  0.111182362	-8.477000E+00	  0.111182362	6.198500E+01	  0.111182362	5.444100E+01	  0.111182362	4.221300E+01
457	  0.111382768	-8.472000E+00	  0.111382768	6.125900E+01	  0.111382768	5.502000E+01	  0.111382768	4.240700E+01
458	  0.111583166	-8.471000E+00	  0.111583166	6.057800E+01	  0.111583166	5.557800E+01	  0.111583166	4.255900E+01
459	  0.111783572	-8.463000E+00	  0.111783572	5.989000E+01	  0.111783572	5.613800E+01	  0.111783572	4.274900E+01
460	  0.111983970	-8.458000E+00	  0.111983970	5.914700E+01	  0.111983970	5.675900E+01	  0.111983970	4.292500E+01
461	  0.112184368	-8.450000E+00	  0.112184368	5.840400E+01	  0.112184368	5.738600E+01	  0.112184368	4.310900E+01
462	  0.112384774	-8.441000E+00	  0.112384774	5.765700E+01	  0.112384774	5.802500E+01	  0.112384774	4.329600E+01
463	  0.112585172	-8.436000E+00	  0.112585172	5.690500E+01	  0.112585172	5.868400E+01	  0.112585172	4.345400E+01
464	  0.112785570	-8.427000E+00	  0.112785570	5.616400E+01	  0.112785570	5.933900E+01	  0.112785570	4.362800E+01
465	  0.112985976	-8.419000E+00	  0.112985976	5.538200E+01	  0.112985976	6.004300E+01	  0.112985976	4.379200E+01
466	  0.113186374	-8.412000E+00	  0.113186374	5.461800E+01	  0.113186374	6.074400E+01	  0.113186374	4.393600E+01
467	  0.113386773	-8.402000E+00	  0.113386773	5.385500E+01	  0.113386773	6.145200E+01	  0.113386773	4.409400E+01
468	  0.113587178	-8.397000E+00	  0.113587178	5.304800E+01	  0.113587178	6.221700E+01	  0.113587178	4.421000E+01
469	  0.113787577	-8.387000E+00	  0.113787577	5.225300E+01	  0.113787577	6.298000E+01	  0.113787577	4.434800E+01
470	  0.113987975	-8.390000E+00	  0.113987975	5.142900E+01	  0.113987975	6.379100E+01	  0.113987975	4.439800E+01
471	  0.114188381	-8.383000E+00	  0.114188381	5.063600E+01	  0.114188381	6.457700E+01	  0.114188381	4.448900E+01
472	  0.114388779	-8.378000E+00	  0.114388779	4.982400E+01	  0.114388779	6.539700E+01	  0.114388779	4.456200E+01
473	  0.114589177	-8.373000E+00	  0.114589177	4.901200E+01	  0.114589177	6.622700E+01	  0.114589177	4.461500E+01
474	  0.114789583	-8.374000E+00	  0.114789583	4.821500E+01	  0.114789583	6.705400E+01	  0.114789583	4.461600E+01
475	  0.114989981	-8.372000E+00	  0.114989981	4.735500E+01	  0.114989981	6.795900E+01	  0.114989981	4.462300E+01
476	  0.115190387	-8.386000E+00	  0.115190387	4.649500E+01	  0.115190387	6.887100E+01	  0.115190387	4.449400E+01
477	  0.115390785	-8.393000E+00	  0.115390785	4.566100E+01	  0.115390785	6.976500E+01	  0.115390785	4.439400E+01
478	  0.115591183	-8.399000E+00	  0.115591183	4.479600E+01	  0.115591183	7.070200E+01	  0.115591183	4.428600E+01
479	  0.115791589	-8.408000E+00	  0.115791589	4.392500E+01	  0.115791589	7.165300E+01	  0.115791589	4.412300E+01
480	  0.115991987	-8.422000E+00	  0.115991987	4.307600E+01	  0.115991987	7.258200E+01	  0.115991987	4.391100E+01
481	  0.116192386	-8.435000E+00	  0.116192386	4.214600E+01	  0.116192386	7.360600E+01	  0.116192386	4.366000E+01
482	  0.116392791	-8.450000E+00	  0.116392791	4.123800E+01	  0.116392791	7.461000E+01	  0.116392791	4.338100E+01
483	  0.116593190	-8.472000E+00	  0.116593190	4.034400E+01	  0.116593190	7.558900E+01	  0.116593190	4.301500E+01
484	  0.116793588	-8.492000E+00	  0.116793588	3.935900E+01	  0.116793588	7.667700E+01	  0.116793588	4.260900E+01
485	  0.116993994	-8.517000E+00	  0.116993994	3.841200E+01	  0.116993994	7.771000E+01	  0.116993994	4.214900E+01
486	  0.117194392	-8.546000E+00	  0.117194392	3.746600E+01	  0.117194392	7.873000E+01	  0.117194392	4.162300E+01
487	  0.117394790	-8.575000E+00	  0.117394790	3.650100E+01	  0.117394790	7.976600E+01	  0.117394790	4.105900E+01
488	  0.117595196	-8.612000E+00	  0.117595196	3.550000E+01	  0.117595196	8.080900E+01	  0.117595196	4.037400E+01
489	  0.117795594	-8.642000E+00	  0.117795594	3.450300E+01	  0.117795594	8.185700E+01	  0.117795594	3.971600E+01
490	  0.117995992	-8.680000E+00	  0.117995992	3.347400E+01	  0.117995992	8.290000E+01	  0.117995992	3.893800E+01
491	  0.118196398	-8.722000E+00	  0.118196398	3.245300E+01	  0.118196398	8.390100E+01	  0.118196398	3.809600E+01
492	  0.118396796	-8.766000E+00	  0.118396796	3.136500E+01	  0.118396796	8.494400E+01	  0.118396796	3.716500E+01
493	  0.118597202	-8.812000E+00	  0.118597202	3.028900E+01	  0.118597202	8.594100E+01	  0.118597202	3.618700E+01
494	  0.118797600	-8.866000E+00	  0.118797600	2.920600E+01	  0.118797600	8.687600E+01	  0.118797600	3.510800E+01
495	  0.118997999	-8.919000E+00	  0.118997999	2.807700E+01	  0.118997999	8.782400E+01	  0.118997999	3.396300E+01
496	  0.119198404	-8.980000E+00	  0.119198404	2.700200E+01	  0.119198404	8.863800E+01	  0.119198404	3.276800E+01
497	  0.119398803	-9.040000E+00	  0.119398803	2.581400E+01	  0.119398803	8.951900E+01	  0.119398803	3.145900E+01
498	  0.119599201	-9.112000E+00	  0.119599201	2.468900E+01	  0.119599201	9.021900E+01	  0.119599201	3.008700E+01
499	  0.119799607	-9.182000E+00	  0.119799607	2.349300E+01	  0.119799607	9.093900E+01	  0.119799607	2.864900E+01
500	  0.120000005	-9.257000E+00	  0.120000005	2.224900E+01	  0.120000005	9.160700E+01	  0.120000005	2.711100E+01
