! Anritsu VNA Master:             	Model: MS2036C/10/77
! SN:             	1601066
! /bd0/18may10/256.ns.m8.txt
! Existing Calibration Information:
! TYPE:             	Current Settings	Active Cal Settings
! TIME:             	05/10/2018 11:16:44 AM	05/10/2018 11:07:23 AM
! INTERNAL TEMP:    	52.5 C	51.3 C
! # POINTS:         	494	494
! START FREQ:       	20.000 MHz	20.000 MHz
! STOP FREQ:        	118.797 594 MHz	118.797 594 MHz
! SOURCE POWER:     	High	High
! IFBW:             	50 Hz	50 Hz
! AVG FACTOR:       	  1 	  1 
! REF PLANE 1:      	0 mm	0 mm
! REF PLANE 2:      	0 mm	0 mm
! CAL TYPE:         	Full S22	Full S22
! CAL METHOD:       	SOLT	SOLT
! CAL LINE TYPE:    	Coax	Coax
! DUT PORT 1:       	K-Conn(M)	K-Conn(M)
! DUT PORT 2:       	K-Conn(M)	K-Conn(M)
! CAL STATUS:       	OK: Accuracy High	--
! PROP-V:       	0.700
! CABLE LOSS:       	0.000 dB/m
! REF IMPEDANCE:       	50.0
! Trace Specific Parameters:	TR1	TR2	TR3	TR4
! TRACE.#.Y (GRAPH TYPE)	LOG MAG	PHASE	REAL IMPEDANCE	IMAGINARY IMPEDANCE
! TRACE.#.X 	FREQ.GHZ	FREQ.GHZ	FREQ.GHZ	FREQ.GHZ
! S-PARAMETER	S22	S22	S22	S22
! SMOOTH/APERTURE %	0	0	0	0
! WINDOW	NSL	NSL	NSL	NSL
! GATING	OFF	OFF	OFF	OFF
! FGTD	OFF	OFF	OFF	OFF
Marker Information per Trace:	TR1	TR2	TR3	TR4
!MK1	--	"MK1 TR2:  20.000 MHz,PH:-126.86°"	--	--
!MK2	--	--	"MK2 TR3:  70.100 200 MHz,Z:(16.829 ohm, -1.506 ohm)"	--
!MK3	--	--	--	--
!MK4	--	--	--	--
!MK5	--	--	--	--
!MK6	--	--	--	--
!MK7	--	--	--	--
!MK8	--	--	--	--
PNT	TR1.FREQ.GHZ	TR1.LOG MAG.dB	TR2.FREQ.GHZ	TR2.PHASE.deg	TR3.FREQ.GHZ	TR3.REAL IMPEDANCE.ohm	TR4.FREQ.GHZ	TR4.IMAGINARY IMPEDANCE.ohm
1	  0.020000000	-6.060000E-01	  0.020000000	-1.268550E+02	  0.020000000	2.181000E+00	  0.020000000	-2.496900E+01
2	  0.020200402	-6.090000E-01	  0.020200402	-1.283100E+02	  0.020200402	2.165000E+00	  0.020200402	-2.418200E+01
3	  0.020400802	-6.160000E-01	  0.020400802	-1.298010E+02	  0.020400802	2.161000E+00	  0.020400802	-2.338400E+01
4	  0.020601204	-6.200000E-01	  0.020601204	-1.313100E+02	  0.020601204	2.148000E+00	  0.020601204	-2.258800E+01
5	  0.020801604	-6.230000E-01	  0.020801604	-1.328430E+02	  0.020801604	2.135000E+00	  0.020801604	-2.178800E+01
6	  0.021002004	-6.280000E-01	  0.021002004	-1.343930E+02	  0.021002004	2.126000E+00	  0.021002004	-2.098800E+01
7	  0.021202406	-6.320000E-01	  0.021202406	-1.359510E+02	  0.021202406	2.117000E+00	  0.021202406	-2.019400E+01
8	  0.021402806	-6.350000E-01	  0.021402806	-1.374950E+02	  0.021402806	2.102000E+00	  0.021402806	-1.941600E+01
9	  0.021603208	-6.390000E-01	  0.021603208	-1.390430E+02	  0.021603208	2.094000E+00	  0.021603208	-1.864400E+01
10	  0.021803608	-6.450000E-01	  0.021803608	-1.405840E+02	  0.021803608	2.094000E+00	  0.021803608	-1.788200E+01
11	  0.022004008	-6.510000E-01	  0.022004008	-1.421390E+02	  0.022004008	2.094000E+00	  0.022004008	-1.712100E+01
12	  0.022204408	-6.580000E-01	  0.022204408	-1.437180E+02	  0.022204408	2.096000E+00	  0.022204408	-1.635600E+01
13	  0.022404809	-6.630000E-01	  0.022404809	-1.453250E+02	  0.022404809	2.095000E+00	  0.022404809	-1.558300E+01
14	  0.022605211	-6.690000E-01	  0.022605211	-1.469310E+02	  0.022605211	2.096000E+00	  0.022605211	-1.481900E+01
15	  0.022805611	-6.800000E-01	  0.022805611	-1.485370E+02	  0.022805611	2.111000E+00	  0.022805611	-1.406000E+01
16	  0.023006011	-6.830000E-01	  0.023006011	-1.501390E+02	  0.023006011	2.107000E+00	  0.023006011	-1.331000E+01
17	  0.023206413	-6.870000E-01	  0.023206413	-1.517520E+02	  0.023206413	2.104000E+00	  0.023206413	-1.256000E+01
18	  0.023406813	-6.930000E-01	  0.023406813	-1.533600E+02	  0.023406813	2.106000E+00	  0.023406813	-1.181700E+01
19	  0.023607215	-7.030000E-01	  0.023607215	-1.549780E+02	  0.023607215	2.122000E+00	  0.023607215	-1.107500E+01
20	  0.023807615	-7.140000E-01	  0.023807615	-1.566110E+02	  0.023807615	2.143000E+00	  0.023807615	-1.033100E+01
21	  0.024008015	-7.240000E-01	  0.024008015	-1.582580E+02	  0.024008015	2.160000E+00	  0.024008015	-9.584000E+00
22	  0.024208417	-7.330000E-01	  0.024208417	-1.599310E+02	  0.024208417	2.177000E+00	  0.024208417	-8.830000E+00
23	  0.024408817	-7.400000E-01	  0.024408817	-1.616010E+02	  0.024408817	2.186000E+00	  0.024408817	-8.082000E+00
24	  0.024609219	-7.500000E-01	  0.024609219	-1.632780E+02	  0.024609219	2.205000E+00	  0.024609219	-7.334000E+00
25	  0.024809619	-7.620000E-01	  0.024809619	-1.649430E+02	  0.024809619	2.231000E+00	  0.024809619	-6.594000E+00
26	  0.025010020	-7.730000E-01	  0.025010020	-1.666270E+02	  0.025010020	2.256000E+00	  0.025010020	-5.849000E+00
27	  0.025210422	-7.870000E-01	  0.025210422	-1.683140E+02	  0.025210422	2.289000E+00	  0.025210422	-5.106000E+00
28	  0.025410822	-7.990000E-01	  0.025410822	-1.700120E+02	  0.025410822	2.317000E+00	  0.025410822	-4.359000E+00
29	  0.025611224	-8.140000E-01	  0.025611224	-1.717350E+02	  0.025611224	2.353000E+00	  0.025611224	-3.604000E+00
30	  0.025811624	-8.280000E-01	  0.025811624	-1.734610E+02	  0.025811624	2.391000E+00	  0.025811624	-2.849000E+00
31	  0.026012026	-8.410000E-01	  0.026012026	-1.752010E+02	  0.026012026	2.425000E+00	  0.026012026	-2.089000E+00
32	  0.026212426	-8.560000E-01	  0.026212426	-1.769540E+02	  0.026212426	2.463000E+00	  0.026212426	-1.325000E+00
33	  0.026412826	-8.720000E-01	  0.026412826	-1.787190E+02	  0.026412826	2.509000E+00	  0.026412826	-5.570000E-01
34	  0.026613226	-8.890000E-01	  0.026613226	1.795160E+02	  0.026613226	2.557000E+00	  0.026613226	2.100000E-01
35	  0.026813626	-9.070000E-01	  0.026813626	1.777280E+02	  0.026813626	2.611000E+00	  0.026813626	9.880000E-01
36	  0.027014028	-9.260000E-01	  0.027014028	1.759470E+02	  0.027014028	2.666000E+00	  0.027014028	1.764000E+00
37	  0.027214428	-9.440000E-01	  0.027214428	1.741480E+02	  0.027214428	2.722000E+00	  0.027214428	2.547000E+00
38	  0.027414829	-9.630000E-01	  0.027414829	1.723380E+02	  0.027414829	2.783000E+00	  0.027414829	3.337000E+00
39	  0.027615231	-9.830000E-01	  0.027615231	1.705120E+02	  0.027615231	2.848000E+00	  0.027615231	4.135000E+00
40	  0.027815631	-1.004000E+00	  0.027815631	1.686830E+02	  0.027815631	2.916000E+00	  0.027815631	4.937000E+00
41	  0.028016033	-1.026000E+00	  0.028016033	1.668400E+02	  0.028016033	2.988000E+00	  0.028016033	5.747000E+00
42	  0.028216433	-1.049000E+00	  0.028216433	1.649790E+02	  0.028216433	3.068000E+00	  0.028216433	6.567000E+00
43	  0.028416833	-1.072000E+00	  0.028416833	1.631120E+02	  0.028416833	3.149000E+00	  0.028416833	7.393000E+00
44	  0.028617235	-1.095000E+00	  0.028617235	1.612460E+02	  0.028617235	3.233000E+00	  0.028617235	8.223000E+00
45	  0.028817635	-1.119000E+00	  0.028817635	1.593790E+02	  0.028817635	3.322000E+00	  0.028817635	9.056000E+00
46	  0.029018037	-1.144000E+00	  0.029018037	1.575090E+02	  0.029018037	3.419000E+00	  0.029018037	9.896000E+00
47	  0.029218437	-1.171000E+00	  0.029218437	1.556210E+02	  0.029218437	3.524000E+00	  0.029218437	1.074900E+01
48	  0.029418837	-1.200000E+00	  0.029418837	1.537120E+02	  0.029418837	3.635000E+00	  0.029418837	1.161700E+01
49	  0.029619239	-1.228000E+00	  0.029619239	1.518150E+02	  0.029619239	3.752000E+00	  0.029619239	1.248500E+01
50	  0.029819639	-1.256000E+00	  0.029819639	1.498970E+02	  0.029819639	3.868000E+00	  0.029819639	1.337000E+01
51	  0.030020041	-1.286000E+00	  0.030020041	1.479770E+02	  0.030020041	3.998000E+00	  0.030020041	1.426200E+01
52	  0.030220442	-1.314000E+00	  0.030220442	1.460620E+02	  0.030220442	4.125000E+00	  0.030220442	1.516100E+01
53	  0.030420844	-1.345000E+00	  0.030420844	1.441510E+02	  0.030420844	4.267000E+00	  0.030420844	1.606600E+01
54	  0.030621244	-1.379000E+00	  0.030621244	1.422410E+02	  0.030621244	4.422000E+00	  0.030621244	1.697800E+01
55	  0.030821642	-1.412000E+00	  0.030821642	1.403200E+02	  0.030821642	4.582000E+00	  0.030821642	1.790500E+01
56	  0.031022044	-1.448000E+00	  0.031022044	1.383740E+02	  0.031022044	4.755000E+00	  0.031022044	1.885500E+01
57	  0.031222444	-1.480000E+00	  0.031222444	1.364340E+02	  0.031222444	4.923000E+00	  0.031222444	1.981400E+01
58	  0.031422846	-1.515000E+00	  0.031422846	1.344680E+02	  0.031422846	5.110000E+00	  0.031422846	2.079600E+01
59	  0.031623244	-1.553000E+00	  0.031623244	1.325060E+02	  0.031623244	5.312000E+00	  0.031623244	2.178800E+01
60	  0.031823646	-1.591000E+00	  0.031823646	1.305420E+02	  0.031823646	5.527000E+00	  0.031823646	2.279500E+01
61	  0.032024048	-1.629000E+00	  0.032024048	1.285600E+02	  0.032024048	5.749000E+00	  0.032024048	2.382500E+01
62	  0.032224450	-1.667000E+00	  0.032224450	1.265690E+02	  0.032224450	5.983000E+00	  0.032224450	2.487500E+01
63	  0.032424849	-1.707000E+00	  0.032424849	1.245990E+02	  0.032424849	6.233000E+00	  0.032424849	2.593000E+01
64	  0.032625251	-1.746000E+00	  0.032625251	1.225710E+02	  0.032625251	6.494000E+00	  0.032625251	2.703300E+01
65	  0.032825653	-1.788000E+00	  0.032825653	1.205490E+02	  0.032825653	6.778000E+00	  0.032825653	2.815100E+01
66	  0.033026051	-1.829000E+00	  0.033026051	1.184940E+02	  0.033026051	7.075000E+00	  0.033026051	2.930800E+01
67	  0.033226453	-1.870000E+00	  0.033226453	1.164590E+02	  0.033226453	7.386000E+00	  0.033226453	3.047500E+01
68	  0.033426855	-1.914000E+00	  0.033426855	1.144200E+02	  0.033426855	7.725000E+00	  0.033426855	3.166300E+01
69	  0.033627257	-1.956000E+00	  0.033627257	1.123990E+02	  0.033627257	8.076000E+00	  0.033627257	3.286600E+01
70	  0.033827655	-2.002000E+00	  0.033827655	1.103430E+02	  0.033827655	8.461000E+00	  0.033827655	3.411100E+01
71	  0.034028057	-2.046000E+00	  0.034028057	1.082990E+02	  0.034028057	8.862000E+00	  0.034028057	3.537600E+01
72	  0.034228459	-2.093000E+00	  0.034228459	1.062160E+02	  0.034228459	9.301000E+00	  0.034228459	3.669200E+01
73	  0.034428857	-2.142000E+00	  0.034428857	1.041430E+02	  0.034428857	9.770000E+00	  0.034428857	3.802900E+01
74	  0.034629259	-2.188000E+00	  0.034629259	1.020490E+02	  0.034629259	1.026300E+01	  0.034629259	3.941200E+01
75	  0.034829661	-2.236000E+00	  0.034829661	9.996000E+01	  0.034829661	1.078900E+01	  0.034829661	4.082400E+01
76	  0.035030060	-2.287000E+00	  0.035030060	9.787100E+01	  0.035030060	1.136600E+01	  0.035030060	4.226600E+01
77	  0.035230462	-2.339000E+00	  0.035230462	9.577400E+01	  0.035230462	1.198700E+01	  0.035230462	4.374700E+01
78	  0.035430863	-2.391000E+00	  0.035430863	9.369000E+01	  0.035430863	1.264400E+01	  0.035430863	4.525600E+01
79	  0.035631265	-2.444000E+00	  0.035631265	9.160300E+01	  0.035631265	1.335200E+01	  0.035631265	4.680400E+01
80	  0.035831664	-2.494000E+00	  0.035831664	8.951800E+01	  0.035831664	1.409100E+01	  0.035831664	4.839500E+01
81	  0.036032066	-2.551000E+00	  0.036032066	8.740800E+01	  0.036032066	1.492600E+01	  0.036032066	5.003600E+01
82	  0.036232468	-2.604000E+00	  0.036232468	8.533800E+01	  0.036232468	1.578300E+01	  0.036232468	5.169500E+01
83	  0.036432866	-2.656000E+00	  0.036432866	8.325000E+01	  0.036432866	1.670700E+01	  0.036432866	5.341300E+01
84	  0.036633268	-2.710000E+00	  0.036633268	8.117100E+01	  0.036633268	1.770800E+01	  0.036633268	5.516500E+01
85	  0.036833670	-2.769000E+00	  0.036833670	7.908400E+01	  0.036833670	1.880900E+01	  0.036833670	5.696200E+01
86	  0.037034072	-2.825000E+00	  0.037034072	7.699400E+01	  0.037034072	1.998600E+01	  0.037034072	5.881300E+01
87	  0.037234470	-2.881000E+00	  0.037234470	7.490100E+01	  0.037234470	2.124700E+01	  0.037234470	6.071700E+01
88	  0.037434869	-2.941000E+00	  0.037434869	7.280100E+01	  0.037434869	2.264400E+01	  0.037434869	6.266300E+01
89	  0.037635271	-3.007000E+00	  0.037635271	7.068900E+01	  0.037635271	2.419800E+01	  0.037635271	6.465100E+01
90	  0.037835669	-3.085000E+00	  0.037835669	6.863600E+01	  0.037835669	2.592900E+01	  0.037835669	6.657000E+01
91	  0.038036071	-3.151000E+00	  0.038036071	6.665600E+01	  0.038036071	2.766400E+01	  0.038036071	6.848500E+01
92	  0.038236473	-3.207000E+00	  0.038236473	6.466600E+01	  0.038236473	2.946300E+01	  0.038236473	7.049100E+01
93	  0.038436871	-3.261000E+00	  0.038436871	6.264300E+01	  0.038436871	3.141500E+01	  0.038436871	7.258300E+01
94	  0.038637273	-3.317000E+00	  0.038637273	6.060800E+01	  0.038637273	3.355200E+01	  0.038637273	7.471900E+01
95	  0.038837675	-3.370000E+00	  0.038837675	5.855500E+01	  0.038837675	3.587200E+01	  0.038837675	7.691800E+01
96	  0.039038073	-3.420000E+00	  0.039038073	5.653800E+01	  0.039038073	3.832500E+01	  0.039038073	7.912400E+01
97	  0.039238475	-3.476000E+00	  0.039238475	5.446600E+01	  0.039238475	4.110500E+01	  0.039238475	8.137400E+01
98	  0.039438877	-3.528000E+00	  0.039438877	5.244500E+01	  0.039438877	4.403000E+01	  0.039438877	8.359800E+01
99	  0.039639279	-3.581000E+00	  0.039639279	5.039800E+01	  0.039639279	4.725500E+01	  0.039639279	8.584000E+01
100	  0.039839678	-3.635000E+00	  0.039839678	4.834300E+01	  0.039839678	5.078400E+01	  0.039839678	8.806300E+01
101	  0.040040080	-3.686000E+00	  0.040040080	4.627900E+01	  0.040040080	5.461700E+01	  0.040040080	9.027900E+01
102	  0.040240481	-3.737000E+00	  0.040240481	4.423200E+01	  0.040240481	5.876800E+01	  0.040240481	9.239400E+01
103	  0.040440880	-3.785000E+00	  0.040440880	4.219500E+01	  0.040440880	6.323600E+01	  0.040440880	9.443100E+01
104	  0.040641282	-3.837000E+00	  0.040641282	4.016800E+01	  0.040641282	6.810000E+01	  0.040641282	9.625900E+01
105	  0.040841684	-3.886000E+00	  0.040841684	3.813900E+01	  0.040841684	7.335700E+01	  0.040841684	9.793400E+01
106	  0.041042086	-3.936000E+00	  0.041042086	3.612100E+01	  0.041042086	7.901500E+01	  0.041042086	9.934100E+01
107	  0.041242484	-3.988000E+00	  0.041242484	3.407900E+01	  0.041242484	8.520300E+01	  0.041242484	1.004090E+02
108	  0.041442886	-4.036000E+00	  0.041442886	3.203000E+01	  0.041442886	9.185000E+01	  0.041442886	1.011580E+02
109	  0.041643288	-4.081000E+00	  0.041643288	2.999200E+01	  0.041643288	9.891800E+01	  0.041643288	1.014460E+02
110	  0.041843686	-4.127000E+00	  0.041843686	2.794900E+01	  0.041843686	1.064560E+02	  0.041843686	1.011450E+02
111	  0.042044088	-4.172000E+00	  0.042044088	2.591400E+01	  0.042044088	1.143760E+02	  0.042044088	1.001530E+02
112	  0.042244490	-4.219000E+00	  0.042244490	2.389300E+01	  0.042244490	1.225820E+02	  0.042244490	9.830100E+01
113	  0.042444889	-4.264000E+00	  0.042444889	2.188800E+01	  0.042444889	1.309710E+02	  0.042444889	9.555800E+01
114	  0.042645290	-4.310000E+00	  0.042645290	1.987200E+01	  0.042645290	1.395210E+02	  0.042645290	9.176000E+01
115	  0.042845692	-4.352000E+00	  0.042845692	1.786800E+01	  0.042845692	1.480290E+02	  0.042845692	8.696300E+01
116	  0.043046094	-4.396000E+00	  0.043046094	1.588000E+01	  0.043046094	1.562080E+02	  0.043046094	8.094600E+01
117	  0.043246493	-4.440000E+00	  0.043246493	1.384400E+01	  0.043246493	1.641360E+02	  0.043246493	7.357000E+01
118	  0.043446895	-4.479000E+00	  0.043446895	1.186800E+01	  0.043446895	1.712400E+02	  0.043446895	6.534700E+01
119	  0.043647297	-4.518000E+00	  0.043647297	9.871000E+00	  0.043647297	1.775490E+02	  0.043647297	5.595600E+01
120	  0.043847695	-4.564000E+00	  0.043847695	7.888000E+00	  0.043847695	1.824160E+02	  0.043847695	4.551000E+01
121	  0.044048097	-4.603000E+00	  0.044048097	5.918000E+00	  0.044048097	1.861660E+02	  0.044048097	3.457700E+01
122	  0.044248499	-4.644000E+00	  0.044248499	3.951000E+00	  0.044248499	1.884000E+02	  0.044248499	2.316100E+01
123	  0.044448901	-4.680000E+00	  0.044448901	1.987000E+00	  0.044448901	1.892720E+02	  0.044448901	1.160900E+01
124	  0.044649299	-4.721000E+00	  0.044649299	3.600000E-02	  0.044649299	1.884790E+02	  0.044649299	2.080000E-01
125	  0.044849701	-4.761000E+00	  0.044849701	-1.904000E+00	  0.044849701	1.863020E+02	  0.044849701	-1.074700E+01
126	  0.045050103	-4.798000E+00	  0.045050103	-3.832000E+00	  0.045050103	1.829760E+02	  0.045050103	-2.104800E+01
127	  0.045250501	-4.838000E+00	  0.045250501	-5.774000E+00	  0.045250501	1.784520E+02	  0.045250501	-3.062600E+01
128	  0.045450903	-4.874000E+00	  0.045450903	-7.675000E+00	  0.045450903	1.732280E+02	  0.045450903	-3.913500E+01
129	  0.045651305	-4.911000E+00	  0.045651305	-9.613000E+00	  0.045651305	1.672380E+02	  0.045651305	-4.685600E+01
130	  0.045851704	-4.945000E+00	  0.045851704	-1.151500E+01	  0.045851704	1.609010E+02	  0.045851704	-5.348100E+01
131	  0.046052102	-4.979000E+00	  0.046052102	-1.340300E+01	  0.046052102	1.542940E+02	  0.046052102	-5.909500E+01
132	  0.046252504	-5.015000E+00	  0.046252504	-1.529200E+01	  0.046252504	1.474980E+02	  0.046252504	-6.376700E+01
133	  0.046452906	-5.051000E+00	  0.046452906	-1.714900E+01	  0.046452906	1.407800E+02	  0.046452906	-6.751000E+01
134	  0.046653304	-5.087000E+00	  0.046653304	-1.903600E+01	  0.046653304	1.340430E+02	  0.046653304	-7.053800E+01
135	  0.046853706	-5.122000E+00	  0.046853706	-2.088400E+01	  0.046853706	1.276080E+02	  0.046853706	-7.283100E+01
136	  0.047054108	-5.159000E+00	  0.047054108	-2.275000E+01	  0.047054108	1.213110E+02	  0.047054108	-7.451000E+01
137	  0.047254506	-5.194000E+00	  0.047254506	-2.458800E+01	  0.047254506	1.153720E+02	  0.047254506	-7.567400E+01
138	  0.047454908	-5.230000E+00	  0.047454908	-2.642500E+01	  0.047454908	1.097050E+02	  0.047454908	-7.637000E+01
139	  0.047655310	-5.264000E+00	  0.047655310	-2.821000E+01	  0.047655310	1.044760E+02	  0.047655310	-7.670900E+01
140	  0.047855709	-5.296000E+00	  0.047855709	-3.000100E+01	  0.047855709	9.950900E+01	  0.047855709	-7.674500E+01
141	  0.048056111	-5.331000E+00	  0.048056111	-3.177200E+01	  0.048056111	9.486100E+01	  0.048056111	-7.647700E+01
142	  0.048256513	-5.362000E+00	  0.048256513	-3.355100E+01	  0.048256513	9.046400E+01	  0.048256513	-7.605700E+01
143	  0.048456915	-5.393000E+00	  0.048456915	-3.531600E+01	  0.048456915	8.635300E+01	  0.048456915	-7.544600E+01
144	  0.048657313	-5.421000E+00	  0.048657313	-3.708100E+01	  0.048657313	8.248200E+01	  0.048657313	-7.472900E+01
145	  0.048857715	-5.452000E+00	  0.048857715	-3.884500E+01	  0.048857715	7.884600E+01	  0.048857715	-7.383800E+01
146	  0.049058117	-5.477000E+00	  0.049058117	-4.059400E+01	  0.049058117	7.544600E+01	  0.049058117	-7.291800E+01
147	  0.049258515	-5.504000E+00	  0.049258515	-4.232700E+01	  0.049258515	7.228100E+01	  0.049258515	-7.189700E+01
148	  0.049458917	-5.531000E+00	  0.049458917	-4.404800E+01	  0.049458917	6.932700E+01	  0.049458917	-7.080100E+01
149	  0.049659319	-5.560000E+00	  0.049659319	-4.574300E+01	  0.049659319	6.659700E+01	  0.049659319	-6.965700E+01
150	  0.049859721	-5.585000E+00	  0.049859721	-4.744000E+01	  0.049859721	6.401400E+01	  0.049859721	-6.849900E+01
151	  0.050060119	-5.610000E+00	  0.050060119	-4.912900E+01	  0.050060119	6.158800E+01	  0.050060119	-6.732400E+01
152	  0.050260521	-5.633000E+00	  0.050260521	-5.080800E+01	  0.050260521	5.931200E+01	  0.050260521	-6.614100E+01
153	  0.050460923	-5.655000E+00	  0.050460923	-5.250100E+01	  0.050460923	5.714300E+01	  0.050460923	-6.494400E+01
154	  0.050661322	-5.674000E+00	  0.050661322	-5.416600E+01	  0.050661322	5.511900E+01	  0.050661322	-6.377300E+01
155	  0.050861724	-5.691000E+00	  0.050861724	-5.582100E+01	  0.050861724	5.321200E+01	  0.050861724	-6.260800E+01
156	  0.051062126	-5.715000E+00	  0.051062126	-5.745100E+01	  0.051062126	5.146800E+01	  0.051062126	-6.139900E+01
157	  0.051262524	-5.733000E+00	  0.051262524	-5.906800E+01	  0.051262524	4.980200E+01	  0.051262524	-6.025000E+01
158	  0.051462926	-5.754000E+00	  0.051462926	-6.066800E+01	  0.051462926	4.825700E+01	  0.051462926	-5.908800E+01
159	  0.051663328	-5.768000E+00	  0.051663328	-6.229100E+01	  0.051663328	4.674500E+01	  0.051663328	-5.795300E+01
160	  0.051863730	-5.789000E+00	  0.051863730	-6.387400E+01	  0.051863730	4.537300E+01	  0.051863730	-5.681100E+01
161	  0.052064128	-5.797000E+00	  0.052064128	-6.544800E+01	  0.052064128	4.402400E+01	  0.052064128	-5.575800E+01
162	  0.052264530	-5.811000E+00	  0.052264530	-6.704800E+01	  0.052264530	4.274500E+01	  0.052264530	-5.465700E+01
163	  0.052464932	-5.826000E+00	  0.052464932	-6.855800E+01	  0.052464932	4.160600E+01	  0.052464932	-5.361400E+01
164	  0.052665330	-5.840000E+00	  0.052665330	-7.012100E+01	  0.052665330	4.047400E+01	  0.052665330	-5.255400E+01
165	  0.052865732	-5.855000E+00	  0.052865732	-7.161700E+01	  0.052865732	3.945200E+01	  0.052865732	-5.153800E+01
166	  0.053066134	-5.871000E+00	  0.053066134	-7.315500E+01	  0.053066134	3.844900E+01	  0.053066134	-5.050400E+01
167	  0.053266536	-5.884000E+00	  0.053266536	-7.463900E+01	  0.053266536	3.752100E+01	  0.053266536	-4.952300E+01
168	  0.053466935	-5.897000E+00	  0.053466935	-7.614000E+01	  0.053466935	3.661900E+01	  0.053466935	-4.854600E+01
169	  0.053667337	-5.909000E+00	  0.053667337	-7.763900E+01	  0.053667337	3.575800E+01	  0.053667337	-4.758200E+01
170	  0.053867739	-5.919000E+00	  0.053867739	-7.912300E+01	  0.053867739	3.493600E+01	  0.053867739	-4.664400E+01
171	  0.054068137	-5.933000E+00	  0.054068137	-8.059700E+01	  0.054068137	3.417000E+01	  0.054068137	-4.570900E+01
172	  0.054268539	-5.943000E+00	  0.054268539	-8.204100E+01	  0.054268539	3.343700E+01	  0.054268539	-4.481500E+01
173	  0.054468941	-5.956000E+00	  0.054468941	-8.347900E+01	  0.054468941	3.275000E+01	  0.054468941	-4.392500E+01
174	  0.054669335	-5.968000E+00	  0.054669335	-8.490700E+01	  0.054669335	3.209500E+01	  0.054669335	-4.305300E+01
175	  0.054869737	-5.982000E+00	  0.054869737	-8.631900E+01	  0.054869737	3.147900E+01	  0.054869737	-4.219500E+01
176	  0.055070139	-5.992000E+00	  0.055070139	-8.776200E+01	  0.055070139	3.086300E+01	  0.055070139	-4.133900E+01
177	  0.055270538	-6.005000E+00	  0.055270538	-8.913700E+01	  0.055270538	3.031000E+01	  0.055270538	-4.052500E+01
178	  0.055470940	-6.014000E+00	  0.055470940	-9.056600E+01	  0.055470940	2.974300E+01	  0.055470940	-3.969900E+01
179	  0.055671342	-6.023000E+00	  0.055671342	-9.196300E+01	  0.055671342	2.921000E+01	  0.055671342	-3.890200E+01
180	  0.055871744	-6.029000E+00	  0.055871744	-9.337200E+01	  0.055871744	2.868300E+01	  0.055871744	-3.811300E+01
181	  0.056072142	-6.038000E+00	  0.056072142	-9.476100E+01	  0.056072142	2.819400E+01	  0.056072142	-3.733700E+01
182	  0.056272544	-6.049000E+00	  0.056272544	-9.613200E+01	  0.056272544	2.773900E+01	  0.056272544	-3.657200E+01
183	  0.056472946	-6.058000E+00	  0.056472946	-9.749600E+01	  0.056472946	2.729700E+01	  0.056472946	-3.582400E+01
184	  0.056673344	-6.065000E+00	  0.056673344	-9.883900E+01	  0.056673344	2.687100E+01	  0.056673344	-3.510000E+01
185	  0.056873746	-6.072000E+00	  0.056873746	-1.001850E+02	  0.056873746	2.646100E+01	  0.056873746	-3.438100E+01
186	  0.057074148	-6.077000E+00	  0.057074148	-1.015650E+02	  0.057074148	2.604800E+01	  0.057074148	-3.365600E+01
187	  0.057274550	-6.080000E+00	  0.057274550	-1.029040E+02	  0.057274550	2.565500E+01	  0.057274550	-3.296200E+01
188	  0.057474948	-6.089000E+00	  0.057474948	-1.042470E+02	  0.057474948	2.529600E+01	  0.057474948	-3.226200E+01
189	  0.057675350	-6.093000E+00	  0.057675350	-1.055840E+02	  0.057675350	2.493300E+01	  0.057675350	-3.158200E+01
190	  0.057875752	-6.095000E+00	  0.057875752	-1.069140E+02	  0.057875752	2.458300E+01	  0.057875752	-3.091200E+01
191	  0.058076151	-6.099000E+00	  0.058076151	-1.082250E+02	  0.058076151	2.425300E+01	  0.058076151	-3.025600E+01
192	  0.058276553	-6.104000E+00	  0.058276553	-1.095120E+02	  0.058276553	2.394500E+01	  0.058276553	-2.961600E+01
193	  0.058476955	-6.108000E+00	  0.058476955	-1.108130E+02	  0.058476955	2.364200E+01	  0.058476955	-2.897500E+01
194	  0.058677353	-6.109000E+00	  0.058677353	-1.121110E+02	  0.058677353	2.333900E+01	  0.058677353	-2.834700E+01
195	  0.058877755	-6.111000E+00	  0.058877755	-1.134020E+02	  0.058877755	2.305400E+01	  0.058877755	-2.772400E+01
196	  0.059078157	-6.109000E+00	  0.059078157	-1.146490E+02	  0.059078157	2.277300E+01	  0.059078157	-2.713400E+01
197	  0.059278559	-6.110000E+00	  0.059278559	-1.159290E+02	  0.059278559	2.250600E+01	  0.059278559	-2.652600E+01
198	  0.059478957	-6.109000E+00	  0.059478957	-1.171740E+02	  0.059478957	2.224700E+01	  0.059478957	-2.594400E+01
199	  0.059679359	-6.112000E+00	  0.059679359	-1.184310E+02	  0.059679359	2.200600E+01	  0.059679359	-2.535600E+01
200	  0.059879761	-6.113000E+00	  0.059879761	-1.196490E+02	  0.059879761	2.177600E+01	  0.059879761	-2.479100E+01
201	  0.060080159	-6.112000E+00	  0.060080159	-1.208730E+02	  0.060080159	2.154800E+01	  0.060080159	-2.422900E+01
202	  0.060280561	-6.113000E+00	  0.060280561	-1.220790E+02	  0.060280561	2.133400E+01	  0.060280561	-2.367800E+01
203	  0.060480963	-6.116000E+00	  0.060480963	-1.232910E+02	  0.060480963	2.113300E+01	  0.060480963	-2.312500E+01
204	  0.060681365	-6.113000E+00	  0.060681365	-1.244950E+02	  0.060681365	2.092100E+01	  0.060681365	-2.258700E+01
205	  0.060881764	-6.111000E+00	  0.060881764	-1.257250E+02	  0.060881764	2.071500E+01	  0.060881764	-2.203900E+01
206	  0.061082166	-6.112000E+00	  0.061082166	-1.269070E+02	  0.061082166	2.053200E+01	  0.061082166	-2.151200E+01
207	  0.061282568	-6.111000E+00	  0.061282568	-1.281010E+02	  0.061282568	2.034900E+01	  0.061282568	-2.098400E+01
208	  0.061482966	-6.113000E+00	  0.061482966	-1.292640E+02	  0.061482966	2.018400E+01	  0.061482966	-2.047200E+01
209	  0.061683368	-6.114000E+00	  0.061683368	-1.304260E+02	  0.061683368	2.002300E+01	  0.061683368	-1.996200E+01
210	  0.061883770	-6.114000E+00	  0.061883770	-1.315960E+02	  0.061883770	1.986300E+01	  0.061883770	-1.945400E+01
211	  0.062084168	-6.114000E+00	  0.062084168	-1.327450E+02	  0.062084168	1.971100E+01	  0.062084168	-1.895600E+01
212	  0.062284570	-6.112000E+00	  0.062284570	-1.339130E+02	  0.062284570	1.955400E+01	  0.062284570	-1.845600E+01
213	  0.062484972	-6.108000E+00	  0.062484972	-1.350510E+02	  0.062484972	1.940300E+01	  0.062484972	-1.797200E+01
214	  0.062685370	-6.107000E+00	  0.062685370	-1.362030E+02	  0.062685370	1.926200E+01	  0.062685370	-1.748200E+01
215	  0.062885776	-6.109000E+00	  0.062885776	-1.373350E+02	  0.062885776	1.913500E+01	  0.062885776	-1.700100E+01
216	  0.063086174	-6.107000E+00	  0.063086174	-1.384710E+02	  0.063086174	1.900500E+01	  0.063086174	-1.652300E+01
217	  0.063286573	-6.111000E+00	  0.063286573	-1.396270E+02	  0.063286573	1.889000E+01	  0.063286573	-1.603500E+01
218	  0.063486971	-6.107000E+00	  0.063486971	-1.407670E+02	  0.063486971	1.876000E+01	  0.063486971	-1.556100E+01
219	  0.063687377	-6.107000E+00	  0.063687377	-1.418410E+02	  0.063687377	1.865300E+01	  0.063687377	-1.511400E+01
220	  0.063887775	-6.106000E+00	  0.063887775	-1.429860E+02	  0.063887775	1.854000E+01	  0.063887775	-1.464000E+01
221	  0.064088173	-6.102000E+00	  0.064088173	-1.441240E+02	  0.064088173	1.842400E+01	  0.064088173	-1.417300E+01
222	  0.064288579	-6.104000E+00	  0.064288579	-1.452560E+02	  0.064288579	1.832700E+01	  0.064288579	-1.370600E+01
223	  0.064488977	-6.104000E+00	  0.064488977	-1.463920E+02	  0.064488977	1.823100E+01	  0.064488977	-1.324000E+01
224	  0.064689375	-6.105000E+00	  0.064689375	-1.474810E+02	  0.064689375	1.814200E+01	  0.064689375	-1.279500E+01
225	  0.064889781	-6.104000E+00	  0.064889781	-1.486090E+02	  0.064889781	1.805000E+01	  0.064889781	-1.233700E+01
226	  0.065090179	-6.105000E+00	  0.065090179	-1.497030E+02	  0.065090179	1.797100E+01	  0.065090179	-1.189300E+01
227	  0.065290578	-6.102000E+00	  0.065290578	-1.507990E+02	  0.065290578	1.788100E+01	  0.065290578	-1.145200E+01
228	  0.065490983	-6.099000E+00	  0.065490983	-1.519000E+02	  0.065490983	1.779700E+01	  0.065490983	-1.101000E+01
229	  0.065691382	-6.099000E+00	  0.065691382	-1.530080E+02	  0.065691382	1.772400E+01	  0.065691382	-1.056400E+01
230	  0.065891780	-6.100000E+00	  0.065891780	-1.541170E+02	  0.065891780	1.765500E+01	  0.065891780	-1.012000E+01
231	  0.066092186	-6.096000E+00	  0.066092186	-1.552020E+02	  0.066092186	1.757900E+01	  0.066092186	-9.688000E+00
232	  0.066292584	-6.091000E+00	  0.066292584	-1.562760E+02	  0.066292584	1.750300E+01	  0.066292584	-9.263000E+00
233	  0.066492982	-6.091000E+00	  0.066492982	-1.573440E+02	  0.066492982	1.744400E+01	  0.066492982	-8.838000E+00
234	  0.066693388	-6.092000E+00	  0.066693388	-1.584380E+02	  0.066693388	1.738900E+01	  0.066693388	-8.404000E+00
235	  0.066893786	-6.086000E+00	  0.066893786	-1.594800E+02	  0.066893786	1.732100E+01	  0.066893786	-7.994000E+00
236	  0.067094192	-6.088000E+00	  0.067094192	-1.605760E+02	  0.067094192	1.727700E+01	  0.067094192	-7.561000E+00
237	  0.067294590	-6.087000E+00	  0.067294590	-1.616360E+02	  0.067294590	1.722700E+01	  0.067294590	-7.143000E+00
238	  0.067494988	-6.083000E+00	  0.067494988	-1.626720E+02	  0.067494988	1.717200E+01	  0.067494988	-6.738000E+00
239	  0.067695394	-6.083000E+00	  0.067695394	-1.637340E+02	  0.067695394	1.713100E+01	  0.067695394	-6.321000E+00
240	  0.067895792	-6.081000E+00	  0.067895792	-1.647930E+02	  0.067895792	1.708800E+01	  0.067895792	-5.906000E+00
241	  0.068096191	-6.081000E+00	  0.068096191	-1.658490E+02	  0.068096191	1.705000E+01	  0.068096191	-5.494000E+00
242	  0.068296596	-6.080000E+00	  0.068296596	-1.668830E+02	  0.068296596	1.701600E+01	  0.068296596	-5.090000E+00
243	  0.068496995	-6.084000E+00	  0.068496995	-1.679170E+02	  0.068496995	1.699600E+01	  0.068496995	-4.686000E+00
244	  0.068697393	-6.080000E+00	  0.068697393	-1.689510E+02	  0.068697393	1.695800E+01	  0.068697393	-4.284000E+00
245	  0.068897791	-6.077000E+00	  0.068897791	-1.699700E+02	  0.068897791	1.692700E+01	  0.068897791	-3.887000E+00
246	  0.069098189	-6.074000E+00	  0.069098189	-1.710170E+02	  0.069098189	1.689500E+01	  0.069098189	-3.481000E+00
247	  0.069298595	-6.073000E+00	  0.069298595	-1.720410E+02	  0.069298595	1.687300E+01	  0.069298595	-3.083000E+00
248	  0.069498993	-6.075000E+00	  0.069498993	-1.730910E+02	  0.069498993	1.686000E+01	  0.069498993	-2.675000E+00
249	  0.069699399	-6.075000E+00	  0.069699399	-1.741010E+02	  0.069699399	1.684500E+01	  0.069699399	-2.284000E+00
250	  0.069899797	-6.073000E+00	  0.069899797	-1.751090E+02	  0.069899797	1.682800E+01	  0.069899797	-1.893000E+00
251	  0.070100196	-6.077000E+00	  0.070100196	-1.761100E+02	  0.070100196	1.682800E+01	  0.070100196	-1.505000E+00
252	  0.070300601	-6.078000E+00	  0.070300601	-1.771170E+02	  0.070300601	1.682400E+01	  0.070300601	-1.115000E+00
253	  0.070501000	-6.076000E+00	  0.070501000	-1.781180E+02	  0.070501000	1.681200E+01	  0.070501000	-7.280000E-01
254	  0.070701398	-6.075000E+00	  0.070701398	-1.791130E+02	  0.070701398	1.680700E+01	  0.070701398	-3.430000E-01
255	  0.070901804	-6.077000E+00	  0.070901804	1.798740E+02	  0.070901804	1.681200E+01	  0.070901804	4.800000E-02
256	  0.071102202	-6.080000E+00	  0.071102202	1.788660E+02	  0.071102202	1.682000E+01	  0.071102202	4.380000E-01
257	  0.071302600	-6.080000E+00	  0.071302600	1.778840E+02	  0.071302600	1.682400E+01	  0.071302600	8.180000E-01
258	  0.071503006	-6.087000E+00	  0.071503006	1.768830E+02	  0.071503006	1.684900E+01	  0.071503006	1.205000E+00
259	  0.071703404	-6.089000E+00	  0.071703404	1.759160E+02	  0.071703404	1.686100E+01	  0.071703404	1.580000E+00
260	  0.071903802	-6.092000E+00	  0.071903802	1.749240E+02	  0.071903802	1.688000E+01	  0.071903802	1.964000E+00
261	  0.072104208	-6.094000E+00	  0.072104208	1.739330E+02	  0.072104208	1.689800E+01	  0.072104208	2.347000E+00
262	  0.072304606	-6.097000E+00	  0.072304606	1.729520E+02	  0.072304606	1.691900E+01	  0.072304606	2.727000E+00
263	  0.072505005	-6.102000E+00	  0.072505005	1.719920E+02	  0.072505005	1.694800E+01	  0.072505005	3.099000E+00
264	  0.072705410	-6.105000E+00	  0.072705410	1.710120E+02	  0.072705410	1.697600E+01	  0.072705410	3.479000E+00
265	  0.072905809	-6.110000E+00	  0.072905809	1.700200E+02	  0.072905809	1.701000E+01	  0.072905809	3.863000E+00
266	  0.073106214	-6.118000E+00	  0.073106214	1.690410E+02	  0.073106214	1.705300E+01	  0.073106214	4.242000E+00
267	  0.073306613	-6.124000E+00	  0.073306613	1.680690E+02	  0.073306613	1.709400E+01	  0.073306613	4.619000E+00
268	  0.073507011	-6.129000E+00	  0.073507011	1.670900E+02	  0.073507011	1.713500E+01	  0.073507011	4.999000E+00
269	  0.073707417	-6.137000E+00	  0.073707417	1.661340E+02	  0.073707417	1.718600E+01	  0.073707417	5.370000E+00
270	  0.073907815	-6.145000E+00	  0.073907815	1.651640E+02	  0.073907815	1.723800E+01	  0.073907815	5.747000E+00
271	  0.074108213	-6.150000E+00	  0.074108213	1.642230E+02	  0.074108213	1.728400E+01	  0.074108213	6.113000E+00
272	  0.074308619	-6.160000E+00	  0.074308619	1.632620E+02	  0.074308619	1.734900E+01	  0.074308619	6.486000E+00
273	  0.074509017	-6.166000E+00	  0.074509017	1.622900E+02	  0.074509017	1.740300E+01	  0.074509017	6.865000E+00
274	  0.074709415	-6.173000E+00	  0.074709415	1.613500E+02	  0.074709415	1.746200E+01	  0.074709415	7.231000E+00
275	  0.074909821	-6.182000E+00	  0.074909821	1.603980E+02	  0.074909821	1.752900E+01	  0.074909821	7.602000E+00
276	  0.075110219	-6.196000E+00	  0.075110219	1.594390E+02	  0.075110219	1.761000E+01	  0.075110219	7.975000E+00
277	  0.075310618	-6.202000E+00	  0.075310618	1.585010E+02	  0.075310618	1.767300E+01	  0.075310618	8.342000E+00
278	  0.075511023	-6.210000E+00	  0.075511023	1.575750E+02	  0.075511023	1.774200E+01	  0.075511023	8.705000E+00
279	  0.075711422	-6.218000E+00	  0.075711422	1.566480E+02	  0.075711422	1.781500E+01	  0.075711422	9.067000E+00
280	  0.075911827	-6.231000E+00	  0.075911827	1.557070E+02	  0.075911827	1.790100E+01	  0.075911827	9.435000E+00
281	  0.076112226	-6.238000E+00	  0.076112226	1.547680E+02	  0.076112226	1.797600E+01	  0.076112226	9.805000E+00
282	  0.076312624	-6.251000E+00	  0.076312624	1.538390E+02	  0.076312624	1.807000E+01	  0.076312624	1.016800E+01
283	  0.076513030	-6.263000E+00	  0.076513030	1.529240E+02	  0.076513030	1.816200E+01	  0.076513030	1.052600E+01
284	  0.076713428	-6.273000E+00	  0.076713428	1.519890E+02	  0.076713428	1.825100E+01	  0.076713428	1.089500E+01
285	  0.076913826	-6.284000E+00	  0.076913826	1.510890E+02	  0.076913826	1.834300E+01	  0.076913826	1.124900E+01
286	  0.077114232	-6.295000E+00	  0.077114232	1.501600E+02	  0.077114232	1.844100E+01	  0.077114232	1.161500E+01
287	  0.077314630	-6.310000E+00	  0.077314630	1.492670E+02	  0.077314630	1.854900E+01	  0.077314630	1.196600E+01
288	  0.077515028	-6.321000E+00	  0.077515028	1.483440E+02	  0.077515028	1.865100E+01	  0.077515028	1.233100E+01
289	  0.077715434	-6.335000E+00	  0.077715434	1.474540E+02	  0.077715434	1.876100E+01	  0.077715434	1.268100E+01
290	  0.077915832	-6.350000E+00	  0.077915832	1.465580E+02	  0.077915832	1.887700E+01	  0.077915832	1.303500E+01
291	  0.078116231	-6.364000E+00	  0.078116231	1.456750E+02	  0.078116231	1.899100E+01	  0.078116231	1.338300E+01
292	  0.078316636	-6.373000E+00	  0.078316636	1.447800E+02	  0.078316636	1.909600E+01	  0.078316636	1.374000E+01
293	  0.078517035	-6.390000E+00	  0.078517035	1.438770E+02	  0.078517035	1.922500E+01	  0.078517035	1.409700E+01
294	  0.078717433	-6.406000E+00	  0.078717433	1.430180E+02	  0.078717433	1.935100E+01	  0.078717433	1.443600E+01
295	  0.078917839	-6.419000E+00	  0.078917839	1.421550E+02	  0.078917839	1.946900E+01	  0.078917839	1.478000E+01
296	  0.079118237	-6.436000E+00	  0.079118237	1.412800E+02	  0.079118237	1.960600E+01	  0.079118237	1.512600E+01
297	  0.079318643	-6.453000E+00	  0.079318643	1.404140E+02	  0.079318643	1.974300E+01	  0.079318643	1.546900E+01
298	  0.079519041	-6.471000E+00	  0.079519041	1.395540E+02	  0.079519041	1.988400E+01	  0.079519041	1.580900E+01
299	  0.079719439	-6.489000E+00	  0.079719439	1.387080E+02	  0.079719439	2.002700E+01	  0.079719439	1.614400E+01
300	  0.079919845	-6.507000E+00	  0.079919845	1.378420E+02	  0.079919845	2.017600E+01	  0.079919845	1.648700E+01
301	  0.080120243	-6.522000E+00	  0.080120243	1.369820E+02	  0.080120243	2.031700E+01	  0.080120243	1.683100E+01
302	  0.080320641	-6.543000E+00	  0.080320641	1.361360E+02	  0.080320641	2.047900E+01	  0.080320641	1.716500E+01
303	  0.080521047	-6.562000E+00	  0.080521047	1.353040E+02	  0.080521047	2.063300E+01	  0.080521047	1.749400E+01
304	  0.080721445	-6.579000E+00	  0.080721445	1.344690E+02	  0.080721445	2.078600E+01	  0.080721445	1.782700E+01
305	  0.080921844	-6.598000E+00	  0.080921844	1.336860E+02	  0.080921844	2.094100E+01	  0.080921844	1.813700E+01
306	  0.081122249	-6.618000E+00	  0.081122249	1.328430E+02	  0.081122249	2.110900E+01	  0.081122249	1.847200E+01
307	  0.081322648	-6.641000E+00	  0.081322648	1.320300E+02	  0.081322648	2.128600E+01	  0.081322648	1.879100E+01
308	  0.081523046	-6.658000E+00	  0.081523046	1.311870E+02	  0.081523046	2.145000E+01	  0.081523046	1.912900E+01
309	  0.081723452	-6.677000E+00	  0.081723452	1.303780E+02	  0.081723452	2.162100E+01	  0.081723452	1.945000E+01
310	  0.081923850	-6.694000E+00	  0.081923850	1.295600E+02	  0.081923850	2.178900E+01	  0.081923850	1.977900E+01
311	  0.082124248	-6.716000E+00	  0.082124248	1.287730E+02	  0.082124248	2.197000E+01	  0.082124248	2.008900E+01
312	  0.082324654	-6.733000E+00	  0.082324654	1.279800E+02	  0.082324654	2.214100E+01	  0.082324654	2.040700E+01
313	  0.082525052	-6.757000E+00	  0.082525052	1.272190E+02	  0.082525052	2.233200E+01	  0.082525052	2.070400E+01
314	  0.082725458	-6.777000E+00	  0.082725458	1.263940E+02	  0.082725458	2.252000E+01	  0.082725458	2.103300E+01
315	  0.082925856	-6.800000E+00	  0.082925856	1.256480E+02	  0.082925856	2.271000E+01	  0.082925856	2.132500E+01
316	  0.083126254	-6.824000E+00	  0.083126254	1.248360E+02	  0.083126254	2.291700E+01	  0.083126254	2.164300E+01
317	  0.083326660	-6.844000E+00	  0.083326660	1.240530E+02	  0.083326660	2.310900E+01	  0.083326660	2.195500E+01
318	  0.083527058	-6.868000E+00	  0.083527058	1.232850E+02	  0.083527058	2.331600E+01	  0.083527058	2.225400E+01
319	  0.083727457	-6.891000E+00	  0.083727457	1.224910E+02	  0.083727457	2.352700E+01	  0.083727457	2.256600E+01
320	  0.083927862	-6.918000E+00	  0.083927862	1.217190E+02	  0.083927862	2.374700E+01	  0.083927862	2.286500E+01
321	  0.084128261	-6.937000E+00	  0.084128261	1.209820E+02	  0.084128261	2.394100E+01	  0.084128261	2.315700E+01
322	  0.084328659	-6.965000E+00	  0.084328659	1.202020E+02	  0.084328659	2.417400E+01	  0.084328659	2.345600E+01
323	  0.084529065	-6.988000E+00	  0.084529065	1.194350E+02	  0.084529065	2.439200E+01	  0.084529065	2.375700E+01
324	  0.084729463	-7.011000E+00	  0.084729463	1.186480E+02	  0.084729463	2.462000E+01	  0.084729463	2.406500E+01
325	  0.084929854	-7.038000E+00	  0.084929854	1.179040E+02	  0.084929854	2.485300E+01	  0.084929854	2.434900E+01
326	  0.085130259	-7.058000E+00	  0.085130259	1.171210E+02	  0.085130259	2.507600E+01	  0.085130259	2.465900E+01
327	  0.085330658	-7.083000E+00	  0.085330658	1.164030E+02	  0.085330658	2.530300E+01	  0.085330658	2.493500E+01
328	  0.085531056	-7.108000E+00	  0.085531056	1.156130E+02	  0.085531056	2.555300E+01	  0.085531056	2.523900E+01
329	  0.085731462	-7.135000E+00	  0.085731462	1.148700E+02	  0.085731462	2.579600E+01	  0.085731462	2.552200E+01
330	  0.085931860	-7.156000E+00	  0.085931860	1.141440E+02	  0.085931860	2.602700E+01	  0.085931860	2.580400E+01
331	  0.086132258	-7.181000E+00	  0.086132258	1.133970E+02	  0.086132258	2.627500E+01	  0.086132258	2.609000E+01
332	  0.086332664	-7.209000E+00	  0.086332664	1.126610E+02	  0.086332664	2.653300E+01	  0.086332664	2.636500E+01
333	  0.086533062	-7.236000E+00	  0.086533062	1.119260E+02	  0.086533062	2.679200E+01	  0.086533062	2.664000E+01
334	  0.086733460	-7.258000E+00	  0.086733460	1.112010E+02	  0.086733460	2.703800E+01	  0.086733460	2.691900E+01
335	  0.086933866	-7.285000E+00	  0.086933866	1.104530E+02	  0.086933866	2.730800E+01	  0.086933866	2.719900E+01
336	  0.087134264	-7.314000E+00	  0.087134264	1.097480E+02	  0.087134264	2.757400E+01	  0.087134264	2.745700E+01
337	  0.087334670	-7.338000E+00	  0.087334670	1.089940E+02	  0.087334670	2.784600E+01	  0.087334670	2.774200E+01
338	  0.087535068	-7.365000E+00	  0.087535068	1.083090E+02	  0.087535068	2.810900E+01	  0.087535068	2.799200E+01
339	  0.087735467	-7.400000E+00	  0.087735467	1.076230E+02	  0.087735467	2.840000E+01	  0.087735467	2.822600E+01
340	  0.087935872	-7.430000E+00	  0.087935872	1.069250E+02	  0.087935872	2.868200E+01	  0.087935872	2.847400E+01
341	  0.088136271	-7.456000E+00	  0.088136271	1.062170E+02	  0.088136271	2.896100E+01	  0.088136271	2.873200E+01
342	  0.088336669	-7.485000E+00	  0.088336669	1.055120E+02	  0.088336669	2.925100E+01	  0.088336669	2.898100E+01
343	  0.088537075	-7.511000E+00	  0.088537075	1.048420E+02	  0.088537075	2.952500E+01	  0.088537075	2.922100E+01
344	  0.088737473	-7.548000E+00	  0.088737473	1.041940E+02	  0.088737473	2.982700E+01	  0.088737473	2.942700E+01
345	  0.088937871	-7.572000E+00	  0.088937871	1.035340E+02	  0.088937871	3.009900E+01	  0.088937871	2.966400E+01
346	  0.089138277	-7.603000E+00	  0.089138277	1.028920E+02	  0.089138277	3.038900E+01	  0.089138277	2.987600E+01
347	  0.089338675	-7.636000E+00	  0.089338675	1.022830E+02	  0.089338675	3.067800E+01	  0.089338675	3.006900E+01
348	  0.089539073	-7.670000E+00	  0.089539073	1.016530E+02	  0.089539073	3.098000E+01	  0.089539073	3.026500E+01
349	  0.089739479	-7.700000E+00	  0.089739479	1.010440E+02	  0.089739479	3.126400E+01	  0.089739479	3.046200E+01
350	  0.089939877	-7.728000E+00	  0.089939877	1.004570E+02	  0.089939877	3.153900E+01	  0.089939877	3.065100E+01
351	  0.090140276	-7.756000E+00	  0.090140276	9.986100E+01	  0.090140276	3.182100E+01	  0.090140276	3.084100E+01
352	  0.090340681	-7.792000E+00	  0.090340681	9.925900E+01	  0.090340681	3.212900E+01	  0.090340681	3.101600E+01
353	  0.090541080	-7.816000E+00	  0.090541080	9.867800E+01	  0.090541080	3.240100E+01	  0.090541080	3.120500E+01
354	  0.090741485	-7.850000E+00	  0.090741485	9.810800E+01	  0.090741485	3.269700E+01	  0.090741485	3.136800E+01
355	  0.090941884	-7.874000E+00	  0.090941884	9.752200E+01	  0.090941884	3.297500E+01	  0.090941884	3.155800E+01
356	  0.091142282	-7.907000E+00	  0.091142282	9.698300E+01	  0.091142282	3.326400E+01	  0.091142282	3.170300E+01
357	  0.091342688	-7.937000E+00	  0.091342688	9.643100E+01	  0.091342688	3.355200E+01	  0.091342688	3.186000E+01
358	  0.091543086	-7.961000E+00	  0.091543086	9.584200E+01	  0.091543086	3.383800E+01	  0.091543086	3.204700E+01
359	  0.091743484	-7.990000E+00	  0.091743484	9.527000E+01	  0.091743484	3.413600E+01	  0.091743484	3.221000E+01
360	  0.091943890	-8.011000E+00	  0.091943890	9.469900E+01	  0.091943890	3.441400E+01	  0.091943890	3.239200E+01
361	  0.092144288	-8.038000E+00	  0.092144288	9.412900E+01	  0.092144288	3.471200E+01	  0.092144288	3.255700E+01
362	  0.092344686	-8.058000E+00	  0.092344686	9.355500E+01	  0.092344686	3.499400E+01	  0.092344686	3.274000E+01
363	  0.092545092	-8.091000E+00	  0.092545092	9.302100E+01	  0.092545092	3.529800E+01	  0.092545092	3.287100E+01
364	  0.092745490	-8.112000E+00	  0.092745490	9.241400E+01	  0.092745490	3.560000E+01	  0.092745490	3.306300E+01
365	  0.092945889	-8.137000E+00	  0.092945889	9.187800E+01	  0.092945889	3.589000E+01	  0.092945889	3.321000E+01
366	  0.093146294	-8.157000E+00	  0.093146294	9.132000E+01	  0.093146294	3.617700E+01	  0.093146294	3.338000E+01
367	  0.093346693	-8.185000E+00	  0.093346693	9.073800E+01	  0.093346693	3.649600E+01	  0.093346693	3.353600E+01
368	  0.093547091	-8.204000E+00	  0.093547091	9.016900E+01	  0.093547091	3.679100E+01	  0.093547091	3.371000E+01
369	  0.093747497	-8.230000E+00	  0.093747497	8.959200E+01	  0.093747497	3.711300E+01	  0.093747497	3.386300E+01
370	  0.093947895	-8.247000E+00	  0.093947895	8.900500E+01	  0.093947895	3.741600E+01	  0.093947895	3.404600E+01
371	  0.094148301	-8.275000E+00	  0.094148301	8.846500E+01	  0.094148301	3.772900E+01	  0.094148301	3.417600E+01
372	  0.094348699	-8.298000E+00	  0.094348699	8.791300E+01	  0.094348699	3.803800E+01	  0.094348699	3.432400E+01
373	  0.094549097	-8.323000E+00	  0.094549097	8.734000E+01	  0.094549097	3.836600E+01	  0.094549097	3.446900E+01
374	  0.094749503	-8.349000E+00	  0.094749503	8.678600E+01	  0.094749503	3.868700E+01	  0.094749503	3.460500E+01
375	  0.094949901	-8.366000E+00	  0.094949901	8.625500E+01	  0.094949901	3.898200E+01	  0.094949901	3.475300E+01
376	  0.095150299	-8.396000E+00	  0.095150299	8.573300E+01	  0.095150299	3.930500E+01	  0.095150299	3.485800E+01
377	  0.095350705	-8.420000E+00	  0.095350705	8.518300E+01	  0.095350705	3.962800E+01	  0.095350705	3.499100E+01
378	  0.095551103	-8.444000E+00	  0.095551103	8.464300E+01	  0.095551103	3.995000E+01	  0.095551103	3.511600E+01
379	  0.095751502	-8.466000E+00	  0.095751502	8.411400E+01	  0.095751502	4.026500E+01	  0.095751502	3.524200E+01
380	  0.095951907	-8.494000E+00	  0.095951907	8.360800E+01	  0.095951907	4.058700E+01	  0.095951907	3.533300E+01
381	  0.096152306	-8.518000E+00	  0.096152306	8.312700E+01	  0.096152306	4.088500E+01	  0.096152306	3.543200E+01
382	  0.096352704	-8.541000E+00	  0.096352704	8.263300E+01	  0.096352704	4.119200E+01	  0.096352704	3.553200E+01
383	  0.096553110	-8.570000E+00	  0.096553110	8.214700E+01	  0.096553110	4.150900E+01	  0.096553110	3.561000E+01
384	  0.096753508	-8.586000E+00	  0.096753508	8.165800E+01	  0.096753508	4.180100E+01	  0.096753508	3.572800E+01
385	  0.096953906	-8.615000E+00	  0.096953906	8.121100E+01	  0.096953906	4.210100E+01	  0.096953906	3.578600E+01
386	  0.097154312	-8.638000E+00	  0.097154312	8.076600E+01	  0.097154312	4.239100E+01	  0.097154312	3.586000E+01
387	  0.097354710	-8.662000E+00	  0.097354710	8.028400E+01	  0.097354710	4.270200E+01	  0.097354710	3.594300E+01
388	  0.097555116	-8.685000E+00	  0.097555116	7.986600E+01	  0.097555116	4.298000E+01	  0.097555116	3.600200E+01
389	  0.097755514	-8.708000E+00	  0.097755514	7.942400E+01	  0.097755514	4.327000E+01	  0.097755514	3.607100E+01
390	  0.097955912	-8.732000E+00	  0.097955912	7.898900E+01	  0.097955912	4.356200E+01	  0.097955912	3.612900E+01
391	  0.098156318	-8.753000E+00	  0.098156318	7.854700E+01	  0.098156318	4.385200E+01	  0.098156318	3.619800E+01
392	  0.098356716	-8.774000E+00	  0.098356716	7.813500E+01	  0.098356716	4.412600E+01	  0.098356716	3.625700E+01
393	  0.098557115	-8.795000E+00	  0.098557115	7.772900E+01	  0.098557115	4.439900E+01	  0.098557115	3.631000E+01
394	  0.098757520	-8.817000E+00	  0.098757520	7.729300E+01	  0.098757520	4.469200E+01	  0.098757520	3.636700E+01
395	  0.098957919	-8.834000E+00	  0.098957919	7.687300E+01	  0.098957919	4.496600E+01	  0.098957919	3.643800E+01
396	  0.099158317	-8.853000E+00	  0.099158317	7.644700E+01	  0.099158317	4.525000E+01	  0.099158317	3.649800E+01
397	  0.099358723	-8.868000E+00	  0.099358723	7.606900E+01	  0.099358723	4.549800E+01	  0.099358723	3.656100E+01
398	  0.099559121	-8.883000E+00	  0.099559121	7.564300E+01	  0.099559121	4.577800E+01	  0.099559121	3.663300E+01
399	  0.099759519	-8.897000E+00	  0.099759519	7.526100E+01	  0.099759519	4.602900E+01	  0.099759519	3.669500E+01
400	  0.099959925	-8.903000E+00	  0.099959925	7.484200E+01	  0.099959925	4.629000E+01	  0.099959925	3.679700E+01
401	  0.100160323	-8.922000E+00	  0.100160323	7.442300E+01	  0.100160323	4.657800E+01	  0.100160323	3.684400E+01
402	  0.100360721	-8.933000E+00	  0.100360721	7.401600E+01	  0.100360721	4.684400E+01	  0.100360721	3.692000E+01
403	  0.100561127	-8.946000E+00	  0.100561127	7.362900E+01	  0.100561127	4.710200E+01	  0.100561127	3.698300E+01
404	  0.100761525	-8.948000E+00	  0.100761525	7.324800E+01	  0.100761525	4.734000E+01	  0.100761525	3.708100E+01
405	  0.100961931	-8.954000E+00	  0.100961931	7.288500E+01	  0.100961931	4.757300E+01	  0.100961931	3.716200E+01
406	  0.101162329	-8.959000E+00	  0.101162329	7.244300E+01	  0.101162329	4.785600E+01	  0.101162329	3.726600E+01
407	  0.101362728	-8.958000E+00	  0.101362728	7.202900E+01	  0.101362728	4.811400E+01	  0.101362728	3.738300E+01
408	  0.101563133	-8.967000E+00	  0.101563133	7.169900E+01	  0.101563133	4.833700E+01	  0.101563133	3.743900E+01
409	  0.101763532	-8.961000E+00	  0.101763532	7.128400E+01	  0.101763532	4.859000E+01	  0.101763532	3.757500E+01
410	  0.101963930	-8.965000E+00	  0.101963930	7.087200E+01	  0.101963930	4.886200E+01	  0.101963930	3.766800E+01
411	  0.102164328	-8.957000E+00	  0.102164328	7.047800E+01	  0.102164328	4.910200E+01	  0.102164328	3.780600E+01
412	  0.102364726	-8.957000E+00	  0.102364726	7.008800E+01	  0.102364726	4.935500E+01	  0.102364726	3.791100E+01
413	  0.102565125	-8.950000E+00	  0.102565125	6.967400E+01	  0.102565125	4.961400E+01	  0.102565125	3.805100E+01
414	  0.102765530	-8.943000E+00	  0.102765530	6.924800E+01	  0.102765530	4.988400E+01	  0.102765530	3.819000E+01
415	  0.102965929	-8.942000E+00	  0.102965929	6.886400E+01	  0.102965929	5.014000E+01	  0.102965929	3.829000E+01
416	  0.103166327	-8.930000E+00	  0.103166327	6.847000E+01	  0.103166327	5.038500E+01	  0.103166327	3.844300E+01
417	  0.103366733	-8.919000E+00	  0.103366733	6.807900E+01	  0.103366733	5.063200E+01	  0.103366733	3.859100E+01
418	  0.103567131	-8.911000E+00	  0.103567131	6.767800E+01	  0.103567131	5.089400E+01	  0.103567131	3.872600E+01
419	  0.103767529	-8.898000E+00	  0.103767529	6.720600E+01	  0.103767529	5.120000E+01	  0.103767529	3.890000E+01
420	  0.103967935	-8.884000E+00	  0.103967935	6.678500E+01	  0.103967935	5.147000E+01	  0.103967935	3.906900E+01
421	  0.104168333	-8.870000E+00	  0.104168333	6.638000E+01	  0.104168333	5.173500E+01	  0.104168333	3.922800E+01
422	  0.104368731	-8.851000E+00	  0.104368731	6.592200E+01	  0.104368731	5.203100E+01	  0.104368731	3.942800E+01
423	  0.104569137	-8.841000E+00	  0.104569137	6.548700E+01	  0.104569137	5.232900E+01	  0.104569137	3.957500E+01
424	  0.104769535	-8.818000E+00	  0.104769535	6.498900E+01	  0.104769535	5.265500E+01	  0.104769535	3.980400E+01
425	  0.104969934	-8.810000E+00	  0.104969934	6.451000E+01	  0.104969934	5.299600E+01	  0.104969934	3.995000E+01
426	  0.105170339	-8.790000E+00	  0.105170339	6.405700E+01	  0.105170339	5.330200E+01	  0.105170339	4.015000E+01
427	  0.105370738	-8.764000E+00	  0.105370738	6.355000E+01	  0.105370738	5.364700E+01	  0.105370738	4.038800E+01
428	  0.105571143	-8.747000E+00	  0.105571143	6.309500E+01	  0.105571143	5.396800E+01	  0.105571143	4.057300E+01
429	  0.105771542	-8.730000E+00	  0.105771542	6.252800E+01	  0.105771542	5.438000E+01	  0.105771542	4.078100E+01
430	  0.105971940	-8.703000E+00	  0.105971940	6.198100E+01	  0.105971940	5.477000E+01	  0.105971940	4.103100E+01
431	  0.106172346	-8.684000E+00	  0.106172346	6.149700E+01	  0.106172346	5.512600E+01	  0.106172346	4.123000E+01
432	  0.106372744	-8.668000E+00	  0.106372744	6.092900E+01	  0.106372744	5.555700E+01	  0.106372744	4.143100E+01
433	  0.106573142	-8.639000E+00	  0.106573142	6.037100E+01	  0.106573142	5.597300E+01	  0.106573142	4.168900E+01
434	  0.106773548	-8.617000E+00	  0.106773548	5.972700E+01	  0.106773548	5.647300E+01	  0.106773548	4.193300E+01
435	  0.106973946	-8.595000E+00	  0.106973946	5.915800E+01	  0.106973946	5.692000E+01	  0.106973946	4.216100E+01
436	  0.107174344	-8.573000E+00	  0.107174344	5.854300E+01	  0.107174344	5.741200E+01	  0.107174344	4.239300E+01
437	  0.107374750	-8.551000E+00	  0.107374750	5.794600E+01	  0.107374750	5.789900E+01	  0.107374750	4.261700E+01
438	  0.107575148	-8.529000E+00	  0.107575148	5.726400E+01	  0.107575148	5.846700E+01	  0.107575148	4.285600E+01
439	  0.107775547	-8.506000E+00	  0.107775547	5.659000E+01	  0.107775547	5.903700E+01	  0.107775547	4.309600E+01
440	  0.107975952	-8.478000E+00	  0.107975952	5.596300E+01	  0.107975952	5.957100E+01	  0.107975952	4.335400E+01
441	  0.108176351	-8.465000E+00	  0.108176351	5.531200E+01	  0.108176351	6.015000E+01	  0.108176351	4.352300E+01
442	  0.108376749	-8.446000E+00	  0.108376749	5.465000E+01	  0.108376749	6.074300E+01	  0.108376749	4.372100E+01
443	  0.108577155	-8.420000E+00	  0.108577155	5.397500E+01	  0.108577155	6.135200E+01	  0.108577155	4.396800E+01
444	  0.108777553	-8.415000E+00	  0.108777553	5.324200E+01	  0.108777553	6.204400E+01	  0.108777553	4.407800E+01
445	  0.108977959	-8.397000E+00	  0.108977959	5.249700E+01	  0.108977959	6.274900E+01	  0.108977959	4.426500E+01
446	  0.109178357	-8.390000E+00	  0.109178357	5.179500E+01	  0.109178357	6.343000E+01	  0.109178357	4.436800E+01
447	  0.109378755	-8.370000E+00	  0.109378755	5.109800E+01	  0.109378755	6.411100E+01	  0.109378755	4.455300E+01
448	  0.109579161	-8.357000E+00	  0.109579161	5.036700E+01	  0.109579161	6.484000E+01	  0.109579161	4.467600E+01
449	  0.109779559	-8.357000E+00	  0.109779559	4.963300E+01	  0.109779559	6.558700E+01	  0.109779559	4.471200E+01
450	  0.109979957	-8.348000E+00	  0.109979957	4.892000E+01	  0.109979957	6.632000E+01	  0.109979957	4.478900E+01
451	  0.110180363	-8.340000E+00	  0.110180363	4.815300E+01	  0.110180363	6.711900E+01	  0.110180363	4.485000E+01
452	  0.110380761	-8.332000E+00	  0.110380761	4.748400E+01	  0.110380761	6.782700E+01	  0.110380761	4.490300E+01
453	  0.110581160	-8.337000E+00	  0.110581160	4.673900E+01	  0.110581160	6.862300E+01	  0.110581160	4.485200E+01
454	  0.110781565	-8.332000E+00	  0.110781565	4.604500E+01	  0.110781565	6.937400E+01	  0.110781565	4.485600E+01
455	  0.110981964	-8.335000E+00	  0.110981964	4.531600E+01	  0.110981964	7.016900E+01	  0.110981964	4.478900E+01
456	  0.111182362	-8.330000E+00	  0.111182362	4.459100E+01	  0.111182362	7.097000E+01	  0.111182362	4.476800E+01
457	  0.111382768	-8.326000E+00	  0.111382768	4.383000E+01	  0.111382768	7.182200E+01	  0.111382768	4.471800E+01
458	  0.111583166	-8.322000E+00	  0.111583166	4.317100E+01	  0.111583166	7.256700E+01	  0.111583166	4.466100E+01
459	  0.111783572	-8.320000E+00	  0.111783572	4.236200E+01	  0.111783572	7.348900E+01	  0.111783572	4.455600E+01
460	  0.111983970	-8.324000E+00	  0.111983970	4.157200E+01	  0.111983970	7.439100E+01	  0.111983970	4.439000E+01
461	  0.112184368	-8.321000E+00	  0.112184368	4.079300E+01	  0.112184368	7.529600E+01	  0.112184368	4.425600E+01
462	  0.112384774	-8.319000E+00	  0.112384774	4.005600E+01	  0.112384774	7.616200E+01	  0.112384774	4.411000E+01
463	  0.112585172	-8.318000E+00	  0.112585172	3.922700E+01	  0.112585172	7.714000E+01	  0.112585172	4.391200E+01
464	  0.112785570	-8.319000E+00	  0.112785570	3.843700E+01	  0.112785570	7.807500E+01	  0.112785570	4.368300E+01
465	  0.112985976	-8.318000E+00	  0.112985976	3.761400E+01	  0.112985976	7.905900E+01	  0.112985976	4.343000E+01
466	  0.113186374	-8.313000E+00	  0.113186374	3.675900E+01	  0.113186374	8.010000E+01	  0.113186374	4.318200E+01
467	  0.113386773	-8.312000E+00	  0.113386773	3.590200E+01	  0.113386773	8.114000E+01	  0.113386773	4.286900E+01
468	  0.113587178	-8.321000E+00	  0.113587178	3.498500E+01	  0.113587178	8.222900E+01	  0.113587178	4.241600E+01
469	  0.113787577	-8.326000E+00	  0.113787577	3.413900E+01	  0.113787577	8.324900E+01	  0.113787577	4.200300E+01
470	  0.113987975	-8.332000E+00	  0.113987975	3.322800E+01	  0.113987975	8.434200E+01	  0.113987975	4.151200E+01
471	  0.114188381	-8.329000E+00	  0.114188381	3.234300E+01	  0.114188381	8.543600E+01	  0.114188381	4.107400E+01
472	  0.114388779	-8.337000E+00	  0.114388779	3.144100E+01	  0.114388779	8.650700E+01	  0.114388779	4.049500E+01
473	  0.114589177	-8.346000E+00	  0.114589177	3.049500E+01	  0.114589177	8.762900E+01	  0.114589177	3.985600E+01
474	  0.114789583	-8.353000E+00	  0.114789583	2.956300E+01	  0.114789583	8.873100E+01	  0.114789583	3.919100E+01
475	  0.114989981	-8.364000E+00	  0.114989981	2.861100E+01	  0.114989981	8.983200E+01	  0.114989981	3.844500E+01
476	  0.115190387	-8.379000E+00	  0.115190387	2.759700E+01	  0.115190387	9.097900E+01	  0.115190387	3.758400E+01
477	  0.115390785	-8.391000E+00	  0.115390785	2.663200E+01	  0.115390785	9.206000E+01	  0.115390785	3.672600E+01
478	  0.115591183	-8.407000E+00	  0.115591183	2.563400E+01	  0.115591183	9.314300E+01	  0.115591183	3.577600E+01
479	  0.115791589	-8.424000E+00	  0.115791589	2.465500E+01	  0.115791589	9.417100E+01	  0.115791589	3.478600E+01
480	  0.115991987	-8.446000E+00	  0.115991987	2.366900E+01	  0.115991987	9.515600E+01	  0.115991987	3.371300E+01
481	  0.116192386	-8.471000E+00	  0.116192386	2.265700E+01	  0.116192386	9.611700E+01	  0.116192386	3.255400E+01
482	  0.116392791	-8.496000E+00	  0.116392791	2.162100E+01	  0.116392791	9.706600E+01	  0.116392791	3.132400E+01
483	  0.116593190	-8.522000E+00	  0.116593190	2.059700E+01	  0.116593190	9.795600E+01	  0.116593190	3.006200E+01
484	  0.116793588	-8.556000E+00	  0.116793588	1.954700E+01	  0.116793588	9.876400E+01	  0.116793588	2.867600E+01
485	  0.116993994	-8.586000E+00	  0.116993994	1.849000E+01	  0.116993994	9.955800E+01	  0.116993994	2.727300E+01
486	  0.117194392	-8.625000E+00	  0.117194392	1.743000E+01	  0.117194392	1.002390E+02	  0.117194392	2.578500E+01
487	  0.117394790	-8.667000E+00	  0.117394790	1.632600E+01	  0.117394790	1.008670E+02	  0.117394790	2.419300E+01
488	  0.117595196	-8.702000E+00	  0.117595196	1.527800E+01	  0.117595196	1.014430E+02	  0.117595196	2.268700E+01
489	  0.117795594	-8.744000E+00	  0.117795594	1.416000E+01	  0.117795594	1.019620E+02	  0.117795594	2.103900E+01
490	  0.117995992	-8.786000E+00	  0.117995992	1.302700E+01	  0.117995992	1.024080E+02	  0.117995992	1.934600E+01
491	  0.118196398	-8.840000E+00	  0.118196398	1.190000E+01	  0.118196398	1.026750E+02	  0.118196398	1.760000E+01
492	  0.118396796	-8.888000E+00	  0.118396796	1.070700E+01	  0.118396796	1.029640E+02	  0.118396796	1.579000E+01
493	  0.118597202	-8.948000E+00	  0.118597202	9.502000E+00	  0.118597202	1.030620E+02	  0.118597202	1.391900E+01
494	  0.118797600	-9.006000E+00	  0.118797600	8.343000E+00	  0.118797600	1.030770E+02	  0.118797600	1.213100E+01
