! Anritsu VNA Master:             	Model: MS2036C/10/77
! SN:             	1601066
! /bd0/18may10/256.ns.m4.txt
! Existing Calibration Information:
! TYPE:             	Current Settings	Active Cal Settings
! TIME:             	05/10/2018 11:01:36 AM	05/10/2018 10:50:07 AM
! INTERNAL TEMP:    	50.5 C	49.0 C
! # POINTS:         	494	494
! START FREQ:       	20.000 MHz	20.000 MHz
! STOP FREQ:        	118.797 594 MHz	118.797 594 MHz
! SOURCE POWER:     	High	High
! IFBW:             	50 Hz	50 Hz
! AVG FACTOR:       	  1 	  1 
! REF PLANE 1:      	0 mm	0 mm
! REF PLANE 2:      	0 mm	0 mm
! CAL TYPE:         	Full S22	Full S22
! CAL METHOD:       	SOLT	SOLT
! CAL LINE TYPE:    	Coax	Coax
! DUT PORT 1:       	K-Conn(M)	K-Conn(M)
! DUT PORT 2:       	K-Conn(M)	K-Conn(M)
! CAL STATUS:       	OK: Accuracy High	--
! PROP-V:       	0.700
! CABLE LOSS:       	0.000 dB/m
! REF IMPEDANCE:       	50.0
! Trace Specific Parameters:	TR1	TR2	TR3	TR4
! TRACE.#.Y (GRAPH TYPE)	LOG MAG	PHASE	REAL IMPEDANCE	IMAGINARY IMPEDANCE
! TRACE.#.X 	FREQ.GHZ	FREQ.GHZ	FREQ.GHZ	FREQ.GHZ
! S-PARAMETER	S22	S22	S22	S22
! SMOOTH/APERTURE %	0	0	0	0
! WINDOW	NSL	NSL	NSL	NSL
! GATING	OFF	OFF	OFF	OFF
! FGTD	OFF	OFF	OFF	OFF
Marker Information per Trace:	TR1	TR2	TR3	TR4
!MK1	--	"MK1 TR2:  20.000 MHz,PH:-126.64°"	--	--
!MK2	--	--	"MK2 TR3:  70.100 200 MHz,Z:(16.772 ohm, -1.558 ohm)"	--
!MK3	--	--	--	--
!MK4	--	--	--	--
!MK5	--	--	--	--
!MK6	--	--	--	--
!MK7	--	--	--	--
!MK8	--	--	--	--
PNT	TR1.FREQ.GHZ	TR1.LOG MAG.dB	TR2.FREQ.GHZ	TR2.PHASE.deg	TR3.FREQ.GHZ	TR3.REAL IMPEDANCE.ohm	TR4.FREQ.GHZ	TR4.IMAGINARY IMPEDANCE.ohm
1	  0.020000000	-6.050000E-01	  0.020000000	-1.266400E+02	  0.020000000	2.179000E+00	  0.020000000	-2.508700E+01
2	  0.020200402	-6.100000E-01	  0.020200402	-1.280830E+02	  0.020200402	2.170000E+00	  0.020200402	-2.430400E+01
3	  0.020400802	-6.140000E-01	  0.020400802	-1.295480E+02	  0.020400802	2.159000E+00	  0.020400802	-2.351900E+01
4	  0.020601204	-6.210000E-01	  0.020601204	-1.310500E+02	  0.020601204	2.156000E+00	  0.020601204	-2.272400E+01
5	  0.020801604	-6.220000E-01	  0.020801604	-1.325870E+02	  0.020801604	2.136000E+00	  0.020801604	-2.192100E+01
6	  0.021002004	-6.280000E-01	  0.021002004	-1.341270E+02	  0.021002004	2.132000E+00	  0.021002004	-2.112500E+01
7	  0.021202406	-6.330000E-01	  0.021202406	-1.356760E+02	  0.021202406	2.124000E+00	  0.021202406	-2.033400E+01
8	  0.021402806	-6.360000E-01	  0.021402806	-1.372240E+02	  0.021402806	2.112000E+00	  0.021402806	-1.955100E+01
9	  0.021603208	-6.410000E-01	  0.021603208	-1.387810E+02	  0.021603208	2.107000E+00	  0.021603208	-1.877300E+01
10	  0.021803608	-6.470000E-01	  0.021803608	-1.403380E+02	  0.021803608	2.104000E+00	  0.021803608	-1.800300E+01
11	  0.022004008	-6.540000E-01	  0.022004008	-1.419280E+02	  0.022004008	2.105000E+00	  0.022004008	-1.722300E+01
12	  0.022204408	-6.610000E-01	  0.022204408	-1.435280E+02	  0.022204408	2.110000E+00	  0.022204408	-1.644700E+01
13	  0.022404809	-6.660000E-01	  0.022404809	-1.451620E+02	  0.022404809	2.105000E+00	  0.022404809	-1.566100E+01
14	  0.022605211	-6.760000E-01	  0.022605211	-1.467770E+02	  0.022605211	2.119000E+00	  0.022605211	-1.489100E+01
15	  0.022805611	-6.830000E-01	  0.022805611	-1.484210E+02	  0.022805611	2.124000E+00	  0.022805611	-1.411400E+01
16	  0.023006011	-6.890000E-01	  0.023006011	-1.500490E+02	  0.023006011	2.123000E+00	  0.023006011	-1.335100E+01
17	  0.023206413	-6.920000E-01	  0.023206413	-1.516850E+02	  0.023206413	2.117000E+00	  0.023206413	-1.259000E+01
18	  0.023406813	-6.980000E-01	  0.023406813	-1.533200E+02	  0.023406813	2.121000E+00	  0.023406813	-1.183500E+01
19	  0.023607215	-7.080000E-01	  0.023607215	-1.549590E+02	  0.023607215	2.137000E+00	  0.023607215	-1.108300E+01
20	  0.023807615	-7.200000E-01	  0.023807615	-1.565870E+02	  0.023807615	2.160000E+00	  0.023807615	-1.034100E+01
21	  0.024008015	-7.290000E-01	  0.024008015	-1.582560E+02	  0.024008015	2.174000E+00	  0.024008015	-9.585000E+00
22	  0.024208417	-7.350000E-01	  0.024208417	-1.599290E+02	  0.024208417	2.182000E+00	  0.024208417	-8.831000E+00
23	  0.024408817	-7.420000E-01	  0.024408817	-1.616020E+02	  0.024408817	2.191000E+00	  0.024408817	-8.082000E+00
24	  0.024609219	-7.520000E-01	  0.024609219	-1.632720E+02	  0.024609219	2.210000E+00	  0.024609219	-7.337000E+00
25	  0.024809619	-7.600000E-01	  0.024809619	-1.649240E+02	  0.024809619	2.227000E+00	  0.024809619	-6.603000E+00
26	  0.025010020	-7.720000E-01	  0.025010020	-1.665840E+02	  0.025010020	2.253000E+00	  0.025010020	-5.868000E+00
27	  0.025210422	-7.840000E-01	  0.025210422	-1.682400E+02	  0.025210422	2.280000E+00	  0.025210422	-5.138000E+00
28	  0.025410822	-7.970000E-01	  0.025410822	-1.699090E+02	  0.025410822	2.312000E+00	  0.025410822	-4.404000E+00
29	  0.025611224	-8.090000E-01	  0.025611224	-1.715870E+02	  0.025611224	2.341000E+00	  0.025611224	-3.669000E+00
30	  0.025811624	-8.230000E-01	  0.025811624	-1.732830E+02	  0.025811624	2.376000E+00	  0.025811624	-2.927000E+00
31	  0.026012026	-8.360000E-01	  0.026012026	-1.749870E+02	  0.026012026	2.409000E+00	  0.026012026	-2.183000E+00
32	  0.026212426	-8.510000E-01	  0.026212426	-1.766940E+02	  0.026212426	2.449000E+00	  0.026212426	-1.439000E+00
33	  0.026412826	-8.670000E-01	  0.026412826	-1.784170E+02	  0.026412826	2.496000E+00	  0.026412826	-6.880000E-01
34	  0.026613226	-8.840000E-01	  0.026613226	1.798540E+02	  0.026613226	2.542000E+00	  0.026613226	6.300000E-02
35	  0.026813626	-9.010000E-01	  0.026813626	1.781060E+02	  0.026813626	2.594000E+00	  0.026813626	8.230000E-01
36	  0.027014028	-9.220000E-01	  0.027014028	1.763560E+02	  0.027014028	2.654000E+00	  0.027014028	1.585000E+00
37	  0.027214428	-9.400000E-01	  0.027214428	1.745800E+02	  0.027214428	2.711000E+00	  0.027214428	2.359000E+00
38	  0.027414829	-9.620000E-01	  0.027414829	1.728020E+02	  0.027414829	2.777000E+00	  0.027414829	3.134000E+00
39	  0.027615231	-9.830000E-01	  0.027615231	1.709880E+02	  0.027615231	2.844000E+00	  0.027615231	3.927000E+00
40	  0.027815631	-1.005000E+00	  0.027815631	1.691730E+02	  0.027815631	2.917000E+00	  0.027815631	4.722000E+00
41	  0.028016033	-1.028000E+00	  0.028016033	1.673220E+02	  0.028016033	2.994000E+00	  0.028016033	5.534000E+00
42	  0.028216433	-1.053000E+00	  0.028216433	1.654500E+02	  0.028216433	3.077000E+00	  0.028216433	6.358000E+00
43	  0.028416833	-1.078000E+00	  0.028416833	1.635830E+02	  0.028416833	3.163000E+00	  0.028416833	7.183000E+00
44	  0.028617235	-1.103000E+00	  0.028617235	1.617030E+02	  0.028617235	3.252000E+00	  0.028617235	8.018000E+00
45	  0.028817635	-1.128000E+00	  0.028817635	1.598080E+02	  0.028817635	3.346000E+00	  0.028817635	8.864000E+00
46	  0.029018037	-1.156000E+00	  0.029018037	1.579140E+02	  0.029018037	3.448000E+00	  0.029018037	9.712000E+00
47	  0.029218437	-1.183000E+00	  0.029218437	1.560120E+02	  0.029218437	3.554000E+00	  0.029218437	1.057000E+01
48	  0.029418837	-1.211000E+00	  0.029418837	1.540730E+02	  0.029418837	3.665000E+00	  0.029418837	1.145000E+01
49	  0.029619239	-1.242000E+00	  0.029619239	1.521410E+02	  0.029619239	3.787000E+00	  0.029619239	1.233300E+01
50	  0.029819639	-1.271000E+00	  0.029819639	1.501940E+02	  0.029819639	3.908000E+00	  0.029819639	1.323000E+01
51	  0.030020041	-1.300000E+00	  0.030020041	1.482430E+02	  0.030020041	4.035000E+00	  0.030020041	1.413600E+01
52	  0.030220442	-1.329000E+00	  0.030220442	1.463060E+02	  0.030220442	4.166000E+00	  0.030220442	1.504300E+01
53	  0.030420844	-1.358000E+00	  0.030420844	1.443760E+02	  0.030420844	4.303000E+00	  0.030420844	1.595600E+01
54	  0.030621244	-1.390000E+00	  0.030621244	1.424610E+02	  0.030621244	4.450000E+00	  0.030621244	1.687000E+01
55	  0.030821642	-1.425000E+00	  0.030821642	1.405270E+02	  0.030821642	4.617000E+00	  0.030821642	1.780200E+01
56	  0.031022044	-1.458000E+00	  0.031022044	1.385750E+02	  0.031022044	4.783000E+00	  0.031022044	1.875400E+01
57	  0.031222444	-1.489000E+00	  0.031222444	1.366480E+02	  0.031222444	4.946000E+00	  0.031222444	1.970400E+01
58	  0.031422846	-1.522000E+00	  0.031422846	1.346840E+02	  0.031422846	5.127000E+00	  0.031422846	2.068400E+01
59	  0.031623244	-1.558000E+00	  0.031623244	1.327210E+02	  0.031623244	5.322000E+00	  0.031623244	2.167700E+01
60	  0.031823646	-1.593000E+00	  0.031823646	1.307800E+02	  0.031823646	5.522000E+00	  0.031823646	2.267000E+01
61	  0.032024048	-1.629000E+00	  0.032024048	1.288450E+02	  0.032024048	5.737000E+00	  0.032024048	2.367400E+01
62	  0.032224450	-1.669000E+00	  0.032224450	1.268980E+02	  0.032224450	5.971000E+00	  0.032224450	2.469800E+01
63	  0.032424849	-1.709000E+00	  0.032424849	1.249380E+02	  0.032424849	6.219000E+00	  0.032424849	2.574400E+01
64	  0.032625251	-1.746000E+00	  0.032625251	1.229720E+02	  0.032625251	6.470000E+00	  0.032625251	2.681100E+01
65	  0.032825653	-1.787000E+00	  0.032825653	1.209760E+02	  0.032825653	6.746000E+00	  0.032825653	2.791000E+01
66	  0.033026051	-1.826000E+00	  0.033026051	1.189580E+02	  0.033026051	7.030000E+00	  0.033026051	2.904200E+01
67	  0.033226453	-1.868000E+00	  0.033226453	1.169710E+02	  0.033226453	7.338000E+00	  0.033226453	3.017500E+01
68	  0.033426855	-1.912000E+00	  0.033426855	1.149510E+02	  0.033426855	7.672000E+00	  0.033426855	3.134700E+01
69	  0.033627257	-1.955000E+00	  0.033627257	1.129520E+02	  0.033627257	8.019000E+00	  0.033627257	3.252800E+01
70	  0.033827655	-2.002000E+00	  0.033827655	1.109290E+02	  0.033827655	8.402000E+00	  0.033827655	3.374500E+01
71	  0.034028057	-2.046000E+00	  0.034028057	1.088670E+02	  0.034028057	8.799000E+00	  0.034028057	3.501400E+01
72	  0.034228459	-2.096000E+00	  0.034228459	1.068140E+02	  0.034228459	9.240000E+00	  0.034228459	3.629900E+01
73	  0.034428857	-2.145000E+00	  0.034428857	1.047340E+02	  0.034428857	9.709000E+00	  0.034428857	3.763000E+01
74	  0.034629259	-2.194000E+00	  0.034629259	1.026280E+02	  0.034629259	1.020900E+01	  0.034629259	3.900900E+01
75	  0.034829661	-2.246000E+00	  0.034829661	1.005120E+02	  0.034829661	1.075100E+01	  0.034829661	4.042600E+01
76	  0.035030060	-2.297000E+00	  0.035030060	9.842400E+01	  0.035030060	1.132400E+01	  0.035030060	4.185400E+01
77	  0.035230462	-2.351000E+00	  0.035230462	9.630000E+01	  0.035230462	1.195000E+01	  0.035230462	4.334300E+01
78	  0.035430863	-2.402000E+00	  0.035430863	9.417600E+01	  0.035430863	1.260500E+01	  0.035430863	4.487000E+01
79	  0.035631265	-2.457000E+00	  0.035631265	9.206600E+01	  0.035631265	1.331800E+01	  0.035631265	4.642300E+01
80	  0.035831664	-2.513000E+00	  0.035831664	8.993700E+01	  0.035831664	1.409300E+01	  0.035831664	4.802700E+01
81	  0.036032066	-2.565000E+00	  0.036032066	8.781800E+01	  0.036032066	1.489300E+01	  0.036032066	4.967200E+01
82	  0.036232468	-2.617000E+00	  0.036232468	8.567600E+01	  0.036232468	1.576400E+01	  0.036232468	5.138000E+01
83	  0.036432866	-2.673000E+00	  0.036432866	8.358200E+01	  0.036432866	1.670500E+01	  0.036432866	5.308400E+01
84	  0.036633268	-2.729000E+00	  0.036633268	8.146600E+01	  0.036633268	1.771800E+01	  0.036633268	5.485500E+01
85	  0.036833670	-2.785000E+00	  0.036833670	7.934600E+01	  0.036833670	1.881300E+01	  0.036833670	5.667600E+01
86	  0.037034072	-2.840000E+00	  0.037034072	7.724400E+01	  0.037034072	1.997900E+01	  0.037034072	5.853000E+01
87	  0.037234470	-2.896000E+00	  0.037234470	7.513100E+01	  0.037234470	2.124500E+01	  0.037234470	6.044200E+01
88	  0.037434869	-2.953000E+00	  0.037434869	7.301900E+01	  0.037434869	2.261400E+01	  0.037434869	6.240200E+01
89	  0.037635271	-3.016000E+00	  0.037635271	7.091600E+01	  0.037635271	2.413900E+01	  0.037635271	6.437700E+01
90	  0.037835669	-3.091000E+00	  0.037835669	6.885300E+01	  0.037835669	2.584100E+01	  0.037835669	6.631000E+01
91	  0.038036071	-3.158000E+00	  0.038036071	6.689900E+01	  0.038036071	2.755600E+01	  0.038036071	6.818400E+01
92	  0.038236473	-3.215000E+00	  0.038236473	6.492200E+01	  0.038236473	2.933200E+01	  0.038236473	7.016300E+01
93	  0.038436871	-3.263000E+00	  0.038436871	6.291300E+01	  0.038436871	3.121200E+01	  0.038436871	7.225700E+01
94	  0.038637273	-3.318000E+00	  0.038637273	6.089500E+01	  0.038637273	3.330900E+01	  0.038637273	7.436600E+01
95	  0.038837675	-3.372000E+00	  0.038837675	5.887600E+01	  0.038837675	3.557700E+01	  0.038837675	7.651100E+01
96	  0.039038073	-3.422000E+00	  0.039038073	5.688000E+01	  0.039038073	3.797700E+01	  0.039038073	7.868000E+01
97	  0.039238475	-3.477000E+00	  0.039238475	5.484900E+01	  0.039238475	4.066300E+01	  0.039238475	8.087800E+01
98	  0.039438877	-3.526000E+00	  0.039438877	5.284400E+01	  0.039438877	4.350100E+01	  0.039438877	8.309300E+01
99	  0.039639279	-3.584000E+00	  0.039639279	5.081000E+01	  0.039639279	4.670200E+01	  0.039639279	8.526500E+01
100	  0.039839678	-3.637000E+00	  0.039839678	4.877100E+01	  0.039839678	5.014300E+01	  0.039839678	8.746700E+01
101	  0.040040080	-3.689000E+00	  0.040040080	4.672200E+01	  0.040040080	5.388700E+01	  0.040040080	8.965500E+01
102	  0.040240481	-3.742000E+00	  0.040240481	4.467800E+01	  0.040240481	5.797800E+01	  0.040240481	9.173900E+01
103	  0.040440880	-3.797000E+00	  0.040440880	4.265300E+01	  0.040440880	6.238700E+01	  0.040440880	9.368400E+01
104	  0.040641282	-3.847000E+00	  0.040641282	4.061300E+01	  0.040641282	6.717600E+01	  0.040641282	9.555200E+01
105	  0.040841684	-3.899000E+00	  0.040841684	3.859000E+01	  0.040841684	7.233700E+01	  0.040841684	9.719700E+01
106	  0.041042086	-3.951000E+00	  0.041042086	3.653000E+01	  0.041042086	7.801100E+01	  0.041042086	9.864000E+01
107	  0.041242484	-4.004000E+00	  0.041242484	3.447400E+01	  0.041242484	8.413500E+01	  0.041242484	9.972700E+01
108	  0.041442886	-4.056000E+00	  0.041442886	3.240100E+01	  0.041442886	9.076200E+01	  0.041442886	1.004380E+02
109	  0.041643288	-4.101000E+00	  0.041643288	3.033600E+01	  0.041643288	9.779400E+01	  0.041643288	1.008070E+02
110	  0.041843686	-4.149000E+00	  0.041843686	2.824600E+01	  0.041843686	1.053860E+02	  0.041843686	1.005300E+02
111	  0.042044088	-4.195000E+00	  0.042044088	2.617700E+01	  0.042044088	1.133190E+02	  0.042044088	9.957000E+01
112	  0.042244490	-4.242000E+00	  0.042244490	2.413900E+01	  0.042244490	1.214820E+02	  0.042244490	9.778300E+01
113	  0.042444889	-4.285000E+00	  0.042444889	2.208000E+01	  0.042444889	1.300050E+02	  0.042444889	9.513000E+01
114	  0.042645290	-4.329000E+00	  0.042645290	2.003200E+01	  0.042645290	1.386210E+02	  0.042645290	9.141900E+01
115	  0.042845692	-4.372000E+00	  0.042845692	1.800500E+01	  0.042845692	1.471370E+02	  0.042845692	8.664000E+01
116	  0.043046094	-4.414000E+00	  0.043046094	1.595800E+01	  0.043046094	1.555510E+02	  0.043046094	8.064100E+01
117	  0.043246493	-4.454000E+00	  0.043246493	1.392100E+01	  0.043246493	1.635140E+02	  0.043246493	7.345100E+01
118	  0.043446895	-4.492000E+00	  0.043446895	1.191500E+01	  0.043446895	1.707360E+02	  0.043446895	6.520800E+01
119	  0.043647297	-4.530000E+00	  0.043647297	9.902000E+00	  0.043647297	1.770760E+02	  0.043647297	5.580900E+01
120	  0.043847695	-4.570000E+00	  0.043847695	7.929000E+00	  0.043847695	1.821320E+02	  0.043847695	4.561900E+01
121	  0.044048097	-4.606000E+00	  0.044048097	5.955000E+00	  0.044048097	1.859890E+02	  0.044048097	3.473600E+01
122	  0.044248499	-4.646000E+00	  0.044248499	3.979000E+00	  0.044248499	1.882780E+02	  0.044248499	2.330100E+01
123	  0.044448901	-4.680000E+00	  0.044448901	2.039000E+00	  0.044448901	1.892310E+02	  0.044448901	1.191200E+01
124	  0.044649299	-4.717000E+00	  0.044649299	1.070000E-01	  0.044649299	1.886100E+02	  0.044649299	6.170000E-01
125	  0.044849701	-4.753000E+00	  0.044849701	-1.813000E+00	  0.044849701	1.866430E+02	  0.044849701	-1.027100E+01
126	  0.045050103	-4.793000E+00	  0.045050103	-3.735000E+00	  0.045050103	1.832900E+02	  0.045050103	-2.057600E+01
127	  0.045250501	-4.827000E+00	  0.045250501	-5.639000E+00	  0.045250501	1.790530E+02	  0.045250501	-3.008200E+01
128	  0.045450903	-4.863000E+00	  0.045450903	-7.534000E+00	  0.045450903	1.738970E+02	  0.045450903	-3.866800E+01
129	  0.045651305	-4.898000E+00	  0.045651305	-9.443000E+00	  0.045651305	1.680490E+02	  0.045651305	-4.639200E+01
130	  0.045851704	-4.932000E+00	  0.045851704	-1.133500E+01	  0.045851704	1.617400E+02	  0.045851704	-5.307700E+01
131	  0.046052102	-4.967000E+00	  0.046052102	-1.319800E+01	  0.046052102	1.551890E+02	  0.046052102	-5.869700E+01
132	  0.046252504	-5.004000E+00	  0.046252504	-1.505900E+01	  0.046252504	1.484560E+02	  0.046252504	-6.338000E+01
133	  0.046452906	-5.043000E+00	  0.046452906	-1.690400E+01	  0.046452906	1.417170E+02	  0.046452906	-6.713500E+01
134	  0.046653304	-5.082000E+00	  0.046653304	-1.878700E+01	  0.046653304	1.349260E+02	  0.046653304	-7.018600E+01
135	  0.046853706	-5.120000E+00	  0.046853706	-2.063700E+01	  0.046853706	1.284290E+02	  0.046853706	-7.250300E+01
136	  0.047054108	-5.157000E+00	  0.047054108	-2.250000E+01	  0.047054108	1.221240E+02	  0.047054108	-7.427200E+01
137	  0.047254506	-5.196000E+00	  0.047254506	-2.435000E+01	  0.047254506	1.160880E+02	  0.047254506	-7.542300E+01
138	  0.047454908	-5.230000E+00	  0.047454908	-2.619100E+01	  0.047454908	1.103880E+02	  0.047454908	-7.621300E+01
139	  0.047655310	-5.265000E+00	  0.047655310	-2.801400E+01	  0.047655310	1.050230E+02	  0.047655310	-7.658800E+01
140	  0.047855709	-5.303000E+00	  0.047855709	-2.982100E+01	  0.047855709	9.997600E+01	  0.047855709	-7.658500E+01
141	  0.048056111	-5.333000E+00	  0.048056111	-3.162000E+01	  0.048056111	9.524700E+01	  0.048056111	-7.642300E+01
142	  0.048256513	-5.366000E+00	  0.048256513	-3.341700E+01	  0.048256513	9.078600E+01	  0.048256513	-7.599700E+01
143	  0.048456915	-5.399000E+00	  0.048456915	-3.522600E+01	  0.048456915	8.656200E+01	  0.048456915	-7.537100E+01
144	  0.048657313	-5.428000E+00	  0.048657313	-3.701800E+01	  0.048657313	8.262700E+01	  0.048657313	-7.464400E+01
145	  0.048857715	-5.457000E+00	  0.048857715	-3.880500E+01	  0.048857715	7.893700E+01	  0.048857715	-7.377900E+01
146	  0.049058117	-5.482000E+00	  0.049058117	-4.057700E+01	  0.049058117	7.549100E+01	  0.049058117	-7.285500E+01
147	  0.049258515	-5.506000E+00	  0.049258515	-4.231300E+01	  0.049258515	7.231400E+01	  0.049258515	-7.187100E+01
148	  0.049458917	-5.531000E+00	  0.049458917	-4.404500E+01	  0.049458917	6.933200E+01	  0.049458917	-7.080600E+01
149	  0.049659319	-5.555000E+00	  0.049659319	-4.575800E+01	  0.049659319	6.655400E+01	  0.049659319	-6.970400E+01
150	  0.049859721	-5.582000E+00	  0.049859721	-4.746400E+01	  0.049859721	6.396300E+01	  0.049859721	-6.852400E+01
151	  0.050060119	-5.602000E+00	  0.050060119	-4.915700E+01	  0.050060119	6.151800E+01	  0.050060119	-6.738400E+01
152	  0.050260521	-5.625000E+00	  0.050260521	-5.084500E+01	  0.050260521	5.923200E+01	  0.050260521	-6.618900E+01
153	  0.050460923	-5.643000E+00	  0.050460923	-5.252800E+01	  0.050460923	5.706000E+01	  0.050460923	-6.503000E+01
154	  0.050661322	-5.660000E+00	  0.050661322	-5.419200E+01	  0.050661322	5.503100E+01	  0.050661322	-6.386700E+01
155	  0.050861724	-5.679000E+00	  0.050861724	-5.583400E+01	  0.050861724	5.314900E+01	  0.050861724	-6.268800E+01
156	  0.051062126	-5.700000E+00	  0.051062126	-5.745900E+01	  0.051062126	5.139300E+01	  0.051062126	-6.150800E+01
157	  0.051262524	-5.717000E+00	  0.051262524	-5.906300E+01	  0.051262524	4.974300E+01	  0.051262524	-6.035800E+01
158	  0.051462926	-5.738000E+00	  0.051462926	-6.068100E+01	  0.051462926	4.817700E+01	  0.051462926	-5.918200E+01
159	  0.051663328	-5.753000E+00	  0.051663328	-6.224900E+01	  0.051663328	4.672000E+01	  0.051663328	-5.807500E+01
160	  0.051863730	-5.771000E+00	  0.051863730	-6.386100E+01	  0.051863730	4.530700E+01	  0.051863730	-5.692800E+01
161	  0.052064128	-5.784000E+00	  0.052064128	-6.543800E+01	  0.052064128	4.397500E+01	  0.052064128	-5.584200E+01
162	  0.052264530	-5.799000E+00	  0.052264530	-6.700700E+01	  0.052264530	4.272600E+01	  0.052264530	-5.475000E+01
163	  0.052464932	-5.813000E+00	  0.052464932	-6.856900E+01	  0.052464932	4.154100E+01	  0.052464932	-5.367600E+01
164	  0.052665330	-5.832000E+00	  0.052665330	-7.008800E+01	  0.052665330	4.046600E+01	  0.052665330	-5.261400E+01
165	  0.052865732	-5.843000E+00	  0.052865732	-7.164400E+01	  0.052865732	3.938200E+01	  0.052865732	-5.157700E+01
166	  0.053066134	-5.862000E+00	  0.053066134	-7.315800E+01	  0.053066134	3.840800E+01	  0.053066134	-5.054400E+01
167	  0.053266536	-5.876000E+00	  0.053266536	-7.468300E+01	  0.053266536	3.745500E+01	  0.053266536	-4.953400E+01
168	  0.053466935	-5.890000E+00	  0.053466935	-7.619900E+01	  0.053466935	3.655500E+01	  0.053466935	-4.853800E+01
169	  0.053667337	-5.903000E+00	  0.053667337	-7.770500E+01	  0.053667337	3.569400E+01	  0.053667337	-4.756600E+01
170	  0.053867739	-5.912000E+00	  0.053867739	-7.919700E+01	  0.053867739	3.486500E+01	  0.053867739	-4.662700E+01
171	  0.054068137	-5.923000E+00	  0.054068137	-8.069000E+01	  0.054068137	3.408000E+01	  0.054068137	-4.568800E+01
172	  0.054268539	-5.932000E+00	  0.054268539	-8.217300E+01	  0.054268539	3.332600E+01	  0.054268539	-4.477400E+01
173	  0.054468941	-5.940000E+00	  0.054468941	-8.362000E+01	  0.054468941	3.261800E+01	  0.054468941	-4.389500E+01
174	  0.054669335	-5.953000E+00	  0.054669335	-8.508000E+01	  0.054669335	3.195400E+01	  0.054669335	-4.300000E+01
175	  0.054869737	-5.965000E+00	  0.054869737	-8.649700E+01	  0.054869737	3.133400E+01	  0.054869737	-4.214300E+01
176	  0.055070139	-5.972000E+00	  0.055070139	-8.794200E+01	  0.055070139	3.070700E+01	  0.055070139	-4.129600E+01
177	  0.055270538	-5.982000E+00	  0.055270538	-8.934500E+01	  0.055270538	3.013400E+01	  0.055270538	-4.047400E+01
178	  0.055470940	-5.987000E+00	  0.055470940	-9.075200E+01	  0.055470940	2.956700E+01	  0.055470940	-3.966900E+01
179	  0.055671342	-5.990000E+00	  0.055671342	-9.217300E+01	  0.055671342	2.900500E+01	  0.055671342	-3.887300E+01
180	  0.055871744	-5.997000E+00	  0.055871744	-9.355600E+01	  0.055871744	2.849600E+01	  0.055871744	-3.809400E+01
181	  0.056072142	-6.006000E+00	  0.056072142	-9.493800E+01	  0.056072142	2.801600E+01	  0.056072142	-3.731800E+01
182	  0.056272544	-6.009000E+00	  0.056272544	-9.630800E+01	  0.056272544	2.753500E+01	  0.056272544	-3.657100E+01
183	  0.056472946	-6.015000E+00	  0.056472946	-9.764000E+01	  0.056472946	2.709900E+01	  0.056472946	-3.584300E+01
184	  0.056673344	-6.022000E+00	  0.056673344	-9.895800E+01	  0.056673344	2.668200E+01	  0.056673344	-3.513100E+01
185	  0.056873746	-6.027000E+00	  0.056873746	-1.002930E+02	  0.056873746	2.627100E+01	  0.056873746	-3.441900E+01
186	  0.057074148	-6.032000E+00	  0.057074148	-1.016220E+02	  0.057074148	2.587700E+01	  0.057074148	-3.371700E+01
187	  0.057274550	-6.038000E+00	  0.057274550	-1.029410E+02	  0.057274550	2.550100E+01	  0.057274550	-3.302600E+01
188	  0.057474948	-6.044000E+00	  0.057474948	-1.042860E+02	  0.057474948	2.513500E+01	  0.057474948	-3.232600E+01
189	  0.057675350	-6.051000E+00	  0.057675350	-1.055650E+02	  0.057675350	2.480200E+01	  0.057675350	-3.166600E+01
190	  0.057875752	-6.059000E+00	  0.057875752	-1.068880E+02	  0.057875752	2.447000E+01	  0.057875752	-3.098900E+01
191	  0.058076151	-6.063000E+00	  0.058076151	-1.081630E+02	  0.058076151	2.415300E+01	  0.058076151	-3.034700E+01
192	  0.058276553	-6.068000E+00	  0.058276553	-1.094580E+02	  0.058276553	2.384400E+01	  0.058276553	-2.970000E+01
193	  0.058476955	-6.073000E+00	  0.058476955	-1.107190E+02	  0.058476955	2.355100E+01	  0.058476955	-2.907600E+01
194	  0.058677353	-6.077000E+00	  0.058677353	-1.120270E+02	  0.058677353	2.325700E+01	  0.058677353	-2.843600E+01
195	  0.058877755	-6.085000E+00	  0.058877755	-1.133070E+02	  0.058877755	2.299400E+01	  0.058877755	-2.780700E+01
196	  0.059078157	-6.086000E+00	  0.059078157	-1.145830E+02	  0.059078157	2.271400E+01	  0.059078157	-2.719800E+01
197	  0.059278559	-6.090000E+00	  0.059278559	-1.158560E+02	  0.059278559	2.245900E+01	  0.059278559	-2.658900E+01
198	  0.059478957	-6.097000E+00	  0.059478957	-1.171490E+02	  0.059478957	2.221600E+01	  0.059478957	-2.597200E+01
199	  0.059679359	-6.098000E+00	  0.059679359	-1.184040E+02	  0.059679359	2.197000E+01	  0.059679359	-2.538500E+01
200	  0.059879761	-6.104000E+00	  0.059879761	-1.196410E+02	  0.059879761	2.175100E+01	  0.059879761	-2.480500E+01
201	  0.060080159	-6.106000E+00	  0.060080159	-1.209010E+02	  0.060080159	2.152300E+01	  0.060080159	-2.422400E+01
202	  0.060280561	-6.109000E+00	  0.060280561	-1.221500E+02	  0.060280561	2.130800E+01	  0.060280561	-2.365100E+01
203	  0.060480963	-6.111000E+00	  0.060480963	-1.233850E+02	  0.060480963	2.110100E+01	  0.060480963	-2.308900E+01
204	  0.060681365	-6.111000E+00	  0.060681365	-1.246140E+02	  0.060681365	2.089600E+01	  0.060681365	-2.253500E+01
205	  0.060881764	-6.108000E+00	  0.060881764	-1.258770E+02	  0.060881764	2.068200E+01	  0.060881764	-2.197400E+01
206	  0.061082166	-6.108000E+00	  0.061082166	-1.270970E+02	  0.061082166	2.049300E+01	  0.061082166	-2.143100E+01
207	  0.061282568	-6.103000E+00	  0.061282568	-1.283120E+02	  0.061282568	2.029500E+01	  0.061282568	-2.089900E+01
208	  0.061482966	-6.098000E+00	  0.061482966	-1.295050E+02	  0.061482966	2.010800E+01	  0.061482966	-2.037900E+01
209	  0.061683368	-6.099000E+00	  0.061683368	-1.307050E+02	  0.061683368	1.994200E+01	  0.061683368	-1.985400E+01
210	  0.061883770	-6.094000E+00	  0.061883770	-1.318670E+02	  0.061883770	1.977000E+01	  0.061883770	-1.935300E+01
211	  0.062084168	-6.093000E+00	  0.062084168	-1.330390E+02	  0.062084168	1.961300E+01	  0.062084168	-1.884800E+01
212	  0.062284570	-6.086000E+00	  0.062284570	-1.342130E+02	  0.062284570	1.944200E+01	  0.062284570	-1.834900E+01
213	  0.062484972	-6.077000E+00	  0.062484972	-1.353310E+02	  0.062484972	1.928000E+01	  0.062484972	-1.787800E+01
214	  0.062685370	-6.077000E+00	  0.062685370	-1.364930E+02	  0.062685370	1.914400E+01	  0.062685370	-1.738200E+01
215	  0.062885776	-6.071000E+00	  0.062885776	-1.376200E+02	  0.062885776	1.900000E+01	  0.062885776	-1.690800E+01
216	  0.063086174	-6.069000E+00	  0.063086174	-1.387200E+02	  0.063086174	1.887000E+01	  0.063086174	-1.644600E+01
217	  0.063286573	-6.070000E+00	  0.063286573	-1.398270E+02	  0.063286573	1.875800E+01	  0.063286573	-1.597900E+01
218	  0.063486971	-6.062000E+00	  0.063486971	-1.409260E+02	  0.063486971	1.862200E+01	  0.063486971	-1.552500E+01
219	  0.063687377	-6.059000E+00	  0.063687377	-1.419950E+02	  0.063687377	1.850800E+01	  0.063687377	-1.508100E+01
220	  0.063887775	-6.057000E+00	  0.063887775	-1.431090E+02	  0.063887775	1.839500E+01	  0.063887775	-1.462000E+01
221	  0.064088173	-6.057000E+00	  0.064088173	-1.442240E+02	  0.064088173	1.829400E+01	  0.064088173	-1.415800E+01
222	  0.064288579	-6.061000E+00	  0.064288579	-1.452860E+02	  0.064288579	1.820900E+01	  0.064288579	-1.371800E+01
223	  0.064488977	-6.063000E+00	  0.064488977	-1.463670E+02	  0.064488977	1.812300E+01	  0.064488977	-1.327300E+01
224	  0.064689375	-6.062000E+00	  0.064689375	-1.474700E+02	  0.064689375	1.802700E+01	  0.064689375	-1.282300E+01
225	  0.064889781	-6.064000E+00	  0.064889781	-1.485220E+02	  0.064889781	1.795100E+01	  0.064889781	-1.239300E+01
226	  0.065090179	-6.067000E+00	  0.065090179	-1.496200E+02	  0.065090179	1.787600E+01	  0.065090179	-1.194500E+01
227	  0.065290578	-6.070000E+00	  0.065290578	-1.507170E+02	  0.065290578	1.780400E+01	  0.065290578	-1.149900E+01
228	  0.065490983	-6.072000E+00	  0.065490983	-1.517680E+02	  0.065490983	1.773400E+01	  0.065490983	-1.107500E+01
229	  0.065691382	-6.074000E+00	  0.065691382	-1.528660E+02	  0.065691382	1.766700E+01	  0.065691382	-1.063200E+01
230	  0.065891780	-6.076000E+00	  0.065891780	-1.539450E+02	  0.065891780	1.760300E+01	  0.065891780	-1.019900E+01
231	  0.066092186	-6.080000E+00	  0.066092186	-1.550320E+02	  0.066092186	1.754700E+01	  0.066092186	-9.762000E+00
232	  0.066292584	-6.080000E+00	  0.066292584	-1.561300E+02	  0.066292584	1.748200E+01	  0.066292584	-9.325000E+00
233	  0.066492982	-6.080000E+00	  0.066492982	-1.572310E+02	  0.066492982	1.742200E+01	  0.066492982	-8.887000E+00
234	  0.066693388	-6.085000E+00	  0.066693388	-1.583120E+02	  0.066693388	1.737700E+01	  0.066693388	-8.456000E+00
235	  0.066893786	-6.085000E+00	  0.066893786	-1.593810E+02	  0.066893786	1.732400E+01	  0.066893786	-8.034000E+00
236	  0.067094192	-6.083000E+00	  0.067094192	-1.604910E+02	  0.067094192	1.726600E+01	  0.067094192	-7.596000E+00
237	  0.067294590	-6.085000E+00	  0.067294590	-1.615400E+02	  0.067294590	1.722400E+01	  0.067294590	-7.182000E+00
238	  0.067494988	-6.085000E+00	  0.067494988	-1.626110E+02	  0.067494988	1.718000E+01	  0.067494988	-6.761000E+00
239	  0.067695394	-6.080000E+00	  0.067695394	-1.637000E+02	  0.067695394	1.712500E+01	  0.067695394	-6.335000E+00
240	  0.067895792	-6.082000E+00	  0.067895792	-1.647590E+02	  0.067895792	1.709000E+01	  0.067895792	-5.920000E+00
241	  0.068096191	-6.077000E+00	  0.068096191	-1.658300E+02	  0.068096191	1.704200E+01	  0.068096191	-5.502000E+00
242	  0.068296596	-6.073000E+00	  0.068296596	-1.668990E+02	  0.068296596	1.699800E+01	  0.068296596	-5.085000E+00
243	  0.068496995	-6.076000E+00	  0.068496995	-1.679290E+02	  0.068496995	1.697600E+01	  0.068496995	-4.682000E+00
244	  0.068697393	-6.072000E+00	  0.068697393	-1.689660E+02	  0.068697393	1.693800E+01	  0.068697393	-4.279000E+00
245	  0.068897791	-6.066000E+00	  0.068897791	-1.699820E+02	  0.068897791	1.689700E+01	  0.068897791	-3.885000E+00
246	  0.069098189	-6.064000E+00	  0.069098189	-1.710120E+02	  0.069098189	1.687000E+01	  0.069098189	-3.484000E+00
247	  0.069298595	-6.056000E+00	  0.069298595	-1.720220E+02	  0.069298595	1.683100E+01	  0.069298595	-3.093000E+00
248	  0.069498993	-6.056000E+00	  0.069498993	-1.730470E+02	  0.069498993	1.681400E+01	  0.069498993	-2.695000E+00
249	  0.069699399	-6.059000E+00	  0.069699399	-1.740220E+02	  0.069699399	1.680700E+01	  0.069699399	-2.316000E+00
250	  0.069899797	-6.054000E+00	  0.069899797	-1.749940E+02	  0.069899797	1.678200E+01	  0.069899797	-1.939000E+00
251	  0.070100196	-6.054000E+00	  0.070100196	-1.759770E+02	  0.070100196	1.677200E+01	  0.070100196	-1.558000E+00
252	  0.070300601	-6.056000E+00	  0.070300601	-1.769480E+02	  0.070300601	1.676900E+01	  0.070300601	-1.182000E+00
253	  0.070501000	-6.055000E+00	  0.070501000	-1.779170E+02	  0.070501000	1.676000E+01	  0.070501000	-8.060000E-01
254	  0.070701398	-6.054000E+00	  0.070701398	-1.789220E+02	  0.070701398	1.675400E+01	  0.070701398	-4.170000E-01
255	  0.070901804	-6.059000E+00	  0.070901804	-1.798740E+02	  0.070901804	1.676600E+01	  0.070901804	-4.800000E-02
256	  0.071102202	-6.062000E+00	  0.071102202	1.791390E+02	  0.071102202	1.677500E+01	  0.071102202	3.330000E-01
257	  0.071302600	-6.065000E+00	  0.071302600	1.781620E+02	  0.071302600	1.678500E+01	  0.071302600	7.110000E-01
258	  0.071503006	-6.070000E+00	  0.071503006	1.772140E+02	  0.071503006	1.680300E+01	  0.071503006	1.078000E+00
259	  0.071703404	-6.078000E+00	  0.071703404	1.762830E+02	  0.071703404	1.683100E+01	  0.071703404	1.438000E+00
260	  0.071903802	-6.083000E+00	  0.071903802	1.752860E+02	  0.071903802	1.685300E+01	  0.071903802	1.824000E+00
261	  0.072104208	-6.089000E+00	  0.072104208	1.743170E+02	  0.072104208	1.688000E+01	  0.072104208	2.199000E+00
262	  0.072304606	-6.095000E+00	  0.072304606	1.733550E+02	  0.072304606	1.690900E+01	  0.072304606	2.571000E+00
263	  0.072505005	-6.103000E+00	  0.072505005	1.724040E+02	  0.072505005	1.694400E+01	  0.072505005	2.939000E+00
264	  0.072705410	-6.108000E+00	  0.072705410	1.714070E+02	  0.072705410	1.697500E+01	  0.072705410	3.325000E+00
265	  0.072905809	-6.114000E+00	  0.072905809	1.704360E+02	  0.072905809	1.701000E+01	  0.072905809	3.701000E+00
266	  0.073106214	-6.128000E+00	  0.073106214	1.694560E+02	  0.073106214	1.706800E+01	  0.073106214	4.079000E+00
267	  0.073306613	-6.131000E+00	  0.073306613	1.685030E+02	  0.073306613	1.710200E+01	  0.073306613	4.449000E+00
268	  0.073507011	-6.140000E+00	  0.073507011	1.675300E+02	  0.073507011	1.715200E+01	  0.073507011	4.826000E+00
269	  0.073707417	-6.147000E+00	  0.073707417	1.665490E+02	  0.073707417	1.719900E+01	  0.073707417	5.206000E+00
270	  0.073907815	-6.150000E+00	  0.073907815	1.656000E+02	  0.073907815	1.723800E+01	  0.073907815	5.575000E+00
271	  0.074108213	-6.158000E+00	  0.074108213	1.646290E+02	  0.074108213	1.729100E+01	  0.074108213	5.952000E+00
272	  0.074308619	-6.164000E+00	  0.074308619	1.636480E+02	  0.074308619	1.734300E+01	  0.074308619	6.334000E+00
273	  0.074509017	-6.168000E+00	  0.074509017	1.626890E+02	  0.074509017	1.739200E+01	  0.074509017	6.708000E+00
274	  0.074709415	-6.173000E+00	  0.074709415	1.617420E+02	  0.074709415	1.744500E+01	  0.074709415	7.078000E+00
275	  0.074909821	-6.177000E+00	  0.074909821	1.607950E+02	  0.074909821	1.749700E+01	  0.074909821	7.448000E+00
276	  0.075110219	-6.184000E+00	  0.075110219	1.598370E+02	  0.075110219	1.756000E+01	  0.075110219	7.822000E+00
277	  0.075310618	-6.189000E+00	  0.075310618	1.589070E+02	  0.075310618	1.761800E+01	  0.075310618	8.187000E+00
278	  0.075511023	-6.193000E+00	  0.075511023	1.580040E+02	  0.075511023	1.767400E+01	  0.075511023	8.541000E+00
279	  0.075711422	-6.196000E+00	  0.075711422	1.571290E+02	  0.075711422	1.773100E+01	  0.075711422	8.886000E+00
280	  0.075911827	-6.199000E+00	  0.075911827	1.561860E+02	  0.075911827	1.779000E+01	  0.075911827	9.258000E+00
281	  0.076112226	-6.208000E+00	  0.076112226	1.552980E+02	  0.076112226	1.786600E+01	  0.076112226	9.606000E+00
282	  0.076312624	-6.212000E+00	  0.076312624	1.543960E+02	  0.076312624	1.793200E+01	  0.076312624	9.963000E+00
283	  0.076513030	-6.222000E+00	  0.076513030	1.534950E+02	  0.076513030	1.801500E+01	  0.076513030	1.031700E+01
284	  0.076713428	-6.230000E+00	  0.076713428	1.526150E+02	  0.076713428	1.809400E+01	  0.076713428	1.066400E+01
285	  0.076913826	-6.241000E+00	  0.076913826	1.517460E+02	  0.076913826	1.818300E+01	  0.076913826	1.100600E+01
286	  0.077114232	-6.249000E+00	  0.077114232	1.508680E+02	  0.077114232	1.826600E+01	  0.077114232	1.135400E+01
287	  0.077314630	-6.260000E+00	  0.077314630	1.500200E+02	  0.077314630	1.835800E+01	  0.077314630	1.168900E+01
288	  0.077515028	-6.270000E+00	  0.077515028	1.491520E+02	  0.077515028	1.845000E+01	  0.077515028	1.203300E+01
289	  0.077715434	-6.284000E+00	  0.077715434	1.482830E+02	  0.077715434	1.855700E+01	  0.077715434	1.237500E+01
290	  0.077915832	-6.295000E+00	  0.077915832	1.474250E+02	  0.077915832	1.865500E+01	  0.077915832	1.271500E+01
291	  0.078116231	-6.311000E+00	  0.078116231	1.465540E+02	  0.078116231	1.877300E+01	  0.078116231	1.305800E+01
292	  0.078316636	-6.323000E+00	  0.078316636	1.456760E+02	  0.078316636	1.888200E+01	  0.078316636	1.340700E+01
293	  0.078517035	-6.341000E+00	  0.078517035	1.448290E+02	  0.078517035	1.900400E+01	  0.078517035	1.374000E+01
294	  0.078717433	-6.360000E+00	  0.078717433	1.439490E+02	  0.078717433	1.913700E+01	  0.078717433	1.408600E+01
295	  0.078917839	-6.375000E+00	  0.078917839	1.430780E+02	  0.078917839	1.926100E+01	  0.078917839	1.443200E+01
296	  0.079118237	-6.391000E+00	  0.079118237	1.422270E+02	  0.079118237	1.938800E+01	  0.079118237	1.476900E+01
297	  0.079318643	-6.409000E+00	  0.079318643	1.413650E+02	  0.079318643	1.952500E+01	  0.079318643	1.510900E+01
298	  0.079519041	-6.427000E+00	  0.079519041	1.404920E+02	  0.079519041	1.966500E+01	  0.079519041	1.545500E+01
299	  0.079719439	-6.445000E+00	  0.079719439	1.396210E+02	  0.079719439	1.980700E+01	  0.079719439	1.580000E+01
300	  0.079919845	-6.462000E+00	  0.079919845	1.387350E+02	  0.079919845	1.995100E+01	  0.079919845	1.615300E+01
301	  0.080120243	-6.479000E+00	  0.080120243	1.378570E+02	  0.080120243	2.009800E+01	  0.080120243	1.650200E+01
302	  0.080320641	-6.495000E+00	  0.080320641	1.369830E+02	  0.080320641	2.024300E+01	  0.080320641	1.685200E+01
303	  0.080521047	-6.513000E+00	  0.080521047	1.361170E+02	  0.080521047	2.039600E+01	  0.080521047	1.719700E+01
304	  0.080721445	-6.529000E+00	  0.080721445	1.352530E+02	  0.080721445	2.054900E+01	  0.080721445	1.754300E+01
305	  0.080921844	-6.550000E+00	  0.080921844	1.344110E+02	  0.080921844	2.071300E+01	  0.080921844	1.787700E+01
306	  0.081122249	-6.564000E+00	  0.081122249	1.335840E+02	  0.081122249	2.086000E+01	  0.081122249	1.821000E+01
307	  0.081322648	-6.579000E+00	  0.081322648	1.327180E+02	  0.081322648	2.101900E+01	  0.081322648	1.855900E+01
308	  0.081523046	-6.596000E+00	  0.081523046	1.318910E+02	  0.081523046	2.117900E+01	  0.081523046	1.889100E+01
309	  0.081723452	-6.605000E+00	  0.081723452	1.310580E+02	  0.081723452	2.132200E+01	  0.081723452	1.923300E+01
310	  0.081923850	-6.621000E+00	  0.081923850	1.302300E+02	  0.081923850	2.148600E+01	  0.081923850	1.956700E+01
311	  0.082124248	-6.638000E+00	  0.082124248	1.294350E+02	  0.082124248	2.165100E+01	  0.082124248	1.988800E+01
312	  0.082324654	-6.653000E+00	  0.082324654	1.286030E+02	  0.082324654	2.182200E+01	  0.082324654	2.022400E+01
313	  0.082525052	-6.669000E+00	  0.082525052	1.278440E+02	  0.082525052	2.198300E+01	  0.082525052	2.053100E+01
314	  0.082725458	-6.685000E+00	  0.082725458	1.271030E+02	  0.082725458	2.214800E+01	  0.082725458	2.083000E+01
315	  0.082925856	-6.703000E+00	  0.082925856	1.263200E+02	  0.082925856	2.232600E+01	  0.082925856	2.114500E+01
316	  0.083126254	-6.721000E+00	  0.083126254	1.255170E+02	  0.083126254	2.250900E+01	  0.083126254	2.146900E+01
317	  0.083326660	-6.741000E+00	  0.083326660	1.247760E+02	  0.083326660	2.269200E+01	  0.083326660	2.176400E+01
318	  0.083527058	-6.759000E+00	  0.083527058	1.240290E+02	  0.083527058	2.287400E+01	  0.083527058	2.206400E+01
319	  0.083727457	-6.785000E+00	  0.083727457	1.232680E+02	  0.083727457	2.308400E+01	  0.083727457	2.236000E+01
320	  0.083927862	-6.800000E+00	  0.083927862	1.225120E+02	  0.083927862	2.326400E+01	  0.083927862	2.266900E+01
321	  0.084128261	-6.823000E+00	  0.084128261	1.217790E+02	  0.084128261	2.346700E+01	  0.084128261	2.295600E+01
322	  0.084328659	-6.848000E+00	  0.084328659	1.210700E+02	  0.084328659	2.367000E+01	  0.084328659	2.323300E+01
323	  0.084529065	-6.875000E+00	  0.084529065	1.203120E+02	  0.084529065	2.389600E+01	  0.084529065	2.352600E+01
324	  0.084729463	-6.899000E+00	  0.084729463	1.195520E+02	  0.084729463	2.411500E+01	  0.084729463	2.382400E+01
325	  0.084929854	-6.926000E+00	  0.084929854	1.187980E+02	  0.084929854	2.434600E+01	  0.084929854	2.411500E+01
326	  0.085130259	-6.955000E+00	  0.085130259	1.180280E+02	  0.085130259	2.458700E+01	  0.085130259	2.441100E+01
327	  0.085330658	-6.978000E+00	  0.085330658	1.172720E+02	  0.085330658	2.481300E+01	  0.085330658	2.470800E+01
328	  0.085531056	-7.006000E+00	  0.085531056	1.165090E+02	  0.085531056	2.506100E+01	  0.085531056	2.499900E+01
329	  0.085731462	-7.030000E+00	  0.085731462	1.157330E+02	  0.085731462	2.530100E+01	  0.085731462	2.530300E+01
330	  0.085931860	-7.061000E+00	  0.085931860	1.149680E+02	  0.085931860	2.556200E+01	  0.085931860	2.559100E+01
331	  0.086132258	-7.092000E+00	  0.086132258	1.142360E+02	  0.086132258	2.582000E+01	  0.086132258	2.586400E+01
332	  0.086332664	-7.117000E+00	  0.086332664	1.134610E+02	  0.086332664	2.607500E+01	  0.086332664	2.616300E+01
333	  0.086533062	-7.146000E+00	  0.086533062	1.126690E+02	  0.086533062	2.634900E+01	  0.086533062	2.646300E+01
334	  0.086733460	-7.173000E+00	  0.086733460	1.118980E+02	  0.086733460	2.661900E+01	  0.086733460	2.675600E+01
335	  0.086933866	-7.200000E+00	  0.086933866	1.111100E+02	  0.086933866	2.689400E+01	  0.086933866	2.705700E+01
336	  0.087134264	-7.228000E+00	  0.087134264	1.103540E+02	  0.087134264	2.716800E+01	  0.087134264	2.734100E+01
337	  0.087334670	-7.254000E+00	  0.087334670	1.095910E+02	  0.087334670	2.744300E+01	  0.087334670	2.763000E+01
338	  0.087535068	-7.283000E+00	  0.087535068	1.088570E+02	  0.087535068	2.772300E+01	  0.087535068	2.790100E+01
339	  0.087735467	-7.310000E+00	  0.087735467	1.080790E+02	  0.087735467	2.801500E+01	  0.087735467	2.819200E+01
340	  0.087935872	-7.340000E+00	  0.087935872	1.073340E+02	  0.087935872	2.830800E+01	  0.087935872	2.846300E+01
341	  0.088136271	-7.367000E+00	  0.088136271	1.066000E+02	  0.088136271	2.859400E+01	  0.088136271	2.873400E+01
342	  0.088336669	-7.390000E+00	  0.088336669	1.058670E+02	  0.088336669	2.887300E+01	  0.088336669	2.901100E+01
343	  0.088537075	-7.414000E+00	  0.088537075	1.051450E+02	  0.088537075	2.915600E+01	  0.088537075	2.928000E+01
344	  0.088737473	-7.441000E+00	  0.088737473	1.044500E+02	  0.088737473	2.944200E+01	  0.088737473	2.953100E+01
345	  0.088937871	-7.469000E+00	  0.088937871	1.037640E+02	  0.088937871	2.973300E+01	  0.088937871	2.977500E+01
346	  0.089138277	-7.498000E+00	  0.089138277	1.031440E+02	  0.089138277	3.000800E+01	  0.089138277	2.998600E+01
347	  0.089338675	-7.523000E+00	  0.089338675	1.024990E+02	  0.089338675	3.028500E+01	  0.089338675	3.021500E+01
348	  0.089539073	-7.552000E+00	  0.089539073	1.019210E+02	  0.089539073	3.055600E+01	  0.089539073	3.040300E+01
349	  0.089739479	-7.580000E+00	  0.089739479	1.012670E+02	  0.089739479	3.084900E+01	  0.089739479	3.062800E+01
350	  0.089939877	-7.616000E+00	  0.089939877	1.006990E+02	  0.089939877	3.114100E+01	  0.089939877	3.079500E+01
351	  0.090140276	-7.632000E+00	  0.090140276	1.001020E+02	  0.090140276	3.138900E+01	  0.090140276	3.101700E+01
352	  0.090340681	-7.666000E+00	  0.090340681	9.954000E+01	  0.090340681	3.167700E+01	  0.090340681	3.118400E+01
353	  0.090541080	-7.693000E+00	  0.090541080	9.897600E+01	  0.090541080	3.195000E+01	  0.090541080	3.136400E+01
354	  0.090741485	-7.728000E+00	  0.090741485	9.845200E+01	  0.090741485	3.223200E+01	  0.090741485	3.150900E+01
355	  0.090941884	-7.757000E+00	  0.090941884	9.789500E+01	  0.090941884	3.251400E+01	  0.090941884	3.167800E+01
356	  0.091142282	-7.789000E+00	  0.091142282	9.736000E+01	  0.091142282	3.279600E+01	  0.091142282	3.183000E+01
357	  0.091342688	-7.821000E+00	  0.091342688	9.681400E+01	  0.091342688	3.308600E+01	  0.091342688	3.198500E+01
358	  0.091543086	-7.849000E+00	  0.091543086	9.621300E+01	  0.091543086	3.338900E+01	  0.091543086	3.216900E+01
359	  0.091743484	-7.888000E+00	  0.091743484	9.567800E+01	  0.091743484	3.370100E+01	  0.091743484	3.229600E+01
360	  0.091943890	-7.917000E+00	  0.091943890	9.514000E+01	  0.091943890	3.398400E+01	  0.091943890	3.245100E+01
361	  0.092144288	-7.952000E+00	  0.092144288	9.455000E+01	  0.092144288	3.431000E+01	  0.092144288	3.260700E+01
362	  0.092344686	-7.972000E+00	  0.092344686	9.397700E+01	  0.092344686	3.459100E+01	  0.092344686	3.279200E+01
363	  0.092545092	-8.011000E+00	  0.092545092	9.342000E+01	  0.092545092	3.492000E+01	  0.092545092	3.292000E+01
364	  0.092745490	-8.040000E+00	  0.092745490	9.282400E+01	  0.092745490	3.523900E+01	  0.092745490	3.308900E+01
365	  0.092945889	-8.076000E+00	  0.092945889	9.226600E+01	  0.092945889	3.556400E+01	  0.092945889	3.322100E+01
366	  0.093146294	-8.103000E+00	  0.093146294	9.165900E+01	  0.093146294	3.588900E+01	  0.093146294	3.339500E+01
367	  0.093346693	-8.128000E+00	  0.093346693	9.108000E+01	  0.093346693	3.620000E+01	  0.093346693	3.355900E+01
368	  0.093547091	-8.159000E+00	  0.093547091	9.046500E+01	  0.093547091	3.654500E+01	  0.093547091	3.371900E+01
369	  0.093747497	-8.190000E+00	  0.093747497	8.986700E+01	  0.093747497	3.688500E+01	  0.093747497	3.387100E+01
370	  0.093947895	-8.215000E+00	  0.093947895	8.922800E+01	  0.093947895	3.723200E+01	  0.093947895	3.405300E+01
371	  0.094148301	-8.248000E+00	  0.094148301	8.864600E+01	  0.094148301	3.757800E+01	  0.094148301	3.418500E+01
372	  0.094348699	-8.268000E+00	  0.094348699	8.806300E+01	  0.094348699	3.789200E+01	  0.094348699	3.435500E+01
373	  0.094549097	-8.298000E+00	  0.094549097	8.745900E+01	  0.094549097	3.824600E+01	  0.094549097	3.450000E+01
374	  0.094749503	-8.326000E+00	  0.094749503	8.687400E+01	  0.094749503	3.859100E+01	  0.094749503	3.463900E+01
375	  0.094949901	-8.348000E+00	  0.094949901	8.629600E+01	  0.094949901	3.891600E+01	  0.094949901	3.479500E+01
376	  0.095150299	-8.376000E+00	  0.095150299	8.574800E+01	  0.095150299	3.924700E+01	  0.095150299	3.491700E+01
377	  0.095350705	-8.399000E+00	  0.095350705	8.513200E+01	  0.095350705	3.960200E+01	  0.095350705	3.507600E+01
378	  0.095551103	-8.424000E+00	  0.095551103	8.458500E+01	  0.095551103	3.993100E+01	  0.095551103	3.520100E+01
379	  0.095751502	-8.451000E+00	  0.095751502	8.408300E+01	  0.095751502	4.024300E+01	  0.095751502	3.530200E+01
380	  0.095951907	-8.472000E+00	  0.095951907	8.356200E+01	  0.095951907	4.055600E+01	  0.095951907	3.542400E+01
381	  0.096152306	-8.502000E+00	  0.096152306	8.306000E+01	  0.096152306	4.088000E+01	  0.096152306	3.550900E+01
382	  0.096352704	-8.520000E+00	  0.096352704	8.259700E+01	  0.096352704	4.116100E+01	  0.096352704	3.561500E+01
383	  0.096553110	-8.549000E+00	  0.096553110	8.213800E+01	  0.096553110	4.146600E+01	  0.096553110	3.568100E+01
384	  0.096753508	-8.573000E+00	  0.096753508	8.168600E+01	  0.096753508	4.175600E+01	  0.096753508	3.576200E+01
385	  0.096953906	-8.598000E+00	  0.096953906	8.126900E+01	  0.096953906	4.203300E+01	  0.096953906	3.582300E+01
386	  0.097154312	-8.626000E+00	  0.097154312	8.082900E+01	  0.097154312	4.233000E+01	  0.097154312	3.587900E+01
387	  0.097354710	-8.648000E+00	  0.097354710	8.041200E+01	  0.097354710	4.260100E+01	  0.097354710	3.594900E+01
388	  0.097555116	-8.677000E+00	  0.097555116	8.002900E+01	  0.097555116	4.287200E+01	  0.097555116	3.597700E+01
389	  0.097755514	-8.704000E+00	  0.097755514	7.964200E+01	  0.097755514	4.314400E+01	  0.097755514	3.601000E+01
390	  0.097955912	-8.733000E+00	  0.097955912	7.926200E+01	  0.097955912	4.341300E+01	  0.097955912	3.603600E+01
391	  0.098156318	-8.758000E+00	  0.098156318	7.891900E+01	  0.098156318	4.365600E+01	  0.098156318	3.605900E+01
392	  0.098356716	-8.785000E+00	  0.098356716	7.853800E+01	  0.098356716	4.392600E+01	  0.098356716	3.608400E+01
393	  0.098557115	-8.815000E+00	  0.098557115	7.818600E+01	  0.098557115	4.418400E+01	  0.098557115	3.609100E+01
394	  0.098757520	-8.839000E+00	  0.098757520	7.777300E+01	  0.098757520	4.446600E+01	  0.098757520	3.613400E+01
395	  0.098957919	-8.868000E+00	  0.098957919	7.741500E+01	  0.098957919	4.472900E+01	  0.098957919	3.613900E+01
396	  0.099158317	-8.893000E+00	  0.099158317	7.705800E+01	  0.099158317	4.498300E+01	  0.099158317	3.615800E+01
397	  0.099358723	-8.916000E+00	  0.099358723	7.666300E+01	  0.099358723	4.525300E+01	  0.099358723	3.619600E+01
398	  0.099559121	-8.942000E+00	  0.099559121	7.629200E+01	  0.099559121	4.551900E+01	  0.099559121	3.621000E+01
399	  0.099759519	-8.961000E+00	  0.099759519	7.592300E+01	  0.099759519	4.577000E+01	  0.099759519	3.624900E+01
400	  0.099959925	-8.994000E+00	  0.099959925	7.554200E+01	  0.099959925	4.605500E+01	  0.099959925	3.623700E+01
401	  0.100160323	-9.002000E+00	  0.100160323	7.517100E+01	  0.100160323	4.628900E+01	  0.100160323	3.631300E+01
402	  0.100360721	-9.021000E+00	  0.100360721	7.478900E+01	  0.100360721	4.655000E+01	  0.100360721	3.635200E+01
403	  0.100561127	-9.036000E+00	  0.100561127	7.438300E+01	  0.100561127	4.681900E+01	  0.100561127	3.640800E+01
404	  0.100761525	-9.055000E+00	  0.100761525	7.401200E+01	  0.100761525	4.707500E+01	  0.100761525	3.644100E+01
405	  0.100961931	-9.062000E+00	  0.100961931	7.360500E+01	  0.100961931	4.733300E+01	  0.100961931	3.652500E+01
406	  0.101162329	-9.067000E+00	  0.101162329	7.323400E+01	  0.101162329	4.756700E+01	  0.101162329	3.660800E+01
407	  0.101362728	-9.076000E+00	  0.101362728	7.284000E+01	  0.101362728	4.782300E+01	  0.101362728	3.668000E+01
408	  0.101563133	-9.079000E+00	  0.101563133	7.246700E+01	  0.101563133	4.805900E+01	  0.101563133	3.676700E+01
409	  0.101763532	-9.082000E+00	  0.101763532	7.211700E+01	  0.101763532	4.828100E+01	  0.101763532	3.684800E+01
410	  0.101963930	-9.092000E+00	  0.101963930	7.168000E+01	  0.101963930	4.857100E+01	  0.101963930	3.692300E+01
411	  0.102164328	-9.081000E+00	  0.102164328	7.128900E+01	  0.102164328	4.879700E+01	  0.102164328	3.707400E+01
412	  0.102364726	-9.086000E+00	  0.102364726	7.093500E+01	  0.102364726	4.903000E+01	  0.102364726	3.714200E+01
413	  0.102565125	-9.068000E+00	  0.102565125	7.051500E+01	  0.102565125	4.926900E+01	  0.102565125	3.732500E+01
414	  0.102765530	-9.068000E+00	  0.102765530	7.018600E+01	  0.102765530	4.948000E+01	  0.102765530	3.741100E+01
415	  0.102965929	-9.056000E+00	  0.102965929	6.981300E+01	  0.102965929	4.970200E+01	  0.102965929	3.755600E+01
416	  0.103166327	-9.049000E+00	  0.103166327	6.945800E+01	  0.103166327	4.992200E+01	  0.103166327	3.767500E+01
417	  0.103366733	-9.034000E+00	  0.103366733	6.905300E+01	  0.103366733	5.016600E+01	  0.103366733	3.784000E+01
418	  0.103567131	-9.020000E+00	  0.103567131	6.877500E+01	  0.103567131	5.032700E+01	  0.103567131	3.797000E+01
419	  0.103767529	-9.004000E+00	  0.103767529	6.837900E+01	  0.103767529	5.056700E+01	  0.103767529	3.813800E+01
420	  0.103967935	-9.003000E+00	  0.103967935	6.800700E+01	  0.103967935	5.081700E+01	  0.103967935	3.823200E+01
421	  0.104168333	-8.982000E+00	  0.104168333	6.767400E+01	  0.104168333	5.101100E+01	  0.104168333	3.840500E+01
422	  0.104368731	-8.961000E+00	  0.104368731	6.727300E+01	  0.104368731	5.125300E+01	  0.104368731	3.859700E+01
423	  0.104569137	-8.941000E+00	  0.104569137	6.691400E+01	  0.104569137	5.147000E+01	  0.104569137	3.877300E+01
424	  0.104769535	-8.934000E+00	  0.104769535	6.649500E+01	  0.104769535	5.175200E+01	  0.104769535	3.890600E+01
425	  0.104969934	-8.913000E+00	  0.104969934	6.608100E+01	  0.104969934	5.201300E+01	  0.104969934	3.909900E+01
426	  0.105170339	-8.894000E+00	  0.105170339	6.566800E+01	  0.105170339	5.227800E+01	  0.105170339	3.928500E+01
427	  0.105370738	-8.880000E+00	  0.105370738	6.526800E+01	  0.105370738	5.254600E+01	  0.105370738	3.944100E+01
428	  0.105571143	-8.865000E+00	  0.105571143	6.477400E+01	  0.105571143	5.288300E+01	  0.105571143	3.962200E+01
429	  0.105771542	-8.846000E+00	  0.105771542	6.435100E+01	  0.105771542	5.316500E+01	  0.105771542	3.981100E+01
430	  0.105971940	-8.825000E+00	  0.105971940	6.386400E+01	  0.105971940	5.349800E+01	  0.105971940	4.001800E+01
431	  0.106172346	-8.812000E+00	  0.106172346	6.335000E+01	  0.106172346	5.386700E+01	  0.106172346	4.019000E+01
432	  0.106372744	-8.792000E+00	  0.106372744	6.283200E+01	  0.106372744	5.423200E+01	  0.106372744	4.040200E+01
433	  0.106573142	-8.773000E+00	  0.106573142	6.226600E+01	  0.106573142	5.464200E+01	  0.106573142	4.061600E+01
434	  0.106773548	-8.750000E+00	  0.106773548	6.170100E+01	  0.106773548	5.505200E+01	  0.106773548	4.084500E+01
435	  0.106973946	-8.730000E+00	  0.106973946	6.113100E+01	  0.106973946	5.547600E+01	  0.106973946	4.106200E+01
436	  0.107174344	-8.704000E+00	  0.107174344	6.046900E+01	  0.107174344	5.597400E+01	  0.107174344	4.132600E+01
437	  0.107374750	-8.681000E+00	  0.107374750	5.984300E+01	  0.107374750	5.645600E+01	  0.107374750	4.156400E+01
438	  0.107575148	-8.663000E+00	  0.107575148	5.926600E+01	  0.107575148	5.691000E+01	  0.107575148	4.176600E+01
439	  0.107775547	-8.634000E+00	  0.107775547	5.859300E+01	  0.107775547	5.743900E+01	  0.107775547	4.204200E+01
440	  0.107975952	-8.618000E+00	  0.107975952	5.789800E+01	  0.107975952	5.801300E+01	  0.107975952	4.224400E+01
441	  0.108176351	-8.592000E+00	  0.108176351	5.723700E+01	  0.108176351	5.855500E+01	  0.108176351	4.249800E+01
442	  0.108376749	-8.568000E+00	  0.108376749	5.654300E+01	  0.108376749	5.913900E+01	  0.108376749	4.273800E+01
443	  0.108577155	-8.540000E+00	  0.108577155	5.580700E+01	  0.108577155	5.976800E+01	  0.108577155	4.300900E+01
444	  0.108777553	-8.525000E+00	  0.108777553	5.506000E+01	  0.108777553	6.043100E+01	  0.108777553	4.319100E+01
445	  0.108977959	-8.503000E+00	  0.108977959	5.430500E+01	  0.108977959	6.110700E+01	  0.108977959	4.341600E+01
446	  0.109178357	-8.486000E+00	  0.109178357	5.364000E+01	  0.109178357	6.171600E+01	  0.109178357	4.359300E+01
447	  0.109378755	-8.461000E+00	  0.109378755	5.288000E+01	  0.109378755	6.241900E+01	  0.109378755	4.382500E+01
448	  0.109579161	-8.445000E+00	  0.109579161	5.214900E+01	  0.109579161	6.311300E+01	  0.109579161	4.398400E+01
449	  0.109779559	-8.432000E+00	  0.109779559	5.146600E+01	  0.109779559	6.377300E+01	  0.109779559	4.412300E+01
450	  0.109979957	-8.416000E+00	  0.109979957	5.073200E+01	  0.109979957	6.449300E+01	  0.109979957	4.426800E+01
451	  0.110180363	-8.405000E+00	  0.110180363	5.009000E+01	  0.110180363	6.513400E+01	  0.110180363	4.437100E+01
452	  0.110380761	-8.395000E+00	  0.110380761	4.936600E+01	  0.110380761	6.586700E+01	  0.110380761	4.446100E+01
453	  0.110581160	-8.388000E+00	  0.110581160	4.869000E+01	  0.110581160	6.656100E+01	  0.110581160	4.451600E+01
454	  0.110781565	-8.370000E+00	  0.110781565	4.805200E+01	  0.110781565	6.722500E+01	  0.110781565	4.464200E+01
455	  0.110981964	-8.369000E+00	  0.110981964	4.738500E+01	  0.110981964	6.792700E+01	  0.110981964	4.464000E+01
456	  0.111182362	-8.363000E+00	  0.111182362	4.671100E+01	  0.111182362	6.864600E+01	  0.111182362	4.466700E+01
457	  0.111382768	-8.358000E+00	  0.111382768	4.601900E+01	  0.111382768	6.939300E+01	  0.111382768	4.466600E+01
458	  0.111583166	-8.345000E+00	  0.111583166	4.532600E+01	  0.111583166	7.015200E+01	  0.111583166	4.471500E+01
459	  0.111783572	-8.346000E+00	  0.111783572	4.464600E+01	  0.111783572	7.090000E+01	  0.111783572	4.465600E+01
460	  0.111983970	-8.345000E+00	  0.111983970	4.393100E+01	  0.111983970	7.169500E+01	  0.111983970	4.458900E+01
461	  0.112184368	-8.341000E+00	  0.112184368	4.320600E+01	  0.112184368	7.251000E+01	  0.112184368	4.452200E+01
462	  0.112384774	-8.346000E+00	  0.112384774	4.250000E+01	  0.112384774	7.330500E+01	  0.112384774	4.438600E+01
463	  0.112585172	-8.348000E+00	  0.112585172	4.172000E+01	  0.112585172	7.419300E+01	  0.112585172	4.424000E+01
464	  0.112785570	-8.343000E+00	  0.112785570	4.099200E+01	  0.112785570	7.503600E+01	  0.112785570	4.413100E+01
465	  0.112985976	-8.354000E+00	  0.112985976	4.016700E+01	  0.112985976	7.597800E+01	  0.112985976	4.386900E+01
466	  0.113186374	-8.357000E+00	  0.113186374	3.935600E+01	  0.113186374	7.691800E+01	  0.113186374	4.363900E+01
467	  0.113386773	-8.360000E+00	  0.113386773	3.853300E+01	  0.113386773	7.788100E+01	  0.113386773	4.338600E+01
468	  0.113587178	-8.363000E+00	  0.113587178	3.762800E+01	  0.113587178	7.894700E+01	  0.113587178	4.308700E+01
469	  0.113787577	-8.377000E+00	  0.113787577	3.674700E+01	  0.113787577	7.996400E+01	  0.113787577	4.267300E+01
470	  0.113987975	-8.384000E+00	  0.113987975	3.587500E+01	  0.113987975	8.098400E+01	  0.113987975	4.228200E+01
471	  0.114188381	-8.393000E+00	  0.114188381	3.491200E+01	  0.114188381	8.211500E+01	  0.114188381	4.181600E+01
472	  0.114388779	-8.397000E+00	  0.114388779	3.399100E+01	  0.114388779	8.320600E+01	  0.114388779	4.136200E+01
473	  0.114589177	-8.404000E+00	  0.114589177	3.306700E+01	  0.114589177	8.429500E+01	  0.114589177	4.085300E+01
474	  0.114789583	-8.416000E+00	  0.114789583	3.204700E+01	  0.114789583	8.547700E+01	  0.114789583	4.021100E+01
475	  0.114989981	-8.428000E+00	  0.114989981	3.106400E+01	  0.114989981	8.660800E+01	  0.114989981	3.954600E+01
476	  0.115190387	-8.436000E+00	  0.115190387	2.999900E+01	  0.115190387	8.784800E+01	  0.115190387	3.882500E+01
477	  0.115390785	-8.449000E+00	  0.115390785	2.899400E+01	  0.115390785	8.898100E+01	  0.115390785	3.804500E+01
478	  0.115591183	-8.463000E+00	  0.115591183	2.798900E+01	  0.115591183	9.009600E+01	  0.115591183	3.721500E+01
479	  0.115791589	-8.475000E+00	  0.115791589	2.694500E+01	  0.115791589	9.125600E+01	  0.115791589	3.633300E+01
480	  0.115991987	-8.493000E+00	  0.115991987	2.590300E+01	  0.115991987	9.235600E+01	  0.115991987	3.535200E+01
481	  0.116192386	-8.507000E+00	  0.116192386	2.486200E+01	  0.116192386	9.345400E+01	  0.116192386	3.435400E+01
482	  0.116392791	-8.528000E+00	  0.116392791	2.378800E+01	  0.116392791	9.451900E+01	  0.116392791	3.322700E+01
483	  0.116593190	-8.549000E+00	  0.116593190	2.275200E+01	  0.116593190	9.550400E+01	  0.116593190	3.208500E+01
484	  0.116793588	-8.563000E+00	  0.116793588	2.170600E+01	  0.116793588	9.651900E+01	  0.116793588	3.094500E+01
485	  0.116993994	-8.586000E+00	  0.116993994	2.066300E+01	  0.116993994	9.743000E+01	  0.116993994	2.969800E+01
486	  0.117194392	-8.612000E+00	  0.117194392	1.957900E+01	  0.117194392	9.831900E+01	  0.117194392	2.834800E+01
487	  0.117394790	-8.642000E+00	  0.117394790	1.854200E+01	  0.117394790	9.908800E+01	  0.117394790	2.699200E+01
488	  0.117595196	-8.679000E+00	  0.117595196	1.746300E+01	  0.117595196	9.978600E+01	  0.117595196	2.550700E+01
489	  0.117795594	-8.709000E+00	  0.117795594	1.643300E+01	  0.117795594	1.004410E+02	  0.117795594	2.409400E+01
490	  0.117995992	-8.746000E+00	  0.117995992	1.532900E+01	  0.117995992	1.010400E+02	  0.117995992	2.252300E+01
491	  0.118196398	-8.790000E+00	  0.118196398	1.422900E+01	  0.118196398	1.015120E+02	  0.118196398	2.089900E+01
492	  0.118396796	-8.834000E+00	  0.118396796	1.309300E+01	  0.118396796	1.019480E+02	  0.118396796	1.921900E+01
493	  0.118597202	-8.883000E+00	  0.118597202	1.199100E+01	  0.118597202	1.022410E+02	  0.118597202	1.754600E+01
494	  0.118797600	-8.938000E+00	  0.118797600	1.086200E+01	  0.118797600	1.024270E+02	  0.118797600	1.581500E+01
