! Anritsu VNA Master:             	Model: MS2036C/10/77
! SN:             	1601066
! /bd0/18may10/256.ns.m5.txt
! Existing Calibration Information:
! TYPE:             	Current Settings	Active Cal Settings
! TIME:             	05/10/2018 11:03:15 AM	05/10/2018 10:50:07 AM
! INTERNAL TEMP:    	50.8 C	49.0 C
! # POINTS:         	494	494
! START FREQ:       	20.000 MHz	20.000 MHz
! STOP FREQ:        	118.797 594 MHz	118.797 594 MHz
! SOURCE POWER:     	High	High
! IFBW:             	50 Hz	50 Hz
! AVG FACTOR:       	  1 	  1 
! REF PLANE 1:      	0 mm	0 mm
! REF PLANE 2:      	0 mm	0 mm
! CAL TYPE:         	Full S22	Full S22
! CAL METHOD:       	SOLT	SOLT
! CAL LINE TYPE:    	Coax	Coax
! DUT PORT 1:       	K-Conn(M)	K-Conn(M)
! DUT PORT 2:       	K-Conn(M)	K-Conn(M)
! CAL STATUS:       	OK: Accuracy High	--
! PROP-V:       	0.700
! CABLE LOSS:       	0.000 dB/m
! REF IMPEDANCE:       	50.0
! Trace Specific Parameters:	TR1	TR2	TR3	TR4
! TRACE.#.Y (GRAPH TYPE)	LOG MAG	PHASE	REAL IMPEDANCE	IMAGINARY IMPEDANCE
! TRACE.#.X 	FREQ.GHZ	FREQ.GHZ	FREQ.GHZ	FREQ.GHZ
! S-PARAMETER	S22	S22	S22	S22
! SMOOTH/APERTURE %	0	0	0	0
! WINDOW	NSL	NSL	NSL	NSL
! GATING	OFF	OFF	OFF	OFF
! FGTD	OFF	OFF	OFF	OFF
Marker Information per Trace:	TR1	TR2	TR3	TR4
!MK1	--	"MK1 TR2:  20.000 MHz,PH:-126.60°"	--	--
!MK2	--	--	"MK2 TR3:  70.100 200 MHz,Z:(16.698 ohm, -1.613 ohm)"	--
!MK3	--	--	--	--
!MK4	--	--	--	--
!MK5	--	--	--	--
!MK6	--	--	--	--
!MK7	--	--	--	--
!MK8	--	--	--	--
PNT	TR1.FREQ.GHZ	TR1.LOG MAG.dB	TR2.FREQ.GHZ	TR2.PHASE.deg	TR3.FREQ.GHZ	TR3.REAL IMPEDANCE.ohm	TR4.FREQ.GHZ	TR4.IMAGINARY IMPEDANCE.ohm
1	  0.020000000	-6.100000E-01	  0.020000000	-1.265990E+02	  0.020000000	2.201000E+00	  0.020000000	-2.510800E+01
2	  0.020200402	-6.150000E-01	  0.020200402	-1.280400E+02	  0.020200402	2.189000E+00	  0.020200402	-2.432600E+01
3	  0.020400802	-6.170000E-01	  0.020400802	-1.295100E+02	  0.020400802	2.172000E+00	  0.020400802	-2.353900E+01
4	  0.020601204	-6.240000E-01	  0.020601204	-1.310170E+02	  0.020601204	2.170000E+00	  0.020601204	-2.274100E+01
5	  0.020801604	-6.280000E-01	  0.020801604	-1.325480E+02	  0.020801604	2.155000E+00	  0.020801604	-2.194100E+01
6	  0.021002004	-6.320000E-01	  0.021002004	-1.340980E+02	  0.021002004	2.146000E+00	  0.021002004	-2.114000E+01
7	  0.021202406	-6.380000E-01	  0.021202406	-1.356420E+02	  0.021202406	2.141000E+00	  0.021202406	-2.035000E+01
8	  0.021402806	-6.410000E-01	  0.021402806	-1.371860E+02	  0.021402806	2.128000E+00	  0.021402806	-1.957000E+01
9	  0.021603208	-6.470000E-01	  0.021603208	-1.387470E+02	  0.021603208	2.125000E+00	  0.021603208	-1.879000E+01
10	  0.021803608	-6.510000E-01	  0.021803608	-1.403040E+02	  0.021803608	2.118000E+00	  0.021803608	-1.801900E+01
11	  0.022004008	-6.580000E-01	  0.022004008	-1.418990E+02	  0.022004008	2.119000E+00	  0.022004008	-1.723700E+01
12	  0.022204408	-6.660000E-01	  0.022204408	-1.435040E+02	  0.022204408	2.126000E+00	  0.022204408	-1.645800E+01
13	  0.022404809	-6.720000E-01	  0.022404809	-1.451260E+02	  0.022404809	2.123000E+00	  0.022404809	-1.567800E+01
14	  0.022605211	-6.810000E-01	  0.022605211	-1.467580E+02	  0.022605211	2.135000E+00	  0.022605211	-1.490000E+01
15	  0.022805611	-6.870000E-01	  0.022805611	-1.484090E+02	  0.022805611	2.134000E+00	  0.022805611	-1.412000E+01
16	  0.023006011	-6.910000E-01	  0.023006011	-1.500390E+02	  0.023006011	2.131000E+00	  0.023006011	-1.335600E+01
17	  0.023206413	-6.940000E-01	  0.023206413	-1.516790E+02	  0.023206413	2.126000E+00	  0.023206413	-1.259300E+01
18	  0.023406813	-7.020000E-01	  0.023406813	-1.532990E+02	  0.023406813	2.134000E+00	  0.023406813	-1.184500E+01
19	  0.023607215	-7.120000E-01	  0.023607215	-1.549330E+02	  0.023607215	2.149000E+00	  0.023607215	-1.109500E+01
20	  0.023807615	-7.240000E-01	  0.023807615	-1.565750E+02	  0.023807615	2.172000E+00	  0.023807615	-1.034600E+01
21	  0.024008015	-7.310000E-01	  0.024008015	-1.582430E+02	  0.024008015	2.181000E+00	  0.024008015	-9.591000E+00
22	  0.024208417	-7.390000E-01	  0.024208417	-1.599160E+02	  0.024208417	2.192000E+00	  0.024208417	-8.837000E+00
23	  0.024408817	-7.460000E-01	  0.024408817	-1.615810E+02	  0.024408817	2.203000E+00	  0.024408817	-8.091000E+00
24	  0.024609219	-7.540000E-01	  0.024609219	-1.632490E+02	  0.024609219	2.218000E+00	  0.024609219	-7.347000E+00
25	  0.024809619	-7.640000E-01	  0.024809619	-1.649060E+02	  0.024809619	2.238000E+00	  0.024809619	-6.611000E+00
26	  0.025010020	-7.750000E-01	  0.025010020	-1.665620E+02	  0.025010020	2.260000E+00	  0.025010020	-5.878000E+00
27	  0.025210422	-7.870000E-01	  0.025210422	-1.682140E+02	  0.025210422	2.288000E+00	  0.025210422	-5.150000E+00
28	  0.025410822	-8.000000E-01	  0.025410822	-1.698870E+02	  0.025410822	2.320000E+00	  0.025410822	-4.414000E+00
29	  0.025611224	-8.110000E-01	  0.025611224	-1.715630E+02	  0.025611224	2.346000E+00	  0.025611224	-3.679000E+00
30	  0.025811624	-8.260000E-01	  0.025811624	-1.732560E+02	  0.025811624	2.384000E+00	  0.025811624	-2.939000E+00
31	  0.026012026	-8.380000E-01	  0.026012026	-1.749510E+02	  0.026012026	2.416000E+00	  0.026012026	-2.199000E+00
32	  0.026212426	-8.530000E-01	  0.026212426	-1.766640E+02	  0.026212426	2.456000E+00	  0.026212426	-1.452000E+00
33	  0.026412826	-8.700000E-01	  0.026412826	-1.783820E+02	  0.026412826	2.503000E+00	  0.026412826	-7.040000E-01
34	  0.026613226	-8.870000E-01	  0.026613226	1.798940E+02	  0.026613226	2.550000E+00	  0.026613226	4.600000E-02
35	  0.026813626	-9.040000E-01	  0.026813626	1.781380E+02	  0.026813626	2.602000E+00	  0.026813626	8.100000E-01
36	  0.027014028	-9.240000E-01	  0.027014028	1.763880E+02	  0.027014028	2.660000E+00	  0.027014028	1.571000E+00
37	  0.027214428	-9.430000E-01	  0.027214428	1.746170E+02	  0.027214428	2.719000E+00	  0.027214428	2.343000E+00
38	  0.027414829	-9.650000E-01	  0.027414829	1.728320E+02	  0.027414829	2.786000E+00	  0.027414829	3.121000E+00
39	  0.027615231	-9.860000E-01	  0.027615231	1.710210E+02	  0.027615231	2.853000E+00	  0.027615231	3.913000E+00
40	  0.027815631	-1.008000E+00	  0.027815631	1.692020E+02	  0.027815631	2.925000E+00	  0.027815631	4.709000E+00
41	  0.028016033	-1.032000E+00	  0.028016033	1.673530E+02	  0.028016033	3.005000E+00	  0.028016033	5.520000E+00
42	  0.028216433	-1.057000E+00	  0.028216433	1.654780E+02	  0.028216433	3.088000E+00	  0.028216433	6.346000E+00
43	  0.028416833	-1.082000E+00	  0.028416833	1.636040E+02	  0.028416833	3.176000E+00	  0.028416833	7.174000E+00
44	  0.028617235	-1.106000E+00	  0.028617235	1.617210E+02	  0.028617235	3.263000E+00	  0.028617235	8.010000E+00
45	  0.028817635	-1.133000E+00	  0.028817635	1.598260E+02	  0.028817635	3.361000E+00	  0.028817635	8.855000E+00
46	  0.029018037	-1.160000E+00	  0.029018037	1.579210E+02	  0.029018037	3.461000E+00	  0.029018037	9.709000E+00
47	  0.029218437	-1.188000E+00	  0.029218437	1.560150E+02	  0.029218437	3.569000E+00	  0.029218437	1.056800E+01
48	  0.029418837	-1.216000E+00	  0.029418837	1.540780E+02	  0.029418837	3.680000E+00	  0.029418837	1.144800E+01
49	  0.029619239	-1.246000E+00	  0.029619239	1.521340E+02	  0.029619239	3.801000E+00	  0.029619239	1.233600E+01
50	  0.029819639	-1.275000E+00	  0.029819639	1.501910E+02	  0.029819639	3.923000E+00	  0.029819639	1.323100E+01
51	  0.030020041	-1.303000E+00	  0.030020041	1.482400E+02	  0.030020041	4.045000E+00	  0.030020041	1.413700E+01
52	  0.030220442	-1.332000E+00	  0.030220442	1.462960E+02	  0.030220442	4.177000E+00	  0.030220442	1.504800E+01
53	  0.030420844	-1.363000E+00	  0.030420844	1.443750E+02	  0.030420844	4.317000E+00	  0.030420844	1.595600E+01
54	  0.030621244	-1.393000E+00	  0.030621244	1.424510E+02	  0.030621244	4.462000E+00	  0.030621244	1.687400E+01
55	  0.030821642	-1.429000E+00	  0.030821642	1.405160E+02	  0.030821642	4.629000E+00	  0.030821642	1.780700E+01
56	  0.031022044	-1.462000E+00	  0.031022044	1.385730E+02	  0.031022044	4.794000E+00	  0.031022044	1.875400E+01
57	  0.031222444	-1.494000E+00	  0.031222444	1.366460E+02	  0.031222444	4.961000E+00	  0.031222444	1.970400E+01
58	  0.031422846	-1.525000E+00	  0.031422846	1.346820E+02	  0.031422846	5.135000E+00	  0.031422846	2.068500E+01
59	  0.031623244	-1.562000E+00	  0.031623244	1.327220E+02	  0.031623244	5.336000E+00	  0.031623244	2.167500E+01
60	  0.031823646	-1.596000E+00	  0.031823646	1.307820E+02	  0.031823646	5.534000E+00	  0.031823646	2.266800E+01
61	  0.032024048	-1.633000E+00	  0.032024048	1.288510E+02	  0.032024048	5.748000E+00	  0.032024048	2.367000E+01
62	  0.032224450	-1.673000E+00	  0.032224450	1.269100E+02	  0.032224450	5.985000E+00	  0.032224450	2.469100E+01
63	  0.032424849	-1.712000E+00	  0.032424849	1.249490E+02	  0.032424849	6.230000E+00	  0.032424849	2.573700E+01
64	  0.032625251	-1.750000E+00	  0.032625251	1.229810E+02	  0.032625251	6.483000E+00	  0.032625251	2.680400E+01
65	  0.032825653	-1.791000E+00	  0.032825653	1.209950E+02	  0.032825653	6.759000E+00	  0.032825653	2.789800E+01
66	  0.033026051	-1.830000E+00	  0.033026051	1.189860E+02	  0.033026051	7.046000E+00	  0.033026051	2.902400E+01
67	  0.033226453	-1.872000E+00	  0.033226453	1.170020E+02	  0.033226453	7.353000E+00	  0.033226453	3.015400E+01
68	  0.033426855	-1.916000E+00	  0.033426855	1.149880E+02	  0.033426855	7.685000E+00	  0.033426855	3.132200E+01
69	  0.033627257	-1.961000E+00	  0.033627257	1.129900E+02	  0.033627257	8.041000E+00	  0.033627257	3.250100E+01
70	  0.033827655	-2.007000E+00	  0.033827655	1.109600E+02	  0.033827655	8.420000E+00	  0.033827655	3.372300E+01
71	  0.034028057	-2.052000E+00	  0.034028057	1.089070E+02	  0.034028057	8.819000E+00	  0.034028057	3.498400E+01
72	  0.034228459	-2.103000E+00	  0.034228459	1.068530E+02	  0.034228459	9.268000E+00	  0.034228459	3.626800E+01
73	  0.034428857	-2.151000E+00	  0.034428857	1.047640E+02	  0.034428857	9.732000E+00	  0.034428857	3.760500E+01
74	  0.034629259	-2.201000E+00	  0.034629259	1.026600E+02	  0.034629259	1.023600E+01	  0.034629259	3.898100E+01
75	  0.034829661	-2.252000E+00	  0.034829661	1.005670E+02	  0.034829661	1.077300E+01	  0.034829661	4.038000E+01
76	  0.035030060	-2.305000E+00	  0.035030060	9.846100E+01	  0.035030060	1.135200E+01	  0.035030060	4.182000E+01
77	  0.035230462	-2.360000E+00	  0.035230462	9.634700E+01	  0.035230462	1.198400E+01	  0.035230462	4.329800E+01
78	  0.035430863	-2.411000E+00	  0.035430863	9.421600E+01	  0.035430863	1.264000E+01	  0.035430863	4.483000E+01
79	  0.035631265	-2.467000E+00	  0.035631265	9.209800E+01	  0.035631265	1.336300E+01	  0.035631265	4.638300E+01
80	  0.035831664	-2.521000E+00	  0.035831664	8.995800E+01	  0.035831664	1.413000E+01	  0.035831664	4.799700E+01
81	  0.036032066	-2.574000E+00	  0.036032066	8.784000E+01	  0.036032066	1.494100E+01	  0.036032066	4.963700E+01
82	  0.036232468	-2.626000E+00	  0.036232468	8.571000E+01	  0.036232468	1.580700E+01	  0.036232468	5.133300E+01
83	  0.036432866	-2.682000E+00	  0.036432866	8.360600E+01	  0.036432866	1.674800E+01	  0.036432866	5.304500E+01
84	  0.036633268	-2.736000E+00	  0.036633268	8.148900E+01	  0.036633268	1.775400E+01	  0.036633268	5.481800E+01
85	  0.036833670	-2.791000E+00	  0.036833670	7.936800E+01	  0.036833670	1.884300E+01	  0.036833670	5.664100E+01
86	  0.037034072	-2.848000E+00	  0.037034072	7.726300E+01	  0.037034072	2.001900E+01	  0.037034072	5.849100E+01
87	  0.037234470	-2.903000E+00	  0.037234470	7.516100E+01	  0.037234470	2.127400E+01	  0.037234470	6.039300E+01
88	  0.037434869	-2.958000E+00	  0.037434869	7.305000E+01	  0.037434869	2.263700E+01	  0.037434869	6.235200E+01
89	  0.037635271	-3.022000E+00	  0.037635271	7.095000E+01	  0.037635271	2.416200E+01	  0.037635271	6.432000E+01
90	  0.037835669	-3.097000E+00	  0.037835669	6.889300E+01	  0.037835669	2.586400E+01	  0.037835669	6.624100E+01
91	  0.038036071	-3.163000E+00	  0.038036071	6.693600E+01	  0.038036071	2.756700E+01	  0.038036071	6.812100E+01
92	  0.038236473	-3.220000E+00	  0.038236473	6.497700E+01	  0.038236473	2.933600E+01	  0.038236473	7.007300E+01
93	  0.038436871	-3.268000E+00	  0.038436871	6.296200E+01	  0.038436871	3.121600E+01	  0.038436871	7.217200E+01
94	  0.038637273	-3.324000E+00	  0.038637273	6.095500E+01	  0.038637273	3.331000E+01	  0.038637273	7.425700E+01
95	  0.038837675	-3.378000E+00	  0.038837675	5.894100E+01	  0.038837675	3.556700E+01	  0.038837675	7.639000E+01
96	  0.039038073	-3.427000E+00	  0.039038073	5.695200E+01	  0.039038073	3.794900E+01	  0.039038073	7.855000E+01
97	  0.039238475	-3.483000E+00	  0.039238475	5.492000E+01	  0.039238475	4.063400E+01	  0.039238475	8.074000E+01
98	  0.039438877	-3.534000E+00	  0.039438877	5.293300E+01	  0.039438877	4.345900E+01	  0.039438877	8.291000E+01
99	  0.039639279	-3.593000E+00	  0.039639279	5.090800E+01	  0.039639279	4.664500E+01	  0.039639279	8.505400E+01
100	  0.039839678	-3.646000E+00	  0.039839678	4.886800E+01	  0.039839678	5.006900E+01	  0.039839678	8.725200E+01
101	  0.040040080	-3.698000E+00	  0.040040080	4.684100E+01	  0.040040080	5.377400E+01	  0.040040080	8.938700E+01
102	  0.040240481	-3.753000E+00	  0.040240481	4.479000E+01	  0.040240481	5.786000E+01	  0.040240481	9.146400E+01
103	  0.040440880	-3.808000E+00	  0.040440880	4.276400E+01	  0.040440880	6.225400E+01	  0.040440880	9.339500E+01
104	  0.040641282	-3.858000E+00	  0.040641282	4.071700E+01	  0.040641282	6.703500E+01	  0.040641282	9.526200E+01
105	  0.040841684	-3.909000E+00	  0.040841684	3.869300E+01	  0.040841684	7.216100E+01	  0.040841684	9.691600E+01
106	  0.041042086	-3.963000E+00	  0.041042086	3.663600E+01	  0.041042086	7.781000E+01	  0.041042086	9.831300E+01
107	  0.041242484	-4.016000E+00	  0.041242484	3.458000E+01	  0.041242484	8.389900E+01	  0.041242484	9.939800E+01
108	  0.041442886	-4.068000E+00	  0.041442886	3.250400E+01	  0.041442886	9.049300E+01	  0.041442886	1.001230E+02
109	  0.041643288	-4.116000E+00	  0.041643288	3.042500E+01	  0.041643288	9.754000E+01	  0.041643288	1.004290E+02
110	  0.041843686	-4.163000E+00	  0.041843686	2.833600E+01	  0.041843686	1.050760E+02	  0.041843686	1.001790E+02
111	  0.042044088	-4.208000E+00	  0.042044088	2.627400E+01	  0.042044088	1.129310E+02	  0.042044088	9.924700E+01
112	  0.042244490	-4.254000E+00	  0.042244490	2.422000E+01	  0.042244490	1.211100E+02	  0.042244490	9.748900E+01
113	  0.042444889	-4.296000E+00	  0.042444889	2.217100E+01	  0.042444889	1.295450E+02	  0.042444889	9.490400E+01
114	  0.042645290	-4.343000E+00	  0.042645290	2.011000E+01	  0.042645290	1.381510E+02	  0.042645290	9.115400E+01
115	  0.042845692	-4.384000E+00	  0.042845692	1.808600E+01	  0.042845692	1.466130E+02	  0.042845692	8.644300E+01
116	  0.043046094	-4.425000E+00	  0.043046094	1.603700E+01	  0.043046094	1.550120E+02	  0.043046094	8.052100E+01
117	  0.043246493	-4.464000E+00	  0.043246493	1.401300E+01	  0.043246493	1.629110E+02	  0.043246493	7.346700E+01
118	  0.043446895	-4.502000E+00	  0.043446895	1.199600E+01	  0.043446895	1.701530E+02	  0.043446895	6.525800E+01
119	  0.043647297	-4.539000E+00	  0.043647297	9.991000E+00	  0.043647297	1.764990E+02	  0.043647297	5.600200E+01
120	  0.043847695	-4.580000E+00	  0.043847695	8.009000E+00	  0.043847695	1.815520E+02	  0.043847695	4.581300E+01
121	  0.044048097	-4.617000E+00	  0.044048097	6.048000E+00	  0.044048097	1.853760E+02	  0.044048097	3.506800E+01
122	  0.044248499	-4.653000E+00	  0.044248499	4.089000E+00	  0.044248499	1.878410E+02	  0.044248499	2.384900E+01
123	  0.044448901	-4.688000E+00	  0.044448901	2.150000E+00	  0.044448901	1.888340E+02	  0.044448901	1.250800E+01
124	  0.044649299	-4.725000E+00	  0.044649299	2.190000E-01	  0.044649299	1.883160E+02	  0.044649299	1.264000E+00
125	  0.044849701	-4.762000E+00	  0.044849701	-1.706000E+00	  0.044849701	1.863780E+02	  0.044849701	-9.633000E+00
126	  0.045050103	-4.801000E+00	  0.045050103	-3.602000E+00	  0.045050103	1.831790E+02	  0.045050103	-1.980000E+01
127	  0.045250501	-4.834000E+00	  0.045250501	-5.510000E+00	  0.045250501	1.790830E+02	  0.045250501	-2.936100E+01
128	  0.045450903	-4.868000E+00	  0.045450903	-7.408000E+00	  0.045450903	1.740320E+02	  0.045450903	-3.800900E+01
129	  0.045651305	-4.904000E+00	  0.045651305	-9.299000E+00	  0.045651305	1.682780E+02	  0.045651305	-4.569400E+01
130	  0.045851704	-4.941000E+00	  0.045851704	-1.118000E+01	  0.045851704	1.619930E+02	  0.045851704	-5.233900E+01
131	  0.046052102	-4.976000E+00	  0.046052102	-1.304300E+01	  0.046052102	1.555000E+02	  0.046052102	-5.802700E+01
132	  0.046252504	-5.013000E+00	  0.046252504	-1.488900E+01	  0.046252504	1.488450E+02	  0.046252504	-6.271800E+01
133	  0.046452906	-5.051000E+00	  0.046452906	-1.675200E+01	  0.046452906	1.420890E+02	  0.046452906	-6.659500E+01
134	  0.046653304	-5.092000E+00	  0.046653304	-1.861700E+01	  0.046653304	1.353590E+02	  0.046653304	-6.964200E+01
135	  0.046853706	-5.133000E+00	  0.046853706	-2.046800E+01	  0.046853706	1.288530E+02	  0.046853706	-7.198300E+01
136	  0.047054108	-5.169000E+00	  0.047054108	-2.233800E+01	  0.047054108	1.225370E+02	  0.047054108	-7.381800E+01
137	  0.047254506	-5.207000E+00	  0.047254506	-2.419000E+01	  0.047254506	1.165080E+02	  0.047254506	-7.505200E+01
138	  0.047454908	-5.242000E+00	  0.047454908	-2.604700E+01	  0.047454908	1.107580E+02	  0.047454908	-7.588000E+01
139	  0.047655310	-5.278000E+00	  0.047655310	-2.786500E+01	  0.047655310	1.054000E+02	  0.047655310	-7.628500E+01
140	  0.047855709	-5.313000E+00	  0.047855709	-2.966100E+01	  0.047855709	1.003840E+02	  0.047855709	-7.634700E+01
141	  0.048056111	-5.346000E+00	  0.048056111	-3.147200E+01	  0.048056111	9.561000E+01	  0.048056111	-7.618500E+01
142	  0.048256513	-5.380000E+00	  0.048256513	-3.325900E+01	  0.048256513	9.116700E+01	  0.048256513	-7.577000E+01
143	  0.048456915	-5.412000E+00	  0.048456915	-3.506300E+01	  0.048456915	8.694300E+01	  0.048456915	-7.519400E+01
144	  0.048657313	-5.440000E+00	  0.048657313	-3.688200E+01	  0.048657313	8.293700E+01	  0.048657313	-7.450000E+01
145	  0.048857715	-5.472000E+00	  0.048857715	-3.866300E+01	  0.048857715	7.925400E+01	  0.048857715	-7.362100E+01
146	  0.049058117	-5.493000E+00	  0.049058117	-4.043300E+01	  0.049058117	7.579400E+01	  0.049058117	-7.276800E+01
147	  0.049258515	-5.522000E+00	  0.049258515	-4.217400E+01	  0.049258515	7.260900E+01	  0.049258515	-7.174400E+01
148	  0.049458917	-5.544000E+00	  0.049458917	-4.391300E+01	  0.049458917	6.959800E+01	  0.049458917	-7.072400E+01
149	  0.049659319	-5.568000E+00	  0.049659319	-4.563000E+01	  0.049659319	6.680600E+01	  0.049659319	-6.962700E+01
150	  0.049859721	-5.595000E+00	  0.049859721	-4.732400E+01	  0.049859721	6.422500E+01	  0.049859721	-6.846100E+01
151	  0.050060119	-5.614000E+00	  0.050060119	-4.902500E+01	  0.050060119	6.175200E+01	  0.050060119	-6.734700E+01
152	  0.050260521	-5.636000E+00	  0.050260521	-5.071500E+01	  0.050260521	5.945100E+01	  0.050260521	-6.617000E+01
153	  0.050460923	-5.653000E+00	  0.050460923	-5.239500E+01	  0.050460923	5.727300E+01	  0.050460923	-6.502200E+01
154	  0.050661322	-5.669000E+00	  0.050661322	-5.405100E+01	  0.050661322	5.524100E+01	  0.050661322	-6.388100E+01
155	  0.050861724	-5.687000E+00	  0.050861724	-5.569400E+01	  0.050861724	5.334300E+01	  0.050861724	-6.271900E+01
156	  0.051062126	-5.708000E+00	  0.051062126	-5.731700E+01	  0.051062126	5.158500E+01	  0.051062126	-6.153800E+01
157	  0.051262524	-5.725000E+00	  0.051262524	-5.892900E+01	  0.051262524	4.991600E+01	  0.051262524	-6.039000E+01
158	  0.051462926	-5.745000E+00	  0.051462926	-6.052800E+01	  0.051462926	4.836100E+01	  0.051462926	-5.923100E+01
159	  0.051663328	-5.761000E+00	  0.051663328	-6.210100E+01	  0.051663328	4.689200E+01	  0.051663328	-5.812300E+01
160	  0.051863730	-5.778000E+00	  0.051863730	-6.369200E+01	  0.051863730	4.548900E+01	  0.051863730	-5.699600E+01
161	  0.052064128	-5.790000E+00	  0.052064128	-6.526200E+01	  0.052064128	4.415200E+01	  0.052064128	-5.591900E+01
162	  0.052264530	-5.807000E+00	  0.052264530	-6.683300E+01	  0.052264530	4.290200E+01	  0.052264530	-5.482000E+01
163	  0.052464932	-5.820000E+00	  0.052464932	-6.838900E+01	  0.052464932	4.171300E+01	  0.052464932	-5.375300E+01
164	  0.052665330	-5.839000E+00	  0.052665330	-6.989600E+01	  0.052665330	4.063600E+01	  0.052665330	-5.270400E+01
165	  0.052865732	-5.852000E+00	  0.052865732	-7.145800E+01	  0.052865732	3.955100E+01	  0.052865732	-5.165500E+01
166	  0.053066134	-5.868000E+00	  0.053066134	-7.298000E+01	  0.053066134	3.855600E+01	  0.053066134	-5.062700E+01
167	  0.053266536	-5.884000E+00	  0.053266536	-7.448700E+01	  0.053266536	3.761900E+01	  0.053266536	-4.961700E+01
168	  0.053466935	-5.898000E+00	  0.053466935	-7.600600E+01	  0.053466935	3.670500E+01	  0.053466935	-4.862600E+01
169	  0.053667337	-5.911000E+00	  0.053667337	-7.750300E+01	  0.053667337	3.584500E+01	  0.053667337	-4.765800E+01
170	  0.053867739	-5.920000E+00	  0.053867739	-7.900300E+01	  0.053867739	3.500800E+01	  0.053867739	-4.671300E+01
171	  0.054068137	-5.932000E+00	  0.054068137	-8.049200E+01	  0.054068137	3.422300E+01	  0.054068137	-4.577500E+01
172	  0.054268539	-5.942000E+00	  0.054268539	-8.196800E+01	  0.054268539	3.347100E+01	  0.054268539	-4.486300E+01
173	  0.054468941	-5.950000E+00	  0.054468941	-8.341900E+01	  0.054468941	3.275800E+01	  0.054468941	-4.397900E+01
174	  0.054669335	-5.963000E+00	  0.054669335	-8.487700E+01	  0.054669335	3.208800E+01	  0.054669335	-4.308800E+01
175	  0.054869737	-5.975000E+00	  0.054869737	-8.630300E+01	  0.054869737	3.146100E+01	  0.054869737	-4.222400E+01
176	  0.055070139	-5.982000E+00	  0.055070139	-8.775600E+01	  0.055070139	3.082600E+01	  0.055070139	-4.137400E+01
177	  0.055270538	-5.991000E+00	  0.055270538	-8.914700E+01	  0.055270538	3.025200E+01	  0.055270538	-4.056000E+01
178	  0.055470940	-5.998000E+00	  0.055470940	-9.054600E+01	  0.055470940	2.968900E+01	  0.055470940	-3.975600E+01
179	  0.055671342	-6.001000E+00	  0.055671342	-9.198700E+01	  0.055671342	2.911900E+01	  0.055671342	-3.894700E+01
180	  0.055871744	-6.007000E+00	  0.055871744	-9.336800E+01	  0.055871744	2.860700E+01	  0.055871744	-3.817000E+01
181	  0.056072142	-6.015000E+00	  0.056072142	-9.475200E+01	  0.056072142	2.811500E+01	  0.056072142	-3.739800E+01
182	  0.056272544	-6.018000E+00	  0.056272544	-9.613400E+01	  0.056272544	2.763000E+01	  0.056272544	-3.664300E+01
183	  0.056472946	-6.025000E+00	  0.056472946	-9.746400E+01	  0.056472946	2.719300E+01	  0.056472946	-3.591500E+01
184	  0.056673344	-6.032000E+00	  0.056673344	-9.879200E+01	  0.056673344	2.677100E+01	  0.056673344	-3.519700E+01
185	  0.056873746	-6.035000E+00	  0.056873746	-1.001250E+02	  0.056873746	2.635200E+01	  0.056873746	-3.449000E+01
186	  0.057074148	-6.041000E+00	  0.057074148	-1.014450E+02	  0.057074148	2.596100E+01	  0.057074148	-3.379100E+01
187	  0.057274550	-6.046000E+00	  0.057274550	-1.027530E+02	  0.057274550	2.558400E+01	  0.057274550	-3.310700E+01
188	  0.057474948	-6.052000E+00	  0.057474948	-1.041110E+02	  0.057474948	2.521000E+01	  0.057474948	-3.240100E+01
189	  0.057675350	-6.058000E+00	  0.057675350	-1.053880E+02	  0.057675350	2.487200E+01	  0.057675350	-3.174400E+01
190	  0.057875752	-6.064000E+00	  0.057875752	-1.067080E+02	  0.057875752	2.453400E+01	  0.057875752	-3.107000E+01
191	  0.058076151	-6.069000E+00	  0.058076151	-1.079820E+02	  0.058076151	2.421800E+01	  0.058076151	-3.042700E+01
192	  0.058276553	-6.072000E+00	  0.058276553	-1.092710E+02	  0.058276553	2.390300E+01	  0.058276553	-2.978500E+01
193	  0.058476955	-6.077000E+00	  0.058476955	-1.105320E+02	  0.058476955	2.361100E+01	  0.058476955	-2.916000E+01
194	  0.058677353	-6.083000E+00	  0.058677353	-1.118380E+02	  0.058677353	2.332000E+01	  0.058677353	-2.851700E+01
195	  0.058877755	-6.088000E+00	  0.058877755	-1.131140E+02	  0.058877755	2.304600E+01	  0.058877755	-2.789500E+01
196	  0.059078157	-6.089000E+00	  0.059078157	-1.143950E+02	  0.059078157	2.276500E+01	  0.059078157	-2.728300E+01
197	  0.059278559	-6.094000E+00	  0.059278559	-1.156550E+02	  0.059278559	2.251300E+01	  0.059278559	-2.667800E+01
198	  0.059478957	-6.098000E+00	  0.059478957	-1.169480E+02	  0.059478957	2.225900E+01	  0.059478957	-2.606400E+01
199	  0.059679359	-6.102000E+00	  0.059679359	-1.182030E+02	  0.059679359	2.202100E+01	  0.059679359	-2.547400E+01
200	  0.059879761	-6.104000E+00	  0.059879761	-1.194560E+02	  0.059879761	2.178600E+01	  0.059879761	-2.489000E+01
201	  0.060080159	-6.107000E+00	  0.060080159	-1.206890E+02	  0.060080159	2.156600E+01	  0.060080159	-2.432000E+01
202	  0.060280561	-6.108000E+00	  0.060280561	-1.219460E+02	  0.060280561	2.134300E+01	  0.060280561	-2.374400E+01
203	  0.060480963	-6.112000E+00	  0.060480963	-1.231900E+02	  0.060480963	2.113700E+01	  0.060480963	-2.317600E+01
204	  0.060681365	-6.108000E+00	  0.060681365	-1.244060E+02	  0.060681365	2.092200E+01	  0.060681365	-2.263100E+01
205	  0.060881764	-6.107000E+00	  0.060881764	-1.256640E+02	  0.060881764	2.071400E+01	  0.060881764	-2.207000E+01
206	  0.061082166	-6.107000E+00	  0.061082166	-1.268800E+02	  0.061082166	2.052200E+01	  0.061082166	-2.152900E+01
207	  0.061282568	-6.104000E+00	  0.061282568	-1.281060E+02	  0.061282568	2.032800E+01	  0.061282568	-2.098900E+01
208	  0.061482966	-6.099000E+00	  0.061482966	-1.292900E+02	  0.061482966	2.014000E+01	  0.061482966	-2.047300E+01
209	  0.061683368	-6.097000E+00	  0.061683368	-1.304970E+02	  0.061683368	1.996600E+01	  0.061683368	-1.994700E+01
210	  0.061883770	-6.093000E+00	  0.061883770	-1.316540E+02	  0.061883770	1.979600E+01	  0.061883770	-1.944700E+01
211	  0.062084168	-6.090000E+00	  0.062084168	-1.328180E+02	  0.062084168	1.963300E+01	  0.062084168	-1.894500E+01
212	  0.062284570	-6.082000E+00	  0.062284570	-1.339970E+02	  0.062284570	1.946000E+01	  0.062284570	-1.844500E+01
213	  0.062484972	-6.074000E+00	  0.062484972	-1.351070E+02	  0.062484972	1.930000E+01	  0.062484972	-1.797500E+01
214	  0.062685370	-6.073000E+00	  0.062685370	-1.362840E+02	  0.062685370	1.915600E+01	  0.062685370	-1.747500E+01
215	  0.062885776	-6.069000E+00	  0.062885776	-1.373970E+02	  0.062885776	1.901900E+01	  0.062885776	-1.700400E+01
216	  0.063086174	-6.065000E+00	  0.063086174	-1.384940E+02	  0.063086174	1.888400E+01	  0.063086174	-1.654400E+01
217	  0.063286573	-6.063000E+00	  0.063286573	-1.396180E+02	  0.063286573	1.876000E+01	  0.063286573	-1.607200E+01
218	  0.063486971	-6.059000E+00	  0.063486971	-1.407020E+02	  0.063486971	1.863700E+01	  0.063486971	-1.562000E+01
219	  0.063687377	-6.056000E+00	  0.063687377	-1.417680E+02	  0.063687377	1.852100E+01	  0.063687377	-1.517700E+01
220	  0.063887775	-6.049000E+00	  0.063887775	-1.428950E+02	  0.063887775	1.839400E+01	  0.063887775	-1.471300E+01
221	  0.064088173	-6.050000E+00	  0.064088173	-1.439840E+02	  0.064088173	1.829500E+01	  0.064088173	-1.426100E+01
222	  0.064288579	-6.053000E+00	  0.064288579	-1.450700E+02	  0.064288579	1.820600E+01	  0.064288579	-1.381200E+01
223	  0.064488977	-6.054000E+00	  0.064488977	-1.461310E+02	  0.064488977	1.811600E+01	  0.064488977	-1.337500E+01
224	  0.064689375	-6.055000E+00	  0.064689375	-1.472260E+02	  0.064689375	1.802900E+01	  0.064689375	-1.292600E+01
225	  0.064889781	-6.055000E+00	  0.064889781	-1.483080E+02	  0.064889781	1.794200E+01	  0.064889781	-1.248500E+01
226	  0.065090179	-6.055000E+00	  0.065090179	-1.493800E+02	  0.065090179	1.786100E+01	  0.065090179	-1.204900E+01
227	  0.065290578	-6.060000E+00	  0.065290578	-1.504620E+02	  0.065290578	1.779400E+01	  0.065290578	-1.160800E+01
228	  0.065490983	-6.060000E+00	  0.065490983	-1.515390E+02	  0.065490983	1.771900E+01	  0.065490983	-1.117300E+01
229	  0.065691382	-6.065000E+00	  0.065691382	-1.526390E+02	  0.065691382	1.765700E+01	  0.065691382	-1.072700E+01
230	  0.065891780	-6.066000E+00	  0.065891780	-1.537300E+02	  0.065891780	1.759000E+01	  0.065891780	-1.028900E+01
231	  0.066092186	-6.069000E+00	  0.066092186	-1.547970E+02	  0.066092186	1.753100E+01	  0.066092186	-9.861000E+00
232	  0.066292584	-6.070000E+00	  0.066292584	-1.558990E+02	  0.066292584	1.747000E+01	  0.066292584	-9.421000E+00
233	  0.066492982	-6.070000E+00	  0.066492982	-1.570060E+02	  0.066492982	1.740600E+01	  0.066492982	-8.980000E+00
234	  0.066693388	-6.073000E+00	  0.066693388	-1.581020E+02	  0.066693388	1.735700E+01	  0.066693388	-8.544000E+00
235	  0.066893786	-6.075000E+00	  0.066893786	-1.591700E+02	  0.066893786	1.730900E+01	  0.066893786	-8.120000E+00
236	  0.067094192	-6.073000E+00	  0.067094192	-1.602650E+02	  0.067094192	1.724900E+01	  0.067094192	-7.688000E+00
237	  0.067294590	-6.071000E+00	  0.067294590	-1.613420E+02	  0.067294590	1.719800E+01	  0.067294590	-7.264000E+00
238	  0.067494988	-6.069000E+00	  0.067494988	-1.624400E+02	  0.067494988	1.714500E+01	  0.067494988	-6.833000E+00
239	  0.067695394	-6.066000E+00	  0.067695394	-1.635010E+02	  0.067695394	1.709500E+01	  0.067695394	-6.417000E+00
240	  0.067895792	-6.066000E+00	  0.067895792	-1.645820E+02	  0.067895792	1.705500E+01	  0.067895792	-5.993000E+00
241	  0.068096191	-6.065000E+00	  0.068096191	-1.656390E+02	  0.068096191	1.701600E+01	  0.068096191	-5.579000E+00
242	  0.068296596	-6.056000E+00	  0.068296596	-1.667020E+02	  0.068296596	1.696000E+01	  0.068296596	-5.165000E+00
243	  0.068496995	-6.057000E+00	  0.068496995	-1.677710E+02	  0.068496995	1.693100E+01	  0.068496995	-4.747000E+00
244	  0.068697393	-6.054000E+00	  0.068697393	-1.688100E+02	  0.068697393	1.689600E+01	  0.068697393	-4.343000E+00
245	  0.068897791	-6.044000E+00	  0.068897791	-1.698320E+02	  0.068897791	1.684400E+01	  0.068897791	-3.946000E+00
246	  0.069098189	-6.043000E+00	  0.069098189	-1.708460E+02	  0.069098189	1.682000E+01	  0.069098189	-3.552000E+00
247	  0.069298595	-6.037000E+00	  0.069298595	-1.718670E+02	  0.069298595	1.678400E+01	  0.069298595	-3.155000E+00
248	  0.069498993	-6.034000E+00	  0.069498993	-1.729190E+02	  0.069498993	1.675800E+01	  0.069498993	-2.747000E+00
249	  0.069699399	-6.034000E+00	  0.069699399	-1.738890E+02	  0.069699399	1.674300E+01	  0.069699399	-2.370000E+00
250	  0.069899797	-6.031000E+00	  0.069899797	-1.748680E+02	  0.069899797	1.672400E+01	  0.069899797	-1.990000E+00
251	  0.070100196	-6.025000E+00	  0.070100196	-1.758410E+02	  0.070100196	1.669800E+01	  0.070100196	-1.612000E+00
252	  0.070300601	-6.029000E+00	  0.070300601	-1.768230E+02	  0.070300601	1.670100E+01	  0.070300601	-1.231000E+00
253	  0.070501000	-6.024000E+00	  0.070501000	-1.777910E+02	  0.070501000	1.668200E+01	  0.070501000	-8.560000E-01
254	  0.070701398	-6.025000E+00	  0.070701398	-1.787620E+02	  0.070701398	1.668000E+01	  0.070701398	-4.790000E-01
255	  0.070901804	-6.027000E+00	  0.070901804	-1.797300E+02	  0.070901804	1.668300E+01	  0.070901804	-1.040000E-01
256	  0.071102202	-6.031000E+00	  0.071102202	1.793030E+02	  0.071102202	1.669400E+01	  0.071102202	2.700000E-01
257	  0.071302600	-6.033000E+00	  0.071302600	1.783250E+02	  0.071302600	1.670200E+01	  0.071302600	6.490000E-01
258	  0.071503006	-6.037000E+00	  0.071503006	1.773570E+02	  0.071503006	1.671700E+01	  0.071503006	1.024000E+00
259	  0.071703404	-6.045000E+00	  0.071703404	1.764120E+02	  0.071703404	1.674400E+01	  0.071703404	1.390000E+00
260	  0.071903802	-6.051000E+00	  0.071903802	1.754180E+02	  0.071903802	1.676900E+01	  0.071903802	1.775000E+00
261	  0.072104208	-6.055000E+00	  0.072104208	1.744520E+02	  0.072104208	1.679200E+01	  0.072104208	2.149000E+00
262	  0.072304606	-6.062000E+00	  0.072304606	1.734730E+02	  0.072304606	1.682100E+01	  0.072304606	2.529000E+00
263	  0.072505005	-6.071000E+00	  0.072505005	1.725140E+02	  0.072505005	1.685900E+01	  0.072505005	2.900000E+00
264	  0.072705410	-6.077000E+00	  0.072705410	1.715240E+02	  0.072705410	1.689400E+01	  0.072705410	3.284000E+00
265	  0.072905809	-6.082000E+00	  0.072905809	1.705370E+02	  0.072905809	1.692600E+01	  0.072905809	3.666000E+00
266	  0.073106214	-6.093000E+00	  0.073106214	1.695470E+02	  0.073106214	1.697800E+01	  0.073106214	4.049000E+00
267	  0.073306613	-6.100000E+00	  0.073306613	1.685730E+02	  0.073306613	1.702000E+01	  0.073306613	4.427000E+00
268	  0.073507011	-6.111000E+00	  0.073507011	1.675800E+02	  0.073507011	1.707500E+01	  0.073507011	4.812000E+00
269	  0.073707417	-6.118000E+00	  0.073707417	1.665950E+02	  0.073707417	1.712400E+01	  0.073707417	5.194000E+00
270	  0.073907815	-6.122000E+00	  0.073907815	1.656140E+02	  0.073907815	1.716300E+01	  0.073907815	5.576000E+00
271	  0.074108213	-6.128000E+00	  0.074108213	1.646240E+02	  0.074108213	1.721300E+01	  0.074108213	5.961000E+00
272	  0.074308619	-6.137000E+00	  0.074308619	1.636510E+02	  0.074308619	1.727400E+01	  0.074308619	6.340000E+00
273	  0.074509017	-6.139000E+00	  0.074509017	1.626770E+02	  0.074509017	1.731700E+01	  0.074509017	6.721000E+00
274	  0.074709415	-6.147000E+00	  0.074709415	1.617160E+02	  0.074709415	1.737700E+01	  0.074709415	7.095000E+00
275	  0.074909821	-6.153000E+00	  0.074909821	1.607380E+02	  0.074909821	1.743600E+01	  0.074909821	7.478000E+00
276	  0.075110219	-6.162000E+00	  0.075110219	1.597860E+02	  0.075110219	1.750400E+01	  0.075110219	7.849000E+00
277	  0.075310618	-6.165000E+00	  0.075310618	1.588660E+02	  0.075310618	1.755700E+01	  0.075310618	8.211000E+00
278	  0.075511023	-6.171000E+00	  0.075511023	1.579570E+02	  0.075511023	1.762000E+01	  0.075511023	8.567000E+00
279	  0.075711422	-6.176000E+00	  0.075711422	1.570580E+02	  0.075711422	1.768200E+01	  0.075711422	8.921000E+00
280	  0.075911827	-6.182000E+00	  0.075911827	1.561020E+02	  0.075911827	1.775100E+01	  0.075911827	9.297000E+00
281	  0.076112226	-6.191000E+00	  0.076112226	1.552080E+02	  0.076112226	1.782900E+01	  0.076112226	9.648000E+00
282	  0.076312624	-6.199000E+00	  0.076312624	1.542900E+02	  0.076312624	1.790400E+01	  0.076312624	1.001000E+01
283	  0.076513030	-6.206000E+00	  0.076513030	1.534000E+02	  0.076513030	1.798000E+01	  0.076513030	1.036200E+01
284	  0.076713428	-6.216000E+00	  0.076713428	1.525000E+02	  0.076713428	1.806500E+01	  0.076713428	1.071700E+01
285	  0.076913826	-6.229000E+00	  0.076913826	1.516340E+02	  0.076913826	1.815900E+01	  0.076913826	1.105700E+01
286	  0.077114232	-6.239000E+00	  0.077114232	1.507560E+02	  0.077114232	1.824900E+01	  0.077114232	1.140300E+01
287	  0.077314630	-6.252000E+00	  0.077314630	1.499260E+02	  0.077314630	1.834600E+01	  0.077314630	1.173000E+01
288	  0.077515028	-6.268000E+00	  0.077515028	1.490400E+02	  0.077515028	1.845400E+01	  0.077515028	1.207900E+01
289	  0.077715434	-6.280000E+00	  0.077715434	1.481810E+02	  0.077715434	1.855400E+01	  0.077715434	1.241800E+01
290	  0.077915832	-6.294000E+00	  0.077915832	1.473140E+02	  0.077915832	1.866300E+01	  0.077915832	1.276000E+01
291	  0.078116231	-6.314000E+00	  0.078116231	1.464690E+02	  0.078116231	1.878600E+01	  0.078116231	1.309100E+01
292	  0.078316636	-6.329000E+00	  0.078316636	1.455760E+02	  0.078316636	1.890600E+01	  0.078316636	1.344400E+01
293	  0.078517035	-6.347000E+00	  0.078517035	1.447110E+02	  0.078517035	1.903100E+01	  0.078517035	1.378500E+01
294	  0.078717433	-6.370000E+00	  0.078717433	1.438560E+02	  0.078717433	1.917400E+01	  0.078717433	1.411800E+01
295	  0.078917839	-6.387000E+00	  0.078917839	1.429850E+02	  0.078917839	1.930100E+01	  0.078917839	1.446200E+01
296	  0.079118237	-6.404000E+00	  0.079118237	1.421390E+02	  0.079118237	1.943200E+01	  0.079118237	1.479600E+01
297	  0.079318643	-6.429000E+00	  0.079318643	1.412750E+02	  0.079318643	1.958800E+01	  0.079318643	1.513300E+01
298	  0.079519041	-6.444000E+00	  0.079519041	1.403980E+02	  0.079519041	1.972100E+01	  0.079519041	1.548200E+01
299	  0.079719439	-6.464000E+00	  0.079719439	1.395300E+02	  0.079719439	1.986900E+01	  0.079719439	1.582400E+01
300	  0.079919845	-6.486000E+00	  0.079919845	1.386350E+02	  0.079919845	2.002800E+01	  0.079919845	1.617600E+01
301	  0.080120243	-6.504000E+00	  0.080120243	1.377680E+02	  0.080120243	2.017700E+01	  0.080120243	1.652000E+01
302	  0.080320641	-6.519000E+00	  0.080320641	1.368850E+02	  0.080320641	2.032200E+01	  0.080320641	1.687400E+01
303	  0.080521047	-6.539000E+00	  0.080521047	1.360480E+02	  0.080521047	2.047600E+01	  0.080521047	1.720500E+01
304	  0.080721445	-6.555000E+00	  0.080721445	1.351950E+02	  0.080721445	2.062700E+01	  0.080721445	1.754600E+01
305	  0.080921844	-6.576000E+00	  0.080921844	1.343430E+02	  0.080921844	2.079300E+01	  0.080921844	1.788300E+01
306	  0.081122249	-6.594000E+00	  0.081122249	1.335210E+02	  0.081122249	2.095200E+01	  0.081122249	1.821000E+01
307	  0.081322648	-6.606000E+00	  0.081322648	1.326540E+02	  0.081322648	2.110300E+01	  0.081322648	1.856100E+01
308	  0.081523046	-6.624000E+00	  0.081523046	1.318390E+02	  0.081523046	2.126400E+01	  0.081523046	1.888700E+01
309	  0.081723452	-6.635000E+00	  0.081723452	1.309940E+02	  0.081723452	2.141400E+01	  0.081723452	1.923200E+01
310	  0.081923850	-6.648000E+00	  0.081923850	1.301910E+02	  0.081923850	2.156900E+01	  0.081923850	1.955700E+01
311	  0.082124248	-6.666000E+00	  0.082124248	1.293880E+02	  0.082124248	2.173600E+01	  0.082124248	1.988000E+01
312	  0.082324654	-6.679000E+00	  0.082324654	1.285850E+02	  0.082324654	2.189800E+01	  0.082324654	2.020600E+01
313	  0.082525052	-6.696000E+00	  0.082525052	1.278370E+02	  0.082525052	2.206000E+01	  0.082525052	2.050600E+01
314	  0.082725458	-6.714000E+00	  0.082725458	1.271030E+02	  0.082725458	2.222800E+01	  0.082725458	2.079900E+01
315	  0.082925856	-6.733000E+00	  0.082925856	1.263410E+02	  0.082925856	2.240600E+01	  0.082925856	2.110300E+01
316	  0.083126254	-6.751000E+00	  0.083126254	1.255520E+02	  0.083126254	2.258800E+01	  0.083126254	2.142000E+01
317	  0.083326660	-6.769000E+00	  0.083326660	1.248110E+02	  0.083326660	2.276500E+01	  0.083326660	2.171700E+01
318	  0.083527058	-6.786000E+00	  0.083527058	1.240670E+02	  0.083527058	2.294300E+01	  0.083527058	2.201700E+01
319	  0.083727457	-6.813000E+00	  0.083727457	1.233240E+02	  0.083727457	2.315200E+01	  0.083727457	2.230400E+01
320	  0.083927862	-6.829000E+00	  0.083927862	1.225810E+02	  0.083927862	2.333400E+01	  0.083927862	2.260300E+01
321	  0.084128261	-6.853000E+00	  0.084128261	1.218540E+02	  0.084128261	2.353800E+01	  0.084128261	2.288700E+01
322	  0.084328659	-6.880000E+00	  0.084328659	1.211490E+02	  0.084328659	2.374800E+01	  0.084328659	2.315800E+01
323	  0.084529065	-6.905000E+00	  0.084529065	1.203950E+02	  0.084529065	2.396700E+01	  0.084529065	2.345100E+01
324	  0.084729463	-6.930000E+00	  0.084729463	1.196740E+02	  0.084729463	2.417800E+01	  0.084729463	2.373100E+01
325	  0.084929854	-6.959000E+00	  0.084929854	1.189250E+02	  0.084929854	2.441400E+01	  0.084929854	2.401500E+01
326	  0.085130259	-6.987000E+00	  0.085130259	1.181740E+02	  0.085130259	2.464900E+01	  0.085130259	2.430300E+01
327	  0.085330658	-7.013000E+00	  0.085330658	1.174120E+02	  0.085330658	2.488500E+01	  0.085330658	2.459700E+01
328	  0.085531056	-7.041000E+00	  0.085531056	1.166610E+02	  0.085531056	2.512700E+01	  0.085531056	2.488300E+01
329	  0.085731462	-7.067000E+00	  0.085731462	1.158920E+02	  0.085731462	2.537100E+01	  0.085731462	2.518000E+01
330	  0.085931860	-7.096000E+00	  0.085931860	1.151440E+02	  0.085931860	2.562400E+01	  0.085931860	2.546100E+01
331	  0.086132258	-7.129000E+00	  0.086132258	1.144090E+02	  0.086132258	2.588800E+01	  0.086132258	2.573000E+01
332	  0.086332664	-7.154000E+00	  0.086332664	1.136300E+02	  0.086332664	2.614200E+01	  0.086332664	2.603100E+01
333	  0.086533062	-7.182000E+00	  0.086533062	1.128400E+02	  0.086533062	2.641300E+01	  0.086533062	2.633000E+01
334	  0.086733460	-7.212000E+00	  0.086733460	1.120790E+02	  0.086733460	2.668500E+01	  0.086733460	2.661300E+01
335	  0.086933866	-7.237000E+00	  0.086933866	1.112770E+02	  0.086933866	2.695800E+01	  0.086933866	2.692200E+01
336	  0.087134264	-7.268000E+00	  0.087134264	1.105360E+02	  0.087134264	2.723600E+01	  0.087134264	2.719300E+01
337	  0.087334670	-7.292000E+00	  0.087334670	1.097620E+02	  0.087334670	2.750900E+01	  0.087334670	2.748800E+01
338	  0.087535068	-7.319000E+00	  0.087535068	1.090080E+02	  0.087535068	2.778500E+01	  0.087535068	2.777100E+01
339	  0.087735467	-7.346000E+00	  0.087735467	1.082430E+02	  0.087735467	2.807300E+01	  0.087735467	2.805500E+01
340	  0.087935872	-7.375000E+00	  0.087935872	1.075140E+02	  0.087935872	2.835900E+01	  0.087935872	2.831900E+01
341	  0.088136271	-7.401000E+00	  0.088136271	1.067400E+02	  0.088136271	2.865300E+01	  0.088136271	2.860800E+01
342	  0.088336669	-7.425000E+00	  0.088336669	1.060450E+02	  0.088336669	2.892100E+01	  0.088336669	2.886700E+01
343	  0.088537075	-7.446000E+00	  0.088537075	1.053180E+02	  0.088537075	2.919500E+01	  0.088537075	2.914300E+01
344	  0.088737473	-7.472000E+00	  0.088737473	1.046040E+02	  0.088737473	2.948600E+01	  0.088737473	2.940100E+01
345	  0.088937871	-7.498000E+00	  0.088937871	1.039400E+02	  0.088937871	2.976200E+01	  0.088937871	2.963800E+01
346	  0.089138277	-7.524000E+00	  0.089138277	1.033250E+02	  0.089138277	3.002900E+01	  0.089138277	2.985200E+01
347	  0.089338675	-7.548000E+00	  0.089338675	1.026680E+02	  0.089338675	3.030400E+01	  0.089338675	3.008800E+01
348	  0.089539073	-7.579000E+00	  0.089539073	1.020970E+02	  0.089539073	3.057400E+01	  0.089539073	3.027100E+01
349	  0.089739479	-7.601000E+00	  0.089739479	1.014560E+02	  0.089739479	3.084800E+01	  0.089739479	3.049900E+01
350	  0.089939877	-7.636000E+00	  0.089939877	1.008860E+02	  0.089939877	3.113500E+01	  0.089939877	3.067100E+01
351	  0.090140276	-7.652000E+00	  0.090140276	1.003060E+02	  0.090140276	3.137700E+01	  0.090140276	3.088400E+01
352	  0.090340681	-7.685000E+00	  0.090340681	9.975800E+01	  0.090340681	3.165500E+01	  0.090340681	3.104800E+01
353	  0.090541080	-7.713000E+00	  0.090541080	9.919500E+01	  0.090541080	3.192800E+01	  0.090541080	3.122500E+01
354	  0.090741485	-7.739000E+00	  0.090741485	9.868400E+01	  0.090741485	3.218200E+01	  0.090741485	3.138300E+01
355	  0.090941884	-7.772000E+00	  0.090941884	9.812500E+01	  0.090941884	3.247500E+01	  0.090941884	3.154300E+01
356	  0.091142282	-7.800000E+00	  0.091142282	9.760200E+01	  0.091142282	3.274200E+01	  0.091142282	3.169900E+01
357	  0.091342688	-7.836000E+00	  0.091342688	9.706600E+01	  0.091342688	3.303600E+01	  0.091342688	3.184100E+01
358	  0.091543086	-7.862000E+00	  0.091543086	9.648700E+01	  0.091543086	3.332400E+01	  0.091543086	3.202100E+01
359	  0.091743484	-7.900000E+00	  0.091743484	9.596800E+01	  0.091743484	3.362400E+01	  0.091743484	3.214500E+01
360	  0.091943890	-7.930000E+00	  0.091943890	9.545200E+01	  0.091943890	3.390200E+01	  0.091943890	3.228600E+01
361	  0.092144288	-7.966000E+00	  0.092144288	9.484500E+01	  0.092144288	3.423300E+01	  0.092144288	3.244900E+01
362	  0.092344686	-7.988000E+00	  0.092344686	9.429400E+01	  0.092344686	3.451000E+01	  0.092344686	3.261900E+01
363	  0.092545092	-8.024000E+00	  0.092545092	9.374000E+01	  0.092545092	3.482600E+01	  0.092545092	3.275600E+01
364	  0.092745490	-8.057000E+00	  0.092745490	9.315400E+01	  0.092745490	3.515000E+01	  0.092745490	3.291000E+01
365	  0.092945889	-8.086000E+00	  0.092945889	9.257300E+01	  0.092945889	3.546500E+01	  0.092945889	3.306800E+01
366	  0.093146294	-8.117000E+00	  0.093146294	9.199600E+01	  0.093146294	3.578500E+01	  0.093146294	3.321900E+01
367	  0.093346693	-8.144000E+00	  0.093346693	9.142300E+01	  0.093346693	3.609900E+01	  0.093346693	3.337400E+01
368	  0.093547091	-8.172000E+00	  0.093547091	9.079100E+01	  0.093547091	3.644100E+01	  0.093547091	3.355100E+01
369	  0.093747497	-8.199000E+00	  0.093747497	9.018000E+01	  0.093747497	3.677500E+01	  0.093747497	3.371800E+01
370	  0.093947895	-8.226000E+00	  0.093947895	8.953800E+01	  0.093947895	3.712600E+01	  0.093947895	3.389600E+01
371	  0.094148301	-8.254000E+00	  0.094148301	8.892900E+01	  0.094148301	3.746800E+01	  0.094148301	3.405400E+01
372	  0.094348699	-8.281000E+00	  0.094348699	8.836900E+01	  0.094348699	3.778700E+01	  0.094348699	3.419700E+01
373	  0.094549097	-8.311000E+00	  0.094549097	8.775600E+01	  0.094549097	3.814300E+01	  0.094549097	3.434500E+01
374	  0.094749503	-8.333000E+00	  0.094749503	8.717600E+01	  0.094749503	3.846700E+01	  0.094749503	3.450200E+01
375	  0.094949901	-8.356000E+00	  0.094949901	8.655700E+01	  0.094949901	3.881500E+01	  0.094949901	3.466800E+01
376	  0.095150299	-8.378000E+00	  0.095150299	8.602400E+01	  0.095150299	3.912200E+01	  0.095150299	3.480300E+01
377	  0.095350705	-8.405000E+00	  0.095350705	8.541600E+01	  0.095350705	3.947900E+01	  0.095350705	3.495000E+01
378	  0.095551103	-8.423000E+00	  0.095551103	8.484100E+01	  0.095551103	3.980200E+01	  0.095551103	3.510900E+01
379	  0.095751502	-8.450000E+00	  0.095751502	8.434100E+01	  0.095751502	4.011600E+01	  0.095751502	3.520600E+01
380	  0.095951907	-8.467000E+00	  0.095951907	8.381200E+01	  0.095951907	4.041800E+01	  0.095951907	3.534900E+01
381	  0.096152306	-8.498000E+00	  0.096152306	8.332600E+01	  0.096152306	4.073700E+01	  0.096152306	3.542600E+01
382	  0.096352704	-8.516000E+00	  0.096352704	8.284500E+01	  0.096352704	4.102300E+01	  0.096352704	3.554100E+01
383	  0.096553110	-8.540000E+00	  0.096553110	8.236200E+01	  0.096553110	4.132700E+01	  0.096553110	3.563400E+01
384	  0.096753508	-8.559000E+00	  0.096753508	8.192100E+01	  0.096753508	4.160100E+01	  0.096753508	3.572700E+01
385	  0.096953906	-8.588000E+00	  0.096953906	8.149300E+01	  0.096953906	4.189200E+01	  0.096953906	3.577900E+01
386	  0.097154312	-8.612000E+00	  0.097154312	8.107300E+01	  0.097154312	4.216800E+01	  0.097154312	3.584400E+01
387	  0.097354710	-8.635000E+00	  0.097354710	8.062700E+01	  0.097354710	4.245600E+01	  0.097354710	3.592000E+01
388	  0.097555116	-8.664000E+00	  0.097555116	8.030300E+01	  0.097555116	4.269600E+01	  0.097555116	3.593000E+01
389	  0.097755514	-8.687000E+00	  0.097755514	7.989200E+01	  0.097755514	4.296900E+01	  0.097755514	3.598800E+01
390	  0.097955912	-8.716000E+00	  0.097955912	7.951500E+01	  0.097955912	4.323900E+01	  0.097955912	3.601000E+01
391	  0.098156318	-8.742000E+00	  0.098156318	7.915800E+01	  0.098156318	4.349100E+01	  0.098156318	3.603600E+01
392	  0.098356716	-8.772000E+00	  0.098356716	7.879000E+01	  0.098356716	4.375900E+01	  0.098356716	3.604900E+01
393	  0.098557115	-8.802000E+00	  0.098557115	7.841900E+01	  0.098557115	4.402700E+01	  0.098557115	3.606300E+01
394	  0.098757520	-8.828000E+00	  0.098757520	7.803400E+01	  0.098757520	4.429600E+01	  0.098757520	3.609300E+01
395	  0.098957919	-8.853000E+00	  0.098957919	7.768200E+01	  0.098957919	4.454700E+01	  0.098957919	3.611100E+01
396	  0.099158317	-8.881000E+00	  0.099158317	7.731800E+01	  0.099158317	4.481100E+01	  0.099158317	3.612100E+01
397	  0.099358723	-8.907000E+00	  0.099358723	7.692800E+01	  0.099358723	4.508400E+01	  0.099358723	3.614700E+01
398	  0.099559121	-8.932000E+00	  0.099559121	7.653400E+01	  0.099559121	4.536000E+01	  0.099559121	3.617500E+01
399	  0.099759519	-8.957000E+00	  0.099759519	7.617200E+01	  0.099759519	4.561700E+01	  0.099759519	3.619000E+01
400	  0.099959925	-8.986000E+00	  0.099959925	7.577700E+01	  0.099959925	4.590400E+01	  0.099959925	3.619600E+01
401	  0.100160323	-8.998000E+00	  0.100160323	7.539900E+01	  0.100160323	4.614800E+01	  0.100160323	3.626100E+01
402	  0.100360721	-9.018000E+00	  0.100360721	7.499000E+01	  0.100360721	4.642600E+01	  0.100360721	3.630200E+01
403	  0.100561127	-9.036000E+00	  0.100561127	7.459100E+01	  0.100561127	4.669600E+01	  0.100561127	3.634900E+01
404	  0.100761525	-9.062000E+00	  0.100761525	7.418800E+01	  0.100761525	4.698300E+01	  0.100761525	3.636200E+01
405	  0.100961931	-9.062000E+00	  0.100961931	7.379800E+01	  0.100961931	4.721800E+01	  0.100961931	3.647000E+01
406	  0.101162329	-9.067000E+00	  0.101162329	7.336000E+01	  0.101162329	4.749100E+01	  0.101162329	3.657300E+01
407	  0.101362728	-9.077000E+00	  0.101362728	7.302500E+01	  0.101362728	4.771300E+01	  0.101362728	3.662400E+01
408	  0.101563133	-9.085000E+00	  0.101563133	7.261500E+01	  0.101563133	4.797900E+01	  0.101563133	3.670200E+01
409	  0.101763532	-9.087000E+00	  0.101763532	7.225300E+01	  0.101763532	4.820500E+01	  0.101763532	3.679400E+01
410	  0.101963930	-9.094000E+00	  0.101963930	7.181600E+01	  0.101963930	4.848800E+01	  0.101963930	3.688200E+01
411	  0.102164328	-9.083000E+00	  0.102164328	7.142900E+01	  0.102164328	4.871200E+01	  0.102164328	3.702700E+01
412	  0.102364726	-9.088000E+00	  0.102364726	7.104400E+01	  0.102364726	4.896500E+01	  0.102364726	3.710500E+01
413	  0.102565125	-9.074000E+00	  0.102565125	7.063100E+01	  0.102565125	4.920300E+01	  0.102565125	3.727200E+01
414	  0.102765530	-9.072000E+00	  0.102765530	7.031200E+01	  0.102765530	4.940500E+01	  0.102765530	3.736300E+01
415	  0.102965929	-9.061000E+00	  0.102965929	6.990900E+01	  0.102965929	4.964900E+01	  0.102965929	3.750800E+01
416	  0.103166327	-9.047000E+00	  0.103166327	6.953900E+01	  0.103166327	4.986700E+01	  0.103166327	3.766200E+01
417	  0.103366733	-9.038000E+00	  0.103366733	6.917500E+01	  0.103366733	5.009000E+01	  0.103366733	3.779500E+01
418	  0.103567131	-9.023000E+00	  0.103567131	6.887200E+01	  0.103567131	5.026800E+01	  0.103567131	3.793200E+01
419	  0.103767529	-9.006000E+00	  0.103767529	6.846900E+01	  0.103767529	5.050900E+01	  0.103767529	3.810900E+01
420	  0.103967935	-8.996000E+00	  0.103967935	6.811100E+01	  0.103967935	5.073400E+01	  0.103967935	3.823900E+01
421	  0.104168333	-8.979000E+00	  0.104168333	6.778400E+01	  0.104168333	5.093000E+01	  0.104168333	3.839500E+01
422	  0.104368731	-8.961000E+00	  0.104368731	6.741500E+01	  0.104368731	5.115500E+01	  0.104368731	3.856400E+01
423	  0.104569137	-8.944000E+00	  0.104569137	6.706400E+01	  0.104569137	5.137100E+01	  0.104569137	3.872600E+01
424	  0.104769535	-8.931000E+00	  0.104769535	6.664200E+01	  0.104769535	5.164500E+01	  0.104769535	3.888400E+01
425	  0.104969934	-8.920000E+00	  0.104969934	6.623600E+01	  0.104969934	5.191400E+01	  0.104969934	3.903000E+01
426	  0.105170339	-8.895000E+00	  0.105170339	6.582200E+01	  0.105170339	5.217000E+01	  0.105170339	3.924300E+01
427	  0.105370738	-8.882000E+00	  0.105370738	6.541500E+01	  0.105370738	5.244300E+01	  0.105370738	3.939800E+01
428	  0.105571143	-8.867000E+00	  0.105571143	6.491100E+01	  0.105571143	5.278600E+01	  0.105571143	3.958200E+01
429	  0.105771542	-8.845000E+00	  0.105771542	6.449500E+01	  0.105771542	5.305900E+01	  0.105771542	3.978200E+01
430	  0.105971940	-8.828000E+00	  0.105971940	6.402800E+01	  0.105971940	5.337900E+01	  0.105971940	3.996900E+01
431	  0.106172346	-8.816000E+00	  0.106172346	6.350200E+01	  0.106172346	5.375600E+01	  0.106172346	4.014300E+01
432	  0.106372744	-8.797000E+00	  0.106372744	6.300300E+01	  0.106372744	5.410800E+01	  0.106372744	4.034100E+01
433	  0.106573142	-8.775000E+00	  0.106573142	6.243500E+01	  0.106573142	5.451300E+01	  0.106573142	4.057100E+01
434	  0.106773548	-8.760000E+00	  0.106773548	6.183500E+01	  0.106773548	5.496000E+01	  0.106773548	4.076700E+01
435	  0.106973946	-8.737000E+00	  0.106973946	6.127300E+01	  0.106973946	5.537400E+01	  0.106973946	4.099600E+01
436	  0.107174344	-8.715000E+00	  0.107174344	6.060500E+01	  0.107174344	5.587800E+01	  0.107174344	4.124300E+01
437	  0.107374750	-8.693000E+00	  0.107374750	5.998500E+01	  0.107374750	5.635400E+01	  0.107374750	4.147200E+01
438	  0.107575148	-8.669000E+00	  0.107575148	5.936700E+01	  0.107575148	5.683300E+01	  0.107575148	4.171400E+01
439	  0.107775547	-8.647000E+00	  0.107775547	5.873900E+01	  0.107775547	5.733100E+01	  0.107775547	4.194400E+01
440	  0.107975952	-8.620000E+00	  0.107975952	5.802000E+01	  0.107975952	5.791000E+01	  0.107975952	4.221600E+01
441	  0.108176351	-8.602000E+00	  0.108176351	5.736900E+01	  0.108176351	5.845200E+01	  0.108176351	4.241900E+01
442	  0.108376749	-8.573000E+00	  0.108376749	5.664600E+01	  0.108376749	5.905400E+01	  0.108376749	4.269300E+01
443	  0.108577155	-8.550000E+00	  0.108577155	5.594100E+01	  0.108577155	5.965700E+01	  0.108577155	4.293100E+01
444	  0.108777553	-8.531000E+00	  0.108777553	5.517000E+01	  0.108777553	6.033600E+01	  0.108777553	4.314100E+01
445	  0.108977959	-8.512000E+00	  0.108977959	5.446000E+01	  0.108977959	6.097000E+01	  0.108977959	4.334700E+01
446	  0.109178357	-8.494000E+00	  0.109178357	5.375500E+01	  0.109178357	6.161300E+01	  0.109178357	4.353100E+01
447	  0.109378755	-8.468000E+00	  0.109378755	5.301200E+01	  0.109378755	6.229700E+01	  0.109378755	4.376500E+01
448	  0.109579161	-8.449000E+00	  0.109579161	5.230200E+01	  0.109579161	6.296800E+01	  0.109579161	4.394800E+01
449	  0.109779559	-8.428000E+00	  0.109779559	5.161100E+01	  0.109779559	6.363000E+01	  0.109779559	4.413500E+01
450	  0.109979957	-8.417000E+00	  0.109979957	5.091600E+01	  0.109979957	6.431100E+01	  0.109979957	4.425100E+01
451	  0.110180363	-8.405000E+00	  0.110180363	5.020200E+01	  0.110180363	6.502100E+01	  0.110180363	4.436800E+01
452	  0.110380761	-8.395000E+00	  0.110380761	4.954400E+01	  0.110380761	6.568500E+01	  0.110380761	4.445400E+01
453	  0.110581160	-8.386000E+00	  0.110581160	4.885500E+01	  0.110581160	6.639000E+01	  0.110581160	4.453400E+01
454	  0.110781565	-8.368000E+00	  0.110781565	4.818500E+01	  0.110781565	6.708600E+01	  0.110781565	4.465700E+01
455	  0.110981964	-8.365000E+00	  0.110981964	4.756100E+01	  0.110981964	6.774200E+01	  0.110981964	4.467500E+01
456	  0.111182362	-8.356000E+00	  0.111182362	4.687200E+01	  0.111182362	6.847600E+01	  0.111182362	4.472100E+01
457	  0.111382768	-8.350000E+00	  0.111382768	4.620400E+01	  0.111382768	6.919600E+01	  0.111382768	4.473600E+01
458	  0.111583166	-8.342000E+00	  0.111583166	4.552100E+01	  0.111583166	6.994100E+01	  0.111583166	4.475000E+01
459	  0.111783572	-8.339000E+00	  0.111783572	4.485600E+01	  0.111783572	7.067200E+01	  0.111783572	4.472600E+01
460	  0.111983970	-8.341000E+00	  0.111983970	4.411800E+01	  0.111983970	7.148900E+01	  0.111983970	4.463900E+01
461	  0.112184368	-8.335000E+00	  0.112184368	4.337500E+01	  0.112184368	7.232500E+01	  0.112184368	4.458900E+01
462	  0.112384774	-8.342000E+00	  0.112384774	4.270100E+01	  0.112384774	7.308100E+01	  0.112384774	4.444300E+01
463	  0.112585172	-8.342000E+00	  0.112585172	4.190100E+01	  0.112585172	7.399100E+01	  0.112585172	4.431200E+01
464	  0.112785570	-8.346000E+00	  0.112785570	4.118300E+01	  0.112785570	7.481200E+01	  0.112785570	4.414600E+01
465	  0.112985976	-8.352000E+00	  0.112985976	4.034700E+01	  0.112985976	7.577200E+01	  0.112985976	4.392700E+01
466	  0.113186374	-8.358000E+00	  0.113186374	3.956300E+01	  0.113186374	7.667500E+01	  0.113186374	4.368700E+01
467	  0.113386773	-8.363000E+00	  0.113386773	3.868500E+01	  0.113386773	7.769700E+01	  0.113386773	4.341100E+01
468	  0.113587178	-8.369000E+00	  0.113587178	3.780800E+01	  0.113587178	7.872000E+01	  0.113587178	4.309500E+01
469	  0.113787577	-8.381000E+00	  0.113787577	3.693600E+01	  0.113787577	7.972700E+01	  0.113787577	4.270500E+01
470	  0.113987975	-8.387000E+00	  0.113987975	3.603400E+01	  0.113987975	8.078800E+01	  0.113987975	4.232300E+01
471	  0.114188381	-8.397000E+00	  0.114188381	3.509000E+01	  0.114188381	8.188900E+01	  0.114188381	4.186200E+01
472	  0.114388779	-8.407000E+00	  0.114388779	3.413700E+01	  0.114388779	8.300100E+01	  0.114388779	4.135600E+01
473	  0.114589177	-8.415000E+00	  0.114589177	3.317000E+01	  0.114589177	8.413500E+01	  0.114589177	4.082000E+01
474	  0.114789583	-8.419000E+00	  0.114789583	3.216900E+01	  0.114789583	8.532000E+01	  0.114789583	4.025600E+01
475	  0.114989981	-8.436000E+00	  0.114989981	3.117800E+01	  0.114989981	8.644200E+01	  0.114989981	3.955600E+01
476	  0.115190387	-8.441000E+00	  0.115190387	3.009000E+01	  0.115190387	8.771700E+01	  0.115190387	3.883900E+01
477	  0.115390785	-8.460000E+00	  0.115390785	2.910400E+01	  0.115390785	8.880300E+01	  0.115390785	3.803900E+01
478	  0.115591183	-8.467000E+00	  0.115591183	2.802200E+01	  0.115591183	9.003800E+01	  0.115591183	3.720900E+01
479	  0.115791589	-8.480000E+00	  0.115791589	2.701200E+01	  0.115791589	9.115000E+01	  0.115791589	3.634500E+01
480	  0.115991987	-8.498000E+00	  0.115991987	2.596200E+01	  0.115991987	9.226000E+01	  0.115991987	3.536300E+01
481	  0.116192386	-8.512000E+00	  0.116192386	2.492400E+01	  0.116192386	9.335100E+01	  0.116192386	3.436900E+01
482	  0.116392791	-8.527000E+00	  0.116392791	2.384800E+01	  0.116392791	9.445600E+01	  0.116392791	3.328800E+01
483	  0.116593190	-8.546000E+00	  0.116593190	2.282300E+01	  0.116593190	9.544800E+01	  0.116593190	3.217600E+01
484	  0.116793588	-8.563000E+00	  0.116793588	2.178100E+01	  0.116793588	9.644300E+01	  0.116793588	3.102400E+01
485	  0.116993994	-8.586000E+00	  0.116993994	2.071100E+01	  0.116993994	9.738000E+01	  0.116993994	2.974800E+01
486	  0.117194392	-8.612000E+00	  0.117194392	1.966600E+01	  0.117194392	9.823900E+01	  0.117194392	2.845000E+01
487	  0.117394790	-8.642000E+00	  0.117394790	1.864300E+01	  0.117394790	9.899000E+01	  0.117394790	2.710400E+01
488	  0.117595196	-8.676000E+00	  0.117595196	1.754800E+01	  0.117595196	9.972800E+01	  0.117595196	2.562000E+01
489	  0.117795594	-8.704000E+00	  0.117795594	1.647900E+01	  0.117795594	1.004370E+02	  0.117795594	2.417400E+01
490	  0.117995992	-8.743000E+00	  0.117995992	1.545800E+01	  0.117995992	1.009600E+02	  0.117995992	2.270000E+01
491	  0.118196398	-8.784000E+00	  0.118196398	1.436500E+01	  0.118196398	1.014630E+02	  0.118196398	2.110400E+01
492	  0.118396796	-8.829000E+00	  0.118396796	1.324300E+01	  0.118396796	1.018880E+02	  0.118396796	1.943700E+01
493	  0.118597202	-8.878000E+00	  0.118597202	1.211900E+01	  0.118597202	1.022050E+02	  0.118597202	1.773700E+01
494	  0.118797600	-8.931000E+00	  0.118797600	1.103600E+01	  0.118797600	1.023930E+02	  0.118797600	1.607700E+01
