! Anritsu VNA Master:             	Model: MS2036C/10/77
! SN:             	1601066
! /bd0/18may26.balun/2a.66.txt
! Existing Calibration Information:
! TYPE:             	Current Settings	Active Cal Settings
! TIME:             	05/26/2018 07:40:30 PM	05/26/2018 07:26:54 PM
! INTERNAL TEMP:    	45.0 C	45.5 C
! # POINTS:         	500	500
! START FREQ:       	20.000 MHz	20.000 MHz
! STOP FREQ:        	120.000 MHz	120.000 MHz
! SOURCE POWER:     	High	High
! IFBW:             	50 Hz	50 Hz
! AVG FACTOR:       	  1 	  1 
! REF PLANE 1:      	0 mm	0 mm
! REF PLANE 2:      	0 mm	0 mm
! CAL TYPE:         	Full S11	Full S11
! CAL METHOD:       	SOLT	SOLT
! CAL LINE TYPE:    	Coax	Coax
! DUT PORT 1:       	K-Conn(M)	K-Conn(M)
! DUT PORT 2:       	K-Conn(M)	K-Conn(M)
! CAL STATUS:       	OK: Accuracy High	--
! PROP-V:       	0.700
! CABLE LOSS:       	0.000 dB/m
! REF IMPEDANCE:       	50.0
! Trace Specific Parameters:	TR1	TR2	TR3	TR4
! TRACE.#.Y (GRAPH TYPE)	LOG MAG	PHASE	REAL IMPEDANCE	IMAGINARY IMPEDANCE
! TRACE.#.X 	FREQ.GHZ	FREQ.GHZ	FREQ.GHZ	FREQ.GHZ
! S-PARAMETER	S11	S11	S11	S11
! SMOOTH/APERTURE %	0	0	0	0
! WINDOW	NSL	NSL	NSL	NSL
! GATING	OFF	OFF	OFF	OFF
! FGTD	OFF	OFF	OFF	OFF
Marker Information per Trace:	TR1	TR2	TR3	TR4
!MK1	--	--	--	--
!MK2	--	--	--	--
!MK3	--	--	--	--
!MK4	--	--	--	--
!MK5	--	--	--	--
!MK6	--	--	--	--
!MK7	--	--	--	--
!MK8	--	--	--	--
PNT	TR1.FREQ.GHZ	TR1.LOG MAG.dB	TR2.FREQ.GHZ	TR2.PHASE.deg	TR3.FREQ.GHZ	TR3.REAL IMPEDANCE.ohm	TR4.FREQ.GHZ	TR4.IMAGINARY IMPEDANCE.ohm
1	  0.020000000	-3.100000E-02	  0.020000000	-6.826800E+01	  0.020000000	2.840000E-01	  0.020000000	-7.375300E+01
2	  0.020200402	-2.700000E-02	  0.020200402	-6.894100E+01	  0.020200402	2.440000E-01	  0.020200402	-7.283000E+01
3	  0.020400802	-2.800000E-02	  0.020400802	-6.957700E+01	  0.020400802	2.480000E-01	  0.020400802	-7.196900E+01
4	  0.020601204	-2.600000E-02	  0.020601204	-7.021800E+01	  0.020601204	2.260000E-01	  0.020601204	-7.111700E+01
5	  0.020801604	-2.400000E-02	  0.020801604	-7.086800E+01	  0.020801604	2.120000E-01	  0.020801604	-7.026800E+01
6	  0.021002004	-2.400000E-02	  0.021002004	-7.151800E+01	  0.021002004	2.080000E-01	  0.021002004	-6.943000E+01
7	  0.021202406	-3.100000E-02	  0.021202406	-7.217700E+01	  0.021202406	2.580000E-01	  0.021202406	-6.859500E+01
8	  0.021402806	-3.400000E-02	  0.021402806	-7.282300E+01	  0.021402806	2.840000E-01	  0.021402806	-6.778700E+01
9	  0.021603208	-3.800000E-02	  0.021603208	-7.345300E+01	  0.021603208	3.070000E-01	  0.021603208	-6.701400E+01
10	  0.021803608	-4.200000E-02	  0.021803608	-7.407200E+01	  0.021803608	3.340000E-01	  0.021803608	-6.626400E+01
11	  0.022004008	-4.400000E-02	  0.022004008	-7.469100E+01	  0.022004008	3.510000E-01	  0.022004008	-6.552400E+01
12	  0.022204408	-4.700000E-02	  0.022204408	-7.534200E+01	  0.022204408	3.650000E-01	  0.022204408	-6.475800E+01
13	  0.022404809	-5.100000E-02	  0.022404809	-7.598200E+01	  0.022404809	3.930000E-01	  0.022404809	-6.401500E+01
14	  0.022605211	-4.900000E-02	  0.022605211	-7.663500E+01	  0.022605211	3.710000E-01	  0.022605211	-6.326900E+01
15	  0.022805611	-4.500000E-02	  0.022805611	-7.728200E+01	  0.022805611	3.350000E-01	  0.022805611	-6.254000E+01
16	  0.023006011	-3.700000E-02	  0.023006011	-7.791900E+01	  0.023006011	2.710000E-01	  0.023006011	-6.183200E+01
17	  0.023206413	-3.200000E-02	  0.023206413	-7.855500E+01	  0.023206413	2.340000E-01	  0.023206413	-6.113500E+01
18	  0.023406813	-2.500000E-02	  0.023406813	-7.919300E+01	  0.023406813	1.810000E-01	  0.023406813	-6.044500E+01
19	  0.023607215	-2.500000E-02	  0.023607215	-7.983100E+01	  0.023607215	1.790000E-01	  0.023607215	-5.976500E+01
20	  0.023807615	-2.600000E-02	  0.023807615	-8.040900E+01	  0.023807615	1.840000E-01	  0.023807615	-5.915600E+01
21	  0.024008015	-3.500000E-02	  0.024008015	-8.098900E+01	  0.024008015	2.450000E-01	  0.024008015	-5.855200E+01
22	  0.024208417	-4.300000E-02	  0.024208417	-8.155200E+01	  0.024208417	2.960000E-01	  0.024208417	-5.797300E+01
23	  0.024408817	-5.000000E-02	  0.024408817	-8.214000E+01	  0.024408817	3.370000E-01	  0.024408817	-5.737400E+01
24	  0.024609219	-5.500000E-02	  0.024609219	-8.274500E+01	  0.024609219	3.650000E-01	  0.024609219	-5.676700E+01
25	  0.024809619	-5.700000E-02	  0.024809619	-8.336000E+01	  0.024809619	3.710000E-01	  0.024809619	-5.615600E+01
26	  0.025010020	-5.900000E-02	  0.025010020	-8.401700E+01	  0.025010020	3.810000E-01	  0.025010020	-5.551200E+01
27	  0.025210422	-6.300000E-02	  0.025210422	-8.467200E+01	  0.025210422	4.030000E-01	  0.025210422	-5.487700E+01
28	  0.025410822	-6.300000E-02	  0.025410822	-8.532500E+01	  0.025410822	4.000000E-01	  0.025410822	-5.425300E+01
29	  0.025611224	-6.200000E-02	  0.025611224	-8.600300E+01	  0.025611224	3.880000E-01	  0.025611224	-5.361300E+01
30	  0.025811624	-5.700000E-02	  0.025811624	-8.662100E+01	  0.025811624	3.500000E-01	  0.025811624	-5.303700E+01
31	  0.026012026	-5.400000E-02	  0.026012026	-8.722400E+01	  0.026012026	3.280000E-01	  0.026012026	-5.248100E+01
32	  0.026212426	-5.200000E-02	  0.026212426	-8.781100E+01	  0.026212426	3.110000E-01	  0.026212426	-5.194500E+01
33	  0.026412826	-5.600000E-02	  0.026412826	-8.842700E+01	  0.026412826	3.370000E-01	  0.026412826	-5.139000E+01
34	  0.026613226	-6.000000E-02	  0.026613226	-8.900100E+01	  0.026613226	3.540000E-01	  0.026613226	-5.087700E+01
35	  0.026813626	-6.500000E-02	  0.026813626	-8.956200E+01	  0.026813626	3.790000E-01	  0.026813626	-5.038200E+01
36	  0.027014028	-7.400000E-02	  0.027014028	-9.012200E+01	  0.027014028	4.260000E-01	  0.027014028	-4.989100E+01
37	  0.027214428	-8.400000E-02	  0.027214428	-9.071000E+01	  0.027214428	4.780000E-01	  0.027214428	-4.938100E+01
38	  0.027414829	-9.100000E-02	  0.027414829	-9.135300E+01	  0.027414829	5.140000E-01	  0.027414829	-4.882900E+01
39	  0.027615231	-9.600000E-02	  0.027615231	-9.200700E+01	  0.027615231	5.340000E-01	  0.027615231	-4.827500E+01
40	  0.027815631	-9.500000E-02	  0.027815631	-9.267800E+01	  0.027815631	5.230000E-01	  0.027815631	-4.771200E+01
41	  0.028016033	-8.900000E-02	  0.028016033	-9.335200E+01	  0.028016033	4.840000E-01	  0.028016033	-4.715400E+01
42	  0.028216433	-7.800000E-02	  0.028216433	-9.401100E+01	  0.028216433	4.240000E-01	  0.028216433	-4.661400E+01
43	  0.028416833	-7.000000E-02	  0.028416833	-9.468400E+01	  0.028416833	3.770000E-01	  0.028416833	-4.606800E+01
44	  0.028617235	-6.200000E-02	  0.028617235	-9.530400E+01	  0.028617235	3.260000E-01	  0.028617235	-4.557100E+01
45	  0.028817635	-5.600000E-02	  0.028817635	-9.587800E+01	  0.028817635	2.960000E-01	  0.028817635	-4.511500E+01
46	  0.029018037	-4.900000E-02	  0.029018037	-9.639800E+01	  0.029018037	2.540000E-01	  0.029018037	-4.470500E+01
47	  0.029218437	-4.400000E-02	  0.029218437	-9.690600E+01	  0.029218437	2.270000E-01	  0.029218437	-4.430800E+01
48	  0.029418837	-4.100000E-02	  0.029418837	-9.741100E+01	  0.029418837	2.130000E-01	  0.029418837	-4.391600E+01
49	  0.029619239	-4.200000E-02	  0.029619239	-9.792000E+01	  0.029619239	2.130000E-01	  0.029619239	-4.352400E+01
50	  0.029819639	-4.800000E-02	  0.029819639	-9.843600E+01	  0.029819639	2.410000E-01	  0.029819639	-4.313000E+01
51	  0.030020041	-5.500000E-02	  0.030020041	-9.901000E+01	  0.030020041	2.750000E-01	  0.030020041	-4.269500E+01
52	  0.030220442	-6.800000E-02	  0.030220442	-9.958400E+01	  0.030220442	3.360000E-01	  0.030220442	-4.226300E+01
53	  0.030420844	-7.900000E-02	  0.030420844	-1.002190E+02	  0.030420844	3.900000E-01	  0.030420844	-4.179000E+01
54	  0.030621244	-8.500000E-02	  0.030621244	-1.008720E+02	  0.030621244	4.130000E-01	  0.030621244	-4.130800E+01
55	  0.030821644	-8.400000E-02	  0.030821644	-1.015050E+02	  0.030821644	4.060000E-01	  0.030821644	-4.084500E+01
56	  0.031022044	-8.100000E-02	  0.031022044	-1.021200E+02	  0.031022044	3.870000E-01	  0.031022044	-4.040000E+01
57	  0.031222444	-7.400000E-02	  0.031222444	-1.027090E+02	  0.031222444	3.490000E-01	  0.031222444	-3.997700E+01
58	  0.031422846	-7.300000E-02	  0.031422846	-1.032800E+02	  0.031422846	3.450000E-01	  0.031422846	-3.957100E+01
59	  0.031623244	-7.200000E-02	  0.031623244	-1.038240E+02	  0.031623244	3.380000E-01	  0.031623244	-3.918600E+01
60	  0.031823646	-7.600000E-02	  0.031823646	-1.043480E+02	  0.031823646	3.520000E-01	  0.031823646	-3.881800E+01
61	  0.032024048	-8.100000E-02	  0.032024048	-1.048640E+02	  0.032024048	3.710000E-01	  0.032024048	-3.845800E+01
62	  0.032224450	-9.200000E-02	  0.032224450	-1.053670E+02	  0.032224450	4.210000E-01	  0.032224450	-3.811000E+01
63	  0.032424849	-1.020000E-01	  0.032424849	-1.059120E+02	  0.032424849	4.620000E-01	  0.032424849	-3.773500E+01
64	  0.032625251	-1.140000E-01	  0.032625251	-1.064840E+02	  0.032625251	5.120000E-01	  0.032625251	-3.734400E+01
65	  0.032825653	-1.210000E-01	  0.032825653	-1.071000E+02	  0.032825653	5.390000E-01	  0.032825653	-3.692700E+01
66	  0.033026051	-1.260000E-01	  0.033026051	-1.077160E+02	  0.033026051	5.590000E-01	  0.033026051	-3.651300E+01
67	  0.033226453	-1.300000E-01	  0.033226453	-1.083520E+02	  0.033226453	5.700000E-01	  0.033226453	-3.608900E+01
68	  0.033426855	-1.310000E-01	  0.033426855	-1.090000E+02	  0.033426855	5.710000E-01	  0.033426855	-3.566100E+01
69	  0.033627257	-1.330000E-01	  0.033627257	-1.096530E+02	  0.033627257	5.750000E-01	  0.033627257	-3.523300E+01
70	  0.033827655	-1.300000E-01	  0.033827655	-1.102930E+02	  0.033827655	5.560000E-01	  0.033827655	-3.481700E+01
71	  0.034028057	-1.210000E-01	  0.034028057	-1.108920E+02	  0.034028057	5.150000E-01	  0.034028057	-3.443000E+01
72	  0.034228459	-1.110000E-01	  0.034228459	-1.115030E+02	  0.034228459	4.680000E-01	  0.034228459	-3.403900E+01
73	  0.034428857	-1.020000E-01	  0.034428857	-1.120590E+02	  0.034428857	4.280000E-01	  0.034428857	-3.368600E+01
74	  0.034629259	-9.200000E-02	  0.034629259	-1.125880E+02	  0.034629259	3.840000E-01	  0.034629259	-3.335100E+01
75	  0.034829661	-8.500000E-02	  0.034829661	-1.130840E+02	  0.034829661	3.510000E-01	  0.034829661	-3.303900E+01
76	  0.035030060	-8.300000E-02	  0.035030060	-1.136100E+02	  0.035030060	3.430000E-01	  0.035030060	-3.271100E+01
77	  0.035230462	-8.000000E-02	  0.035230462	-1.140970E+02	  0.035230462	3.280000E-01	  0.035230462	-3.240900E+01
78	  0.035430863	-8.400000E-02	  0.035430863	-1.146030E+02	  0.035430863	3.430000E-01	  0.035430863	-3.209500E+01
79	  0.035631265	-9.200000E-02	  0.035631265	-1.151280E+02	  0.035631265	3.720000E-01	  0.035631265	-3.177300E+01
80	  0.035831664	-9.900000E-02	  0.035831664	-1.156890E+02	  0.035831664	4.000000E-01	  0.035831664	-3.143100E+01
81	  0.036032066	-1.090000E-01	  0.036032066	-1.162680E+02	  0.036032066	4.370000E-01	  0.036032066	-3.107900E+01
82	  0.036232468	-1.150000E-01	  0.036232468	-1.169040E+02	  0.036232468	4.570000E-01	  0.036232468	-3.069500E+01
83	  0.036432866	-1.170000E-01	  0.036432866	-1.175200E+02	  0.036432866	4.610000E-01	  0.036432866	-3.032600E+01
84	  0.036633268	-1.120000E-01	  0.036633268	-1.181320E+02	  0.036633268	4.410000E-01	  0.036633268	-2.996200E+01
85	  0.036833670	-1.070000E-01	  0.036833670	-1.187150E+02	  0.036833670	4.170000E-01	  0.036833670	-2.961700E+01
86	  0.037034072	-9.600000E-02	  0.037034072	-1.192300E+02	  0.037034072	3.740000E-01	  0.037034072	-2.931500E+01
87	  0.037234470	-8.800000E-02	  0.037234470	-1.196870E+02	  0.037234470	3.420000E-01	  0.037234470	-2.904800E+01
88	  0.037434869	-8.800000E-02	  0.037434869	-1.201560E+02	  0.037434869	3.400000E-01	  0.037434869	-2.877500E+01
89	  0.037635271	-9.100000E-02	  0.037635271	-1.206220E+02	  0.037635271	3.470000E-01	  0.037635271	-2.850500E+01
90	  0.037835669	-1.000000E-01	  0.037835669	-1.211230E+02	  0.037835669	3.800000E-01	  0.037835669	-2.821600E+01
91	  0.038036071	-1.110000E-01	  0.038036071	-1.216610E+02	  0.038036071	4.190000E-01	  0.038036071	-2.790700E+01
92	  0.038236473	-1.170000E-01	  0.038236473	-1.222130E+02	  0.038236473	4.410000E-01	  0.038236473	-2.759200E+01
93	  0.038436871	-1.220000E-01	  0.038436871	-1.227680E+02	  0.038436871	4.560000E-01	  0.038436871	-2.727600E+01
94	  0.038637273	-1.310000E-01	  0.038637273	-1.233090E+02	  0.038637273	4.870000E-01	  0.038637273	-2.697100E+01
95	  0.038837675	-1.390000E-01	  0.038837675	-1.238790E+02	  0.038837675	5.140000E-01	  0.038837675	-2.665000E+01
96	  0.039038073	-1.430000E-01	  0.039038073	-1.244580E+02	  0.039038073	5.280000E-01	  0.039038073	-2.632700E+01
97	  0.039238475	-1.470000E-01	  0.039238475	-1.250460E+02	  0.039238475	5.380000E-01	  0.039238475	-2.600000E+01
98	  0.039438877	-1.450000E-01	  0.039438877	-1.256310E+02	  0.039438877	5.290000E-01	  0.039438877	-2.567600E+01
99	  0.039639279	-1.410000E-01	  0.039639279	-1.261890E+02	  0.039639279	5.120000E-01	  0.039639279	-2.537000E+01
100	  0.039839678	-1.330000E-01	  0.039839678	-1.267260E+02	  0.039839678	4.820000E-01	  0.039839678	-2.507600E+01
101	  0.040040080	-1.310000E-01	  0.040040080	-1.272490E+02	  0.040040080	4.710000E-01	  0.040040080	-2.479100E+01
102	  0.040240481	-1.290000E-01	  0.040240481	-1.277730E+02	  0.040240481	4.600000E-01	  0.040240481	-2.450700E+01
103	  0.040440880	-1.250000E-01	  0.040440880	-1.282950E+02	  0.040440880	4.440000E-01	  0.040440880	-2.422500E+01
104	  0.040641282	-1.230000E-01	  0.040641282	-1.288090E+02	  0.040641282	4.370000E-01	  0.040641282	-2.394900E+01
105	  0.040841684	-1.250000E-01	  0.040841684	-1.293320E+02	  0.040841684	4.420000E-01	  0.040841684	-2.366900E+01
106	  0.041042086	-1.280000E-01	  0.041042086	-1.298230E+02	  0.041042086	4.490000E-01	  0.041042086	-2.340700E+01
107	  0.041242484	-1.370000E-01	  0.041242484	-1.303300E+02	  0.041242484	4.800000E-01	  0.041242484	-2.313800E+01
108	  0.041442886	-1.510000E-01	  0.041442886	-1.308700E+02	  0.041442886	5.280000E-01	  0.041442886	-2.285200E+01
109	  0.041643288	-1.590000E-01	  0.041643288	-1.314620E+02	  0.041643288	5.530000E-01	  0.041643288	-2.254000E+01
110	  0.041843686	-1.610000E-01	  0.041843686	-1.320560E+02	  0.041843686	5.560000E-01	  0.041843686	-2.222900E+01
111	  0.042044088	-1.500000E-01	  0.042044088	-1.326430E+02	  0.042044088	5.180000E-01	  0.042044088	-2.192300E+01
112	  0.042244490	-1.400000E-01	  0.042244490	-1.331780E+02	  0.042244490	4.780000E-01	  0.042244490	-2.164600E+01
113	  0.042444889	-1.310000E-01	  0.042444889	-1.336610E+02	  0.042444889	4.480000E-01	  0.042444889	-2.139600E+01
114	  0.042645290	-1.240000E-01	  0.042645290	-1.341180E+02	  0.042645290	4.220000E-01	  0.042645290	-2.116100E+01
115	  0.042845692	-1.250000E-01	  0.042845692	-1.345880E+02	  0.042845692	4.240000E-01	  0.042845692	-2.092000E+01
116	  0.043046094	-1.300000E-01	  0.043046094	-1.350810E+02	  0.043046094	4.390000E-01	  0.043046094	-2.066700E+01
117	  0.043246493	-1.330000E-01	  0.043246493	-1.355780E+02	  0.043246493	4.480000E-01	  0.043246493	-2.041400E+01
118	  0.043446895	-1.380000E-01	  0.043446895	-1.360650E+02	  0.043446895	4.640000E-01	  0.043446895	-2.016600E+01
119	  0.043647297	-1.420000E-01	  0.043647297	-1.365620E+02	  0.043647297	4.760000E-01	  0.043647297	-1.991400E+01
120	  0.043847695	-1.490000E-01	  0.043847695	-1.370770E+02	  0.043847695	4.970000E-01	  0.043847695	-1.965400E+01
121	  0.044048097	-1.550000E-01	  0.044048097	-1.376000E+02	  0.044048097	5.150000E-01	  0.044048097	-1.939100E+01
122	  0.044248499	-1.620000E-01	  0.044248499	-1.381530E+02	  0.044248499	5.350000E-01	  0.044248499	-1.911400E+01
123	  0.044448901	-1.630000E-01	  0.044448901	-1.386890E+02	  0.044448901	5.370000E-01	  0.044448901	-1.884700E+01
124	  0.044649299	-1.620000E-01	  0.044649299	-1.392260E+02	  0.044649299	5.330000E-01	  0.044649299	-1.857900E+01
125	  0.044849701	-1.610000E-01	  0.044849701	-1.397290E+02	  0.044849701	5.280000E-01	  0.044849701	-1.833000E+01
126	  0.045050103	-1.610000E-01	  0.045050103	-1.402380E+02	  0.045050103	5.250000E-01	  0.045050103	-1.807800E+01
127	  0.045250501	-1.620000E-01	  0.045250501	-1.407510E+02	  0.045250501	5.270000E-01	  0.045250501	-1.782600E+01
128	  0.045450903	-1.640000E-01	  0.045450903	-1.412650E+02	  0.045450903	5.310000E-01	  0.045450903	-1.757300E+01
129	  0.045651305	-1.620000E-01	  0.045651305	-1.417940E+02	  0.045651305	5.230000E-01	  0.045651305	-1.731400E+01
130	  0.045851704	-1.580000E-01	  0.045851704	-1.423100E+02	  0.045851704	5.090000E-01	  0.045851704	-1.706300E+01
131	  0.046052106	-1.560000E-01	  0.046052106	-1.427980E+02	  0.046052106	5.000000E-01	  0.046052106	-1.682600E+01
132	  0.046252504	-1.580000E-01	  0.046252504	-1.432730E+02	  0.046252504	5.060000E-01	  0.046252504	-1.659500E+01
133	  0.046452906	-1.640000E-01	  0.046452906	-1.437440E+02	  0.046452906	5.240000E-01	  0.046452906	-1.636700E+01
134	  0.046653304	-1.750000E-01	  0.046653304	-1.442260E+02	  0.046653304	5.590000E-01	  0.046653304	-1.613400E+01
135	  0.046853706	-1.810000E-01	  0.046853706	-1.447490E+02	  0.046853706	5.760000E-01	  0.046853706	-1.588300E+01
136	  0.047054108	-1.840000E-01	  0.047054108	-1.453040E+02	  0.047054108	5.830000E-01	  0.047054108	-1.561700E+01
137	  0.047254506	-1.770000E-01	  0.047254506	-1.458380E+02	  0.047254506	5.600000E-01	  0.047254506	-1.536100E+01
138	  0.047454908	-1.710000E-01	  0.047454908	-1.463620E+02	  0.047454908	5.380000E-01	  0.047454908	-1.511200E+01
139	  0.047655310	-1.650000E-01	  0.047655310	-1.468160E+02	  0.047655310	5.200000E-01	  0.047655310	-1.489600E+01
140	  0.047855709	-1.650000E-01	  0.047855709	-1.472720E+02	  0.047855709	5.170000E-01	  0.047855709	-1.467900E+01
141	  0.048056111	-1.630000E-01	  0.048056111	-1.477610E+02	  0.048056111	5.110000E-01	  0.048056111	-1.444800E+01
142	  0.048256513	-1.650000E-01	  0.048256513	-1.482200E+02	  0.048256513	5.150000E-01	  0.048256513	-1.423100E+01
143	  0.048456915	-1.660000E-01	  0.048456915	-1.487010E+02	  0.048456915	5.160000E-01	  0.048456915	-1.400500E+01
144	  0.048657313	-1.680000E-01	  0.048657313	-1.491510E+02	  0.048657313	5.210000E-01	  0.048657313	-1.379300E+01
145	  0.048857715	-1.730000E-01	  0.048857715	-1.495990E+02	  0.048857715	5.350000E-01	  0.048857715	-1.358300E+01
146	  0.049058117	-1.810000E-01	  0.049058117	-1.500810E+02	  0.049058117	5.580000E-01	  0.049058117	-1.335700E+01
147	  0.049258515	-1.840000E-01	  0.049258515	-1.505710E+02	  0.049258515	5.660000E-01	  0.049258515	-1.312900E+01
148	  0.049458917	-1.880000E-01	  0.049458917	-1.510680E+02	  0.049458917	5.790000E-01	  0.049458917	-1.289700E+01
149	  0.049659319	-1.910000E-01	  0.049659319	-1.515670E+02	  0.049659319	5.860000E-01	  0.049659319	-1.266500E+01
150	  0.049859721	-1.880000E-01	  0.049859721	-1.520440E+02	  0.049859721	5.750000E-01	  0.049859721	-1.244400E+01
151	  0.050060119	-1.910000E-01	  0.050060119	-1.525280E+02	  0.050060119	5.840000E-01	  0.050060119	-1.222000E+01
152	  0.050260521	-1.930000E-01	  0.050260521	-1.529840E+02	  0.050260521	5.870000E-01	  0.050260521	-1.200900E+01
153	  0.050460923	-1.950000E-01	  0.050460923	-1.534800E+02	  0.050460923	5.940000E-01	  0.050460923	-1.178000E+01
154	  0.050661322	-1.950000E-01	  0.050661322	-1.539830E+02	  0.050661322	5.910000E-01	  0.050661322	-1.154900E+01
155	  0.050861724	-1.920000E-01	  0.050861724	-1.544900E+02	  0.050861724	5.820000E-01	  0.050861724	-1.131600E+01
156	  0.051062126	-1.900000E-01	  0.051062126	-1.549770E+02	  0.051062126	5.750000E-01	  0.051062126	-1.109300E+01
157	  0.051262524	-1.900000E-01	  0.051262524	-1.554470E+02	  0.051262524	5.730000E-01	  0.051262524	-1.087800E+01
158	  0.051462926	-1.910000E-01	  0.051462926	-1.558970E+02	  0.051462926	5.760000E-01	  0.051462926	-1.067300E+01
159	  0.051663328	-1.950000E-01	  0.051663328	-1.563520E+02	  0.051663328	5.870000E-01	  0.051663328	-1.046500E+01
160	  0.051863730	-2.010000E-01	  0.051863730	-1.568080E+02	  0.051863730	6.030000E-01	  0.051863730	-1.025800E+01
161	  0.052064128	-2.050000E-01	  0.052064128	-1.572920E+02	  0.052064128	6.140000E-01	  0.052064128	-1.003800E+01
162	  0.052264530	-2.090000E-01	  0.052264530	-1.577760E+02	  0.052264530	6.250000E-01	  0.052264530	-9.818000E+00
163	  0.052464932	-2.050000E-01	  0.052464932	-1.582840E+02	  0.052464932	6.140000E-01	  0.052464932	-9.588000E+00
164	  0.052665330	-2.040000E-01	  0.052665330	-1.587620E+02	  0.052665330	6.090000E-01	  0.052665330	-9.372000E+00
165	  0.052865732	-2.000000E-01	  0.052865732	-1.592260E+02	  0.052865732	5.960000E-01	  0.052865732	-9.163000E+00
166	  0.053066134	-1.990000E-01	  0.053066134	-1.596810E+02	  0.053066134	5.940000E-01	  0.053066134	-8.958000E+00
167	  0.053266536	-1.980000E-01	  0.053266536	-1.601380E+02	  0.053266536	5.870000E-01	  0.053266536	-8.752000E+00
168	  0.053466935	-1.980000E-01	  0.053466935	-1.606040E+02	  0.053466935	5.880000E-01	  0.053466935	-8.543000E+00
169	  0.053667337	-1.970000E-01	  0.053667337	-1.610390E+02	  0.053667337	5.830000E-01	  0.053667337	-8.348000E+00
170	  0.053867739	-1.980000E-01	  0.053867739	-1.614970E+02	  0.053867739	5.850000E-01	  0.053867739	-8.142000E+00
171	  0.054068137	-2.010000E-01	  0.054068137	-1.619320E+02	  0.054068137	5.940000E-01	  0.054068137	-7.948000E+00
172	  0.054268539	-2.070000E-01	  0.054268539	-1.623970E+02	  0.054268539	6.120000E-01	  0.054268539	-7.740000E+00
173	  0.054468941	-2.100000E-01	  0.054468941	-1.628600E+02	  0.054468941	6.200000E-01	  0.054468941	-7.533000E+00
174	  0.054669339	-2.120000E-01	  0.054669339	-1.633320E+02	  0.054669339	6.250000E-01	  0.054669339	-7.323000E+00
175	  0.054869737	-2.130000E-01	  0.054869737	-1.637870E+02	  0.054869737	6.270000E-01	  0.054869737	-7.120000E+00
176	  0.055070139	-2.130000E-01	  0.055070139	-1.642500E+02	  0.055070139	6.260000E-01	  0.055070139	-6.914000E+00
177	  0.055270538	-2.130000E-01	  0.055270538	-1.646950E+02	  0.055270538	6.250000E-01	  0.055270538	-6.716000E+00
178	  0.055470940	-2.170000E-01	  0.055470940	-1.651520E+02	  0.055470940	6.350000E-01	  0.055470940	-6.513000E+00
179	  0.055671342	-2.180000E-01	  0.055671342	-1.656240E+02	  0.055671342	6.390000E-01	  0.055671342	-6.304000E+00
180	  0.055871744	-2.180000E-01	  0.055871744	-1.660900E+02	  0.055871744	6.380000E-01	  0.055871744	-6.098000E+00
181	  0.056072142	-2.180000E-01	  0.056072142	-1.665770E+02	  0.056072142	6.370000E-01	  0.056072142	-5.882000E+00
182	  0.056272544	-2.180000E-01	  0.056272544	-1.670320E+02	  0.056272544	6.360000E-01	  0.056272544	-5.681000E+00
183	  0.056472946	-2.160000E-01	  0.056472946	-1.674910E+02	  0.056472946	6.310000E-01	  0.056472946	-5.478000E+00
184	  0.056673344	-2.160000E-01	  0.056673344	-1.679350E+02	  0.056673344	6.300000E-01	  0.056673344	-5.282000E+00
185	  0.056873746	-2.200000E-01	  0.056873746	-1.683840E+02	  0.056873746	6.410000E-01	  0.056873746	-5.084000E+00
186	  0.057074148	-2.210000E-01	  0.057074148	-1.688260E+02	  0.057074148	6.430000E-01	  0.057074148	-4.890000E+00
187	  0.057274550	-2.230000E-01	  0.057274550	-1.692810E+02	  0.057274550	6.500000E-01	  0.057274550	-4.689000E+00
188	  0.057474948	-2.250000E-01	  0.057474948	-1.697320E+02	  0.057474948	6.530000E-01	  0.057474948	-4.491000E+00
189	  0.057675350	-2.270000E-01	  0.057675350	-1.701690E+02	  0.057675350	6.580000E-01	  0.057675350	-4.299000E+00
190	  0.057875752	-2.260000E-01	  0.057875752	-1.706260E+02	  0.057875752	6.560000E-01	  0.057875752	-4.098000E+00
191	  0.058076151	-2.260000E-01	  0.058076151	-1.710760E+02	  0.058076151	6.560000E-01	  0.058076151	-3.900000E+00
192	  0.058276553	-2.230000E-01	  0.058276553	-1.715210E+02	  0.058276553	6.470000E-01	  0.058276553	-3.705000E+00
193	  0.058476955	-2.250000E-01	  0.058476955	-1.719710E+02	  0.058476955	6.510000E-01	  0.058476955	-3.508000E+00
194	  0.058677353	-2.230000E-01	  0.058677353	-1.724060E+02	  0.058677353	6.470000E-01	  0.058677353	-3.317000E+00
195	  0.058877755	-2.240000E-01	  0.058877755	-1.728360E+02	  0.058877755	6.490000E-01	  0.058877755	-3.129000E+00
196	  0.059078157	-2.260000E-01	  0.059078157	-1.732710E+02	  0.059078157	6.550000E-01	  0.059078157	-2.938000E+00
197	  0.059278559	-2.290000E-01	  0.059278559	-1.737140E+02	  0.059278559	6.620000E-01	  0.059278559	-2.744000E+00
198	  0.059478957	-2.320000E-01	  0.059478957	-1.741530E+02	  0.059478957	6.700000E-01	  0.059478957	-2.552000E+00
199	  0.059679359	-2.350000E-01	  0.059679359	-1.746020E+02	  0.059679359	6.790000E-01	  0.059679359	-2.356000E+00
200	  0.059879761	-2.350000E-01	  0.059879761	-1.750500E+02	  0.059879761	6.790000E-01	  0.059879761	-2.160000E+00
201	  0.060080159	-2.360000E-01	  0.060080159	-1.754820E+02	  0.060080159	6.820000E-01	  0.060080159	-1.971000E+00
202	  0.060280561	-2.370000E-01	  0.060280561	-1.759190E+02	  0.060280561	6.840000E-01	  0.060280561	-1.780000E+00
203	  0.060480963	-2.390000E-01	  0.060480963	-1.763530E+02	  0.060480963	6.890000E-01	  0.060480963	-1.591000E+00
204	  0.060681365	-2.410000E-01	  0.060681365	-1.768020E+02	  0.060681365	6.950000E-01	  0.060681365	-1.395000E+00
205	  0.060881764	-2.410000E-01	  0.060881764	-1.772490E+02	  0.060881764	6.940000E-01	  0.060881764	-1.199000E+00
206	  0.061082166	-2.420000E-01	  0.061082166	-1.776900E+02	  0.061082166	6.980000E-01	  0.061082166	-1.007000E+00
207	  0.061282568	-2.420000E-01	  0.061282568	-1.781430E+02	  0.061282568	6.980000E-01	  0.061282568	-8.090000E-01
208	  0.061482966	-2.410000E-01	  0.061482966	-1.785880E+02	  0.061482966	6.960000E-01	  0.061482966	-6.150000E-01
209	  0.061683368	-2.410000E-01	  0.061683368	-1.790340E+02	  0.061683368	6.960000E-01	  0.061683368	-4.210000E-01
210	  0.061883770	-2.430000E-01	  0.061883770	-1.794750E+02	  0.061883770	7.000000E-01	  0.061883770	-2.280000E-01
211	  0.062084168	-2.430000E-01	  0.062084168	-1.799130E+02	  0.062084168	7.000000E-01	  0.062084168	-3.700000E-02
212	  0.062284570	-2.450000E-01	  0.062284570	1.796580E+02	  0.062284570	7.050000E-01	  0.062284570	1.490000E-01
213	  0.062484972	-2.430000E-01	  0.062484972	1.792600E+02	  0.062484972	7.020000E-01	  0.062484972	3.220000E-01
214	  0.062685370	-2.470000E-01	  0.062685370	1.788180E+02	  0.062685370	7.110000E-01	  0.062685370	5.150000E-01
215	  0.062885776	-2.450000E-01	  0.062885776	1.783940E+02	  0.062885776	7.070000E-01	  0.062885776	7.000000E-01
216	  0.063086174	-2.460000E-01	  0.063086174	1.779700E+02	  0.063086174	7.100000E-01	  0.063086174	8.850000E-01
217	  0.063286573	-2.430000E-01	  0.063286573	1.775260E+02	  0.063286573	7.020000E-01	  0.063286573	1.079000E+00
218	  0.063486971	-2.410000E-01	  0.063486971	1.771240E+02	  0.063486971	6.950000E-01	  0.063486971	1.254000E+00
219	  0.063687377	-2.440000E-01	  0.063687377	1.767110E+02	  0.063687377	7.050000E-01	  0.063687377	1.435000E+00
220	  0.063887775	-2.430000E-01	  0.063887775	1.762970E+02	  0.063887775	7.020000E-01	  0.063887775	1.615000E+00
221	  0.064088173	-2.460000E-01	  0.064088173	1.758670E+02	  0.064088173	7.090000E-01	  0.064088173	1.803000E+00
222	  0.064288579	-2.500000E-01	  0.064288579	1.754320E+02	  0.064288579	7.220000E-01	  0.064288579	1.993000E+00
223	  0.064488977	-2.490000E-01	  0.064488977	1.749880E+02	  0.064488977	7.190000E-01	  0.064488977	2.187000E+00
224	  0.064689375	-2.530000E-01	  0.064689375	1.745780E+02	  0.064689375	7.310000E-01	  0.064689375	2.366000E+00
225	  0.064889781	-2.540000E-01	  0.064889781	1.741470E+02	  0.064889781	7.340000E-01	  0.064889781	2.555000E+00
226	  0.065090179	-2.530000E-01	  0.065090179	1.737450E+02	  0.065090179	7.330000E-01	  0.065090179	2.731000E+00
227	  0.065290578	-2.540000E-01	  0.065290578	1.733400E+02	  0.065290578	7.340000E-01	  0.065290578	2.908000E+00
228	  0.065490983	-2.560000E-01	  0.065490983	1.729070E+02	  0.065490983	7.420000E-01	  0.065490983	3.097000E+00
229	  0.065691382	-2.570000E-01	  0.065691382	1.724840E+02	  0.065691382	7.440000E-01	  0.065691382	3.283000E+00
230	  0.065891780	-2.600000E-01	  0.065891780	1.720680E+02	  0.065891780	7.530000E-01	  0.065891780	3.465000E+00
231	  0.066092186	-2.570000E-01	  0.066092186	1.716570E+02	  0.066092186	7.450000E-01	  0.066092186	3.645000E+00
232	  0.066292584	-2.560000E-01	  0.066292584	1.712350E+02	  0.066292584	7.420000E-01	  0.066292584	3.830000E+00
233	  0.066492982	-2.590000E-01	  0.066492982	1.708210E+02	  0.066492982	7.510000E-01	  0.066492982	4.012000E+00
234	  0.066693388	-2.590000E-01	  0.066693388	1.704150E+02	  0.066693388	7.520000E-01	  0.066693388	4.190000E+00
235	  0.066893786	-2.600000E-01	  0.066893786	1.699700E+02	  0.066893786	7.540000E-01	  0.066893786	4.386000E+00
236	  0.067094192	-2.610000E-01	  0.067094192	1.695590E+02	  0.067094192	7.570000E-01	  0.067094192	4.567000E+00
237	  0.067294590	-2.640000E-01	  0.067294590	1.691580E+02	  0.067294590	7.660000E-01	  0.067294590	4.743000E+00
238	  0.067494988	-2.610000E-01	  0.067494988	1.687520E+02	  0.067494988	7.600000E-01	  0.067494988	4.922000E+00
239	  0.067695394	-2.620000E-01	  0.067695394	1.683360E+02	  0.067695394	7.640000E-01	  0.067695394	5.105000E+00
240	  0.067895792	-2.580000E-01	  0.067895792	1.679460E+02	  0.067895792	7.510000E-01	  0.067895792	5.277000E+00
241	  0.068096191	-2.600000E-01	  0.068096191	1.675410E+02	  0.068096191	7.570000E-01	  0.068096191	5.456000E+00
242	  0.068296596	-2.630000E-01	  0.068296596	1.671500E+02	  0.068296596	7.660000E-01	  0.068296596	5.629000E+00
243	  0.068496995	-2.590000E-01	  0.068496995	1.667530E+02	  0.068496995	7.570000E-01	  0.068496995	5.804000E+00
244	  0.068697393	-2.590000E-01	  0.068697393	1.663470E+02	  0.068697393	7.570000E-01	  0.068697393	5.983000E+00
245	  0.068897791	-2.600000E-01	  0.068897791	1.659940E+02	  0.068897791	7.590000E-01	  0.068897791	6.140000E+00
246	  0.069098189	-2.610000E-01	  0.069098189	1.656270E+02	  0.069098189	7.630000E-01	  0.069098189	6.302000E+00
247	  0.069298595	-2.630000E-01	  0.069298595	1.652190E+02	  0.069298595	7.720000E-01	  0.069298595	6.483000E+00
248	  0.069498993	-2.680000E-01	  0.069498993	1.647970E+02	  0.069498993	7.870000E-01	  0.069498993	6.670000E+00
249	  0.069699399	-2.700000E-01	  0.069699399	1.643820E+02	  0.069699399	7.930000E-01	  0.069699399	6.855000E+00
250	  0.069899797	-2.730000E-01	  0.069899797	1.639870E+02	  0.069899797	8.020000E-01	  0.069899797	7.030000E+00
251	  0.070100196	-2.720000E-01	  0.070100196	1.635980E+02	  0.070100196	8.000000E-01	  0.070100196	7.203000E+00
252	  0.070300601	-2.760000E-01	  0.070300601	1.631760E+02	  0.070300601	8.140000E-01	  0.070300601	7.391000E+00
253	  0.070501000	-2.750000E-01	  0.070501000	1.628070E+02	  0.070501000	8.120000E-01	  0.070501000	7.556000E+00
254	  0.070701398	-2.780000E-01	  0.070701398	1.624260E+02	  0.070701398	8.200000E-01	  0.070701398	7.726000E+00
255	  0.070901804	-2.790000E-01	  0.070901804	1.620110E+02	  0.070901804	8.240000E-01	  0.070901804	7.911000E+00
256	  0.071102202	-2.760000E-01	  0.071102202	1.615870E+02	  0.071102202	8.170000E-01	  0.071102202	8.101000E+00
257	  0.071302600	-2.800000E-01	  0.071302600	1.611990E+02	  0.071302600	8.290000E-01	  0.071302600	8.275000E+00
258	  0.071503006	-2.780000E-01	  0.071503006	1.607790E+02	  0.071503006	8.240000E-01	  0.071503006	8.464000E+00
259	  0.071703404	-2.760000E-01	  0.071703404	1.603760E+02	  0.071703404	8.200000E-01	  0.071703404	8.644000E+00
260	  0.071903802	-2.810000E-01	  0.071903802	1.599690E+02	  0.071903802	8.340000E-01	  0.071903802	8.827000E+00
261	  0.072104208	-2.790000E-01	  0.072104208	1.595530E+02	  0.072104208	8.300000E-01	  0.072104208	9.014000E+00
262	  0.072304606	-2.800000E-01	  0.072304606	1.591480E+02	  0.072304606	8.330000E-01	  0.072304606	9.197000E+00
263	  0.072505005	-2.800000E-01	  0.072505005	1.587730E+02	  0.072505005	8.360000E-01	  0.072505005	9.366000E+00
264	  0.072705410	-2.810000E-01	  0.072705410	1.583960E+02	  0.072705410	8.390000E-01	  0.072705410	9.537000E+00
265	  0.072905809	-2.850000E-01	  0.072905809	1.579780E+02	  0.072905809	8.530000E-01	  0.072905809	9.725000E+00
266	  0.073106214	-2.840000E-01	  0.073106214	1.575690E+02	  0.073106214	8.500000E-01	  0.073106214	9.911000E+00
267	  0.073306613	-2.810000E-01	  0.073306613	1.571880E+02	  0.073306613	8.420000E-01	  0.073306613	1.008400E+01
268	  0.073507011	-2.800000E-01	  0.073507011	1.567820E+02	  0.073507011	8.410000E-01	  0.073507011	1.026800E+01
269	  0.073707417	-2.760000E-01	  0.073707417	1.564050E+02	  0.073707417	8.310000E-01	  0.073707417	1.044000E+01
270	  0.073907815	-2.770000E-01	  0.073907815	1.560560E+02	  0.073907815	8.330000E-01	  0.073907815	1.059900E+01
271	  0.074108213	-2.760000E-01	  0.074108213	1.556770E+02	  0.074108213	8.320000E-01	  0.074108213	1.077200E+01
272	  0.074308619	-2.780000E-01	  0.074308619	1.553110E+02	  0.074308619	8.400000E-01	  0.074308619	1.093900E+01
273	  0.074509017	-2.820000E-01	  0.074509017	1.549210E+02	  0.074509017	8.540000E-01	  0.074509017	1.111700E+01
274	  0.074709415	-2.830000E-01	  0.074709415	1.545160E+02	  0.074709415	8.560000E-01	  0.074709415	1.130200E+01
275	  0.074909821	-2.860000E-01	  0.074909821	1.541430E+02	  0.074909821	8.670000E-01	  0.074909821	1.147400E+01
276	  0.075110219	-2.880000E-01	  0.075110219	1.537590E+02	  0.075110219	8.750000E-01	  0.075110219	1.165000E+01
277	  0.075310618	-2.910000E-01	  0.075310618	1.533670E+02	  0.075310618	8.850000E-01	  0.075310618	1.183000E+01
278	  0.075511023	-2.920000E-01	  0.075511023	1.530080E+02	  0.075511023	8.900000E-01	  0.075511023	1.199600E+01
279	  0.075711422	-2.930000E-01	  0.075711422	1.526250E+02	  0.075711422	8.940000E-01	  0.075711422	1.217300E+01
280	  0.075911827	-2.930000E-01	  0.075911827	1.522490E+02	  0.075911827	8.960000E-01	  0.075911827	1.234700E+01
281	  0.076112226	-2.930000E-01	  0.076112226	1.518590E+02	  0.076112226	8.960000E-01	  0.076112226	1.252700E+01
282	  0.076312624	-2.920000E-01	  0.076312624	1.514600E+02	  0.076312624	8.950000E-01	  0.076312624	1.271300E+01
283	  0.076513030	-2.920000E-01	  0.076513030	1.510910E+02	  0.076513030	8.980000E-01	  0.076513030	1.288400E+01
284	  0.076713428	-2.890000E-01	  0.076713428	1.506940E+02	  0.076713428	8.890000E-01	  0.076713428	1.306900E+01
285	  0.076913826	-2.900000E-01	  0.076913826	1.503110E+02	  0.076913826	8.940000E-01	  0.076913826	1.324800E+01
286	  0.077114232	-2.880000E-01	  0.077114232	1.499510E+02	  0.077114232	8.900000E-01	  0.077114232	1.341600E+01
287	  0.077314630	-2.870000E-01	  0.077314630	1.495800E+02	  0.077314630	8.870000E-01	  0.077314630	1.359000E+01
288	  0.077515028	-2.860000E-01	  0.077515028	1.491990E+02	  0.077515028	8.860000E-01	  0.077515028	1.376800E+01
289	  0.077715434	-2.910000E-01	  0.077715434	1.488360E+02	  0.077715434	9.040000E-01	  0.077715434	1.393900E+01
290	  0.077915832	-2.910000E-01	  0.077915832	1.484950E+02	  0.077915832	9.050000E-01	  0.077915832	1.409900E+01
291	  0.078116231	-2.940000E-01	  0.078116231	1.481070E+02	  0.078116231	9.160000E-01	  0.078116231	1.428200E+01
292	  0.078316636	-2.950000E-01	  0.078316636	1.477370E+02	  0.078316636	9.230000E-01	  0.078316636	1.445600E+01
293	  0.078517035	-2.970000E-01	  0.078517035	1.473300E+02	  0.078517035	9.280000E-01	  0.078517035	1.464900E+01
294	  0.078717433	-2.910000E-01	  0.078717433	1.469440E+02	  0.078717433	9.130000E-01	  0.078717433	1.483200E+01
295	  0.078917839	-2.890000E-01	  0.078917839	1.466060E+02	  0.078917839	9.080000E-01	  0.078917839	1.499200E+01
296	  0.079118237	-2.890000E-01	  0.079118237	1.462360E+02	  0.079118237	9.100000E-01	  0.079118237	1.516900E+01
297	  0.079318643	-2.870000E-01	  0.079318643	1.458960E+02	  0.079318643	9.040000E-01	  0.079318643	1.533100E+01
298	  0.079519041	-2.890000E-01	  0.079519041	1.455430E+02	  0.079519041	9.140000E-01	  0.079519041	1.549900E+01
299	  0.079719439	-2.920000E-01	  0.079719439	1.451500E+02	  0.079719439	9.230000E-01	  0.079719439	1.568700E+01
300	  0.079919845	-2.940000E-01	  0.079919845	1.447810E+02	  0.079919845	9.330000E-01	  0.079919845	1.586400E+01
301	  0.080120243	-2.970000E-01	  0.080120243	1.444070E+02	  0.080120243	9.430000E-01	  0.080120243	1.604400E+01
302	  0.080320641	-3.010000E-01	  0.080320641	1.440320E+02	  0.080320641	9.580000E-01	  0.080320641	1.622400E+01
303	  0.080521047	-3.040000E-01	  0.080521047	1.436430E+02	  0.080521047	9.710000E-01	  0.080521047	1.641200E+01
304	  0.080721445	-3.080000E-01	  0.080721445	1.432790E+02	  0.080721445	9.850000E-01	  0.080721445	1.658800E+01
305	  0.080921844	-3.080000E-01	  0.080921844	1.428940E+02	  0.080921844	9.860000E-01	  0.080921844	1.677400E+01
306	  0.081122249	-3.060000E-01	  0.081122249	1.425060E+02	  0.081122249	9.840000E-01	  0.081122249	1.696300E+01
307	  0.081322648	-3.070000E-01	  0.081322648	1.421230E+02	  0.081322648	9.890000E-01	  0.081322648	1.714900E+01
308	  0.081523046	-3.050000E-01	  0.081523046	1.417270E+02	  0.081523046	9.850000E-01	  0.081523046	1.734300E+01
309	  0.081723452	-3.030000E-01	  0.081723452	1.413620E+02	  0.081723452	9.790000E-01	  0.081723452	1.752200E+01
310	  0.081923850	-3.030000E-01	  0.081923850	1.409850E+02	  0.081923850	9.820000E-01	  0.081923850	1.770700E+01
311	  0.082124248	-3.040000E-01	  0.082124248	1.406070E+02	  0.082124248	9.870000E-01	  0.082124248	1.789200E+01
312	  0.082324654	-2.990000E-01	  0.082324654	1.402310E+02	  0.082324654	9.730000E-01	  0.082324654	1.807800E+01
313	  0.082525052	-2.940000E-01	  0.082525052	1.398660E+02	  0.082525052	9.600000E-01	  0.082525052	1.825800E+01
314	  0.082725458	-2.960000E-01	  0.082725458	1.395230E+02	  0.082725458	9.690000E-01	  0.082725458	1.842800E+01
315	  0.082925856	-2.970000E-01	  0.082925856	1.392030E+02	  0.082925856	9.740000E-01	  0.082925856	1.858700E+01
316	  0.083126254	-2.980000E-01	  0.083126254	1.388470E+02	  0.083126254	9.800000E-01	  0.083126254	1.876300E+01
317	  0.083326660	-3.040000E-01	  0.083326660	1.385020E+02	  0.083326660	1.003000E+00	  0.083326660	1.893500E+01
318	  0.083527058	-3.030000E-01	  0.083527058	1.381070E+02	  0.083527058	1.000000E+00	  0.083527058	1.913200E+01
319	  0.083727457	-3.040000E-01	  0.083727457	1.377320E+02	  0.083727457	1.007000E+00	  0.083727457	1.932000E+01
320	  0.083927862	-3.010000E-01	  0.083927862	1.373580E+02	  0.083927862	1.000000E+00	  0.083927862	1.950800E+01
321	  0.084128261	-3.000000E-01	  0.084128261	1.370120E+02	  0.084128261	9.980000E-01	  0.084128261	1.968200E+01
322	  0.084328659	-2.990000E-01	  0.084328659	1.366470E+02	  0.084328659	9.960000E-01	  0.084328659	1.986600E+01
323	  0.084529065	-2.990000E-01	  0.084529065	1.363280E+02	  0.084529065	1.001000E+00	  0.084529065	2.002700E+01
324	  0.084729463	-3.000000E-01	  0.084729463	1.359560E+02	  0.084729463	1.005000E+00	  0.084729463	2.021600E+01
325	  0.084929861	-3.030000E-01	  0.084929861	1.355930E+02	  0.084929861	1.018000E+00	  0.084929861	2.040000E+01
326	  0.085130267	-3.050000E-01	  0.085130267	1.352310E+02	  0.085130267	1.027000E+00	  0.085130267	2.058400E+01
327	  0.085330658	-3.060000E-01	  0.085330658	1.348760E+02	  0.085330658	1.034000E+00	  0.085330658	2.076600E+01
328	  0.085531056	-3.100000E-01	  0.085531056	1.345080E+02	  0.085531056	1.050000E+00	  0.085531056	2.095400E+01
329	  0.085731462	-3.120000E-01	  0.085731462	1.341600E+02	  0.085731462	1.061000E+00	  0.085731462	2.113200E+01
330	  0.085931860	-3.190000E-01	  0.085931860	1.337650E+02	  0.085931860	1.086000E+00	  0.085931860	2.133600E+01
331	  0.086132258	-3.200000E-01	  0.086132258	1.333980E+02	  0.086132258	1.092000E+00	  0.086132258	2.152500E+01
332	  0.086332664	-3.200000E-01	  0.086332664	1.330080E+02	  0.086332664	1.095000E+00	  0.086332664	2.172700E+01
333	  0.086533062	-3.160000E-01	  0.086533062	1.326310E+02	  0.086533062	1.085000E+00	  0.086533062	2.192300E+01
334	  0.086733460	-3.150000E-01	  0.086733460	1.322480E+02	  0.086733460	1.085000E+00	  0.086733460	2.212200E+01
335	  0.086933866	-3.140000E-01	  0.086933866	1.319030E+02	  0.086933866	1.086000E+00	  0.086933866	2.230300E+01
336	  0.087134264	-3.130000E-01	  0.087134264	1.315120E+02	  0.087134264	1.085000E+00	  0.087134264	2.250700E+01
337	  0.087334670	-3.120000E-01	  0.087334670	1.311510E+02	  0.087334670	1.083000E+00	  0.087334670	2.269700E+01
338	  0.087535068	-3.090000E-01	  0.087535068	1.307930E+02	  0.087535068	1.075000E+00	  0.087535068	2.288600E+01
339	  0.087735467	-3.040000E-01	  0.087735467	1.304370E+02	  0.087735467	1.062000E+00	  0.087735467	2.307400E+01
340	  0.087935872	-3.010000E-01	  0.087935872	1.301100E+02	  0.087935872	1.056000E+00	  0.087935872	2.324800E+01
341	  0.088136271	-3.010000E-01	  0.088136271	1.297890E+02	  0.088136271	1.058000E+00	  0.088136271	2.341800E+01
342	  0.088336669	-3.060000E-01	  0.088336669	1.294810E+02	  0.088336669	1.078000E+00	  0.088336669	2.358200E+01
343	  0.088537075	-3.060000E-01	  0.088537075	1.291200E+02	  0.088537075	1.083000E+00	  0.088537075	2.377500E+01
344	  0.088737473	-3.060000E-01	  0.088737473	1.287700E+02	  0.088737473	1.084000E+00	  0.088737473	2.396200E+01
345	  0.088937871	-3.100000E-01	  0.088937871	1.283880E+02	  0.088937871	1.101000E+00	  0.088937871	2.416700E+01
346	  0.089138277	-3.090000E-01	  0.089138277	1.280570E+02	  0.089138277	1.101000E+00	  0.089138277	2.434500E+01
347	  0.089338675	-3.100000E-01	  0.089338675	1.277020E+02	  0.089338675	1.109000E+00	  0.089338675	2.453700E+01
348	  0.089539073	-3.090000E-01	  0.089539073	1.273600E+02	  0.089539073	1.109000E+00	  0.089539073	2.472300E+01
349	  0.089739479	-3.100000E-01	  0.089739479	1.270440E+02	  0.089739479	1.116000E+00	  0.089739479	2.489400E+01
350	  0.089939877	-3.090000E-01	  0.089939877	1.266550E+02	  0.089939877	1.113000E+00	  0.089939877	2.510600E+01
351	  0.090140276	-3.110000E-01	  0.090140276	1.263110E+02	  0.090140276	1.124000E+00	  0.090140276	2.529400E+01
352	  0.090340681	-3.110000E-01	  0.090340681	1.259560E+02	  0.090340681	1.129000E+00	  0.090340681	2.548900E+01
353	  0.090541080	-3.130000E-01	  0.090541080	1.256110E+02	  0.090541080	1.140000E+00	  0.090541080	2.567900E+01
354	  0.090741485	-3.190000E-01	  0.090741485	1.252790E+02	  0.090741485	1.163000E+00	  0.090741485	2.586200E+01
355	  0.090941884	-3.210000E-01	  0.090941884	1.249180E+02	  0.090941884	1.178000E+00	  0.090941884	2.606200E+01
356	  0.091142282	-3.290000E-01	  0.091142282	1.245550E+02	  0.091142282	1.210000E+00	  0.091142282	2.626300E+01
357	  0.091342688	-3.290000E-01	  0.091342688	1.241920E+02	  0.091342688	1.213000E+00	  0.091342688	2.646500E+01
358	  0.091543086	-3.310000E-01	  0.091543086	1.238100E+02	  0.091543086	1.224000E+00	  0.091543086	2.667800E+01
359	  0.091743484	-3.280000E-01	  0.091743484	1.234400E+02	  0.091743484	1.219000E+00	  0.091743484	2.688600E+01
360	  0.091943890	-3.280000E-01	  0.091943890	1.230810E+02	  0.091943890	1.224000E+00	  0.091943890	2.708900E+01
361	  0.092144288	-3.290000E-01	  0.092144288	1.227070E+02	  0.092144288	1.231000E+00	  0.092144288	2.730000E+01
362	  0.092344686	-3.270000E-01	  0.092344686	1.223590E+02	  0.092344686	1.229000E+00	  0.092344686	2.749700E+01
363	  0.092545092	-3.260000E-01	  0.092545092	1.219780E+02	  0.092545092	1.229000E+00	  0.092545092	2.771500E+01
364	  0.092745490	-3.220000E-01	  0.092745490	1.216160E+02	  0.092745490	1.219000E+00	  0.092745490	2.792100E+01
365	  0.092945889	-3.210000E-01	  0.092945889	1.213000E+02	  0.092945889	1.218000E+00	  0.092945889	2.810200E+01
366	  0.093146294	-3.150000E-01	  0.093146294	1.209410E+02	  0.093146294	1.199000E+00	  0.093146294	2.831000E+01
367	  0.093346693	-3.200000E-01	  0.093346693	1.206410E+02	  0.093346693	1.220000E+00	  0.093346693	2.848200E+01
368	  0.093547091	-3.130000E-01	  0.093547091	1.203110E+02	  0.093547091	1.200000E+00	  0.093547091	2.867400E+01
369	  0.093747497	-3.180000E-01	  0.093747497	1.199880E+02	  0.093747497	1.223000E+00	  0.093747497	2.886100E+01
370	  0.093947895	-3.170000E-01	  0.093947895	1.196430E+02	  0.093947895	1.223000E+00	  0.093947895	2.906200E+01
371	  0.094148301	-3.180000E-01	  0.094148301	1.193010E+02	  0.094148301	1.231000E+00	  0.094148301	2.926200E+01
372	  0.094348699	-3.170000E-01	  0.094348699	1.189720E+02	  0.094348699	1.230000E+00	  0.094348699	2.945500E+01
373	  0.094549097	-3.210000E-01	  0.094549097	1.186560E+02	  0.094549097	1.250000E+00	  0.094549097	2.964000E+01
374	  0.094749503	-3.190000E-01	  0.094749503	1.183280E+02	  0.094749503	1.247000E+00	  0.094749503	2.983400E+01
375	  0.094949901	-3.190000E-01	  0.094949901	1.180010E+02	  0.094949901	1.251000E+00	  0.094949901	3.002800E+01
376	  0.095150299	-3.190000E-01	  0.095150299	1.176490E+02	  0.095150299	1.256000E+00	  0.095150299	3.023700E+01
377	  0.095350705	-3.170000E-01	  0.095350705	1.173080E+02	  0.095350705	1.252000E+00	  0.095350705	3.044100E+01
378	  0.095551103	-3.190000E-01	  0.095551103	1.170010E+02	  0.095551103	1.262000E+00	  0.095551103	3.062400E+01
379	  0.095751502	-3.160000E-01	  0.095751502	1.166650E+02	  0.095751502	1.258000E+00	  0.095751502	3.082600E+01
380	  0.095951907	-3.210000E-01	  0.095951907	1.163350E+02	  0.095951907	1.282000E+00	  0.095951907	3.102500E+01
381	  0.096152306	-3.250000E-01	  0.096152306	1.160190E+02	  0.096152306	1.300000E+00	  0.096152306	3.121600E+01
382	  0.096352704	-3.280000E-01	  0.096352704	1.156600E+02	  0.096352704	1.320000E+00	  0.096352704	3.143400E+01
383	  0.096553110	-3.290000E-01	  0.096553110	1.153170E+02	  0.096553110	1.330000E+00	  0.096553110	3.164200E+01
384	  0.096753508	-3.320000E-01	  0.096753508	1.149650E+02	  0.096753508	1.343000E+00	  0.096753508	3.185800E+01
385	  0.096953906	-3.310000E-01	  0.096953906	1.146140E+02	  0.096953906	1.344000E+00	  0.096953906	3.207400E+01
386	  0.097154312	-3.330000E-01	  0.097154312	1.142740E+02	  0.097154312	1.358000E+00	  0.097154312	3.228300E+01
387	  0.097354710	-3.310000E-01	  0.097354710	1.139190E+02	  0.097354710	1.357000E+00	  0.097354710	3.250300E+01
388	  0.097555116	-3.330000E-01	  0.097555116	1.135670E+02	  0.097555116	1.370000E+00	  0.097555116	3.272200E+01
389	  0.097755514	-3.330000E-01	  0.097755514	1.132350E+02	  0.097755514	1.376000E+00	  0.097755514	3.292900E+01
390	  0.097955912	-3.290000E-01	  0.097955912	1.128920E+02	  0.097955912	1.363000E+00	  0.097955912	3.314400E+01
391	  0.098156318	-3.260000E-01	  0.098156318	1.125470E+02	  0.098156318	1.358000E+00	  0.098156318	3.336100E+01
392	  0.098356716	-3.260000E-01	  0.098356716	1.122210E+02	  0.098356716	1.364000E+00	  0.098356716	3.356700E+01
393	  0.098557115	-3.250000E-01	  0.098557115	1.119070E+02	  0.098557115	1.363000E+00	  0.098557115	3.376600E+01
394	  0.098757520	-3.240000E-01	  0.098757520	1.115690E+02	  0.098757520	1.364000E+00	  0.098757520	3.398100E+01
395	  0.098957919	-3.240000E-01	  0.098957919	1.112550E+02	  0.098957919	1.368000E+00	  0.098957919	3.418200E+01
396	  0.099158317	-3.240000E-01	  0.099158317	1.109130E+02	  0.099158317	1.374000E+00	  0.099158317	3.440200E+01
397	  0.099358723	-3.210000E-01	  0.099358723	1.105960E+02	  0.099358723	1.370000E+00	  0.099358723	3.460600E+01
398	  0.099559121	-3.230000E-01	  0.099559121	1.102850E+02	  0.099559121	1.380000E+00	  0.099559121	3.480700E+01
399	  0.099759519	-3.240000E-01	  0.099759519	1.099570E+02	  0.099759519	1.393000E+00	  0.099759519	3.502000E+01
400	  0.099959925	-3.210000E-01	  0.099959925	1.096290E+02	  0.099959925	1.385000E+00	  0.099959925	3.523300E+01
401	  0.100160323	-3.290000E-01	  0.100160323	1.092730E+02	  0.100160323	1.426000E+00	  0.100160323	3.546500E+01
402	  0.100360721	-3.160000E-01	  0.100360721	1.089560E+02	  0.100360721	1.376000E+00	  0.100360721	3.567500E+01
403	  0.100561127	-3.240000E-01	  0.100561127	1.086140E+02	  0.100561127	1.414000E+00	  0.100561127	3.590000E+01
404	  0.100761525	-3.120000E-01	  0.100761525	1.083180E+02	  0.100761525	1.369000E+00	  0.100761525	3.609700E+01
405	  0.100961931	-3.210000E-01	  0.100961931	1.079810E+02	  0.100961931	1.414000E+00	  0.100961931	3.632000E+01
406	  0.101162329	-3.280000E-01	  0.101162329	1.076340E+02	  0.101162329	1.450000E+00	  0.101162329	3.655100E+01
407	  0.101362728	-3.240000E-01	  0.101362728	1.072650E+02	  0.101362728	1.437000E+00	  0.101362728	3.679900E+01
408	  0.101563133	-3.290000E-01	  0.101563133	1.069930E+02	  0.101563133	1.465000E+00	  0.101563133	3.698200E+01
409	  0.101763532	-3.280000E-01	  0.101763532	1.066570E+02	  0.101763532	1.467000E+00	  0.101763532	3.720900E+01
410	  0.101963930	-3.250000E-01	  0.101963930	1.062950E+02	  0.101963930	1.464000E+00	  0.101963930	3.745500E+01
411	  0.102164336	-3.330000E-01	  0.102164336	1.059710E+02	  0.102164336	1.503000E+00	  0.102164336	3.767500E+01
412	  0.102364734	-3.270000E-01	  0.102364734	1.056480E+02	  0.102364734	1.485000E+00	  0.102364734	3.789700E+01
413	  0.102565132	-3.310000E-01	  0.102565132	1.052980E+02	  0.102565132	1.508000E+00	  0.102565132	3.813700E+01
414	  0.102765530	-3.290000E-01	  0.102765530	1.049560E+02	  0.102765530	1.505000E+00	  0.102765530	3.837400E+01
415	  0.102965929	-3.270000E-01	  0.102965929	1.046240E+02	  0.102965929	1.503000E+00	  0.102965929	3.860500E+01
416	  0.103166327	-3.230000E-01	  0.103166327	1.042810E+02	  0.103166327	1.492000E+00	  0.103166327	3.884500E+01
417	  0.103366733	-3.260000E-01	  0.103366733	1.039380E+02	  0.103366733	1.513000E+00	  0.103366733	3.908500E+01
418	  0.103567131	-3.250000E-01	  0.103567131	1.036330E+02	  0.103567131	1.517000E+00	  0.103567131	3.930000E+01
419	  0.103767529	-3.280000E-01	  0.103767529	1.032620E+02	  0.103767529	1.539000E+00	  0.103767529	3.956100E+01
420	  0.103967935	-3.180000E-01	  0.103967935	1.029690E+02	  0.103967935	1.498000E+00	  0.103967935	3.977100E+01
421	  0.104168333	-3.290000E-01	  0.104168333	1.026540E+02	  0.104168333	1.556000E+00	  0.104168333	3.999500E+01
422	  0.104368731	-3.210000E-01	  0.104368731	1.023510E+02	  0.104368731	1.522000E+00	  0.104368731	4.021300E+01
423	  0.104569137	-3.210000E-01	  0.104569137	1.020080E+02	  0.104569137	1.529000E+00	  0.104569137	4.046000E+01
424	  0.104769535	-3.250000E-01	  0.104769535	1.016800E+02	  0.104769535	1.558000E+00	  0.104769535	4.069600E+01
425	  0.104969934	-3.250000E-01	  0.104969934	1.013670E+02	  0.104969934	1.563000E+00	  0.104969934	4.092400E+01
426	  0.105170339	-3.340000E-01	  0.105170339	1.010650E+02	  0.105170339	1.613000E+00	  0.105170339	4.114300E+01
427	  0.105370738	-3.280000E-01	  0.105370738	1.007290E+02	  0.105370738	1.593000E+00	  0.105370738	4.139000E+01
428	  0.105571143	-3.320000E-01	  0.105571143	1.003950E+02	  0.105571143	1.620000E+00	  0.105571143	4.163600E+01
429	  0.105771542	-3.300000E-01	  0.105771542	1.000920E+02	  0.105771542	1.615000E+00	  0.105771542	4.186000E+01
430	  0.105971940	-3.260000E-01	  0.105971940	9.975800E+01	  0.105971940	1.607000E+00	  0.105971940	4.210900E+01
431	  0.106172346	-3.330000E-01	  0.106172346	9.939800E+01	  0.106172346	1.647000E+00	  0.106172346	4.237700E+01
432	  0.106372744	-3.300000E-01	  0.106372744	9.910900E+01	  0.106372744	1.643000E+00	  0.106372744	4.259400E+01
433	  0.106573142	-3.330000E-01	  0.106573142	9.879300E+01	  0.106573142	1.662000E+00	  0.106573142	4.283200E+01
434	  0.106773548	-3.320000E-01	  0.106773548	9.846600E+01	  0.106773548	1.666000E+00	  0.106773548	4.308000E+01
435	  0.106973946	-3.340000E-01	  0.106973946	9.814700E+01	  0.106973946	1.684000E+00	  0.106973946	4.332300E+01
436	  0.107174344	-3.300000E-01	  0.107174344	9.783400E+01	  0.107174344	1.671000E+00	  0.107174344	4.356300E+01
437	  0.107374750	-3.320000E-01	  0.107374750	9.750500E+01	  0.107374750	1.693000E+00	  0.107374750	4.381600E+01
438	  0.107575148	-3.330000E-01	  0.107575148	9.720100E+01	  0.107575148	1.703000E+00	  0.107575148	4.405000E+01
439	  0.107775547	-3.310000E-01	  0.107775547	9.684400E+01	  0.107775547	1.706000E+00	  0.107775547	4.432800E+01
440	  0.107975952	-3.310000E-01	  0.107975952	9.657800E+01	  0.107975952	1.713000E+00	  0.107975952	4.453600E+01
441	  0.108176351	-3.300000E-01	  0.108176351	9.624100E+01	  0.108176351	1.712000E+00	  0.108176351	4.480000E+01
442	  0.108376749	-3.280000E-01	  0.108376749	9.593800E+01	  0.108376749	1.715000E+00	  0.108376749	4.503900E+01
443	  0.108577155	-3.320000E-01	  0.108577155	9.558800E+01	  0.108577155	1.741000E+00	  0.108577155	4.531600E+01
444	  0.108777553	-3.240000E-01	  0.108777553	9.530200E+01	  0.108777553	1.707000E+00	  0.108777553	4.554500E+01
445	  0.108977959	-3.240000E-01	  0.108977959	9.499300E+01	  0.108977959	1.716000E+00	  0.108977959	4.579200E+01
446	  0.109178357	-3.330000E-01	  0.109178357	9.470000E+01	  0.109178357	1.771000E+00	  0.109178357	4.602600E+01
447	  0.109378755	-3.230000E-01	  0.109378755	9.437300E+01	  0.109378755	1.727000E+00	  0.109378755	4.629200E+01
448	  0.109579161	-3.260000E-01	  0.109579161	9.407600E+01	  0.109579161	1.755000E+00	  0.109579161	4.653200E+01
449	  0.109779559	-3.230000E-01	  0.109779559	9.374300E+01	  0.109779559	1.750000E+00	  0.109779559	4.680400E+01
450	  0.109979957	-3.220000E-01	  0.109979957	9.345200E+01	  0.109979957	1.748000E+00	  0.109979957	4.704300E+01
451	  0.110180363	-3.270000E-01	  0.110180363	9.315800E+01	  0.110180363	1.783000E+00	  0.110180363	4.728500E+01
452	  0.110380761	-3.310000E-01	  0.110380761	9.283200E+01	  0.110380761	1.817000E+00	  0.110380761	4.755400E+01
453	  0.110581160	-3.300000E-01	  0.110581160	9.249700E+01	  0.110581160	1.820000E+00	  0.110581160	4.783300E+01
454	  0.110781565	-3.290000E-01	  0.110781565	9.218100E+01	  0.110781565	1.824000E+00	  0.110781565	4.809800E+01
455	  0.110981964	-3.320000E-01	  0.110981964	9.185900E+01	  0.110981964	1.851000E+00	  0.110981964	4.836800E+01
456	  0.111182362	-3.310000E-01	  0.111182362	9.153000E+01	  0.111182362	1.855000E+00	  0.111182362	4.864700E+01
457	  0.111382768	-3.280000E-01	  0.111382768	9.122800E+01	  0.111382768	1.853000E+00	  0.111382768	4.890400E+01
458	  0.111583166	-3.270000E-01	  0.111583166	9.090300E+01	  0.111583166	1.855000E+00	  0.111583166	4.918300E+01
459	  0.111783572	-3.340000E-01	  0.111783572	9.058700E+01	  0.111783572	1.905000E+00	  0.111783572	4.945300E+01
460	  0.111983970	-3.330000E-01	  0.111983970	9.026600E+01	  0.111983970	1.907000E+00	  0.111983970	4.973100E+01
461	  0.112184368	-3.270000E-01	  0.112184368	8.997400E+01	  0.112184368	1.887000E+00	  0.112184368	4.998600E+01
462	  0.112384774	-3.310000E-01	  0.112384774	8.962100E+01	  0.112384774	1.917000E+00	  0.112384774	5.029400E+01
463	  0.112585172	-3.240000E-01	  0.112585172	8.932400E+01	  0.112585172	1.887000E+00	  0.112585172	5.055700E+01
464	  0.112785570	-3.260000E-01	  0.112785570	8.900300E+01	  0.112785570	1.910000E+00	  0.112785570	5.084000E+01
465	  0.112985976	-3.290000E-01	  0.112985976	8.866600E+01	  0.112985976	1.940000E+00	  0.112985976	5.113900E+01
466	  0.113186374	-3.320000E-01	  0.113186374	8.840200E+01	  0.113186374	1.969000E+00	  0.113186374	5.137400E+01
467	  0.113386773	-3.260000E-01	  0.113386773	8.807600E+01	  0.113386773	1.942000E+00	  0.113386773	5.166900E+01
468	  0.113587178	-3.260000E-01	  0.113587178	8.776100E+01	  0.113587178	1.953000E+00	  0.113587178	5.195400E+01
469	  0.113787577	-3.280000E-01	  0.113787577	8.746200E+01	  0.113787577	1.977000E+00	  0.113787577	5.222500E+01
470	  0.113987975	-3.210000E-01	  0.113987975	8.714700E+01	  0.113987975	1.944000E+00	  0.113987975	5.251600E+01
471	  0.114188381	-3.330000E-01	  0.114188381	8.682300E+01	  0.114188381	2.028000E+00	  0.114188381	5.281000E+01
472	  0.114388779	-3.310000E-01	  0.114388779	8.654000E+01	  0.114388779	2.028000E+00	  0.114388779	5.307200E+01
473	  0.114589177	-3.240000E-01	  0.114589177	8.623200E+01	  0.114589177	1.996000E+00	  0.114589177	5.336000E+01
474	  0.114789583	-3.260000E-01	  0.114789583	8.593000E+01	  0.114789583	2.020000E+00	  0.114789583	5.364200E+01
475	  0.114989981	-3.260000E-01	  0.114989981	8.564800E+01	  0.114989981	2.035000E+00	  0.114989981	5.390800E+01
476	  0.115190387	-3.300000E-01	  0.115190387	8.536200E+01	  0.115190387	2.070000E+00	  0.115190387	5.417700E+01
477	  0.115390785	-3.300000E-01	  0.115390785	8.505700E+01	  0.115390785	2.083000E+00	  0.115390785	5.446700E+01
478	  0.115591183	-3.340000E-01	  0.115591183	8.474100E+01	  0.115591183	2.117000E+00	  0.115591183	5.476800E+01
479	  0.115791589	-3.320000E-01	  0.115791589	8.441700E+01	  0.115791589	2.116000E+00	  0.115791589	5.508000E+01
480	  0.115991987	-3.360000E-01	  0.115991987	8.410000E+01	  0.115991987	2.160000E+00	  0.115991987	5.538600E+01
481	  0.116192386	-3.340000E-01	  0.116192386	8.378800E+01	  0.116192386	2.159000E+00	  0.116192386	5.569000E+01
482	  0.116392791	-3.340000E-01	  0.116392791	8.345200E+01	  0.116392791	2.175000E+00	  0.116392791	5.601900E+01
483	  0.116593190	-3.370000E-01	  0.116593190	8.314800E+01	  0.116593190	2.202000E+00	  0.116593190	5.631900E+01
484	  0.116793588	-3.380000E-01	  0.116793588	8.285900E+01	  0.116793588	2.220000E+00	  0.116793588	5.660500E+01
485	  0.116993994	-3.380000E-01	  0.116993994	8.254100E+01	  0.116993994	2.237000E+00	  0.116993994	5.692200E+01
486	  0.117194392	-3.370000E-01	  0.117194392	8.220300E+01	  0.117194392	2.247000E+00	  0.117194392	5.726200E+01
487	  0.117394790	-3.400000E-01	  0.117394790	8.189100E+01	  0.117394790	2.279000E+00	  0.117394790	5.757700E+01
488	  0.117595196	-3.360000E-01	  0.117595196	8.159900E+01	  0.117595196	2.265000E+00	  0.117595196	5.787500E+01
489	  0.117795594	-3.310000E-01	  0.117795594	8.128200E+01	  0.117795594	2.245000E+00	  0.117795594	5.820000E+01
490	  0.117995992	-3.330000E-01	  0.117995992	8.097600E+01	  0.117995992	2.278000E+00	  0.117995992	5.851500E+01
491	  0.118196398	-3.310000E-01	  0.118196398	8.067200E+01	  0.118196398	2.275000E+00	  0.118196398	5.883100E+01
492	  0.118396796	-3.280000E-01	  0.118396796	8.038400E+01	  0.118396796	2.267000E+00	  0.118396796	5.913200E+01
493	  0.118597202	-3.300000E-01	  0.118597202	8.008900E+01	  0.118597202	2.297000E+00	  0.118597202	5.944100E+01
494	  0.118797600	-3.260000E-01	  0.118797600	7.979300E+01	  0.118797600	2.282000E+00	  0.118797600	5.975500E+01
495	  0.118997999	-3.280000E-01	  0.118997999	7.949200E+01	  0.118997999	2.310000E+00	  0.118997999	6.007400E+01
496	  0.119198404	-3.300000E-01	  0.119198404	7.920300E+01	  0.119198404	2.340000E+00	  0.119198404	6.038100E+01
497	  0.119398803	-3.300000E-01	  0.119398803	7.894600E+01	  0.119398803	2.351000E+00	  0.119398803	6.065800E+01
498	  0.119599201	-3.270000E-01	  0.119599201	7.863400E+01	  0.119599201	2.348000E+00	  0.119599201	6.099600E+01
499	  0.119799607	-3.260000E-01	  0.119799607	7.835100E+01	  0.119799607	2.355000E+00	  0.119799607	6.130400E+01
500	  0.120000005	-3.250000E-01	  0.120000005	7.806000E+01	  0.120000005	2.358000E+00	  0.120000005	6.162300E+01
