! Anritsu VNA Master:             	Model: MS2036C/10/77
! SN:             	1601066
! /bd0/18may26.balun/2a.r200.2.txt
! Existing Calibration Information:
! TYPE:             	Current Settings	Active Cal Settings
! TIME:             	05/26/2018 08:01:34 PM	05/26/2018 07:26:54 PM
! INTERNAL TEMP:    	45.5 C	45.5 C
! # POINTS:         	500	500
! START FREQ:       	20.000 MHz	20.000 MHz
! STOP FREQ:        	120.000 MHz	120.000 MHz
! SOURCE POWER:     	High	High
! IFBW:             	50 Hz	50 Hz
! AVG FACTOR:       	  1 	  1 
! REF PLANE 1:      	0 mm	0 mm
! REF PLANE 2:      	0 mm	0 mm
! CAL TYPE:         	Full S11	Full S11
! CAL METHOD:       	SOLT	SOLT
! CAL LINE TYPE:    	Coax	Coax
! DUT PORT 1:       	K-Conn(M)	K-Conn(M)
! DUT PORT 2:       	K-Conn(M)	K-Conn(M)
! CAL STATUS:       	OK: Accuracy High	--
! PROP-V:       	0.700
! CABLE LOSS:       	0.000 dB/m
! REF IMPEDANCE:       	50.0
! Trace Specific Parameters:	TR1	TR2	TR3	TR4
! TRACE.#.Y (GRAPH TYPE)	LOG MAG	PHASE	REAL IMPEDANCE	IMAGINARY IMPEDANCE
! TRACE.#.X 	FREQ.GHZ	FREQ.GHZ	FREQ.GHZ	FREQ.GHZ
! S-PARAMETER	S11	S11	S11	S11
! SMOOTH/APERTURE %	0	0	0	0
! WINDOW	NSL	NSL	NSL	NSL
! GATING	OFF	OFF	OFF	OFF
! FGTD	OFF	OFF	OFF	OFF
Marker Information per Trace:	TR1	TR2	TR3	TR4
!MK1	--	--	--	--
!MK2	--	--	--	--
!MK3	--	--	--	--
!MK4	--	--	--	--
!MK5	--	--	--	--
!MK6	--	--	--	--
!MK7	--	--	--	--
!MK8	--	--	--	--
PNT	TR1.FREQ.GHZ	TR1.LOG MAG.dB	TR2.FREQ.GHZ	TR2.PHASE.deg	TR3.FREQ.GHZ	TR3.REAL IMPEDANCE.ohm	TR4.FREQ.GHZ	TR4.IMAGINARY IMPEDANCE.ohm
1	  0.020000000	-4.554000E+00	  0.020000000	-2.265100E+01	  0.020000000	1.259760E+02	  0.020000000	-8.842100E+01
2	  0.020200402	-4.553000E+00	  0.020200402	-2.288200E+01	  0.020200402	1.250850E+02	  0.020200402	-8.866600E+01
3	  0.020400802	-4.554000E+00	  0.020400802	-2.312100E+01	  0.020400802	1.241540E+02	  0.020400802	-8.885400E+01
4	  0.020601204	-4.552000E+00	  0.020601204	-2.336500E+01	  0.020601204	1.232290E+02	  0.020601204	-8.911000E+01
5	  0.020801604	-4.552000E+00	  0.020801604	-2.361300E+01	  0.020801604	1.222790E+02	  0.020801604	-8.929600E+01
6	  0.021002004	-4.552000E+00	  0.021002004	-2.386500E+01	  0.021002004	1.213240E+02	  0.021002004	-8.949900E+01
7	  0.021202406	-4.555000E+00	  0.021202406	-2.411800E+01	  0.021202406	1.203510E+02	  0.021202406	-8.960200E+01
8	  0.021402806	-4.557000E+00	  0.021402806	-2.435700E+01	  0.021402806	1.194480E+02	  0.021402806	-8.972200E+01
9	  0.021603208	-4.557000E+00	  0.021603208	-2.460800E+01	  0.021603208	1.185130E+02	  0.021603208	-8.988300E+01
10	  0.021803608	-4.557000E+00	  0.021803608	-2.481900E+01	  0.021803608	1.177290E+02	  0.021803608	-8.999700E+01
11	  0.022004008	-4.556000E+00	  0.022004008	-2.505300E+01	  0.022004008	1.168730E+02	  0.022004008	-9.015800E+01
12	  0.022204408	-4.557000E+00	  0.022204408	-2.527100E+01	  0.022204408	1.160670E+02	  0.022204408	-9.024300E+01
13	  0.022404809	-4.557000E+00	  0.022404809	-2.548600E+01	  0.022404809	1.152840E+02	  0.022404809	-9.034900E+01
14	  0.022605211	-4.554000E+00	  0.022605211	-2.574400E+01	  0.022605211	1.143570E+02	  0.022605211	-9.051300E+01
15	  0.022805611	-4.557000E+00	  0.022805611	-2.597000E+01	  0.022805611	1.135340E+02	  0.022805611	-9.054600E+01
16	  0.023006011	-4.556000E+00	  0.023006011	-2.619700E+01	  0.023006011	1.127250E+02	  0.023006011	-9.063800E+01
17	  0.023206413	-4.551000E+00	  0.023206413	-2.641700E+01	  0.023206413	1.119510E+02	  0.023206413	-9.083100E+01
18	  0.023406813	-4.547000E+00	  0.023406813	-2.666300E+01	  0.023406813	1.110910E+02	  0.023406813	-9.100800E+01
19	  0.023607215	-4.544000E+00	  0.023607215	-2.689400E+01	  0.023607215	1.102810E+02	  0.023607215	-9.112400E+01
20	  0.023807615	-4.543000E+00	  0.023807615	-2.710900E+01	  0.023807615	1.095310E+02	  0.023807615	-9.120600E+01
21	  0.024008015	-4.549000E+00	  0.024008015	-2.731600E+01	  0.024008015	1.088040E+02	  0.024008015	-9.111500E+01
22	  0.024208417	-4.550000E+00	  0.024208417	-2.752000E+01	  0.024208417	1.081000E+02	  0.024208417	-9.112100E+01
23	  0.024408817	-4.554000E+00	  0.024408817	-2.774400E+01	  0.024408817	1.073290E+02	  0.024408817	-9.106200E+01
24	  0.024609219	-4.558000E+00	  0.024609219	-2.794000E+01	  0.024609219	1.066600E+02	  0.024609219	-9.098600E+01
25	  0.024809619	-4.560000E+00	  0.024809619	-2.817200E+01	  0.024809619	1.058760E+02	  0.024809619	-9.097400E+01
26	  0.025010020	-4.564000E+00	  0.025010020	-2.838900E+01	  0.025010020	1.051480E+02	  0.025010020	-9.088900E+01
27	  0.025210422	-4.567000E+00	  0.025210422	-2.861900E+01	  0.025210422	1.043840E+02	  0.025210422	-9.084600E+01
28	  0.025410822	-4.569000E+00	  0.025410822	-2.887200E+01	  0.025410822	1.035480E+02	  0.025410822	-9.080200E+01
29	  0.025611224	-4.571000E+00	  0.025611224	-2.912900E+01	  0.025611224	1.027080E+02	  0.025611224	-9.073900E+01
30	  0.025811624	-4.571000E+00	  0.025811624	-2.937800E+01	  0.025811624	1.019010E+02	  0.025811624	-9.073700E+01
31	  0.026012026	-4.573000E+00	  0.026012026	-2.964400E+01	  0.026012026	1.010500E+02	  0.026012026	-9.067900E+01
32	  0.026212426	-4.571000E+00	  0.026212426	-2.990500E+01	  0.026212426	1.002160E+02	  0.026212426	-9.068600E+01
33	  0.026412826	-4.570000E+00	  0.026412826	-3.019500E+01	  0.026412826	9.929900E+01	  0.026412826	-9.066000E+01
34	  0.026613226	-4.566000E+00	  0.026613226	-3.042900E+01	  0.026613226	9.856200E+01	  0.026613226	-9.071300E+01
35	  0.026813626	-4.561000E+00	  0.026813626	-3.063000E+01	  0.026813626	9.793100E+01	  0.026813626	-9.077100E+01
36	  0.027014028	-4.560000E+00	  0.027014028	-3.082300E+01	  0.027014028	9.733100E+01	  0.027014028	-9.075700E+01
37	  0.027214428	-4.561000E+00	  0.027214428	-3.102300E+01	  0.027214428	9.672000E+01	  0.027214428	-9.068400E+01
38	  0.027414829	-4.563000E+00	  0.027414829	-3.122400E+01	  0.027414829	9.610700E+01	  0.027414829	-9.060300E+01
39	  0.027615231	-4.565000E+00	  0.027615231	-3.142500E+01	  0.027615231	9.550500E+01	  0.027615231	-9.050900E+01
40	  0.027815631	-4.570000E+00	  0.027815631	-3.165800E+01	  0.027815631	9.481300E+01	  0.027815631	-9.033800E+01
41	  0.028016033	-4.575000E+00	  0.028016033	-3.190200E+01	  0.028016033	9.409500E+01	  0.028016033	-9.017400E+01
42	  0.028216433	-4.573000E+00	  0.028216433	-3.214900E+01	  0.028216433	9.336300E+01	  0.028216433	-9.013800E+01
43	  0.028416833	-4.571000E+00	  0.028416833	-3.242800E+01	  0.028416833	9.254300E+01	  0.028416833	-9.007900E+01
44	  0.028617235	-4.564000E+00	  0.028617235	-3.268400E+01	  0.028617235	9.178400E+01	  0.028617235	-9.011700E+01
45	  0.028817635	-4.562000E+00	  0.028817635	-3.292100E+01	  0.028817635	9.109700E+01	  0.028817635	-9.006400E+01
46	  0.029018037	-4.559000E+00	  0.029018037	-3.314600E+01	  0.029018037	9.044800E+01	  0.029018037	-9.001600E+01
47	  0.029218437	-4.557000E+00	  0.029218437	-3.336500E+01	  0.029218437	8.982300E+01	  0.029218437	-8.996600E+01
48	  0.029418837	-4.553000E+00	  0.029418837	-3.354600E+01	  0.029418837	8.930200E+01	  0.029418837	-8.995000E+01
49	  0.029619239	-4.552000E+00	  0.029619239	-3.372200E+01	  0.029619239	8.880700E+01	  0.029619239	-8.989100E+01
50	  0.029819639	-4.552000E+00	  0.029819639	-3.387600E+01	  0.029819639	8.837700E+01	  0.029819639	-8.982200E+01
51	  0.030020041	-4.551000E+00	  0.030020041	-3.406200E+01	  0.030020041	8.786200E+01	  0.030020041	-8.974500E+01
52	  0.030220442	-4.559000E+00	  0.030220442	-3.425300E+01	  0.030220442	8.736500E+01	  0.030220442	-8.951000E+01
53	  0.030420844	-4.565000E+00	  0.030420844	-3.449300E+01	  0.030420844	8.673200E+01	  0.030420844	-8.927600E+01
54	  0.030621244	-4.570000E+00	  0.030621244	-3.474400E+01	  0.030621244	8.607400E+01	  0.030621244	-8.906000E+01
55	  0.030821644	-4.572000E+00	  0.030821644	-3.500200E+01	  0.030821644	8.539600E+01	  0.030821644	-8.887800E+01
56	  0.031022044	-4.577000E+00	  0.031022044	-3.525800E+01	  0.031022044	8.473800E+01	  0.031022044	-8.866400E+01
57	  0.031222444	-4.574000E+00	  0.031222444	-3.548500E+01	  0.031222444	8.413500E+01	  0.031222444	-8.858400E+01
58	  0.031422846	-4.579000E+00	  0.031422846	-3.573900E+01	  0.031422846	8.349600E+01	  0.031422846	-8.834900E+01
59	  0.031623244	-4.579000E+00	  0.031623244	-3.602800E+01	  0.031623244	8.275500E+01	  0.031623244	-8.817800E+01
60	  0.031823646	-4.581000E+00	  0.031823646	-3.627300E+01	  0.031823646	8.214400E+01	  0.031823646	-8.799600E+01
61	  0.032024048	-4.574000E+00	  0.032024048	-3.652500E+01	  0.032024048	8.148200E+01	  0.032024048	-8.795600E+01
62	  0.032224450	-4.571000E+00	  0.032224450	-3.676800E+01	  0.032224450	8.086400E+01	  0.032224450	-8.785300E+01
63	  0.032424849	-4.563000E+00	  0.032424849	-3.699100E+01	  0.032424849	8.027900E+01	  0.032424849	-8.783600E+01
64	  0.032625251	-4.554000E+00	  0.032625251	-3.718800E+01	  0.032625251	7.975300E+01	  0.032625251	-8.785500E+01
65	  0.032825653	-4.554000E+00	  0.032825653	-3.736500E+01	  0.032825653	7.932100E+01	  0.032825653	-8.773700E+01
66	  0.033026051	-4.558000E+00	  0.033026051	-3.753800E+01	  0.033026051	7.892300E+01	  0.033026051	-8.755100E+01
67	  0.033226453	-4.566000E+00	  0.033226453	-3.771800E+01	  0.033226453	7.852300E+01	  0.033226453	-8.730800E+01
68	  0.033426855	-4.570000E+00	  0.033426855	-3.795100E+01	  0.033426855	7.798900E+01	  0.033426855	-8.707700E+01
69	  0.033627257	-4.572000E+00	  0.033627257	-3.821400E+01	  0.033627257	7.737900E+01	  0.033627257	-8.686200E+01
70	  0.033827655	-4.575000E+00	  0.033827655	-3.847300E+01	  0.033827655	7.678900E+01	  0.033827655	-8.662500E+01
71	  0.034028057	-4.578000E+00	  0.034028057	-3.872100E+01	  0.034028057	7.623100E+01	  0.034028057	-8.640100E+01
72	  0.034228459	-4.577000E+00	  0.034228459	-3.898700E+01	  0.034228459	7.561700E+01	  0.034228459	-8.622500E+01
73	  0.034428857	-4.577000E+00	  0.034428857	-3.922100E+01	  0.034428857	7.508400E+01	  0.034428857	-8.605900E+01
74	  0.034629259	-4.570000E+00	  0.034629259	-3.944300E+01	  0.034629259	7.455200E+01	  0.034629259	-8.598700E+01
75	  0.034829661	-4.562000E+00	  0.034829661	-3.968000E+01	  0.034829661	7.398500E+01	  0.034829661	-8.591900E+01
76	  0.035030060	-4.560000E+00	  0.035030060	-3.990500E+01	  0.035030060	7.348000E+01	  0.035030060	-8.577400E+01
77	  0.035230462	-4.556000E+00	  0.035230462	-4.009300E+01	  0.035230462	7.304600E+01	  0.035230462	-8.568700E+01
78	  0.035430863	-4.554000E+00	  0.035430863	-4.026600E+01	  0.035430863	7.265600E+01	  0.035430863	-8.558300E+01
79	  0.035631265	-4.558000E+00	  0.035631265	-4.046000E+01	  0.035631265	7.226000E+01	  0.035631265	-8.536700E+01
80	  0.035831664	-4.562000E+00	  0.035831664	-4.064800E+01	  0.035831664	7.187700E+01	  0.035831664	-8.516600E+01
81	  0.036032066	-4.567000E+00	  0.036032066	-4.088800E+01	  0.036032066	7.139200E+01	  0.036032066	-8.490300E+01
82	  0.036232468	-4.573000E+00	  0.036232468	-4.113100E+01	  0.036232468	7.091400E+01	  0.036232468	-8.461800E+01
83	  0.036432866	-4.579000E+00	  0.036432866	-4.139000E+01	  0.036432866	7.040300E+01	  0.036432866	-8.433400E+01
84	  0.036633268	-4.583000E+00	  0.036633268	-4.165100E+01	  0.036633268	6.988700E+01	  0.036633268	-8.406800E+01
85	  0.036833670	-4.588000E+00	  0.036833670	-4.192400E+01	  0.036833670	6.935600E+01	  0.036833670	-8.377800E+01
86	  0.037034072	-4.591000E+00	  0.037034072	-4.217000E+01	  0.037034072	6.887800E+01	  0.037034072	-8.353100E+01
87	  0.037234470	-4.588000E+00	  0.037234470	-4.241900E+01	  0.037234470	6.836100E+01	  0.037234470	-8.336700E+01
88	  0.037434869	-4.585000E+00	  0.037434869	-4.265500E+01	  0.037434869	6.788200E+01	  0.037434869	-8.320000E+01
89	  0.037635271	-4.581000E+00	  0.037635271	-4.291800E+01	  0.037635271	6.734200E+01	  0.037635271	-8.303500E+01
90	  0.037835669	-4.575000E+00	  0.037835669	-4.317600E+01	  0.037835669	6.680500E+01	  0.037835669	-8.289700E+01
91	  0.038036071	-4.565000E+00	  0.038036071	-4.340400E+01	  0.038036071	6.631300E+01	  0.038036071	-8.281900E+01
92	  0.038236473	-4.558000E+00	  0.038236473	-4.357400E+01	  0.038236473	6.594700E+01	  0.038236473	-8.276200E+01
93	  0.038436871	-4.555000E+00	  0.038436871	-4.372200E+01	  0.038436871	6.564800E+01	  0.038436871	-8.267300E+01
94	  0.038637273	-4.562000E+00	  0.038637273	-4.388200E+01	  0.038637273	6.538400E+01	  0.038637273	-8.244800E+01
95	  0.038837675	-4.570000E+00	  0.038837675	-4.406400E+01	  0.038837675	6.509300E+01	  0.038837675	-8.218200E+01
96	  0.039038073	-4.578000E+00	  0.039038073	-4.429700E+01	  0.039038073	6.470500E+01	  0.039038073	-8.188100E+01
97	  0.039238475	-4.587000E+00	  0.039238475	-4.453700E+01	  0.039238475	6.431700E+01	  0.039238475	-8.155800E+01
98	  0.039438877	-4.592000E+00	  0.039438877	-4.477900E+01	  0.039438877	6.390300E+01	  0.039438877	-8.129100E+01
99	  0.039639279	-4.597000E+00	  0.039639279	-4.504800E+01	  0.039639279	6.344800E+01	  0.039639279	-8.099400E+01
100	  0.039839678	-4.598000E+00	  0.039839678	-4.532500E+01	  0.039839678	6.295600E+01	  0.039839678	-8.074300E+01
101	  0.040040080	-4.597000E+00	  0.040040080	-4.558400E+01	  0.040040080	6.249500E+01	  0.040040080	-8.052100E+01
102	  0.040240481	-4.592000E+00	  0.040240481	-4.583100E+01	  0.040240481	6.203500E+01	  0.040240481	-8.035900E+01
103	  0.040440880	-4.585000E+00	  0.040440880	-4.607300E+01	  0.040440880	6.157600E+01	  0.040440880	-8.021900E+01
104	  0.040641282	-4.578000E+00	  0.040641282	-4.628900E+01	  0.040641282	6.116300E+01	  0.040641282	-8.010600E+01
105	  0.040841684	-4.579000E+00	  0.040841684	-4.648700E+01	  0.040841684	6.082800E+01	  0.040841684	-7.992400E+01
106	  0.041042086	-4.580000E+00	  0.041042086	-4.668800E+01	  0.041042086	6.049400E+01	  0.041042086	-7.973000E+01
107	  0.041242484	-4.585000E+00	  0.041242484	-4.690800E+01	  0.041242484	6.015800E+01	  0.041242484	-7.946700E+01
108	  0.041442886	-4.593000E+00	  0.041442886	-4.712600E+01	  0.041442886	5.984500E+01	  0.041442886	-7.917900E+01
109	  0.041643288	-4.597000E+00	  0.041643288	-4.737500E+01	  0.041643288	5.945600E+01	  0.041643288	-7.891600E+01
110	  0.041843686	-4.602000E+00	  0.041843686	-4.764000E+01	  0.041843686	5.905500E+01	  0.041843686	-7.862100E+01
111	  0.042044088	-4.603000E+00	  0.042044088	-4.789900E+01	  0.042044088	5.864200E+01	  0.042044088	-7.837800E+01
112	  0.042244490	-4.607000E+00	  0.042244490	-4.813900E+01	  0.042244490	5.828200E+01	  0.042244490	-7.812100E+01
113	  0.042444889	-4.606000E+00	  0.042444889	-4.839000E+01	  0.042444889	5.787900E+01	  0.042444889	-7.790100E+01
114	  0.042645290	-4.603000E+00	  0.042645290	-4.861900E+01	  0.042645290	5.750500E+01	  0.042645290	-7.771900E+01
115	  0.042845692	-4.598000E+00	  0.042845692	-4.888200E+01	  0.042845692	5.706500E+01	  0.042845692	-7.753400E+01
116	  0.043046094	-4.595000E+00	  0.043046094	-4.915000E+01	  0.043046094	5.663800E+01	  0.043046094	-7.731100E+01
117	  0.043246493	-4.586000E+00	  0.043246493	-4.939500E+01	  0.043246493	5.620700E+01	  0.043246493	-7.718000E+01
118	  0.043446895	-4.579000E+00	  0.043446895	-4.958400E+01	  0.043446895	5.588300E+01	  0.043446895	-7.707200E+01
119	  0.043647297	-4.572000E+00	  0.043647297	-4.977500E+01	  0.043647297	5.555200E+01	  0.043647297	-7.696600E+01
120	  0.043847695	-4.573000E+00	  0.043847695	-4.993200E+01	  0.043847695	5.532500E+01	  0.043847695	-7.680900E+01
121	  0.044048097	-4.575000E+00	  0.044048097	-5.009400E+01	  0.044048097	5.509800E+01	  0.044048097	-7.663600E+01
122	  0.044248499	-4.585000E+00	  0.044248499	-5.030100E+01	  0.044248499	5.485200E+01	  0.044248499	-7.635400E+01
123	  0.044448901	-4.593000E+00	  0.044448901	-5.050100E+01	  0.044448901	5.461300E+01	  0.044448901	-7.608600E+01
124	  0.044649299	-4.597000E+00	  0.044649299	-5.072700E+01	  0.044649299	5.431000E+01	  0.044649299	-7.584100E+01
125	  0.044849701	-4.606000E+00	  0.044849701	-5.095500E+01	  0.044849701	5.404000E+01	  0.044849701	-7.554000E+01
126	  0.045050103	-4.611000E+00	  0.045050103	-5.121600E+01	  0.045050103	5.369600E+01	  0.045050103	-7.526100E+01
127	  0.045250501	-4.614000E+00	  0.045250501	-5.146700E+01	  0.045250501	5.336500E+01	  0.045250501	-7.499700E+01
128	  0.045450903	-4.615000E+00	  0.045450903	-5.174200E+01	  0.045450903	5.298900E+01	  0.045450903	-7.473600E+01
129	  0.045651305	-4.613000E+00	  0.045651305	-5.200600E+01	  0.045651305	5.261000E+01	  0.045651305	-7.451300E+01
130	  0.045851704	-4.608000E+00	  0.045851704	-5.224500E+01	  0.045851704	5.225400E+01	  0.045851704	-7.433800E+01
131	  0.046052106	-4.605000E+00	  0.046052106	-5.247800E+01	  0.046052106	5.192300E+01	  0.046052106	-7.414900E+01
132	  0.046252504	-4.603000E+00	  0.046252504	-5.269700E+01	  0.046252504	5.162100E+01	  0.046252504	-7.395700E+01
133	  0.046452906	-4.607000E+00	  0.046452906	-5.289800E+01	  0.046452906	5.137800E+01	  0.046452906	-7.373900E+01
134	  0.046653304	-4.614000E+00	  0.046653304	-5.312300E+01	  0.046653304	5.112000E+01	  0.046653304	-7.347500E+01
135	  0.046853706	-4.617000E+00	  0.046853706	-5.337800E+01	  0.046853706	5.080900E+01	  0.046853706	-7.321000E+01
136	  0.047054108	-4.622000E+00	  0.047054108	-5.364700E+01	  0.047054108	5.049200E+01	  0.047054108	-7.291800E+01
137	  0.047254506	-4.622000E+00	  0.047254506	-5.388600E+01	  0.047254506	5.018600E+01	  0.047254506	-7.270100E+01
138	  0.047454908	-4.627000E+00	  0.047454908	-5.416300E+01	  0.047454908	4.986500E+01	  0.047454908	-7.240300E+01
139	  0.047655310	-4.627000E+00	  0.047655310	-5.437900E+01	  0.047655310	4.959100E+01	  0.047655310	-7.221100E+01
140	  0.047855709	-4.629000E+00	  0.047855709	-5.461400E+01	  0.047855709	4.931300E+01	  0.047855709	-7.197500E+01
141	  0.048056111	-4.624000E+00	  0.048056111	-5.491000E+01	  0.048056111	4.891800E+01	  0.048056111	-7.174400E+01
142	  0.048256513	-4.622000E+00	  0.048256513	-5.516900E+01	  0.048256513	4.858900E+01	  0.048256513	-7.152400E+01
143	  0.048456915	-4.614000E+00	  0.048456915	-5.544700E+01	  0.048456915	4.820600E+01	  0.048456915	-7.133200E+01
144	  0.048657313	-4.607000E+00	  0.048657313	-5.567500E+01	  0.048657313	4.788900E+01	  0.048657313	-7.118000E+01
145	  0.048857715	-4.603000E+00	  0.048857715	-5.588000E+01	  0.048857715	4.762500E+01	  0.048857715	-7.101800E+01
146	  0.049058117	-4.601000E+00	  0.049058117	-5.605300E+01	  0.049058117	4.740800E+01	  0.049058117	-7.087700E+01
147	  0.049258515	-4.600000E+00	  0.049258515	-5.622000E+01	  0.049258515	4.720800E+01	  0.049258515	-7.073000E+01
148	  0.049458917	-4.603000E+00	  0.049458917	-5.641000E+01	  0.049458917	4.700700E+01	  0.049458917	-7.053000E+01
149	  0.049659319	-4.612000E+00	  0.049659319	-5.660400E+01	  0.049659319	4.683600E+01	  0.049659319	-7.028400E+01
150	  0.049859721	-4.614000E+00	  0.049859721	-5.680000E+01	  0.049859721	4.662000E+01	  0.049859721	-7.009400E+01
151	  0.050060119	-4.624000E+00	  0.050060119	-5.703400E+01	  0.050060119	4.641600E+01	  0.050060119	-6.980400E+01
152	  0.050260521	-4.631000E+00	  0.050260521	-5.725200E+01	  0.050260521	4.621600E+01	  0.050260521	-6.955100E+01
153	  0.050460923	-4.636000E+00	  0.050460923	-5.752900E+01	  0.050460923	4.593500E+01	  0.050460923	-6.926400E+01
154	  0.050661322	-4.635000E+00	  0.050661322	-5.779400E+01	  0.050661322	4.563500E+01	  0.050661322	-6.903400E+01
155	  0.050861724	-4.633000E+00	  0.050861724	-5.807900E+01	  0.050861724	4.531000E+01	  0.050861724	-6.879000E+01
156	  0.051062126	-4.629000E+00	  0.051062126	-5.832900E+01	  0.051062126	4.501700E+01	  0.051062126	-6.859100E+01
157	  0.051262524	-4.629000E+00	  0.051262524	-5.855200E+01	  0.051262524	4.477800E+01	  0.051262524	-6.839100E+01
158	  0.051462926	-4.626000E+00	  0.051462926	-5.878000E+01	  0.051462926	4.451600E+01	  0.051462926	-6.820700E+01
159	  0.051663328	-4.629000E+00	  0.051663328	-5.900900E+01	  0.051663328	4.429200E+01	  0.051663328	-6.798000E+01
160	  0.051863730	-4.631000E+00	  0.051863730	-5.921800E+01	  0.051863730	4.408500E+01	  0.051863730	-6.777800E+01
161	  0.052064128	-4.633000E+00	  0.052064128	-5.945100E+01	  0.052064128	4.385800E+01	  0.052064128	-6.755100E+01
162	  0.052264530	-4.640000E+00	  0.052264530	-5.968900E+01	  0.052264530	4.365100E+01	  0.052264530	-6.729400E+01
163	  0.052464932	-4.640000E+00	  0.052464932	-5.993200E+01	  0.052464932	4.340800E+01	  0.052464932	-6.707200E+01
164	  0.052665330	-4.645000E+00	  0.052665330	-6.018000E+01	  0.052665330	4.318400E+01	  0.052665330	-6.681900E+01
165	  0.052865732	-4.645000E+00	  0.052865732	-6.041400E+01	  0.052865732	4.294700E+01	  0.052865732	-6.661400E+01
166	  0.053066134	-4.643000E+00	  0.053066134	-6.064800E+01	  0.053066134	4.270200E+01	  0.053066134	-6.642000E+01
167	  0.053266536	-4.642000E+00	  0.053266536	-6.089400E+01	  0.053266536	4.245700E+01	  0.053266536	-6.620500E+01
168	  0.053466935	-4.641000E+00	  0.053466935	-6.116600E+01	  0.053466935	4.218600E+01	  0.053466935	-6.597000E+01
169	  0.053667337	-4.637000E+00	  0.053667337	-6.142000E+01	  0.053667337	4.191500E+01	  0.053667337	-6.577100E+01
170	  0.053867739	-4.631000E+00	  0.053867739	-6.167300E+01	  0.053867739	4.163900E+01	  0.053867739	-6.558500E+01
171	  0.054068137	-4.623000E+00	  0.054068137	-6.188700E+01	  0.054068137	4.139000E+01	  0.054068137	-6.544600E+01
172	  0.054268539	-4.623000E+00	  0.054268539	-6.208700E+01	  0.054268539	4.120100E+01	  0.054268539	-6.527000E+01
173	  0.054468941	-4.621000E+00	  0.054468941	-6.226100E+01	  0.054468941	4.102400E+01	  0.054468941	-6.513100E+01
174	  0.054669339	-4.621000E+00	  0.054669339	-6.243400E+01	  0.054669339	4.086600E+01	  0.054669339	-6.497500E+01
175	  0.054869737	-4.624000E+00	  0.054869737	-6.261400E+01	  0.054869737	4.071600E+01	  0.054869737	-6.479900E+01
176	  0.055070139	-4.631000E+00	  0.055070139	-6.282400E+01	  0.055070139	4.056500E+01	  0.055070139	-6.457200E+01
177	  0.055270538	-4.637000E+00	  0.055270538	-6.302300E+01	  0.055270538	4.041600E+01	  0.055270538	-6.436400E+01
178	  0.055470940	-4.639000E+00	  0.055470940	-6.323400E+01	  0.055470940	4.023900E+01	  0.055470940	-6.416500E+01
179	  0.055671342	-4.647000E+00	  0.055671342	-6.347900E+01	  0.055671342	4.006700E+01	  0.055671342	-6.390200E+01
180	  0.055871744	-4.648000E+00	  0.055871744	-6.376300E+01	  0.055871744	3.981900E+01	  0.055871744	-6.365200E+01
181	  0.056072142	-4.651000E+00	  0.056072142	-6.403800E+01	  0.056072142	3.959200E+01	  0.056072142	-6.339600E+01
182	  0.056272544	-4.649000E+00	  0.056272544	-6.428300E+01	  0.056272544	3.936800E+01	  0.056272544	-6.319600E+01
183	  0.056472946	-4.649000E+00	  0.056472946	-6.451700E+01	  0.056472946	3.916600E+01	  0.056472946	-6.299400E+01
184	  0.056673344	-4.648000E+00	  0.056673344	-6.475100E+01	  0.056673344	3.895800E+01	  0.056673344	-6.280100E+01
185	  0.056873746	-4.651000E+00	  0.056873746	-6.498100E+01	  0.056873746	3.877800E+01	  0.056873746	-6.258600E+01
186	  0.057074148	-4.647000E+00	  0.057074148	-6.519500E+01	  0.057074148	3.857800E+01	  0.057074148	-6.242200E+01
187	  0.057274550	-4.651000E+00	  0.057274550	-6.543600E+01	  0.057274550	3.839700E+01	  0.057274550	-6.219600E+01
188	  0.057474948	-4.653000E+00	  0.057474948	-6.567000E+01	  0.057474948	3.821500E+01	  0.057474948	-6.198500E+01
189	  0.057675350	-4.654000E+00	  0.057675350	-6.589400E+01	  0.057675350	3.803400E+01	  0.057675350	-6.179100E+01
190	  0.057875752	-4.659000E+00	  0.057875752	-6.613400E+01	  0.057875752	3.786700E+01	  0.057875752	-6.155900E+01
191	  0.058076151	-4.658000E+00	  0.058076151	-6.635700E+01	  0.058076151	3.768100E+01	  0.058076151	-6.137500E+01
192	  0.058276553	-4.658000E+00	  0.058276553	-6.658600E+01	  0.058276553	3.749600E+01	  0.058276553	-6.118300E+01
193	  0.058476955	-4.662000E+00	  0.058476955	-6.685000E+01	  0.058476955	3.730600E+01	  0.058476955	-6.094000E+01
194	  0.058677353	-4.659000E+00	  0.058677353	-6.709800E+01	  0.058677353	3.709500E+01	  0.058677353	-6.074700E+01
195	  0.058877755	-4.659000E+00	  0.058877755	-6.735400E+01	  0.058877755	3.689500E+01	  0.058877755	-6.053100E+01
196	  0.059078157	-4.655000E+00	  0.059078157	-6.761300E+01	  0.059078157	3.667500E+01	  0.059078157	-6.033200E+01
197	  0.059278559	-4.652000E+00	  0.059278559	-6.786500E+01	  0.059278559	3.646200E+01	  0.059278559	-6.013800E+01
198	  0.059478957	-4.649000E+00	  0.059478957	-6.805300E+01	  0.059478957	3.630300E+01	  0.059478957	-5.999500E+01
199	  0.059679359	-4.645000E+00	  0.059679359	-6.824200E+01	  0.059679359	3.613500E+01	  0.059679359	-5.986100E+01
200	  0.059879761	-4.643000E+00	  0.059879761	-6.845900E+01	  0.059879761	3.596200E+01	  0.059879761	-5.968800E+01
201	  0.060080159	-4.644000E+00	  0.060080159	-6.862500E+01	  0.060080159	3.584600E+01	  0.060080159	-5.954400E+01
202	  0.060280561	-4.647000E+00	  0.060280561	-6.882400E+01	  0.060280561	3.571000E+01	  0.060280561	-5.936800E+01
203	  0.060480963	-4.651000E+00	  0.060480963	-6.902900E+01	  0.060480963	3.558400E+01	  0.060480963	-5.917600E+01
204	  0.060681365	-4.658000E+00	  0.060681365	-6.924600E+01	  0.060681365	3.546400E+01	  0.060681365	-5.896200E+01
205	  0.060881764	-4.664000E+00	  0.060881764	-6.947000E+01	  0.060881764	3.533100E+01	  0.060881764	-5.875100E+01
206	  0.061082166	-4.670000E+00	  0.061082166	-6.972300E+01	  0.061082166	3.518400E+01	  0.061082166	-5.851300E+01
207	  0.061282568	-4.674000E+00	  0.061282568	-6.999900E+01	  0.061282568	3.500600E+01	  0.061282568	-5.827000E+01
208	  0.061482966	-4.673000E+00	  0.061482966	-7.023900E+01	  0.061482966	3.483200E+01	  0.061482966	-5.807800E+01
209	  0.061683368	-4.675000E+00	  0.061683368	-7.048300E+01	  0.061683368	3.466800E+01	  0.061683368	-5.787300E+01
210	  0.061883770	-4.675000E+00	  0.061883770	-7.072900E+01	  0.061883770	3.449700E+01	  0.061883770	-5.767400E+01
211	  0.062084168	-4.677000E+00	  0.062084168	-7.096100E+01	  0.062084168	3.434600E+01	  0.062084168	-5.747700E+01
212	  0.062284570	-4.676000E+00	  0.062284570	-7.120300E+01	  0.062284570	3.417700E+01	  0.062284570	-5.728600E+01
213	  0.062484972	-4.672000E+00	  0.062484972	-7.140000E+01	  0.062484972	3.401900E+01	  0.062484972	-5.714700E+01
214	  0.062685370	-4.671000E+00	  0.062685370	-7.162800E+01	  0.062685370	3.386000E+01	  0.062685370	-5.696800E+01
215	  0.062885776	-4.675000E+00	  0.062885776	-7.182700E+01	  0.062885776	3.375200E+01	  0.062885776	-5.678700E+01
216	  0.063086174	-4.680000E+00	  0.063086174	-7.209800E+01	  0.063086174	3.359300E+01	  0.063086174	-5.655200E+01
217	  0.063286573	-4.674000E+00	  0.063286573	-7.233300E+01	  0.063286573	3.340900E+01	  0.063286573	-5.639000E+01
218	  0.063486971	-4.676000E+00	  0.063486971	-7.259100E+01	  0.063486971	3.324900E+01	  0.063486971	-5.617700E+01
219	  0.063687377	-4.678000E+00	  0.063687377	-7.284800E+01	  0.063687377	3.309500E+01	  0.063687377	-5.596300E+01
220	  0.063887775	-4.681000E+00	  0.063887775	-7.307300E+01	  0.063887775	3.296300E+01	  0.063887775	-5.577400E+01
221	  0.064088173	-4.679000E+00	  0.064088173	-7.334300E+01	  0.064088173	3.278000E+01	  0.064088173	-5.556900E+01
222	  0.064288579	-4.676000E+00	  0.064288579	-7.360500E+01	  0.064288579	3.260100E+01	  0.064288579	-5.537300E+01
223	  0.064488977	-4.673000E+00	  0.064488977	-7.381700E+01	  0.064488977	3.245400E+01	  0.064488977	-5.521900E+01
224	  0.064689375	-4.673000E+00	  0.064689375	-7.407400E+01	  0.064689375	3.229100E+01	  0.064689375	-5.502000E+01
225	  0.064889781	-4.672000E+00	  0.064889781	-7.431600E+01	  0.064889781	3.213800E+01	  0.064889781	-5.483300E+01
226	  0.065090179	-4.673000E+00	  0.065090179	-7.453400E+01	  0.065090179	3.200900E+01	  0.065090179	-5.465900E+01
227	  0.065290578	-4.670000E+00	  0.065290578	-7.472300E+01	  0.065290578	3.187600E+01	  0.065290578	-5.452600E+01
228	  0.065490983	-4.671000E+00	  0.065490983	-7.493600E+01	  0.065490983	3.175700E+01	  0.065490983	-5.435400E+01
229	  0.065691382	-4.673000E+00	  0.065691382	-7.512500E+01	  0.065691382	3.165000E+01	  0.065691382	-5.420200E+01
230	  0.065891780	-4.677000E+00	  0.065891780	-7.534100E+01	  0.065891780	3.154400E+01	  0.065891780	-5.401700E+01
231	  0.066092186	-4.679000E+00	  0.066092186	-7.557700E+01	  0.066092186	3.141200E+01	  0.066092186	-5.382900E+01
232	  0.066292584	-4.683000E+00	  0.066292584	-7.582900E+01	  0.066292584	3.128700E+01	  0.066292584	-5.361800E+01
233	  0.066492982	-4.693000E+00	  0.066492982	-7.607800E+01	  0.066492982	3.118800E+01	  0.066492982	-5.339200E+01
234	  0.066693388	-4.693000E+00	  0.066693388	-7.633200E+01	  0.066693388	3.104300E+01	  0.066693388	-5.319600E+01
235	  0.066893786	-4.695000E+00	  0.066893786	-7.661600E+01	  0.066893786	3.088800E+01	  0.066893786	-5.297400E+01
236	  0.067094192	-4.696000E+00	  0.067094192	-7.689100E+01	  0.067094192	3.073800E+01	  0.067094192	-5.276200E+01
237	  0.067294590	-4.697000E+00	  0.067294590	-7.713400E+01	  0.067294590	3.060700E+01	  0.067294590	-5.257300E+01
238	  0.067494988	-4.696000E+00	  0.067494988	-7.740500E+01	  0.067494988	3.045100E+01	  0.067494988	-5.237100E+01
239	  0.067695394	-4.696000E+00	  0.067695394	-7.764500E+01	  0.067695394	3.031600E+01	  0.067695394	-5.219200E+01
240	  0.067895792	-4.698000E+00	  0.067895792	-7.788500E+01	  0.067895792	3.019300E+01	  0.067895792	-5.200500E+01
241	  0.068096191	-4.694000E+00	  0.068096191	-7.813100E+01	  0.068096191	3.004200E+01	  0.068096191	-5.183400E+01
242	  0.068296596	-4.696000E+00	  0.068296596	-7.839100E+01	  0.068296596	2.990900E+01	  0.068296596	-5.163400E+01
243	  0.068496995	-4.695000E+00	  0.068496995	-7.859900E+01	  0.068496995	2.979300E+01	  0.068496995	-5.148200E+01
244	  0.068697393	-4.691000E+00	  0.068697393	-7.885500E+01	  0.068697393	2.964000E+01	  0.068697393	-5.130400E+01
245	  0.068897791	-4.696000E+00	  0.068897791	-7.906000E+01	  0.068897791	2.955400E+01	  0.068897791	-5.113600E+01
246	  0.069098189	-4.697000E+00	  0.069098189	-7.928800E+01	  0.069098189	2.943800E+01	  0.069098189	-5.096500E+01
247	  0.069298595	-4.692000E+00	  0.069298595	-7.958600E+01	  0.069298595	2.926100E+01	  0.069298595	-5.076000E+01
248	  0.069498993	-4.691000E+00	  0.069498993	-7.982000E+01	  0.069498993	2.913200E+01	  0.069498993	-5.059300E+01
249	  0.069699399	-4.693000E+00	  0.069699399	-8.008400E+01	  0.069699399	2.900900E+01	  0.069699399	-5.039100E+01
250	  0.069899797	-4.692000E+00	  0.069899797	-8.030000E+01	  0.069899797	2.889100E+01	  0.069899797	-5.023900E+01
251	  0.070100196	-4.690000E+00	  0.070100196	-8.048700E+01	  0.070100196	2.878900E+01	  0.070100196	-5.010800E+01
252	  0.070300601	-4.685000E+00	  0.070300601	-8.075600E+01	  0.070300601	2.863200E+01	  0.070300601	-4.992600E+01
253	  0.070501000	-4.683000E+00	  0.070501000	-8.095100E+01	  0.070501000	2.852600E+01	  0.070501000	-4.979100E+01
254	  0.070701398	-4.684000E+00	  0.070701398	-8.114200E+01	  0.070701398	2.843400E+01	  0.070701398	-4.965100E+01
255	  0.070901804	-4.683000E+00	  0.070901804	-8.135300E+01	  0.070901804	2.832700E+01	  0.070901804	-4.950000E+01
256	  0.071102202	-4.684000E+00	  0.071102202	-8.155600E+01	  0.071102202	2.823300E+01	  0.071102202	-4.934900E+01
257	  0.071302600	-4.692000E+00	  0.071302600	-8.175700E+01	  0.071302600	2.817200E+01	  0.071302600	-4.918000E+01
258	  0.071503006	-4.696000E+00	  0.071503006	-8.193700E+01	  0.071503006	2.810300E+01	  0.071503006	-4.904000E+01
259	  0.071703404	-4.699000E+00	  0.071703404	-8.217300E+01	  0.071703404	2.800600E+01	  0.071703404	-4.885900E+01
260	  0.071903802	-4.707000E+00	  0.071903802	-8.244000E+01	  0.071903802	2.791400E+01	  0.071903802	-4.864500E+01
261	  0.072104208	-4.711000E+00	  0.072104208	-8.266600E+01	  0.072104208	2.782500E+01	  0.072104208	-4.847200E+01
262	  0.072304606	-4.711000E+00	  0.072304606	-8.293100E+01	  0.072304606	2.770600E+01	  0.072304606	-4.828000E+01
263	  0.072505005	-4.710000E+00	  0.072505005	-8.319300E+01	  0.072505005	2.757600E+01	  0.072505005	-4.810000E+01
264	  0.072705410	-4.715000E+00	  0.072705410	-8.346300E+01	  0.072705410	2.747700E+01	  0.072705410	-4.789300E+01
265	  0.072905809	-4.720000E+00	  0.072905809	-8.374700E+01	  0.072905809	2.736700E+01	  0.072905809	-4.768000E+01
266	  0.073106214	-4.715000E+00	  0.073106214	-8.395400E+01	  0.073106214	2.725000E+01	  0.073106214	-4.754900E+01
267	  0.073306613	-4.714000E+00	  0.073306613	-8.421400E+01	  0.073306613	2.713000E+01	  0.073306613	-4.736900E+01
268	  0.073507011	-4.714000E+00	  0.073507011	-8.444100E+01	  0.073507011	2.702700E+01	  0.073507011	-4.721200E+01
269	  0.073707417	-4.714000E+00	  0.073707417	-8.468300E+01	  0.073707417	2.691900E+01	  0.073707417	-4.704300E+01
270	  0.073907815	-4.708000E+00	  0.073907815	-8.490800E+01	  0.073907815	2.679500E+01	  0.073907815	-4.690300E+01
271	  0.074108213	-4.711000E+00	  0.074108213	-8.514800E+01	  0.074108213	2.670200E+01	  0.074108213	-4.672800E+01
272	  0.074308619	-4.712000E+00	  0.074308619	-8.537500E+01	  0.074308619	2.661100E+01	  0.074308619	-4.656700E+01
273	  0.074509017	-4.717000E+00	  0.074509017	-8.562700E+01	  0.074509017	2.652200E+01	  0.074509017	-4.638100E+01
274	  0.074709415	-4.715000E+00	  0.074709415	-8.586400E+01	  0.074709415	2.641500E+01	  0.074709415	-4.622100E+01
275	  0.074909821	-4.716000E+00	  0.074909821	-8.612100E+01	  0.074909821	2.630800E+01	  0.074909821	-4.604200E+01
276	  0.075110219	-4.710000E+00	  0.075110219	-8.639300E+01	  0.075110219	2.616800E+01	  0.075110219	-4.587200E+01
277	  0.075310618	-4.713000E+00	  0.075310618	-8.661700E+01	  0.075310618	2.608700E+01	  0.075310618	-4.571200E+01
278	  0.075511023	-4.714000E+00	  0.075511023	-8.683900E+01	  0.075511023	2.599800E+01	  0.075511023	-4.555800E+01
279	  0.075711422	-4.713000E+00	  0.075711422	-8.710000E+01	  0.075711422	2.588600E+01	  0.075711422	-4.538400E+01
280	  0.075911827	-4.709000E+00	  0.075911827	-8.731500E+01	  0.075911827	2.578200E+01	  0.075911827	-4.524800E+01
281	  0.076112226	-4.708000E+00	  0.076112226	-8.756000E+01	  0.076112226	2.567700E+01	  0.076112226	-4.508500E+01
282	  0.076312624	-4.706000E+00	  0.076312624	-8.774200E+01	  0.076312624	2.559400E+01	  0.076312624	-4.496900E+01
283	  0.076513030	-4.710000E+00	  0.076513030	-8.795000E+01	  0.076513030	2.552800E+01	  0.076513030	-4.481800E+01
284	  0.076713428	-4.713000E+00	  0.076713428	-8.816000E+01	  0.076713428	2.546000E+01	  0.076713428	-4.466700E+01
285	  0.076913826	-4.719000E+00	  0.076913826	-8.839600E+01	  0.076913826	2.539100E+01	  0.076913826	-4.449500E+01
286	  0.077114232	-4.721000E+00	  0.077114232	-8.864600E+01	  0.077114232	2.530200E+01	  0.077114232	-4.432300E+01
287	  0.077314630	-4.724000E+00	  0.077314630	-8.886900E+01	  0.077314630	2.522800E+01	  0.077314630	-4.416500E+01
288	  0.077515028	-4.729000E+00	  0.077515028	-8.912900E+01	  0.077515028	2.514900E+01	  0.077515028	-4.398000E+01
289	  0.077715434	-4.732000E+00	  0.077715434	-8.936100E+01	  0.077715434	2.507300E+01	  0.077715434	-4.381900E+01
290	  0.077915832	-4.737000E+00	  0.077915832	-8.963000E+01	  0.077915832	2.499400E+01	  0.077915832	-4.362800E+01
291	  0.078116231	-4.736000E+00	  0.078116231	-8.988000E+01	  0.078116231	2.489500E+01	  0.078116231	-4.346500E+01
292	  0.078316636	-4.736000E+00	  0.078316636	-9.018700E+01	  0.078316636	2.477900E+01	  0.078316636	-4.326400E+01
293	  0.078517035	-4.731000E+00	  0.078517035	-9.041800E+01	  0.078517035	2.467200E+01	  0.078517035	-4.312500E+01
294	  0.078717433	-4.732000E+00	  0.078717433	-9.062500E+01	  0.078717433	2.459900E+01	  0.078717433	-4.298800E+01
295	  0.078917839	-4.726000E+00	  0.078917839	-9.089500E+01	  0.078917839	2.447500E+01	  0.078917839	-4.282500E+01
296	  0.079118237	-4.724000E+00	  0.079118237	-9.110400E+01	  0.079118237	2.438800E+01	  0.079118237	-4.269500E+01
297	  0.079318643	-4.721000E+00	  0.079318643	-9.132000E+01	  0.079318643	2.429900E+01	  0.079318643	-4.256000E+01
298	  0.079519041	-4.723000E+00	  0.079519041	-9.155800E+01	  0.079519041	2.422300E+01	  0.079519041	-4.240100E+01
299	  0.079719439	-4.725000E+00	  0.079719439	-9.177200E+01	  0.079719439	2.415100E+01	  0.079719439	-4.226000E+01
300	  0.079919845	-4.723000E+00	  0.079919845	-9.199800E+01	  0.079919845	2.406200E+01	  0.079919845	-4.211800E+01
301	  0.080120243	-4.727000E+00	  0.080120243	-9.223000E+01	  0.080120243	2.399800E+01	  0.080120243	-4.196000E+01
302	  0.080320641	-4.722000E+00	  0.080320641	-9.246700E+01	  0.080320641	2.389400E+01	  0.080320641	-4.181900E+01
303	  0.080521047	-4.727000E+00	  0.080521047	-9.269300E+01	  0.080521047	2.383900E+01	  0.080521047	-4.166100E+01
304	  0.080721445	-4.727000E+00	  0.080721445	-9.293400E+01	  0.080721445	2.375400E+01	  0.080721445	-4.150800E+01
305	  0.080921844	-4.726000E+00	  0.080921844	-9.316500E+01	  0.080921844	2.367200E+01	  0.080921844	-4.136200E+01
306	  0.081122249	-4.725000E+00	  0.081122249	-9.340300E+01	  0.081122249	2.358400E+01	  0.081122249	-4.121400E+01
307	  0.081322648	-4.724000E+00	  0.081322648	-9.360800E+01	  0.081322648	2.351100E+01	  0.081322648	-4.108600E+01
308	  0.081523046	-4.719000E+00	  0.081523046	-9.381700E+01	  0.081523046	2.342200E+01	  0.081523046	-4.096300E+01
309	  0.081723452	-4.721000E+00	  0.081723452	-9.404200E+01	  0.081723452	2.335500E+01	  0.081723452	-4.081700E+01
310	  0.081923850	-4.725000E+00	  0.081923850	-9.423500E+01	  0.081923850	2.330500E+01	  0.081923850	-4.068700E+01
311	  0.082124248	-4.721000E+00	  0.082124248	-9.444700E+01	  0.082124248	2.322000E+01	  0.082124248	-4.056200E+01
312	  0.082324654	-4.729000E+00	  0.082324654	-9.467700E+01	  0.082324654	2.317800E+01	  0.082324654	-4.040000E+01
313	  0.082525052	-4.737000E+00	  0.082525052	-9.491300E+01	  0.082525052	2.313500E+01	  0.082525052	-4.023500E+01
314	  0.082725458	-4.737000E+00	  0.082725458	-9.515700E+01	  0.082725458	2.305500E+01	  0.082725458	-4.008200E+01
315	  0.082925856	-4.745000E+00	  0.082925856	-9.541100E+01	  0.082925856	2.300600E+01	  0.082925856	-3.990800E+01
316	  0.083126254	-4.752000E+00	  0.083126254	-9.564600E+01	  0.083126254	2.295900E+01	  0.083126254	-3.974700E+01
317	  0.083326660	-4.752000E+00	  0.083326660	-9.592200E+01	  0.083326660	2.287200E+01	  0.083326660	-3.957600E+01
318	  0.083527058	-4.754000E+00	  0.083527058	-9.616900E+01	  0.083527058	2.280200E+01	  0.083527058	-3.942000E+01
319	  0.083727457	-4.753000E+00	  0.083727457	-9.642500E+01	  0.083727457	2.271800E+01	  0.083727457	-3.926400E+01
320	  0.083927862	-4.748000E+00	  0.083927862	-9.665600E+01	  0.083927862	2.262700E+01	  0.083927862	-3.913100E+01
321	  0.084128261	-4.747000E+00	  0.084128261	-9.690600E+01	  0.084128261	2.254600E+01	  0.084128261	-3.898000E+01
322	  0.084328659	-4.743000E+00	  0.084328659	-9.712600E+01	  0.084328659	2.246400E+01	  0.084328659	-3.885300E+01
323	  0.084529065	-4.744000E+00	  0.084529065	-9.734100E+01	  0.084529065	2.239900E+01	  0.084529065	-3.872100E+01
324	  0.084729463	-4.745000E+00	  0.084729463	-9.757800E+01	  0.084729463	2.233200E+01	  0.084729463	-3.857500E+01
325	  0.084929861	-4.742000E+00	  0.084929861	-9.779900E+01	  0.084929861	2.225600E+01	  0.084929861	-3.844500E+01
326	  0.085130267	-4.743000E+00	  0.085130267	-9.803400E+01	  0.085130267	2.219000E+01	  0.085130267	-3.830000E+01
327	  0.085330658	-4.746000E+00	  0.085330658	-9.823800E+01	  0.085330658	2.214000E+01	  0.085330658	-3.817100E+01
328	  0.085531056	-4.749000E+00	  0.085531056	-9.846000E+01	  0.085531056	2.208700E+01	  0.085531056	-3.803200E+01
329	  0.085731462	-4.752000E+00	  0.085731462	-9.870900E+01	  0.085731462	2.202700E+01	  0.085731462	-3.787500E+01
330	  0.085931860	-4.751000E+00	  0.085931860	-9.894000E+01	  0.085931860	2.195700E+01	  0.085931860	-3.773800E+01
331	  0.086132258	-4.752000E+00	  0.086132258	-9.916300E+01	  0.086132258	2.189500E+01	  0.086132258	-3.760300E+01
332	  0.086332664	-4.754000E+00	  0.086332664	-9.940800E+01	  0.086332664	2.183100E+01	  0.086332664	-3.745300E+01
333	  0.086533062	-4.751000E+00	  0.086533062	-9.963500E+01	  0.086533062	2.175600E+01	  0.086533062	-3.732200E+01
334	  0.086733460	-4.751000E+00	  0.086733460	-9.987400E+01	  0.086733460	2.168900E+01	  0.086733460	-3.718000E+01
335	  0.086933866	-4.755000E+00	  0.086933866	-1.001180E+02	  0.086933866	2.163600E+01	  0.086933866	-3.702700E+01
336	  0.087134264	-4.755000E+00	  0.087134264	-1.002900E+02	  0.087134264	2.159000E+01	  0.087134264	-3.692500E+01
337	  0.087334670	-4.757000E+00	  0.087334670	-1.005580E+02	  0.087334670	2.152100E+01	  0.087334670	-3.676300E+01
338	  0.087535068	-4.755000E+00	  0.087535068	-1.007740E+02	  0.087535068	2.145500E+01	  0.087535068	-3.663900E+01
339	  0.087735467	-4.756000E+00	  0.087735467	-1.009920E+02	  0.087735467	2.140100E+01	  0.087735467	-3.650700E+01
340	  0.087935872	-4.766000E+00	  0.087935872	-1.012360E+02	  0.087935872	2.137000E+01	  0.087935872	-3.634800E+01
341	  0.088136271	-4.769000E+00	  0.088136271	-1.014760E+02	  0.088136271	2.131900E+01	  0.088136271	-3.620100E+01
342	  0.088336669	-4.773000E+00	  0.088336669	-1.017220E+02	  0.088336669	2.126900E+01	  0.088336669	-3.604900E+01
343	  0.088537075	-4.776000E+00	  0.088537075	-1.019850E+02	  0.088537075	2.120800E+01	  0.088537075	-3.589200E+01
344	  0.088737473	-4.781000E+00	  0.088737473	-1.022250E+02	  0.088737473	2.116300E+01	  0.088737473	-3.574300E+01
345	  0.088937871	-4.778000E+00	  0.088937871	-1.024840E+02	  0.088937871	2.108500E+01	  0.088937871	-3.559800E+01
346	  0.089138277	-4.776000E+00	  0.089138277	-1.027400E+02	  0.089138277	2.101000E+01	  0.089138277	-3.545300E+01
347	  0.089338675	-4.773000E+00	  0.089338675	-1.029900E+02	  0.089338675	2.093600E+01	  0.089338675	-3.531300E+01
348	  0.089539073	-4.767000E+00	  0.089539073	-1.032230E+02	  0.089539073	2.085300E+01	  0.089539073	-3.518800E+01
349	  0.089739479	-4.771000E+00	  0.089739479	-1.034700E+02	  0.089739479	2.080500E+01	  0.089739479	-3.503900E+01
350	  0.089939877	-4.768000E+00	  0.089939877	-1.036710E+02	  0.089939877	2.074000E+01	  0.089939877	-3.493000E+01
351	  0.090140276	-4.769000E+00	  0.090140276	-1.038780E+02	  0.090140276	2.069500E+01	  0.090140276	-3.480800E+01
352	  0.090340681	-4.767000E+00	  0.090340681	-1.041010E+02	  0.090340681	2.063000E+01	  0.090340681	-3.468500E+01
353	  0.090541080	-4.771000E+00	  0.090541080	-1.043200E+02	  0.090541080	2.058900E+01	  0.090541080	-3.455400E+01
354	  0.090741485	-4.773000E+00	  0.090741485	-1.045560E+02	  0.090741485	2.054000E+01	  0.090741485	-3.441500E+01
355	  0.090941884	-4.772000E+00	  0.090941884	-1.047440E+02	  0.090941884	2.049100E+01	  0.090941884	-3.430900E+01
356	  0.091142282	-4.779000E+00	  0.091142282	-1.049870E+02	  0.091142282	2.045600E+01	  0.091142282	-3.416100E+01
357	  0.091342688	-4.779000E+00	  0.091342688	-1.052100E+02	  0.091342688	2.040100E+01	  0.091342688	-3.403500E+01
358	  0.091543086	-4.786000E+00	  0.091543086	-1.054620E+02	  0.091543086	2.036700E+01	  0.091543086	-3.388100E+01
359	  0.091743484	-4.781000E+00	  0.091743484	-1.056930E+02	  0.091743484	2.029300E+01	  0.091743484	-3.375800E+01
360	  0.091943890	-4.785000E+00	  0.091943890	-1.059540E+02	  0.091943890	2.024600E+01	  0.091943890	-3.360600E+01
361	  0.092144288	-4.783000E+00	  0.092144288	-1.061730E+02	  0.092144288	2.018400E+01	  0.092144288	-3.348600E+01
362	  0.092344686	-4.785000E+00	  0.092344686	-1.064320E+02	  0.092344686	2.013400E+01	  0.092344686	-3.333700E+01
363	  0.092545092	-4.787000E+00	  0.092545092	-1.066490E+02	  0.092545092	2.009000E+01	  0.092545092	-3.321300E+01
364	  0.092745490	-4.785000E+00	  0.092745490	-1.068880E+02	  0.092745490	2.002800E+01	  0.092745490	-3.308200E+01
365	  0.092945889	-4.790000E+00	  0.092945889	-1.071510E+02	  0.092945889	1.998400E+01	  0.092945889	-3.292900E+01
366	  0.093146294	-4.790000E+00	  0.093146294	-1.073630E+02	  0.093146294	1.993700E+01	  0.093146294	-3.281000E+01
367	  0.093346693	-4.797000E+00	  0.093346693	-1.076020E+02	  0.093346693	1.990800E+01	  0.093346693	-3.266700E+01
368	  0.093547091	-4.799000E+00	  0.093547091	-1.078440E+02	  0.093547091	1.986000E+01	  0.093547091	-3.253100E+01
369	  0.093747497	-4.807000E+00	  0.093747497	-1.081240E+02	  0.093747497	1.982500E+01	  0.093747497	-3.236500E+01
370	  0.093947895	-4.805000E+00	  0.093947895	-1.083620E+02	  0.093947895	1.976600E+01	  0.093947895	-3.223700E+01
371	  0.094148301	-4.809000E+00	  0.094148301	-1.086150E+02	  0.094148301	1.972300E+01	  0.094148301	-3.209300E+01
372	  0.094348699	-4.803000E+00	  0.094348699	-1.088810E+02	  0.094348699	1.964500E+01	  0.094348699	-3.195500E+01
373	  0.094549097	-4.805000E+00	  0.094549097	-1.091420E+02	  0.094549097	1.959200E+01	  0.094549097	-3.181100E+01
374	  0.094749503	-4.800000E+00	  0.094749503	-1.094020E+02	  0.094749503	1.952100E+01	  0.094749503	-3.167400E+01
375	  0.094949901	-4.801000E+00	  0.094949901	-1.096500E+02	  0.094949901	1.946800E+01	  0.094949901	-3.153900E+01
376	  0.095150299	-4.799000E+00	  0.095150299	-1.098800E+02	  0.095150299	1.941400E+01	  0.095150299	-3.141600E+01
377	  0.095350705	-4.798000E+00	  0.095350705	-1.100980E+02	  0.095350705	1.936500E+01	  0.095350705	-3.129900E+01
378	  0.095551103	-4.796000E+00	  0.095551103	-1.103320E+02	  0.095551103	1.930500E+01	  0.095551103	-3.117700E+01
379	  0.095751502	-4.796000E+00	  0.095751502	-1.105390E+02	  0.095751502	1.926500E+01	  0.095751502	-3.106300E+01
380	  0.095951907	-4.799000E+00	  0.095951907	-1.107670E+02	  0.095951907	1.922800E+01	  0.095951907	-3.093700E+01
381	  0.096152306	-4.800000E+00	  0.096152306	-1.110080E+02	  0.096152306	1.918000E+01	  0.096152306	-3.080600E+01
382	  0.096352704	-4.807000E+00	  0.096352704	-1.112190E+02	  0.096352704	1.916100E+01	  0.096352704	-3.068300E+01
383	  0.096553110	-4.805000E+00	  0.096553110	-1.114570E+02	  0.096553110	1.910500E+01	  0.096553110	-3.055900E+01
384	  0.096753508	-4.804000E+00	  0.096753508	-1.116780E+02	  0.096753508	1.905800E+01	  0.096753508	-3.044100E+01
385	  0.096953906	-4.809000E+00	  0.096953906	-1.119220E+02	  0.096953906	1.902700E+01	  0.096953906	-3.030400E+01
386	  0.097154312	-4.808000E+00	  0.097154312	-1.121650E+02	  0.097154312	1.897400E+01	  0.097154312	-3.017600E+01
387	  0.097354710	-4.808000E+00	  0.097354710	-1.124010E+02	  0.097354710	1.892800E+01	  0.097354710	-3.005000E+01
388	  0.097555116	-4.809000E+00	  0.097555116	-1.126410E+02	  0.097555116	1.888400E+01	  0.097555116	-2.992100E+01
389	  0.097755514	-4.810000E+00	  0.097755514	-1.128880E+02	  0.097755514	1.883800E+01	  0.097755514	-2.979000E+01
390	  0.097955912	-4.809000E+00	  0.097955912	-1.131210E+02	  0.097955912	1.878900E+01	  0.097955912	-2.966800E+01
391	  0.098156318	-4.811000E+00	  0.098156318	-1.133470E+02	  0.098156318	1.875300E+01	  0.098156318	-2.954500E+01
392	  0.098356716	-4.812000E+00	  0.098356716	-1.136110E+02	  0.098356716	1.870300E+01	  0.098356716	-2.940600E+01
393	  0.098557115	-4.817000E+00	  0.098557115	-1.138290E+02	  0.098557115	1.868000E+01	  0.098557115	-2.928500E+01
394	  0.098757520	-4.820000E+00	  0.098757520	-1.140540E+02	  0.098757520	1.864600E+01	  0.098757520	-2.916300E+01
395	  0.098957919	-4.821000E+00	  0.098957919	-1.143160E+02	  0.098957919	1.860300E+01	  0.098957919	-2.902400E+01
396	  0.099158317	-4.820000E+00	  0.099158317	-1.145410E+02	  0.099158317	1.855500E+01	  0.099158317	-2.890800E+01
397	  0.099358723	-4.823000E+00	  0.099358723	-1.148110E+02	  0.099358723	1.851700E+01	  0.099358723	-2.876300E+01
398	  0.099559121	-4.822000E+00	  0.099559121	-1.150470E+02	  0.099559121	1.846800E+01	  0.099559121	-2.864200E+01
399	  0.099759519	-4.820000E+00	  0.099759519	-1.153120E+02	  0.099759519	1.841200E+01	  0.099759519	-2.850700E+01
400	  0.099959925	-4.809000E+00	  0.099959925	-1.155280E+02	  0.099959925	1.833700E+01	  0.099959925	-2.840700E+01
401	  0.100160323	-4.813000E+00	  0.100160323	-1.157030E+02	  0.100160323	1.831600E+01	  0.100160323	-2.831300E+01
402	  0.100360721	-4.814000E+00	  0.100360721	-1.160150E+02	  0.100360721	1.826500E+01	  0.100360721	-2.815000E+01
403	  0.100561127	-4.819000E+00	  0.100561127	-1.162310E+02	  0.100561127	1.824200E+01	  0.100561127	-2.803300E+01
404	  0.100761525	-4.809000E+00	  0.100761525	-1.164940E+02	  0.100761525	1.816300E+01	  0.100761525	-2.790900E+01
405	  0.100961931	-4.806000E+00	  0.100961931	-1.166650E+02	  0.100961931	1.812300E+01	  0.100961931	-2.782400E+01
406	  0.101162329	-4.803000E+00	  0.101162329	-1.168570E+02	  0.101162329	1.807800E+01	  0.101162329	-2.772900E+01
407	  0.101362728	-4.814000E+00	  0.101362728	-1.170600E+02	  0.101362728	1.808000E+01	  0.101362728	-2.761200E+01
408	  0.101563133	-4.811000E+00	  0.101563133	-1.173100E+02	  0.101563133	1.802700E+01	  0.101563133	-2.748700E+01
409	  0.101763532	-4.813000E+00	  0.101763532	-1.175430E+02	  0.101763532	1.799400E+01	  0.101763532	-2.736600E+01
410	  0.101963930	-4.819000E+00	  0.101963930	-1.177280E+02	  0.101963930	1.798200E+01	  0.101963930	-2.726600E+01
411	  0.102164336	-4.817000E+00	  0.102164336	-1.179940E+02	  0.102164336	1.792900E+01	  0.102164336	-2.713200E+01
412	  0.102364734	-4.819000E+00	  0.102364734	-1.182090E+02	  0.102364734	1.789900E+01	  0.102364734	-2.702100E+01
413	  0.102565132	-4.823000E+00	  0.102565132	-1.184510E+02	  0.102565132	1.787200E+01	  0.102565132	-2.689300E+01
414	  0.102765530	-4.825000E+00	  0.102765530	-1.186880E+02	  0.102765530	1.784000E+01	  0.102765530	-2.677100E+01
415	  0.102965929	-4.828000E+00	  0.102965929	-1.189220E+02	  0.102965929	1.781100E+01	  0.102965929	-2.664900E+01
416	  0.103166327	-4.829000E+00	  0.103166327	-1.191480E+02	  0.103166327	1.777600E+01	  0.103166327	-2.653500E+01
417	  0.103366733	-4.831000E+00	  0.103366733	-1.194440E+02	  0.103366733	1.773500E+01	  0.103366733	-2.638300E+01
418	  0.103567131	-4.830000E+00	  0.103567131	-1.196530E+02	  0.103567131	1.769700E+01	  0.103567131	-2.627900E+01
419	  0.103767529	-4.843000E+00	  0.103767529	-1.198920E+02	  0.103767529	1.770100E+01	  0.103767529	-2.614600E+01
420	  0.103967935	-4.844000E+00	  0.103967935	-1.201340E+02	  0.103967935	1.766700E+01	  0.103967935	-2.602300E+01
421	  0.104168333	-4.844000E+00	  0.104168333	-1.203930E+02	  0.104168333	1.762300E+01	  0.104168333	-2.589500E+01
422	  0.104368731	-4.847000E+00	  0.104368731	-1.206160E+02	  0.104368731	1.760000E+01	  0.104368731	-2.577900E+01
423	  0.104569137	-4.853000E+00	  0.104569137	-1.208480E+02	  0.104569137	1.758200E+01	  0.104569137	-2.565800E+01
424	  0.104769535	-4.848000E+00	  0.104769535	-1.210850E+02	  0.104769535	1.752900E+01	  0.104769535	-2.554500E+01
425	  0.104969934	-4.847000E+00	  0.104969934	-1.213300E+02	  0.104969934	1.748800E+01	  0.104969934	-2.542400E+01
426	  0.105170339	-4.850000E+00	  0.105170339	-1.215810E+02	  0.105170339	1.745900E+01	  0.105170339	-2.529700E+01
427	  0.105370738	-4.853000E+00	  0.105370738	-1.218760E+02	  0.105370738	1.742400E+01	  0.105370738	-2.514800E+01
428	  0.105571143	-4.851000E+00	  0.105571143	-1.220820E+02	  0.105571143	1.738600E+01	  0.105571143	-2.504800E+01
429	  0.105771542	-4.854000E+00	  0.105771542	-1.223520E+02	  0.105771542	1.735300E+01	  0.105771542	-2.491300E+01
430	  0.105971940	-4.840000E+00	  0.105971940	-1.226020E+02	  0.105971940	1.727100E+01	  0.105971940	-2.480400E+01
431	  0.106172346	-4.850000E+00	  0.106172346	-1.227810E+02	  0.106172346	1.727800E+01	  0.106172346	-2.470600E+01
432	  0.106372744	-4.843000E+00	  0.106372744	-1.230410E+02	  0.106372744	1.721400E+01	  0.106372744	-2.458600E+01
433	  0.106573142	-4.853000E+00	  0.106573142	-1.233030E+02	  0.106573142	1.720900E+01	  0.106573142	-2.444700E+01
434	  0.106773548	-4.852000E+00	  0.106773548	-1.235070E+02	  0.106773548	1.717700E+01	  0.106773548	-2.434800E+01
435	  0.106973946	-4.858000E+00	  0.106973946	-1.237510E+02	  0.106973946	1.715900E+01	  0.106973946	-2.422400E+01
436	  0.107174344	-4.856000E+00	  0.107174344	-1.240230E+02	  0.107174344	1.711200E+01	  0.107174344	-2.409400E+01
437	  0.107374750	-4.859000E+00	  0.107374750	-1.242270E+02	  0.107374750	1.709600E+01	  0.107374750	-2.399100E+01
438	  0.107575148	-4.854000E+00	  0.107575148	-1.244970E+02	  0.107575148	1.704000E+01	  0.107575148	-2.386500E+01
439	  0.107775547	-4.863000E+00	  0.107775547	-1.247630E+02	  0.107775547	1.703200E+01	  0.107775547	-2.372800E+01
440	  0.107975952	-4.858000E+00	  0.107975952	-1.249640E+02	  0.107975952	1.698700E+01	  0.107975952	-2.363500E+01
441	  0.108176351	-4.867000E+00	  0.108176351	-1.252300E+02	  0.108176351	1.697700E+01	  0.108176351	-2.349800E+01
442	  0.108376749	-4.868000E+00	  0.108376749	-1.255050E+02	  0.108376749	1.694400E+01	  0.108376749	-2.336500E+01
443	  0.108577155	-4.863000E+00	  0.108577155	-1.257060E+02	  0.108577155	1.690000E+01	  0.108577155	-2.327200E+01
444	  0.108777553	-4.871000E+00	  0.108777553	-1.259880E+02	  0.108777553	1.688800E+01	  0.108777553	-2.313000E+01
445	  0.108977959	-4.872000E+00	  0.108977959	-1.262290E+02	  0.108977959	1.685800E+01	  0.108977959	-2.301300E+01
446	  0.109178357	-4.867000E+00	  0.109178357	-1.264490E+02	  0.109178357	1.681100E+01	  0.109178357	-2.291300E+01
447	  0.109378755	-4.870000E+00	  0.109378755	-1.267000E+02	  0.109378755	1.678800E+01	  0.109378755	-2.278900E+01
448	  0.109579161	-4.866000E+00	  0.109579161	-1.269340E+02	  0.109579161	1.674300E+01	  0.109579161	-2.268200E+01
449	  0.109779559	-4.865000E+00	  0.109779559	-1.271690E+02	  0.109779559	1.670900E+01	  0.109779559	-2.257100E+01
450	  0.109979957	-4.867000E+00	  0.109979957	-1.274260E+02	  0.109979957	1.668100E+01	  0.109979957	-2.244700E+01
451	  0.110180363	-4.863000E+00	  0.110180363	-1.276510E+02	  0.110180363	1.663900E+01	  0.110180363	-2.234300E+01
452	  0.110380761	-4.865000E+00	  0.110380761	-1.278690E+02	  0.110380761	1.661800E+01	  0.110380761	-2.223700E+01
453	  0.110581160	-4.865000E+00	  0.110581160	-1.281150E+02	  0.110581160	1.658600E+01	  0.110581160	-2.212100E+01
454	  0.110781565	-4.864000E+00	  0.110781565	-1.283540E+02	  0.110781565	1.655200E+01	  0.110781565	-2.200900E+01
455	  0.110981964	-4.862000E+00	  0.110981964	-1.285800E+02	  0.110981964	1.651800E+01	  0.110981964	-2.190400E+01
456	  0.111182362	-4.858000E+00	  0.111182362	-1.287780E+02	  0.111182362	1.648000E+01	  0.111182362	-2.181400E+01
457	  0.111382768	-4.859000E+00	  0.111382768	-1.290410E+02	  0.111382768	1.645200E+01	  0.111382768	-2.168800E+01
458	  0.111583166	-4.871000E+00	  0.111583166	-1.292520E+02	  0.111583166	1.646200E+01	  0.111583166	-2.157900E+01
459	  0.111783572	-4.865000E+00	  0.111783572	-1.294460E+02	  0.111783572	1.641900E+01	  0.111783572	-2.149300E+01
460	  0.111983970	-4.871000E+00	  0.111983970	-1.297010E+02	  0.111983970	1.640500E+01	  0.111983970	-2.136900E+01
461	  0.112184368	-4.873000E+00	  0.112184368	-1.299550E+02	  0.112184368	1.638300E+01	  0.112184368	-2.124800E+01
462	  0.112384774	-4.873000E+00	  0.112384774	-1.301630E+02	  0.112384774	1.635600E+01	  0.112384774	-2.115000E+01
463	  0.112585172	-4.874000E+00	  0.112585172	-1.304190E+02	  0.112585172	1.633000E+01	  0.112585172	-2.103000E+01
464	  0.112785570	-4.876000E+00	  0.112785570	-1.306450E+02	  0.112785570	1.630900E+01	  0.112785570	-2.092300E+01
465	  0.112985976	-4.880000E+00	  0.112985976	-1.308910E+02	  0.112985976	1.629200E+01	  0.112985976	-2.080500E+01
466	  0.113186374	-4.881000E+00	  0.113186374	-1.311490E+02	  0.113186374	1.626300E+01	  0.113186374	-2.068500E+01
467	  0.113386773	-4.889000E+00	  0.113386773	-1.314070E+02	  0.113386773	1.625800E+01	  0.113386773	-2.055800E+01
468	  0.113587178	-4.890000E+00	  0.113587178	-1.316570E+02	  0.113587178	1.623000E+01	  0.113587178	-2.044200E+01
469	  0.113787577	-4.888000E+00	  0.113787577	-1.319190E+02	  0.113787577	1.619700E+01	  0.113787577	-2.032200E+01
470	  0.113987975	-4.893000E+00	  0.113987975	-1.321950E+02	  0.113987975	1.618000E+01	  0.113987975	-2.019000E+01
471	  0.114188381	-4.892000E+00	  0.114188381	-1.323830E+02	  0.114188381	1.615500E+01	  0.114188381	-2.010500E+01
472	  0.114388779	-4.891000E+00	  0.114388779	-1.326680E+02	  0.114388779	1.611900E+01	  0.114388779	-1.997400E+01
473	  0.114589177	-4.899000E+00	  0.114589177	-1.329230E+02	  0.114589177	1.611500E+01	  0.114589177	-1.985100E+01
474	  0.114789583	-4.893000E+00	  0.114789583	-1.331390E+02	  0.114789583	1.607300E+01	  0.114789583	-1.975600E+01
475	  0.114989981	-4.892000E+00	  0.114989981	-1.334280E+02	  0.114989981	1.603700E+01	  0.114989981	-1.962400E+01
476	  0.115190387	-4.885000E+00	  0.115190387	-1.336590E+02	  0.115190387	1.599200E+01	  0.115190387	-1.952300E+01
477	  0.115390785	-4.889000E+00	  0.115390785	-1.339160E+02	  0.115390785	1.597600E+01	  0.115390785	-1.940200E+01
478	  0.115591183	-4.889000E+00	  0.115591183	-1.341820E+02	  0.115591183	1.594600E+01	  0.115591183	-1.928100E+01
479	  0.115791589	-4.892000E+00	  0.115791589	-1.343620E+02	  0.115791589	1.593800E+01	  0.115791589	-1.919700E+01
480	  0.115991987	-4.889000E+00	  0.115991987	-1.345900E+02	  0.115991987	1.590400E+01	  0.115991987	-1.909500E+01
481	  0.116192386	-4.890000E+00	  0.116192386	-1.348440E+02	  0.116192386	1.587900E+01	  0.116192386	-1.897900E+01
482	  0.116392791	-4.893000E+00	  0.116392791	-1.350690E+02	  0.116392791	1.586500E+01	  0.116392791	-1.887400E+01
483	  0.116593190	-4.893000E+00	  0.116593190	-1.353020E+02	  0.116593190	1.584000E+01	  0.116593190	-1.876800E+01
484	  0.116793588	-4.891000E+00	  0.116793588	-1.355400E+02	  0.116793588	1.581000E+01	  0.116793588	-1.866200E+01
485	  0.116993994	-4.892000E+00	  0.116993994	-1.357790E+02	  0.116993994	1.579000E+01	  0.116993994	-1.855300E+01
486	  0.117194392	-4.895000E+00	  0.117194392	-1.359760E+02	  0.117194392	1.577800E+01	  0.117194392	-1.846100E+01
487	  0.117394790	-4.896000E+00	  0.117394790	-1.362160E+02	  0.117394790	1.575500E+01	  0.117394790	-1.835200E+01
488	  0.117595196	-4.898000E+00	  0.117595196	-1.364620E+02	  0.117595196	1.573900E+01	  0.117595196	-1.823900E+01
489	  0.117795594	-4.899000E+00	  0.117795594	-1.366890E+02	  0.117795594	1.571800E+01	  0.117795594	-1.813700E+01
490	  0.117995992	-4.899000E+00	  0.117995992	-1.368960E+02	  0.117995992	1.569700E+01	  0.117995992	-1.804300E+01
491	  0.118196398	-4.903000E+00	  0.118196398	-1.371580E+02	  0.118196398	1.568400E+01	  0.118196398	-1.792300E+01
492	  0.118396796	-4.905000E+00	  0.118396796	-1.374170E+02	  0.118396796	1.566500E+01	  0.118396796	-1.780500E+01
493	  0.118597202	-4.909000E+00	  0.118597202	-1.376560E+02	  0.118597202	1.565200E+01	  0.118597202	-1.769600E+01
494	  0.118797600	-4.911000E+00	  0.118797600	-1.378980E+02	  0.118797600	1.563500E+01	  0.118797600	-1.758600E+01
495	  0.118997999	-4.907000E+00	  0.118997999	-1.381510E+02	  0.118997999	1.559900E+01	  0.118997999	-1.747500E+01
496	  0.119198404	-4.909000E+00	  0.119198404	-1.384160E+02	  0.119198404	1.558000E+01	  0.119198404	-1.735600E+01
497	  0.119398803	-4.909000E+00	  0.119398803	-1.386920E+02	  0.119398803	1.555300E+01	  0.119398803	-1.723300E+01
498	  0.119599201	-4.911000E+00	  0.119599201	-1.388960E+02	  0.119599201	1.554000E+01	  0.119599201	-1.714100E+01
499	  0.119799607	-4.912000E+00	  0.119799607	-1.391600E+02	  0.119799607	1.551900E+01	  0.119799607	-1.702200E+01
500	  0.120000005	-4.908000E+00	  0.120000005	-1.394160E+02	  0.120000005	1.548300E+01	  0.120000005	-1.691100E+01
