! Anritsu VNA Master:             	Model: MS2036C/10/77
! SN:             	1601066
! /bd0/18may10/256.ew.m8.txt
! Existing Calibration Information:
! TYPE:             	Current Settings	Active Cal Settings
! TIME:             	05/10/2018 10:29:57 AM	05/10/2018 10:22:12 AM
! INTERNAL TEMP:    	47.3 C	47.0 C
! # POINTS:         	494	494
! START FREQ:       	20.000 MHz	20.000 MHz
! STOP FREQ:        	118.797 594 MHz	118.797 594 MHz
! SOURCE POWER:     	High	High
! IFBW:             	50 Hz	50 Hz
! AVG FACTOR:       	  1 	  1 
! REF PLANE 1:      	0 mm	0 mm
! REF PLANE 2:      	0 mm	0 mm
! CAL TYPE:         	Full S22	Full S22
! CAL METHOD:       	SOLT	SOLT
! CAL LINE TYPE:    	Coax	Coax
! DUT PORT 1:       	K-Conn(M)	K-Conn(M)
! DUT PORT 2:       	K-Conn(M)	K-Conn(M)
! CAL STATUS:       	OK: Accuracy High	--
! PROP-V:       	0.700
! CABLE LOSS:       	0.000 dB/m
! REF IMPEDANCE:       	50.0
! Trace Specific Parameters:	TR1	TR2	TR3	TR4
! TRACE.#.Y (GRAPH TYPE)	LOG MAG	PHASE	REAL IMPEDANCE	IMAGINARY IMPEDANCE
! TRACE.#.X 	FREQ.GHZ	FREQ.GHZ	FREQ.GHZ	FREQ.GHZ
! S-PARAMETER	S22	S22	S22	S22
! SMOOTH/APERTURE %	0	0	0	0
! WINDOW	NSL	NSL	NSL	NSL
! GATING	OFF	OFF	OFF	OFF
! FGTD	OFF	OFF	OFF	OFF
Marker Information per Trace:	TR1	TR2	TR3	TR4
!MK1	--	"MK1 TR2:  20.000 MHz,PH:-126.98°"	--	--
!MK2	--	--	"MK2 TR3:  70.100 200 MHz,Z:(16.350 ohm, -1.270 ohm)"	--
!MK3	--	--	--	--
!MK4	--	--	--	--
!MK5	--	--	--	--
!MK6	--	--	--	--
!MK7	--	--	--	--
!MK8	--	--	--	--
PNT	TR1.FREQ.GHZ	TR1.LOG MAG.dB	TR2.FREQ.GHZ	TR2.PHASE.deg	TR3.FREQ.GHZ	TR3.REAL IMPEDANCE.ohm	TR4.FREQ.GHZ	TR4.IMAGINARY IMPEDANCE.ohm
1	  0.020000000	-6.160000E-01	  0.020000000	-1.269750E+02	  0.020000000	2.212000E+00	  0.020000000	-2.490300E+01
2	  0.020200402	-6.190000E-01	  0.020200402	-1.284460E+02	  0.020200402	2.197000E+00	  0.020200402	-2.410700E+01
3	  0.020400802	-6.210000E-01	  0.020400802	-1.299300E+02	  0.020400802	2.178000E+00	  0.020400802	-2.331500E+01
4	  0.020601204	-6.250000E-01	  0.020601204	-1.314230E+02	  0.020601204	2.164000E+00	  0.020601204	-2.252800E+01
5	  0.020801604	-6.300000E-01	  0.020801604	-1.329620E+02	  0.020801604	2.157000E+00	  0.020801604	-2.172600E+01
6	  0.021002004	-6.320000E-01	  0.021002004	-1.344980E+02	  0.021002004	2.140000E+00	  0.021002004	-2.093500E+01
7	  0.021202406	-6.380000E-01	  0.021202406	-1.360330E+02	  0.021202406	2.137000E+00	  0.021202406	-2.015200E+01
8	  0.021402806	-6.410000E-01	  0.021402806	-1.375680E+02	  0.021402806	2.123000E+00	  0.021402806	-1.937800E+01
9	  0.021603208	-6.450000E-01	  0.021603208	-1.390950E+02	  0.021603208	2.115000E+00	  0.021603208	-1.861700E+01
10	  0.021803608	-6.500000E-01	  0.021803608	-1.406360E+02	  0.021803608	2.110000E+00	  0.021803608	-1.785600E+01
11	  0.022004008	-6.540000E-01	  0.022004008	-1.421840E+02	  0.022004008	2.103000E+00	  0.022004008	-1.709900E+01
12	  0.022204408	-6.610000E-01	  0.022204408	-1.437570E+02	  0.022204408	2.105000E+00	  0.022204408	-1.633700E+01
13	  0.022404809	-6.670000E-01	  0.022404809	-1.453510E+02	  0.022404809	2.107000E+00	  0.022404809	-1.557000E+01
14	  0.022605211	-6.730000E-01	  0.022605211	-1.469400E+02	  0.022605211	2.106000E+00	  0.022605211	-1.481400E+01
15	  0.022805611	-6.820000E-01	  0.022805611	-1.485320E+02	  0.022805611	2.117000E+00	  0.022805611	-1.406200E+01
16	  0.023006011	-6.860000E-01	  0.023006011	-1.501230E+02	  0.023006011	2.114000E+00	  0.023006011	-1.331700E+01
17	  0.023206413	-6.900000E-01	  0.023206413	-1.517230E+02	  0.023206413	2.113000E+00	  0.023206413	-1.257300E+01
18	  0.023406813	-6.960000E-01	  0.023406813	-1.533220E+02	  0.023406813	2.114000E+00	  0.023406813	-1.183500E+01
19	  0.023607215	-7.050000E-01	  0.023607215	-1.549270E+02	  0.023607215	2.129000E+00	  0.023607215	-1.109800E+01
20	  0.023807615	-7.170000E-01	  0.023807615	-1.565530E+02	  0.023807615	2.154000E+00	  0.023807615	-1.035700E+01
21	  0.024008015	-7.270000E-01	  0.024008015	-1.581950E+02	  0.024008015	2.169000E+00	  0.024008015	-9.612000E+00
22	  0.024208417	-7.340000E-01	  0.024208417	-1.598640E+02	  0.024208417	2.180000E+00	  0.024208417	-8.861000E+00
23	  0.024408817	-7.410000E-01	  0.024408817	-1.615120E+02	  0.024408817	2.190000E+00	  0.024408817	-8.122000E+00
24	  0.024609219	-7.520000E-01	  0.024609219	-1.631890E+02	  0.024609219	2.210000E+00	  0.024609219	-7.373000E+00
25	  0.024809619	-7.610000E-01	  0.024809619	-1.648430E+02	  0.024809619	2.228000E+00	  0.024809619	-6.639000E+00
26	  0.025010020	-7.720000E-01	  0.025010020	-1.665200E+02	  0.025010020	2.253000E+00	  0.025010020	-5.897000E+00
27	  0.025210422	-7.850000E-01	  0.025210422	-1.681990E+02	  0.025210422	2.283000E+00	  0.025210422	-5.156000E+00
28	  0.025410822	-7.980000E-01	  0.025410822	-1.698900E+02	  0.025410822	2.314000E+00	  0.025410822	-4.413000E+00
29	  0.025611224	-8.120000E-01	  0.025611224	-1.716010E+02	  0.025611224	2.350000E+00	  0.025611224	-3.662000E+00
30	  0.025811624	-8.250000E-01	  0.025811624	-1.733270E+02	  0.025811624	2.381000E+00	  0.025811624	-2.908000E+00
31	  0.026012026	-8.370000E-01	  0.026012026	-1.750550E+02	  0.026012026	2.413000E+00	  0.026012026	-2.153000E+00
32	  0.026212426	-8.510000E-01	  0.026212426	-1.768050E+02	  0.026212426	2.450000E+00	  0.026212426	-1.390000E+00
33	  0.026412826	-8.670000E-01	  0.026412826	-1.785510E+02	  0.026412826	2.495000E+00	  0.026412826	-6.300000E-01
34	  0.026613226	-8.830000E-01	  0.026613226	1.796930E+02	  0.026613226	2.540000E+00	  0.026613226	1.330000E-01
35	  0.026813626	-8.990000E-01	  0.026813626	1.779180E+02	  0.026813626	2.588000E+00	  0.026813626	9.050000E-01
36	  0.027014028	-9.170000E-01	  0.027014028	1.761460E+02	  0.027014028	2.641000E+00	  0.027014028	1.677000E+00
37	  0.027214428	-9.350000E-01	  0.027214428	1.743710E+02	  0.027214428	2.695000E+00	  0.027214428	2.450000E+00
38	  0.027414829	-9.540000E-01	  0.027414829	1.725810E+02	  0.027414829	2.756000E+00	  0.027414829	3.231000E+00
39	  0.027615231	-9.720000E-01	  0.027615231	1.707670E+02	  0.027615231	2.814000E+00	  0.027615231	4.024000E+00
40	  0.027815631	-9.920000E-01	  0.027815631	1.689630E+02	  0.027815631	2.881000E+00	  0.027815631	4.814000E+00
41	  0.028016033	-1.015000E+00	  0.028016033	1.671350E+02	  0.028016033	2.955000E+00	  0.028016033	5.617000E+00
42	  0.028216433	-1.037000E+00	  0.028216433	1.653000E+02	  0.028216433	3.032000E+00	  0.028216433	6.425000E+00
43	  0.028416833	-1.059000E+00	  0.028416833	1.634550E+02	  0.028416833	3.111000E+00	  0.028416833	7.241000E+00
44	  0.028617235	-1.083000E+00	  0.028617235	1.616240E+02	  0.028617235	3.195000E+00	  0.028617235	8.055000E+00
45	  0.028817635	-1.106000E+00	  0.028817635	1.597730E+02	  0.028817635	3.281000E+00	  0.028817635	8.880000E+00
46	  0.029018037	-1.132000E+00	  0.029018037	1.579370E+02	  0.029018037	3.379000E+00	  0.029018037	9.704000E+00
47	  0.029218437	-1.160000E+00	  0.029218437	1.560830E+02	  0.029218437	3.484000E+00	  0.029218437	1.054000E+01
48	  0.029418837	-1.188000E+00	  0.029418837	1.542030E+02	  0.029418837	3.592000E+00	  0.029418837	1.139300E+01
49	  0.029619239	-1.216000E+00	  0.029619239	1.523240E+02	  0.029619239	3.706000E+00	  0.029619239	1.225200E+01
50	  0.029819639	-1.245000E+00	  0.029819639	1.504440E+02	  0.029819639	3.827000E+00	  0.029819639	1.311700E+01
51	  0.030020041	-1.273000E+00	  0.030020041	1.485540E+02	  0.030020041	3.947000E+00	  0.030020041	1.399400E+01
52	  0.030220442	-1.302000E+00	  0.030220442	1.466600E+02	  0.030220442	4.076000E+00	  0.030220442	1.488000E+01
53	  0.030420844	-1.332000E+00	  0.030420844	1.447770E+02	  0.030420844	4.211000E+00	  0.030420844	1.576900E+01
54	  0.030621244	-1.364000E+00	  0.030621244	1.428820E+02	  0.030621244	4.357000E+00	  0.030621244	1.667100E+01
55	  0.030821642	-1.399000E+00	  0.030821642	1.409830E+02	  0.030821642	4.519000E+00	  0.030821642	1.758500E+01
56	  0.031022044	-1.430000E+00	  0.031022044	1.390570E+02	  0.031022044	4.676000E+00	  0.031022044	1.852200E+01
57	  0.031222444	-1.460000E+00	  0.031222444	1.371390E+02	  0.031222444	4.835000E+00	  0.031222444	1.946600E+01
58	  0.031422846	-1.493000E+00	  0.031422846	1.351710E+02	  0.031422846	5.012000E+00	  0.031422846	2.044500E+01
59	  0.031623244	-1.529000E+00	  0.031623244	1.332030E+02	  0.031623244	5.206000E+00	  0.031623244	2.143700E+01
60	  0.031823646	-1.564000E+00	  0.031823646	1.312320E+02	  0.031823646	5.405000E+00	  0.031823646	2.244300E+01
61	  0.032024048	-1.600000E+00	  0.032024048	1.292570E+02	  0.032024048	5.617000E+00	  0.032024048	2.346600E+01
62	  0.032224450	-1.639000E+00	  0.032224450	1.272700E+02	  0.032224450	5.848000E+00	  0.032224450	2.450900E+01
63	  0.032424849	-1.678000E+00	  0.032424849	1.252660E+02	  0.032424849	6.091000E+00	  0.032424849	2.557700E+01
64	  0.032625251	-1.716000E+00	  0.032625251	1.232460E+02	  0.032625251	6.344000E+00	  0.032625251	2.667000E+01
65	  0.032825653	-1.755000E+00	  0.032825653	1.212070E+02	  0.032825653	6.611000E+00	  0.032825653	2.779400E+01
66	  0.033026051	-1.796000E+00	  0.033026051	1.191550E+02	  0.033026051	6.903000E+00	  0.033026051	2.894200E+01
67	  0.033226453	-1.835000E+00	  0.033226453	1.171300E+02	  0.033226453	7.201000E+00	  0.033226453	3.009800E+01
68	  0.033426855	-1.877000E+00	  0.033426855	1.150810E+02	  0.033426855	7.526000E+00	  0.033426855	3.128800E+01
69	  0.033627257	-1.920000E+00	  0.033627257	1.130430E+02	  0.033627257	7.871000E+00	  0.033627257	3.249300E+01
70	  0.033827655	-1.965000E+00	  0.033827655	1.110030E+02	  0.033827655	8.245000E+00	  0.033827655	3.372300E+01
71	  0.034028057	-2.008000E+00	  0.034028057	1.089340E+02	  0.034028057	8.631000E+00	  0.034028057	3.499800E+01
72	  0.034228459	-2.053000E+00	  0.034228459	1.068730E+02	  0.034228459	9.050000E+00	  0.034228459	3.629300E+01
73	  0.034428857	-2.101000E+00	  0.034428857	1.048150E+02	  0.034428857	9.503000E+00	  0.034428857	3.761300E+01
74	  0.034629259	-2.147000E+00	  0.034629259	1.027140E+02	  0.034629259	9.986000E+00	  0.034629259	3.899300E+01
75	  0.034829661	-2.191000E+00	  0.034829661	1.006290E+02	  0.034829661	1.048200E+01	  0.034829661	4.039700E+01
76	  0.035030060	-2.241000E+00	  0.035030060	9.855700E+01	  0.035030060	1.103700E+01	  0.035030060	4.181900E+01
77	  0.035230462	-2.290000E+00	  0.035230462	9.646900E+01	  0.035230462	1.162400E+01	  0.035230462	4.328900E+01
78	  0.035430863	-2.338000E+00	  0.035430863	9.439200E+01	  0.035430863	1.224200E+01	  0.035430863	4.478900E+01
79	  0.035631265	-2.391000E+00	  0.035631265	9.231900E+01	  0.035631265	1.292400E+01	  0.035631265	4.631800E+01
80	  0.035831664	-2.442000E+00	  0.035831664	9.022900E+01	  0.035831664	1.364700E+01	  0.035831664	4.790100E+01
81	  0.036032066	-2.490000E+00	  0.036032066	8.815100E+01	  0.036032066	1.440300E+01	  0.036032066	4.952000E+01
82	  0.036232468	-2.542000E+00	  0.036232468	8.608300E+01	  0.036232468	1.522700E+01	  0.036232468	5.117000E+01
83	  0.036432866	-2.594000E+00	  0.036432866	8.397300E+01	  0.036432866	1.612400E+01	  0.036432866	5.290000E+01
84	  0.036633268	-2.647000E+00	  0.036633268	8.187100E+01	  0.036633268	1.709400E+01	  0.036633268	5.466700E+01
85	  0.036833670	-2.702000E+00	  0.036833670	7.978800E+01	  0.036833670	1.813900E+01	  0.036833670	5.646300E+01
86	  0.037034072	-2.756000E+00	  0.037034072	7.769700E+01	  0.037034072	1.926400E+01	  0.037034072	5.831500E+01
87	  0.037234470	-2.810000E+00	  0.037234470	7.559800E+01	  0.037234470	2.047300E+01	  0.037234470	6.022800E+01
88	  0.037434869	-2.864000E+00	  0.037434869	7.350900E+01	  0.037434869	2.177300E+01	  0.037434869	6.218300E+01
89	  0.037635271	-2.918000E+00	  0.037635271	7.138300E+01	  0.037635271	2.320300E+01	  0.037635271	6.422600E+01
90	  0.037835669	-2.975000E+00	  0.037835669	6.926000E+01	  0.037835669	2.476700E+01	  0.037835669	6.631500E+01
91	  0.038036071	-3.031000E+00	  0.038036071	6.712000E+01	  0.038036071	2.647200E+01	  0.038036071	6.847500E+01
92	  0.038236473	-3.091000E+00	  0.038236473	6.499600E+01	  0.038236473	2.834100E+01	  0.038236473	7.065300E+01
93	  0.038436871	-3.151000E+00	  0.038436871	6.286400E+01	  0.038436871	3.037500E+01	  0.038436871	7.289000E+01
94	  0.038637273	-3.209000E+00	  0.038637273	6.072300E+01	  0.038637273	3.258400E+01	  0.038637273	7.519200E+01
95	  0.038837675	-3.264000E+00	  0.038837675	5.862400E+01	  0.038837675	3.492800E+01	  0.038837675	7.749800E+01
96	  0.039038073	-3.318000E+00	  0.039038073	5.650000E+01	  0.039038073	3.749600E+01	  0.039038073	7.988200E+01
97	  0.039238475	-3.375000E+00	  0.039238475	5.437300E+01	  0.039238475	4.033200E+01	  0.039238475	8.227600E+01
98	  0.039438877	-3.434000E+00	  0.039438877	5.227700E+01	  0.039438877	4.341000E+01	  0.039438877	8.462300E+01
99	  0.039639279	-3.492000E+00	  0.039639279	5.014000E+01	  0.039639279	4.682100E+01	  0.039639279	8.702900E+01
100	  0.039839678	-3.550000E+00	  0.039839678	4.801500E+01	  0.039839678	5.053300E+01	  0.039839678	8.938900E+01
101	  0.040040080	-3.605000E+00	  0.040040080	4.587800E+01	  0.040040080	5.458500E+01	  0.040040080	9.175100E+01
102	  0.040240481	-3.662000E+00	  0.040240481	4.376700E+01	  0.040240481	5.898900E+01	  0.040240481	9.397000E+01
103	  0.040440880	-3.715000E+00	  0.040440880	4.165800E+01	  0.040440880	6.376200E+01	  0.040440880	9.611300E+01
104	  0.040641282	-3.772000E+00	  0.040641282	3.956300E+01	  0.040641282	6.896600E+01	  0.040641282	9.801500E+01
105	  0.040841684	-3.826000E+00	  0.040841684	3.748300E+01	  0.040841684	7.455900E+01	  0.040841684	9.972300E+01
106	  0.041042086	-3.883000E+00	  0.041042086	3.541500E+01	  0.041042086	8.061200E+01	  0.041042086	1.010700E+02
107	  0.041242484	-3.941000E+00	  0.041242484	3.331900E+01	  0.041242484	8.723200E+01	  0.041242484	1.020540E+02
108	  0.041442886	-3.996000E+00	  0.041442886	3.123700E+01	  0.041442886	9.428400E+01	  0.041442886	1.026060E+02
109	  0.041643288	-4.048000E+00	  0.041643288	2.915800E+01	  0.041643288	1.017910E+02	  0.041643288	1.026470E+02
110	  0.041843686	-4.104000E+00	  0.041843686	2.709100E+01	  0.041843686	1.097120E+02	  0.041843686	1.019050E+02
111	  0.042044088	-4.155000E+00	  0.042044088	2.504000E+01	  0.042044088	1.179480E+02	  0.042044088	1.004670E+02
112	  0.042244490	-4.208000E+00	  0.042244490	2.300800E+01	  0.042244490	1.264030E+02	  0.042244490	9.809700E+01
113	  0.042444889	-4.261000E+00	  0.042444889	2.098900E+01	  0.042444889	1.349580E+02	  0.042444889	9.467500E+01
114	  0.042645290	-4.313000E+00	  0.042645290	1.896200E+01	  0.042645290	1.435760E+02	  0.042645290	9.019000E+01
115	  0.042845692	-4.366000E+00	  0.042845692	1.695200E+01	  0.042845692	1.519280E+02	  0.042845692	8.450500E+01
116	  0.043046094	-4.418000E+00	  0.043046094	1.493900E+01	  0.043046094	1.599200E+02	  0.043046094	7.765900E+01
117	  0.043246493	-4.467000E+00	  0.043246493	1.292700E+01	  0.043246493	1.673370E+02	  0.043246493	6.967600E+01
118	  0.043446895	-4.513000E+00	  0.043446895	1.092900E+01	  0.043446895	1.739030E+02	  0.043446895	6.068300E+01
119	  0.043647297	-4.559000E+00	  0.043647297	8.942000E+00	  0.043647297	1.793720E+02	  0.043647297	5.074900E+01
120	  0.043847695	-4.606000E+00	  0.043847695	6.980000E+00	  0.043847695	1.835060E+02	  0.043847695	4.014200E+01
121	  0.044048097	-4.654000E+00	  0.044048097	4.986000E+00	  0.044048097	1.862630E+02	  0.044048097	2.881200E+01
122	  0.044248499	-4.697000E+00	  0.044248499	3.013000E+00	  0.044248499	1.876570E+02	  0.044248499	1.738400E+01
123	  0.044448901	-4.739000E+00	  0.044448901	1.046000E+00	  0.044448901	1.875800E+02	  0.044448901	5.977000E+00
124	  0.044649299	-4.780000E+00	  0.044649299	-9.120000E-01	  0.044649299	1.861080E+02	  0.044649299	-5.120000E+00
125	  0.044849701	-4.824000E+00	  0.044849701	-2.854000E+00	  0.044849701	1.832020E+02	  0.044849701	-1.560900E+01
126	  0.045050103	-4.864000E+00	  0.045050103	-4.834000E+00	  0.045050103	1.792510E+02	  0.045050103	-2.561700E+01
127	  0.045250501	-4.908000E+00	  0.045250501	-6.772000E+00	  0.045250501	1.742190E+02	  0.045250501	-3.448800E+01
128	  0.045450903	-4.948000E+00	  0.045450903	-8.701000E+00	  0.045450903	1.685990E+02	  0.045450903	-4.243700E+01
129	  0.045651305	-4.986000E+00	  0.045651305	-1.063800E+01	  0.045651305	1.624520E+02	  0.045651305	-4.947700E+01
130	  0.045851704	-5.024000E+00	  0.045851704	-1.256100E+01	  0.045851704	1.559690E+02	  0.045851704	-5.549900E+01
131	  0.046052102	-5.061000E+00	  0.046052102	-1.447900E+01	  0.046052102	1.492900E+02	  0.046052102	-6.057100E+01
132	  0.046252504	-5.100000E+00	  0.046252504	-1.632400E+01	  0.046252504	1.427250E+02	  0.046252504	-6.453600E+01
133	  0.046452906	-5.137000E+00	  0.046452906	-1.819800E+01	  0.046452906	1.361470E+02	  0.046452906	-6.785400E+01
134	  0.046653304	-5.169000E+00	  0.046653304	-2.003300E+01	  0.046653304	1.298710E+02	  0.046653304	-7.051800E+01
135	  0.046853706	-5.202000E+00	  0.046853706	-2.184800E+01	  0.046853706	1.238010E+02	  0.046853706	-7.251200E+01
136	  0.047054108	-5.227000E+00	  0.047054108	-2.368500E+01	  0.047054108	1.179250E+02	  0.047054108	-7.415800E+01
137	  0.047254506	-5.251000E+00	  0.047254506	-2.551400E+01	  0.047254506	1.122850E+02	  0.047254506	-7.532600E+01
138	  0.047454908	-5.273000E+00	  0.047454908	-2.734200E+01	  0.047454908	1.068950E+02	  0.047454908	-7.611100E+01
139	  0.047655310	-5.296000E+00	  0.047655310	-2.917400E+01	  0.047655310	1.017360E+02	  0.047655310	-7.650500E+01
140	  0.047855709	-5.317000E+00	  0.047855709	-3.099300E+01	  0.047855709	9.687100E+01	  0.047855709	-7.659800E+01
141	  0.048056111	-5.343000E+00	  0.048056111	-3.280300E+01	  0.048056111	9.228200E+01	  0.048056111	-7.636100E+01
142	  0.048256513	-5.368000E+00	  0.048256513	-3.461400E+01	  0.048256513	8.795100E+01	  0.048256513	-7.591200E+01
143	  0.048456915	-5.389000E+00	  0.048456915	-3.642200E+01	  0.048456915	8.387100E+01	  0.048456915	-7.533400E+01
144	  0.048657313	-5.411000E+00	  0.048657313	-3.823000E+01	  0.048657313	8.003100E+01	  0.048657313	-7.456700E+01
145	  0.048857715	-5.437000E+00	  0.048857715	-4.001200E+01	  0.048857715	7.648000E+01	  0.048857715	-7.365000E+01
146	  0.049058117	-5.457000E+00	  0.049058117	-4.180900E+01	  0.049058117	7.309800E+01	  0.049058117	-7.268600E+01
147	  0.049258515	-5.481000E+00	  0.049258515	-4.355700E+01	  0.049258515	7.002000E+01	  0.049258515	-7.161300E+01
148	  0.049458917	-5.502000E+00	  0.049458917	-4.531100E+01	  0.049458917	6.710700E+01	  0.049458917	-7.050000E+01
149	  0.049659319	-5.524000E+00	  0.049659319	-4.704200E+01	  0.049659319	6.440800E+01	  0.049659319	-6.933700E+01
150	  0.049859721	-5.550000E+00	  0.049859721	-4.876100E+01	  0.049859721	6.190100E+01	  0.049859721	-6.810900E+01
151	  0.050060119	-5.569000E+00	  0.050060119	-5.047200E+01	  0.050060119	5.952600E+01	  0.050060119	-6.692300E+01
152	  0.050260521	-5.589000E+00	  0.050260521	-5.218100E+01	  0.050260521	5.729600E+01	  0.050260521	-6.570200E+01
153	  0.050460923	-5.607000E+00	  0.050460923	-5.389300E+01	  0.050460923	5.518400E+01	  0.050460923	-6.448200E+01
154	  0.050661322	-5.628000E+00	  0.050661322	-5.557200E+01	  0.050661322	5.324100E+01	  0.050661322	-6.325000E+01
155	  0.050861724	-5.643000E+00	  0.050861724	-5.724800E+01	  0.050861724	5.138700E+01	  0.050861724	-6.205900E+01
156	  0.051062126	-5.661000E+00	  0.051062126	-5.891100E+01	  0.051062126	4.966200E+01	  0.051062126	-6.084900E+01
157	  0.051262524	-5.684000E+00	  0.051262524	-6.054800E+01	  0.051262524	4.807900E+01	  0.051262524	-5.962300E+01
158	  0.051462926	-5.698000E+00	  0.051462926	-6.219300E+01	  0.051462926	4.653700E+01	  0.051462926	-5.845600E+01
159	  0.051663328	-5.715000E+00	  0.051663328	-6.381300E+01	  0.051663328	4.511100E+01	  0.051663328	-5.729200E+01
160	  0.051863730	-5.731000E+00	  0.051863730	-6.543000E+01	  0.051863730	4.375800E+01	  0.051863730	-5.614200E+01
161	  0.052064128	-5.744000E+00	  0.052064128	-6.704700E+01	  0.052064128	4.246100E+01	  0.052064128	-5.501800E+01
162	  0.052264530	-5.757000E+00	  0.052264530	-6.863300E+01	  0.052264530	4.125200E+01	  0.052264530	-5.392500E+01
163	  0.052464932	-5.769000E+00	  0.052464932	-7.022600E+01	  0.052464932	4.009800E+01	  0.052464932	-5.283400E+01
164	  0.052665330	-5.784000E+00	  0.052665330	-7.178500E+01	  0.052665330	3.903300E+01	  0.052665330	-5.176700E+01
165	  0.052865732	-5.796000E+00	  0.052865732	-7.331800E+01	  0.052865732	3.802700E+01	  0.052865732	-5.073700E+01
166	  0.053066134	-5.809000E+00	  0.053066134	-7.486500E+01	  0.053066134	3.706400E+01	  0.053066134	-4.970400E+01
167	  0.053266536	-5.822000E+00	  0.053266536	-7.640700E+01	  0.053266536	3.615000E+01	  0.053266536	-4.868500E+01
168	  0.053466935	-5.836000E+00	  0.053466935	-7.791000E+01	  0.053466935	3.530300E+01	  0.053466935	-4.770100E+01
169	  0.053667337	-5.846000E+00	  0.053667337	-7.943100E+01	  0.053667337	3.447000E+01	  0.053667337	-4.672800E+01
170	  0.053867739	-5.856000E+00	  0.053867739	-8.092100E+01	  0.053867739	3.368700E+01	  0.053867739	-4.579100E+01
171	  0.054068137	-5.866000E+00	  0.054068137	-8.244200E+01	  0.054068137	3.292900E+01	  0.054068137	-4.483900E+01
172	  0.054268539	-5.876000E+00	  0.054268539	-8.392300E+01	  0.054268539	3.221800E+01	  0.054268539	-4.392600E+01
173	  0.054468941	-5.888000E+00	  0.054468941	-8.538000E+01	  0.054468941	3.155900E+01	  0.054468941	-4.303100E+01
174	  0.054669335	-5.902000E+00	  0.054669335	-8.684700E+01	  0.054669335	3.093300E+01	  0.054669335	-4.213200E+01
175	  0.054869737	-5.909000E+00	  0.054869737	-8.829600E+01	  0.054869737	3.031500E+01	  0.054869737	-4.127600E+01
176	  0.055070139	-5.920000E+00	  0.055070139	-8.972200E+01	  0.055070139	2.974400E+01	  0.055070139	-4.043300E+01
177	  0.055270538	-5.928000E+00	  0.055270538	-9.116900E+01	  0.055270538	2.917900E+01	  0.055270538	-3.959400E+01
178	  0.055470940	-5.935000E+00	  0.055470940	-9.258900E+01	  0.055470940	2.864400E+01	  0.055470940	-3.878200E+01
179	  0.055671342	-5.944000E+00	  0.055671342	-9.402000E+01	  0.055671342	2.813300E+01	  0.055671342	-3.796900E+01
180	  0.055871744	-5.952000E+00	  0.055871744	-9.543900E+01	  0.055871744	2.764100E+01	  0.055871744	-3.717500E+01
181	  0.056072142	-5.958000E+00	  0.056072142	-9.683800E+01	  0.056072142	2.717200E+01	  0.056072142	-3.640200E+01
182	  0.056272544	-5.967000E+00	  0.056272544	-9.823000E+01	  0.056272544	2.673000E+01	  0.056272544	-3.563600E+01
183	  0.056472946	-5.972000E+00	  0.056472946	-9.959900E+01	  0.056472946	2.630100E+01	  0.056472946	-3.489900E+01
184	  0.056673344	-5.980000E+00	  0.056673344	-1.009750E+02	  0.056673344	2.589600E+01	  0.056673344	-3.415900E+01
185	  0.056873746	-5.983000E+00	  0.056873746	-1.023380E+02	  0.056873746	2.549200E+01	  0.056873746	-3.344400E+01
186	  0.057074148	-5.989000E+00	  0.057074148	-1.036960E+02	  0.057074148	2.511600E+01	  0.057074148	-3.273200E+01
187	  0.057274550	-5.995000E+00	  0.057274550	-1.050540E+02	  0.057274550	2.475300E+01	  0.057274550	-3.202800E+01
188	  0.057474948	-5.997000E+00	  0.057474948	-1.063950E+02	  0.057474948	2.439600E+01	  0.057474948	-3.134500E+01
189	  0.057675350	-6.001000E+00	  0.057675350	-1.077320E+02	  0.057675350	2.406000E+01	  0.057675350	-3.066700E+01
190	  0.057875752	-6.007000E+00	  0.057875752	-1.090440E+02	  0.057875752	2.374700E+01	  0.057875752	-3.000500E+01
191	  0.058076151	-6.011000E+00	  0.058076151	-1.103740E+02	  0.058076151	2.343400E+01	  0.058076151	-2.934300E+01
192	  0.058276553	-6.014000E+00	  0.058276553	-1.116640E+02	  0.058276553	2.314100E+01	  0.058276553	-2.870700E+01
193	  0.058476955	-6.017000E+00	  0.058476955	-1.129390E+02	  0.058476955	2.286000E+01	  0.058476955	-2.808500E+01
194	  0.058677353	-6.022000E+00	  0.058677353	-1.142330E+02	  0.058677353	2.258900E+01	  0.058677353	-2.745600E+01
195	  0.058877755	-6.022000E+00	  0.058877755	-1.155070E+02	  0.058877755	2.231700E+01	  0.058877755	-2.684900E+01
196	  0.059078157	-6.026000E+00	  0.059078157	-1.167590E+02	  0.059078157	2.207400E+01	  0.059078157	-2.624900E+01
197	  0.059278559	-6.026000E+00	  0.059278559	-1.180110E+02	  0.059278559	2.182400E+01	  0.059278559	-2.566200E+01
198	  0.059478957	-6.031000E+00	  0.059478957	-1.192620E+02	  0.059478957	2.159900E+01	  0.059478957	-2.507200E+01
199	  0.059679359	-6.035000E+00	  0.059679359	-1.204910E+02	  0.059679359	2.138200E+01	  0.059679359	-2.449800E+01
200	  0.059879761	-6.041000E+00	  0.059879761	-1.217130E+02	  0.059879761	2.118100E+01	  0.059879761	-2.392900E+01
201	  0.060080159	-6.045000E+00	  0.060080159	-1.229130E+02	  0.060080159	2.098600E+01	  0.060080159	-2.337600E+01
202	  0.060280561	-6.052000E+00	  0.060280561	-1.240990E+02	  0.060280561	2.080500E+01	  0.060280561	-2.283200E+01
203	  0.060480963	-6.057000E+00	  0.060480963	-1.252910E+02	  0.060480963	2.062500E+01	  0.060480963	-2.228900E+01
204	  0.060681365	-6.060000E+00	  0.060681365	-1.264680E+02	  0.060681365	2.044900E+01	  0.060681365	-2.176000E+01
205	  0.060881764	-6.063000E+00	  0.060881764	-1.276510E+02	  0.060881764	2.027800E+01	  0.060881764	-2.123100E+01
206	  0.061082166	-6.068000E+00	  0.061082166	-1.288260E+02	  0.061082166	2.011700E+01	  0.061082166	-2.070700E+01
207	  0.061282568	-6.075000E+00	  0.061282568	-1.300000E+02	  0.061282568	1.997200E+01	  0.061282568	-2.018400E+01
208	  0.061482966	-6.080000E+00	  0.061482966	-1.311510E+02	  0.061482966	1.982600E+01	  0.061482966	-1.967700E+01
209	  0.061683368	-6.084000E+00	  0.061683368	-1.323130E+02	  0.061683368	1.968100E+01	  0.061683368	-1.916900E+01
210	  0.061883770	-6.089000E+00	  0.061883770	-1.334440E+02	  0.061883770	1.954900E+01	  0.061883770	-1.867700E+01
211	  0.062084168	-6.092000E+00	  0.062084168	-1.345540E+02	  0.062084168	1.941700E+01	  0.062084168	-1.819800E+01
212	  0.062284570	-6.095000E+00	  0.062284570	-1.356830E+02	  0.062284570	1.929100E+01	  0.062284570	-1.771300E+01
213	  0.062484972	-6.089000E+00	  0.062484972	-1.367850E+02	  0.062484972	1.914400E+01	  0.062484972	-1.724900E+01
214	  0.062685370	-6.093000E+00	  0.062685370	-1.379010E+02	  0.062685370	1.902800E+01	  0.062685370	-1.677400E+01
215	  0.062885776	-6.092000E+00	  0.062885776	-1.390360E+02	  0.062885776	1.890100E+01	  0.062885776	-1.629600E+01
216	  0.063086174	-6.089000E+00	  0.063086174	-1.401410E+02	  0.063086174	1.877700E+01	  0.063086174	-1.583500E+01
217	  0.063286573	-6.090000E+00	  0.063286573	-1.412150E+02	  0.063286573	1.867000E+01	  0.063286573	-1.538600E+01
218	  0.063486971	-6.089000E+00	  0.063486971	-1.423050E+02	  0.063486971	1.856000E+01	  0.063486971	-1.493200E+01
219	  0.063687377	-6.082000E+00	  0.063687377	-1.433910E+02	  0.063687377	1.843700E+01	  0.063687377	-1.448700E+01
220	  0.063887775	-6.077000E+00	  0.063887775	-1.444650E+02	  0.063887775	1.832600E+01	  0.063887775	-1.404700E+01
221	  0.064088173	-6.071000E+00	  0.064088173	-1.455760E+02	  0.064088173	1.821000E+01	  0.064088173	-1.359400E+01
222	  0.064288579	-6.064000E+00	  0.064288579	-1.466490E+02	  0.064288579	1.810000E+01	  0.064288579	-1.315700E+01
223	  0.064488977	-6.061000E+00	  0.064488977	-1.477090E+02	  0.064488977	1.800600E+01	  0.064488977	-1.272600E+01
224	  0.064689375	-6.054000E+00	  0.064689375	-1.487860E+02	  0.064689375	1.790400E+01	  0.064689375	-1.229000E+01
225	  0.064889781	-6.042000E+00	  0.064889781	-1.498530E+02	  0.064889781	1.779100E+01	  0.064889781	-1.186300E+01
226	  0.065090179	-6.035000E+00	  0.065090179	-1.509070E+02	  0.065090179	1.769500E+01	  0.065090179	-1.144000E+01
227	  0.065290578	-6.027000E+00	  0.065290578	-1.519940E+02	  0.065290578	1.759900E+01	  0.065290578	-1.100400E+01
228	  0.065490983	-6.012000E+00	  0.065490983	-1.530270E+02	  0.065490983	1.749200E+01	  0.065490983	-1.059400E+01
229	  0.065691382	-6.002000E+00	  0.065691382	-1.540930E+02	  0.065691382	1.739800E+01	  0.065691382	-1.016900E+01
230	  0.065891780	-5.996000E+00	  0.065891780	-1.551440E+02	  0.065891780	1.731800E+01	  0.065891780	-9.751000E+00
231	  0.066092186	-5.985000E+00	  0.066092186	-1.561800E+02	  0.066092186	1.723000E+01	  0.066092186	-9.340000E+00
232	  0.066292584	-5.972000E+00	  0.066292584	-1.572410E+02	  0.066292584	1.713800E+01	  0.066292584	-8.921000E+00
233	  0.066492982	-5.966000E+00	  0.066492982	-1.582790E+02	  0.066492982	1.706800E+01	  0.066492982	-8.510000E+00
234	  0.066693388	-5.959000E+00	  0.066693388	-1.592920E+02	  0.066693388	1.699900E+01	  0.066693388	-8.109000E+00
235	  0.066893786	-5.950000E+00	  0.066893786	-1.603390E+02	  0.066893786	1.692600E+01	  0.066893786	-7.696000E+00
236	  0.067094192	-5.940000E+00	  0.067094192	-1.613710E+02	  0.067094192	1.685500E+01	  0.067094192	-7.290000E+00
237	  0.067294590	-5.936000E+00	  0.067294590	-1.623920E+02	  0.067294590	1.680100E+01	  0.067294590	-6.887000E+00
238	  0.067494988	-5.929000E+00	  0.067494988	-1.634150E+02	  0.067494988	1.674400E+01	  0.067494988	-6.485000E+00
239	  0.067695394	-5.923000E+00	  0.067695394	-1.644400E+02	  0.067695394	1.669000E+01	  0.067695394	-6.082000E+00
240	  0.067895792	-5.921000E+00	  0.067895792	-1.654910E+02	  0.067895792	1.664900E+01	  0.067895792	-5.668000E+00
241	  0.068096191	-5.916000E+00	  0.068096191	-1.665330E+02	  0.068096191	1.660400E+01	  0.068096191	-5.259000E+00
242	  0.068296596	-5.914000E+00	  0.068296596	-1.675360E+02	  0.068296596	1.656800E+01	  0.068296596	-4.866000E+00
243	  0.068496995	-5.911000E+00	  0.068496995	-1.685490E+02	  0.068496995	1.653200E+01	  0.068496995	-4.469000E+00
244	  0.068697393	-5.906000E+00	  0.068697393	-1.695990E+02	  0.068697393	1.649400E+01	  0.068697393	-4.058000E+00
245	  0.068897791	-5.901000E+00	  0.068897791	-1.706230E+02	  0.068897791	1.645900E+01	  0.068897791	-3.658000E+00
246	  0.069098189	-5.902000E+00	  0.069098189	-1.716310E+02	  0.069098189	1.644100E+01	  0.069098189	-3.264000E+00
247	  0.069298595	-5.900000E+00	  0.069298595	-1.726440E+02	  0.069298595	1.641900E+01	  0.069298595	-2.868000E+00
248	  0.069498993	-5.894000E+00	  0.069498993	-1.737120E+02	  0.069498993	1.638700E+01	  0.069498993	-2.452000E+00
249	  0.069699399	-5.898000E+00	  0.069699399	-1.747250E+02	  0.069699399	1.638400E+01	  0.069699399	-2.056000E+00
250	  0.069899797	-5.896000E+00	  0.069899797	-1.757280E+02	  0.069899797	1.636900E+01	  0.069899797	-1.664000E+00
251	  0.070100196	-5.892000E+00	  0.070100196	-1.767410E+02	  0.070100196	1.634900E+01	  0.070100196	-1.270000E+00
252	  0.070300601	-5.893000E+00	  0.070300601	-1.777410E+02	  0.070300601	1.634500E+01	  0.070300601	-8.800000E-01
253	  0.070501000	-5.890000E+00	  0.070501000	-1.787620E+02	  0.070501000	1.633300E+01	  0.070501000	-4.820000E-01
254	  0.070701398	-5.885000E+00	  0.070701398	-1.797690E+02	  0.070701398	1.632000E+01	  0.070701398	-8.900000E-02
255	  0.070901804	-5.886000E+00	  0.070901804	1.792430E+02	  0.070901804	1.632300E+01	  0.070901804	2.940000E-01
256	  0.071102202	-5.888000E+00	  0.071102202	1.782260E+02	  0.071102202	1.633000E+01	  0.071102202	6.910000E-01
257	  0.071302600	-5.886000E+00	  0.071302600	1.771980E+02	  0.071302600	1.633100E+01	  0.071302600	1.092000E+00
258	  0.071503006	-5.885000E+00	  0.071503006	1.762150E+02	  0.071503006	1.633600E+01	  0.071503006	1.475000E+00
259	  0.071703404	-5.884000E+00	  0.071703404	1.752530E+02	  0.071703404	1.634200E+01	  0.071703404	1.851000E+00
260	  0.071903802	-5.886000E+00	  0.071903802	1.742400E+02	  0.071903802	1.635900E+01	  0.071903802	2.246000E+00
261	  0.072104208	-5.890000E+00	  0.072104208	1.732830E+02	  0.072104208	1.638100E+01	  0.072104208	2.619000E+00
262	  0.072304606	-5.887000E+00	  0.072304606	1.723160E+02	  0.072304606	1.639100E+01	  0.072304606	2.998000E+00
263	  0.072505005	-5.888000E+00	  0.072505005	1.713660E+02	  0.072505005	1.641100E+01	  0.072505005	3.369000E+00
264	  0.072705410	-5.888000E+00	  0.072705410	1.703970E+02	  0.072705410	1.643100E+01	  0.072705410	3.749000E+00
265	  0.072905809	-5.892000E+00	  0.072905809	1.694280E+02	  0.072905809	1.646300E+01	  0.072905809	4.128000E+00
266	  0.073106214	-5.895000E+00	  0.073106214	1.684830E+02	  0.073106214	1.649300E+01	  0.073106214	4.498000E+00
267	  0.073306613	-5.894000E+00	  0.073306613	1.675290E+02	  0.073306613	1.651600E+01	  0.073306613	4.873000E+00
268	  0.073507011	-5.899000E+00	  0.073507011	1.666070E+02	  0.073507011	1.655800E+01	  0.073507011	5.234000E+00
269	  0.073707417	-5.903000E+00	  0.073707417	1.656540E+02	  0.073707417	1.659600E+01	  0.073707417	5.608000E+00
270	  0.073907815	-5.907000E+00	  0.073907815	1.647090E+02	  0.073907815	1.663900E+01	  0.073907815	5.979000E+00
271	  0.074108213	-5.910000E+00	  0.074108213	1.638070E+02	  0.074108213	1.668000E+01	  0.074108213	6.334000E+00
272	  0.074308619	-5.917000E+00	  0.074308619	1.628620E+02	  0.074308619	1.673300E+01	  0.074308619	6.706000E+00
273	  0.074509017	-5.921000E+00	  0.074509017	1.619490E+02	  0.074509017	1.678100E+01	  0.074509017	7.066000E+00
274	  0.074709415	-5.928000E+00	  0.074709415	1.610160E+02	  0.074709415	1.683900E+01	  0.074709415	7.434000E+00
275	  0.074909821	-5.937000E+00	  0.074909821	1.600910E+02	  0.074909821	1.690400E+01	  0.074909821	7.799000E+00
276	  0.075110219	-5.942000E+00	  0.075110219	1.591530E+02	  0.075110219	1.696100E+01	  0.075110219	8.170000E+00
277	  0.075310618	-5.950000E+00	  0.075310618	1.582540E+02	  0.075310618	1.702600E+01	  0.075310618	8.525000E+00
278	  0.075511023	-5.958000E+00	  0.075511023	1.573650E+02	  0.075511023	1.709500E+01	  0.075511023	8.876000E+00
279	  0.075711422	-5.965000E+00	  0.075711422	1.564510E+02	  0.075711422	1.716100E+01	  0.075711422	9.239000E+00
280	  0.075911827	-5.973000E+00	  0.075911827	1.555530E+02	  0.075911827	1.723200E+01	  0.075911827	9.596000E+00
281	  0.076112226	-5.986000E+00	  0.076112226	1.546280E+02	  0.076112226	1.732400E+01	  0.076112226	9.961000E+00
282	  0.076312624	-5.991000E+00	  0.076312624	1.537150E+02	  0.076312624	1.739200E+01	  0.076312624	1.032600E+01
283	  0.076513030	-6.003000E+00	  0.076513030	1.527850E+02	  0.076513030	1.748300E+01	  0.076513030	1.069500E+01
284	  0.076713428	-6.015000E+00	  0.076713428	1.518850E+02	  0.076713428	1.757400E+01	  0.076713428	1.105300E+01
285	  0.076913826	-6.023000E+00	  0.076913826	1.509680E+02	  0.076913826	1.765900E+01	  0.076913826	1.142000E+01
286	  0.077114232	-6.033000E+00	  0.077114232	1.500740E+02	  0.077114232	1.775200E+01	  0.077114232	1.177700E+01
287	  0.077314630	-6.047000E+00	  0.077314630	1.491980E+02	  0.077314630	1.785300E+01	  0.077314630	1.212700E+01
288	  0.077515028	-6.056000E+00	  0.077515028	1.482810E+02	  0.077515028	1.794800E+01	  0.077515028	1.249500E+01
289	  0.077715434	-6.067000E+00	  0.077715434	1.474030E+02	  0.077715434	1.804800E+01	  0.077715434	1.284700E+01
290	  0.077915832	-6.081000E+00	  0.077915832	1.465130E+02	  0.077915832	1.815900E+01	  0.077915832	1.320300E+01
291	  0.078116231	-6.092000E+00	  0.078116231	1.456120E+02	  0.078116231	1.826500E+01	  0.078116231	1.356600E+01
292	  0.078316636	-6.107000E+00	  0.078316636	1.446990E+02	  0.078316636	1.838400E+01	  0.078316636	1.393300E+01
293	  0.078517035	-6.116000E+00	  0.078517035	1.438100E+02	  0.078517035	1.849000E+01	  0.078517035	1.429300E+01
294	  0.078717433	-6.133000E+00	  0.078717433	1.429450E+02	  0.078717433	1.861800E+01	  0.078717433	1.464000E+01
295	  0.078917839	-6.145000E+00	  0.078917839	1.420670E+02	  0.078917839	1.873600E+01	  0.078917839	1.499500E+01
296	  0.079118237	-6.159000E+00	  0.079118237	1.412290E+02	  0.079118237	1.885700E+01	  0.079118237	1.533400E+01
297	  0.079318643	-6.173000E+00	  0.079318643	1.403620E+02	  0.079318643	1.898600E+01	  0.079318643	1.568500E+01
298	  0.079519041	-6.185000E+00	  0.079519041	1.394990E+02	  0.079519041	1.910800E+01	  0.079519041	1.603600E+01
299	  0.079719439	-6.203000E+00	  0.079719439	1.386530E+02	  0.079719439	1.924900E+01	  0.079719439	1.637700E+01
300	  0.079919845	-6.216000E+00	  0.079919845	1.377850E+02	  0.079919845	1.938200E+01	  0.079919845	1.673200E+01
301	  0.080120243	-6.232000E+00	  0.080120243	1.369210E+02	  0.080120243	1.952700E+01	  0.080120243	1.708200E+01
302	  0.080320641	-6.249000E+00	  0.080320641	1.360810E+02	  0.080320641	1.967400E+01	  0.080320641	1.742300E+01
303	  0.080521047	-6.265000E+00	  0.080521047	1.352440E+02	  0.080521047	1.981800E+01	  0.080521047	1.776400E+01
304	  0.080721445	-6.280000E+00	  0.080721445	1.343830E+02	  0.080721445	1.996900E+01	  0.080721445	1.811500E+01
305	  0.080921844	-6.299000E+00	  0.080921844	1.335950E+02	  0.080921844	2.012100E+01	  0.080921844	1.843500E+01
306	  0.081122249	-6.319000E+00	  0.081122249	1.327430E+02	  0.081122249	2.028900E+01	  0.081122249	1.877900E+01
307	  0.081322648	-6.338000E+00	  0.081322648	1.319480E+02	  0.081322648	2.044900E+01	  0.081322648	1.910200E+01
308	  0.081523046	-6.356000E+00	  0.081523046	1.311120E+02	  0.081523046	2.061800E+01	  0.081523046	1.944200E+01
309	  0.081723452	-6.372000E+00	  0.081723452	1.302990E+02	  0.081723452	2.077700E+01	  0.081723452	1.977700E+01
310	  0.081923850	-6.390000E+00	  0.081923850	1.294930E+02	  0.081923850	2.094500E+01	  0.081923850	2.010600E+01
311	  0.082124248	-6.414000E+00	  0.082124248	1.286930E+02	  0.082124248	2.113200E+01	  0.082124248	2.042700E+01
312	  0.082324654	-6.434000E+00	  0.082324654	1.278880E+02	  0.082324654	2.131300E+01	  0.082324654	2.075400E+01
313	  0.082525052	-6.451000E+00	  0.082525052	1.271160E+02	  0.082525052	2.148200E+01	  0.082525052	2.107000E+01
314	  0.082725458	-6.480000E+00	  0.082725458	1.263420E+02	  0.082725458	2.168700E+01	  0.082725458	2.137600E+01
315	  0.082925856	-6.501000E+00	  0.082925856	1.255530E+02	  0.082925856	2.187800E+01	  0.082925856	2.169500E+01
316	  0.083126254	-6.525000E+00	  0.083126254	1.247130E+02	  0.083126254	2.208700E+01	  0.083126254	2.203500E+01
317	  0.083326660	-6.548000E+00	  0.083326660	1.239490E+02	  0.083326660	2.228500E+01	  0.083326660	2.234200E+01
318	  0.083527058	-6.574000E+00	  0.083527058	1.231490E+02	  0.083527058	2.250000E+01	  0.083527058	2.266200E+01
319	  0.083727457	-6.602000E+00	  0.083727457	1.223800E+02	  0.083727457	2.271900E+01	  0.083727457	2.296600E+01
320	  0.083927862	-6.627000E+00	  0.083927862	1.216050E+02	  0.083927862	2.293600E+01	  0.083927862	2.327500E+01
321	  0.084128261	-6.649000E+00	  0.084128261	1.208430E+02	  0.084128261	2.314400E+01	  0.084128261	2.358200E+01
322	  0.084328659	-6.681000E+00	  0.084328659	1.201020E+02	  0.084328659	2.337900E+01	  0.084328659	2.386700E+01
323	  0.084529065	-6.704000E+00	  0.084529065	1.193540E+02	  0.084529065	2.359200E+01	  0.084529065	2.416800E+01
324	  0.084729463	-6.736000E+00	  0.084729463	1.185770E+02	  0.084729463	2.384100E+01	  0.084729463	2.446900E+01
325	  0.084929854	-6.762000E+00	  0.084929854	1.178130E+02	  0.084929854	2.407400E+01	  0.084929854	2.477100E+01
326	  0.085130259	-6.788000E+00	  0.085130259	1.170670E+02	  0.085130259	2.430700E+01	  0.085130259	2.506500E+01
327	  0.085330658	-6.816000E+00	  0.085330658	1.163360E+02	  0.085330658	2.454600E+01	  0.085330658	2.534900E+01
328	  0.085531056	-6.848000E+00	  0.085531056	1.156010E+02	  0.085531056	2.480100E+01	  0.085531056	2.562800E+01
329	  0.085731462	-6.876000E+00	  0.085731462	1.148850E+02	  0.085731462	2.504500E+01	  0.085731462	2.590400E+01
330	  0.085931860	-6.904000E+00	  0.085931860	1.141950E+02	  0.085931860	2.528400E+01	  0.085931860	2.616900E+01
331	  0.086132258	-6.936000E+00	  0.086132258	1.135320E+02	  0.086132258	2.553200E+01	  0.086132258	2.641400E+01
332	  0.086332664	-6.966000E+00	  0.086332664	1.128370E+02	  0.086332664	2.578500E+01	  0.086332664	2.667700E+01
333	  0.086533062	-6.991000E+00	  0.086533062	1.121540E+02	  0.086533062	2.602300E+01	  0.086533062	2.694100E+01
334	  0.086733460	-7.016000E+00	  0.086733460	1.114990E+02	  0.086733460	2.625900E+01	  0.086733460	2.719100E+01
335	  0.086933866	-7.041000E+00	  0.086933866	1.108670E+02	  0.086933866	2.649200E+01	  0.086933866	2.743000E+01
336	  0.087134264	-7.065000E+00	  0.087134264	1.102200E+02	  0.087134264	2.673000E+01	  0.087134264	2.767700E+01
337	  0.087334670	-7.090000E+00	  0.087334670	1.095890E+02	  0.087334670	2.696500E+01	  0.087334670	2.791600E+01
338	  0.087535068	-7.111000E+00	  0.087535068	1.089620E+02	  0.087535068	2.719500E+01	  0.087535068	2.815800E+01
339	  0.087735467	-7.125000E+00	  0.087735467	1.083710E+02	  0.087735467	2.739300E+01	  0.087735467	2.839800E+01
340	  0.087935872	-7.144000E+00	  0.087935872	1.077290E+02	  0.087935872	2.762600E+01	  0.087935872	2.864900E+01
341	  0.088136271	-7.157000E+00	  0.088136271	1.070830E+02	  0.088136271	2.784300E+01	  0.088136271	2.891500E+01
342	  0.088336669	-7.166000E+00	  0.088336669	1.064120E+02	  0.088336669	2.806100E+01	  0.088336669	2.919700E+01
343	  0.088537075	-7.177000E+00	  0.088537075	1.057510E+02	  0.088537075	2.828300E+01	  0.088537075	2.947300E+01
344	  0.088737473	-7.188000E+00	  0.088737473	1.050640E+02	  0.088737473	2.852000E+01	  0.088737473	2.975900E+01
345	  0.088937871	-7.198000E+00	  0.088937871	1.043590E+02	  0.088937871	2.875800E+01	  0.088937871	3.005700E+01
346	  0.089138277	-7.210000E+00	  0.089138277	1.036600E+02	  0.089138277	2.900700E+01	  0.089138277	3.034700E+01
347	  0.089338675	-7.227000E+00	  0.089338675	1.029580E+02	  0.089338675	2.927500E+01	  0.089338675	3.062900E+01
348	  0.089539073	-7.246000E+00	  0.089539073	1.022550E+02	  0.089539073	2.955400E+01	  0.089539073	3.090600E+01
349	  0.089739479	-7.266000E+00	  0.089739479	1.015570E+02	  0.089739479	2.983800E+01	  0.089739479	3.117700E+01
350	  0.089939877	-7.287000E+00	  0.089939877	1.008310E+02	  0.089939877	3.013800E+01	  0.089939877	3.146000E+01
351	  0.090140276	-7.308000E+00	  0.090140276	1.001050E+02	  0.090140276	3.044300E+01	  0.090140276	3.174100E+01
352	  0.090340681	-7.337000E+00	  0.090340681	9.941600E+01	  0.090340681	3.076400E+01	  0.090340681	3.198500E+01
353	  0.090541080	-7.356000E+00	  0.090541080	9.871000E+01	  0.090541080	3.106500E+01	  0.090541080	3.225900E+01
354	  0.090741485	-7.385000E+00	  0.090741485	9.802500E+01	  0.090741485	3.139400E+01	  0.090741485	3.249800E+01
355	  0.090941884	-7.411000E+00	  0.090941884	9.735100E+01	  0.090941884	3.171300E+01	  0.090941884	3.273800E+01
356	  0.091142282	-7.448000E+00	  0.091142282	9.670400E+01	  0.091142282	3.205800E+01	  0.091142282	3.293900E+01
357	  0.091342688	-7.475000E+00	  0.091342688	9.601700E+01	  0.091342688	3.239200E+01	  0.091342688	3.318000E+01
358	  0.091543086	-7.504000E+00	  0.091543086	9.534400E+01	  0.091543086	3.273300E+01	  0.091543086	3.340600E+01
359	  0.091743484	-7.535000E+00	  0.091743484	9.467600E+01	  0.091743484	3.308100E+01	  0.091743484	3.362300E+01
360	  0.091943890	-7.563000E+00	  0.091943890	9.402800E+01	  0.091943890	3.341600E+01	  0.091943890	3.383800E+01
361	  0.092144288	-7.599000E+00	  0.092144288	9.339300E+01	  0.092144288	3.377300E+01	  0.092144288	3.402300E+01
362	  0.092344686	-7.624000E+00	  0.092344686	9.272700E+01	  0.092344686	3.411600E+01	  0.092344686	3.424700E+01
363	  0.092545092	-7.663000E+00	  0.092545092	9.214900E+01	  0.092545092	3.446300E+01	  0.092545092	3.439600E+01
364	  0.092745490	-7.692000E+00	  0.092745490	9.148200E+01	  0.092745490	3.482700E+01	  0.092745490	3.460400E+01
365	  0.092945889	-7.730000E+00	  0.092945889	9.089500E+01	  0.092945889	3.518400E+01	  0.092945889	3.475200E+01
366	  0.093146294	-7.762000E+00	  0.093146294	9.026200E+01	  0.093146294	3.554500E+01	  0.093146294	3.493600E+01
367	  0.093346693	-7.798000E+00	  0.093346693	8.969800E+01	  0.093346693	3.589500E+01	  0.093346693	3.507100E+01
368	  0.093547091	-7.828000E+00	  0.093547091	8.909900E+01	  0.093547091	3.624300E+01	  0.093547091	3.523900E+01
369	  0.093747497	-7.864000E+00	  0.093747497	8.848900E+01	  0.093747497	3.661800E+01	  0.093747497	3.538900E+01
370	  0.093947895	-7.897000E+00	  0.093947895	8.792800E+01	  0.093947895	3.696400E+01	  0.093947895	3.552500E+01
371	  0.094148301	-7.937000E+00	  0.094148301	8.735100E+01	  0.094148301	3.734100E+01	  0.094148301	3.564400E+01
372	  0.094348699	-7.973000E+00	  0.094348699	8.679600E+01	  0.094348699	3.769700E+01	  0.094348699	3.576400E+01
373	  0.094549097	-8.008000E+00	  0.094549097	8.622300E+01	  0.094549097	3.806400E+01	  0.094549097	3.588800E+01
374	  0.094749503	-8.042000E+00	  0.094749503	8.568500E+01	  0.094749503	3.841300E+01	  0.094749503	3.599900E+01
375	  0.094949901	-8.078000E+00	  0.094949901	8.516200E+01	  0.094949901	3.876400E+01	  0.094949901	3.609300E+01
376	  0.095150299	-8.116000E+00	  0.095150299	8.457900E+01	  0.095150299	3.915100E+01	  0.095150299	3.620300E+01
377	  0.095350705	-8.153000E+00	  0.095350705	8.402800E+01	  0.095350705	3.951900E+01	  0.095350705	3.630300E+01
378	  0.095551103	-8.188000E+00	  0.095551103	8.348400E+01	  0.095551103	3.988400E+01	  0.095551103	3.639900E+01
379	  0.095751502	-8.221000E+00	  0.095751502	8.295700E+01	  0.095751502	4.023700E+01	  0.095751502	3.649300E+01
380	  0.095951907	-8.260000E+00	  0.095951907	8.244200E+01	  0.095951907	4.060300E+01	  0.095951907	3.655600E+01
381	  0.096152306	-8.292000E+00	  0.096152306	8.189600E+01	  0.096152306	4.096800E+01	  0.096152306	3.665300E+01
382	  0.096352704	-8.332000E+00	  0.096352704	8.138400E+01	  0.096352704	4.133600E+01	  0.096352704	3.670800E+01
383	  0.096553110	-8.360000E+00	  0.096553110	8.088600E+01	  0.096553110	4.167100E+01	  0.096553110	3.679300E+01
384	  0.096753508	-8.394000E+00	  0.096753508	8.041700E+01	  0.096753508	4.200500E+01	  0.096753508	3.684400E+01
385	  0.096953906	-8.435000E+00	  0.096953906	7.991400E+01	  0.096953906	4.237600E+01	  0.096953906	3.688100E+01
386	  0.097154312	-8.466000E+00	  0.097154312	7.941900E+01	  0.097154312	4.272100E+01	  0.097154312	3.694600E+01
387	  0.097354710	-8.500000E+00	  0.097354710	7.892700E+01	  0.097354710	4.307300E+01	  0.097354710	3.699600E+01
388	  0.097555116	-8.534000E+00	  0.097555116	7.847900E+01	  0.097555116	4.340100E+01	  0.097555116	3.702700E+01
389	  0.097755514	-8.569000E+00	  0.097755514	7.802100E+01	  0.097755514	4.373900E+01	  0.097755514	3.705500E+01
390	  0.097955912	-8.599000E+00	  0.097955912	7.755700E+01	  0.097955912	4.406800E+01	  0.097955912	3.710100E+01
391	  0.098156318	-8.633000E+00	  0.098156318	7.713900E+01	  0.098156318	4.438300E+01	  0.098156318	3.711400E+01
392	  0.098356716	-8.663000E+00	  0.098356716	7.668900E+01	  0.098356716	4.470900E+01	  0.098356716	3.714600E+01
393	  0.098557115	-8.693000E+00	  0.098557115	7.629000E+01	  0.098557115	4.500500E+01	  0.098557115	3.716200E+01
394	  0.098757520	-8.721000E+00	  0.098757520	7.582100E+01	  0.098757520	4.534000E+01	  0.098757520	3.720500E+01
395	  0.098957919	-8.753000E+00	  0.098957919	7.542000E+01	  0.098957919	4.564300E+01	  0.098957919	3.720800E+01
396	  0.099158317	-8.779000E+00	  0.099158317	7.500500E+01	  0.099158317	4.594400E+01	  0.099158317	3.723400E+01
397	  0.099358723	-8.805000E+00	  0.099358723	7.460500E+01	  0.099358723	4.623600E+01	  0.099358723	3.725600E+01
398	  0.099559121	-8.833000E+00	  0.099559121	7.419200E+01	  0.099559121	4.654200E+01	  0.099559121	3.726700E+01
399	  0.099759519	-8.857000E+00	  0.099759519	7.382300E+01	  0.099759519	4.681200E+01	  0.099759519	3.728400E+01
400	  0.099959925	-8.880000E+00	  0.099959925	7.345200E+01	  0.099959925	4.708400E+01	  0.099959925	3.729800E+01
401	  0.100160323	-8.899000E+00	  0.100160323	7.308200E+01	  0.100160323	4.734900E+01	  0.100160323	3.732800E+01
402	  0.100360721	-8.920000E+00	  0.100360721	7.270100E+01	  0.100360721	4.762300E+01	  0.100360721	3.735400E+01
403	  0.100561127	-8.947000E+00	  0.100561127	7.233200E+01	  0.100561127	4.790400E+01	  0.100561127	3.734400E+01
404	  0.100761525	-8.963000E+00	  0.100761525	7.200100E+01	  0.100761525	4.814100E+01	  0.100761525	3.736900E+01
405	  0.100961931	-8.986000E+00	  0.100961931	7.167700E+01	  0.100961931	4.838600E+01	  0.100961931	3.736500E+01
406	  0.101162329	-9.001000E+00	  0.101162329	7.132800E+01	  0.101162329	4.863300E+01	  0.101162329	3.739500E+01
407	  0.101362728	-9.022000E+00	  0.101362728	7.095700E+01	  0.101362728	4.890700E+01	  0.101362728	3.740600E+01
408	  0.101563133	-9.046000E+00	  0.101563133	7.063500E+01	  0.101563133	4.915300E+01	  0.101563133	3.739100E+01
409	  0.101763532	-9.049000E+00	  0.101763532	7.032000E+01	  0.101763532	4.936100E+01	  0.101763532	3.745900E+01
410	  0.101963930	-9.063000E+00	  0.101963930	6.998900E+01	  0.101963930	4.960000E+01	  0.101963930	3.748000E+01
411	  0.102164328	-9.085000E+00	  0.102164328	6.967500E+01	  0.102164328	4.983900E+01	  0.102164328	3.746700E+01
412	  0.102364726	-9.103000E+00	  0.102364726	6.931300E+01	  0.102364726	5.010500E+01	  0.102364726	3.747800E+01
413	  0.102565125	-9.103000E+00	  0.102565125	6.891500E+01	  0.102565125	5.036600E+01	  0.102565125	3.757400E+01
414	  0.102765530	-9.117000E+00	  0.102765530	6.865700E+01	  0.102765530	5.056100E+01	  0.102765530	3.757200E+01
415	  0.102965929	-9.116000E+00	  0.102965929	6.826400E+01	  0.102965929	5.082000E+01	  0.102965929	3.766900E+01
416	  0.103166327	-9.125000E+00	  0.103166327	6.798600E+01	  0.103166327	5.102000E+01	  0.103166327	3.769400E+01
417	  0.103366733	-9.127000E+00	  0.103366733	6.764100E+01	  0.103366733	5.125600E+01	  0.103366733	3.776300E+01
418	  0.103567131	-9.126000E+00	  0.103567131	6.723800E+01	  0.103567131	5.152800E+01	  0.103567131	3.785800E+01
419	  0.103767529	-9.130000E+00	  0.103767529	6.694300E+01	  0.103767529	5.173500E+01	  0.103767529	3.790600E+01
420	  0.103967935	-9.136000E+00	  0.103967935	6.650900E+01	  0.103967935	5.204200E+01	  0.103967935	3.797300E+01
421	  0.104168333	-9.134000E+00	  0.104168333	6.621100E+01	  0.104168333	5.224500E+01	  0.104168333	3.804500E+01
422	  0.104368731	-9.129000E+00	  0.104368731	6.579100E+01	  0.104368731	5.253100E+01	  0.104368731	3.815800E+01
423	  0.104569137	-9.123000E+00	  0.104569137	6.542500E+01	  0.104569137	5.277900E+01	  0.104569137	3.826300E+01
424	  0.104769535	-9.125000E+00	  0.104769535	6.511800E+01	  0.104769535	5.299800E+01	  0.104769535	3.831700E+01
425	  0.104969934	-9.109000E+00	  0.104969934	6.471600E+01	  0.104969934	5.326500E+01	  0.104969934	3.847000E+01
426	  0.105170339	-9.103000E+00	  0.105170339	6.430300E+01	  0.105170339	5.355300E+01	  0.105170339	3.857900E+01
427	  0.105370738	-9.083000E+00	  0.105370738	6.391700E+01	  0.105370738	5.380700E+01	  0.105370738	3.875100E+01
428	  0.105571143	-9.079000E+00	  0.105571143	6.352600E+01	  0.105571143	5.408800E+01	  0.105571143	3.884400E+01
429	  0.105771542	-9.065000E+00	  0.105771542	6.303700E+01	  0.105771542	5.443100E+01	  0.105771542	3.900500E+01
430	  0.105971940	-9.056000E+00	  0.105971940	6.264700E+01	  0.105971940	5.471100E+01	  0.105971940	3.912000E+01
431	  0.106172346	-9.040000E+00	  0.106172346	6.223500E+01	  0.106172346	5.500100E+01	  0.106172346	3.927200E+01
432	  0.106372744	-9.023000E+00	  0.106372744	6.176900E+01	  0.106372744	5.533400E+01	  0.106372744	3.944000E+01
433	  0.106573142	-9.004000E+00	  0.106573142	6.130900E+01	  0.106573142	5.566500E+01	  0.106573142	3.961400E+01
434	  0.106773548	-8.987000E+00	  0.106773548	6.085100E+01	  0.106773548	5.600000E+01	  0.106773548	3.978000E+01
435	  0.106973946	-8.965000E+00	  0.106973946	6.033100E+01	  0.106973946	5.638400E+01	  0.106973946	3.997500E+01
436	  0.107174344	-8.943000E+00	  0.107174344	5.988100E+01	  0.107174344	5.671700E+01	  0.107174344	4.016500E+01
437	  0.107374750	-8.931000E+00	  0.107374750	5.937600E+01	  0.107374750	5.710900E+01	  0.107374750	4.030200E+01
438	  0.107575148	-8.905000E+00	  0.107575148	5.885000E+01	  0.107575148	5.750700E+01	  0.107575148	4.052300E+01
439	  0.107775547	-8.877000E+00	  0.107775547	5.836000E+01	  0.107775547	5.788200E+01	  0.107775547	4.074300E+01
440	  0.107975952	-8.860000E+00	  0.107975952	5.781800E+01	  0.107975952	5.831600E+01	  0.107975952	4.091100E+01
441	  0.108176351	-8.835000E+00	  0.108176351	5.731500E+01	  0.108176351	5.871500E+01	  0.108176351	4.111300E+01
442	  0.108376749	-8.815000E+00	  0.108376749	5.676500E+01	  0.108376749	5.916400E+01	  0.108376749	4.129900E+01
443	  0.108577155	-8.791000E+00	  0.108577155	5.619400E+01	  0.108577155	5.963600E+01	  0.108577155	4.150000E+01
444	  0.108777553	-8.774000E+00	  0.108777553	5.564300E+01	  0.108777553	6.010200E+01	  0.108777553	4.166200E+01
445	  0.108977959	-8.754000E+00	  0.108977959	5.502200E+01	  0.108977959	6.063400E+01	  0.108977959	4.184200E+01
446	  0.109178357	-8.727000E+00	  0.109178357	5.438100E+01	  0.109178357	6.118900E+01	  0.109178357	4.206200E+01
447	  0.109378755	-8.710000E+00	  0.109378755	5.380000E+01	  0.109378755	6.170500E+01	  0.109378755	4.221100E+01
448	  0.109579161	-8.686000E+00	  0.109579161	5.318500E+01	  0.109579161	6.225500E+01	  0.109579161	4.240400E+01
449	  0.109779559	-8.673000E+00	  0.109779559	5.251800E+01	  0.109779559	6.286800E+01	  0.109779559	4.253000E+01
450	  0.109979957	-8.649000E+00	  0.109979957	5.190300E+01	  0.109979957	6.343700E+01	  0.109979957	4.271300E+01
451	  0.110180363	-8.641000E+00	  0.110180363	5.121900E+01	  0.110180363	6.408500E+01	  0.110180363	4.279800E+01
452	  0.110380761	-8.630000E+00	  0.110380761	5.053600E+01	  0.110380761	6.474100E+01	  0.110380761	4.288600E+01
453	  0.110581160	-8.611000E+00	  0.110581160	4.985800E+01	  0.110581160	6.540000E+01	  0.110581160	4.302300E+01
454	  0.110781565	-8.597000E+00	  0.110781565	4.915200E+01	  0.110781565	6.609700E+01	  0.110781565	4.311700E+01
455	  0.110981964	-8.597000E+00	  0.110981964	4.842600E+01	  0.110981964	6.682400E+01	  0.110981964	4.311000E+01
456	  0.111182362	-8.587000E+00	  0.111182362	4.774500E+01	  0.111182362	6.751500E+01	  0.111182362	4.316300E+01
457	  0.111382768	-8.573000E+00	  0.111382768	4.704800E+01	  0.111382768	6.823200E+01	  0.111382768	4.322700E+01
458	  0.111583166	-8.572000E+00	  0.111583166	4.626500E+01	  0.111583166	6.904100E+01	  0.111583166	4.318300E+01
459	  0.111783572	-8.563000E+00	  0.111783572	4.555300E+01	  0.111783572	6.979300E+01	  0.111783572	4.319500E+01
460	  0.111983970	-8.560000E+00	  0.111983970	4.485800E+01	  0.111983970	7.052900E+01	  0.111983970	4.314300E+01
461	  0.112184368	-8.557000E+00	  0.112184368	4.401400E+01	  0.112184368	7.143300E+01	  0.112184368	4.306700E+01
462	  0.112384774	-8.554000E+00	  0.112384774	4.328000E+01	  0.112384774	7.222700E+01	  0.112384774	4.298500E+01
463	  0.112585172	-8.557000E+00	  0.112585172	4.250000E+01	  0.112585172	7.307200E+01	  0.112585172	4.283100E+01
464	  0.112785570	-8.562000E+00	  0.112785570	4.173500E+01	  0.112785570	7.390500E+01	  0.112785570	4.265400E+01
465	  0.112985976	-8.559000E+00	  0.112985976	4.092700E+01	  0.112985976	7.480200E+01	  0.112985976	4.250600E+01
466	  0.113186374	-8.566000E+00	  0.113186374	4.014700E+01	  0.113186374	7.566000E+01	  0.113186374	4.226900E+01
467	  0.113386773	-8.569000E+00	  0.113386773	3.932000E+01	  0.113386773	7.658100E+01	  0.113386773	4.202700E+01
468	  0.113587178	-8.574000E+00	  0.113587178	3.850700E+01	  0.113587178	7.748700E+01	  0.113587178	4.175200E+01
469	  0.113787577	-8.581000E+00	  0.113787577	3.768800E+01	  0.113787577	7.839900E+01	  0.113787577	4.143700E+01
470	  0.113987975	-8.591000E+00	  0.113987975	3.686900E+01	  0.113987975	7.930500E+01	  0.113987975	4.106900E+01
471	  0.114188381	-8.594000E+00	  0.114188381	3.603100E+01	  0.114188381	8.025300E+01	  0.114188381	4.072800E+01
472	  0.114388779	-8.599000E+00	  0.114388779	3.520400E+01	  0.114388779	8.118400E+01	  0.114388779	4.034900E+01
473	  0.114589177	-8.608000E+00	  0.114589177	3.438300E+01	  0.114589177	8.209700E+01	  0.114589177	3.991800E+01
474	  0.114789583	-8.619000E+00	  0.114789583	3.355100E+01	  0.114789583	8.301300E+01	  0.114789583	3.943500E+01
475	  0.114989981	-8.629000E+00	  0.114989981	3.271000E+01	  0.114989981	8.393800E+01	  0.114989981	3.892700E+01
476	  0.115190387	-8.644000E+00	  0.115190387	3.179300E+01	  0.115190387	8.492900E+01	  0.115190387	3.831400E+01
477	  0.115390785	-8.655000E+00	  0.115390785	3.087200E+01	  0.115390785	8.592900E+01	  0.115390785	3.769000E+01
478	  0.115591183	-8.665000E+00	  0.115591183	3.001200E+01	  0.115591183	8.685800E+01	  0.115591183	3.708000E+01
479	  0.115791589	-8.685000E+00	  0.115791589	2.913200E+01	  0.115791589	8.775600E+01	  0.115791589	3.635500E+01
480	  0.115991987	-8.693000E+00	  0.115991987	2.819100E+01	  0.115991987	8.876300E+01	  0.115991987	3.564000E+01
481	  0.116192386	-8.710000E+00	  0.116192386	2.727100E+01	  0.116192386	8.968900E+01	  0.116192386	3.483700E+01
482	  0.116392791	-8.730000E+00	  0.116392791	2.629900E+01	  0.116392791	9.064100E+01	  0.116392791	3.394300E+01
483	  0.116593190	-8.753000E+00	  0.116593190	2.530700E+01	  0.116593190	9.157200E+01	  0.116593190	3.296900E+01
484	  0.116793588	-8.776000E+00	  0.116793588	2.429300E+01	  0.116793588	9.250200E+01	  0.116793588	3.194400E+01
485	  0.116993994	-8.797000E+00	  0.116993994	2.330800E+01	  0.116993994	9.338000E+01	  0.116993994	3.091500E+01
486	  0.117194392	-8.830000E+00	  0.117194392	2.229700E+01	  0.117194392	9.418200E+01	  0.117194392	2.975300E+01
487	  0.117394790	-8.864000E+00	  0.117394790	2.127500E+01	  0.117394790	9.494600E+01	  0.117394790	2.854000E+01
488	  0.117595196	-8.903000E+00	  0.117595196	2.022100E+01	  0.117595196	9.566400E+01	  0.117595196	2.723400E+01
489	  0.117795594	-8.944000E+00	  0.117795594	1.914300E+01	  0.117795594	9.633700E+01	  0.117795594	2.585900E+01
490	  0.117995992	-8.980000E+00	  0.117995992	1.805700E+01	  0.117995992	9.700400E+01	  0.117995992	2.448100E+01
491	  0.118196398	-9.025000E+00	  0.118196398	1.691400E+01	  0.118196398	9.759300E+01	  0.118196398	2.296400E+01
492	  0.118396796	-9.073000E+00	  0.118396796	1.581300E+01	  0.118396796	9.806200E+01	  0.118396796	2.145900E+01
493	  0.118597202	-9.130000E+00	  0.118597202	1.464300E+01	  0.118597202	9.844700E+01	  0.118597202	1.981700E+01
494	  0.118797600	-9.176000E+00	  0.118797600	1.348900E+01	  0.118797600	9.883900E+01	  0.118797600	1.823500E+01
