! Anritsu VNA Master:             	Model: MS2036C/10/77
! SN:             	1601066
! /bd0/18may8/255.ew.m4.txt
! Existing Calibration Information:
! TYPE:             	Current Settings	Active Cal Settings
! TIME:             	05/08/2018 10:08:00 AM	05/08/2018 09:57:41 AM
! INTERNAL TEMP:    	47.0 C	46.8 C
! # POINTS:         	500	500
! START FREQ:       	20.000 MHz	20.000 MHz
! STOP FREQ:        	120.000 MHz	120.000 MHz
! SOURCE POWER:     	High	High
! IFBW:             	50 Hz	50 Hz
! AVG FACTOR:       	  1 	  1 
! REF PLANE 1:      	0 mm	0 mm
! REF PLANE 2:      	0 mm	0 mm
! CAL TYPE:         	Full S11	Full S11
! CAL METHOD:       	SOLT	SOLT
! CAL LINE TYPE:    	Coax	Coax
! DUT PORT 1:       	K-Conn(F)	K-Conn(F)
! DUT PORT 2:       	K-Conn(F)	K-Conn(F)
! CAL STATUS:       	OK: Accuracy High	--
! PROP-V:       	0.700
! CABLE LOSS:       	0.000 dB/m
! REF IMPEDANCE:       	50.0
! Trace Specific Parameters:	TR1	TR2	TR3	TR4
! TRACE.#.Y (GRAPH TYPE)	LOG MAG	PHASE	REAL IMPEDANCE	IMAGINARY IMPEDANCE
! TRACE.#.X 	FREQ.GHZ	FREQ.GHZ	FREQ.GHZ	FREQ.GHZ
! S-PARAMETER	S11	S11	S11	S11
! SMOOTH/APERTURE %	0	0	0	0
! WINDOW	NSL	NSL	NSL	NSL
! GATING	OFF	OFF	OFF	OFF
! FGTD	OFF	OFF	OFF	OFF
Marker Information per Trace:	TR1	TR2	TR3	TR4
!MK1	--	"MK1 TR2:  20.000 MHz,PH:-124.22°"	--	--
!MK2	--	--	"MK2 TR3:  70.100 200 MHz,Z:(16.727 ohm, -3.350 ohm)"	--
!MK3	--	--	--	--
!MK4	--	--	--	--
!MK5	--	--	--	--
!MK6	--	--	--	--
!MK7	--	--	--	--
!MK8	--	--	--	--
PNT	TR1.FREQ.GHZ	TR1.LOG MAG.dB	TR2.FREQ.GHZ	TR2.PHASE.deg	TR3.FREQ.GHZ	TR3.REAL IMPEDANCE.ohm	TR4.FREQ.GHZ	TR4.IMAGINARY IMPEDANCE.ohm
1	  0.020000000	-8.870000E-01	  0.020000000	-1.242170E+02	  0.020000000	3.264000E+00	  0.020000000	-2.637500E+01
2	  0.020200402	-8.920000E-01	  0.020200402	-1.256380E+02	  0.020200402	3.239000E+00	  0.020200402	-2.558900E+01
3	  0.020400802	-9.000000E-01	  0.020400802	-1.270600E+02	  0.020400802	3.228000E+00	  0.020400802	-2.481200E+01
4	  0.020601204	-9.070000E-01	  0.020601204	-1.284880E+02	  0.020601204	3.215000E+00	  0.020601204	-2.404200E+01
5	  0.020801604	-9.170000E-01	  0.020801604	-1.299640E+02	  0.020801604	3.210000E+00	  0.020801604	-2.325500E+01
6	  0.021002004	-9.310000E-01	  0.021002004	-1.314440E+02	  0.021002004	3.222000E+00	  0.021002004	-2.247400E+01
7	  0.021202406	-9.410000E-01	  0.021202406	-1.329400E+02	  0.021202406	3.220000E+00	  0.021202406	-2.169500E+01
8	  0.021402806	-9.540000E-01	  0.021402806	-1.344320E+02	  0.021402806	3.228000E+00	  0.021402806	-2.092600E+01
9	  0.021603208	-9.630000E-01	  0.021603208	-1.359340E+02	  0.021603208	3.221000E+00	  0.021603208	-2.016200E+01
10	  0.021803608	-9.750000E-01	  0.021803608	-1.374350E+02	  0.021803608	3.228000E+00	  0.021803608	-1.940500E+01
11	  0.022004008	-9.850000E-01	  0.022004008	-1.389370E+02	  0.022004008	3.228000E+00	  0.022004008	-1.865600E+01
12	  0.022204408	-1.000000E+00	  0.022204408	-1.404410E+02	  0.022204408	3.246000E+00	  0.022204408	-1.791300E+01
13	  0.022404809	-1.010000E+00	  0.022404809	-1.419710E+02	  0.022404809	3.249000E+00	  0.022404809	-1.716500E+01
14	  0.022605211	-1.021000E+00	  0.022605211	-1.435190E+02	  0.022605211	3.254000E+00	  0.022605211	-1.641500E+01
15	  0.022805611	-1.030000E+00	  0.022805611	-1.450700E+02	  0.022805611	3.253000E+00	  0.022805611	-1.567000E+01
16	  0.023006011	-1.039000E+00	  0.023006011	-1.466220E+02	  0.023006011	3.256000E+00	  0.023006011	-1.493100E+01
17	  0.023206413	-1.046000E+00	  0.023206413	-1.481460E+02	  0.023206413	3.253000E+00	  0.023206413	-1.421200E+01
18	  0.023406813	-1.054000E+00	  0.023406813	-1.496860E+02	  0.023406813	3.252000E+00	  0.023406813	-1.349000E+01
19	  0.023607215	-1.063000E+00	  0.023607215	-1.512210E+02	  0.023607215	3.257000E+00	  0.023607215	-1.277600E+01
20	  0.023807615	-1.075000E+00	  0.023807615	-1.527670E+02	  0.023807615	3.271000E+00	  0.023807615	-1.206200E+01
21	  0.024008015	-1.089000E+00	  0.024008015	-1.543330E+02	  0.024008015	3.293000E+00	  0.024008015	-1.134300E+01
22	  0.024208417	-1.101000E+00	  0.024208417	-1.559210E+02	  0.024208417	3.310000E+00	  0.024208417	-1.061900E+01
23	  0.024408817	-1.116000E+00	  0.024408817	-1.575060E+02	  0.024408817	3.334000E+00	  0.024408817	-9.900000E+00
24	  0.024609219	-1.127000E+00	  0.024609219	-1.591020E+02	  0.024609219	3.351000E+00	  0.024609219	-9.180000E+00
25	  0.024809619	-1.140000E+00	  0.024809619	-1.607090E+02	  0.024809619	3.372000E+00	  0.024809619	-8.459000E+00
26	  0.025010020	-1.154000E+00	  0.025010020	-1.623000E+02	  0.025010020	3.398000E+00	  0.025010020	-7.749000E+00
27	  0.025210422	-1.171000E+00	  0.025210422	-1.639050E+02	  0.025210422	3.433000E+00	  0.025210422	-7.036000E+00
28	  0.025410822	-1.188000E+00	  0.025410822	-1.655360E+02	  0.025410822	3.470000E+00	  0.025410822	-6.314000E+00
29	  0.025611224	-1.206000E+00	  0.025611224	-1.671930E+02	  0.025611224	3.511000E+00	  0.025611224	-5.583000E+00
30	  0.025811624	-1.222000E+00	  0.025811624	-1.688600E+02	  0.025811624	3.546000E+00	  0.025811624	-4.851000E+00
31	  0.026012026	-1.237000E+00	  0.026012026	-1.705450E+02	  0.026012026	3.581000E+00	  0.026012026	-4.113000E+00
32	  0.026212426	-1.252000E+00	  0.026212426	-1.722320E+02	  0.026212426	3.614000E+00	  0.026212426	-3.376000E+00
33	  0.026412826	-1.268000E+00	  0.026412826	-1.739160E+02	  0.026412826	3.654000E+00	  0.026412826	-2.642000E+00
34	  0.026613226	-1.286000E+00	  0.026613226	-1.756200E+02	  0.026613226	3.701000E+00	  0.026613226	-1.901000E+00
35	  0.026813626	-1.305000E+00	  0.026813626	-1.773370E+02	  0.026813626	3.753000E+00	  0.026813626	-1.155000E+00
36	  0.027014028	-1.326000E+00	  0.027014028	-1.790570E+02	  0.027014028	3.810000E+00	  0.027014028	-4.080000E-01
37	  0.027214428	-1.347000E+00	  0.027214428	1.791940E+02	  0.027214428	3.870000E+00	  0.027214428	3.490000E-01
38	  0.027414829	-1.368000E+00	  0.027414829	1.774360E+02	  0.027414829	3.931000E+00	  0.027414829	1.111000E+00
39	  0.027615231	-1.389000E+00	  0.027615231	1.756740E+02	  0.027615231	3.997000E+00	  0.027615231	1.875000E+00
40	  0.027815631	-1.414000E+00	  0.027815631	1.738970E+02	  0.027815631	4.074000E+00	  0.027815631	2.647000E+00
41	  0.028016033	-1.439000E+00	  0.028016033	1.721040E+02	  0.028016033	4.153000E+00	  0.028016033	3.426000E+00
42	  0.028216433	-1.466000E+00	  0.028216433	1.703030E+02	  0.028216433	4.240000E+00	  0.028216433	4.210000E+00
43	  0.028416833	-1.493000E+00	  0.028416833	1.685040E+02	  0.028416833	4.330000E+00	  0.028416833	4.995000E+00
44	  0.028617235	-1.517000E+00	  0.028617235	1.666990E+02	  0.028617235	4.416000E+00	  0.028617235	5.784000E+00
45	  0.028817635	-1.542000E+00	  0.028817635	1.649100E+02	  0.028817635	4.505000E+00	  0.028817635	6.569000E+00
46	  0.029018037	-1.566000E+00	  0.029018037	1.631110E+02	  0.029018037	4.595000E+00	  0.029018037	7.361000E+00
47	  0.029218437	-1.592000E+00	  0.029218437	1.613170E+02	  0.029218437	4.693000E+00	  0.029218437	8.154000E+00
48	  0.029418837	-1.621000E+00	  0.029418837	1.595190E+02	  0.029418837	4.803000E+00	  0.029418837	8.951000E+00
49	  0.029619239	-1.652000E+00	  0.029619239	1.577100E+02	  0.029619239	4.923000E+00	  0.029619239	9.758000E+00
50	  0.029819639	-1.684000E+00	  0.029819639	1.558830E+02	  0.029819639	5.050000E+00	  0.029819639	1.057600E+01
51	  0.030020041	-1.718000E+00	  0.030020041	1.540200E+02	  0.030020041	5.190000E+00	  0.030020041	1.141600E+01
52	  0.030220442	-1.752000E+00	  0.030220442	1.521480E+02	  0.030220442	5.332000E+00	  0.030220442	1.226400E+01
53	  0.030420844	-1.784000E+00	  0.030420844	1.502570E+02	  0.030420844	5.474000E+00	  0.030420844	1.312800E+01
54	  0.030621244	-1.819000E+00	  0.030621244	1.483910E+02	  0.030621244	5.629000E+00	  0.030621244	1.398600E+01
55	  0.030821644	-1.854000E+00	  0.030821644	1.465280E+02	  0.030821644	5.791000E+00	  0.030821644	1.484900E+01
56	  0.031022044	-1.891000E+00	  0.031022044	1.446440E+02	  0.031022044	5.967000E+00	  0.031022044	1.572900E+01
57	  0.031222444	-1.925000E+00	  0.031222444	1.427720E+02	  0.031222444	6.136000E+00	  0.031222444	1.661200E+01
58	  0.031422846	-1.966000E+00	  0.031422846	1.408190E+02	  0.031422846	6.340000E+00	  0.031422846	1.754000E+01
59	  0.031623244	-2.005000E+00	  0.031623244	1.388730E+02	  0.031623244	6.543000E+00	  0.031623244	1.847400E+01
60	  0.031823646	-2.043000E+00	  0.031823646	1.368980E+02	  0.031823646	6.751000E+00	  0.031823646	1.943400E+01
61	  0.032024048	-2.078000E+00	  0.032024048	1.349480E+02	  0.032024048	6.961000E+00	  0.032024048	2.039300E+01
62	  0.032224450	-2.114000E+00	  0.032224450	1.329980E+02	  0.032224450	7.182000E+00	  0.032224450	2.136300E+01
63	  0.032424849	-2.153000E+00	  0.032424849	1.310290E+02	  0.032424849	7.420000E+00	  0.032424849	2.235300E+01
64	  0.032625251	-2.188000E+00	  0.032625251	1.290630E+02	  0.032625251	7.660000E+00	  0.032625251	2.335700E+01
65	  0.032825653	-2.229000E+00	  0.032825653	1.271080E+02	  0.032825653	7.927000E+00	  0.032825653	2.436600E+01
66	  0.033026051	-2.272000E+00	  0.033026051	1.251500E+02	  0.033026051	8.218000E+00	  0.033026051	2.539000E+01
67	  0.033226453	-2.317000E+00	  0.033226453	1.231890E+02	  0.033226453	8.526000E+00	  0.033226453	2.642900E+01
68	  0.033426855	-2.367000E+00	  0.033426855	1.212290E+02	  0.033426855	8.867000E+00	  0.033426855	2.748000E+01
69	  0.033627257	-2.420000E+00	  0.033627257	1.192250E+02	  0.033627257	9.242000E+00	  0.033627257	2.856900E+01
70	  0.033827655	-2.475000E+00	  0.033827655	1.171880E+02	  0.033827655	9.644000E+00	  0.033827655	2.969300E+01
71	  0.034028057	-2.526000E+00	  0.034028057	1.151310E+02	  0.034028057	1.005200E+01	  0.034028057	3.085000E+01
72	  0.034228459	-2.574000E+00	  0.034228459	1.130280E+02	  0.034228459	1.047700E+01	  0.034228459	3.205600E+01
73	  0.034428857	-2.623000E+00	  0.034428857	1.109170E+02	  0.034428857	1.092900E+01	  0.034428857	3.328900E+01
74	  0.034629259	-2.672000E+00	  0.034629259	1.087920E+02	  0.034629259	1.140700E+01	  0.034629259	3.455400E+01
75	  0.034829661	-2.716000E+00	  0.034829661	1.066790E+02	  0.034829661	1.189400E+01	  0.034829661	3.584100E+01
76	  0.035030060	-2.760000E+00	  0.035030060	1.045790E+02	  0.035030060	1.240500E+01	  0.035030060	3.714700E+01
77	  0.035230462	-2.805000E+00	  0.035230462	1.025030E+02	  0.035230462	1.294800E+01	  0.035230462	3.846300E+01
78	  0.035430863	-2.845000E+00	  0.035430863	1.004130E+02	  0.035430863	1.350200E+01	  0.035430863	3.982200E+01
79	  0.035631265	-2.887000E+00	  0.035631265	9.834900E+01	  0.035631265	1.409500E+01	  0.035631265	4.119100E+01
80	  0.035831664	-2.931000E+00	  0.035831664	9.628600E+01	  0.035831664	1.473700E+01	  0.035831664	4.258600E+01
81	  0.036032066	-2.971000E+00	  0.036032066	9.423600E+01	  0.036032066	1.539500E+01	  0.036032066	4.401000E+01
82	  0.036232468	-3.015000E+00	  0.036232468	9.218600E+01	  0.036232468	1.611600E+01	  0.036232468	4.546000E+01
83	  0.036432866	-3.058000E+00	  0.036432866	9.018100E+01	  0.036432866	1.686000E+01	  0.036432866	4.691300E+01
84	  0.036633268	-3.104000E+00	  0.036633268	8.815900E+01	  0.036633268	1.767800E+01	  0.036633268	4.840400E+01
85	  0.036833670	-3.152000E+00	  0.036833670	8.613600E+01	  0.036833670	1.856400E+01	  0.036833670	4.992500E+01
86	  0.037034072	-3.200000E+00	  0.037034072	8.407000E+01	  0.037034072	1.952100E+01	  0.037034072	5.151600E+01
87	  0.037234470	-3.248000E+00	  0.037234470	8.198100E+01	  0.037234470	2.054900E+01	  0.037234470	5.316600E+01
88	  0.037434869	-3.291000E+00	  0.037434869	7.982200E+01	  0.037434869	2.165500E+01	  0.037434869	5.492800E+01
89	  0.037635271	-3.333000E+00	  0.037635271	7.758000E+01	  0.037635271	2.287600E+01	  0.037635271	5.681400E+01
90	  0.037835669	-3.384000E+00	  0.037835669	7.523800E+01	  0.037835669	2.430200E+01	  0.037835669	5.881400E+01
91	  0.038036071	-3.447000E+00	  0.038036071	7.283800E+01	  0.038036071	2.595700E+01	  0.038036071	6.087800E+01
92	  0.038236473	-3.528000E+00	  0.038236473	7.049500E+01	  0.038236473	2.784000E+01	  0.038236473	6.286000E+01
93	  0.038436871	-3.610000E+00	  0.038436871	6.822600E+01	  0.038436871	2.984200E+01	  0.038436871	6.478500E+01
94	  0.038637273	-3.687000E+00	  0.038637273	6.605800E+01	  0.038637273	3.189600E+01	  0.038637273	6.664600E+01
95	  0.038837675	-3.754000E+00	  0.038837675	6.395400E+01	  0.038837675	3.399300E+01	  0.038837675	6.849800E+01
96	  0.039038073	-3.812000E+00	  0.039038073	6.190600E+01	  0.039038073	3.613700E+01	  0.039038073	7.035300E+01
97	  0.039238475	-3.867000E+00	  0.039238475	5.987200E+01	  0.039238475	3.841700E+01	  0.039238475	7.221300E+01
98	  0.039438877	-3.923000E+00	  0.039438877	5.783200E+01	  0.039438877	4.088400E+01	  0.039438877	7.407600E+01
99	  0.039639279	-3.977000E+00	  0.039639279	5.581100E+01	  0.039639279	4.351000E+01	  0.039639279	7.592400E+01
100	  0.039839678	-4.037000E+00	  0.039839678	5.374700E+01	  0.039839678	4.644000E+01	  0.039839678	7.774500E+01
101	  0.040040080	-4.098000E+00	  0.040040080	5.168900E+01	  0.040040080	4.960400E+01	  0.040040080	7.950000E+01
102	  0.040240481	-4.156000E+00	  0.040240481	4.960800E+01	  0.040240481	5.301800E+01	  0.040240481	8.125500E+01
103	  0.040440880	-4.215000E+00	  0.040440880	4.749300E+01	  0.040440880	5.677000E+01	  0.040440880	8.293600E+01
104	  0.040641282	-4.273000E+00	  0.040641282	4.537500E+01	  0.040641282	6.081600E+01	  0.040641282	8.451700E+01
105	  0.040841684	-4.329000E+00	  0.040841684	4.327800E+01	  0.040841684	6.511300E+01	  0.040841684	8.595600E+01
106	  0.041042086	-4.382000E+00	  0.041042086	4.116900E+01	  0.041042086	6.974800E+01	  0.041042086	8.724600E+01
107	  0.041242484	-4.438000E+00	  0.041242484	3.903800E+01	  0.041242484	7.478900E+01	  0.041242484	8.828100E+01
108	  0.041442886	-4.490000E+00	  0.041442886	3.691500E+01	  0.041442886	8.013700E+01	  0.041442886	8.908500E+01
109	  0.041643288	-4.539000E+00	  0.041643288	3.480800E+01	  0.041643288	8.579400E+01	  0.041643288	8.956400E+01
110	  0.041843686	-4.587000E+00	  0.041843686	3.267300E+01	  0.041843686	9.187300E+01	  0.041843686	8.967400E+01
111	  0.042044088	-4.634000E+00	  0.042044088	3.060200E+01	  0.042044088	9.810000E+01	  0.042044088	8.930900E+01
112	  0.042244490	-4.675000E+00	  0.042244490	2.852000E+01	  0.042244490	1.046590E+02	  0.042244490	8.850600E+01
113	  0.042444889	-4.724000E+00	  0.042444889	2.645900E+01	  0.042444889	1.113950E+02	  0.042444889	8.690300E+01
114	  0.042645290	-4.768000E+00	  0.042645290	2.441400E+01	  0.042645290	1.182650E+02	  0.042645290	8.472600E+01
115	  0.042845692	-4.811000E+00	  0.042845692	2.236900E+01	  0.042845692	1.252350E+02	  0.042845692	8.179000E+01
116	  0.043046094	-4.857000E+00	  0.043046094	2.034100E+01	  0.043046094	1.321120E+02	  0.043046094	7.799100E+01
117	  0.043246493	-4.901000E+00	  0.043246493	1.829500E+01	  0.043246493	1.389320E+02	  0.043246493	7.333900E+01
118	  0.043446895	-4.942000E+00	  0.043446895	1.626300E+01	  0.043446895	1.454520E+02	  0.043446895	6.785900E+01
119	  0.043647297	-4.984000E+00	  0.043647297	1.424000E+01	  0.043647297	1.514980E+02	  0.043647297	6.150200E+01
120	  0.043847695	-5.029000E+00	  0.043847695	1.222000E+01	  0.043847695	1.568650E+02	  0.043847695	5.425300E+01
121	  0.044048097	-5.071000E+00	  0.044048097	1.021800E+01	  0.044048097	1.615040E+02	  0.044048097	4.638900E+01
122	  0.044248499	-5.115000E+00	  0.044248499	8.204000E+00	  0.044248499	1.651970E+02	  0.044248499	3.780100E+01
123	  0.044448901	-5.157000E+00	  0.044448901	6.211000E+00	  0.044448901	1.678940E+02	  0.044448901	2.886700E+01
124	  0.044649299	-5.197000E+00	  0.044649299	4.220000E+00	  0.044649299	1.695730E+02	  0.044649299	1.965800E+01
125	  0.044849701	-5.237000E+00	  0.044849701	2.229000E+00	  0.044849701	1.701600E+02	  0.044849701	1.034300E+01
126	  0.045050103	-5.269000E+00	  0.045050103	2.380000E-01	  0.045050103	1.698610E+02	  0.045050103	1.096000E+00
127	  0.045250501	-5.302000E+00	  0.045250501	-1.743000E+00	  0.045250501	1.684590E+02	  0.045250501	-7.894000E+00
128	  0.045450903	-5.337000E+00	  0.045450903	-3.681000E+00	  0.045450903	1.660740E+02	  0.045450903	-1.630600E+01
129	  0.045651305	-5.372000E+00	  0.045651305	-5.630000E+00	  0.045651305	1.628260E+02	  0.045651305	-2.425100E+01
130	  0.045851704	-5.405000E+00	  0.045851704	-7.564000E+00	  0.045851704	1.589290E+02	  0.045851704	-3.154300E+01
131	  0.046052106	-5.438000E+00	  0.046052106	-9.508000E+00	  0.046052106	1.544240E+02	  0.046052106	-3.819800E+01
132	  0.046252504	-5.468000E+00	  0.046252504	-1.141700E+01	  0.046252504	1.495960E+02	  0.046252504	-4.406600E+01
133	  0.046452906	-5.498000E+00	  0.046452906	-1.333700E+01	  0.046452906	1.444020E+02	  0.046452906	-4.926100E+01
134	  0.046653304	-5.524000E+00	  0.046653304	-1.525300E+01	  0.046653304	1.390690E+02	  0.046653304	-5.382200E+01
135	  0.046853706	-5.551000E+00	  0.046853706	-1.716900E+01	  0.046853706	1.335780E+02	  0.046853706	-5.768700E+01
136	  0.047054108	-5.576000E+00	  0.047054108	-1.904800E+01	  0.047054108	1.281700E+02	  0.047054108	-6.089000E+01
137	  0.047254506	-5.598000E+00	  0.047254506	-2.094900E+01	  0.047254506	1.227450E+02	  0.047254506	-6.359300E+01
138	  0.047454908	-5.622000E+00	  0.047454908	-2.280700E+01	  0.047454908	1.174940E+02	  0.047454908	-6.568100E+01
139	  0.047655310	-5.641000E+00	  0.047655310	-2.466000E+01	  0.047655310	1.124050E+02	  0.047655310	-6.736300E+01
140	  0.047855709	-5.664000E+00	  0.047855709	-2.648100E+01	  0.047855709	1.075230E+02	  0.047855709	-6.854900E+01
141	  0.048056111	-5.685000E+00	  0.048056111	-2.829300E+01	  0.048056111	1.028430E+02	  0.048056111	-6.940800E+01
142	  0.048256513	-5.706000E+00	  0.048256513	-3.008700E+01	  0.048256513	9.838400E+01	  0.048256513	-6.993400E+01
143	  0.048456915	-5.730000E+00	  0.048456915	-3.189200E+01	  0.048456915	9.408700E+01	  0.048456915	-7.014900E+01
144	  0.048657313	-5.749000E+00	  0.048657313	-3.366900E+01	  0.048657313	9.005600E+01	  0.048657313	-7.019100E+01
145	  0.048857715	-5.764000E+00	  0.048857715	-3.546100E+01	  0.048857715	8.618300E+01	  0.048857715	-7.007500E+01
146	  0.049058117	-5.780000E+00	  0.049058117	-3.724600E+01	  0.049058117	8.251300E+01	  0.049058117	-6.976900E+01
147	  0.049258515	-5.793000E+00	  0.049258515	-3.899900E+01	  0.049258515	7.908400E+01	  0.049258515	-6.936300E+01
148	  0.049458917	-5.812000E+00	  0.049458917	-4.071700E+01	  0.049458917	7.590300E+01	  0.049458917	-6.874800E+01
149	  0.049659319	-5.828000E+00	  0.049659319	-4.247000E+01	  0.049659319	7.282300E+01	  0.049659319	-6.804900E+01
150	  0.049859721	-5.845000E+00	  0.049859721	-4.418800E+01	  0.049859721	6.996500E+01	  0.049859721	-6.727000E+01
151	  0.050060119	-5.859000E+00	  0.050060119	-4.591000E+01	  0.050060119	6.724500E+01	  0.050060119	-6.643800E+01
152	  0.050260521	-5.873000E+00	  0.050260521	-4.763500E+01	  0.050260521	6.466200E+01	  0.050260521	-6.554900E+01
153	  0.050460923	-5.884000E+00	  0.050460923	-4.936300E+01	  0.050460923	6.220600E+01	  0.050460923	-6.462600E+01
154	  0.050661322	-5.891000E+00	  0.050661322	-5.105500E+01	  0.050661322	5.991800E+01	  0.050661322	-6.370500E+01
155	  0.050861724	-5.895000E+00	  0.050861724	-5.274100E+01	  0.050861724	5.774000E+01	  0.050861724	-6.278000E+01
156	  0.051062126	-5.904000E+00	  0.051062126	-5.439800E+01	  0.051062126	5.573000E+01	  0.051062126	-6.179100E+01
157	  0.051262524	-5.908000E+00	  0.051262524	-5.601800E+01	  0.051262524	5.384500E+01	  0.051262524	-6.084000E+01
158	  0.051462926	-5.914000E+00	  0.051462926	-5.761500E+01	  0.051462926	5.208800E+01	  0.051462926	-5.986000E+01
159	  0.051663328	-5.919000E+00	  0.051663328	-5.919000E+01	  0.051663328	5.043200E+01	  0.051663328	-5.889500E+01
160	  0.051863730	-5.928000E+00	  0.051863730	-6.077100E+01	  0.051863730	4.886900E+01	  0.051863730	-5.788500E+01
161	  0.052064128	-5.938000E+00	  0.052064128	-6.232800E+01	  0.052064128	4.740700E+01	  0.052064128	-5.687800E+01
162	  0.052264530	-5.947000E+00	  0.052264530	-6.391400E+01	  0.052264530	4.598600E+01	  0.052264530	-5.585400E+01
163	  0.052464932	-5.954000E+00	  0.052464932	-6.545500E+01	  0.052464932	4.466800E+01	  0.052464932	-5.486600E+01
164	  0.052665330	-5.964000E+00	  0.052665330	-6.701800E+01	  0.052665330	4.340200E+01	  0.052665330	-5.385200E+01
165	  0.052865732	-5.973000E+00	  0.052865732	-6.858800E+01	  0.052865732	4.218700E+01	  0.052865732	-5.284000E+01
166	  0.053066134	-5.986000E+00	  0.053066134	-7.011400E+01	  0.053066134	4.107600E+01	  0.053066134	-5.184600E+01
167	  0.053266536	-5.990000E+00	  0.053266536	-7.167200E+01	  0.053266536	3.996300E+01	  0.053266536	-5.087400E+01
168	  0.053466935	-5.997000E+00	  0.053466935	-7.321400E+01	  0.053466935	3.892100E+01	  0.053466935	-4.990400E+01
169	  0.053667337	-6.001000E+00	  0.053667337	-7.474200E+01	  0.053667337	3.792200E+01	  0.053667337	-4.896400E+01
170	  0.053867739	-6.000000E+00	  0.053867739	-7.624900E+01	  0.053867739	3.696500E+01	  0.053867739	-4.805800E+01
171	  0.054068137	-6.002000E+00	  0.054068137	-7.774400E+01	  0.054068137	3.606700E+01	  0.054068137	-4.715300E+01
172	  0.054268539	-6.005000E+00	  0.054268539	-7.923400E+01	  0.054268539	3.521100E+01	  0.054268539	-4.625500E+01
173	  0.054468941	-6.005000E+00	  0.054468941	-8.068500E+01	  0.054468941	3.440400E+01	  0.054468941	-4.539700E+01
174	  0.054669339	-6.010000E+00	  0.054669339	-8.210300E+01	  0.054669339	3.366700E+01	  0.054669339	-4.454600E+01
175	  0.054869737	-6.016000E+00	  0.054869737	-8.351000E+01	  0.054869737	3.296500E+01	  0.054869737	-4.370800E+01
176	  0.055070139	-6.020000E+00	  0.055070139	-8.488800E+01	  0.055070139	3.230300E+01	  0.055070139	-4.289700E+01
177	  0.055270538	-6.025000E+00	  0.055270538	-8.629100E+01	  0.055270538	3.165600E+01	  0.055270538	-4.207800E+01
178	  0.055470940	-6.035000E+00	  0.055470940	-8.767800E+01	  0.055470940	3.106000E+01	  0.055470940	-4.126100E+01
179	  0.055671342	-6.039000E+00	  0.055671342	-8.909200E+01	  0.055671342	3.045400E+01	  0.055671342	-4.045400E+01
180	  0.055871744	-6.041000E+00	  0.055871744	-9.046800E+01	  0.055871744	2.988000E+01	  0.055871744	-3.968200E+01
181	  0.056072142	-6.049000E+00	  0.056072142	-9.185500E+01	  0.056072142	2.934700E+01	  0.056072142	-3.889300E+01
182	  0.056272544	-6.053000E+00	  0.056272544	-9.320700E+01	  0.056272544	2.883400E+01	  0.056272544	-3.814200E+01
183	  0.056472946	-6.057000E+00	  0.056472946	-9.460400E+01	  0.056472946	2.831900E+01	  0.056472946	-3.737600E+01
184	  0.056673344	-6.059000E+00	  0.056673344	-9.595000E+01	  0.056673344	2.784000E+01	  0.056673344	-3.664600E+01
185	  0.056873746	-6.061000E+00	  0.056873746	-9.733200E+01	  0.056873746	2.736400E+01	  0.056873746	-3.590400E+01
186	  0.057074148	-6.057000E+00	  0.057074148	-9.868600E+01	  0.057074148	2.689400E+01	  0.057074148	-3.519800E+01
187	  0.057274550	-6.055000E+00	  0.057274550	-1.000220E+02	  0.057274550	2.645300E+01	  0.057274550	-3.450200E+01
188	  0.057474948	-6.050000E+00	  0.057474948	-1.013470E+02	  0.057474948	2.602300E+01	  0.057474948	-3.382300E+01
189	  0.057675350	-6.042000E+00	  0.057675350	-1.026540E+02	  0.057675350	2.560000E+01	  0.057675350	-3.316500E+01
190	  0.057875752	-6.036000E+00	  0.057875752	-1.039450E+02	  0.057875752	2.520500E+01	  0.057875752	-3.251500E+01
191	  0.058076151	-6.032000E+00	  0.058076151	-1.052470E+02	  0.058076151	2.482500E+01	  0.058076151	-3.186200E+01
192	  0.058276553	-6.025000E+00	  0.058276553	-1.065010E+02	  0.058276553	2.446000E+01	  0.058276553	-3.124200E+01
193	  0.058476955	-6.020000E+00	  0.058476955	-1.077310E+02	  0.058476955	2.412100E+01	  0.058476955	-3.063600E+01
194	  0.058677353	-6.014000E+00	  0.058677353	-1.090010E+02	  0.058677353	2.377900E+01	  0.058677353	-3.001500E+01
195	  0.058877755	-6.010000E+00	  0.058877755	-1.102610E+02	  0.058877755	2.345900E+01	  0.058877755	-2.939900E+01
196	  0.059078157	-6.004000E+00	  0.059078157	-1.114960E+02	  0.059078157	2.314600E+01	  0.059078157	-2.880500E+01
197	  0.059278559	-5.998000E+00	  0.059278559	-1.127410E+02	  0.059278559	2.284200E+01	  0.059278559	-2.820900E+01
198	  0.059478957	-5.995000E+00	  0.059478957	-1.139960E+02	  0.059478957	2.255700E+01	  0.059478957	-2.760700E+01
199	  0.059679359	-5.989000E+00	  0.059679359	-1.152470E+02	  0.059679359	2.227100E+01	  0.059679359	-2.701700E+01
200	  0.059879761	-5.987000E+00	  0.059879761	-1.164870E+02	  0.059879761	2.200600E+01	  0.059879761	-2.643100E+01
201	  0.060080159	-5.980000E+00	  0.060080159	-1.177260E+02	  0.060080159	2.173600E+01	  0.060080159	-2.585500E+01
202	  0.060280561	-5.975000E+00	  0.060280561	-1.189600E+02	  0.060280561	2.148400E+01	  0.060280561	-2.528200E+01
203	  0.060480963	-5.973000E+00	  0.060480963	-1.201730E+02	  0.060480963	2.125200E+01	  0.060480963	-2.472000E+01
204	  0.060681365	-5.966000E+00	  0.060681365	-1.213950E+02	  0.060681365	2.101000E+01	  0.060681365	-2.416300E+01
205	  0.060881764	-5.957000E+00	  0.060881764	-1.225960E+02	  0.060881764	2.077300E+01	  0.060881764	-2.362200E+01
206	  0.061082166	-5.954000E+00	  0.061082166	-1.238050E+02	  0.061082166	2.056200E+01	  0.061082166	-2.307200E+01
207	  0.061282568	-5.951000E+00	  0.061282568	-1.250140E+02	  0.061282568	2.035400E+01	  0.061282568	-2.252700E+01
208	  0.061482966	-5.942000E+00	  0.061482966	-1.261930E+02	  0.061482966	2.014200E+01	  0.061482966	-2.200400E+01
209	  0.061683368	-5.938000E+00	  0.061683368	-1.273480E+02	  0.061683368	1.995600E+01	  0.061683368	-2.148900E+01
210	  0.061883770	-5.937000E+00	  0.061883770	-1.284900E+02	  0.061883770	1.978300E+01	  0.061883770	-2.098100E+01
211	  0.062084168	-5.933000E+00	  0.062084168	-1.296230E+02	  0.062084168	1.961000E+01	  0.062084168	-2.048200E+01
212	  0.062284570	-5.931000E+00	  0.062284570	-1.307910E+02	  0.062284570	1.944300E+01	  0.062284570	-1.996900E+01
213	  0.062484972	-5.923000E+00	  0.062484972	-1.318800E+02	  0.062484972	1.927400E+01	  0.062484972	-1.949800E+01
214	  0.062685370	-5.923000E+00	  0.062685370	-1.330210E+02	  0.062685370	1.912800E+01	  0.062685370	-1.900000E+01
215	  0.062885776	-5.929000E+00	  0.062885776	-1.341430E+02	  0.062885776	1.900500E+01	  0.062885776	-1.850700E+01
216	  0.063086174	-5.925000E+00	  0.063086174	-1.353040E+02	  0.063086174	1.885500E+01	  0.063086174	-1.800800E+01
217	  0.063286573	-5.930000E+00	  0.063286573	-1.364770E+02	  0.063286573	1.873300E+01	  0.063286573	-1.750000E+01
218	  0.063486971	-5.930000E+00	  0.063486971	-1.375980E+02	  0.063486971	1.860600E+01	  0.063486971	-1.702200E+01
219	  0.063687377	-5.930000E+00	  0.063687377	-1.387680E+02	  0.063687377	1.848000E+01	  0.063687377	-1.652300E+01
220	  0.063887775	-5.925000E+00	  0.063887775	-1.398950E+02	  0.063887775	1.834700E+01	  0.063887775	-1.605000E+01
221	  0.064088173	-5.923000E+00	  0.064088173	-1.410220E+02	  0.064088173	1.822800E+01	  0.064088173	-1.557600E+01
222	  0.064288579	-5.924000E+00	  0.064288579	-1.421470E+02	  0.064288579	1.812000E+01	  0.064288579	-1.510300E+01
223	  0.064488977	-5.922000E+00	  0.064488977	-1.432430E+02	  0.064488977	1.801200E+01	  0.064488977	-1.464700E+01
224	  0.064689375	-5.926000E+00	  0.064689375	-1.443390E+02	  0.064689375	1.792300E+01	  0.064689375	-1.418800E+01
225	  0.064889781	-5.923000E+00	  0.064889781	-1.454430E+02	  0.064889781	1.782000E+01	  0.064889781	-1.373200E+01
226	  0.065090179	-5.920000E+00	  0.065090179	-1.464730E+02	  0.065090179	1.772600E+01	  0.065090179	-1.330800E+01
227	  0.065290578	-5.921000E+00	  0.065290578	-1.475710E+02	  0.065290578	1.764000E+01	  0.065290578	-1.285600E+01
228	  0.065490983	-5.925000E+00	  0.065490983	-1.486160E+02	  0.065490983	1.756900E+01	  0.065490983	-1.242500E+01
229	  0.065691382	-5.924000E+00	  0.065691382	-1.496950E+02	  0.065691382	1.748600E+01	  0.065691382	-1.198400E+01
230	  0.065891780	-5.927000E+00	  0.065891780	-1.507360E+02	  0.065891780	1.741800E+01	  0.065891780	-1.155900E+01
231	  0.066092186	-5.932000E+00	  0.066092186	-1.517730E+02	  0.066092186	1.736000E+01	  0.066092186	-1.113600E+01
232	  0.066292584	-5.933000E+00	  0.066292584	-1.528440E+02	  0.066292584	1.729400E+01	  0.066292584	-1.070200E+01
233	  0.066492982	-5.936000E+00	  0.066492982	-1.538610E+02	  0.066492982	1.723800E+01	  0.066492982	-1.029000E+01
234	  0.066693388	-5.939000E+00	  0.066693388	-1.548910E+02	  0.066693388	1.718100E+01	  0.066693388	-9.874000E+00
235	  0.066893786	-5.940000E+00	  0.066893786	-1.559130E+02	  0.066893786	1.712600E+01	  0.066893786	-9.464000E+00
236	  0.067094192	-5.946000E+00	  0.067094192	-1.569120E+02	  0.067094192	1.708600E+01	  0.067094192	-9.062000E+00
237	  0.067294590	-5.950000E+00	  0.067294590	-1.579180E+02	  0.067294590	1.704300E+01	  0.067294590	-8.659000E+00
238	  0.067494988	-5.956000E+00	  0.067494988	-1.589430E+02	  0.067494988	1.700700E+01	  0.067494988	-8.249000E+00
239	  0.067695394	-5.960000E+00	  0.067695394	-1.599370E+02	  0.067695394	1.697100E+01	  0.067695394	-7.852000E+00
240	  0.067895792	-5.962000E+00	  0.067895792	-1.609100E+02	  0.067895792	1.693100E+01	  0.067895792	-7.466000E+00
241	  0.068096191	-5.971000E+00	  0.068096191	-1.619060E+02	  0.068096191	1.691300E+01	  0.068096191	-7.070000E+00
242	  0.068296596	-5.974000E+00	  0.068296596	-1.628720E+02	  0.068296596	1.688200E+01	  0.068296596	-6.688000E+00
243	  0.068496995	-5.975000E+00	  0.068496995	-1.638420E+02	  0.068496995	1.684800E+01	  0.068496995	-6.305000E+00
244	  0.068697393	-5.983000E+00	  0.068697393	-1.648030E+02	  0.068697393	1.683300E+01	  0.068697393	-5.925000E+00
245	  0.068897791	-5.986000E+00	  0.068897791	-1.657680E+02	  0.068897791	1.680800E+01	  0.068897791	-5.545000E+00
246	  0.069098189	-5.989000E+00	  0.069098189	-1.667230E+02	  0.069098189	1.678600E+01	  0.069098189	-5.170000E+00
247	  0.069298595	-5.991000E+00	  0.069298595	-1.676500E+02	  0.069298595	1.676500E+01	  0.069298595	-4.807000E+00
248	  0.069498993	-5.996000E+00	  0.069498993	-1.685950E+02	  0.069498993	1.675000E+01	  0.069498993	-4.437000E+00
249	  0.069699399	-6.003000E+00	  0.069699399	-1.695400E+02	  0.069699399	1.674600E+01	  0.069699399	-4.066000E+00
250	  0.069899797	-6.004000E+00	  0.069899797	-1.704630E+02	  0.069899797	1.672800E+01	  0.069899797	-3.706000E+00
251	  0.070100196	-6.011000E+00	  0.070100196	-1.713760E+02	  0.070100196	1.672700E+01	  0.070100196	-3.350000E+00
252	  0.070300601	-6.011000E+00	  0.070300601	-1.723200E+02	  0.070300601	1.670900E+01	  0.070300601	-2.982000E+00
253	  0.070501000	-6.011000E+00	  0.070501000	-1.732590E+02	  0.070501000	1.669400E+01	  0.070501000	-2.617000E+00
254	  0.070701398	-6.013000E+00	  0.070701398	-1.741560E+02	  0.070701398	1.668600E+01	  0.070701398	-2.268000E+00
255	  0.070901804	-6.012000E+00	  0.070901804	-1.750850E+02	  0.070901804	1.667200E+01	  0.070901804	-1.907000E+00
256	  0.071102202	-6.012000E+00	  0.071102202	-1.759990E+02	  0.071102202	1.666500E+01	  0.071102202	-1.552000E+00
257	  0.071302600	-6.013000E+00	  0.071302600	-1.769130E+02	  0.071302600	1.665800E+01	  0.071302600	-1.197000E+00
258	  0.071503006	-6.018000E+00	  0.071503006	-1.778160E+02	  0.071503006	1.666500E+01	  0.071503006	-8.460000E-01
259	  0.071703404	-6.019000E+00	  0.071703404	-1.787130E+02	  0.071703404	1.666600E+01	  0.071703404	-4.980000E-01
260	  0.071903802	-6.018000E+00	  0.071903802	-1.796160E+02	  0.071903802	1.666200E+01	  0.071903802	-1.480000E-01
261	  0.072104208	-6.018000E+00	  0.072104208	1.794950E+02	  0.072104208	1.666200E+01	  0.072104208	1.950000E-01
262	  0.072304606	-6.021000E+00	  0.072304606	1.786170E+02	  0.072304606	1.666900E+01	  0.072304606	5.360000E-01
263	  0.072505005	-6.021000E+00	  0.072505005	1.777030E+02	  0.072505005	1.667600E+01	  0.072505005	8.900000E-01
264	  0.072705410	-6.026000E+00	  0.072705410	1.768190E+02	  0.072705410	1.669100E+01	  0.072705410	1.233000E+00
265	  0.072905809	-6.026000E+00	  0.072905809	1.759280E+02	  0.072905809	1.670000E+01	  0.072905809	1.579000E+00
266	  0.073106214	-6.028000E+00	  0.073106214	1.750560E+02	  0.073106214	1.671400E+01	  0.073106214	1.917000E+00
267	  0.073306613	-6.032000E+00	  0.073306613	1.741740E+02	  0.073306613	1.673400E+01	  0.073306613	2.259000E+00
268	  0.073507011	-6.035000E+00	  0.073507011	1.733080E+02	  0.073507011	1.675400E+01	  0.073507011	2.595000E+00
269	  0.073707417	-6.041000E+00	  0.073707417	1.724060E+02	  0.073707417	1.678400E+01	  0.073707417	2.945000E+00
270	  0.073907815	-6.040000E+00	  0.073907815	1.715310E+02	  0.073907815	1.679900E+01	  0.073907815	3.286000E+00
271	  0.074108213	-6.046000E+00	  0.074108213	1.706400E+02	  0.074108213	1.683200E+01	  0.074108213	3.631000E+00
272	  0.074308619	-6.050000E+00	  0.074308619	1.697650E+02	  0.074308619	1.686100E+01	  0.074308619	3.972000E+00
273	  0.074509017	-6.056000E+00	  0.074509017	1.688620E+02	  0.074509017	1.689900E+01	  0.074509017	4.322000E+00
274	  0.074709415	-6.060000E+00	  0.074709415	1.680030E+02	  0.074709415	1.693200E+01	  0.074709415	4.656000E+00
275	  0.074909821	-6.065000E+00	  0.074909821	1.671180E+02	  0.074909821	1.696900E+01	  0.074909821	5.001000E+00
276	  0.075110219	-6.071000E+00	  0.075110219	1.662700E+02	  0.075110219	1.701200E+01	  0.075110219	5.331000E+00
277	  0.075310618	-6.080000E+00	  0.075310618	1.654070E+02	  0.075310618	1.706400E+01	  0.075310618	5.666000E+00
278	  0.075511023	-6.088000E+00	  0.075511023	1.645610E+02	  0.075511023	1.711400E+01	  0.075511023	5.996000E+00
279	  0.075711422	-6.096000E+00	  0.075711422	1.637140E+02	  0.075711422	1.716500E+01	  0.075711422	6.325000E+00
280	  0.075911827	-6.101000E+00	  0.075911827	1.628430E+02	  0.075911827	1.721300E+01	  0.075911827	6.666000E+00
281	  0.076112226	-6.112000E+00	  0.076112226	1.619630E+02	  0.076112226	1.727700E+01	  0.076112226	7.008000E+00
282	  0.076312624	-6.117000E+00	  0.076312624	1.611140E+02	  0.076312624	1.732700E+01	  0.076312624	7.340000E+00
283	  0.076513030	-6.127000E+00	  0.076513030	1.602280E+02	  0.076513030	1.739200E+01	  0.076513030	7.686000E+00
284	  0.076713428	-6.137000E+00	  0.076713428	1.593850E+02	  0.076713428	1.745800E+01	  0.076713428	8.015000E+00
285	  0.076913826	-6.143000E+00	  0.076913826	1.585050E+02	  0.076913826	1.751800E+01	  0.076913826	8.361000E+00
286	  0.077114232	-6.149000E+00	  0.077114232	1.576720E+02	  0.077114232	1.757900E+01	  0.077114232	8.688000E+00
287	  0.077314630	-6.157000E+00	  0.077314630	1.568400E+02	  0.077314630	1.764400E+01	  0.077314630	9.014000E+00
288	  0.077515028	-6.167000E+00	  0.077515028	1.560000E+02	  0.077515028	1.771800E+01	  0.077515028	9.343000E+00
289	  0.077715434	-6.174000E+00	  0.077715434	1.551740E+02	  0.077715434	1.778400E+01	  0.077715434	9.669000E+00
290	  0.077915832	-6.181000E+00	  0.077915832	1.543410E+02	  0.077915832	1.785400E+01	  0.077915832	9.997000E+00
291	  0.078116231	-6.195000E+00	  0.078116231	1.535280E+02	  0.078116231	1.794100E+01	  0.078116231	1.031500E+01
292	  0.078316636	-6.203000E+00	  0.078316636	1.526960E+02	  0.078316636	1.801900E+01	  0.078316636	1.064400E+01
293	  0.078517035	-6.216000E+00	  0.078517035	1.518600E+02	  0.078517035	1.810900E+01	  0.078517035	1.097200E+01
294	  0.078717433	-6.228000E+00	  0.078717433	1.510330E+02	  0.078717433	1.819900E+01	  0.078717433	1.129800E+01
295	  0.078917839	-6.243000E+00	  0.078917839	1.502140E+02	  0.078917839	1.830000E+01	  0.078917839	1.161900E+01
296	  0.079118237	-6.255000E+00	  0.079118237	1.494600E+02	  0.079118237	1.838800E+01	  0.079118237	1.191600E+01
297	  0.079318643	-6.265000E+00	  0.079318643	1.486610E+02	  0.079318643	1.847700E+01	  0.079318643	1.223300E+01
298	  0.079519041	-6.278000E+00	  0.079519041	1.478230E+02	  0.079519041	1.857900E+01	  0.079519041	1.256300E+01
299	  0.079719439	-6.296000E+00	  0.079719439	1.470180E+02	  0.079719439	1.869300E+01	  0.079719439	1.287900E+01
300	  0.079919845	-6.309000E+00	  0.079919845	1.462500E+02	  0.079919845	1.879300E+01	  0.079919845	1.318200E+01
301	  0.080120243	-6.320000E+00	  0.080120243	1.454170E+02	  0.080120243	1.889600E+01	  0.080120243	1.351400E+01
302	  0.080320641	-6.335000E+00	  0.080320641	1.446330E+02	  0.080320641	1.900600E+01	  0.080320641	1.382400E+01
303	  0.080521047	-6.347000E+00	  0.080521047	1.438360E+02	  0.080521047	1.911200E+01	  0.080521047	1.414100E+01
304	  0.080721445	-6.363000E+00	  0.080721445	1.430730E+02	  0.080721445	1.922900E+01	  0.080721445	1.444200E+01
305	  0.080921844	-6.375000E+00	  0.080921844	1.422780E+02	  0.080921844	1.933900E+01	  0.080921844	1.475900E+01
306	  0.081122249	-6.393000E+00	  0.081122249	1.414870E+02	  0.081122249	1.946800E+01	  0.081122249	1.507100E+01
307	  0.081322648	-6.405000E+00	  0.081322648	1.407240E+02	  0.081322648	1.958100E+01	  0.081322648	1.537500E+01
308	  0.081523046	-6.422000E+00	  0.081523046	1.399550E+02	  0.081523046	1.970800E+01	  0.081523046	1.568000E+01
309	  0.081723452	-6.439000E+00	  0.081723452	1.391800E+02	  0.081723452	1.983800E+01	  0.081723452	1.598700E+01
310	  0.081923850	-6.453000E+00	  0.081923850	1.384100E+02	  0.081923850	1.996300E+01	  0.081923850	1.629400E+01
311	  0.082124248	-6.466000E+00	  0.082124248	1.376840E+02	  0.082124248	2.008300E+01	  0.082124248	1.658400E+01
312	  0.082324654	-6.484000E+00	  0.082324654	1.369130E+02	  0.082324654	2.022100E+01	  0.082324654	1.689000E+01
313	  0.082525052	-6.505000E+00	  0.082525052	1.361880E+02	  0.082525052	2.036800E+01	  0.082525052	1.717300E+01
314	  0.082725458	-6.523000E+00	  0.082725458	1.354570E+02	  0.082725458	2.050700E+01	  0.082725458	1.746300E+01
315	  0.082925856	-6.544000E+00	  0.082925856	1.347210E+02	  0.082925856	2.065800E+01	  0.082925856	1.775200E+01
316	  0.083126254	-6.563000E+00	  0.083126254	1.339650E+02	  0.083126254	2.080800E+01	  0.083126254	1.805200E+01
317	  0.083326660	-6.581000E+00	  0.083326660	1.332030E+02	  0.083326660	2.095800E+01	  0.083326660	1.835400E+01
318	  0.083527058	-6.600000E+00	  0.083527058	1.324470E+02	  0.083527058	2.111400E+01	  0.083527058	1.865400E+01
319	  0.083727457	-6.618000E+00	  0.083727457	1.317010E+02	  0.083727457	2.126600E+01	  0.083727457	1.895100E+01
320	  0.083927862	-6.635000E+00	  0.083927862	1.309720E+02	  0.083927862	2.141700E+01	  0.083927862	1.924100E+01
321	  0.084128261	-6.652000E+00	  0.084128261	1.302400E+02	  0.084128261	2.157000E+01	  0.084128261	1.953400E+01
322	  0.084328659	-6.670000E+00	  0.084328659	1.295230E+02	  0.084328659	2.172900E+01	  0.084328659	1.981800E+01
323	  0.084529065	-6.686000E+00	  0.084529065	1.288450E+02	  0.084529065	2.187700E+01	  0.084529065	2.008900E+01
324	  0.084729463	-6.708000E+00	  0.084729463	1.281180E+02	  0.084729463	2.205100E+01	  0.084729463	2.037400E+01
325	  0.084929861	-6.728000E+00	  0.084929861	1.274090E+02	  0.084929861	2.222000E+01	  0.084929861	2.065400E+01
326	  0.085130267	-6.749000E+00	  0.085130267	1.267060E+02	  0.085130267	2.239200E+01	  0.085130267	2.093000E+01
327	  0.085330658	-6.772000E+00	  0.085330658	1.259980E+02	  0.085330658	2.257100E+01	  0.085330658	2.120700E+01
328	  0.085531056	-6.795000E+00	  0.085531056	1.253400E+02	  0.085531056	2.275000E+01	  0.085531056	2.146100E+01
329	  0.085731462	-6.816000E+00	  0.085731462	1.246340E+02	  0.085731462	2.292900E+01	  0.085731462	2.173900E+01
330	  0.085931860	-6.842000E+00	  0.085931860	1.239600E+02	  0.085931860	2.312200E+01	  0.085931860	2.199700E+01
331	  0.086132258	-6.864000E+00	  0.086132258	1.233130E+02	  0.086132258	2.329800E+01	  0.086132258	2.224800E+01
332	  0.086332664	-6.887000E+00	  0.086332664	1.226280E+02	  0.086332664	2.348900E+01	  0.086332664	2.251300E+01
333	  0.086533062	-6.913000E+00	  0.086533062	1.219380E+02	  0.086533062	2.369200E+01	  0.086533062	2.277700E+01
334	  0.086733460	-6.940000E+00	  0.086733460	1.212300E+02	  0.086733460	2.390200E+01	  0.086733460	2.304700E+01
335	  0.086933866	-6.965000E+00	  0.086933866	1.205480E+02	  0.086933866	2.410500E+01	  0.086933866	2.330800E+01
336	  0.087134264	-6.989000E+00	  0.087134264	1.198250E+02	  0.087134264	2.431800E+01	  0.087134264	2.358700E+01
337	  0.087334670	-7.009000E+00	  0.087334670	1.191480E+02	  0.087334670	2.451100E+01	  0.087334670	2.385200E+01
338	  0.087535068	-7.038000E+00	  0.087535068	1.184600E+02	  0.087535068	2.473600E+01	  0.087535068	2.410900E+01
339	  0.087735467	-7.061000E+00	  0.087735467	1.177850E+02	  0.087735467	2.494200E+01	  0.087735467	2.436800E+01
340	  0.087935872	-7.087000E+00	  0.087935872	1.171230E+02	  0.087935872	2.515800E+01	  0.087935872	2.461700E+01
341	  0.088136271	-7.113000E+00	  0.088136271	1.164450E+02	  0.088136271	2.538000E+01	  0.088136271	2.487300E+01
342	  0.088336669	-7.135000E+00	  0.088336669	1.157960E+02	  0.088336669	2.558600E+01	  0.088336669	2.512100E+01
343	  0.088537075	-7.156000E+00	  0.088537075	1.151150E+02	  0.088537075	2.580100E+01	  0.088537075	2.538400E+01
344	  0.088737473	-7.179000E+00	  0.088737473	1.144680E+02	  0.088737473	2.601700E+01	  0.088737473	2.562800E+01
345	  0.088937871	-7.201000E+00	  0.088937871	1.137870E+02	  0.088937871	2.623800E+01	  0.088937871	2.589000E+01
346	  0.089138277	-7.227000E+00	  0.089138277	1.131570E+02	  0.089138277	2.646500E+01	  0.089138277	2.612100E+01
347	  0.089338675	-7.252000E+00	  0.089338675	1.125420E+02	  0.089338675	2.668500E+01	  0.089338675	2.634700E+01
348	  0.089539073	-7.277000E+00	  0.089539073	1.118930E+02	  0.089539073	2.691600E+01	  0.089539073	2.658900E+01
349	  0.089739479	-7.304000E+00	  0.089739479	1.112420E+02	  0.089739479	2.715700E+01	  0.089739479	2.682600E+01
350	  0.089939877	-7.330000E+00	  0.089939877	1.106060E+02	  0.089939877	2.739600E+01	  0.089939877	2.705600E+01
351	  0.090140276	-7.350000E+00	  0.090140276	1.099590E+02	  0.090140276	2.762100E+01	  0.090140276	2.730300E+01
352	  0.090340681	-7.376000E+00	  0.090340681	1.093320E+02	  0.090340681	2.786300E+01	  0.090340681	2.752800E+01
353	  0.090541080	-7.402000E+00	  0.090541080	1.086850E+02	  0.090541080	2.811200E+01	  0.090541080	2.776200E+01
354	  0.090741485	-7.424000E+00	  0.090741485	1.080580E+02	  0.090741485	2.834700E+01	  0.090741485	2.799400E+01
355	  0.090941884	-7.445000E+00	  0.090941884	1.074110E+02	  0.090941884	2.858600E+01	  0.090941884	2.823600E+01
356	  0.091142282	-7.471000E+00	  0.091142282	1.068360E+02	  0.091142282	2.882500E+01	  0.091142282	2.843500E+01
357	  0.091342688	-7.494000E+00	  0.091342688	1.062230E+02	  0.091342688	2.906700E+01	  0.091342688	2.865700E+01
358	  0.091543086	-7.520000E+00	  0.091543086	1.056200E+02	  0.091543086	2.931900E+01	  0.091543086	2.886600E+01
359	  0.091743484	-7.543000E+00	  0.091743484	1.050220E+02	  0.091743484	2.956100E+01	  0.091743484	2.908000E+01
360	  0.091943890	-7.565000E+00	  0.091943890	1.044660E+02	  0.091943890	2.979100E+01	  0.091943890	2.927600E+01
361	  0.092144288	-7.587000E+00	  0.092144288	1.038940E+02	  0.092144288	3.003000E+01	  0.092144288	2.947800E+01
362	  0.092344686	-7.610000E+00	  0.092344686	1.033360E+02	  0.092344686	3.027000E+01	  0.092344686	2.967000E+01
363	  0.092545092	-7.633000E+00	  0.092545092	1.027680E+02	  0.092545092	3.051400E+01	  0.092545092	2.986600E+01
364	  0.092745490	-7.662000E+00	  0.092745490	1.022530E+02	  0.092745490	3.076000E+01	  0.092745490	3.002700E+01
365	  0.092945889	-7.696000E+00	  0.092945889	1.017090E+02	  0.092945889	3.103500E+01	  0.092945889	3.018500E+01
366	  0.093146294	-7.729000E+00	  0.093146294	1.011740E+02	  0.093146294	3.130300E+01	  0.093146294	3.034300E+01
367	  0.093346693	-7.756000E+00	  0.093346693	1.006440E+02	  0.093346693	3.155500E+01	  0.093346693	3.050900E+01
368	  0.093547091	-7.785000E+00	  0.093547091	1.001010E+02	  0.093547091	3.182000E+01	  0.093547091	3.067400E+01
369	  0.093747497	-7.820000E+00	  0.093747497	9.957500E+01	  0.093747497	3.210000E+01	  0.093747497	3.081700E+01
370	  0.093947895	-7.849000E+00	  0.093947895	9.904000E+01	  0.093947895	3.236500E+01	  0.093947895	3.097700E+01
371	  0.094148301	-7.879000E+00	  0.094148301	9.852700E+01	  0.094148301	3.262900E+01	  0.094148301	3.112300E+01
372	  0.094348699	-7.912000E+00	  0.094348699	9.802500E+01	  0.094348699	3.290000E+01	  0.094348699	3.125400E+01
373	  0.094549097	-7.948000E+00	  0.094549097	9.752100E+01	  0.094549097	3.317900E+01	  0.094549097	3.138000E+01
374	  0.094749503	-7.980000E+00	  0.094749503	9.703000E+01	  0.094749503	3.344800E+01	  0.094749503	3.150600E+01
375	  0.094949901	-8.007000E+00	  0.094949901	9.651600E+01	  0.094949901	3.371100E+01	  0.094949901	3.165400E+01
376	  0.095150299	-8.034000E+00	  0.095150299	9.605000E+01	  0.095150299	3.396000E+01	  0.095150299	3.177800E+01
377	  0.095350705	-8.067000E+00	  0.095350705	9.553800E+01	  0.095350705	3.424300E+01	  0.095350705	3.190600E+01
378	  0.095551103	-8.094000E+00	  0.095551103	9.504400E+01	  0.095551103	3.450600E+01	  0.095551103	3.203900E+01
379	  0.095751502	-8.124000E+00	  0.095751502	9.458100E+01	  0.095751502	3.476400E+01	  0.095751502	3.215200E+01
380	  0.095951907	-8.153000E+00	  0.095951907	9.411900E+01	  0.095951907	3.502300E+01	  0.095951907	3.226400E+01
381	  0.096152306	-8.182000E+00	  0.096152306	9.363800E+01	  0.096152306	3.529100E+01	  0.096152306	3.238200E+01
382	  0.096352704	-8.210000E+00	  0.096352704	9.319200E+01	  0.096352704	3.554500E+01	  0.096352704	3.248400E+01
383	  0.096553110	-8.237000E+00	  0.096553110	9.269900E+01	  0.096553110	3.581500E+01	  0.096553110	3.261100E+01
384	  0.096753508	-8.261000E+00	  0.096753508	9.227200E+01	  0.096753508	3.605300E+01	  0.096753508	3.271500E+01
385	  0.096953906	-8.289000E+00	  0.096953906	9.180900E+01	  0.096953906	3.631700E+01	  0.096953906	3.282300E+01
386	  0.097154312	-8.309000E+00	  0.097154312	9.134800E+01	  0.097154312	3.656300E+01	  0.097154312	3.294700E+01
387	  0.097354710	-8.337000E+00	  0.097354710	9.086700E+01	  0.097354710	3.683900E+01	  0.097354710	3.305700E+01
388	  0.097555116	-8.360000E+00	  0.097555116	9.044500E+01	  0.097555116	3.707900E+01	  0.097555116	3.315600E+01
389	  0.097755514	-8.383000E+00	  0.097755514	8.998700E+01	  0.097755514	3.733400E+01	  0.097755514	3.327000E+01
390	  0.097955912	-8.409000E+00	  0.097955912	8.958400E+01	  0.097955912	3.757600E+01	  0.097955912	3.334900E+01
391	  0.098156318	-8.422000E+00	  0.098156318	8.914900E+01	  0.098156318	3.780000E+01	  0.098156318	3.347800E+01
392	  0.098356716	-8.443000E+00	  0.098356716	8.869700E+01	  0.098356716	3.805400E+01	  0.098356716	3.358800E+01
393	  0.098557115	-8.455000E+00	  0.098557115	8.830100E+01	  0.098557115	3.826200E+01	  0.098557115	3.370300E+01
394	  0.098757520	-8.469000E+00	  0.098757520	8.786600E+01	  0.098757520	3.849200E+01	  0.098757520	3.382800E+01
395	  0.098957919	-8.484000E+00	  0.098957919	8.745400E+01	  0.098957919	3.871800E+01	  0.098957919	3.393700E+01
396	  0.099158317	-8.497000E+00	  0.099158317	8.704900E+01	  0.099158317	3.893800E+01	  0.099158317	3.404800E+01
397	  0.099358723	-8.513000E+00	  0.099358723	8.664700E+01	  0.099358723	3.916200E+01	  0.099358723	3.415200E+01
398	  0.099559121	-8.526000E+00	  0.099559121	8.627200E+01	  0.099559121	3.937100E+01	  0.099559121	3.424900E+01
399	  0.099759519	-8.539000E+00	  0.099759519	8.589100E+01	  0.099759519	3.958200E+01	  0.099759519	3.435000E+01
400	  0.099959925	-8.547000E+00	  0.099959925	8.553200E+01	  0.099959925	3.977400E+01	  0.099959925	3.445600E+01
401	  0.100160323	-8.564000E+00	  0.100160323	8.507300E+01	  0.100160323	4.003500E+01	  0.100160323	3.457100E+01
402	  0.100360721	-8.568000E+00	  0.100360721	8.475000E+01	  0.100360721	4.020000E+01	  0.100360721	3.467700E+01
403	  0.100561127	-8.576000E+00	  0.100561127	8.431300E+01	  0.100561127	4.043300E+01	  0.100561127	3.481000E+01
404	  0.100761525	-8.595000E+00	  0.100761525	8.389900E+01	  0.100761525	4.068300E+01	  0.100761525	3.489700E+01
405	  0.100961931	-8.600000E+00	  0.100961931	8.351700E+01	  0.100961931	4.088500E+01	  0.100961931	3.501800E+01
406	  0.101162329	-8.607000E+00	  0.101162329	8.315500E+01	  0.101162329	4.108300E+01	  0.101162329	3.512400E+01
407	  0.101362728	-8.611000E+00	  0.101362728	8.274200E+01	  0.101362728	4.130100E+01	  0.101362728	3.525800E+01
408	  0.101563133	-8.625000E+00	  0.101563133	8.236400E+01	  0.101563133	4.152600E+01	  0.101563133	3.534600E+01
409	  0.101763532	-8.636000E+00	  0.101763532	8.195100E+01	  0.101763532	4.176400E+01	  0.101763532	3.545400E+01
410	  0.101963930	-8.635000E+00	  0.101963930	8.156100E+01	  0.101963930	4.196500E+01	  0.101963930	3.559400E+01
411	  0.102164336	-8.652000E+00	  0.102164336	8.114000E+01	  0.102164336	4.222400E+01	  0.102164336	3.568300E+01
412	  0.102364734	-8.644000E+00	  0.102364734	8.069900E+01	  0.102364734	4.243900E+01	  0.102364734	3.586300E+01
413	  0.102565132	-8.650000E+00	  0.102565132	8.028100E+01	  0.102565132	4.267600E+01	  0.102565132	3.598700E+01
414	  0.102765530	-8.662000E+00	  0.102765530	7.988600E+01	  0.102765530	4.291700E+01	  0.102765530	3.607800E+01
415	  0.102965929	-8.656000E+00	  0.102965929	7.947300E+01	  0.102965929	4.312800E+01	  0.102965929	3.624000E+01
416	  0.103166327	-8.664000E+00	  0.103166327	7.904100E+01	  0.103166327	4.338200E+01	  0.103166327	3.635900E+01
417	  0.103366733	-8.663000E+00	  0.103366733	7.861300E+01	  0.103366733	4.361600E+01	  0.103366733	3.650800E+01
418	  0.103567131	-8.666000E+00	  0.103567131	7.822000E+01	  0.103567131	4.384300E+01	  0.103567131	3.662600E+01
419	  0.103767529	-8.673000E+00	  0.103767529	7.772600E+01	  0.103767529	4.413600E+01	  0.103767529	3.676800E+01
420	  0.103967935	-8.673000E+00	  0.103967935	7.731200E+01	  0.103967935	4.437200E+01	  0.103967935	3.690300E+01
421	  0.104168333	-8.677000E+00	  0.104168333	7.688400E+01	  0.104168333	4.462600E+01	  0.104168333	3.703000E+01
422	  0.104368731	-8.679000E+00	  0.104368731	7.640900E+01	  0.104368731	4.490600E+01	  0.104368731	3.717800E+01
423	  0.104569137	-8.684000E+00	  0.104569137	7.597400E+01	  0.104569137	4.517200E+01	  0.104569137	3.729800E+01
424	  0.104769535	-8.682000E+00	  0.104769535	7.555400E+01	  0.104769535	4.541600E+01	  0.104769535	3.744100E+01
425	  0.104969934	-8.685000E+00	  0.104969934	7.510700E+01	  0.104969934	4.568700E+01	  0.104969934	3.757500E+01
426	  0.105170339	-8.684000E+00	  0.105170339	7.463600E+01	  0.105170339	4.597000E+01	  0.105170339	3.772600E+01
427	  0.105370738	-8.687000E+00	  0.105370738	7.416900E+01	  0.105370738	4.626100E+01	  0.105370738	3.786000E+01
428	  0.105571143	-8.686000E+00	  0.105571143	7.367700E+01	  0.105571143	4.656100E+01	  0.105571143	3.801900E+01
429	  0.105771542	-8.690000E+00	  0.105771542	7.320600E+01	  0.105771542	4.686100E+01	  0.105771542	3.814700E+01
430	  0.105971940	-8.689000E+00	  0.105971940	7.275700E+01	  0.105971940	4.714100E+01	  0.105971940	3.828900E+01
431	  0.106172346	-8.690000E+00	  0.106172346	7.230300E+01	  0.106172346	4.743100E+01	  0.106172346	3.842100E+01
432	  0.106372744	-8.692000E+00	  0.106372744	7.183100E+01	  0.106372744	4.773700E+01	  0.106372744	3.855400E+01
433	  0.106573142	-8.700000E+00	  0.106573142	7.133400E+01	  0.106573142	4.807300E+01	  0.106573142	3.866700E+01
434	  0.106773548	-8.700000E+00	  0.106773548	7.089400E+01	  0.106773548	4.835800E+01	  0.106773548	3.879800E+01
435	  0.106973946	-8.697000E+00	  0.106973946	7.040200E+01	  0.106973946	4.867800E+01	  0.106973946	3.895200E+01
436	  0.107174344	-8.695000E+00	  0.107174344	6.992400E+01	  0.107174344	4.899200E+01	  0.107174344	3.909600E+01
437	  0.107374750	-8.704000E+00	  0.107374750	6.936000E+01	  0.107374750	4.938700E+01	  0.107374750	3.921800E+01
438	  0.107575148	-8.704000E+00	  0.107575148	6.892700E+01	  0.107575148	4.968200E+01	  0.107575148	3.933600E+01
439	  0.107775547	-8.703000E+00	  0.107775547	6.841800E+01	  0.107775547	5.002900E+01	  0.107775547	3.948000E+01
440	  0.107975952	-8.702000E+00	  0.107975952	6.793600E+01	  0.107975952	5.036200E+01	  0.107975952	3.961300E+01
441	  0.108176351	-8.712000E+00	  0.108176351	6.738600E+01	  0.108176351	5.076300E+01	  0.108176351	3.971600E+01
442	  0.108376749	-8.704000E+00	  0.108376749	6.686600E+01	  0.108376749	5.111800E+01	  0.108376749	3.988600E+01
443	  0.108577155	-8.700000E+00	  0.108577155	6.633000E+01	  0.108577155	5.149500E+01	  0.108577155	4.004200E+01
444	  0.108777553	-8.696000E+00	  0.108777553	6.578900E+01	  0.108777553	5.187900E+01	  0.108777553	4.019800E+01
445	  0.108977959	-8.691000E+00	  0.108977959	6.523200E+01	  0.108977959	5.228000E+01	  0.108977959	4.035800E+01
446	  0.109178357	-8.692000E+00	  0.109178357	6.472000E+01	  0.109178357	5.266000E+01	  0.109178357	4.047800E+01
447	  0.109378755	-8.687000E+00	  0.109378755	6.412600E+01	  0.109378755	5.309600E+01	  0.109378755	4.064400E+01
448	  0.109579161	-8.680000E+00	  0.109579161	6.356000E+01	  0.109579161	5.351500E+01	  0.109579161	4.080700E+01
449	  0.109779559	-8.673000E+00	  0.109779559	6.298400E+01	  0.109779559	5.394600E+01	  0.109779559	4.097300E+01
450	  0.109979957	-8.669000E+00	  0.109979957	6.241800E+01	  0.109979957	5.438100E+01	  0.109979957	4.111500E+01
451	  0.110180363	-8.668000E+00	  0.110180363	6.180200E+01	  0.110180363	5.486300E+01	  0.110180363	4.125200E+01
452	  0.110380761	-8.656000E+00	  0.110380761	6.121600E+01	  0.110380761	5.531100E+01	  0.110380761	4.143600E+01
453	  0.110581160	-8.647000E+00	  0.110581160	6.062600E+01	  0.110581160	5.577500E+01	  0.110581160	4.160100E+01
454	  0.110781565	-8.639000E+00	  0.110781565	6.000200E+01	  0.110781565	5.627400E+01	  0.110781565	4.176200E+01
455	  0.110981964	-8.638000E+00	  0.110981964	5.937800E+01	  0.110981964	5.678800E+01	  0.110981964	4.188300E+01
456	  0.111182362	-8.624000E+00	  0.111182362	5.877600E+01	  0.111182362	5.727400E+01	  0.111182362	4.206800E+01
457	  0.111382768	-8.619000E+00	  0.111382768	5.812700E+01	  0.111382768	5.781900E+01	  0.111382768	4.220200E+01
458	  0.111583166	-8.624000E+00	  0.111583166	5.756200E+01	  0.111583166	5.830700E+01	  0.111583166	4.226600E+01
459	  0.111783572	-8.616000E+00	  0.111783572	5.690500E+01	  0.111783572	5.886800E+01	  0.111783572	4.241100E+01
460	  0.111983970	-8.608000E+00	  0.111983970	5.625800E+01	  0.111983970	5.942800E+01	  0.111983970	4.254600E+01
461	  0.112184368	-8.603000E+00	  0.112184368	5.562900E+01	  0.112184368	5.998200E+01	  0.112184368	4.265900E+01
462	  0.112384774	-8.599000E+00	  0.112384774	5.495600E+01	  0.112384774	6.058400E+01	  0.112384774	4.276200E+01
463	  0.112585172	-8.595000E+00	  0.112585172	5.427200E+01	  0.112585172	6.120300E+01	  0.112585172	4.286400E+01
464	  0.112785570	-8.593000E+00	  0.112785570	5.367600E+01	  0.112785570	6.175100E+01	  0.112785570	4.293100E+01
465	  0.112985976	-8.591000E+00	  0.112985976	5.295200E+01	  0.112985976	6.242500E+01	  0.112985976	4.300400E+01
466	  0.113186374	-8.592000E+00	  0.113186374	5.230200E+01	  0.113186374	6.303700E+01	  0.113186374	4.304900E+01
467	  0.113386773	-8.604000E+00	  0.113386773	5.161900E+01	  0.113386773	6.369200E+01	  0.113386773	4.301100E+01
468	  0.113587178	-8.604000E+00	  0.113587178	5.089500E+01	  0.113587178	6.438800E+01	  0.113587178	4.304300E+01
469	  0.113787577	-8.612000E+00	  0.113787577	5.021200E+01	  0.113787577	6.505300E+01	  0.113787577	4.301000E+01
470	  0.113987975	-8.618000E+00	  0.113987975	4.942000E+01	  0.113987975	6.583200E+01	  0.113987975	4.298200E+01
471	  0.114188381	-8.623000E+00	  0.114188381	4.873400E+01	  0.114188381	6.651200E+01	  0.114188381	4.294300E+01
472	  0.114388779	-8.630000E+00	  0.114388779	4.799200E+01	  0.114388779	6.725500E+01	  0.114388779	4.288300E+01
473	  0.114589177	-8.644000E+00	  0.114589177	4.727300E+01	  0.114589177	6.797800E+01	  0.114589177	4.276000E+01
474	  0.114789583	-8.654000E+00	  0.114789583	4.648100E+01	  0.114789583	6.878100E+01	  0.114789583	4.264400E+01
475	  0.114989981	-8.671000E+00	  0.114989981	4.572800E+01	  0.114989981	6.954500E+01	  0.114989981	4.246900E+01
476	  0.115190387	-8.692000E+00	  0.115190387	4.491500E+01	  0.115190387	7.037200E+01	  0.115190387	4.224000E+01
477	  0.115390785	-8.707000E+00	  0.115390785	4.408100E+01	  0.115390785	7.122700E+01	  0.115390785	4.202800E+01
478	  0.115591183	-8.730000E+00	  0.115591183	4.324400E+01	  0.115591183	7.208100E+01	  0.115591183	4.174100E+01
479	  0.115791589	-8.743000E+00	  0.115791589	4.238700E+01	  0.115791589	7.296900E+01	  0.115791589	4.149400E+01
480	  0.115991987	-8.764000E+00	  0.115991987	4.153900E+01	  0.115991987	7.383800E+01	  0.115991987	4.117600E+01
481	  0.116192386	-8.788000E+00	  0.116192386	4.066000E+01	  0.116192386	7.473500E+01	  0.116192386	4.080200E+01
482	  0.116392791	-8.813000E+00	  0.116392791	3.975600E+01	  0.116392791	7.565500E+01	  0.116392791	4.038600E+01
483	  0.116593190	-8.841000E+00	  0.116593190	3.883400E+01	  0.116593190	7.658400E+01	  0.116593190	3.991700E+01
484	  0.116793588	-8.876000E+00	  0.116793588	3.793500E+01	  0.116793588	7.746900E+01	  0.116793588	3.938400E+01
485	  0.116993994	-8.899000E+00	  0.116993994	3.696600E+01	  0.116993994	7.844500E+01	  0.116993994	3.887300E+01
486	  0.117194392	-8.936000E+00	  0.117194392	3.601200E+01	  0.117194392	7.936400E+01	  0.117194392	3.824200E+01
487	  0.117394790	-8.963000E+00	  0.117394790	3.507600E+01	  0.117394790	8.027600E+01	  0.117394790	3.765300E+01
488	  0.117595196	-9.002000E+00	  0.117595196	3.408000E+01	  0.117595196	8.120800E+01	  0.117595196	3.693100E+01
489	  0.117795594	-9.038000E+00	  0.117795594	3.309200E+01	  0.117795594	8.211800E+01	  0.117795594	3.619000E+01
490	  0.117995992	-9.084000E+00	  0.117995992	3.213500E+01	  0.117995992	8.294400E+01	  0.117995992	3.537100E+01
491	  0.118196398	-9.128000E+00	  0.118196398	3.109600E+01	  0.118196398	8.383900E+01	  0.118196398	3.449300E+01
492	  0.118396796	-9.172000E+00	  0.118396796	3.006600E+01	  0.118396796	8.469500E+01	  0.118396796	3.358100E+01
493	  0.118597202	-9.216000E+00	  0.118597202	2.899300E+01	  0.118597202	8.556400E+01	  0.118597202	3.261000E+01
494	  0.118797600	-9.274000E+00	  0.118797600	2.793500E+01	  0.118797600	8.632400E+01	  0.118797600	3.153000E+01
495	  0.118997999	-9.327000E+00	  0.118997999	2.684700E+01	  0.118997999	8.709800E+01	  0.118997999	3.043200E+01
496	  0.119198404	-9.388000E+00	  0.119198404	2.575900E+01	  0.119198404	8.779200E+01	  0.119198404	2.926000E+01
497	  0.119398803	-9.447000E+00	  0.119398803	2.468100E+01	  0.119398803	8.844200E+01	  0.119398803	2.808100E+01
498	  0.119599201	-9.520000E+00	  0.119599201	2.359500E+01	  0.119599201	8.897300E+01	  0.119599201	2.679300E+01
499	  0.119799607	-9.591000E+00	  0.119799607	2.245100E+01	  0.119799607	8.951300E+01	  0.119799607	2.545700E+01
500	  0.120000005	-9.673000E+00	  0.120000005	2.131200E+01	  0.120000005	8.993400E+01	  0.120000005	2.405900E+01
