! Anritsu VNA Master:             	Model: MS2036C/10/77
! SN:             	1601066
! /bd0/18may8/255.ew.m8.txt
! Existing Calibration Information:
! TYPE:             	Current Settings	Active Cal Settings
! TIME:             	05/08/2018 10:29:25 AM	05/08/2018 10:22:10 AM
! INTERNAL TEMP:    	48.0 C	47.5 C
! # POINTS:         	500	500
! START FREQ:       	20.000 MHz	20.000 MHz
! STOP FREQ:        	120.000 MHz	120.000 MHz
! SOURCE POWER:     	High	High
! IFBW:             	50 Hz	50 Hz
! AVG FACTOR:       	  1 	  1 
! REF PLANE 1:      	0 mm	0 mm
! REF PLANE 2:      	0 mm	0 mm
! CAL TYPE:         	Full S11	Full S11
! CAL METHOD:       	SOLT	SOLT
! CAL LINE TYPE:    	Coax	Coax
! DUT PORT 1:       	K-Conn(F)	K-Conn(F)
! DUT PORT 2:       	K-Conn(F)	K-Conn(F)
! CAL STATUS:       	OK: Accuracy High	--
! PROP-V:       	0.700
! CABLE LOSS:       	0.000 dB/m
! REF IMPEDANCE:       	50.0
! Trace Specific Parameters:	TR1	TR2	TR3	TR4
! TRACE.#.Y (GRAPH TYPE)	LOG MAG	PHASE	REAL IMPEDANCE	IMAGINARY IMPEDANCE
! TRACE.#.X 	FREQ.GHZ	FREQ.GHZ	FREQ.GHZ	FREQ.GHZ
! S-PARAMETER	S11	S11	S11	S11
! SMOOTH/APERTURE %	0	0	0	0
! WINDOW	NSL	NSL	NSL	NSL
! GATING	OFF	OFF	OFF	OFF
! FGTD	OFF	OFF	OFF	OFF
Marker Information per Trace:	TR1	TR2	TR3	TR4
!MK1	--	"MK1 TR2:  20.000 MHz,PH:-124.32°"	--	--
!MK2	--	--	"MK2 TR3:  70.100 200 MHz,Z:(16.812 ohm, -3.265 ohm)"	--
!MK3	--	--	--	--
!MK4	--	--	--	--
!MK5	--	--	--	--
!MK6	--	--	--	--
!MK7	--	--	--	--
!MK8	--	--	--	--
PNT	TR1.FREQ.GHZ	TR1.LOG MAG.dB	TR2.FREQ.GHZ	TR2.PHASE.deg	TR3.FREQ.GHZ	TR3.REAL IMPEDANCE.ohm	TR4.FREQ.GHZ	TR4.IMAGINARY IMPEDANCE.ohm
1	  0.020000000	-9.180000E-01	  0.020000000	-1.243240E+02	  0.020000000	3.375000E+00	  0.020000000	-2.631000E+01
2	  0.020200402	-9.250000E-01	  0.020200402	-1.257410E+02	  0.020200402	3.357000E+00	  0.020200402	-2.552600E+01
3	  0.020400802	-9.300000E-01	  0.020400802	-1.271620E+02	  0.020400802	3.333000E+00	  0.020400802	-2.475200E+01
4	  0.020601204	-9.370000E-01	  0.020601204	-1.286020E+02	  0.020601204	3.317000E+00	  0.020601204	-2.397500E+01
5	  0.020801604	-9.500000E-01	  0.020801604	-1.300520E+02	  0.020801604	3.323000E+00	  0.020801604	-2.320200E+01
6	  0.021002004	-9.620000E-01	  0.021002004	-1.315470E+02	  0.021002004	3.324000E+00	  0.021002004	-2.241500E+01
7	  0.021202406	-9.760000E-01	  0.021202406	-1.330270E+02	  0.021202406	3.335000E+00	  0.021202406	-2.164400E+01
8	  0.021402806	-9.860000E-01	  0.021402806	-1.345400E+02	  0.021402806	3.331000E+00	  0.021402806	-2.086600E+01
9	  0.021603208	-9.980000E-01	  0.021603208	-1.360280E+02	  0.021603208	3.336000E+00	  0.021603208	-2.010900E+01
10	  0.021803608	-1.006000E+00	  0.021803608	-1.375230E+02	  0.021803608	3.328000E+00	  0.021803608	-1.935700E+01
11	  0.022004008	-1.018000E+00	  0.022004008	-1.390230E+02	  0.022004008	3.336000E+00	  0.022004008	-1.860900E+01
12	  0.022204408	-1.029000E+00	  0.022204408	-1.405380E+02	  0.022204408	3.340000E+00	  0.022204408	-1.786100E+01
13	  0.022404809	-1.039000E+00	  0.022404809	-1.420760E+02	  0.022404809	3.341000E+00	  0.022404809	-1.711000E+01
14	  0.022605211	-1.051000E+00	  0.022605211	-1.436000E+02	  0.022605211	3.347000E+00	  0.022605211	-1.637200E+01
15	  0.022805611	-1.064000E+00	  0.022805611	-1.451570E+02	  0.022805611	3.359000E+00	  0.022805611	-1.562400E+01
16	  0.023006011	-1.072000E+00	  0.023006011	-1.467010E+02	  0.023006011	3.357000E+00	  0.023006011	-1.489000E+01
17	  0.023206413	-1.080000E+00	  0.023206413	-1.482450E+02	  0.023206413	3.357000E+00	  0.023206413	-1.416100E+01
18	  0.023406813	-1.086000E+00	  0.023406813	-1.497730E+02	  0.023406813	3.349000E+00	  0.023406813	-1.344600E+01
19	  0.023607215	-1.092000E+00	  0.023607215	-1.513160E+02	  0.023607215	3.345000E+00	  0.023607215	-1.272900E+01
20	  0.023807615	-1.105000E+00	  0.023807615	-1.528670E+02	  0.023807615	3.361000E+00	  0.023807615	-1.201300E+01
21	  0.024008015	-1.120000E+00	  0.024008015	-1.544340E+02	  0.024008015	3.384000E+00	  0.024008015	-1.129400E+01
22	  0.024208417	-1.132000E+00	  0.024208417	-1.560250E+02	  0.024208417	3.399000E+00	  0.024208417	-1.056900E+01
23	  0.024408817	-1.143000E+00	  0.024408817	-1.576260E+02	  0.024408817	3.415000E+00	  0.024408817	-9.844000E+00
24	  0.024609219	-1.157000E+00	  0.024609219	-1.592310E+02	  0.024609219	3.438000E+00	  0.024609219	-9.120000E+00
25	  0.024809619	-1.170000E+00	  0.024809619	-1.608260E+02	  0.024809619	3.459000E+00	  0.024809619	-8.405000E+00
26	  0.025010020	-1.185000E+00	  0.025010020	-1.624410E+02	  0.025010020	3.487000E+00	  0.025010020	-7.685000E+00
27	  0.025210422	-1.198000E+00	  0.025210422	-1.640600E+02	  0.025210422	3.512000E+00	  0.025210422	-6.966000E+00
28	  0.025410822	-1.216000E+00	  0.025410822	-1.656940E+02	  0.025410822	3.551000E+00	  0.025410822	-6.243000E+00
29	  0.025611224	-1.234000E+00	  0.025611224	-1.673470E+02	  0.025611224	3.590000E+00	  0.025611224	-5.514000E+00
30	  0.025811624	-1.249000E+00	  0.025811624	-1.690270E+02	  0.025811624	3.623000E+00	  0.025811624	-4.777000E+00
31	  0.026012026	-1.264000E+00	  0.026012026	-1.707150E+02	  0.026012026	3.656000E+00	  0.026012026	-4.038000E+00
32	  0.026212426	-1.279000E+00	  0.026212426	-1.723950E+02	  0.026212426	3.691000E+00	  0.026212426	-3.304000E+00
33	  0.026412826	-1.293000E+00	  0.026412826	-1.740880E+02	  0.026412826	3.726000E+00	  0.026412826	-2.567000E+00
34	  0.026613226	-1.312000E+00	  0.026613226	-1.757870E+02	  0.026613226	3.776000E+00	  0.026613226	-1.828000E+00
35	  0.026813626	-1.332000E+00	  0.026813626	-1.775060E+02	  0.026813626	3.828000E+00	  0.026813626	-1.081000E+00
36	  0.027014028	-1.354000E+00	  0.027014028	-1.792230E+02	  0.027014028	3.889000E+00	  0.027014028	-3.360000E-01
37	  0.027214428	-1.373000E+00	  0.027214428	1.790300E+02	  0.027214428	3.944000E+00	  0.027214428	4.200000E-01
38	  0.027414829	-1.395000E+00	  0.027414829	1.772870E+02	  0.027414829	4.010000E+00	  0.027414829	1.176000E+00
39	  0.027615231	-1.417000E+00	  0.027615231	1.755220E+02	  0.027615231	4.076000E+00	  0.027615231	1.941000E+00
40	  0.027815631	-1.441000E+00	  0.027815631	1.737510E+02	  0.027815631	4.152000E+00	  0.027815631	2.710000E+00
41	  0.028016033	-1.467000E+00	  0.028016033	1.719660E+02	  0.028016033	4.234000E+00	  0.028016033	3.485000E+00
42	  0.028216433	-1.495000E+00	  0.028216433	1.701700E+02	  0.028216433	4.325000E+00	  0.028216433	4.267000E+00
43	  0.028416833	-1.520000E+00	  0.028416833	1.683680E+02	  0.028416833	4.410000E+00	  0.028416833	5.053000E+00
44	  0.028617235	-1.547000E+00	  0.028617235	1.665670E+02	  0.028617235	4.504000E+00	  0.028617235	5.840000E+00
45	  0.028817635	-1.570000E+00	  0.028817635	1.647720E+02	  0.028817635	4.588000E+00	  0.028817635	6.628000E+00
46	  0.029018037	-1.596000E+00	  0.029018037	1.629820E+02	  0.029018037	4.684000E+00	  0.029018037	7.416000E+00
47	  0.029218437	-1.623000E+00	  0.029218437	1.611900E+02	  0.029218437	4.784000E+00	  0.029218437	8.207000E+00
48	  0.029418837	-1.651000E+00	  0.029418837	1.593860E+02	  0.029418837	4.894000E+00	  0.029418837	9.008000E+00
49	  0.029619239	-1.683000E+00	  0.029619239	1.575750E+02	  0.029619239	5.018000E+00	  0.029619239	9.815000E+00
50	  0.029819639	-1.715000E+00	  0.029819639	1.557390E+02	  0.029819639	5.145000E+00	  0.029819639	1.063700E+01
51	  0.030020041	-1.749000E+00	  0.030020041	1.538700E+02	  0.030020041	5.287000E+00	  0.030020041	1.147900E+01
52	  0.030220442	-1.781000E+00	  0.030220442	1.519890E+02	  0.030220442	5.423000E+00	  0.030220442	1.233300E+01
53	  0.030420844	-1.816000E+00	  0.030420844	1.500970E+02	  0.030420844	5.575000E+00	  0.030420844	1.319600E+01
54	  0.030621244	-1.849000E+00	  0.030621244	1.482220E+02	  0.030621244	5.729000E+00	  0.030621244	1.405900E+01
55	  0.030821644	-1.886000E+00	  0.030821644	1.463350E+02	  0.030821644	5.898000E+00	  0.030821644	1.493300E+01
56	  0.031022044	-1.922000E+00	  0.031022044	1.444430E+02	  0.031022044	6.070000E+00	  0.031022044	1.581700E+01
57	  0.031222444	-1.956000E+00	  0.031222444	1.425640E+02	  0.031222444	6.242000E+00	  0.031222444	1.670300E+01
58	  0.031422846	-1.997000E+00	  0.031422846	1.406030E+02	  0.031422846	6.446000E+00	  0.031422846	1.763600E+01
59	  0.031623244	-2.037000E+00	  0.031623244	1.386500E+02	  0.031623244	6.655000E+00	  0.031623244	1.857500E+01
60	  0.031823646	-2.074000E+00	  0.031823646	1.366690E+02	  0.031823646	6.863000E+00	  0.031823646	1.953800E+01
61	  0.032024048	-2.110000E+00	  0.032024048	1.346980E+02	  0.032024048	7.080000E+00	  0.032024048	2.050700E+01
62	  0.032224450	-2.146000E+00	  0.032224450	1.327270E+02	  0.032224450	7.304000E+00	  0.032224450	2.148900E+01
63	  0.032424849	-2.182000E+00	  0.032424849	1.307580E+02	  0.032424849	7.535000E+00	  0.032424849	2.248200E+01
64	  0.032625251	-2.218000E+00	  0.032625251	1.287950E+02	  0.032625251	7.779000E+00	  0.032625251	2.348400E+01
65	  0.032825653	-2.255000E+00	  0.032825653	1.268330E+02	  0.032825653	8.037000E+00	  0.032825653	2.450000E+01
66	  0.033026051	-2.296000E+00	  0.033026051	1.248670E+02	  0.033026051	8.324000E+00	  0.033026051	2.553000E+01
67	  0.033226453	-2.344000E+00	  0.033226453	1.229000E+02	  0.033226453	8.646000E+00	  0.033226453	2.657300E+01
68	  0.033426855	-2.392000E+00	  0.033426855	1.209320E+02	  0.033426855	8.984000E+00	  0.033426855	2.763000E+01
69	  0.033627257	-2.442000E+00	  0.033627257	1.189460E+02	  0.033627257	9.349000E+00	  0.033627257	2.871300E+01
70	  0.033827655	-2.495000E+00	  0.033827655	1.169110E+02	  0.033827655	9.747000E+00	  0.033827655	2.983900E+01
71	  0.034028057	-2.547000E+00	  0.034028057	1.148640E+02	  0.034028057	1.016300E+01	  0.034028057	3.099100E+01
72	  0.034228459	-2.600000E+00	  0.034228459	1.127540E+02	  0.034228459	1.060900E+01	  0.034228459	3.220000E+01
73	  0.034428857	-2.648000E+00	  0.034428857	1.106600E+02	  0.034428857	1.106000E+01	  0.034428857	3.342500E+01
74	  0.034629259	-2.695000E+00	  0.034629259	1.085440E+02	  0.034629259	1.153700E+01	  0.034629259	3.468700E+01
75	  0.034829661	-2.741000E+00	  0.034829661	1.064440E+02	  0.034829661	1.203200E+01	  0.034829661	3.596700E+01
76	  0.035030060	-2.784000E+00	  0.035030060	1.043310E+02	  0.035030060	1.254800E+01	  0.035030060	3.728200E+01
77	  0.035230462	-2.826000E+00	  0.035230462	1.022120E+02	  0.035230462	1.308800E+01	  0.035230462	3.863300E+01
78	  0.035430863	-2.866000E+00	  0.035430863	1.001360E+02	  0.035430863	1.365100E+01	  0.035430863	3.998400E+01
79	  0.035631265	-2.907000E+00	  0.035631265	9.806800E+01	  0.035631265	1.424400E+01	  0.035631265	4.136100E+01
80	  0.035831664	-2.949000E+00	  0.035831664	9.601500E+01	  0.035831664	1.488200E+01	  0.035831664	4.275400E+01
81	  0.036032066	-2.989000E+00	  0.036032066	9.397600E+01	  0.036032066	1.554000E+01	  0.036032066	4.417400E+01
82	  0.036232468	-3.034000E+00	  0.036232468	9.193800E+01	  0.036232468	1.627300E+01	  0.036232468	4.561500E+01
83	  0.036432866	-3.083000E+00	  0.036432866	8.990700E+01	  0.036432866	1.706700E+01	  0.036432866	4.707700E+01
84	  0.036633268	-3.124000E+00	  0.036633268	8.789000E+01	  0.036633268	1.786800E+01	  0.036633268	4.857600E+01
85	  0.036833670	-3.174000E+00	  0.036833670	8.585600E+01	  0.036833670	1.877200E+01	  0.036833670	5.010500E+01
86	  0.037034072	-3.221000E+00	  0.037034072	8.378700E+01	  0.037034072	1.973500E+01	  0.037034072	5.170400E+01
87	  0.037234470	-3.267000E+00	  0.037234470	8.169000E+01	  0.037234470	2.076900E+01	  0.037234470	5.336600E+01
88	  0.037434869	-3.311000E+00	  0.037434869	7.952000E+01	  0.037434869	2.190200E+01	  0.037434869	5.513800E+01
89	  0.037635271	-3.353000E+00	  0.037635271	7.728300E+01	  0.037635271	2.313300E+01	  0.037635271	5.702300E+01
90	  0.037835669	-3.403000E+00	  0.037835669	7.492200E+01	  0.037835669	2.458100E+01	  0.037835669	5.904600E+01
91	  0.038036071	-3.469000E+00	  0.038036071	7.252900E+01	  0.038036071	2.626700E+01	  0.038036071	6.109800E+01
92	  0.038236473	-3.547000E+00	  0.038236473	7.015800E+01	  0.038236473	2.817200E+01	  0.038236473	6.311700E+01
93	  0.038436871	-3.628000E+00	  0.038436871	6.787200E+01	  0.038436871	3.020400E+01	  0.038436871	6.506300E+01
94	  0.038637273	-3.706000E+00	  0.038637273	6.571000E+01	  0.038637273	3.228500E+01	  0.038637273	6.691400E+01
95	  0.038837675	-3.768000E+00	  0.038837675	6.360300E+01	  0.038837675	3.438000E+01	  0.038837675	6.879200E+01
96	  0.039038073	-3.827000E+00	  0.039038073	6.151500E+01	  0.039038073	3.659700E+01	  0.039038073	7.068000E+01
97	  0.039238475	-3.881000E+00	  0.039238475	5.947900E+01	  0.039238475	3.890200E+01	  0.039238475	7.255200E+01
98	  0.039438877	-3.934000E+00	  0.039438877	5.744600E+01	  0.039438877	4.137900E+01	  0.039438877	7.442200E+01
99	  0.039639279	-3.988000E+00	  0.039639279	5.542400E+01	  0.039639279	4.404000E+01	  0.039639279	7.626900E+01
100	  0.039839678	-4.046000E+00	  0.039839678	5.334900E+01	  0.039839678	4.701300E+01	  0.039839678	7.811100E+01
101	  0.040040080	-4.105000E+00	  0.040040080	5.129400E+01	  0.040040080	5.020000E+01	  0.040040080	7.987900E+01
102	  0.040240481	-4.165000E+00	  0.040240481	4.922800E+01	  0.040240481	5.366000E+01	  0.040240481	8.157800E+01
103	  0.040440880	-4.222000E+00	  0.040440880	4.710000E+01	  0.040440880	5.746700E+01	  0.040440880	8.328700E+01
104	  0.040641282	-4.277000E+00	  0.040641282	4.501600E+01	  0.040641282	6.149200E+01	  0.040641282	8.483900E+01
105	  0.040841684	-4.333000E+00	  0.040841684	4.289800E+01	  0.040841684	6.588700E+01	  0.040841684	8.627600E+01
106	  0.041042086	-4.386000E+00	  0.041042086	4.078600E+01	  0.041042086	7.059300E+01	  0.041042086	8.753800E+01
107	  0.041242484	-4.438000E+00	  0.041242484	3.868900E+01	  0.041242484	7.559600E+01	  0.041242484	8.856800E+01
108	  0.041442886	-4.491000E+00	  0.041442886	3.657400E+01	  0.041442886	8.099700E+01	  0.041442886	8.931000E+01
109	  0.041643288	-4.540000E+00	  0.041643288	3.445700E+01	  0.041643288	8.674600E+01	  0.041643288	8.973800E+01
110	  0.041843686	-4.587000E+00	  0.041843686	3.233000E+01	  0.041843686	9.286600E+01	  0.041843686	8.979300E+01
111	  0.042044088	-4.633000E+00	  0.042044088	3.025200E+01	  0.042044088	9.917700E+01	  0.042044088	8.936900E+01
112	  0.042244490	-4.678000E+00	  0.042244490	2.816500E+01	  0.042244490	1.058080E+02	  0.042244490	8.839800E+01
113	  0.042444889	-4.723000E+00	  0.042444889	2.612000E+01	  0.042444889	1.125500E+02	  0.042444889	8.678700E+01
114	  0.042645290	-4.767000E+00	  0.042645290	2.407500E+01	  0.042645290	1.194560E+02	  0.042645290	8.446800E+01
115	  0.042845692	-4.810000E+00	  0.042845692	2.202100E+01	  0.042845692	1.264940E+02	  0.042845692	8.141300E+01
116	  0.043046094	-4.856000E+00	  0.043046094	1.999900E+01	  0.043046094	1.333600E+02	  0.043046094	7.748000E+01
117	  0.043246493	-4.900000E+00	  0.043246493	1.795000E+01	  0.043246493	1.401680E+02	  0.043246493	7.264800E+01
118	  0.043446895	-4.943000E+00	  0.043446895	1.592800E+01	  0.043446895	1.465870E+02	  0.043446895	6.700300E+01
119	  0.043647297	-4.985000E+00	  0.043647297	1.389800E+01	  0.043647297	1.525950E+02	  0.043647297	6.048200E+01
120	  0.043847695	-5.027000E+00	  0.043847695	1.188000E+01	  0.043847695	1.579190E+02	  0.043847695	5.314800E+01
121	  0.044048097	-5.072000E+00	  0.044048097	9.883000E+00	  0.044048097	1.623400E+02	  0.044048097	4.510800E+01
122	  0.044248499	-5.114000E+00	  0.044248499	7.887000E+00	  0.044248499	1.658990E+02	  0.044248499	3.651200E+01
123	  0.044448901	-5.155000E+00	  0.044448901	5.888000E+00	  0.044448901	1.684980E+02	  0.044448901	2.748100E+01
124	  0.044649299	-5.196000E+00	  0.044649299	3.904000E+00	  0.044649299	1.699610E+02	  0.044649299	1.823400E+01
125	  0.044849701	-5.233000E+00	  0.044849701	1.918000E+00	  0.044849701	1.704470E+02	  0.044849701	8.922000E+00
126	  0.045050103	-5.267000E+00	  0.045050103	-5.300000E-02	  0.045050103	1.699100E+02	  0.045050103	-2.450000E-01
127	  0.045250501	-5.301000E+00	  0.045250501	-2.038000E+00	  0.045250501	1.683380E+02	  0.045250501	-9.226000E+00
128	  0.045450903	-5.333000E+00	  0.045450903	-3.971000E+00	  0.045450903	1.658950E+02	  0.045450903	-1.758800E+01
129	  0.045651305	-5.366000E+00	  0.045651305	-5.922000E+00	  0.045651305	1.625770E+02	  0.045651305	-2.549900E+01
130	  0.045851704	-5.399000E+00	  0.045851704	-7.847000E+00	  0.045851704	1.585620E+02	  0.045851704	-3.267800E+01
131	  0.046052106	-5.431000E+00	  0.046052106	-9.784000E+00	  0.046052106	1.540000E+02	  0.046052106	-3.924400E+01
132	  0.046252504	-5.464000E+00	  0.046252504	-1.169700E+01	  0.046252504	1.490280E+02	  0.046252504	-4.499800E+01
133	  0.046452906	-5.493000E+00	  0.046452906	-1.359300E+01	  0.046452906	1.438520E+02	  0.046452906	-5.005200E+01
134	  0.046653304	-5.520000E+00	  0.046653304	-1.552200E+01	  0.046653304	1.384260E+02	  0.046653304	-5.453900E+01
135	  0.046853706	-5.548000E+00	  0.046853706	-1.739900E+01	  0.046853706	1.330060E+02	  0.046853706	-5.822500E+01
136	  0.047054108	-5.572000E+00	  0.047054108	-1.929300E+01	  0.047054108	1.275440E+02	  0.047054108	-6.139000E+01
137	  0.047254506	-5.596000E+00	  0.047254506	-2.118000E+01	  0.047254506	1.221390E+02	  0.047254506	-6.397600E+01
138	  0.047454908	-5.620000E+00	  0.047454908	-2.303200E+01	  0.047454908	1.169020E+02	  0.047454908	-6.597900E+01
139	  0.047655310	-5.638000E+00	  0.047655310	-2.488500E+01	  0.047655310	1.118300E+02	  0.047655310	-6.763700E+01
140	  0.047855709	-5.661000E+00	  0.047855709	-2.668700E+01	  0.047855709	1.070090E+02	  0.047855709	-6.876500E+01
141	  0.048056111	-5.682000E+00	  0.048056111	-2.849200E+01	  0.048056111	1.023570E+02	  0.048056111	-6.955900E+01
142	  0.048256513	-5.704000E+00	  0.048256513	-3.030900E+01	  0.048256513	9.785800E+01	  0.048256513	-7.005600E+01
143	  0.048456915	-5.725000E+00	  0.048456915	-3.209700E+01	  0.048456915	9.362300E+01	  0.048456915	-7.027000E+01
144	  0.048657313	-5.743000E+00	  0.048657313	-3.386800E+01	  0.048657313	8.962200E+01	  0.048657313	-7.029500E+01
145	  0.048857715	-5.759000E+00	  0.048857715	-3.565300E+01	  0.048857715	8.578000E+01	  0.048857715	-7.014400E+01
146	  0.049058117	-5.779000E+00	  0.049058117	-3.744500E+01	  0.049058117	8.211400E+01	  0.049058117	-6.976800E+01
147	  0.049258515	-5.793000E+00	  0.049258515	-3.919600E+01	  0.049258515	7.871000E+01	  0.049258515	-6.931500E+01
148	  0.049458917	-5.811000E+00	  0.049458917	-4.092900E+01	  0.049458917	7.551700E+01	  0.049458917	-6.870600E+01
149	  0.049659319	-5.826000E+00	  0.049659319	-4.268300E+01	  0.049659319	7.245100E+01	  0.049659319	-6.800200E+01
150	  0.049859721	-5.841000E+00	  0.049859721	-4.440200E+01	  0.049859721	6.960600E+01	  0.049859721	-6.722700E+01
151	  0.050060119	-5.859000E+00	  0.050060119	-4.611300E+01	  0.050060119	6.692800E+01	  0.050060119	-6.635700E+01
152	  0.050260521	-5.867000E+00	  0.050260521	-4.785100E+01	  0.050260521	6.432700E+01	  0.050260521	-6.550000E+01
153	  0.050460923	-5.880000E+00	  0.050460923	-4.956800E+01	  0.050460923	6.190800E+01	  0.050460923	-6.455800E+01
154	  0.050661322	-5.889000E+00	  0.050661322	-5.126500E+01	  0.050661322	5.963200E+01	  0.050661322	-6.361100E+01
155	  0.050861724	-5.895000E+00	  0.050861724	-5.293000E+01	  0.050861724	5.750400E+01	  0.050861724	-6.267100E+01
156	  0.051062126	-5.903000E+00	  0.051062126	-5.458500E+01	  0.051062126	5.550300E+01	  0.051062126	-6.169000E+01
157	  0.051262524	-5.909000E+00	  0.051262524	-5.621600E+01	  0.051262524	5.362200E+01	  0.051262524	-6.071800E+01
158	  0.051462926	-5.914000E+00	  0.051462926	-5.780300E+01	  0.051462926	5.188200E+01	  0.051462926	-5.975500E+01
159	  0.051663328	-5.919000E+00	  0.051663328	-5.937600E+01	  0.051663328	5.024100E+01	  0.051663328	-5.878200E+01
160	  0.051863730	-5.928000E+00	  0.051863730	-6.096400E+01	  0.051863730	4.868000E+01	  0.051863730	-5.776600E+01
161	  0.052064128	-5.935000E+00	  0.052064128	-6.253600E+01	  0.052064128	4.720000E+01	  0.052064128	-5.677000E+01
162	  0.052264530	-5.944000E+00	  0.052264530	-6.409200E+01	  0.052264530	4.581500E+01	  0.052264530	-5.576200E+01
163	  0.052464932	-5.955000E+00	  0.052464932	-6.562900E+01	  0.052464932	4.452000E+01	  0.052464932	-5.475800E+01
164	  0.052665330	-5.965000E+00	  0.052665330	-6.720900E+01	  0.052665330	4.325200E+01	  0.052665330	-5.372900E+01
165	  0.052865732	-5.974000E+00	  0.052865732	-6.876300E+01	  0.052865732	4.205500E+01	  0.052865732	-5.273000E+01
166	  0.053066134	-5.983000E+00	  0.053066134	-7.028500E+01	  0.053066134	4.094000E+01	  0.053066134	-5.175300E+01
167	  0.053266536	-5.992000E+00	  0.053266536	-7.184500E+01	  0.053266536	3.984700E+01	  0.053266536	-5.076100E+01
168	  0.053466935	-6.000000E+00	  0.053466935	-7.336500E+01	  0.053466935	3.882900E+01	  0.053466935	-4.980100E+01
169	  0.053667337	-6.002000E+00	  0.053667337	-7.490200E+01	  0.053667337	3.782400E+01	  0.053667337	-4.886200E+01
170	  0.053867739	-6.002000E+00	  0.053867739	-7.639600E+01	  0.053867739	3.687900E+01	  0.053867739	-4.796400E+01
171	  0.054068137	-6.004000E+00	  0.054068137	-7.788900E+01	  0.054068137	3.598800E+01	  0.054068137	-4.705900E+01
172	  0.054268539	-6.009000E+00	  0.054268539	-7.937300E+01	  0.054268539	3.514700E+01	  0.054268539	-4.615900E+01
173	  0.054468941	-6.014000E+00	  0.054468941	-8.080300E+01	  0.054468941	3.437200E+01	  0.054468941	-4.529700E+01
174	  0.054669339	-6.016000E+00	  0.054669339	-8.223400E+01	  0.054669339	3.362100E+01	  0.054669339	-4.444900E+01
175	  0.054869737	-6.021000E+00	  0.054869737	-8.366700E+01	  0.054869737	3.290600E+01	  0.054869737	-4.360100E+01
176	  0.055070139	-6.029000E+00	  0.055070139	-8.503500E+01	  0.055070139	3.226600E+01	  0.055070139	-4.278400E+01
177	  0.055270538	-6.034000E+00	  0.055270538	-8.644200E+01	  0.055270538	3.161900E+01	  0.055270538	-4.196600E+01
178	  0.055470940	-6.044000E+00	  0.055470940	-8.782500E+01	  0.055470940	3.102900E+01	  0.055470940	-4.115100E+01
179	  0.055671342	-6.050000E+00	  0.055671342	-8.920000E+01	  0.055671342	3.044800E+01	  0.055671342	-4.036300E+01
180	  0.055871744	-6.054000E+00	  0.055871744	-9.061200E+01	  0.055871744	2.986900E+01	  0.055871744	-3.956600E+01
181	  0.056072142	-6.063000E+00	  0.056072142	-9.198900E+01	  0.056072142	2.934600E+01	  0.056072142	-3.878200E+01
182	  0.056272544	-6.069000E+00	  0.056272544	-9.335700E+01	  0.056272544	2.883200E+01	  0.056272544	-3.802000E+01
183	  0.056472946	-6.072000E+00	  0.056472946	-9.473400E+01	  0.056472946	2.832800E+01	  0.056472946	-3.726700E+01
184	  0.056673344	-6.076000E+00	  0.056673344	-9.609200E+01	  0.056673344	2.784700E+01	  0.056673344	-3.653100E+01
185	  0.056873746	-6.074000E+00	  0.056873746	-9.744200E+01	  0.056873746	2.737200E+01	  0.056873746	-3.581700E+01
186	  0.057074148	-6.073000E+00	  0.057074148	-9.881500E+01	  0.057074148	2.690800E+01	  0.057074148	-3.509500E+01
187	  0.057274550	-6.069000E+00	  0.057274550	-1.001550E+02	  0.057274550	2.645800E+01	  0.057274550	-3.440400E+01
188	  0.057474948	-6.062000E+00	  0.057474948	-1.014940E+02	  0.057474948	2.601800E+01	  0.057474948	-3.372300E+01
189	  0.057675350	-6.058000E+00	  0.057675350	-1.028010E+02	  0.057675350	2.561100E+01	  0.057675350	-3.305800E+01
190	  0.057875752	-6.051000E+00	  0.057875752	-1.040880E+02	  0.057875752	2.521300E+01	  0.057875752	-3.241500E+01
191	  0.058076151	-6.047000E+00	  0.058076151	-1.053910E+02	  0.058076151	2.483500E+01	  0.058076151	-3.176200E+01
192	  0.058276553	-6.039000E+00	  0.058276553	-1.066440E+02	  0.058276553	2.446900E+01	  0.058276553	-3.114600E+01
193	  0.058476955	-6.031000E+00	  0.058476955	-1.079030E+02	  0.058476955	2.411400E+01	  0.058476955	-3.053100E+01
194	  0.058677353	-6.025000E+00	  0.058677353	-1.091680E+02	  0.058677353	2.377400E+01	  0.058677353	-2.991400E+01
195	  0.058877755	-6.020000E+00	  0.058877755	-1.104050E+02	  0.058877755	2.345700E+01	  0.058877755	-2.931300E+01
196	  0.059078157	-6.014000E+00	  0.059078157	-1.116410E+02	  0.059078157	2.314400E+01	  0.059078157	-2.871900E+01
197	  0.059278559	-6.012000E+00	  0.059278559	-1.129000E+02	  0.059278559	2.285000E+01	  0.059278559	-2.811200E+01
198	  0.059478957	-6.005000E+00	  0.059478957	-1.141660E+02	  0.059478957	2.255100E+01	  0.059478957	-2.751200E+01
199	  0.059679359	-6.004000E+00	  0.059679359	-1.154150E+02	  0.059679359	2.228000E+01	  0.059679359	-2.691700E+01
200	  0.059879761	-5.994000E+00	  0.059879761	-1.166630E+02	  0.059879761	2.199500E+01	  0.059879761	-2.633700E+01
201	  0.060080159	-5.991000E+00	  0.060080159	-1.178720E+02	  0.060080159	2.174500E+01	  0.060080159	-2.577100E+01
202	  0.060280561	-5.986000E+00	  0.060280561	-1.191100E+02	  0.060280561	2.148900E+01	  0.060280561	-2.519900E+01
203	  0.060480963	-5.984000E+00	  0.060480963	-1.203330E+02	  0.060480963	2.125600E+01	  0.060480963	-2.463300E+01
204	  0.060681365	-5.977000E+00	  0.060681365	-1.215330E+02	  0.060681365	2.101800E+01	  0.060681365	-2.408700E+01
205	  0.060881764	-5.970000E+00	  0.060881764	-1.227390E+02	  0.060881764	2.079000E+01	  0.060881764	-2.354100E+01
206	  0.061082166	-5.967000E+00	  0.061082166	-1.239290E+02	  0.061082166	2.058000E+01	  0.061082166	-2.300100E+01
207	  0.061282568	-5.961000E+00	  0.061282568	-1.251390E+02	  0.061282568	2.036500E+01	  0.061282568	-2.246000E+01
208	  0.061482966	-5.956000E+00	  0.061482966	-1.263190E+02	  0.061482966	2.016600E+01	  0.061482966	-2.193300E+01
209	  0.061683368	-5.954000E+00	  0.061683368	-1.274850E+02	  0.061683368	1.998300E+01	  0.061683368	-2.141200E+01
210	  0.061883770	-5.950000E+00	  0.061883770	-1.286330E+02	  0.061883770	1.980100E+01	  0.061883770	-2.090500E+01
211	  0.062084168	-5.949000E+00	  0.062084168	-1.297700E+02	  0.062084168	1.963800E+01	  0.062084168	-2.040200E+01
212	  0.062284570	-5.947000E+00	  0.062284570	-1.309190E+02	  0.062284570	1.947300E+01	  0.062284570	-1.989800E+01
213	  0.062484972	-5.940000E+00	  0.062484972	-1.320240E+02	  0.062484972	1.930500E+01	  0.062484972	-1.942000E+01
214	  0.062685370	-5.942000E+00	  0.062685370	-1.331600E+02	  0.062685370	1.916500E+01	  0.062685370	-1.892300E+01
215	  0.062885776	-5.945000E+00	  0.062885776	-1.343010E+02	  0.062885776	1.903300E+01	  0.062885776	-1.842600E+01
216	  0.063086174	-5.945000E+00	  0.063086174	-1.354620E+02	  0.063086174	1.889400E+01	  0.063086174	-1.792500E+01
217	  0.063286573	-5.950000E+00	  0.063286573	-1.366050E+02	  0.063286573	1.877300E+01	  0.063286573	-1.743100E+01
218	  0.063486971	-5.952000E+00	  0.063486971	-1.377680E+02	  0.063486971	1.864900E+01	  0.063486971	-1.693300E+01
219	  0.063687377	-5.953000E+00	  0.063687377	-1.389010E+02	  0.063687377	1.852800E+01	  0.063687377	-1.645200E+01
220	  0.063887775	-5.949000E+00	  0.063887775	-1.400310E+02	  0.063887775	1.840100E+01	  0.063887775	-1.597600E+01
221	  0.064088173	-5.946000E+00	  0.064088173	-1.411800E+02	  0.064088173	1.827400E+01	  0.064088173	-1.549500E+01
222	  0.064288579	-5.950000E+00	  0.064288579	-1.422940E+02	  0.064288579	1.817900E+01	  0.064288579	-1.502500E+01
223	  0.064488977	-5.947000E+00	  0.064488977	-1.434060E+02	  0.064488977	1.806600E+01	  0.064488977	-1.456400E+01
224	  0.064689375	-5.950000E+00	  0.064689375	-1.445120E+02	  0.064689375	1.797300E+01	  0.064689375	-1.410200E+01
225	  0.064889781	-5.949000E+00	  0.064889781	-1.455980E+02	  0.064889781	1.787700E+01	  0.064889781	-1.365300E+01
226	  0.065090179	-5.948000E+00	  0.065090179	-1.466550E+02	  0.065090179	1.778600E+01	  0.065090179	-1.321800E+01
227	  0.065290578	-5.949000E+00	  0.065290578	-1.477140E+02	  0.065290578	1.770300E+01	  0.065290578	-1.278200E+01
228	  0.065490983	-5.954000E+00	  0.065490983	-1.487890E+02	  0.065490983	1.763400E+01	  0.065490983	-1.234000E+01
229	  0.065691382	-5.952000E+00	  0.065691382	-1.498520E+02	  0.065691382	1.754800E+01	  0.065691382	-1.190700E+01
230	  0.065891780	-5.955000E+00	  0.065891780	-1.509260E+02	  0.065891780	1.748200E+01	  0.065891780	-1.146800E+01
231	  0.066092186	-5.958000E+00	  0.066092186	-1.519740E+02	  0.066092186	1.741800E+01	  0.066092186	-1.104200E+01
232	  0.066292584	-5.960000E+00	  0.066292584	-1.530070E+02	  0.066292584	1.735400E+01	  0.066292584	-1.062400E+01
233	  0.066492982	-5.967000E+00	  0.066492982	-1.540520E+02	  0.066492982	1.730700E+01	  0.066492982	-1.020100E+01
234	  0.066693388	-5.968000E+00	  0.066693388	-1.550810E+02	  0.066693388	1.724900E+01	  0.066693388	-9.787000E+00
235	  0.066893786	-5.972000E+00	  0.066893786	-1.560940E+02	  0.066893786	1.720000E+01	  0.066893786	-9.379000E+00
236	  0.067094192	-5.975000E+00	  0.067094192	-1.570960E+02	  0.067094192	1.715300E+01	  0.067094192	-8.978000E+00
237	  0.067294590	-5.977000E+00	  0.067294590	-1.580980E+02	  0.067294590	1.710500E+01	  0.067294590	-8.578000E+00
238	  0.067494988	-5.982000E+00	  0.067494988	-1.591120E+02	  0.067494988	1.706700E+01	  0.067494988	-8.173000E+00
239	  0.067695394	-5.987000E+00	  0.067695394	-1.601120E+02	  0.067695394	1.703200E+01	  0.067695394	-7.775000E+00
240	  0.067895792	-5.991000E+00	  0.067895792	-1.611120E+02	  0.067895792	1.699900E+01	  0.067895792	-7.378000E+00
241	  0.068096191	-5.997000E+00	  0.068096191	-1.620930E+02	  0.068096191	1.697300E+01	  0.068096191	-6.989000E+00
242	  0.068296596	-6.002000E+00	  0.068296596	-1.630680E+02	  0.068296596	1.694600E+01	  0.068296596	-6.603000E+00
243	  0.068496995	-6.004000E+00	  0.068496995	-1.640450E+02	  0.068496995	1.691400E+01	  0.068496995	-6.218000E+00
244	  0.068697393	-6.010000E+00	  0.068697393	-1.649900E+02	  0.068697393	1.689600E+01	  0.068697393	-5.846000E+00
245	  0.068897791	-6.017000E+00	  0.068897791	-1.659360E+02	  0.068897791	1.688300E+01	  0.068897791	-5.473000E+00
246	  0.069098189	-6.019000E+00	  0.069098189	-1.668740E+02	  0.069098189	1.685900E+01	  0.069098189	-5.105000E+00
247	  0.069298595	-6.018000E+00	  0.069298595	-1.678240E+02	  0.069298595	1.683000E+01	  0.069298595	-4.734000E+00
248	  0.069498993	-6.030000E+00	  0.069498993	-1.687740E+02	  0.069498993	1.683400E+01	  0.069498993	-4.361000E+00
249	  0.069699399	-6.036000E+00	  0.069699399	-1.697220E+02	  0.069699399	1.682700E+01	  0.069699399	-3.990000E+00
250	  0.069899797	-6.039000E+00	  0.069899797	-1.706550E+02	  0.069899797	1.681500E+01	  0.069899797	-3.627000E+00
251	  0.070100196	-6.046000E+00	  0.070100196	-1.715830E+02	  0.070100196	1.681200E+01	  0.070100196	-3.264000E+00
252	  0.070300601	-6.046000E+00	  0.070300601	-1.725160E+02	  0.070300601	1.679500E+01	  0.070300601	-2.902000E+00
253	  0.070501000	-6.047000E+00	  0.070501000	-1.734550E+02	  0.070501000	1.678500E+01	  0.070501000	-2.537000E+00
254	  0.070701398	-6.048000E+00	  0.070701398	-1.743590E+02	  0.070701398	1.677400E+01	  0.070701398	-2.186000E+00
255	  0.070901804	-6.049000E+00	  0.070901804	-1.752700E+02	  0.070901804	1.676600E+01	  0.070901804	-1.833000E+00
256	  0.071102202	-6.050000E+00	  0.071102202	-1.762400E+02	  0.071102202	1.675900E+01	  0.071102202	-1.456000E+00
257	  0.071302600	-6.054000E+00	  0.071302600	-1.771480E+02	  0.071302600	1.676300E+01	  0.071302600	-1.104000E+00
258	  0.071503006	-6.056000E+00	  0.071503006	-1.780550E+02	  0.071503006	1.676200E+01	  0.071503006	-7.530000E-01
259	  0.071703404	-6.056000E+00	  0.071703404	-1.789760E+02	  0.071703404	1.676000E+01	  0.071703404	-3.960000E-01
260	  0.071903802	-6.059000E+00	  0.071903802	-1.798660E+02	  0.071903802	1.676500E+01	  0.071903802	-5.100000E-02
261	  0.072104208	-6.060000E+00	  0.072104208	1.792190E+02	  0.072104208	1.676800E+01	  0.072104208	3.020000E-01
262	  0.072304606	-6.060000E+00	  0.072304606	1.783030E+02	  0.072304606	1.677300E+01	  0.072304606	6.560000E-01
263	  0.072505005	-6.059000E+00	  0.072505005	1.774230E+02	  0.072505005	1.677400E+01	  0.072505005	9.970000E-01
264	  0.072705410	-6.065000E+00	  0.072705410	1.765100E+02	  0.072705410	1.679400E+01	  0.072705410	1.351000E+00
265	  0.072905809	-6.066000E+00	  0.072905809	1.755970E+02	  0.072905809	1.680700E+01	  0.072905809	1.705000E+00
266	  0.073106214	-6.065000E+00	  0.073106214	1.747310E+02	  0.073106214	1.681100E+01	  0.073106214	2.040000E+00
267	  0.073306613	-6.068000E+00	  0.073306613	1.738540E+02	  0.073306613	1.683000E+01	  0.073306613	2.380000E+00
268	  0.073507011	-6.071000E+00	  0.073507011	1.729740E+02	  0.073507011	1.685100E+01	  0.073507011	2.721000E+00
269	  0.073707417	-6.071000E+00	  0.073707417	1.720700E+02	  0.073707417	1.686900E+01	  0.073707417	3.072000E+00
270	  0.073907815	-6.075000E+00	  0.073907815	1.711730E+02	  0.073907815	1.689500E+01	  0.073907815	3.420000E+00
271	  0.074108213	-6.080000E+00	  0.074108213	1.703140E+02	  0.074108213	1.692600E+01	  0.074108213	3.753000E+00
272	  0.074308619	-6.081000E+00	  0.074308619	1.694400E+02	  0.074308619	1.694800E+01	  0.074308619	4.093000E+00
273	  0.074509017	-6.088000E+00	  0.074509017	1.685500E+02	  0.074509017	1.699000E+01	  0.074509017	4.438000E+00
274	  0.074709415	-6.090000E+00	  0.074709415	1.676920E+02	  0.074709415	1.701800E+01	  0.074709415	4.772000E+00
275	  0.074909821	-6.093000E+00	  0.074909821	1.668350E+02	  0.074909821	1.705100E+01	  0.074909821	5.106000E+00
276	  0.075110219	-6.106000E+00	  0.075110219	1.659350E+02	  0.075110219	1.711200E+01	  0.075110219	5.455000E+00
277	  0.075310618	-6.107000E+00	  0.075310618	1.650920E+02	  0.075310618	1.714300E+01	  0.075310618	5.784000E+00
278	  0.075511023	-6.115000E+00	  0.075511023	1.642530E+02	  0.075511023	1.719400E+01	  0.075511023	6.110000E+00
279	  0.075711422	-6.125000E+00	  0.075711422	1.634130E+02	  0.075711422	1.725100E+01	  0.075711422	6.436000E+00
280	  0.075911827	-6.132000E+00	  0.075911827	1.625640E+02	  0.075911827	1.730400E+01	  0.075911827	6.767000E+00
281	  0.076112226	-6.141000E+00	  0.076112226	1.616750E+02	  0.076112226	1.736400E+01	  0.076112226	7.113000E+00
282	  0.076312624	-6.152000E+00	  0.076312624	1.608030E+02	  0.076312624	1.743100E+01	  0.076312624	7.452000E+00
283	  0.076513030	-6.158000E+00	  0.076513030	1.599680E+02	  0.076513030	1.748600E+01	  0.076513030	7.779000E+00
284	  0.076713428	-6.169000E+00	  0.076713428	1.590980E+02	  0.076713428	1.755700E+01	  0.076713428	8.118000E+00
285	  0.076913826	-6.176000E+00	  0.076913826	1.582240E+02	  0.076913826	1.762000E+01	  0.076913826	8.460000E+00
286	  0.077114232	-6.189000E+00	  0.077114232	1.573810E+02	  0.077114232	1.769800E+01	  0.077114232	8.789000E+00
287	  0.077314630	-6.193000E+00	  0.077314630	1.565450E+02	  0.077314630	1.775500E+01	  0.077314630	9.118000E+00
288	  0.077515028	-6.202000E+00	  0.077515028	1.557360E+02	  0.077515028	1.782500E+01	  0.077515028	9.435000E+00
289	  0.077715434	-6.210000E+00	  0.077715434	1.548770E+02	  0.077715434	1.789700E+01	  0.077715434	9.773000E+00
290	  0.077915832	-6.224000E+00	  0.077915832	1.540340E+02	  0.077915832	1.798600E+01	  0.077915832	1.010200E+01
291	  0.078116231	-6.233000E+00	  0.078116231	1.532070E+02	  0.078116231	1.806300E+01	  0.078116231	1.042700E+01
292	  0.078316636	-6.246000E+00	  0.078316636	1.523730E+02	  0.078316636	1.815400E+01	  0.078316636	1.075300E+01
293	  0.078517035	-6.257000E+00	  0.078517035	1.515270E+02	  0.078517035	1.824200E+01	  0.078517035	1.108700E+01
294	  0.078717433	-6.271000E+00	  0.078717433	1.506880E+02	  0.078717433	1.833900E+01	  0.078717433	1.141500E+01
295	  0.078917839	-6.281000E+00	  0.078917839	1.498680E+02	  0.078917839	1.842600E+01	  0.078917839	1.173900E+01
296	  0.079118237	-6.300000E+00	  0.079118237	1.490560E+02	  0.079118237	1.853700E+01	  0.079118237	1.205600E+01
297	  0.079318643	-6.313000E+00	  0.079318643	1.482590E+02	  0.079318643	1.863600E+01	  0.079318643	1.236900E+01
298	  0.079519041	-6.327000E+00	  0.079519041	1.474350E+02	  0.079519041	1.873900E+01	  0.079519041	1.269400E+01
299	  0.079719439	-6.338000E+00	  0.079719439	1.466070E+02	  0.079719439	1.884000E+01	  0.079719439	1.302100E+01
300	  0.079919845	-6.349000E+00	  0.079919845	1.458200E+02	  0.079919845	1.893900E+01	  0.079919845	1.333300E+01
301	  0.080120243	-6.366000E+00	  0.080120243	1.449820E+02	  0.080120243	1.905700E+01	  0.080120243	1.366300E+01
302	  0.080320641	-6.376000E+00	  0.080320641	1.441560E+02	  0.080320641	1.916000E+01	  0.080320641	1.399200E+01
303	  0.080521047	-6.391000E+00	  0.080521047	1.433840E+02	  0.080521047	1.927400E+01	  0.080521047	1.429700E+01
304	  0.080721445	-6.403000E+00	  0.080721445	1.425800E+02	  0.080721445	1.938400E+01	  0.080721445	1.461700E+01
305	  0.080921844	-6.416000E+00	  0.080921844	1.417940E+02	  0.080921844	1.949900E+01	  0.080921844	1.492900E+01
306	  0.081122249	-6.430000E+00	  0.081122249	1.410420E+02	  0.081122249	1.961400E+01	  0.081122249	1.522800E+01
307	  0.081322648	-6.443000E+00	  0.081322648	1.402630E+02	  0.081322648	1.973300E+01	  0.081322648	1.553800E+01
308	  0.081523046	-6.460000E+00	  0.081523046	1.394760E+02	  0.081523046	1.986300E+01	  0.081523046	1.584900E+01
309	  0.081723452	-6.472000E+00	  0.081723452	1.387080E+02	  0.081723452	1.998000E+01	  0.081723452	1.615700E+01
310	  0.081923850	-6.484000E+00	  0.081923850	1.379530E+02	  0.081923850	2.010000E+01	  0.081923850	1.645900E+01
311	  0.082124248	-6.503000E+00	  0.082124248	1.371960E+02	  0.082124248	2.023900E+01	  0.082124248	1.675800E+01
312	  0.082324654	-6.522000E+00	  0.082324654	1.364570E+02	  0.082324654	2.037900E+01	  0.082324654	1.704900E+01
313	  0.082525052	-6.537000E+00	  0.082525052	1.357190E+02	  0.082525052	2.051300E+01	  0.082525052	1.734200E+01
314	  0.082725458	-6.554000E+00	  0.082725458	1.350110E+02	  0.082725458	2.064700E+01	  0.082725458	1.762300E+01
315	  0.082925856	-6.577000E+00	  0.082925856	1.342880E+02	  0.082925856	2.080300E+01	  0.082925856	1.790500E+01
316	  0.083126254	-6.595000E+00	  0.083126254	1.335360E+02	  0.083126254	2.095300E+01	  0.083126254	1.820200E+01
317	  0.083326660	-6.614000E+00	  0.083326660	1.327860E+02	  0.083326660	2.110500E+01	  0.083326660	1.850000E+01
318	  0.083527058	-6.635000E+00	  0.083527058	1.320410E+02	  0.083527058	2.126500E+01	  0.083527058	1.879300E+01
319	  0.083727457	-6.653000E+00	  0.083727457	1.312870E+02	  0.083727457	2.142200E+01	  0.083727457	1.909200E+01
320	  0.083927862	-6.672000E+00	  0.083927862	1.305620E+02	  0.083927862	2.158000E+01	  0.083927862	1.937800E+01
321	  0.084128261	-6.691000E+00	  0.084128261	1.298400E+02	  0.084128261	2.174000E+01	  0.084128261	1.966300E+01
322	  0.084328659	-6.707000E+00	  0.084328659	1.291300E+02	  0.084328659	2.189100E+01	  0.084328659	1.994700E+01
323	  0.084529065	-6.728000E+00	  0.084529065	1.284350E+02	  0.084529065	2.205800E+01	  0.084529065	2.021900E+01
324	  0.084729463	-6.750000E+00	  0.084729463	1.277190E+02	  0.084729463	2.223000E+01	  0.084729463	2.049900E+01
325	  0.084929861	-6.769000E+00	  0.084929861	1.269840E+02	  0.084929861	2.240100E+01	  0.084929861	2.079100E+01
326	  0.085130267	-6.793000E+00	  0.085130267	1.262780E+02	  0.085130267	2.258400E+01	  0.085130267	2.106500E+01
327	  0.085330658	-6.811000E+00	  0.085330658	1.255710E+02	  0.085330658	2.275300E+01	  0.085330658	2.134500E+01
328	  0.085531056	-6.834000E+00	  0.085531056	1.248880E+02	  0.085531056	2.293600E+01	  0.085531056	2.161000E+01
329	  0.085731462	-6.860000E+00	  0.085731462	1.241680E+02	  0.085731462	2.313500E+01	  0.085731462	2.188600E+01
330	  0.085931860	-6.883000E+00	  0.085931860	1.234840E+02	  0.085931860	2.332100E+01	  0.085931860	2.215200E+01
331	  0.086132258	-6.904000E+00	  0.086132258	1.227910E+02	  0.086132258	2.350700E+01	  0.086132258	2.242300E+01
332	  0.086332664	-6.932000E+00	  0.086332664	1.221340E+02	  0.086332664	2.370800E+01	  0.086332664	2.266900E+01
333	  0.086533062	-6.956000E+00	  0.086533062	1.213920E+02	  0.086533062	2.391700E+01	  0.086533062	2.295700E+01
334	  0.086733460	-6.981000E+00	  0.086733460	1.206900E+02	  0.086733460	2.412300E+01	  0.086733460	2.322600E+01
335	  0.086933866	-7.006000E+00	  0.086933866	1.199990E+02	  0.086933866	2.433000E+01	  0.086933866	2.349000E+01
336	  0.087134264	-7.026000E+00	  0.087134264	1.192970E+02	  0.087134264	2.452800E+01	  0.087134264	2.376500E+01
337	  0.087334670	-7.046000E+00	  0.087334670	1.186070E+02	  0.087334670	2.472800E+01	  0.087334670	2.403400E+01
338	  0.087535068	-7.074000E+00	  0.087535068	1.178850E+02	  0.087535068	2.495900E+01	  0.087535068	2.430600E+01
339	  0.087735467	-7.093000E+00	  0.087735467	1.172250E+02	  0.087735467	2.515300E+01	  0.087735467	2.456500E+01
340	  0.087935872	-7.118000E+00	  0.087935872	1.165320E+02	  0.087935872	2.537600E+01	  0.087935872	2.482700E+01
341	  0.088136271	-7.141000E+00	  0.088136271	1.158820E+02	  0.088136271	2.558500E+01	  0.088136271	2.507400E+01
342	  0.088336669	-7.162000E+00	  0.088336669	1.152080E+02	  0.088336669	2.579600E+01	  0.088336669	2.533500E+01
343	  0.088537075	-7.181000E+00	  0.088537075	1.145530E+02	  0.088537075	2.600200E+01	  0.088537075	2.558900E+01
344	  0.088737473	-7.201000E+00	  0.088737473	1.139020E+02	  0.088737473	2.621300E+01	  0.088737473	2.583900E+01
345	  0.088937871	-7.219000E+00	  0.088937871	1.132660E+02	  0.088937871	2.641400E+01	  0.088937871	2.608700E+01
346	  0.089138277	-7.247000E+00	  0.089138277	1.126400E+02	  0.089138277	2.664600E+01	  0.089138277	2.631400E+01
347	  0.089338675	-7.271000E+00	  0.089338675	1.120230E+02	  0.089338675	2.686800E+01	  0.089338675	2.654100E+01
348	  0.089539073	-7.293000E+00	  0.089539073	1.114190E+02	  0.089539073	2.708200E+01	  0.089539073	2.676600E+01
349	  0.089739479	-7.319000E+00	  0.089739479	1.107690E+02	  0.089739479	2.732100E+01	  0.089739479	2.700500E+01
350	  0.089939877	-7.346000E+00	  0.089939877	1.101200E+02	  0.089939877	2.756700E+01	  0.089939877	2.724000E+01
351	  0.090140276	-7.371000E+00	  0.090140276	1.094890E+02	  0.090140276	2.780700E+01	  0.090140276	2.746900E+01
352	  0.090340681	-7.395000E+00	  0.090340681	1.088780E+02	  0.090340681	2.803800E+01	  0.090340681	2.769200E+01
353	  0.090541080	-7.424000E+00	  0.090541080	1.082580E+02	  0.090541080	2.829200E+01	  0.090541080	2.790700E+01
354	  0.090741485	-7.448000E+00	  0.090741485	1.076430E+02	  0.090741485	2.853000E+01	  0.090741485	2.813000E+01
355	  0.090941884	-7.472000E+00	  0.090941884	1.070120E+02	  0.090941884	2.877800E+01	  0.090941884	2.835600E+01
356	  0.091142282	-7.502000E+00	  0.091142282	1.064350E+02	  0.091142282	2.902900E+01	  0.091142282	2.854900E+01
357	  0.091342688	-7.524000E+00	  0.091342688	1.058280E+02	  0.091342688	2.926800E+01	  0.091342688	2.876900E+01
358	  0.091543086	-7.554000E+00	  0.091543086	1.052300E+02	  0.091543086	2.953100E+01	  0.091543086	2.896800E+01
359	  0.091743484	-7.575000E+00	  0.091743484	1.046180E+02	  0.091743484	2.977400E+01	  0.091743484	2.919100E+01
360	  0.091943890	-7.600000E+00	  0.091943890	1.040570E+02	  0.091943890	3.001600E+01	  0.091943890	2.938200E+01
361	  0.092144288	-7.630000E+00	  0.092144288	1.034510E+02	  0.092144288	3.029000E+01	  0.092144288	2.957900E+01
362	  0.092344686	-7.656000E+00	  0.092344686	1.029050E+02	  0.092344686	3.053700E+01	  0.092344686	2.975900E+01
363	  0.092545092	-7.685000E+00	  0.092545092	1.023470E+02	  0.092545092	3.079600E+01	  0.092545092	2.993700E+01
364	  0.092745490	-7.719000E+00	  0.092745490	1.017840E+02	  0.092745490	3.107400E+01	  0.092745490	3.010400E+01
365	  0.092945889	-7.748000E+00	  0.092945889	1.012280E+02	  0.092945889	3.133700E+01	  0.092945889	3.027900E+01
366	  0.093146294	-7.777000E+00	  0.093146294	1.006860E+02	  0.093146294	3.160000E+01	  0.093146294	3.044400E+01
367	  0.093346693	-7.810000E+00	  0.093346693	1.001160E+02	  0.093346693	3.188500E+01	  0.093346693	3.061100E+01
368	  0.093547091	-7.843000E+00	  0.093547091	9.958000E+01	  0.093547091	3.216100E+01	  0.093547091	3.076300E+01
369	  0.093747497	-7.871000E+00	  0.093747497	9.903700E+01	  0.093747497	3.242700E+01	  0.093747497	3.092800E+01
370	  0.093947895	-7.901000E+00	  0.093947895	9.846600E+01	  0.093947895	3.271200E+01	  0.093947895	3.109600E+01
371	  0.094148301	-7.933000E+00	  0.094148301	9.790700E+01	  0.094148301	3.299900E+01	  0.094148301	3.125500E+01
372	  0.094348699	-7.965000E+00	  0.094348699	9.740500E+01	  0.094348699	3.327000E+01	  0.094348699	3.138600E+01
373	  0.094549097	-7.995000E+00	  0.094549097	9.688800E+01	  0.094549097	3.354100E+01	  0.094549097	3.152800E+01
374	  0.094749503	-8.025000E+00	  0.094749503	9.635200E+01	  0.094749503	3.382100E+01	  0.094749503	3.167600E+01
375	  0.094949901	-8.055000E+00	  0.094949901	9.582600E+01	  0.094949901	3.410200E+01	  0.094949901	3.181700E+01
376	  0.095150299	-8.080000E+00	  0.095150299	9.534600E+01	  0.095150299	3.435200E+01	  0.095150299	3.195000E+01
377	  0.095350705	-8.105000E+00	  0.095350705	9.484100E+01	  0.095350705	3.461300E+01	  0.095350705	3.209400E+01
378	  0.095551103	-8.131000E+00	  0.095551103	9.435000E+01	  0.095551103	3.487400E+01	  0.095551103	3.222700E+01
379	  0.095751502	-8.158000E+00	  0.095751502	9.385200E+01	  0.095751502	3.514300E+01	  0.095751502	3.235800E+01
380	  0.095951907	-8.186000E+00	  0.095951907	9.341200E+01	  0.095951907	3.539400E+01	  0.095951907	3.246000E+01
381	  0.096152306	-8.215000E+00	  0.096152306	9.296400E+01	  0.096152306	3.565000E+01	  0.096152306	3.256300E+01
382	  0.096352704	-8.238000E+00	  0.096352704	9.249600E+01	  0.096352704	3.590200E+01	  0.096352704	3.268700E+01
383	  0.096553110	-8.265000E+00	  0.096553110	9.207500E+01	  0.096553110	3.614600E+01	  0.096553110	3.278200E+01
384	  0.096753508	-8.294000E+00	  0.096753508	9.159100E+01	  0.096753508	3.642100E+01	  0.096753508	3.289500E+01
385	  0.096953906	-8.318000E+00	  0.096953906	9.117900E+01	  0.096953906	3.665800E+01	  0.096953906	3.298800E+01
386	  0.097154312	-8.342000E+00	  0.097154312	9.069200E+01	  0.097154312	3.692500E+01	  0.097154312	3.311300E+01
387	  0.097354710	-8.370000E+00	  0.097354710	9.027500E+01	  0.097354710	3.717600E+01	  0.097354710	3.319400E+01
388	  0.097555116	-8.387000E+00	  0.097555116	8.983300E+01	  0.097555116	3.741200E+01	  0.097555116	3.331600E+01
389	  0.097755514	-8.412000E+00	  0.097755514	8.941400E+01	  0.097755514	3.765900E+01	  0.097755514	3.340500E+01
390	  0.097955912	-8.439000E+00	  0.097955912	8.897700E+01	  0.097955912	3.792000E+01	  0.097955912	3.349300E+01
391	  0.098156318	-8.458000E+00	  0.098156318	8.856700E+01	  0.098156318	3.814900E+01	  0.098156318	3.359500E+01
392	  0.098356716	-8.480000E+00	  0.098356716	8.811100E+01	  0.098356716	3.840900E+01	  0.098356716	3.370200E+01
393	  0.098557115	-8.496000E+00	  0.098557115	8.771900E+01	  0.098557115	3.862700E+01	  0.098557115	3.380100E+01
394	  0.098757520	-8.518000E+00	  0.098757520	8.732300E+01	  0.098757520	3.886300E+01	  0.098757520	3.388200E+01
395	  0.098957919	-8.534000E+00	  0.098957919	8.687100E+01	  0.098957919	3.910900E+01	  0.098957919	3.400300E+01
396	  0.099158317	-8.555000E+00	  0.099158317	8.647900E+01	  0.099158317	3.934400E+01	  0.099158317	3.408400E+01
397	  0.099358723	-8.571000E+00	  0.099358723	8.605900E+01	  0.099358723	3.957900E+01	  0.099358723	3.418900E+01
398	  0.099559121	-8.588000E+00	  0.099559121	8.566800E+01	  0.099559121	3.980600E+01	  0.099559121	3.427900E+01
399	  0.099759519	-8.607000E+00	  0.099759519	8.527400E+01	  0.099759519	4.004100E+01	  0.099759519	3.436100E+01
400	  0.099959925	-8.622000E+00	  0.099959925	8.489700E+01	  0.099959925	4.025800E+01	  0.099959925	3.445100E+01
401	  0.100160323	-8.638000E+00	  0.100160323	8.450400E+01	  0.100160323	4.048700E+01	  0.100160323	3.454000E+01
402	  0.100360721	-8.654000E+00	  0.100360721	8.404000E+01	  0.100360721	4.075400E+01	  0.100360721	3.465200E+01
403	  0.100561127	-8.669000E+00	  0.100561127	8.368900E+01	  0.100561127	4.096100E+01	  0.100561127	3.473100E+01
404	  0.100761525	-8.675000E+00	  0.100761525	8.324500E+01	  0.100761525	4.119800E+01	  0.100761525	3.486600E+01
405	  0.100961931	-8.692000E+00	  0.100961931	8.287300E+01	  0.100961931	4.142400E+01	  0.100961931	3.494100E+01
406	  0.101162329	-8.697000E+00	  0.101162329	8.242500E+01	  0.101162329	4.166200E+01	  0.101162329	3.508200E+01
407	  0.101362728	-8.710000E+00	  0.101362728	8.203400E+01	  0.101362728	4.189200E+01	  0.101362728	3.517300E+01
408	  0.101563133	-8.719000E+00	  0.101563133	8.164500E+01	  0.101563133	4.211400E+01	  0.101563133	3.527600E+01
409	  0.101763532	-8.728000E+00	  0.101763532	8.124400E+01	  0.101763532	4.234300E+01	  0.101763532	3.538200E+01
410	  0.101963930	-8.727000E+00	  0.101963930	8.082400E+01	  0.101963930	4.256100E+01	  0.101963930	3.553000E+01
411	  0.102164336	-8.739000E+00	  0.102164336	8.035300E+01	  0.102164336	4.283700E+01	  0.102164336	3.564800E+01
412	  0.102364734	-8.737000E+00	  0.102364734	7.996300E+01	  0.102364734	4.304300E+01	  0.102364734	3.578500E+01
413	  0.102565132	-8.746000E+00	  0.102565132	7.952500E+01	  0.102565132	4.329900E+01	  0.102565132	3.590100E+01
414	  0.102765530	-8.746000E+00	  0.102765530	7.906400E+01	  0.102765530	4.355100E+01	  0.102765530	3.605200E+01
415	  0.102965929	-8.747000E+00	  0.102965929	7.870800E+01	  0.102965929	4.374900E+01	  0.102965929	3.616800E+01
416	  0.103166327	-8.746000E+00	  0.103166327	7.830400E+01	  0.103166327	4.397100E+01	  0.103166327	3.630500E+01
417	  0.103366733	-8.754000E+00	  0.103366733	7.790800E+01	  0.103366733	4.421000E+01	  0.103366733	3.640500E+01
418	  0.103567131	-8.755000E+00	  0.103567131	7.746900E+01	  0.103567131	4.446000E+01	  0.103567131	3.654500E+01
419	  0.103767529	-8.753000E+00	  0.103767529	7.700400E+01	  0.103767529	4.472000E+01	  0.103767529	3.670200E+01
420	  0.103967935	-8.754000E+00	  0.103967935	7.662500E+01	  0.103967935	4.494100E+01	  0.103967935	3.682000E+01
421	  0.104168333	-8.752000E+00	  0.104168333	7.616100E+01	  0.104168333	4.520600E+01	  0.104168333	3.697500E+01
422	  0.104368731	-8.749000E+00	  0.104368731	7.573100E+01	  0.104368731	4.545200E+01	  0.104368731	3.712400E+01
423	  0.104569137	-8.752000E+00	  0.104569137	7.535000E+01	  0.104569137	4.568200E+01	  0.104569137	3.723400E+01
424	  0.104769535	-8.759000E+00	  0.104769535	7.491700E+01	  0.104769535	4.595600E+01	  0.104769535	3.733800E+01
425	  0.104969934	-8.752000E+00	  0.104969934	7.447800E+01	  0.104969934	4.620500E+01	  0.104969934	3.750600E+01
426	  0.105170339	-8.757000E+00	  0.105170339	7.399600E+01	  0.105170339	4.650800E+01	  0.105170339	3.763300E+01
427	  0.105370738	-8.749000E+00	  0.105370738	7.355300E+01	  0.105370738	4.676500E+01	  0.105370738	3.780000E+01
428	  0.105571143	-8.747000E+00	  0.105571143	7.308700E+01	  0.105571143	4.705000E+01	  0.105571143	3.794800E+01
429	  0.105771542	-8.747000E+00	  0.105771542	7.263100E+01	  0.105771542	4.733500E+01	  0.105771542	3.808800E+01
430	  0.105971940	-8.743000E+00	  0.105971940	7.213800E+01	  0.105971940	4.764000E+01	  0.105971940	3.824800E+01
431	  0.106172346	-8.742000E+00	  0.106172346	7.172700E+01	  0.106172346	4.790100E+01	  0.106172346	3.837200E+01
432	  0.106372744	-8.746000E+00	  0.106372744	7.118200E+01	  0.106372744	4.825900E+01	  0.106372744	3.851700E+01
433	  0.106573142	-8.748000E+00	  0.106573142	7.079200E+01	  0.106573142	4.851600E+01	  0.106573142	3.862100E+01
434	  0.106773548	-8.747000E+00	  0.106773548	7.028200E+01	  0.106773548	4.885100E+01	  0.106773548	3.876900E+01
435	  0.106973946	-8.748000E+00	  0.106973946	6.982500E+01	  0.106973946	4.915500E+01	  0.106973946	3.889300E+01
436	  0.107174344	-8.741000E+00	  0.107174344	6.933500E+01	  0.107174344	4.947300E+01	  0.107174344	3.905800E+01
437	  0.107374750	-8.745000E+00	  0.107374750	6.885500E+01	  0.107374750	4.980500E+01	  0.107374750	3.917200E+01
438	  0.107575148	-8.741000E+00	  0.107575148	6.835300E+01	  0.107575148	5.014200E+01	  0.107575148	3.932400E+01
439	  0.107775547	-8.734000E+00	  0.107775547	6.786400E+01	  0.107775547	5.046800E+01	  0.107775547	3.948600E+01
440	  0.107975952	-8.735000E+00	  0.107975952	6.734000E+01	  0.107975952	5.083600E+01	  0.107975952	3.961800E+01
441	  0.108176351	-8.736000E+00	  0.108176351	6.684100E+01	  0.108176351	5.118900E+01	  0.108176351	3.974400E+01
442	  0.108376749	-8.739000E+00	  0.108376749	6.631200E+01	  0.108376749	5.157200E+01	  0.108376749	3.986400E+01
443	  0.108577155	-8.732000E+00	  0.108577155	6.580700E+01	  0.108577155	5.192500E+01	  0.108577155	4.002000E+01
444	  0.108777553	-8.731000E+00	  0.108777553	6.525700E+01	  0.108777553	5.232500E+01	  0.108777553	4.015800E+01
445	  0.108977959	-8.735000E+00	  0.108977959	6.473200E+01	  0.108977959	5.271800E+01	  0.108977959	4.026400E+01
446	  0.109178357	-8.723000E+00	  0.109178357	6.414900E+01	  0.109178357	5.313400E+01	  0.109178357	4.046000E+01
447	  0.109378755	-8.723000E+00	  0.109378755	6.359900E+01	  0.109378755	5.354900E+01	  0.109378755	4.058500E+01
448	  0.109579161	-8.716000E+00	  0.109579161	6.305500E+01	  0.109579161	5.395500E+01	  0.109579161	4.073600E+01
449	  0.109779559	-8.704000E+00	  0.109779559	6.242400E+01	  0.109779559	5.442500E+01	  0.109779559	4.093400E+01
450	  0.109979957	-8.701000E+00	  0.109979957	6.188500E+01	  0.109979957	5.484200E+01	  0.109979957	4.106500E+01
451	  0.110180363	-8.690000E+00	  0.110180363	6.128700E+01	  0.110180363	5.530000E+01	  0.110180363	4.124100E+01
452	  0.110380761	-8.696000E+00	  0.110380761	6.068400E+01	  0.110380761	5.579100E+01	  0.110380761	4.132800E+01
453	  0.110581160	-8.690000E+00	  0.110581160	6.010500E+01	  0.110581160	5.625300E+01	  0.110581160	4.146700E+01
454	  0.110781565	-8.685000E+00	  0.110781565	5.951600E+01	  0.110781565	5.672900E+01	  0.110781565	4.160100E+01
455	  0.110981964	-8.677000E+00	  0.110981964	5.888900E+01	  0.110981964	5.724000E+01	  0.110981964	4.175100E+01
456	  0.111182362	-8.672000E+00	  0.111182362	5.828200E+01	  0.111182362	5.774400E+01	  0.111182362	4.187900E+01
457	  0.111382768	-8.663000E+00	  0.111382768	5.763400E+01	  0.111382768	5.828500E+01	  0.111382768	4.203500E+01
458	  0.111583166	-8.662000E+00	  0.111583166	5.708400E+01	  0.111583166	5.875600E+01	  0.111583166	4.212100E+01
459	  0.111783572	-8.661000E+00	  0.111783572	5.638100E+01	  0.111783572	5.936700E+01	  0.111783572	4.222300E+01
460	  0.111983970	-8.653000E+00	  0.111983970	5.572000E+01	  0.111983970	5.994200E+01	  0.111983970	4.235500E+01
461	  0.112184368	-8.653000E+00	  0.112184368	5.505600E+01	  0.112184368	6.053400E+01	  0.112184368	4.242900E+01
462	  0.112384774	-8.656000E+00	  0.112384774	5.440800E+01	  0.112384774	6.112000E+01	  0.112384774	4.248300E+01
463	  0.112585172	-8.650000E+00	  0.112585172	5.369700E+01	  0.112585172	6.176500E+01	  0.112585172	4.258600E+01
464	  0.112785570	-8.646000E+00	  0.112785570	5.303400E+01	  0.112785570	6.237500E+01	  0.112785570	4.266300E+01
465	  0.112985976	-8.646000E+00	  0.112985976	5.231900E+01	  0.112985976	6.304300E+01	  0.112985976	4.271200E+01
466	  0.113186374	-8.646000E+00	  0.113186374	5.162400E+01	  0.113186374	6.370100E+01	  0.113186374	4.274500E+01
467	  0.113386773	-8.650000E+00	  0.113386773	5.091600E+01	  0.113386773	6.437800E+01	  0.113386773	4.274800E+01
468	  0.113587178	-8.652000E+00	  0.113587178	5.024200E+01	  0.113587178	6.503000E+01	  0.113587178	4.275600E+01
469	  0.113787577	-8.654000E+00	  0.113787577	4.951300E+01	  0.113787577	6.574000E+01	  0.113787577	4.274900E+01
470	  0.113987975	-8.665000E+00	  0.113987975	4.874100E+01	  0.113987975	6.650100E+01	  0.113987975	4.267200E+01
471	  0.114188381	-8.664000E+00	  0.114188381	4.801000E+01	  0.114188381	6.723000E+01	  0.114188381	4.265900E+01
472	  0.114388779	-8.671000E+00	  0.114388779	4.726100E+01	  0.114388779	6.798000E+01	  0.114388779	4.257400E+01
473	  0.114589177	-8.677000E+00	  0.114589177	4.650700E+01	  0.114589177	6.874300E+01	  0.114589177	4.249200E+01
474	  0.114789583	-8.688000E+00	  0.114789583	4.575500E+01	  0.114789583	6.950700E+01	  0.114789583	4.235000E+01
475	  0.114989981	-8.700000E+00	  0.114989981	4.496000E+01	  0.114989981	7.031800E+01	  0.114989981	4.218500E+01
476	  0.115190387	-8.710000E+00	  0.115190387	4.414900E+01	  0.115190387	7.115300E+01	  0.115190387	4.201400E+01
477	  0.115390785	-8.726000E+00	  0.115390785	4.331700E+01	  0.115390785	7.200800E+01	  0.115390785	4.177600E+01
478	  0.115591183	-8.743000E+00	  0.115591183	4.251700E+01	  0.115591183	7.283100E+01	  0.115591183	4.152100E+01
479	  0.115791589	-8.764000E+00	  0.115791589	4.165700E+01	  0.115791589	7.371400E+01	  0.115791589	4.120200E+01
480	  0.115991987	-8.781000E+00	  0.115991987	4.081700E+01	  0.115991987	7.458000E+01	  0.115991987	4.088900E+01
481	  0.116192386	-8.798000E+00	  0.116192386	3.997400E+01	  0.116192386	7.544900E+01	  0.116192386	4.054900E+01
482	  0.116392791	-8.821000E+00	  0.116392791	3.914300E+01	  0.116392791	7.629600E+01	  0.116392791	4.015700E+01
483	  0.116593190	-8.845000E+00	  0.116593190	3.822300E+01	  0.116593190	7.722900E+01	  0.116593190	3.969600E+01
484	  0.116793588	-8.871000E+00	  0.116793588	3.733000E+01	  0.116793588	7.812500E+01	  0.116793588	3.920300E+01
485	  0.116993994	-8.905000E+00	  0.116993994	3.636000E+01	  0.116993994	7.907700E+01	  0.116993994	3.860000E+01
486	  0.117194392	-8.934000E+00	  0.117194392	3.547400E+01	  0.117194392	7.993900E+01	  0.117194392	3.802700E+01
487	  0.117394790	-8.967000E+00	  0.117394790	3.451200E+01	  0.117394790	8.086100E+01	  0.117394790	3.737300E+01
488	  0.117595196	-9.013000E+00	  0.117595196	3.357300E+01	  0.117595196	8.170100E+01	  0.117595196	3.660600E+01
489	  0.117795594	-9.049000E+00	  0.117795594	3.262600E+01	  0.117795594	8.256400E+01	  0.117795594	3.587500E+01
490	  0.117995992	-9.092000E+00	  0.117995992	3.164300E+01	  0.117995992	8.341800E+01	  0.117995992	3.504400E+01
491	  0.118196398	-9.143000E+00	  0.118196398	3.059200E+01	  0.118196398	8.428800E+01	  0.118196398	3.409600E+01
492	  0.118396796	-9.192000E+00	  0.118396796	2.962400E+01	  0.118396796	8.504800E+01	  0.118396796	3.317200E+01
493	  0.118597202	-9.246000E+00	  0.118597202	2.857200E+01	  0.118597202	8.584300E+01	  0.118597202	3.214400E+01
494	  0.118797600	-9.304000E+00	  0.118797600	2.750700E+01	  0.118797600	8.659000E+01	  0.118797600	3.104300E+01
495	  0.118997999	-9.367000E+00	  0.118997999	2.641700E+01	  0.118997999	8.729900E+01	  0.118997999	2.987500E+01
496	  0.119198404	-9.430000E+00	  0.119198404	2.537200E+01	  0.119198404	8.792400E+01	  0.119198404	2.871700E+01
497	  0.119398803	-9.497000E+00	  0.119398803	2.428400E+01	  0.119398803	8.851600E+01	  0.119398803	2.747800E+01
498	  0.119599201	-9.576000E+00	  0.119599201	2.313900E+01	  0.119599201	8.904700E+01	  0.119599201	2.611700E+01
499	  0.119799607	-9.649000E+00	  0.119799607	2.197900E+01	  0.119799607	8.955900E+01	  0.119799607	2.475600E+01
500	  0.120000005	-9.732000E+00	  0.120000005	2.082100E+01	  0.120000005	8.995800E+01	  0.120000005	2.333900E+01
