! Anritsu VNA Master:             	Model: MS2036C/10/77
! SN:             	1601066
! /bd0/18may8/255.ew.m5.txt
! Existing Calibration Information:
! TYPE:             	Current Settings	Active Cal Settings
! TIME:             	05/08/2018 10:10:04 AM	05/08/2018 09:57:41 AM
! INTERNAL TEMP:    	47.0 C	46.8 C
! # POINTS:         	500	500
! START FREQ:       	20.000 MHz	20.000 MHz
! STOP FREQ:        	120.000 MHz	120.000 MHz
! SOURCE POWER:     	High	High
! IFBW:             	50 Hz	50 Hz
! AVG FACTOR:       	  1 	  1 
! REF PLANE 1:      	0 mm	0 mm
! REF PLANE 2:      	0 mm	0 mm
! CAL TYPE:         	Full S11	Full S11
! CAL METHOD:       	SOLT	SOLT
! CAL LINE TYPE:    	Coax	Coax
! DUT PORT 1:       	K-Conn(F)	K-Conn(F)
! DUT PORT 2:       	K-Conn(F)	K-Conn(F)
! CAL STATUS:       	OK: Accuracy High	--
! PROP-V:       	0.700
! CABLE LOSS:       	0.000 dB/m
! REF IMPEDANCE:       	50.0
! Trace Specific Parameters:	TR1	TR2	TR3	TR4
! TRACE.#.Y (GRAPH TYPE)	LOG MAG	PHASE	REAL IMPEDANCE	IMAGINARY IMPEDANCE
! TRACE.#.X 	FREQ.GHZ	FREQ.GHZ	FREQ.GHZ	FREQ.GHZ
! S-PARAMETER	S11	S11	S11	S11
! SMOOTH/APERTURE %	0	0	0	0
! WINDOW	NSL	NSL	NSL	NSL
! GATING	OFF	OFF	OFF	OFF
! FGTD	OFF	OFF	OFF	OFF
Marker Information per Trace:	TR1	TR2	TR3	TR4
!MK1	--	"MK1 TR2:  20.000 MHz,PH:-124.16°"	--	--
!MK2	--	--	"MK2 TR3:  70.100 200 MHz,Z:(16.721 ohm, -3.390 ohm)"	--
!MK3	--	--	--	--
!MK4	--	--	--	--
!MK5	--	--	--	--
!MK6	--	--	--	--
!MK7	--	--	--	--
!MK8	--	--	--	--
PNT	TR1.FREQ.GHZ	TR1.LOG MAG.dB	TR2.FREQ.GHZ	TR2.PHASE.deg	TR3.FREQ.GHZ	TR3.REAL IMPEDANCE.ohm	TR4.FREQ.GHZ	TR4.IMAGINARY IMPEDANCE.ohm
1	  0.020000000	-8.970000E-01	  0.020000000	-1.241620E+02	  0.020000000	3.304000E+00	  0.020000000	-2.640400E+01
2	  0.020200402	-9.030000E-01	  0.020200402	-1.255900E+02	  0.020200402	3.281000E+00	  0.020200402	-2.561300E+01
3	  0.020400802	-9.100000E-01	  0.020400802	-1.270000E+02	  0.020400802	3.266000E+00	  0.020400802	-2.484300E+01
4	  0.020601204	-9.160000E-01	  0.020601204	-1.284370E+02	  0.020601204	3.247000E+00	  0.020601204	-2.406800E+01
5	  0.020801604	-9.270000E-01	  0.020801604	-1.299100E+02	  0.020801604	3.248000E+00	  0.020801604	-2.328100E+01
6	  0.021002004	-9.390000E-01	  0.021002004	-1.313900E+02	  0.021002004	3.249000E+00	  0.021002004	-2.250100E+01
7	  0.021202406	-9.510000E-01	  0.021202406	-1.328890E+02	  0.021202406	3.254000E+00	  0.021202406	-2.172000E+01
8	  0.021402806	-9.620000E-01	  0.021402806	-1.343820E+02	  0.021402806	3.255000E+00	  0.021402806	-2.095100E+01
9	  0.021603208	-9.720000E-01	  0.021603208	-1.358800E+02	  0.021603208	3.252000E+00	  0.021603208	-2.018800E+01
10	  0.021803608	-9.830000E-01	  0.021803608	-1.373900E+02	  0.021803608	3.255000E+00	  0.021803608	-1.942700E+01
11	  0.022004008	-9.930000E-01	  0.022004008	-1.388850E+02	  0.022004008	3.255000E+00	  0.022004008	-1.868100E+01
12	  0.022204408	-1.007000E+00	  0.022204408	-1.403970E+02	  0.022204408	3.271000E+00	  0.022204408	-1.793300E+01
13	  0.022404809	-1.017000E+00	  0.022404809	-1.419310E+02	  0.022404809	3.273000E+00	  0.022404809	-1.718300E+01
14	  0.022605211	-1.026000E+00	  0.022605211	-1.434840E+02	  0.022605211	3.271000E+00	  0.022605211	-1.643100E+01
15	  0.022805611	-1.037000E+00	  0.022805611	-1.450260E+02	  0.022805611	3.276000E+00	  0.022805611	-1.569000E+01
16	  0.023006011	-1.047000E+00	  0.023006011	-1.465750E+02	  0.023006011	3.281000E+00	  0.023006011	-1.495200E+01
17	  0.023206413	-1.057000E+00	  0.023206413	-1.481020E+02	  0.023206413	3.286000E+00	  0.023206413	-1.423100E+01
18	  0.023406813	-1.064000E+00	  0.023406813	-1.496420E+02	  0.023406813	3.284000E+00	  0.023406813	-1.351000E+01
19	  0.023607215	-1.068000E+00	  0.023607215	-1.511910E+02	  0.023607215	3.274000E+00	  0.023607215	-1.279000E+01
20	  0.023807615	-1.080000E+00	  0.023807615	-1.527290E+02	  0.023807615	3.288000E+00	  0.023807615	-1.207900E+01
21	  0.024008015	-1.095000E+00	  0.024008015	-1.542920E+02	  0.024008015	3.312000E+00	  0.024008015	-1.136100E+01
22	  0.024208417	-1.108000E+00	  0.024208417	-1.558760E+02	  0.024208417	3.331000E+00	  0.024208417	-1.063800E+01
23	  0.024408817	-1.122000E+00	  0.024408817	-1.574640E+02	  0.024408817	3.352000E+00	  0.024408817	-9.918000E+00
24	  0.024609219	-1.134000E+00	  0.024609219	-1.590600E+02	  0.024609219	3.371000E+00	  0.024609219	-9.199000E+00
25	  0.024809619	-1.147000E+00	  0.024809619	-1.606650E+02	  0.024809619	3.391000E+00	  0.024809619	-8.479000E+00
26	  0.025010020	-1.160000E+00	  0.025010020	-1.622600E+02	  0.025010020	3.416000E+00	  0.025010020	-7.766000E+00
27	  0.025210422	-1.175000E+00	  0.025210422	-1.638660E+02	  0.025210422	3.446000E+00	  0.025210422	-7.053000E+00
28	  0.025410822	-1.193000E+00	  0.025410822	-1.654880E+02	  0.025410822	3.485000E+00	  0.025410822	-6.335000E+00
29	  0.025611224	-1.211000E+00	  0.025611224	-1.671580E+02	  0.025611224	3.526000E+00	  0.025611224	-5.599000E+00
30	  0.025811624	-1.228000E+00	  0.025811624	-1.688190E+02	  0.025811624	3.562000E+00	  0.025811624	-4.869000E+00
31	  0.026012026	-1.241000E+00	  0.026012026	-1.705040E+02	  0.026012026	3.592000E+00	  0.026012026	-4.131000E+00
32	  0.026212426	-1.256000E+00	  0.026212426	-1.721860E+02	  0.026212426	3.627000E+00	  0.026212426	-3.396000E+00
33	  0.026412826	-1.272000E+00	  0.026412826	-1.738690E+02	  0.026412826	3.667000E+00	  0.026412826	-2.663000E+00
34	  0.026613226	-1.291000E+00	  0.026613226	-1.755750E+02	  0.026613226	3.715000E+00	  0.026613226	-1.920000E+00
35	  0.026813626	-1.310000E+00	  0.026813626	-1.772880E+02	  0.026813626	3.765000E+00	  0.026813626	-1.176000E+00
36	  0.027014028	-1.330000E+00	  0.027014028	-1.790180E+02	  0.027014028	3.821000E+00	  0.027014028	-4.250000E-01
37	  0.027214428	-1.350000E+00	  0.027214428	1.792440E+02	  0.027214428	3.879000E+00	  0.027214428	3.270000E-01
38	  0.027414829	-1.371000E+00	  0.027414829	1.774830E+02	  0.027414829	3.940000E+00	  0.027414829	1.091000E+00
39	  0.027615231	-1.393000E+00	  0.027615231	1.757170E+02	  0.027615231	4.006000E+00	  0.027615231	1.857000E+00
40	  0.027815631	-1.417000E+00	  0.027815631	1.739460E+02	  0.027815631	4.082000E+00	  0.027815631	2.626000E+00
41	  0.028016033	-1.442000E+00	  0.028016033	1.721500E+02	  0.028016033	4.161000E+00	  0.028016033	3.406000E+00
42	  0.028216433	-1.469000E+00	  0.028216433	1.703480E+02	  0.028216433	4.249000E+00	  0.028216433	4.190000E+00
43	  0.028416833	-1.495000E+00	  0.028416833	1.685430E+02	  0.028416833	4.337000E+00	  0.028416833	4.978000E+00
44	  0.028617235	-1.521000E+00	  0.028617235	1.667490E+02	  0.028617235	4.425000E+00	  0.028617235	5.762000E+00
45	  0.028817635	-1.545000E+00	  0.028817635	1.649470E+02	  0.028817635	4.512000E+00	  0.028817635	6.553000E+00
46	  0.029018037	-1.569000E+00	  0.029018037	1.631540E+02	  0.029018037	4.602000E+00	  0.029018037	7.342000E+00
47	  0.029218437	-1.595000E+00	  0.029218437	1.613540E+02	  0.029218437	4.700000E+00	  0.029218437	8.137000E+00
48	  0.029418837	-1.624000E+00	  0.029418837	1.595680E+02	  0.029418837	4.812000E+00	  0.029418837	8.929000E+00
49	  0.029619239	-1.655000E+00	  0.029619239	1.577490E+02	  0.029619239	4.932000E+00	  0.029619239	9.740000E+00
50	  0.029819639	-1.687000E+00	  0.029819639	1.559230E+02	  0.029819639	5.059000E+00	  0.029819639	1.055800E+01
51	  0.030020041	-1.721000E+00	  0.030020041	1.540570E+02	  0.030020041	5.197000E+00	  0.030020041	1.139800E+01
52	  0.030220442	-1.754000E+00	  0.030220442	1.521820E+02	  0.030220442	5.338000E+00	  0.030220442	1.224800E+01
53	  0.030420844	-1.787000E+00	  0.030420844	1.502960E+02	  0.030420844	5.484000E+00	  0.030420844	1.310900E+01
54	  0.030621244	-1.821000E+00	  0.030621244	1.484290E+02	  0.030621244	5.636000E+00	  0.030621244	1.396800E+01
55	  0.030821644	-1.857000E+00	  0.030821644	1.465660E+02	  0.030821644	5.801000E+00	  0.030821644	1.483100E+01
56	  0.031022044	-1.895000E+00	  0.031022044	1.446820E+02	  0.031022044	5.977000E+00	  0.031022044	1.571000E+01
57	  0.031222444	-1.928000E+00	  0.031222444	1.428080E+02	  0.031222444	6.146000E+00	  0.031222444	1.659300E+01
58	  0.031422846	-1.969000E+00	  0.031422846	1.408630E+02	  0.031422846	6.347000E+00	  0.031422846	1.751800E+01
59	  0.031623244	-2.010000E+00	  0.031623244	1.389130E+02	  0.031623244	6.558000E+00	  0.031623244	1.845300E+01
60	  0.031823646	-2.048000E+00	  0.031823646	1.369580E+02	  0.031823646	6.767000E+00	  0.031823646	1.940300E+01
61	  0.032024048	-2.083000E+00	  0.032024048	1.349930E+02	  0.032024048	6.974000E+00	  0.032024048	2.036800E+01
62	  0.032224450	-2.119000E+00	  0.032224450	1.330350E+02	  0.032224450	7.195000E+00	  0.032224450	2.134200E+01
63	  0.032424849	-2.156000E+00	  0.032424849	1.310790E+02	  0.032424849	7.429000E+00	  0.032424849	2.232600E+01
64	  0.032625251	-2.193000E+00	  0.032625251	1.291080E+02	  0.032625251	7.673000E+00	  0.032625251	2.333200E+01
65	  0.032825653	-2.232000E+00	  0.032825653	1.271650E+02	  0.032825653	7.936000E+00	  0.032825653	2.433500E+01
66	  0.033026051	-2.276000E+00	  0.033026051	1.251960E+02	  0.033026051	8.226000E+00	  0.033026051	2.536400E+01
67	  0.033226453	-2.321000E+00	  0.033226453	1.232280E+02	  0.033226453	8.539000E+00	  0.033226453	2.640500E+01
68	  0.033426855	-2.371000E+00	  0.033426855	1.212810E+02	  0.033426855	8.877000E+00	  0.033426855	2.744900E+01
69	  0.033627257	-2.424000E+00	  0.033627257	1.192740E+02	  0.033627257	9.251000E+00	  0.033627257	2.853900E+01
70	  0.033827655	-2.477000E+00	  0.033827655	1.172330E+02	  0.033827655	9.647000E+00	  0.033827655	2.966600E+01
71	  0.034028057	-2.527000E+00	  0.034028057	1.151840E+02	  0.034028057	1.005200E+01	  0.034028057	3.081800E+01
72	  0.034228459	-2.579000E+00	  0.034228459	1.130840E+02	  0.034228459	1.048900E+01	  0.034228459	3.201900E+01
73	  0.034428857	-2.626000E+00	  0.034428857	1.109690E+02	  0.034428857	1.093400E+01	  0.034428857	3.325500E+01
74	  0.034629259	-2.676000E+00	  0.034629259	1.088490E+02	  0.034629259	1.141800E+01	  0.034629259	3.451500E+01
75	  0.034829661	-2.720000E+00	  0.034829661	1.067300E+02	  0.034829661	1.190200E+01	  0.034829661	3.580500E+01
76	  0.035030060	-2.764000E+00	  0.035030060	1.046200E+02	  0.035030060	1.241500E+01	  0.035030060	3.711600E+01
77	  0.035230462	-2.808000E+00	  0.035230462	1.025470E+02	  0.035230462	1.295200E+01	  0.035230462	3.843000E+01
78	  0.035430863	-2.849000E+00	  0.035430863	1.004580E+02	  0.035430863	1.351300E+01	  0.035430863	3.978600E+01
79	  0.035631265	-2.888000E+00	  0.035631265	9.839000E+01	  0.035631265	1.409300E+01	  0.035631265	4.116100E+01
80	  0.035831664	-2.934000E+00	  0.035831664	9.633700E+01	  0.035831664	1.473900E+01	  0.035831664	4.254600E+01
81	  0.036032066	-2.974000E+00	  0.036032066	9.428300E+01	  0.036032066	1.539500E+01	  0.036032066	4.397200E+01
82	  0.036232468	-3.017000E+00	  0.036232468	9.223800E+01	  0.036232468	1.611100E+01	  0.036232468	4.541800E+01
83	  0.036432866	-3.060000E+00	  0.036432866	9.023000E+01	  0.036432866	1.685900E+01	  0.036432866	4.687000E+01
84	  0.036633268	-3.107000E+00	  0.036633268	8.821100E+01	  0.036633268	1.768200E+01	  0.036633268	4.835600E+01
85	  0.036833670	-3.154000E+00	  0.036833670	8.618600E+01	  0.036833670	1.855800E+01	  0.036833670	4.988000E+01
86	  0.037034072	-3.203000E+00	  0.037034072	8.412100E+01	  0.037034072	1.951900E+01	  0.037034072	5.146700E+01
87	  0.037234470	-3.252000E+00	  0.037234470	8.203500E+01	  0.037234470	2.055200E+01	  0.037234470	5.310900E+01
88	  0.037434869	-3.293000E+00	  0.037434869	7.987200E+01	  0.037434869	2.164900E+01	  0.037434869	5.487700E+01
89	  0.037635271	-3.338000E+00	  0.037635271	7.763300E+01	  0.037635271	2.288200E+01	  0.037635271	5.675000E+01
90	  0.037835669	-3.388000E+00	  0.037835669	7.528700E+01	  0.037835669	2.430600E+01	  0.037835669	5.875300E+01
91	  0.038036071	-3.452000E+00	  0.038036071	7.289200E+01	  0.038036071	2.595900E+01	  0.038036071	6.080700E+01
92	  0.038236473	-3.534000E+00	  0.038236473	7.054800E+01	  0.038236473	2.784700E+01	  0.038236473	6.278400E+01
93	  0.038436871	-3.616000E+00	  0.038436871	6.828400E+01	  0.038436871	2.984300E+01	  0.038436871	6.469900E+01
94	  0.038637273	-3.693000E+00	  0.038637273	6.611700E+01	  0.038637273	3.189400E+01	  0.038637273	6.655600E+01
95	  0.038837675	-3.758000E+00	  0.038837675	6.400000E+01	  0.038837675	3.398500E+01	  0.038837675	6.842700E+01
96	  0.039038073	-3.818000E+00	  0.039038073	6.194400E+01	  0.039038073	3.615000E+01	  0.039038073	7.027400E+01
97	  0.039238475	-3.872000E+00	  0.039238475	5.991800E+01	  0.039238475	3.840800E+01	  0.039238475	7.213100E+01
98	  0.039438877	-3.928000E+00	  0.039438877	5.788900E+01	  0.039438877	4.086400E+01	  0.039438877	7.397600E+01
99	  0.039639279	-3.983000E+00	  0.039639279	5.585100E+01	  0.039639279	4.351200E+01	  0.039639279	7.582900E+01
100	  0.039839678	-4.042000E+00	  0.039839678	5.380000E+01	  0.039839678	4.641300E+01	  0.039839678	7.764000E+01
101	  0.040040080	-4.102000E+00	  0.040040080	5.174200E+01	  0.040040080	4.956300E+01	  0.040040080	7.940400E+01
102	  0.040240481	-4.162000E+00	  0.040240481	4.966600E+01	  0.040240481	5.297500E+01	  0.040240481	8.112900E+01
103	  0.040440880	-4.220000E+00	  0.040440880	4.752900E+01	  0.040440880	5.674900E+01	  0.040440880	8.284100E+01
104	  0.040641282	-4.278000E+00	  0.040641282	4.542300E+01	  0.040641282	6.075900E+01	  0.040641282	8.441400E+01
105	  0.040841684	-4.334000E+00	  0.040841684	4.331900E+01	  0.040841684	6.506900E+01	  0.040841684	8.584700E+01
106	  0.041042086	-4.387000E+00	  0.041042086	4.122200E+01	  0.041042086	6.966200E+01	  0.041042086	8.713500E+01
107	  0.041242484	-4.442000E+00	  0.041242484	3.910100E+01	  0.041242484	7.466400E+01	  0.041242484	8.817400E+01
108	  0.041442886	-4.493000E+00	  0.041442886	3.696800E+01	  0.041442886	8.001900E+01	  0.041442886	8.900500E+01
109	  0.041643288	-4.541000E+00	  0.041643288	3.485900E+01	  0.041643288	8.566300E+01	  0.041643288	8.951600E+01
110	  0.041843686	-4.590000E+00	  0.041843686	3.273300E+01	  0.041843686	9.170800E+01	  0.041843686	8.960200E+01
111	  0.042044088	-4.635000E+00	  0.042044088	3.065500E+01	  0.042044088	9.793900E+01	  0.042044088	8.927800E+01
112	  0.042244490	-4.678000E+00	  0.042244490	2.856300E+01	  0.042244490	1.045190E+02	  0.042244490	8.843100E+01
113	  0.042444889	-4.727000E+00	  0.042444889	2.651500E+01	  0.042444889	1.111950E+02	  0.042444889	8.685100E+01
114	  0.042645290	-4.771000E+00	  0.042645290	2.445800E+01	  0.042645290	1.180930E+02	  0.042645290	8.468300E+01
115	  0.042845692	-4.814000E+00	  0.042845692	2.242400E+01	  0.042845692	1.250220E+02	  0.042845692	8.179000E+01
116	  0.043046094	-4.859000E+00	  0.043046094	2.039500E+01	  0.043046094	1.318970E+02	  0.043046094	7.802300E+01
117	  0.043246493	-4.902000E+00	  0.043246493	1.834400E+01	  0.043246493	1.387500E+02	  0.043246493	7.341400E+01
118	  0.043446895	-4.943000E+00	  0.043446895	1.631400E+01	  0.043446895	1.452690E+02	  0.043446895	6.797100E+01
119	  0.043647297	-4.988000E+00	  0.043647297	1.429600E+01	  0.043647297	1.512430E+02	  0.043647297	6.158600E+01
120	  0.043847695	-5.029000E+00	  0.043847695	1.228000E+01	  0.043847695	1.566900E+02	  0.043847695	5.446000E+01
121	  0.044048097	-5.072000E+00	  0.044048097	1.027300E+01	  0.044048097	1.613260E+02	  0.044048097	4.657400E+01
122	  0.044248499	-5.116000E+00	  0.044248499	8.253000E+00	  0.044248499	1.650720E+02	  0.044248499	3.799300E+01
123	  0.044448901	-5.158000E+00	  0.044448901	6.270000E+00	  0.044448901	1.677630E+02	  0.044448901	2.910800E+01
124	  0.044649299	-5.197000E+00	  0.044649299	4.284000E+00	  0.044649299	1.695060E+02	  0.044649299	1.994900E+01
125	  0.044849701	-5.236000E+00	  0.044849701	2.292000E+00	  0.044849701	1.701260E+02	  0.044849701	1.063200E+01
126	  0.045050103	-5.269000E+00	  0.045050103	3.020000E-01	  0.045050103	1.698390E+02	  0.045050103	1.392000E+00
127	  0.045250501	-5.303000E+00	  0.045250501	-1.691000E+00	  0.045250501	1.684470E+02	  0.045250501	-7.658000E+00
128	  0.045450903	-5.339000E+00	  0.045450903	-3.608000E+00	  0.045450903	1.660770E+02	  0.045450903	-1.597800E+01
129	  0.045651305	-5.374000E+00	  0.045651305	-5.557000E+00	  0.045651305	1.628740E+02	  0.045651305	-2.393900E+01
130	  0.045851704	-5.409000E+00	  0.045851704	-7.496000E+00	  0.045851704	1.589530E+02	  0.045851704	-3.124100E+01
131	  0.046052106	-5.441000E+00	  0.046052106	-9.447000E+00	  0.046052106	1.544800E+02	  0.046052106	-3.794700E+01
132	  0.046252504	-5.471000E+00	  0.046252504	-1.136000E+01	  0.046252504	1.496700E+02	  0.046252504	-4.384700E+01
133	  0.046452906	-5.501000E+00	  0.046452906	-1.326400E+01	  0.046452906	1.445330E+02	  0.046452906	-4.901300E+01
134	  0.046653304	-5.527000E+00	  0.046653304	-1.519200E+01	  0.046653304	1.391870E+02	  0.046653304	-5.362800E+01
135	  0.046853706	-5.555000E+00	  0.046853706	-1.710300E+01	  0.046853706	1.337000E+02	  0.046853706	-5.747800E+01
136	  0.047054108	-5.578000E+00	  0.047054108	-1.899300E+01	  0.047054108	1.282960E+02	  0.047054108	-6.075400E+01
137	  0.047254506	-5.599000E+00	  0.047254506	-2.089300E+01	  0.047254506	1.228830E+02	  0.047254506	-6.348300E+01
138	  0.047454908	-5.623000E+00	  0.047454908	-2.274800E+01	  0.047454908	1.176440E+02	  0.047454908	-6.558600E+01
139	  0.047655310	-5.642000E+00	  0.047655310	-2.459300E+01	  0.047655310	1.125780E+02	  0.047655310	-6.729200E+01
140	  0.047855709	-5.666000E+00	  0.047855709	-2.642400E+01	  0.047855709	1.076580E+02	  0.047855709	-6.847400E+01
141	  0.048056111	-5.686000E+00	  0.048056111	-2.822500E+01	  0.048056111	1.030070E+02	  0.048056111	-6.934900E+01
142	  0.048256513	-5.707000E+00	  0.048256513	-3.001900E+01	  0.048256513	9.854500E+01	  0.048256513	-6.988400E+01
143	  0.048456915	-5.731000E+00	  0.048456915	-3.183500E+01	  0.048456915	9.421500E+01	  0.048456915	-7.011400E+01
144	  0.048657313	-5.749000E+00	  0.048657313	-3.360200E+01	  0.048657313	9.020300E+01	  0.048657313	-7.017800E+01
145	  0.048857715	-5.765000E+00	  0.048857715	-3.540700E+01	  0.048857715	8.629800E+01	  0.048857715	-7.006300E+01
146	  0.049058117	-5.783000E+00	  0.049058117	-3.717300E+01	  0.049058117	8.266200E+01	  0.049058117	-6.974500E+01
147	  0.049258515	-5.795000E+00	  0.049258515	-3.893900E+01	  0.049258515	7.920200E+01	  0.049258515	-6.934700E+01
148	  0.049458917	-5.813000E+00	  0.049458917	-4.066400E+01	  0.049458917	7.600400E+01	  0.049458917	-6.874300E+01
149	  0.049659319	-5.830000E+00	  0.049659319	-4.240700E+01	  0.049659319	7.293400E+01	  0.049659319	-6.805500E+01
150	  0.049859721	-5.848000E+00	  0.049859721	-4.413900E+01	  0.049859721	7.005200E+01	  0.049859721	-6.725300E+01
151	  0.050060119	-5.861000E+00	  0.050060119	-4.585400E+01	  0.050060119	6.733600E+01	  0.050060119	-6.644600E+01
152	  0.050260521	-5.871000E+00	  0.050260521	-4.758600E+01	  0.050260521	6.473200E+01	  0.050260521	-6.558500E+01
153	  0.050460923	-5.883000E+00	  0.050460923	-4.929800E+01	  0.050460923	6.229600E+01	  0.050460923	-6.466000E+01
154	  0.050661322	-5.891000E+00	  0.050661322	-5.099900E+01	  0.050661322	5.999100E+01	  0.050661322	-6.373600E+01
155	  0.050861724	-5.895000E+00	  0.050861724	-5.266800E+01	  0.050861724	5.783200E+01	  0.050861724	-6.282000E+01
156	  0.051062126	-5.904000E+00	  0.051062126	-5.431800E+01	  0.051062126	5.582500E+01	  0.051062126	-6.183800E+01
157	  0.051262524	-5.909000E+00	  0.051262524	-5.593900E+01	  0.051262524	5.394000E+01	  0.051262524	-6.087700E+01
158	  0.051462926	-5.916000E+00	  0.051462926	-5.754800E+01	  0.051462926	5.216800E+01	  0.051462926	-5.988800E+01
159	  0.051663328	-5.920000E+00	  0.051663328	-5.913400E+01	  0.051663328	5.049700E+01	  0.051663328	-5.891700E+01
160	  0.051863730	-5.927000E+00	  0.051863730	-6.070300E+01	  0.051863730	4.893200E+01	  0.051863730	-5.793100E+01
161	  0.052064128	-5.937000E+00	  0.052064128	-6.225200E+01	  0.052064128	4.747500E+01	  0.052064128	-5.692800E+01
162	  0.052264530	-5.945000E+00	  0.052264530	-6.383400E+01	  0.052264530	4.605000E+01	  0.052264530	-5.591500E+01
163	  0.052464932	-5.953000E+00	  0.052464932	-6.538300E+01	  0.052464932	4.472500E+01	  0.052464932	-5.491700E+01
164	  0.052665330	-5.964000E+00	  0.052665330	-6.694300E+01	  0.052665330	4.346400E+01	  0.052665330	-5.389800E+01
165	  0.052865732	-5.975000E+00	  0.052865732	-6.850800E+01	  0.052865732	4.225600E+01	  0.052865732	-5.288300E+01
166	  0.053066134	-5.984000E+00	  0.053066134	-7.002900E+01	  0.053066134	4.113400E+01	  0.053066134	-5.190400E+01
167	  0.053266536	-5.989000E+00	  0.053266536	-7.159300E+01	  0.053266536	4.001400E+01	  0.053266536	-5.092600E+01
168	  0.053466935	-5.997000E+00	  0.053466935	-7.313400E+01	  0.053466935	3.897300E+01	  0.053466935	-4.995400E+01
169	  0.053667337	-5.998000E+00	  0.053667337	-7.465700E+01	  0.053667337	3.796600E+01	  0.053667337	-4.902700E+01
170	  0.053867739	-6.000000E+00	  0.053867739	-7.616400E+01	  0.053867739	3.701600E+01	  0.053867739	-4.811100E+01
171	  0.054068137	-6.002000E+00	  0.054068137	-7.764500E+01	  0.054068137	3.612200E+01	  0.054068137	-4.721500E+01
172	  0.054268539	-6.008000E+00	  0.054268539	-7.914400E+01	  0.054268539	3.527200E+01	  0.054268539	-4.629900E+01
173	  0.054468941	-6.004000E+00	  0.054468941	-8.057600E+01	  0.054468941	3.446000E+01	  0.054468941	-4.546400E+01
174	  0.054669339	-6.012000E+00	  0.054669339	-8.199800E+01	  0.054669339	3.372800E+01	  0.054669339	-4.460200E+01
175	  0.054869737	-6.016000E+00	  0.054869737	-8.341900E+01	  0.054869737	3.301000E+01	  0.054869737	-4.376100E+01
176	  0.055070139	-6.022000E+00	  0.055070139	-8.479100E+01	  0.055070139	3.235700E+01	  0.055070139	-4.294700E+01
177	  0.055270538	-6.027000E+00	  0.055270538	-8.619700E+01	  0.055270538	3.170700E+01	  0.055270538	-4.212600E+01
178	  0.055470940	-6.037000E+00	  0.055470940	-8.758200E+01	  0.055470940	3.110900E+01	  0.055470940	-4.131100E+01
179	  0.055671342	-6.041000E+00	  0.055671342	-8.898000E+01	  0.055671342	3.051100E+01	  0.055671342	-4.051000E+01
180	  0.055871744	-6.044000E+00	  0.055871744	-9.036100E+01	  0.055871744	2.993600E+01	  0.055871744	-3.973200E+01
181	  0.056072142	-6.051000E+00	  0.056072142	-9.175900E+01	  0.056072142	2.939400E+01	  0.056072142	-3.894000E+01
182	  0.056272544	-6.055000E+00	  0.056272544	-9.311800E+01	  0.056272544	2.887500E+01	  0.056272544	-3.818600E+01
183	  0.056472946	-6.061000E+00	  0.056472946	-9.450400E+01	  0.056472946	2.837200E+01	  0.056472946	-3.741900E+01
184	  0.056673344	-6.062000E+00	  0.056673344	-9.586900E+01	  0.056673344	2.787900E+01	  0.056673344	-3.668200E+01
185	  0.056873746	-6.064000E+00	  0.056873746	-9.722100E+01	  0.056873746	2.741200E+01	  0.056873746	-3.595700E+01
186	  0.057074148	-6.060000E+00	  0.057074148	-9.859700E+01	  0.057074148	2.693500E+01	  0.057074148	-3.523800E+01
187	  0.057274550	-6.056000E+00	  0.057274550	-9.992900E+01	  0.057274550	2.648500E+01	  0.057274550	-3.454900E+01
188	  0.057474948	-6.052000E+00	  0.057474948	-1.012590E+02	  0.057474948	2.605400E+01	  0.057474948	-3.386600E+01
189	  0.057675350	-6.046000E+00	  0.057675350	-1.025560E+02	  0.057675350	2.564100E+01	  0.057675350	-3.320800E+01
190	  0.057875752	-6.039000E+00	  0.057875752	-1.038660E+02	  0.057875752	2.523700E+01	  0.057875752	-3.255000E+01
191	  0.058076151	-6.034000E+00	  0.058076151	-1.051450E+02	  0.058076151	2.486000E+01	  0.058076151	-3.190900E+01
192	  0.058276553	-6.024000E+00	  0.058276553	-1.064060E+02	  0.058276553	2.448300E+01	  0.058276553	-3.129100E+01
193	  0.058476955	-6.020000E+00	  0.058476955	-1.076530E+02	  0.058476955	2.414200E+01	  0.058476955	-3.067400E+01
194	  0.058677353	-6.014000E+00	  0.058677353	-1.089020E+02	  0.058677353	2.380600E+01	  0.058677353	-3.006300E+01
195	  0.058877755	-6.009000E+00	  0.058877755	-1.101680E+02	  0.058877755	2.347700E+01	  0.058877755	-2.944700E+01
196	  0.059078157	-6.006000E+00	  0.059078157	-1.114020E+02	  0.059078157	2.317400E+01	  0.059078157	-2.884800E+01
197	  0.059278559	-5.998000E+00	  0.059278559	-1.126440E+02	  0.059278559	2.286500E+01	  0.059278559	-2.825500E+01
198	  0.059478957	-5.996000E+00	  0.059478957	-1.139040E+02	  0.059478957	2.258000E+01	  0.059478957	-2.765000E+01
199	  0.059679359	-5.989000E+00	  0.059679359	-1.151640E+02	  0.059679359	2.228800E+01	  0.059679359	-2.705600E+01
200	  0.059879761	-5.987000E+00	  0.059879761	-1.163930E+02	  0.059879761	2.202600E+01	  0.059879761	-2.647500E+01
201	  0.060080159	-5.977000E+00	  0.060080159	-1.176300E+02	  0.060080159	2.174900E+01	  0.060080159	-2.590300E+01
202	  0.060280561	-5.978000E+00	  0.060280561	-1.188700E+02	  0.060280561	2.150900E+01	  0.060280561	-2.532100E+01
203	  0.060480963	-5.971000E+00	  0.060480963	-1.200980E+02	  0.060480963	2.125800E+01	  0.060480963	-2.475800E+01
204	  0.060681365	-5.967000E+00	  0.060681365	-1.213020E+02	  0.060681365	2.102900E+01	  0.060681365	-2.420500E+01
205	  0.060881764	-5.957000E+00	  0.060881764	-1.224950E+02	  0.060881764	2.079200E+01	  0.060881764	-2.366700E+01
206	  0.061082166	-5.954000E+00	  0.061082166	-1.237160E+02	  0.061082166	2.057700E+01	  0.061082166	-2.311200E+01
207	  0.061282568	-5.952000E+00	  0.061282568	-1.249290E+02	  0.061282568	2.037100E+01	  0.061282568	-2.256400E+01
208	  0.061482966	-5.941000E+00	  0.061482966	-1.260980E+02	  0.061482966	2.015500E+01	  0.061482966	-2.204700E+01
209	  0.061683368	-5.939000E+00	  0.061683368	-1.272510E+02	  0.061683368	1.997200E+01	  0.061683368	-2.153200E+01
210	  0.061883770	-5.938000E+00	  0.061883770	-1.284070E+02	  0.061883770	1.979900E+01	  0.061883770	-2.101700E+01
211	  0.062084168	-5.933000E+00	  0.062084168	-1.295520E+02	  0.062084168	1.962100E+01	  0.062084168	-2.051300E+01
212	  0.062284570	-5.931000E+00	  0.062284570	-1.306920E+02	  0.062284570	1.945700E+01	  0.062284570	-2.001200E+01
213	  0.062484972	-5.924000E+00	  0.062484972	-1.317780E+02	  0.062484972	1.929100E+01	  0.062484972	-1.954200E+01
214	  0.062685370	-5.924000E+00	  0.062685370	-1.329270E+02	  0.062685370	1.914200E+01	  0.062685370	-1.904000E+01
215	  0.062885776	-5.930000E+00	  0.062885776	-1.340630E+02	  0.062885776	1.901800E+01	  0.062885776	-1.854100E+01
216	  0.063086174	-5.928000E+00	  0.063086174	-1.352200E+02	  0.063086174	1.887300E+01	  0.063086174	-1.804300E+01
217	  0.063286573	-5.931000E+00	  0.063286573	-1.363790E+02	  0.063286573	1.874700E+01	  0.063286573	-1.754200E+01
218	  0.063486971	-5.930000E+00	  0.063486971	-1.375400E+02	  0.063486971	1.861200E+01	  0.063486971	-1.704600E+01
219	  0.063687377	-5.930000E+00	  0.063687377	-1.386750E+02	  0.063687377	1.849000E+01	  0.063687377	-1.656300E+01
220	  0.063887775	-5.926000E+00	  0.063887775	-1.398190E+02	  0.063887775	1.835700E+01	  0.063887775	-1.608200E+01
221	  0.064088173	-5.925000E+00	  0.064088173	-1.409470E+02	  0.064088173	1.824100E+01	  0.064088173	-1.560600E+01
222	  0.064288579	-5.925000E+00	  0.064288579	-1.420410E+02	  0.064288579	1.813300E+01	  0.064288579	-1.514700E+01
223	  0.064488977	-5.923000E+00	  0.064488977	-1.431460E+02	  0.064488977	1.802400E+01	  0.064488977	-1.468600E+01
224	  0.064689375	-5.924000E+00	  0.064689375	-1.442570E+02	  0.064689375	1.792700E+01	  0.064689375	-1.422300E+01
225	  0.064889781	-5.924000E+00	  0.064889781	-1.453560E+02	  0.064889781	1.783000E+01	  0.064889781	-1.376700E+01
226	  0.065090179	-5.919000E+00	  0.065090179	-1.463820E+02	  0.065090179	1.773100E+01	  0.065090179	-1.334600E+01
227	  0.065290578	-5.923000E+00	  0.065290578	-1.474810E+02	  0.065290578	1.765300E+01	  0.065290578	-1.289100E+01
228	  0.065490983	-5.926000E+00	  0.065490983	-1.485240E+02	  0.065490983	1.757800E+01	  0.065490983	-1.246200E+01
229	  0.065691382	-5.924000E+00	  0.065691382	-1.496080E+02	  0.065691382	1.749100E+01	  0.065691382	-1.202000E+01
230	  0.065891780	-5.926000E+00	  0.065891780	-1.506480E+02	  0.065891780	1.742400E+01	  0.065891780	-1.159500E+01
231	  0.066092186	-5.931000E+00	  0.066092186	-1.516910E+02	  0.066092186	1.736500E+01	  0.066092186	-1.116900E+01
232	  0.066292584	-5.934000E+00	  0.066292584	-1.527250E+02	  0.066292584	1.730500E+01	  0.066292584	-1.074900E+01
233	  0.066492982	-5.940000E+00	  0.066492982	-1.537660E+02	  0.066492982	1.725400E+01	  0.066492982	-1.032700E+01
234	  0.066693388	-5.940000E+00	  0.066693388	-1.547910E+02	  0.066693388	1.719200E+01	  0.066693388	-9.914000E+00
235	  0.066893786	-5.939000E+00	  0.066893786	-1.558120E+02	  0.066893786	1.713000E+01	  0.066893786	-9.505000E+00
236	  0.067094192	-5.948000E+00	  0.067094192	-1.568020E+02	  0.067094192	1.709900E+01	  0.067094192	-9.105000E+00
237	  0.067294590	-5.951000E+00	  0.067294590	-1.578180E+02	  0.067294590	1.705000E+01	  0.067294590	-8.698000E+00
238	  0.067494988	-5.958000E+00	  0.067494988	-1.588280E+02	  0.067494988	1.702000E+01	  0.067494988	-8.293000E+00
239	  0.067695394	-5.962000E+00	  0.067695394	-1.598210E+02	  0.067695394	1.698200E+01	  0.067695394	-7.898000E+00
240	  0.067895792	-5.963000E+00	  0.067895792	-1.608120E+02	  0.067895792	1.693900E+01	  0.067895792	-7.505000E+00
241	  0.068096191	-5.972000E+00	  0.068096191	-1.617900E+02	  0.068096191	1.691900E+01	  0.068096191	-7.115000E+00
242	  0.068296596	-5.977000E+00	  0.068296596	-1.627550E+02	  0.068296596	1.689400E+01	  0.068296596	-6.733000E+00
243	  0.068496995	-5.977000E+00	  0.068496995	-1.637380E+02	  0.068496995	1.685700E+01	  0.068496995	-6.345000E+00
244	  0.068697393	-5.983000E+00	  0.068697393	-1.647080E+02	  0.068697393	1.683800E+01	  0.068697393	-5.962000E+00
245	  0.068897791	-5.987000E+00	  0.068897791	-1.656380E+02	  0.068897791	1.681600E+01	  0.068897791	-5.596000E+00
246	  0.069098189	-5.990000E+00	  0.069098189	-1.666010E+02	  0.069098189	1.679300E+01	  0.069098189	-5.218000E+00
247	  0.069298595	-5.991000E+00	  0.069298595	-1.675320E+02	  0.069298595	1.676700E+01	  0.069298595	-4.853000E+00
248	  0.069498993	-5.997000E+00	  0.069498993	-1.684760E+02	  0.069498993	1.675600E+01	  0.069498993	-4.483000E+00
249	  0.069699399	-6.004000E+00	  0.069699399	-1.694310E+02	  0.069699399	1.675200E+01	  0.069699399	-4.109000E+00
250	  0.069899797	-6.006000E+00	  0.069899797	-1.703410E+02	  0.069899797	1.673600E+01	  0.069899797	-3.754000E+00
251	  0.070100196	-6.008000E+00	  0.070100196	-1.712760E+02	  0.070100196	1.672100E+01	  0.070100196	-3.389000E+00
252	  0.070300601	-6.009000E+00	  0.070300601	-1.722120E+02	  0.070300601	1.670500E+01	  0.070300601	-3.024000E+00
253	  0.070501000	-6.012000E+00	  0.070501000	-1.731370E+02	  0.070501000	1.669900E+01	  0.070501000	-2.664000E+00
254	  0.070701398	-6.015000E+00	  0.070701398	-1.740400E+02	  0.070701398	1.669300E+01	  0.070701398	-2.313000E+00
255	  0.070901804	-6.013000E+00	  0.070901804	-1.749860E+02	  0.070901804	1.667700E+01	  0.070901804	-1.945000E+00
256	  0.071102202	-6.012000E+00	  0.071102202	-1.759040E+02	  0.071102202	1.666400E+01	  0.071102202	-1.589000E+00
257	  0.071302600	-6.016000E+00	  0.071302600	-1.768150E+02	  0.071302600	1.666800E+01	  0.071302600	-1.235000E+00
258	  0.071503006	-6.017000E+00	  0.071503006	-1.777070E+02	  0.071503006	1.666300E+01	  0.071503006	-8.890000E-01
259	  0.071703404	-6.015000E+00	  0.071703404	-1.786200E+02	  0.071703404	1.665600E+01	  0.071703404	-5.350000E-01
260	  0.071903802	-6.016000E+00	  0.071903802	-1.794700E+02	  0.071903802	1.665500E+01	  0.071903802	-2.050000E-01
261	  0.072104208	-6.019000E+00	  0.072104208	1.796100E+02	  0.072104208	1.666500E+01	  0.072104208	1.510000E-01
262	  0.072304606	-6.019000E+00	  0.072304606	1.787300E+02	  0.072304606	1.666600E+01	  0.072304606	4.920000E-01
263	  0.072505005	-6.020000E+00	  0.072505005	1.778220E+02	  0.072505005	1.667300E+01	  0.072505005	8.440000E-01
264	  0.072705410	-6.025000E+00	  0.072705410	1.769430E+02	  0.072705410	1.669000E+01	  0.072705410	1.185000E+00
265	  0.072905809	-6.024000E+00	  0.072905809	1.760410E+02	  0.072905809	1.669300E+01	  0.072905809	1.535000E+00
266	  0.073106214	-6.024000E+00	  0.073106214	1.751770E+02	  0.073106214	1.670400E+01	  0.073106214	1.870000E+00
267	  0.073306613	-6.032000E+00	  0.073306613	1.742860E+02	  0.073306613	1.673300E+01	  0.073306613	2.216000E+00
268	  0.073507011	-6.034000E+00	  0.073507011	1.734200E+02	  0.073507011	1.675000E+01	  0.073507011	2.552000E+00
269	  0.073707417	-6.038000E+00	  0.073707417	1.725420E+02	  0.073707417	1.677500E+01	  0.073707417	2.893000E+00
270	  0.073907815	-6.035000E+00	  0.073907815	1.716450E+02	  0.073907815	1.678400E+01	  0.073907815	3.242000E+00
271	  0.074108213	-6.045000E+00	  0.074108213	1.707780E+02	  0.074108213	1.682800E+01	  0.074108213	3.578000E+00
272	  0.074308619	-6.047000E+00	  0.074308619	1.699280E+02	  0.074308619	1.685000E+01	  0.074308619	3.908000E+00
273	  0.074509017	-6.056000E+00	  0.074509017	1.690040E+02	  0.074509017	1.689500E+01	  0.074509017	4.267000E+00
274	  0.074709415	-6.059000E+00	  0.074709415	1.681540E+02	  0.074709415	1.692500E+01	  0.074709415	4.598000E+00
275	  0.074909821	-6.065000E+00	  0.074909821	1.672690E+02	  0.074909821	1.696600E+01	  0.074909821	4.942000E+00
276	  0.075110219	-6.072000E+00	  0.075110219	1.664190E+02	  0.075110219	1.701100E+01	  0.075110219	5.272000E+00
277	  0.075310618	-6.079000E+00	  0.075310618	1.655410E+02	  0.075310618	1.705600E+01	  0.075310618	5.614000E+00
278	  0.075511023	-6.087000E+00	  0.075511023	1.647080E+02	  0.075511023	1.710700E+01	  0.075511023	5.938000E+00
279	  0.075711422	-6.096000E+00	  0.075711422	1.638680E+02	  0.075711422	1.715900E+01	  0.075711422	6.265000E+00
280	  0.075911827	-6.105000E+00	  0.075911827	1.629930E+02	  0.075911827	1.721500E+01	  0.075911827	6.606000E+00
281	  0.076112226	-6.111000E+00	  0.076112226	1.621300E+02	  0.076112226	1.726600E+01	  0.076112226	6.943000E+00
282	  0.076312624	-6.117000E+00	  0.076312624	1.612590E+02	  0.076312624	1.732100E+01	  0.076312624	7.283000E+00
283	  0.076513030	-6.132000E+00	  0.076513030	1.603850E+02	  0.076513030	1.739900E+01	  0.076513030	7.623000E+00
284	  0.076713428	-6.138000E+00	  0.076713428	1.595220E+02	  0.076713428	1.745400E+01	  0.076713428	7.961000E+00
285	  0.076913826	-6.146000E+00	  0.076913826	1.586540E+02	  0.076913826	1.752000E+01	  0.076913826	8.301000E+00
286	  0.077114232	-6.152000E+00	  0.077114232	1.578180E+02	  0.077114232	1.757700E+01	  0.077114232	8.629000E+00
287	  0.077314630	-6.161000E+00	  0.077314630	1.569790E+02	  0.077314630	1.764600E+01	  0.077314630	8.958000E+00
288	  0.077515028	-6.167000E+00	  0.077515028	1.561710E+02	  0.077515028	1.770900E+01	  0.077515028	9.275000E+00
289	  0.077715434	-6.177000E+00	  0.077715434	1.553130E+02	  0.077715434	1.778400E+01	  0.077715434	9.612000E+00
290	  0.077915832	-6.186000E+00	  0.077915832	1.544870E+02	  0.077915832	1.785800E+01	  0.077915832	9.937000E+00
291	  0.078116231	-6.195000E+00	  0.078116231	1.536740E+02	  0.078116231	1.793400E+01	  0.078116231	1.025700E+01
292	  0.078316636	-6.209000E+00	  0.078316636	1.528370E+02	  0.078316636	1.802400E+01	  0.078316636	1.058500E+01
293	  0.078517035	-6.220000E+00	  0.078517035	1.520010E+02	  0.078517035	1.811000E+01	  0.078517035	1.091400E+01
294	  0.078717433	-6.232000E+00	  0.078717433	1.511920E+02	  0.078717433	1.819900E+01	  0.078717433	1.123200E+01
295	  0.078917839	-6.247000E+00	  0.078917839	1.503510E+02	  0.078917839	1.830000E+01	  0.078917839	1.156200E+01
296	  0.079118237	-6.259000E+00	  0.079118237	1.495900E+02	  0.079118237	1.838800E+01	  0.079118237	1.186200E+01
297	  0.079318643	-6.271000E+00	  0.079318643	1.487750E+02	  0.079318643	1.848400E+01	  0.079318643	1.218300E+01
298	  0.079519041	-6.283000E+00	  0.079519041	1.479580E+02	  0.079519041	1.858000E+01	  0.079519041	1.250600E+01
299	  0.079719439	-6.300000E+00	  0.079719439	1.471640E+02	  0.079719439	1.869000E+01	  0.079719439	1.281800E+01
300	  0.079919845	-6.312000E+00	  0.079919845	1.463690E+02	  0.079919845	1.879200E+01	  0.079919845	1.313200E+01
301	  0.080120243	-6.328000E+00	  0.080120243	1.455540E+02	  0.080120243	1.890500E+01	  0.080120243	1.345300E+01
302	  0.080320641	-6.339000E+00	  0.080320641	1.447470E+02	  0.080320641	1.900700E+01	  0.080320641	1.377500E+01
303	  0.080521047	-6.354000E+00	  0.080521047	1.439700E+02	  0.080521047	1.911800E+01	  0.080521047	1.408200E+01
304	  0.080721445	-6.368000E+00	  0.080721445	1.431980E+02	  0.080721445	1.923100E+01	  0.080721445	1.438700E+01
305	  0.080921844	-6.381000E+00	  0.080921844	1.424100E+02	  0.080921844	1.934300E+01	  0.080921844	1.470100E+01
306	  0.081122249	-6.398000E+00	  0.081122249	1.416150E+02	  0.081122249	1.946900E+01	  0.081122249	1.501500E+01
307	  0.081322648	-6.412000E+00	  0.081322648	1.408390E+02	  0.081322648	1.958500E+01	  0.081322648	1.532300E+01
308	  0.081523046	-6.426000E+00	  0.081523046	1.400510E+02	  0.081523046	1.970900E+01	  0.081523046	1.563700E+01
309	  0.081723452	-6.442000E+00	  0.081723452	1.392840E+02	  0.081723452	1.983600E+01	  0.081723452	1.594100E+01
310	  0.081923850	-6.458000E+00	  0.081923850	1.385210E+02	  0.081923850	1.996400E+01	  0.081923850	1.624400E+01
311	  0.082124248	-6.473000E+00	  0.082124248	1.377710E+02	  0.082124248	2.009000E+01	  0.082124248	1.654300E+01
312	  0.082324654	-6.487000E+00	  0.082324654	1.370210E+02	  0.082324654	2.021800E+01	  0.082324654	1.684300E+01
313	  0.082525052	-6.511000E+00	  0.082525052	1.363060E+02	  0.082525052	2.036800E+01	  0.082525052	1.712000E+01
314	  0.082725458	-6.526000E+00	  0.082725458	1.355590E+02	  0.082725458	2.050200E+01	  0.082725458	1.741800E+01
315	  0.082925856	-6.546000E+00	  0.082925856	1.348170E+02	  0.082925856	2.065000E+01	  0.082925856	1.771100E+01
316	  0.083126254	-6.567000E+00	  0.083126254	1.340600E+02	  0.083126254	2.080500E+01	  0.083126254	1.800900E+01
317	  0.083326660	-6.583000E+00	  0.083326660	1.333020E+02	  0.083326660	2.095100E+01	  0.083326660	1.831100E+01
318	  0.083527058	-6.600000E+00	  0.083527058	1.325510E+02	  0.083527058	2.109800E+01	  0.083527058	1.861100E+01
319	  0.083727457	-6.621000E+00	  0.083727457	1.318030E+02	  0.083727457	2.126000E+01	  0.083727457	1.890500E+01
320	  0.083927862	-6.637000E+00	  0.083927862	1.310750E+02	  0.083927862	2.141000E+01	  0.083927862	1.919500E+01
321	  0.084128261	-6.649000E+00	  0.084128261	1.303320E+02	  0.084128261	2.155100E+01	  0.084128261	1.949700E+01
322	  0.084328659	-6.668000E+00	  0.084328659	1.296380E+02	  0.084328659	2.170600E+01	  0.084328659	1.977100E+01
323	  0.084529065	-6.687000E+00	  0.084529065	1.289610E+02	  0.084529065	2.186100E+01	  0.084529065	2.003900E+01
324	  0.084729463	-6.708000E+00	  0.084729463	1.282390E+02	  0.084729463	2.203100E+01	  0.084729463	2.032300E+01
325	  0.084929861	-6.727000E+00	  0.084929861	1.275260E+02	  0.084929861	2.219600E+01	  0.084929861	2.060600E+01
326	  0.085130267	-6.748000E+00	  0.085130267	1.268330E+02	  0.085130267	2.236800E+01	  0.085130267	2.087700E+01
327	  0.085330658	-6.771000E+00	  0.085330658	1.261200E+02	  0.085330658	2.254800E+01	  0.085330658	2.115600E+01
328	  0.085531056	-6.794000E+00	  0.085531056	1.254640E+02	  0.085531056	2.272600E+01	  0.085531056	2.140900E+01
329	  0.085731462	-6.815000E+00	  0.085731462	1.247820E+02	  0.085731462	2.290000E+01	  0.085731462	2.167700E+01
330	  0.085931860	-6.840000E+00	  0.085931860	1.241100E+02	  0.085931860	2.308800E+01	  0.085931860	2.193500E+01
331	  0.086132258	-6.864000E+00	  0.086132258	1.234620E+02	  0.086132258	2.327300E+01	  0.086132258	2.218300E+01
332	  0.086332664	-6.890000E+00	  0.086332664	1.227870E+02	  0.086332664	2.346800E+01	  0.086332664	2.244200E+01
333	  0.086533062	-6.914000E+00	  0.086533062	1.220790E+02	  0.086533062	2.366800E+01	  0.086533062	2.271500E+01
334	  0.086733460	-6.942000E+00	  0.086733460	1.213890E+02	  0.086733460	2.387800E+01	  0.086733460	2.297600E+01
335	  0.086933866	-6.966000E+00	  0.086933866	1.206940E+02	  0.086933866	2.408100E+01	  0.086933866	2.324300E+01
336	  0.087134264	-6.989000E+00	  0.087134264	1.199450E+02	  0.087134264	2.429500E+01	  0.087134264	2.353500E+01
337	  0.087334670	-7.011000E+00	  0.087334670	1.192750E+02	  0.087334670	2.449200E+01	  0.087334670	2.379400E+01
338	  0.087535068	-7.038000E+00	  0.087535068	1.185700E+02	  0.087535068	2.471100E+01	  0.087535068	2.406200E+01
339	  0.087735467	-7.064000E+00	  0.087735467	1.179190E+02	  0.087735467	2.492300E+01	  0.087735467	2.430600E+01
340	  0.087935872	-7.090000E+00	  0.087935872	1.172310E+02	  0.087935872	2.514200E+01	  0.087935872	2.456700E+01
341	  0.088136271	-7.115000E+00	  0.088136271	1.165630E+02	  0.088136271	2.536100E+01	  0.088136271	2.481800E+01
342	  0.088336669	-7.138000E+00	  0.088336669	1.159010E+02	  0.088336669	2.557300E+01	  0.088336669	2.507000E+01
343	  0.088537075	-7.162000E+00	  0.088537075	1.152240E+02	  0.088537075	2.579400E+01	  0.088537075	2.532700E+01
344	  0.088737473	-7.183000E+00	  0.088737473	1.145600E+02	  0.088737473	2.600700E+01	  0.088737473	2.558200E+01
345	  0.088937871	-7.208000E+00	  0.088937871	1.138910E+02	  0.088937871	2.623500E+01	  0.088937871	2.583300E+01
346	  0.089138277	-7.233000E+00	  0.089138277	1.132440E+02	  0.089138277	2.645900E+01	  0.089138277	2.607400E+01
347	  0.089338675	-7.258000E+00	  0.089338675	1.126230E+02	  0.089338675	2.668400E+01	  0.089338675	2.630200E+01
348	  0.089539073	-7.281000E+00	  0.089539073	1.119780E+02	  0.089539073	2.690900E+01	  0.089539073	2.654400E+01
349	  0.089739479	-7.311000E+00	  0.089739479	1.113200E+02	  0.089739479	2.715900E+01	  0.089739479	2.677900E+01
350	  0.089939877	-7.333000E+00	  0.089939877	1.106700E+02	  0.089939877	2.738800E+01	  0.089939877	2.702400E+01
351	  0.090140276	-7.357000E+00	  0.090140276	1.100320E+02	  0.090140276	2.762400E+01	  0.090140276	2.725800E+01
352	  0.090340681	-7.379000E+00	  0.090340681	1.093970E+02	  0.090340681	2.785400E+01	  0.090340681	2.749500E+01
353	  0.090541080	-7.404000E+00	  0.090541080	1.087440E+02	  0.090541080	2.810100E+01	  0.090541080	2.773300E+01
354	  0.090741485	-7.428000E+00	  0.090741485	1.081090E+02	  0.090741485	2.834400E+01	  0.090741485	2.796500E+01
355	  0.090941884	-7.448000E+00	  0.090941884	1.074940E+02	  0.090941884	2.857300E+01	  0.090941884	2.819400E+01
356	  0.091142282	-7.471000E+00	  0.091142282	1.068950E+02	  0.091142282	2.880900E+01	  0.091142282	2.840900E+01
357	  0.091342688	-7.498000E+00	  0.091342688	1.062700E+02	  0.091342688	2.906600E+01	  0.091342688	2.862800E+01
358	  0.091543086	-7.522000E+00	  0.091543086	1.056910E+02	  0.091543086	2.930400E+01	  0.091543086	2.883100E+01
359	  0.091743484	-7.541000E+00	  0.091743484	1.050780E+02	  0.091743484	2.953800E+01	  0.091743484	2.906000E+01
360	  0.091943890	-7.563000E+00	  0.091943890	1.045070E+02	  0.091943890	2.977300E+01	  0.091943890	2.926200E+01
361	  0.092144288	-7.586000E+00	  0.092144288	1.039670E+02	  0.092144288	3.000500E+01	  0.092144288	2.944800E+01
362	  0.092344686	-7.612000E+00	  0.092344686	1.034040E+02	  0.092344686	3.025300E+01	  0.092344686	2.963800E+01
363	  0.092545092	-7.638000E+00	  0.092545092	1.028420E+02	  0.092545092	3.050400E+01	  0.092545092	2.982500E+01
364	  0.092745490	-7.664000E+00	  0.092745490	1.023160E+02	  0.092745490	3.074600E+01	  0.092745490	2.999600E+01
365	  0.092945889	-7.698000E+00	  0.092945889	1.017660E+02	  0.092945889	3.102000E+01	  0.092945889	3.015800E+01
366	  0.093146294	-7.727000E+00	  0.093146294	1.012360E+02	  0.093146294	3.127600E+01	  0.093146294	3.032100E+01
367	  0.093346693	-7.756000E+00	  0.093346693	1.007110E+02	  0.093346693	3.153300E+01	  0.093346693	3.048000E+01
368	  0.093547091	-7.785000E+00	  0.093547091	1.001770E+02	  0.093547091	3.179600E+01	  0.093547091	3.064100E+01
369	  0.093747497	-7.821000E+00	  0.093747497	9.964700E+01	  0.093747497	3.207700E+01	  0.093747497	3.078400E+01
370	  0.093947895	-7.852000E+00	  0.093947895	9.911900E+01	  0.093947895	3.234600E+01	  0.093947895	3.093600E+01
371	  0.094148301	-7.881000E+00	  0.094148301	9.861400E+01	  0.094148301	3.260300E+01	  0.094148301	3.108200E+01
372	  0.094348699	-7.911000E+00	  0.094348699	9.808900E+01	  0.094348699	3.287400E+01	  0.094348699	3.123100E+01
373	  0.094549097	-7.950000E+00	  0.094549097	9.759100E+01	  0.094549097	3.316100E+01	  0.094549097	3.134500E+01
374	  0.094749503	-7.980000E+00	  0.094749503	9.708700E+01	  0.094749503	3.342600E+01	  0.094749503	3.148300E+01
375	  0.094949901	-8.009000E+00	  0.094949901	9.660200E+01	  0.094949901	3.368400E+01	  0.094949901	3.161300E+01
376	  0.095150299	-8.037000E+00	  0.095150299	9.610800E+01	  0.095150299	3.394500E+01	  0.095150299	3.174800E+01
377	  0.095350705	-8.068000E+00	  0.095350705	9.563000E+01	  0.095350705	3.421000E+01	  0.095350705	3.186600E+01
378	  0.095551103	-8.098000E+00	  0.095551103	9.512000E+01	  0.095551103	3.448600E+01	  0.095551103	3.199800E+01
379	  0.095751502	-8.124000E+00	  0.095751502	9.463000E+01	  0.095751502	3.474700E+01	  0.095751502	3.213000E+01
380	  0.095951907	-8.152000E+00	  0.095951907	9.418700E+01	  0.095951907	3.499500E+01	  0.095951907	3.223700E+01
381	  0.096152306	-8.182000E+00	  0.096152306	9.370800E+01	  0.096152306	3.526400E+01	  0.096152306	3.235300E+01
382	  0.096352704	-8.214000E+00	  0.096352704	9.325300E+01	  0.096352704	3.553000E+01	  0.096352704	3.245100E+01
383	  0.096553110	-8.235000E+00	  0.096553110	9.277700E+01	  0.096553110	3.577900E+01	  0.096553110	3.258400E+01
384	  0.096753508	-8.267000E+00	  0.096753508	9.232900E+01	  0.096753508	3.604500E+01	  0.096753508	3.267600E+01
385	  0.096953906	-8.289000E+00	  0.096953906	9.187400E+01	  0.096953906	3.629100E+01	  0.096953906	3.279600E+01
386	  0.097154312	-8.311000E+00	  0.097154312	9.140100E+01	  0.097154312	3.654600E+01	  0.097154312	3.292100E+01
387	  0.097354710	-8.339000E+00	  0.097354710	9.094000E+01	  0.097354710	3.681300E+01	  0.097354710	3.302300E+01
388	  0.097555116	-8.361000E+00	  0.097555116	9.049700E+01	  0.097555116	3.705900E+01	  0.097555116	3.313400E+01
389	  0.097755514	-8.381000E+00	  0.097755514	9.004800E+01	  0.097755514	3.730300E+01	  0.097755514	3.325100E+01
390	  0.097955912	-8.408000E+00	  0.097955912	8.963100E+01	  0.097955912	3.755200E+01	  0.097955912	3.333500E+01
391	  0.098156318	-8.421000E+00	  0.098156318	8.920200E+01	  0.098156318	3.777300E+01	  0.098156318	3.346300E+01
392	  0.098356716	-8.442000E+00	  0.098356716	8.877500E+01	  0.098356716	3.801600E+01	  0.098356716	3.356300E+01
393	  0.098557115	-8.455000E+00	  0.098557115	8.838600E+01	  0.098557115	3.822400E+01	  0.098557115	3.367100E+01
394	  0.098757520	-8.467000E+00	  0.098757520	8.793700E+01	  0.098757520	3.845500E+01	  0.098757520	3.380700E+01
395	  0.098957919	-8.484000E+00	  0.098957919	8.751800E+01	  0.098957919	3.868900E+01	  0.098957919	3.391300E+01
396	  0.099158317	-8.496000E+00	  0.099158317	8.710100E+01	  0.099158317	3.891000E+01	  0.099158317	3.403400E+01
397	  0.099358723	-8.511000E+00	  0.099358723	8.672500E+01	  0.099358723	3.912100E+01	  0.099358723	3.412800E+01
398	  0.099559121	-8.526000E+00	  0.099559121	8.634600E+01	  0.099559121	3.933700E+01	  0.099559121	3.422100E+01
399	  0.099759519	-8.541000E+00	  0.099759519	8.594300E+01	  0.099759519	3.956100E+01	  0.099759519	3.432600E+01
400	  0.099959925	-8.552000E+00	  0.099959925	8.561500E+01	  0.099959925	3.974600E+01	  0.099959925	3.441000E+01
401	  0.100160323	-8.566000E+00	  0.100160323	8.517800E+01	  0.100160323	3.998700E+01	  0.100160323	3.452800E+01
402	  0.100360721	-8.573000E+00	  0.100360721	8.485800E+01	  0.100360721	4.016000E+01	  0.100360721	3.462000E+01
403	  0.100561127	-8.584000E+00	  0.100561127	8.439000E+01	  0.100561127	4.041500E+01	  0.100561127	3.475400E+01
404	  0.100761525	-8.595000E+00	  0.100761525	8.399100E+01	  0.100761525	4.063800E+01	  0.100761525	3.486300E+01
405	  0.100961931	-8.604000E+00	  0.100961931	8.360300E+01	  0.100961931	4.085200E+01	  0.100961931	3.497300E+01
406	  0.101162329	-8.612000E+00	  0.101162329	8.324700E+01	  0.101162329	4.104900E+01	  0.101162329	3.507300E+01
407	  0.101362728	-8.617000E+00	  0.101362728	8.282200E+01	  0.101362728	4.127600E+01	  0.101362728	3.520800E+01
408	  0.101563133	-8.626000E+00	  0.101563133	8.243900E+01	  0.101563133	4.149100E+01	  0.101563133	3.531400E+01
409	  0.101763532	-8.640000E+00	  0.101763532	8.199800E+01	  0.101763532	4.174900E+01	  0.101763532	3.542400E+01
410	  0.101963930	-8.642000E+00	  0.101963930	8.161200E+01	  0.101963930	4.195500E+01	  0.101963930	3.555000E+01
411	  0.102164336	-8.655000E+00	  0.102164336	8.118900E+01	  0.102164336	4.220500E+01	  0.102164336	3.565500E+01
412	  0.102364734	-8.651000E+00	  0.102364734	8.078000E+01	  0.102364734	4.241300E+01	  0.102364734	3.580900E+01
413	  0.102565132	-8.656000E+00	  0.102565132	8.034400E+01	  0.102565132	4.265600E+01	  0.102565132	3.594300E+01
414	  0.102765530	-8.663000E+00	  0.102765530	7.996300E+01	  0.102765530	4.287800E+01	  0.102765530	3.604700E+01
415	  0.102965929	-8.664000E+00	  0.102965929	7.956800E+01	  0.102965929	4.309500E+01	  0.102965929	3.617800E+01
416	  0.103166327	-8.672000E+00	  0.103166327	7.910200E+01	  0.103166327	4.336700E+01	  0.103166327	3.630900E+01
417	  0.103366733	-8.670000E+00	  0.103366733	7.866200E+01	  0.103366733	4.360500E+01	  0.103366733	3.646400E+01
418	  0.103567131	-8.676000E+00	  0.103567131	7.831400E+01	  0.103567131	4.381100E+01	  0.103567131	3.656000E+01
419	  0.103767529	-8.677000E+00	  0.103767529	7.779100E+01	  0.103767529	4.410900E+01	  0.103767529	3.672900E+01
420	  0.103967935	-8.683000E+00	  0.103967935	7.736100E+01	  0.103967935	4.436500E+01	  0.103967935	3.685100E+01
421	  0.104168333	-8.681000E+00	  0.104168333	7.696800E+01	  0.104168333	4.458600E+01	  0.104168333	3.698700E+01
422	  0.104368731	-8.689000E+00	  0.104368731	7.648200E+01	  0.104368731	4.488500E+01	  0.104368731	3.711600E+01
423	  0.104569137	-8.691000E+00	  0.104569137	7.608800E+01	  0.104569137	4.511800E+01	  0.104569137	3.723600E+01
424	  0.104769535	-8.694000E+00	  0.104769535	7.561200E+01	  0.104769535	4.540500E+01	  0.104769535	3.737800E+01
425	  0.104969934	-8.690000E+00	  0.104969934	7.516500E+01	  0.104969934	4.566400E+01	  0.104969934	3.753600E+01
426	  0.105170339	-8.698000E+00	  0.105170339	7.468900E+01	  0.105170339	4.596600E+01	  0.105170339	3.765600E+01
427	  0.105370738	-8.695000E+00	  0.105370738	7.424500E+01	  0.105370738	4.622900E+01	  0.105370738	3.780600E+01
428	  0.105571143	-8.689000E+00	  0.105571143	7.378700E+01	  0.105571143	4.650000E+01	  0.105571143	3.797100E+01
429	  0.105771542	-8.698000E+00	  0.105771542	7.329800E+01	  0.105771542	4.682100E+01	  0.105771542	3.808500E+01
430	  0.105971940	-8.695000E+00	  0.105971940	7.286300E+01	  0.105971940	4.708600E+01	  0.105971940	3.823100E+01
431	  0.106172346	-8.699000E+00	  0.106172346	7.237700E+01	  0.106172346	4.740100E+01	  0.106172346	3.836100E+01
432	  0.106372744	-8.702000E+00	  0.106372744	7.193200E+01	  0.106372744	4.769100E+01	  0.106372744	3.848200E+01
433	  0.106573142	-8.706000E+00	  0.106573142	7.143900E+01	  0.106573142	4.801600E+01	  0.106573142	3.861100E+01
434	  0.106773548	-8.714000E+00	  0.106773548	7.096500E+01	  0.106773548	4.834000E+01	  0.106773548	3.871500E+01
435	  0.106973946	-8.708000E+00	  0.106973946	7.051300E+01	  0.106973946	4.862500E+01	  0.106973946	3.887300E+01
436	  0.107174344	-8.711000E+00	  0.107174344	7.000900E+01	  0.107174344	4.896400E+01	  0.107174344	3.900400E+01
437	  0.107374750	-8.716000E+00	  0.107374750	6.946900E+01	  0.107374750	4.933600E+01	  0.107374750	3.913100E+01
438	  0.107575148	-8.719000E+00	  0.107575148	6.902200E+01	  0.107575148	4.964400E+01	  0.107575148	3.924400E+01
439	  0.107775547	-8.718000E+00	  0.107775547	6.853600E+01	  0.107775547	4.997400E+01	  0.107775547	3.938200E+01
440	  0.107975952	-8.720000E+00	  0.107975952	6.802800E+01	  0.107975952	5.032900E+01	  0.107975952	3.950800E+01
441	  0.108176351	-8.723000E+00	  0.108176351	6.749900E+01	  0.108176351	5.070300E+01	  0.108176351	3.963400E+01
442	  0.108376749	-8.718000E+00	  0.108376749	6.697100E+01	  0.108376749	5.106800E+01	  0.108376749	3.979300E+01
443	  0.108577155	-8.721000E+00	  0.108577155	6.643900E+01	  0.108577155	5.145200E+01	  0.108577155	3.991700E+01
444	  0.108777553	-8.713000E+00	  0.108777553	6.589000E+01	  0.108777553	5.183400E+01	  0.108777553	4.009300E+01
445	  0.108977959	-8.705000E+00	  0.108977959	6.535000E+01	  0.108977959	5.221500E+01	  0.108977959	4.026300E+01
446	  0.109178357	-8.709000E+00	  0.109178357	6.477500E+01	  0.109178357	5.264600E+01	  0.109178357	4.038200E+01
447	  0.109378755	-8.700000E+00	  0.109378755	6.420200E+01	  0.109378755	5.306000E+01	  0.109378755	4.056000E+01
448	  0.109579161	-8.698000E+00	  0.109579161	6.365900E+01	  0.109579161	5.346700E+01	  0.109579161	4.069700E+01
449	  0.109779559	-8.692000E+00	  0.109779559	6.302300E+01	  0.109779559	5.394400E+01	  0.109779559	4.086800E+01
450	  0.109979957	-8.682000E+00	  0.109979957	6.248300E+01	  0.109979957	5.434800E+01	  0.109979957	4.103400E+01
451	  0.110180363	-8.684000E+00	  0.110180363	6.185100E+01	  0.110180363	5.484600E+01	  0.110180363	4.115800E+01
452	  0.110380761	-8.675000E+00	  0.110380761	6.132600E+01	  0.110380761	5.525000E+01	  0.110380761	4.131200E+01
453	  0.110581160	-8.668000E+00	  0.110581160	6.065200E+01	  0.110581160	5.578200E+01	  0.110581160	4.148100E+01
454	  0.110781565	-8.654000E+00	  0.110781565	6.006000E+01	  0.110781565	5.624400E+01	  0.110781565	4.167200E+01
455	  0.110981964	-8.651000E+00	  0.110981964	5.939200E+01	  0.110981964	5.679200E+01	  0.110981964	4.180700E+01
456	  0.111182362	-8.637000E+00	  0.111182362	5.884600E+01	  0.111182362	5.723000E+01	  0.111182362	4.198100E+01
457	  0.111382768	-8.635000E+00	  0.111382768	5.816600E+01	  0.111382768	5.780200E+01	  0.111382768	4.210600E+01
458	  0.111583166	-8.633000E+00	  0.111583166	5.760300E+01	  0.111583166	5.828200E+01	  0.111583166	4.220600E+01
459	  0.111783572	-8.622000E+00	  0.111783572	5.698000E+01	  0.111783572	5.880900E+01	  0.111783572	4.236100E+01
460	  0.111983970	-8.618000E+00	  0.111983970	5.631700E+01	  0.111983970	5.938400E+01	  0.111983970	4.248300E+01
461	  0.112184368	-8.613000E+00	  0.112184368	5.566900E+01	  0.112184368	5.995500E+01	  0.112184368	4.259600E+01
462	  0.112384774	-8.611000E+00	  0.112384774	5.504900E+01	  0.112384774	6.050900E+01	  0.112384774	4.268200E+01
463	  0.112585172	-8.599000E+00	  0.112585172	5.433600E+01	  0.112585172	6.114800E+01	  0.112585172	4.282900E+01
464	  0.112785570	-8.602000E+00	  0.112785570	5.374300E+01	  0.112785570	6.169400E+01	  0.112785570	4.287000E+01
465	  0.112985976	-8.599000E+00	  0.112985976	5.304100E+01	  0.112985976	6.234500E+01	  0.112985976	4.294900E+01
466	  0.113186374	-8.601000E+00	  0.113186374	5.237300E+01	  0.113186374	6.297400E+01	  0.113186374	4.298900E+01
467	  0.113386773	-8.607000E+00	  0.113386773	5.167100E+01	  0.113386773	6.364300E+01	  0.113386773	4.298800E+01
468	  0.113587178	-8.609000E+00	  0.113587178	5.097400E+01	  0.113587178	6.431300E+01	  0.113587178	4.300700E+01
469	  0.113787577	-8.618000E+00	  0.113787577	5.030700E+01	  0.113787577	6.496100E+01	  0.113787577	4.297300E+01
470	  0.113987975	-8.625000E+00	  0.113987975	4.950700E+01	  0.113987975	6.574600E+01	  0.113987975	4.293400E+01
471	  0.114188381	-8.628000E+00	  0.114188381	4.883500E+01	  0.114188381	6.641100E+01	  0.114188381	4.291300E+01
472	  0.114388779	-8.635000E+00	  0.114388779	4.810200E+01	  0.114388779	6.714300E+01	  0.114388779	4.285500E+01
473	  0.114589177	-8.652000E+00	  0.114589177	4.738300E+01	  0.114589177	6.786400E+01	  0.114589177	4.270800E+01
474	  0.114789583	-8.659000E+00	  0.114789583	4.660100E+01	  0.114789583	6.865600E+01	  0.114789583	4.261600E+01
475	  0.114989981	-8.676000E+00	  0.114989981	4.586100E+01	  0.114989981	6.940600E+01	  0.114989981	4.244700E+01
476	  0.115190387	-8.693000E+00	  0.115190387	4.503800E+01	  0.115190387	7.024300E+01	  0.115190387	4.224400E+01
477	  0.115390785	-8.716000E+00	  0.115390785	4.422400E+01	  0.115390785	7.107000E+01	  0.115390785	4.198600E+01
478	  0.115591183	-8.735000E+00	  0.115591183	4.337400E+01	  0.115591183	7.193800E+01	  0.115591183	4.172300E+01
479	  0.115791589	-8.750000E+00	  0.115791589	4.250000E+01	  0.115791589	7.284100E+01	  0.115791589	4.147000E+01
480	  0.115991987	-8.772000E+00	  0.115991987	4.167800E+01	  0.115991987	7.367900E+01	  0.115991987	4.114700E+01
481	  0.116192386	-8.798000E+00	  0.116192386	4.078800E+01	  0.116192386	7.458300E+01	  0.116192386	4.076000E+01
482	  0.116392791	-8.824000E+00	  0.116392791	3.990900E+01	  0.116392791	7.547300E+01	  0.116392791	4.035500E+01
483	  0.116593190	-8.847000E+00	  0.116593190	3.897400E+01	  0.116593190	7.642500E+01	  0.116593190	3.992300E+01
484	  0.116793588	-8.887000E+00	  0.116793588	3.808100E+01	  0.116793588	7.728900E+01	  0.116793588	3.935600E+01
485	  0.116993994	-8.913000E+00	  0.116993994	3.712200E+01	  0.116993994	7.824600E+01	  0.116993994	3.883500E+01
486	  0.117194392	-8.947000E+00	  0.117194392	3.611400E+01	  0.117194392	7.922700E+01	  0.117194392	3.820700E+01
487	  0.117394790	-8.975000E+00	  0.117394790	3.519000E+01	  0.117394790	8.012300E+01	  0.117394790	3.762200E+01
488	  0.117595196	-9.012000E+00	  0.117595196	3.419400E+01	  0.117595196	8.105600E+01	  0.117595196	3.691100E+01
489	  0.117795594	-9.054000E+00	  0.117795594	3.322700E+01	  0.117795594	8.192700E+01	  0.117795594	3.615300E+01
490	  0.117995992	-9.093000E+00	  0.117995992	3.222900E+01	  0.117995992	8.281600E+01	  0.117995992	3.536200E+01
491	  0.118196398	-9.138000E+00	  0.118196398	3.120500E+01	  0.118196398	8.368900E+01	  0.118196398	3.448800E+01
492	  0.118396796	-9.186000E+00	  0.118396796	3.018600E+01	  0.118396796	8.451800E+01	  0.118396796	3.356200E+01
493	  0.118597202	-9.229000E+00	  0.118597202	2.908500E+01	  0.118597202	8.542000E+01	  0.118597202	3.258900E+01
494	  0.118797600	-9.284000E+00	  0.118797600	2.800700E+01	  0.118797600	8.621400E+01	  0.118797600	3.152100E+01
495	  0.118997999	-9.341000E+00	  0.118997999	2.694900E+01	  0.118997999	8.693700E+01	  0.118997999	3.042100E+01
496	  0.119198404	-9.401000E+00	  0.119198404	2.586500E+01	  0.119198404	8.763100E+01	  0.119198404	2.926100E+01
497	  0.119398803	-9.462000E+00	  0.119398803	2.475900E+01	  0.119398803	8.829400E+01	  0.119398803	2.805400E+01
498	  0.119599201	-9.531000E+00	  0.119599201	2.368200E+01	  0.119599201	8.884100E+01	  0.119599201	2.680500E+01
499	  0.119799607	-9.606000E+00	  0.119799607	2.255700E+01	  0.119799607	8.934600E+01	  0.119799607	2.546900E+01
500	  0.120000005	-9.682000E+00	  0.120000005	2.141900E+01	  0.120000005	8.979700E+01	  0.120000005	2.410500E+01
