! Anritsu VNA Master:             	Model: MS2036C/10/77
! SN:             	1601066
! /bd0/18may8/255.ew.m3.txt
! Existing Calibration Information:
! TYPE:             	Current Settings	Active Cal Settings
! TIME:             	05/08/2018 10:06:46 AM	05/08/2018 09:57:41 AM
! INTERNAL TEMP:    	47.0 C	46.8 C
! # POINTS:         	500	500
! START FREQ:       	20.000 MHz	20.000 MHz
! STOP FREQ:        	120.000 MHz	120.000 MHz
! SOURCE POWER:     	High	High
! IFBW:             	50 Hz	50 Hz
! AVG FACTOR:       	  1 	  1 
! REF PLANE 1:      	0 mm	0 mm
! REF PLANE 2:      	0 mm	0 mm
! CAL TYPE:         	Full S11	Full S11
! CAL METHOD:       	SOLT	SOLT
! CAL LINE TYPE:    	Coax	Coax
! DUT PORT 1:       	K-Conn(F)	K-Conn(F)
! DUT PORT 2:       	K-Conn(F)	K-Conn(F)
! CAL STATUS:       	OK: Accuracy High	--
! PROP-V:       	0.700
! CABLE LOSS:       	0.000 dB/m
! REF IMPEDANCE:       	50.0
! Trace Specific Parameters:	TR1	TR2	TR3	TR4
! TRACE.#.Y (GRAPH TYPE)	LOG MAG	PHASE	REAL IMPEDANCE	IMAGINARY IMPEDANCE
! TRACE.#.X 	FREQ.GHZ	FREQ.GHZ	FREQ.GHZ	FREQ.GHZ
! S-PARAMETER	S11	S11	S11	S11
! SMOOTH/APERTURE %	0	0	0	0
! WINDOW	NSL	NSL	NSL	NSL
! GATING	OFF	OFF	OFF	OFF
! FGTD	OFF	OFF	OFF	OFF
Marker Information per Trace:	TR1	TR2	TR3	TR4
!MK1	--	"MK1 TR2:  20.000 MHz,PH:-124.23°"	--	--
!MK2	--	--	"MK2 TR3:  70.100 200 MHz,Z:(16.720 ohm, -3.331 ohm)"	--
!MK3	--	--	--	--
!MK4	--	--	--	--
!MK5	--	--	--	--
!MK6	--	--	--	--
!MK7	--	--	--	--
!MK8	--	--	--	--
PNT	TR1.FREQ.GHZ	TR1.LOG MAG.dB	TR2.FREQ.GHZ	TR2.PHASE.deg	TR3.FREQ.GHZ	TR3.REAL IMPEDANCE.ohm	TR4.FREQ.GHZ	TR4.IMAGINARY IMPEDANCE.ohm
1	  0.020000000	-8.930000E-01	  0.020000000	-1.242250E+02	  0.020000000	3.285000E+00	  0.020000000	-2.637000E+01
2	  0.020200402	-8.960000E-01	  0.020200402	-1.256500E+02	  0.020200402	3.255000E+00	  0.020200402	-2.558200E+01
3	  0.020400802	-9.040000E-01	  0.020400802	-1.270710E+02	  0.020400802	3.244000E+00	  0.020400802	-2.480600E+01
4	  0.020601204	-9.110000E-01	  0.020601204	-1.284980E+02	  0.020601204	3.229000E+00	  0.020601204	-2.403600E+01
5	  0.020801604	-9.210000E-01	  0.020801604	-1.299710E+02	  0.020801604	3.223000E+00	  0.020801604	-2.325000E+01
6	  0.021002004	-9.350000E-01	  0.021002004	-1.314530E+02	  0.021002004	3.233000E+00	  0.021002004	-2.246900E+01
7	  0.021202406	-9.460000E-01	  0.021202406	-1.329460E+02	  0.021202406	3.234000E+00	  0.021202406	-2.169100E+01
8	  0.021402806	-9.560000E-01	  0.021402806	-1.344510E+02	  0.021402806	3.233000E+00	  0.021402806	-2.091600E+01
9	  0.021603208	-9.670000E-01	  0.021603208	-1.359420E+02	  0.021603208	3.234000E+00	  0.021603208	-2.015700E+01
10	  0.021803608	-9.780000E-01	  0.021803608	-1.374460E+02	  0.021803608	3.239000E+00	  0.021803608	-1.939900E+01
11	  0.022004008	-9.890000E-01	  0.022004008	-1.389410E+02	  0.022004008	3.242000E+00	  0.022004008	-1.865400E+01
12	  0.022204408	-1.003000E+00	  0.022204408	-1.404510E+02	  0.022204408	3.256000E+00	  0.022204408	-1.790700E+01
13	  0.022404809	-1.014000E+00	  0.022404809	-1.419800E+02	  0.022404809	3.262000E+00	  0.022404809	-1.716000E+01
14	  0.022605211	-1.023000E+00	  0.022605211	-1.435320E+02	  0.022605211	3.261000E+00	  0.022605211	-1.640800E+01
15	  0.022805611	-1.032000E+00	  0.022805611	-1.450880E+02	  0.022805611	3.259000E+00	  0.022805611	-1.566100E+01
16	  0.023006011	-1.041000E+00	  0.023006011	-1.466310E+02	  0.023006011	3.263000E+00	  0.023006011	-1.492700E+01
17	  0.023206413	-1.051000E+00	  0.023206413	-1.481550E+02	  0.023206413	3.266000E+00	  0.023206413	-1.420700E+01
18	  0.023406813	-1.057000E+00	  0.023406813	-1.496990E+02	  0.023406813	3.261000E+00	  0.023406813	-1.348400E+01
19	  0.023607215	-1.066000E+00	  0.023607215	-1.512340E+02	  0.023607215	3.265000E+00	  0.023607215	-1.277000E+01
20	  0.023807615	-1.077000E+00	  0.023807615	-1.527790E+02	  0.023807615	3.277000E+00	  0.023807615	-1.205600E+01
21	  0.024008015	-1.091000E+00	  0.024008015	-1.543460E+02	  0.024008015	3.298000E+00	  0.024008015	-1.133700E+01
22	  0.024208417	-1.103000E+00	  0.024208417	-1.559280E+02	  0.024208417	3.315000E+00	  0.024208417	-1.061500E+01
23	  0.024408817	-1.118000E+00	  0.024408817	-1.575110E+02	  0.024408817	3.340000E+00	  0.024408817	-9.897000E+00
24	  0.024609219	-1.130000E+00	  0.024609219	-1.591150E+02	  0.024609219	3.360000E+00	  0.024609219	-9.174000E+00
25	  0.024809619	-1.143000E+00	  0.024809619	-1.607130E+02	  0.024809619	3.381000E+00	  0.024809619	-8.458000E+00
26	  0.025010020	-1.158000E+00	  0.025010020	-1.623120E+02	  0.025010020	3.409000E+00	  0.025010020	-7.744000E+00
27	  0.025210422	-1.172000E+00	  0.025210422	-1.639230E+02	  0.025210422	3.437000E+00	  0.025210422	-7.028000E+00
28	  0.025410822	-1.190000E+00	  0.025410822	-1.655530E+02	  0.025410822	3.476000E+00	  0.025410822	-6.306000E+00
29	  0.025611224	-1.208000E+00	  0.025611224	-1.672050E+02	  0.025611224	3.517000E+00	  0.025611224	-5.578000E+00
30	  0.025811624	-1.224000E+00	  0.025811624	-1.688730E+02	  0.025811624	3.551000E+00	  0.025811624	-4.845000E+00
31	  0.026012026	-1.240000E+00	  0.026012026	-1.705510E+02	  0.026012026	3.588000E+00	  0.026012026	-4.110000E+00
32	  0.026212426	-1.253000E+00	  0.026212426	-1.722420E+02	  0.026212426	3.618000E+00	  0.026212426	-3.372000E+00
33	  0.026412826	-1.270000E+00	  0.026412826	-1.739270E+02	  0.026412826	3.659000E+00	  0.026412826	-2.637000E+00
34	  0.026613226	-1.288000E+00	  0.026613226	-1.756300E+02	  0.026613226	3.707000E+00	  0.026613226	-1.897000E+00
35	  0.026813626	-1.308000E+00	  0.026813626	-1.773490E+02	  0.026813626	3.760000E+00	  0.026813626	-1.150000E+00
36	  0.027014028	-1.327000E+00	  0.027014028	-1.790740E+02	  0.027014028	3.814000E+00	  0.027014028	-4.010000E-01
37	  0.027214428	-1.349000E+00	  0.027214428	1.791790E+02	  0.027214428	3.876000E+00	  0.027214428	3.550000E-01
38	  0.027414829	-1.369000E+00	  0.027414829	1.774290E+02	  0.027414829	3.936000E+00	  0.027414829	1.114000E+00
39	  0.027615231	-1.390000E+00	  0.027615231	1.756630E+02	  0.027615231	4.000000E+00	  0.027615231	1.880000E+00
40	  0.027815631	-1.416000E+00	  0.027815631	1.738780E+02	  0.027815631	4.078000E+00	  0.027815631	2.655000E+00
41	  0.028016033	-1.441000E+00	  0.028016033	1.720860E+02	  0.028016033	4.158000E+00	  0.028016033	3.434000E+00
42	  0.028216433	-1.469000E+00	  0.028216433	1.702940E+02	  0.028216433	4.249000E+00	  0.028216433	4.214000E+00
43	  0.028416833	-1.495000E+00	  0.028416833	1.684850E+02	  0.028416833	4.336000E+00	  0.028416833	5.003000E+00
44	  0.028617235	-1.518000E+00	  0.028617235	1.666840E+02	  0.028617235	4.419000E+00	  0.028617235	5.791000E+00
45	  0.028817635	-1.543000E+00	  0.028817635	1.648940E+02	  0.028817635	4.508000E+00	  0.028817635	6.576000E+00
46	  0.029018037	-1.569000E+00	  0.029018037	1.630890E+02	  0.029018037	4.603000E+00	  0.029018037	7.370000E+00
47	  0.029218437	-1.594000E+00	  0.029218437	1.612950E+02	  0.029218437	4.699000E+00	  0.029218437	8.163000E+00
48	  0.029418837	-1.623000E+00	  0.029418837	1.595030E+02	  0.029418837	4.811000E+00	  0.029418837	8.958000E+00
49	  0.029619239	-1.653000E+00	  0.029619239	1.576860E+02	  0.029619239	4.928000E+00	  0.029619239	9.768000E+00
50	  0.029819639	-1.686000E+00	  0.029819639	1.558580E+02	  0.029819639	5.059000E+00	  0.029819639	1.058700E+01
51	  0.030020041	-1.720000E+00	  0.030020041	1.539930E+02	  0.030020041	5.195000E+00	  0.030020041	1.142700E+01
52	  0.030220442	-1.754000E+00	  0.030220442	1.521200E+02	  0.030220442	5.338000E+00	  0.030220442	1.227700E+01
53	  0.030420844	-1.786000E+00	  0.030420844	1.502390E+02	  0.030420844	5.481000E+00	  0.030420844	1.313600E+01
54	  0.030621244	-1.820000E+00	  0.030621244	1.483640E+02	  0.030621244	5.634000E+00	  0.030621244	1.399800E+01
55	  0.030821644	-1.856000E+00	  0.030821644	1.464960E+02	  0.030821644	5.799000E+00	  0.030821644	1.486400E+01
56	  0.031022044	-1.893000E+00	  0.031022044	1.446110E+02	  0.031022044	5.974000E+00	  0.031022044	1.574400E+01
57	  0.031222444	-1.927000E+00	  0.031222444	1.427340E+02	  0.031222444	6.145000E+00	  0.031222444	1.662900E+01
58	  0.031422846	-1.968000E+00	  0.031422846	1.407880E+02	  0.031422846	6.347000E+00	  0.031422846	1.755400E+01
59	  0.031623244	-2.007000E+00	  0.031623244	1.388420E+02	  0.031623244	6.552000E+00	  0.031623244	1.848900E+01
60	  0.031823646	-2.044000E+00	  0.031823646	1.368730E+02	  0.031823646	6.759000E+00	  0.031823646	1.944600E+01
61	  0.032024048	-2.082000E+00	  0.032024048	1.349160E+02	  0.032024048	6.975000E+00	  0.032024048	2.040800E+01
62	  0.032224450	-2.116000E+00	  0.032224450	1.329570E+02	  0.032224450	7.189000E+00	  0.032224450	2.138300E+01
63	  0.032424849	-2.154000E+00	  0.032424849	1.309970E+02	  0.032424849	7.427000E+00	  0.032424849	2.237000E+01
64	  0.032625251	-2.189000E+00	  0.032625251	1.290270E+02	  0.032625251	7.667000E+00	  0.032625251	2.337500E+01
65	  0.032825653	-2.230000E+00	  0.032825653	1.270780E+02	  0.032825653	7.933000E+00	  0.032825653	2.438200E+01
66	  0.033026051	-2.275000E+00	  0.033026051	1.251200E+02	  0.033026051	8.228000E+00	  0.033026051	2.540500E+01
67	  0.033226453	-2.319000E+00	  0.033226453	1.231590E+02	  0.033226453	8.537000E+00	  0.033226453	2.644400E+01
68	  0.033426855	-2.368000E+00	  0.033426855	1.212040E+02	  0.033426855	8.873000E+00	  0.033426855	2.749300E+01
69	  0.033627257	-2.422000E+00	  0.033627257	1.191980E+02	  0.033627257	9.251000E+00	  0.033627257	2.858300E+01
70	  0.033827655	-2.476000E+00	  0.033827655	1.171620E+02	  0.033827655	9.650000E+00	  0.033827655	2.970700E+01
71	  0.034028057	-2.526000E+00	  0.034028057	1.151000E+02	  0.034028057	1.005500E+01	  0.034028057	3.086800E+01
72	  0.034228459	-2.578000E+00	  0.034228459	1.130030E+02	  0.034228459	1.049500E+01	  0.034228459	3.206800E+01
73	  0.034428857	-2.624000E+00	  0.034428857	1.108830E+02	  0.034428857	1.093700E+01	  0.034428857	3.330900E+01
74	  0.034629259	-2.674000E+00	  0.034629259	1.087590E+02	  0.034629259	1.142100E+01	  0.034629259	3.457200E+01
75	  0.034829661	-2.718000E+00	  0.034829661	1.066480E+02	  0.034829661	1.190700E+01	  0.034829661	3.585900E+01
76	  0.035030060	-2.763000E+00	  0.035030060	1.045440E+02	  0.035030060	1.242300E+01	  0.035030060	3.716700E+01
77	  0.035230462	-2.806000E+00	  0.035230462	1.024650E+02	  0.035230462	1.295900E+01	  0.035230462	3.848600E+01
78	  0.035430863	-2.848000E+00	  0.035430863	1.003840E+02	  0.035430863	1.352000E+01	  0.035430863	3.983900E+01
79	  0.035631265	-2.887000E+00	  0.035631265	9.830900E+01	  0.035631265	1.410600E+01	  0.035631265	4.121800E+01
80	  0.035831664	-2.932000E+00	  0.035831664	9.624300E+01	  0.035831664	1.475100E+01	  0.035831664	4.261600E+01
81	  0.036032066	-2.972000E+00	  0.036032066	9.419500E+01	  0.036032066	1.540700E+01	  0.036032066	4.404000E+01
82	  0.036232468	-3.016000E+00	  0.036232468	9.215600E+01	  0.036232468	1.612500E+01	  0.036232468	4.548300E+01
83	  0.036432866	-3.060000E+00	  0.036432866	9.013900E+01	  0.036432866	1.688400E+01	  0.036432866	4.694100E+01
84	  0.036633268	-3.106000E+00	  0.036633268	8.812200E+01	  0.036633268	1.770400E+01	  0.036633268	4.842800E+01
85	  0.036833670	-3.154000E+00	  0.036833670	8.609000E+01	  0.036833670	1.858900E+01	  0.036833670	4.995800E+01
86	  0.037034072	-3.202000E+00	  0.037034072	8.401800E+01	  0.037034072	1.954800E+01	  0.037034072	5.155600E+01
87	  0.037234470	-3.248000E+00	  0.037234470	8.193100E+01	  0.037234470	2.057100E+01	  0.037234470	5.320700E+01
88	  0.037434869	-3.291000E+00	  0.037434869	7.976600E+01	  0.037434869	2.168100E+01	  0.037434869	5.497600E+01
89	  0.037635271	-3.337000E+00	  0.037635271	7.752800E+01	  0.037635271	2.292500E+01	  0.037635271	5.684800E+01
90	  0.037835669	-3.384000E+00	  0.037835669	7.518700E+01	  0.037835669	2.433100E+01	  0.037835669	5.885900E+01
91	  0.038036071	-3.448000E+00	  0.038036071	7.278300E+01	  0.038036071	2.599400E+01	  0.038036071	6.092800E+01
92	  0.038236473	-3.527000E+00	  0.038236473	7.044000E+01	  0.038236473	2.787000E+01	  0.038236473	6.291700E+01
93	  0.038436871	-3.612000E+00	  0.038436871	6.817100E+01	  0.038436871	2.989400E+01	  0.038436871	6.483200E+01
94	  0.038637273	-3.688000E+00	  0.038637273	6.600100E+01	  0.038637273	3.194300E+01	  0.038637273	6.670200E+01
95	  0.038837675	-3.754000E+00	  0.038837675	6.389300E+01	  0.038837675	3.404500E+01	  0.038837675	6.856200E+01
96	  0.039038073	-3.813000E+00	  0.039038073	6.184400E+01	  0.039038073	3.620400E+01	  0.039038073	7.040900E+01
97	  0.039238475	-3.866000E+00	  0.039238475	5.981000E+01	  0.039238475	3.846900E+01	  0.039238475	7.228800E+01
98	  0.039438877	-3.922000E+00	  0.039438877	5.778900E+01	  0.039438877	4.092500E+01	  0.039438877	7.413000E+01
99	  0.039639279	-3.975000E+00	  0.039639279	5.576000E+01	  0.039639279	4.356000E+01	  0.039639279	7.598900E+01
100	  0.039839678	-4.036000E+00	  0.039839678	5.370800E+01	  0.039839678	4.648100E+01	  0.039839678	7.779700E+01
101	  0.040040080	-4.096000E+00	  0.040040080	5.163700E+01	  0.040040080	4.965800E+01	  0.040040080	7.958000E+01
102	  0.040240481	-4.156000E+00	  0.040240481	4.955800E+01	  0.040240481	5.309200E+01	  0.040240481	8.131000E+01
103	  0.040440880	-4.214000E+00	  0.040440880	4.743400E+01	  0.040440880	5.686400E+01	  0.040440880	8.300700E+01
104	  0.040641282	-4.272000E+00	  0.040641282	4.532800E+01	  0.040641282	6.089200E+01	  0.040641282	8.458000E+01
105	  0.040841684	-4.329000E+00	  0.040841684	4.322300E+01	  0.040841684	6.522500E+01	  0.040841684	8.600300E+01
106	  0.041042086	-4.382000E+00	  0.041042086	4.112000E+01	  0.041042086	6.985000E+01	  0.041042086	8.729900E+01
107	  0.041242484	-4.436000E+00	  0.041242484	3.900400E+01	  0.041242484	7.485500E+01	  0.041242484	8.833900E+01
108	  0.041442886	-4.490000E+00	  0.041442886	3.687300E+01	  0.041442886	8.024500E+01	  0.041442886	8.910800E+01
109	  0.041643288	-4.538000E+00	  0.041643288	3.476100E+01	  0.041643288	8.591600E+01	  0.041643288	8.961100E+01
110	  0.041843686	-4.587000E+00	  0.041843686	3.263800E+01	  0.041843686	9.197300E+01	  0.041843686	8.969400E+01
111	  0.042044088	-4.632000E+00	  0.042044088	3.056500E+01	  0.042044088	9.821100E+01	  0.042044088	8.934500E+01
112	  0.042244490	-4.676000E+00	  0.042244490	2.847500E+01	  0.042244490	1.048030E+02	  0.042244490	8.846200E+01
113	  0.042444889	-4.724000E+00	  0.042444889	2.643000E+01	  0.042444889	1.114900E+02	  0.042444889	8.688600E+01
114	  0.042645290	-4.768000E+00	  0.042645290	2.437400E+01	  0.042645290	1.184040E+02	  0.042645290	8.469200E+01
115	  0.042845692	-4.813000E+00	  0.042845692	2.232800E+01	  0.042845692	1.253680E+02	  0.042845692	8.169500E+01
116	  0.043046094	-4.856000E+00	  0.043046094	2.029100E+01	  0.043046094	1.323090E+02	  0.043046094	7.794500E+01
117	  0.043246493	-4.900000E+00	  0.043246493	1.824900E+01	  0.043246493	1.391050E+02	  0.043246493	7.326000E+01
118	  0.043446895	-4.943000E+00	  0.043446895	1.622600E+01	  0.043446895	1.455700E+02	  0.043446895	6.775500E+01
119	  0.043647297	-4.985000E+00	  0.043647297	1.419900E+01	  0.043647297	1.516170E+02	  0.043647297	6.137000E+01
120	  0.043847695	-5.028000E+00	  0.043847695	1.217700E+01	  0.043847695	1.570190E+02	  0.043847695	5.413300E+01
121	  0.044048097	-5.070000E+00	  0.044048097	1.017100E+01	  0.044048097	1.616370E+02	  0.044048097	4.622000E+01
122	  0.044248499	-5.114000E+00	  0.044248499	8.148000E+00	  0.044248499	1.653400E+02	  0.044248499	3.758400E+01
123	  0.044448901	-5.158000E+00	  0.044448901	6.148000E+00	  0.044448901	1.679930E+02	  0.044448901	2.858800E+01
124	  0.044649299	-5.197000E+00	  0.044649299	4.166000E+00	  0.044649299	1.696330E+02	  0.044649299	1.941300E+01
125	  0.044849701	-5.235000E+00	  0.044849701	2.176000E+00	  0.044849701	1.702330E+02	  0.044849701	1.010000E+01
126	  0.045050103	-5.267000E+00	  0.045050103	1.960000E-01	  0.045050103	1.699230E+02	  0.045050103	9.050000E-01
127	  0.045250501	-5.302000E+00	  0.045250501	-1.796000E+00	  0.045250501	1.684240E+02	  0.045250501	-8.134000E+00
128	  0.045450903	-5.336000E+00	  0.045450903	-3.731000E+00	  0.045450903	1.660500E+02	  0.045450903	-1.653100E+01
129	  0.045651305	-5.370000E+00	  0.045651305	-5.684000E+00	  0.045651305	1.627840E+02	  0.045651305	-2.448700E+01
130	  0.045851704	-5.402000E+00	  0.045851704	-7.607000E+00	  0.045851704	1.589240E+02	  0.045851704	-3.173800E+01
131	  0.046052106	-5.435000E+00	  0.046052106	-9.569000E+00	  0.046052106	1.543500E+02	  0.046052106	-3.844300E+01
132	  0.046252504	-5.467000E+00	  0.046252504	-1.148400E+01	  0.046252504	1.494650E+02	  0.046252504	-4.429500E+01
133	  0.046452906	-5.498000E+00	  0.046452906	-1.338500E+01	  0.046452906	1.442960E+02	  0.046452906	-4.940500E+01
134	  0.046653304	-5.523000E+00	  0.046653304	-1.531200E+01	  0.046653304	1.389230E+02	  0.046653304	-5.397300E+01
135	  0.046853706	-5.549000E+00	  0.046853706	-1.721200E+01	  0.046853706	1.334880E+02	  0.046853706	-5.781100E+01
136	  0.047054108	-5.575000E+00	  0.047054108	-1.910100E+01	  0.047054108	1.280360E+02	  0.047054108	-6.099900E+01
137	  0.047254506	-5.599000E+00	  0.047254506	-2.099400E+01	  0.047254506	1.226120E+02	  0.047254506	-6.364400E+01
138	  0.047454908	-5.619000E+00	  0.047454908	-2.285700E+01	  0.047454908	1.173800E+02	  0.047454908	-6.578500E+01
139	  0.047655310	-5.640000E+00	  0.047655310	-2.471200E+01	  0.047655310	1.122770E+02	  0.047655310	-6.744500E+01
140	  0.047855709	-5.664000E+00	  0.047855709	-2.653900E+01	  0.047855709	1.073730E+02	  0.047855709	-6.859400E+01
141	  0.048056111	-5.683000E+00	  0.048056111	-2.834500E+01	  0.048056111	1.027210E+02	  0.048056111	-6.947100E+01
142	  0.048256513	-5.703000E+00	  0.048256513	-3.013500E+01	  0.048256513	9.827600E+01	  0.048256513	-7.000100E+01
143	  0.048456915	-5.726000E+00	  0.048456915	-3.194100E+01	  0.048456915	9.397900E+01	  0.048456915	-7.022100E+01
144	  0.048657313	-5.746000E+00	  0.048657313	-3.371200E+01	  0.048657313	8.996200E+01	  0.048657313	-7.023300E+01
145	  0.048857715	-5.762000E+00	  0.048857715	-3.551000E+01	  0.048857715	8.608100E+01	  0.048857715	-7.011300E+01
146	  0.049058117	-5.779000E+00	  0.049058117	-3.727800E+01	  0.049058117	8.244800E+01	  0.049058117	-6.978600E+01
147	  0.049258515	-5.792000E+00	  0.049258515	-3.904100E+01	  0.049258515	7.900500E+01	  0.049258515	-6.936000E+01
148	  0.049458917	-5.811000E+00	  0.049458917	-4.077300E+01	  0.049458917	7.580100E+01	  0.049458917	-6.874000E+01
149	  0.049659319	-5.828000E+00	  0.049659319	-4.250300E+01	  0.049659319	7.276400E+01	  0.049659319	-6.804400E+01
150	  0.049859721	-5.846000E+00	  0.049859721	-4.423300E+01	  0.049859721	6.989400E+01	  0.049859721	-6.724100E+01
151	  0.050060119	-5.858000E+00	  0.050060119	-4.596200E+01	  0.050060119	6.716100E+01	  0.050060119	-6.642500E+01
152	  0.050260521	-5.868000E+00	  0.050260521	-4.768500E+01	  0.050260521	6.457500E+01	  0.050260521	-6.557000E+01
153	  0.050460923	-5.882000E+00	  0.050460923	-4.940000E+01	  0.050460923	6.215100E+01	  0.050460923	-6.461800E+01
154	  0.050661322	-5.889000E+00	  0.050661322	-5.109400E+01	  0.050661322	5.985800E+01	  0.050661322	-6.370300E+01
155	  0.050861724	-5.894000E+00	  0.050861724	-5.277500E+01	  0.050861724	5.769400E+01	  0.050861724	-6.276900E+01
156	  0.051062126	-5.904000E+00	  0.051062126	-5.441900E+01	  0.051062126	5.570400E+01	  0.051062126	-6.177900E+01
157	  0.051262524	-5.909000E+00	  0.051262524	-5.605400E+01	  0.051262524	5.380800E+01	  0.051262524	-6.081100E+01
158	  0.051462926	-5.916000E+00	  0.051462926	-5.764700E+01	  0.051462926	5.205900E+01	  0.051462926	-5.983300E+01
159	  0.051663328	-5.921000E+00	  0.051663328	-5.922400E+01	  0.051663328	5.040600E+01	  0.051663328	-5.886100E+01
160	  0.051863730	-5.927000E+00	  0.051863730	-6.081500E+01	  0.051863730	4.882300E+01	  0.051863730	-5.786000E+01
161	  0.052064128	-5.939000E+00	  0.052064128	-6.237100E+01	  0.052064128	4.737300E+01	  0.052064128	-5.684100E+01
162	  0.052264530	-5.947000E+00	  0.052264530	-6.395000E+01	  0.052264530	4.595400E+01	  0.052264530	-5.583300E+01
163	  0.052464932	-5.955000E+00	  0.052464932	-6.549300E+01	  0.052464932	4.463600E+01	  0.052464932	-5.484100E+01
164	  0.052665330	-5.964000E+00	  0.052665330	-6.706000E+01	  0.052665330	4.336800E+01	  0.052665330	-5.382700E+01
165	  0.052865732	-5.977000E+00	  0.052865732	-6.863000E+01	  0.052865732	4.216800E+01	  0.052865732	-5.279900E+01
166	  0.053066134	-5.987000E+00	  0.053066134	-7.015100E+01	  0.053066134	4.105600E+01	  0.053066134	-5.181400E+01
167	  0.053266536	-5.992000E+00	  0.053266536	-7.171400E+01	  0.053266536	3.994000E+01	  0.053266536	-5.083900E+01
168	  0.053466935	-6.000000E+00	  0.053466935	-7.325800E+01	  0.053466935	3.890200E+01	  0.053466935	-4.986500E+01
169	  0.053667337	-6.002000E+00	  0.053667337	-7.479400E+01	  0.053667337	3.789500E+01	  0.053667337	-4.892500E+01
170	  0.053867739	-6.002000E+00	  0.053867739	-7.631900E+01	  0.053867739	3.692800E+01	  0.053867739	-4.800800E+01
171	  0.054068137	-6.002000E+00	  0.054068137	-7.780100E+01	  0.054068137	3.603200E+01	  0.054068137	-4.712000E+01
172	  0.054268539	-6.008000E+00	  0.054268539	-7.930100E+01	  0.054268539	3.518500E+01	  0.054268539	-4.620400E+01
173	  0.054468941	-6.005000E+00	  0.054468941	-8.073800E+01	  0.054468941	3.437500E+01	  0.054468941	-4.536600E+01
174	  0.054669339	-6.012000E+00	  0.054669339	-8.216100E+01	  0.054669339	3.364300E+01	  0.054669339	-4.450600E+01
175	  0.054869737	-6.015000E+00	  0.054869737	-8.357200E+01	  0.054869737	3.293200E+01	  0.054869737	-4.367400E+01
176	  0.055070139	-6.023000E+00	  0.055070139	-8.495100E+01	  0.055070139	3.228300E+01	  0.055070139	-4.285200E+01
177	  0.055270538	-6.026000E+00	  0.055270538	-8.636200E+01	  0.055270538	3.162600E+01	  0.055270538	-4.203500E+01
178	  0.055470940	-6.036000E+00	  0.055470940	-8.774600E+01	  0.055470940	3.103400E+01	  0.055470940	-4.122000E+01
179	  0.055671342	-6.041000E+00	  0.055671342	-8.914700E+01	  0.055671342	3.043800E+01	  0.055671342	-4.041700E+01
180	  0.055871744	-6.042000E+00	  0.055871744	-9.053200E+01	  0.055871744	2.985700E+01	  0.055871744	-3.964400E+01
181	  0.056072142	-6.049000E+00	  0.056072142	-9.191300E+01	  0.056072142	2.932400E+01	  0.056072142	-3.886100E+01
182	  0.056272544	-6.055000E+00	  0.056272544	-9.327600E+01	  0.056272544	2.881400E+01	  0.056272544	-3.810000E+01
183	  0.056472946	-6.057000E+00	  0.056472946	-9.466500E+01	  0.056472946	2.829700E+01	  0.056472946	-3.734300E+01
184	  0.056673344	-6.059000E+00	  0.056673344	-9.601900E+01	  0.056673344	2.781600E+01	  0.056673344	-3.660900E+01
185	  0.056873746	-6.060000E+00	  0.056873746	-9.737500E+01	  0.056873746	2.734500E+01	  0.056873746	-3.588400E+01
186	  0.057074148	-6.057000E+00	  0.057074148	-9.873900E+01	  0.057074148	2.687600E+01	  0.057074148	-3.517000E+01
187	  0.057274550	-6.050000E+00	  0.057274550	-1.000730E+02	  0.057274550	2.642100E+01	  0.057274550	-3.448500E+01
188	  0.057474948	-6.047000E+00	  0.057474948	-1.013910E+02	  0.057474948	2.599900E+01	  0.057474948	-3.380600E+01
189	  0.057675350	-6.041000E+00	  0.057675350	-1.026930E+02	  0.057675350	2.558400E+01	  0.057675350	-3.314700E+01
190	  0.057875752	-6.036000E+00	  0.057875752	-1.039980E+02	  0.057875752	2.518800E+01	  0.057875752	-3.249000E+01
191	  0.058076151	-6.030000E+00	  0.058076151	-1.052880E+02	  0.058076151	2.480700E+01	  0.058076151	-3.184500E+01
192	  0.058276553	-6.024000E+00	  0.058276553	-1.065320E+02	  0.058276553	2.444900E+01	  0.058276553	-3.122900E+01
193	  0.058476955	-6.017000E+00	  0.058476955	-1.077690E+02	  0.058476955	2.410300E+01	  0.058476955	-3.062100E+01
194	  0.058677353	-6.014000E+00	  0.058677353	-1.090350E+02	  0.058677353	2.377000E+01	  0.058677353	-2.999800E+01
195	  0.058877755	-6.007000E+00	  0.058877755	-1.102940E+02	  0.058877755	2.344200E+01	  0.058877755	-2.938800E+01
196	  0.059078157	-6.003000E+00	  0.059078157	-1.115300E+02	  0.059078157	2.313600E+01	  0.059078157	-2.879000E+01
197	  0.059278559	-5.996000E+00	  0.059278559	-1.127760E+02	  0.059278559	2.282800E+01	  0.059278559	-2.819500E+01
198	  0.059478957	-5.994000E+00	  0.059478957	-1.140330E+02	  0.059478957	2.254500E+01	  0.059478957	-2.759100E+01
199	  0.059679359	-5.989000E+00	  0.059679359	-1.152890E+02	  0.059679359	2.226100E+01	  0.059679359	-2.699700E+01
200	  0.059879761	-5.985000E+00	  0.059879761	-1.165210E+02	  0.059879761	2.199500E+01	  0.059879761	-2.641600E+01
201	  0.060080159	-5.978000E+00	  0.060080159	-1.177600E+02	  0.060080159	2.172500E+01	  0.060080159	-2.584100E+01
202	  0.060280561	-5.975000E+00	  0.060280561	-1.189990E+02	  0.060280561	2.147600E+01	  0.060280561	-2.526500E+01
203	  0.060480963	-5.972000E+00	  0.060480963	-1.202100E+02	  0.060480963	2.124300E+01	  0.060480963	-2.470400E+01
204	  0.060681365	-5.968000E+00	  0.060681365	-1.214350E+02	  0.060681365	2.100900E+01	  0.060681365	-2.414200E+01
205	  0.060881764	-5.957000E+00	  0.060881764	-1.226320E+02	  0.060881764	2.076800E+01	  0.060881764	-2.360400E+01
206	  0.061082166	-5.954000E+00	  0.061082166	-1.238470E+02	  0.061082166	2.055300E+01	  0.061082166	-2.305300E+01
207	  0.061282568	-5.951000E+00	  0.061282568	-1.250480E+02	  0.061282568	2.034800E+01	  0.061282568	-2.251100E+01
208	  0.061482966	-5.942000E+00	  0.061482966	-1.262320E+02	  0.061482966	2.013600E+01	  0.061482966	-2.198600E+01
209	  0.061683368	-5.938000E+00	  0.061683368	-1.273910E+02	  0.061683368	1.995000E+01	  0.061683368	-2.146900E+01
210	  0.061883770	-5.935000E+00	  0.061883770	-1.285380E+02	  0.061883770	1.977300E+01	  0.061883770	-2.096100E+01
211	  0.062084168	-5.934000E+00	  0.062084168	-1.296840E+02	  0.062084168	1.960500E+01	  0.062084168	-2.045400E+01
212	  0.062284570	-5.929000E+00	  0.062284570	-1.308250E+02	  0.062284570	1.943400E+01	  0.062284570	-1.995500E+01
213	  0.062484972	-5.922000E+00	  0.062484972	-1.319380E+02	  0.062484972	1.926500E+01	  0.062484972	-1.947300E+01
214	  0.062685370	-5.923000E+00	  0.062685370	-1.330660E+02	  0.062685370	1.912300E+01	  0.062685370	-1.898000E+01
215	  0.062885776	-5.928000E+00	  0.062885776	-1.342060E+02	  0.062885776	1.899500E+01	  0.062885776	-1.848100E+01
216	  0.063086174	-5.925000E+00	  0.063086174	-1.353670E+02	  0.063086174	1.884600E+01	  0.063086174	-1.798200E+01
217	  0.063286573	-5.931000E+00	  0.063286573	-1.365430E+02	  0.063286573	1.872600E+01	  0.063286573	-1.747200E+01
218	  0.063486971	-5.929000E+00	  0.063486971	-1.376500E+02	  0.063486971	1.859700E+01	  0.063486971	-1.700000E+01
219	  0.063687377	-5.931000E+00	  0.063687377	-1.388150E+02	  0.063687377	1.847600E+01	  0.063687377	-1.650300E+01
220	  0.063887775	-5.924000E+00	  0.063887775	-1.399450E+02	  0.063887775	1.834000E+01	  0.063887775	-1.602900E+01
221	  0.064088173	-5.922000E+00	  0.064088173	-1.410830E+02	  0.064088173	1.821900E+01	  0.064088173	-1.555100E+01
222	  0.064288579	-5.924000E+00	  0.064288579	-1.421870E+02	  0.064288579	1.811600E+01	  0.064288579	-1.508700E+01
223	  0.064488977	-5.922000E+00	  0.064488977	-1.432990E+02	  0.064488977	1.800700E+01	  0.064488977	-1.462300E+01
224	  0.064689375	-5.924000E+00	  0.064689375	-1.443860E+02	  0.064689375	1.791500E+01	  0.064689375	-1.416900E+01
225	  0.064889781	-5.922000E+00	  0.064889781	-1.454800E+02	  0.064889781	1.781500E+01	  0.064889781	-1.371700E+01
226	  0.065090179	-5.919000E+00	  0.065090179	-1.465280E+02	  0.065090179	1.771700E+01	  0.065090179	-1.328600E+01
227	  0.065290578	-5.922000E+00	  0.065290578	-1.476160E+02	  0.065290578	1.763800E+01	  0.065290578	-1.283600E+01
228	  0.065490983	-5.925000E+00	  0.065490983	-1.486610E+02	  0.065490983	1.756500E+01	  0.065490983	-1.240700E+01
229	  0.065691382	-5.922000E+00	  0.065691382	-1.497440E+02	  0.065691382	1.747700E+01	  0.065691382	-1.196500E+01
230	  0.065891780	-5.926000E+00	  0.065891780	-1.507750E+02	  0.065891780	1.741500E+01	  0.065891780	-1.154300E+01
231	  0.066092186	-5.930000E+00	  0.066092186	-1.518320E+02	  0.066092186	1.735200E+01	  0.066092186	-1.111200E+01
232	  0.066292584	-5.934000E+00	  0.066292584	-1.528760E+02	  0.066292584	1.729400E+01	  0.066292584	-1.068800E+01
233	  0.066492982	-5.938000E+00	  0.066492982	-1.539070E+02	  0.066492982	1.723800E+01	  0.066492982	-1.027100E+01
234	  0.066693388	-5.941000E+00	  0.066693388	-1.549380E+02	  0.066693388	1.718400E+01	  0.066693388	-9.855000E+00
235	  0.066893786	-5.942000E+00	  0.066893786	-1.559640E+02	  0.066893786	1.712800E+01	  0.066893786	-9.443000E+00
236	  0.067094192	-5.946000E+00	  0.067094192	-1.569380E+02	  0.067094192	1.708400E+01	  0.067094192	-9.051000E+00
237	  0.067294590	-5.951000E+00	  0.067294590	-1.579630E+02	  0.067294590	1.704500E+01	  0.067294590	-8.640000E+00
238	  0.067494988	-5.955000E+00	  0.067494988	-1.589870E+02	  0.067494988	1.700400E+01	  0.067494988	-8.232000E+00
239	  0.067695394	-5.960000E+00	  0.067695394	-1.599920E+02	  0.067695394	1.697000E+01	  0.067695394	-7.831000E+00
240	  0.067895792	-5.963000E+00	  0.067895792	-1.609580E+02	  0.067895792	1.693200E+01	  0.067895792	-7.447000E+00
241	  0.068096191	-5.972000E+00	  0.068096191	-1.619590E+02	  0.068096191	1.691400E+01	  0.068096191	-7.048000E+00
242	  0.068296596	-5.976000E+00	  0.068296596	-1.629130E+02	  0.068296596	1.688500E+01	  0.068296596	-6.671000E+00
243	  0.068496995	-5.975000E+00	  0.068496995	-1.639130E+02	  0.068496995	1.684600E+01	  0.068496995	-6.277000E+00
244	  0.068697393	-5.982000E+00	  0.068697393	-1.648460E+02	  0.068697393	1.683000E+01	  0.068697393	-5.908000E+00
245	  0.068897791	-5.985000E+00	  0.068897791	-1.658290E+02	  0.068897791	1.680500E+01	  0.068897791	-5.521000E+00
246	  0.069098189	-5.989000E+00	  0.069098189	-1.667650E+02	  0.069098189	1.678500E+01	  0.069098189	-5.154000E+00
247	  0.069298595	-5.991000E+00	  0.069298595	-1.676970E+02	  0.069298595	1.676200E+01	  0.069298595	-4.789000E+00
248	  0.069498993	-5.998000E+00	  0.069498993	-1.686290E+02	  0.069498993	1.675600E+01	  0.069498993	-4.423000E+00
249	  0.069699399	-6.001000E+00	  0.069699399	-1.695830E+02	  0.069699399	1.674000E+01	  0.069699399	-4.050000E+00
250	  0.069899797	-6.005000E+00	  0.069899797	-1.705110E+02	  0.069899797	1.673000E+01	  0.069899797	-3.687000E+00
251	  0.070100196	-6.009000E+00	  0.070100196	-1.714270E+02	  0.070100196	1.672000E+01	  0.070100196	-3.330000E+00
252	  0.070300601	-6.011000E+00	  0.070300601	-1.723570E+02	  0.070300601	1.671000E+01	  0.070300601	-2.968000E+00
253	  0.070501000	-6.010000E+00	  0.070501000	-1.732930E+02	  0.070501000	1.669100E+01	  0.070501000	-2.604000E+00
254	  0.070701398	-6.013000E+00	  0.070701398	-1.741920E+02	  0.070701398	1.668700E+01	  0.070701398	-2.254000E+00
255	  0.070901804	-6.012000E+00	  0.070901804	-1.751360E+02	  0.070901804	1.667200E+01	  0.070901804	-1.887000E+00
256	  0.071102202	-6.014000E+00	  0.071102202	-1.760430E+02	  0.071102202	1.666800E+01	  0.071102202	-1.535000E+00
257	  0.071302600	-6.014000E+00	  0.071302600	-1.769560E+02	  0.071302600	1.666100E+01	  0.071302600	-1.180000E+00
258	  0.071503006	-6.018000E+00	  0.071503006	-1.778570E+02	  0.071503006	1.666600E+01	  0.071503006	-8.310000E-01
259	  0.071703404	-6.021000E+00	  0.071703404	-1.787600E+02	  0.071703404	1.667100E+01	  0.071703404	-4.800000E-01
260	  0.071903802	-6.019000E+00	  0.071903802	-1.796380E+02	  0.071903802	1.666300E+01	  0.071903802	-1.400000E-01
261	  0.072104208	-6.021000E+00	  0.072104208	1.794530E+02	  0.072104208	1.666800E+01	  0.072104208	2.120000E-01
262	  0.072304606	-6.025000E+00	  0.072304606	1.785600E+02	  0.072304606	1.668000E+01	  0.072304606	5.580000E-01
263	  0.072505005	-6.026000E+00	  0.072505005	1.776510E+02	  0.072505005	1.668800E+01	  0.072505005	9.100000E-01
264	  0.072705410	-6.028000E+00	  0.072705410	1.767670E+02	  0.072705410	1.669800E+01	  0.072705410	1.253000E+00
265	  0.072905809	-6.029000E+00	  0.072905809	1.758570E+02	  0.072905809	1.670800E+01	  0.072905809	1.606000E+00
266	  0.073106214	-6.030000E+00	  0.073106214	1.749910E+02	  0.073106214	1.672000E+01	  0.073106214	1.942000E+00
267	  0.073306613	-6.035000E+00	  0.073306613	1.740860E+02	  0.073306613	1.674300E+01	  0.073306613	2.293000E+00
268	  0.073507011	-6.039000E+00	  0.073507011	1.732230E+02	  0.073507011	1.676600E+01	  0.073507011	2.628000E+00
269	  0.073707417	-6.041000E+00	  0.073707417	1.723330E+02	  0.073707417	1.678600E+01	  0.073707417	2.974000E+00
270	  0.073907815	-6.042000E+00	  0.073907815	1.714430E+02	  0.073907815	1.680400E+01	  0.073907815	3.320000E+00
271	  0.074108213	-6.049000E+00	  0.074108213	1.705710E+02	  0.074108213	1.684200E+01	  0.074108213	3.658000E+00
272	  0.074308619	-6.052000E+00	  0.074308619	1.696900E+02	  0.074308619	1.686800E+01	  0.074308619	4.000000E+00
273	  0.074509017	-6.059000E+00	  0.074509017	1.687890E+02	  0.074509017	1.690900E+01	  0.074509017	4.350000E+00
274	  0.074709415	-6.062000E+00	  0.074709415	1.679240E+02	  0.074709415	1.693900E+01	  0.074709415	4.687000E+00
275	  0.074909821	-6.066000E+00	  0.074909821	1.670410E+02	  0.074909821	1.697600E+01	  0.074909821	5.031000E+00
276	  0.075110219	-6.076000E+00	  0.075110219	1.661880E+02	  0.075110219	1.702800E+01	  0.075110219	5.362000E+00
277	  0.075310618	-6.082000E+00	  0.075310618	1.653010E+02	  0.075310618	1.707200E+01	  0.075310618	5.707000E+00
278	  0.075511023	-6.089000E+00	  0.075511023	1.644780E+02	  0.075511023	1.712000E+01	  0.075511023	6.028000E+00
279	  0.075711422	-6.095000E+00	  0.075711422	1.636160E+02	  0.075711422	1.716700E+01	  0.075711422	6.364000E+00
280	  0.075911827	-6.104000E+00	  0.075911827	1.627450E+02	  0.075911827	1.722300E+01	  0.075911827	6.703000E+00
281	  0.076112226	-6.113000E+00	  0.076112226	1.618830E+02	  0.076112226	1.728300E+01	  0.076112226	7.039000E+00
282	  0.076312624	-6.121000E+00	  0.076312624	1.610220E+02	  0.076312624	1.734200E+01	  0.076312624	7.375000E+00
283	  0.076513030	-6.130000E+00	  0.076513030	1.601300E+02	  0.076513030	1.740500E+01	  0.076513030	7.724000E+00
284	  0.076713428	-6.136000E+00	  0.076713428	1.592930E+02	  0.076713428	1.746100E+01	  0.076713428	8.052000E+00
285	  0.076913826	-6.142000E+00	  0.076913826	1.584090E+02	  0.076913826	1.752000E+01	  0.076913826	8.399000E+00
286	  0.077114232	-6.151000E+00	  0.077114232	1.575630E+02	  0.077114232	1.758900E+01	  0.077114232	8.730000E+00
287	  0.077314630	-6.159000E+00	  0.077314630	1.567580E+02	  0.077314630	1.765300E+01	  0.077314630	9.046000E+00
288	  0.077515028	-6.164000E+00	  0.077515028	1.559040E+02	  0.077515028	1.771700E+01	  0.077515028	9.382000E+00
289	  0.077715434	-6.173000E+00	  0.077715434	1.550900E+02	  0.077715434	1.778600E+01	  0.077715434	9.703000E+00
290	  0.077915832	-6.182000E+00	  0.077915832	1.542510E+02	  0.077915832	1.786200E+01	  0.077915832	1.003300E+01
291	  0.078116231	-6.192000E+00	  0.078116231	1.534440E+02	  0.078116231	1.794100E+01	  0.078116231	1.035000E+01
292	  0.078316636	-6.205000E+00	  0.078316636	1.526230E+02	  0.078316636	1.802800E+01	  0.078316636	1.067200E+01
293	  0.078517035	-6.218000E+00	  0.078517035	1.517880E+02	  0.078517035	1.812100E+01	  0.078517035	1.100000E+01
294	  0.078717433	-6.228000E+00	  0.078717433	1.509750E+02	  0.078717433	1.820500E+01	  0.078717433	1.132100E+01
295	  0.078917839	-6.241000E+00	  0.078917839	1.501660E+02	  0.078917839	1.829900E+01	  0.078917839	1.163900E+01
296	  0.079118237	-6.257000E+00	  0.079118237	1.493850E+02	  0.079118237	1.840000E+01	  0.079118237	1.194500E+01
297	  0.079318643	-6.266000E+00	  0.079318643	1.485780E+02	  0.079318643	1.848600E+01	  0.079318643	1.226500E+01
298	  0.079519041	-6.281000E+00	  0.079519041	1.477530E+02	  0.079519041	1.859200E+01	  0.079519041	1.259000E+01
299	  0.079719439	-6.297000E+00	  0.079719439	1.469620E+02	  0.079719439	1.870000E+01	  0.079719439	1.290100E+01
300	  0.079919845	-6.309000E+00	  0.079919845	1.461650E+02	  0.079919845	1.880000E+01	  0.079919845	1.321700E+01
301	  0.080120243	-6.324000E+00	  0.080120243	1.453520E+02	  0.080120243	1.891300E+01	  0.080120243	1.353800E+01
302	  0.080320641	-6.334000E+00	  0.080320641	1.445690E+02	  0.080320641	1.901000E+01	  0.080320641	1.385000E+01
303	  0.080521047	-6.349000E+00	  0.080521047	1.437770E+02	  0.080521047	1.912400E+01	  0.080521047	1.416300E+01
304	  0.080721445	-6.362000E+00	  0.080721445	1.430070E+02	  0.080721445	1.923300E+01	  0.080721445	1.446900E+01
305	  0.080921844	-6.375000E+00	  0.080921844	1.422210E+02	  0.080921844	1.934600E+01	  0.080921844	1.478200E+01
306	  0.081122249	-6.393000E+00	  0.081122249	1.414340E+02	  0.081122249	1.947300E+01	  0.081122249	1.509300E+01
307	  0.081322648	-6.407000E+00	  0.081322648	1.406550E+02	  0.081322648	1.959200E+01	  0.081322648	1.540200E+01
308	  0.081523046	-6.425000E+00	  0.081523046	1.398870E+02	  0.081523046	1.972300E+01	  0.081523046	1.570500E+01
309	  0.081723452	-6.440000E+00	  0.081723452	1.391310E+02	  0.081723452	1.984600E+01	  0.081723452	1.600600E+01
310	  0.081923850	-6.454000E+00	  0.081923850	1.383550E+02	  0.081923850	1.997300E+01	  0.081923850	1.631500E+01
311	  0.082124248	-6.471000E+00	  0.082124248	1.376160E+02	  0.082124248	2.010300E+01	  0.082124248	1.660800E+01
312	  0.082324654	-6.486000E+00	  0.082324654	1.368710E+02	  0.082324654	2.023200E+01	  0.082324654	1.690500E+01
313	  0.082525052	-6.511000E+00	  0.082525052	1.361460E+02	  0.082525052	2.038900E+01	  0.082525052	1.718700E+01
314	  0.082725458	-6.527000E+00	  0.082725458	1.354000E+02	  0.082725458	2.052400E+01	  0.082725458	1.748400E+01
315	  0.082925856	-6.546000E+00	  0.082925856	1.346670E+02	  0.082925856	2.067100E+01	  0.082925856	1.777300E+01
316	  0.083126254	-6.568000E+00	  0.083126254	1.339130E+02	  0.083126254	2.082700E+01	  0.083126254	1.806900E+01
317	  0.083326660	-6.587000E+00	  0.083326660	1.331340E+02	  0.083326660	2.098300E+01	  0.083326660	1.837800E+01
318	  0.083527058	-6.606000E+00	  0.083527058	1.323850E+02	  0.083527058	2.113800E+01	  0.083527058	1.867400E+01
319	  0.083727457	-6.623000E+00	  0.083727457	1.316250E+02	  0.083727457	2.129300E+01	  0.083727457	1.897700E+01
320	  0.083927862	-6.641000E+00	  0.083927862	1.308900E+02	  0.083927862	2.144500E+01	  0.083927862	1.927000E+01
321	  0.084128261	-6.655000E+00	  0.084128261	1.301610E+02	  0.084128261	2.159300E+01	  0.084128261	1.956300E+01
322	  0.084328659	-6.675000E+00	  0.084328659	1.294420E+02	  0.084328659	2.175400E+01	  0.084328659	1.984800E+01
323	  0.084529065	-6.695000E+00	  0.084529065	1.287670E+02	  0.084529065	2.191200E+01	  0.084529065	2.011300E+01
324	  0.084729463	-6.713000E+00	  0.084729463	1.280320E+02	  0.084729463	2.207800E+01	  0.084729463	2.040500E+01
325	  0.084929861	-6.732000E+00	  0.084929861	1.273220E+02	  0.084929861	2.224300E+01	  0.084929861	2.068700E+01
326	  0.085130267	-6.754000E+00	  0.085130267	1.266150E+02	  0.085130267	2.242000E+01	  0.085130267	2.096400E+01
327	  0.085330658	-6.776000E+00	  0.085330658	1.258840E+02	  0.085330658	2.260400E+01	  0.085330658	2.125000E+01
328	  0.085531056	-6.801000E+00	  0.085531056	1.252340E+02	  0.085531056	2.278300E+01	  0.085531056	2.150000E+01
329	  0.085731462	-6.822000E+00	  0.085731462	1.245380E+02	  0.085731462	2.296200E+01	  0.085731462	2.177300E+01
330	  0.085931860	-6.845000E+00	  0.085931860	1.238750E+02	  0.085931860	2.314600E+01	  0.085931860	2.202900E+01
331	  0.086132258	-6.871000E+00	  0.086132258	1.231870E+02	  0.086132258	2.334100E+01	  0.086132258	2.229300E+01
332	  0.086332664	-6.892000E+00	  0.086332664	1.225010E+02	  0.086332664	2.352700E+01	  0.086332664	2.256100E+01
333	  0.086533062	-6.918000E+00	  0.086533062	1.218120E+02	  0.086533062	2.372800E+01	  0.086533062	2.282500E+01
334	  0.086733460	-6.943000E+00	  0.086733460	1.211200E+02	  0.086733460	2.393200E+01	  0.086733460	2.309100E+01
335	  0.086933866	-6.965000E+00	  0.086933866	1.204370E+02	  0.086933866	2.412900E+01	  0.086933866	2.335500E+01
336	  0.087134264	-6.991000E+00	  0.087134264	1.197080E+02	  0.087134264	2.434700E+01	  0.087134264	2.363500E+01
337	  0.087334670	-7.012000E+00	  0.087334670	1.190450E+02	  0.087334670	2.454200E+01	  0.087334670	2.389200E+01
338	  0.087535068	-7.039000E+00	  0.087535068	1.183480E+02	  0.087535068	2.476200E+01	  0.087535068	2.415500E+01
339	  0.087735467	-7.061000E+00	  0.087735467	1.176760E+02	  0.087735467	2.496600E+01	  0.087735467	2.441500E+01
340	  0.087935872	-7.088000E+00	  0.087935872	1.170120E+02	  0.087935872	2.518500E+01	  0.087935872	2.466300E+01
341	  0.088136271	-7.111000E+00	  0.088136271	1.163310E+02	  0.088136271	2.540000E+01	  0.088136271	2.492400E+01
342	  0.088336669	-7.133000E+00	  0.088336669	1.156900E+02	  0.088336669	2.560400E+01	  0.088336669	2.517000E+01
343	  0.088537075	-7.154000E+00	  0.088537075	1.150120E+02	  0.088537075	2.582000E+01	  0.088537075	2.543000E+01
344	  0.088737473	-7.178000E+00	  0.088737473	1.143630E+02	  0.088737473	2.603900E+01	  0.088737473	2.567500E+01
345	  0.088937871	-7.202000E+00	  0.088937871	1.136890E+02	  0.088937871	2.626600E+01	  0.088937871	2.593000E+01
346	  0.089138277	-7.227000E+00	  0.089138277	1.130520E+02	  0.089138277	2.648900E+01	  0.089138277	2.616700E+01
347	  0.089338675	-7.251000E+00	  0.089338675	1.124420E+02	  0.089338675	2.670700E+01	  0.089338675	2.639200E+01
348	  0.089539073	-7.277000E+00	  0.089539073	1.118110E+02	  0.089539073	2.693700E+01	  0.089539073	2.662400E+01
349	  0.089739479	-7.305000E+00	  0.089739479	1.111820E+02	  0.089739479	2.717700E+01	  0.089739479	2.684900E+01
350	  0.089939877	-7.330000E+00	  0.089939877	1.105060E+02	  0.089939877	2.742100E+01	  0.089939877	2.710000E+01
351	  0.090140276	-7.349000E+00	  0.090140276	1.098900E+02	  0.090140276	2.763800E+01	  0.090140276	2.733300E+01
352	  0.090340681	-7.377000E+00	  0.090340681	1.092710E+02	  0.090340681	2.788200E+01	  0.090340681	2.755300E+01
353	  0.090541080	-7.399000E+00	  0.090541080	1.086120E+02	  0.090541080	2.812200E+01	  0.090541080	2.780000E+01
354	  0.090741485	-7.424000E+00	  0.090741485	1.079750E+02	  0.090741485	2.837000E+01	  0.090741485	2.803000E+01
355	  0.090941884	-7.444000E+00	  0.090941884	1.073640E+02	  0.090941884	2.859700E+01	  0.090941884	2.825800E+01
356	  0.091142282	-7.471000E+00	  0.091142282	1.067820E+02	  0.091142282	2.884100E+01	  0.091142282	2.845800E+01
357	  0.091342688	-7.495000E+00	  0.091342688	1.061470E+02	  0.091342688	2.909300E+01	  0.091342688	2.868700E+01
358	  0.091543086	-7.524000E+00	  0.091543086	1.055570E+02	  0.091543086	2.934800E+01	  0.091543086	2.888700E+01
359	  0.091743484	-7.543000E+00	  0.091743484	1.049570E+02	  0.091743484	2.958100E+01	  0.091743484	2.910800E+01
360	  0.091943890	-7.565000E+00	  0.091943890	1.043970E+02	  0.091943890	2.981200E+01	  0.091943890	2.930600E+01
361	  0.092144288	-7.590000E+00	  0.092144288	1.038310E+02	  0.092144288	3.005800E+01	  0.092144288	2.949800E+01
362	  0.092344686	-7.613000E+00	  0.092344686	1.032830E+02	  0.092344686	3.029300E+01	  0.092344686	2.968800E+01
363	  0.092545092	-7.638000E+00	  0.092545092	1.027140E+02	  0.092545092	3.054500E+01	  0.092545092	2.988000E+01
364	  0.092745490	-7.668000E+00	  0.092745490	1.022040E+02	  0.092745490	3.079500E+01	  0.092745490	3.003400E+01
365	  0.092945889	-7.700000E+00	  0.092945889	1.016500E+02	  0.092945889	3.106500E+01	  0.092945889	3.020200E+01
366	  0.093146294	-7.733000E+00	  0.093146294	1.010790E+02	  0.093146294	3.134600E+01	  0.093146294	3.037400E+01
367	  0.093346693	-7.762000E+00	  0.093346693	1.005740E+02	  0.093346693	3.159700E+01	  0.093346693	3.052400E+01
368	  0.093547091	-7.792000E+00	  0.093547091	1.000260E+02	  0.093547091	3.186500E+01	  0.093547091	3.069100E+01
369	  0.093747497	-7.824000E+00	  0.093747497	9.948800E+01	  0.093747497	3.214100E+01	  0.093747497	3.084500E+01
370	  0.093947895	-7.855000E+00	  0.093947895	9.896300E+01	  0.093947895	3.240800E+01	  0.093947895	3.099600E+01
371	  0.094148301	-7.886000E+00	  0.094148301	9.842700E+01	  0.094148301	3.268200E+01	  0.094148301	3.114900E+01
372	  0.094348699	-7.916000E+00	  0.094348699	9.791500E+01	  0.094348699	3.295000E+01	  0.094348699	3.129100E+01
373	  0.094549097	-7.953000E+00	  0.094549097	9.742800E+01	  0.094549097	3.322700E+01	  0.094549097	3.140700E+01
374	  0.094749503	-7.983000E+00	  0.094749503	9.692500E+01	  0.094749503	3.349300E+01	  0.094749503	3.154400E+01
375	  0.094949901	-8.010000E+00	  0.094949901	9.642100E+01	  0.094949901	3.375500E+01	  0.094949901	3.168500E+01
376	  0.095150299	-8.041000E+00	  0.095150299	9.593200E+01	  0.095150299	3.402200E+01	  0.095150299	3.181000E+01
377	  0.095350705	-8.067000E+00	  0.095350705	9.545300E+01	  0.095350705	3.427500E+01	  0.095350705	3.194100E+01
378	  0.095551103	-8.098000E+00	  0.095551103	9.494100E+01	  0.095551103	3.455500E+01	  0.095551103	3.207100E+01
379	  0.095751502	-8.125000E+00	  0.095751502	9.447000E+01	  0.095751502	3.481200E+01	  0.095751502	3.219300E+01
380	  0.095951907	-8.153000E+00	  0.095951907	9.400500E+01	  0.095951907	3.506800E+01	  0.095951907	3.230900E+01
381	  0.096152306	-8.180000E+00	  0.096152306	9.355500E+01	  0.096152306	3.531900E+01	  0.096152306	3.242000E+01
382	  0.096352704	-8.213000E+00	  0.096352704	9.307200E+01	  0.096352704	3.560200E+01	  0.096352704	3.252400E+01
383	  0.096553110	-8.239000E+00	  0.096553110	9.259800E+01	  0.096553110	3.586200E+01	  0.096553110	3.264500E+01
384	  0.096753508	-8.266000E+00	  0.096753508	9.215500E+01	  0.096753508	3.611400E+01	  0.096753508	3.274800E+01
385	  0.096953906	-8.289000E+00	  0.096953906	9.169800E+01	  0.096953906	3.636400E+01	  0.096953906	3.286500E+01
386	  0.097154312	-8.313000E+00	  0.097154312	9.125700E+01	  0.097154312	3.661200E+01	  0.097154312	3.297200E+01
387	  0.097354710	-8.339000E+00	  0.097354710	9.077400E+01	  0.097354710	3.688300E+01	  0.097354710	3.308800E+01
388	  0.097555116	-8.361000E+00	  0.097555116	9.034700E+01	  0.097555116	3.712200E+01	  0.097555116	3.319300E+01
389	  0.097755514	-8.387000E+00	  0.097755514	8.989700E+01	  0.097755514	3.738200E+01	  0.097755514	3.329400E+01
390	  0.097955912	-8.408000E+00	  0.097955912	8.946500E+01	  0.097955912	3.762600E+01	  0.097955912	3.339700E+01
391	  0.098156318	-8.426000E+00	  0.098156318	8.903500E+01	  0.098156318	3.786000E+01	  0.098156318	3.351100E+01
392	  0.098356716	-8.444000E+00	  0.098356716	8.860000E+01	  0.098356716	3.810000E+01	  0.098356716	3.362200E+01
393	  0.098557115	-8.460000E+00	  0.098557115	8.820100E+01	  0.098557115	3.832000E+01	  0.098557115	3.372600E+01
394	  0.098757520	-8.469000E+00	  0.098757520	8.777800E+01	  0.098757520	3.853300E+01	  0.098757520	3.386000E+01
395	  0.098957919	-8.485000E+00	  0.098957919	8.735300E+01	  0.098957919	3.876700E+01	  0.098957919	3.397200E+01
396	  0.099158317	-8.500000E+00	  0.099158317	8.693300E+01	  0.099158317	3.899800E+01	  0.099158317	3.408300E+01
397	  0.099358723	-8.517000E+00	  0.099358723	8.655300E+01	  0.099358723	3.921700E+01	  0.099358723	3.417200E+01
398	  0.099559121	-8.528000E+00	  0.099559121	8.617600E+01	  0.099559121	3.942000E+01	  0.099559121	3.427900E+01
399	  0.099759519	-8.544000E+00	  0.099759519	8.578500E+01	  0.099759519	3.964600E+01	  0.099759519	3.437200E+01
400	  0.099959925	-8.554000E+00	  0.099959925	8.542800E+01	  0.099959925	3.984100E+01	  0.099959925	3.447200E+01
401	  0.100160323	-8.567000E+00	  0.100160323	8.496500E+01	  0.100160323	4.009400E+01	  0.100160323	3.460000E+01
402	  0.100360721	-8.578000E+00	  0.100360721	8.464100E+01	  0.100360721	4.027700E+01	  0.100360721	3.468400E+01
403	  0.100561127	-8.582000E+00	  0.100561127	8.421300E+01	  0.100561127	4.049700E+01	  0.100561127	3.482600E+01
404	  0.100761525	-8.604000E+00	  0.100761525	8.375100E+01	  0.100761525	4.077800E+01	  0.100761525	3.492100E+01
405	  0.100961931	-8.610000E+00	  0.100961931	8.338900E+01	  0.100961931	4.097200E+01	  0.100961931	3.503100E+01
406	  0.101162329	-8.613000E+00	  0.101162329	8.300900E+01	  0.101162329	4.117100E+01	  0.101162329	3.515600E+01
407	  0.101362728	-8.621000E+00	  0.101362728	8.261500E+01	  0.101362728	4.138900E+01	  0.101362728	3.527000E+01
408	  0.101563133	-8.629000E+00	  0.101563133	8.223200E+01	  0.101563133	4.160500E+01	  0.101563133	3.537600E+01
409	  0.101763532	-8.639000E+00	  0.101763532	8.185300E+01	  0.101763532	4.182300E+01	  0.101763532	3.547800E+01
410	  0.101963930	-8.642000E+00	  0.101963930	8.140500E+01	  0.101963930	4.206300E+01	  0.101963930	3.562300E+01
411	  0.102164336	-8.656000E+00	  0.102164336	8.098600E+01	  0.102164336	4.231500E+01	  0.102164336	3.572200E+01
412	  0.102364734	-8.650000E+00	  0.102364734	8.057200E+01	  0.102364734	4.252200E+01	  0.102364734	3.588400E+01
413	  0.102565132	-8.654000E+00	  0.102565132	8.013100E+01	  0.102565132	4.276500E+01	  0.102565132	3.602400E+01
414	  0.102765530	-8.662000E+00	  0.102765530	7.974700E+01	  0.102765530	4.299100E+01	  0.102765530	3.612700E+01
415	  0.102965929	-8.668000E+00	  0.102965929	7.935900E+01	  0.102965929	4.321600E+01	  0.102965929	3.623600E+01
416	  0.103166327	-8.669000E+00	  0.103166327	7.889800E+01	  0.103166327	4.347100E+01	  0.103166327	3.638900E+01
417	  0.103366733	-8.672000E+00	  0.103366733	7.851400E+01	  0.103366733	4.369200E+01	  0.103366733	3.650700E+01
418	  0.103567131	-8.670000E+00	  0.103567131	7.807600E+01	  0.103567131	4.393300E+01	  0.103567131	3.666000E+01
419	  0.103767529	-8.678000E+00	  0.103767529	7.760900E+01	  0.103767529	4.421500E+01	  0.103767529	3.678500E+01
420	  0.103967935	-8.682000E+00	  0.103967935	7.714800E+01	  0.103967935	4.448600E+01	  0.103967935	3.692300E+01
421	  0.104168333	-8.685000E+00	  0.104168333	7.678000E+01	  0.104168333	4.470400E+01	  0.104168333	3.703200E+01
422	  0.104368731	-8.684000E+00	  0.104368731	7.628600E+01	  0.104368731	4.498900E+01	  0.104368731	3.719700E+01
423	  0.104569137	-8.690000E+00	  0.104569137	7.585000E+01	  0.104569137	4.525800E+01	  0.104569137	3.731400E+01
424	  0.104769535	-8.690000E+00	  0.104769535	7.541700E+01	  0.104769535	4.551300E+01	  0.104769535	3.745600E+01
425	  0.104969934	-8.691000E+00	  0.104969934	7.496000E+01	  0.104969934	4.578900E+01	  0.104969934	3.759600E+01
426	  0.105170339	-8.696000E+00	  0.105170339	7.446000E+01	  0.105170339	4.610100E+01	  0.105170339	3.773500E+01
427	  0.105370738	-8.697000E+00	  0.105370738	7.401600E+01	  0.105370738	4.637300E+01	  0.105370738	3.787000E+01
428	  0.105571143	-8.690000E+00	  0.105571143	7.353400E+01	  0.105571143	4.665700E+01	  0.105571143	3.804800E+01
429	  0.105771542	-8.699000E+00	  0.105771542	7.309700E+01	  0.105771542	4.694800E+01	  0.105771542	3.814300E+01
430	  0.105971940	-8.699000E+00	  0.105971940	7.260800E+01	  0.105971940	4.725400E+01	  0.105971940	3.829400E+01
431	  0.106172346	-8.702000E+00	  0.106172346	7.215600E+01	  0.106172346	4.754800E+01	  0.106172346	3.841600E+01
432	  0.106372744	-8.695000E+00	  0.106372744	7.167700E+01	  0.106372744	4.784200E+01	  0.106372744	3.858800E+01
433	  0.106573142	-8.705000E+00	  0.106573142	7.120300E+01	  0.106573142	4.816600E+01	  0.106573142	3.868800E+01
434	  0.106773548	-8.707000E+00	  0.106773548	7.073000E+01	  0.106773548	4.848000E+01	  0.106773548	3.881400E+01
435	  0.106973946	-8.704000E+00	  0.106973946	7.025400E+01	  0.106973946	4.878800E+01	  0.106973946	3.896600E+01
436	  0.107174344	-8.704000E+00	  0.107174344	6.980500E+01	  0.107174344	4.908800E+01	  0.107174344	3.909300E+01
437	  0.107374750	-8.706000E+00	  0.107374750	6.925700E+01	  0.107374750	4.946100E+01	  0.107374750	3.923500E+01
438	  0.107575148	-8.709000E+00	  0.107575148	6.881300E+01	  0.107575148	4.977000E+01	  0.107575148	3.934400E+01
439	  0.107775547	-8.706000E+00	  0.107775547	6.831500E+01	  0.107775547	5.010400E+01	  0.107775547	3.949700E+01
440	  0.107975952	-8.709000E+00	  0.107975952	6.778100E+01	  0.107975952	5.048100E+01	  0.107975952	3.962600E+01
441	  0.108176351	-8.713000E+00	  0.108176351	6.724100E+01	  0.108176351	5.086800E+01	  0.108176351	3.974600E+01
442	  0.108376749	-8.705000E+00	  0.108376749	6.675400E+01	  0.108376749	5.120000E+01	  0.108376749	3.991000E+01
443	  0.108577155	-8.704000E+00	  0.108577155	6.622700E+01	  0.108577155	5.157500E+01	  0.108577155	4.005100E+01
444	  0.108777553	-8.698000E+00	  0.108777553	6.568900E+01	  0.108777553	5.195600E+01	  0.108777553	4.021400E+01
445	  0.108977959	-8.692000E+00	  0.108977959	6.513600E+01	  0.108977959	5.235200E+01	  0.108977959	4.037600E+01
446	  0.109178357	-8.694000E+00	  0.109178357	6.458500E+01	  0.109178357	5.276300E+01	  0.109178357	4.050000E+01
447	  0.109378755	-8.685000E+00	  0.109378755	6.402900E+01	  0.109378755	5.316700E+01	  0.109378755	4.067700E+01
448	  0.109579161	-8.680000E+00	  0.109579161	6.346300E+01	  0.109579161	5.358900E+01	  0.109579161	4.083100E+01
449	  0.109779559	-8.680000E+00	  0.109779559	6.292800E+01	  0.109779559	5.400000E+01	  0.109779559	4.095100E+01
450	  0.109979957	-8.666000E+00	  0.109979957	6.232200E+01	  0.109979957	5.445100E+01	  0.109979957	4.115300E+01
451	  0.110180363	-8.668000E+00	  0.110180363	6.171000E+01	  0.110180363	5.493500E+01	  0.110180363	4.127300E+01
452	  0.110380761	-8.657000E+00	  0.110380761	6.118500E+01	  0.110380761	5.533900E+01	  0.110380761	4.143300E+01
453	  0.110581160	-8.651000E+00	  0.110581160	6.059100E+01	  0.110581160	5.580900E+01	  0.110581160	4.158400E+01
454	  0.110781565	-8.633000E+00	  0.110781565	5.991800E+01	  0.110781565	5.633500E+01	  0.110781565	4.181100E+01
455	  0.110981964	-8.638000E+00	  0.110981964	5.932700E+01	  0.110981964	5.682900E+01	  0.110981964	4.189400E+01
456	  0.111182362	-8.624000E+00	  0.111182362	5.873400E+01	  0.111182362	5.731000E+01	  0.111182362	4.207300E+01
457	  0.111382768	-8.626000E+00	  0.111382768	5.811400E+01	  0.111382768	5.783700E+01	  0.111382768	4.216500E+01
458	  0.111583166	-8.629000E+00	  0.111583166	5.749000E+01	  0.111583166	5.837400E+01	  0.111583166	4.224500E+01
459	  0.111783572	-8.621000E+00	  0.111783572	5.689700E+01	  0.111783572	5.887900E+01	  0.111783572	4.238400E+01
460	  0.111983970	-8.612000E+00	  0.111983970	5.619300E+01	  0.111983970	5.948900E+01	  0.111983970	4.252900E+01
461	  0.112184368	-8.610000E+00	  0.112184368	5.555500E+01	  0.112184368	6.005400E+01	  0.112184368	4.262700E+01
462	  0.112384774	-8.607000E+00	  0.112384774	5.492400E+01	  0.112384774	6.061900E+01	  0.112384774	4.271600E+01
463	  0.112585172	-8.606000E+00	  0.112585172	5.421400E+01	  0.112585172	6.126300E+01	  0.112585172	4.280300E+01
464	  0.112785570	-8.604000E+00	  0.112785570	5.360900E+01	  0.112785570	6.182000E+01	  0.112785570	4.287000E+01
465	  0.112985976	-8.603000E+00	  0.112985976	5.289600E+01	  0.112985976	6.248200E+01	  0.112985976	4.293700E+01
466	  0.113186374	-8.604000E+00	  0.113186374	5.219000E+01	  0.113186374	6.314800E+01	  0.113186374	4.297900E+01
467	  0.113386773	-8.612000E+00	  0.113386773	5.154600E+01	  0.113386773	6.376400E+01	  0.113386773	4.296800E+01
468	  0.113587178	-8.617000E+00	  0.113587178	5.078400E+01	  0.113587178	6.449800E+01	  0.113587178	4.296600E+01
469	  0.113787577	-8.624000E+00	  0.113787577	5.011700E+01	  0.113787577	6.514800E+01	  0.113787577	4.293800E+01
470	  0.113987975	-8.627000E+00	  0.113987975	4.932800E+01	  0.113987975	6.592300E+01	  0.113987975	4.292300E+01
471	  0.114188381	-8.636000E+00	  0.114188381	4.864800E+01	  0.114188381	6.659700E+01	  0.114188381	4.286100E+01
472	  0.114388779	-8.643000E+00	  0.114388779	4.787400E+01	  0.114388779	6.737100E+01	  0.114388779	4.279500E+01
473	  0.114589177	-8.654000E+00	  0.114589177	4.715100E+01	  0.114589177	6.809800E+01	  0.114589177	4.268700E+01
474	  0.114789583	-8.664000E+00	  0.114789583	4.636000E+01	  0.114789583	6.890000E+01	  0.114789583	4.256800E+01
475	  0.114989981	-8.680000E+00	  0.114989981	4.558700E+01	  0.114989981	6.968500E+01	  0.114989981	4.238700E+01
476	  0.115190387	-8.701000E+00	  0.115190387	4.474900E+01	  0.115190387	7.053700E+01	  0.115190387	4.215600E+01
477	  0.115390785	-8.717000E+00	  0.115390785	4.392400E+01	  0.115390785	7.138200E+01	  0.115390785	4.193500E+01
478	  0.115591183	-8.735000E+00	  0.115591183	4.312500E+01	  0.115591183	7.220100E+01	  0.115591183	4.168700E+01
479	  0.115791589	-8.751000E+00	  0.115791589	4.221300E+01	  0.115791589	7.314300E+01	  0.115791589	4.140600E+01
480	  0.115991987	-8.776000E+00	  0.115991987	4.138700E+01	  0.115991987	7.398300E+01	  0.115991987	4.105900E+01
481	  0.116192386	-8.797000E+00	  0.116192386	4.053000E+01	  0.116192386	7.485800E+01	  0.116192386	4.070200E+01
482	  0.116392791	-8.817000E+00	  0.116392791	3.964300E+01	  0.116392791	7.576900E+01	  0.116392791	4.032800E+01
483	  0.116593190	-8.849000E+00	  0.116593190	3.869900E+01	  0.116593190	7.671200E+01	  0.116593190	3.981900E+01
484	  0.116793588	-8.881000E+00	  0.116793588	3.778500E+01	  0.116793588	7.761700E+01	  0.116793588	3.929500E+01
485	  0.116993994	-8.901000E+00	  0.116993994	3.682500E+01	  0.116993994	7.859200E+01	  0.116993994	3.880800E+01
486	  0.117194392	-8.938000E+00	  0.117194392	3.587800E+01	  0.117194392	7.949900E+01	  0.117194392	3.817000E+01
487	  0.117394790	-8.968000E+00	  0.117394790	3.494500E+01	  0.117394790	8.040100E+01	  0.117394790	3.756300E+01
488	  0.117595196	-9.006000E+00	  0.117595196	3.394400E+01	  0.117595196	8.133700E+01	  0.117595196	3.683800E+01
489	  0.117795594	-9.044000E+00	  0.117795594	3.296700E+01	  0.117795594	8.222900E+01	  0.117795594	3.608900E+01
490	  0.117995992	-9.090000E+00	  0.117995992	3.202300E+01	  0.117995992	8.303900E+01	  0.117995992	3.527100E+01
491	  0.118196398	-9.130000E+00	  0.118196398	3.097500E+01	  0.118196398	8.395100E+01	  0.118196398	3.440500E+01
492	  0.118396796	-9.175000E+00	  0.118396796	2.991900E+01	  0.118396796	8.482800E+01	  0.118396796	3.347100E+01
493	  0.118597202	-9.223000E+00	  0.118597202	2.886700E+01	  0.118597202	8.565800E+01	  0.118597202	3.248500E+01
494	  0.118797600	-9.277000E+00	  0.118797600	2.779900E+01	  0.118797600	8.644200E+01	  0.118797600	3.142000E+01
495	  0.118997999	-9.333000E+00	  0.118997999	2.673300E+01	  0.118997999	8.717600E+01	  0.118997999	3.031400E+01
496	  0.119198404	-9.397000E+00	  0.119198404	2.566200E+01	  0.119198404	8.783400E+01	  0.119198404	2.913400E+01
497	  0.119398803	-9.457000E+00	  0.119398803	2.454900E+01	  0.119398803	8.850300E+01	  0.119398803	2.791900E+01
498	  0.119599201	-9.527000E+00	  0.119599201	2.346700E+01	  0.119599201	8.904500E+01	  0.119599201	2.665400E+01
499	  0.119799607	-9.598000E+00	  0.119799607	2.233300E+01	  0.119799607	8.956900E+01	  0.119799607	2.532200E+01
500	  0.120000005	-9.677000E+00	  0.120000005	2.119900E+01	  0.120000005	8.999300E+01	  0.120000005	2.393800E+01
