! Anritsu VNA Master:             	Model: MS2036C/10/77
! SN:             	1601066
! /card0/usr/18may12.lna.rl/252a.sw.out.cold.rl.txt
! Existing Calibration Information:
! TYPE:             	Current Settings	Active Cal Settings
! TIME:             	05/12/2018 04:32:02 PM	05/12/2018 04:14:26 PM
! INTERNAL TEMP:    	49.5 C	49.8 C
! # POINTS:         	500	500
! START FREQ:       	20.000 MHz	20.000 MHz
! STOP FREQ:        	120.000 MHz	120.000 MHz
! SOURCE POWER:     	Low	Low
! IFBW:             	10 Hz	10 Hz
! AVG FACTOR:       	  1 	  1 
! REF PLANE 1:      	0 mm	0 mm
! REF PLANE 2:      	0 mm	0 mm
! CAL TYPE:         	Full S22	Full S22
! CAL METHOD:       	SOLT	SOLT
! CAL LINE TYPE:    	Coax	Coax
! DUT PORT 1:       	K-Conn(M)	K-Conn(M)
! DUT PORT 2:       	K-Conn(M)	K-Conn(M)
! CAL STATUS:       	OK: Accuracy High	--
! PROP-V:       	0.700
! CABLE LOSS:       	0.000 dB/m
! REF IMPEDANCE:       	50.0
! Trace Specific Parameters:	TR1	TR2	TR3	TR4
! TRACE.#.Y (GRAPH TYPE)	LOG MAG	PHASE	REAL IMPEDANCE	IMAGINARY IMPEDANCE
! TRACE.#.X 	FREQ.GHZ	FREQ.GHZ	FREQ.GHZ	FREQ.GHZ
! S-PARAMETER	S22	S22	S22	S22
! SMOOTH/APERTURE %	0	0	0	0
! WINDOW	NSL	NSL	NSL	NSL
! GATING	OFF	OFF	OFF	OFF
! FGTD	OFF	OFF	OFF	OFF
Marker Information per Trace:	TR1	TR2	TR3	TR4
!MK1	--	"MK1 TR2:  12.184 368 MHz,##.##"	--	--
!MK2	--	--	"MK2 TR3:  12.184 368 MHz,##.##"	--
!MK3	--	--	--	--
!MK4	--	--	--	--
!MK5	--	--	--	--
!MK6	--	--	--	--
!MK7	--	--	--	--
!MK8	--	--	--	--
PNT	TR1.FREQ.GHZ	TR1.LOG MAG.dB	TR2.FREQ.GHZ	TR2.PHASE.deg	TR3.FREQ.GHZ	TR3.REAL IMPEDANCE.ohm	TR4.FREQ.GHZ	TR4.IMAGINARY IMPEDANCE.ohm
1	  0.020000000	-3.007300E+01	  0.020000000	-4.207000E+01	  0.020000000	5.233500E+01	  0.020000000	-2.201000E+00
2	  0.020200402	-2.992500E+01	  0.020200402	-4.112700E+01	  0.020200402	5.241400E+01	  0.020200402	-2.201000E+00
3	  0.020400802	-3.007000E+01	  0.020400802	-3.959300E+01	  0.020400802	5.243300E+01	  0.020400802	-2.098000E+00
4	  0.020601204	-3.013700E+01	  0.020601204	-4.175000E+01	  0.020601204	5.233100E+01	  0.020601204	-2.171000E+00
5	  0.020801604	-3.033100E+01	  0.020801604	-4.295600E+01	  0.020801604	5.223200E+01	  0.020801604	-2.168000E+00
6	  0.021002004	-3.018700E+01	  0.021002004	-4.071800E+01	  0.021002004	5.235800E+01	  0.021002004	-2.115000E+00
7	  0.021202406	-3.026300E+01	  0.021202406	-4.324900E+01	  0.021202406	5.223800E+01	  0.021202406	-2.198000E+00
8	  0.021402806	-3.015000E+01	  0.021402806	-4.247400E+01	  0.021402806	5.229800E+01	  0.021402806	-2.197000E+00
9	  0.021603208	-2.991600E+01	  0.021603208	-4.294800E+01	  0.021603208	5.234200E+01	  0.021603208	-2.279000E+00
10	  0.021803608	-3.023700E+01	  0.021803608	-4.271800E+01	  0.021803608	5.226600E+01	  0.021803608	-2.184000E+00
11	  0.022004008	-3.035400E+01	  0.022004008	-4.369000E+01	  0.022004008	5.219700E+01	  0.022004008	-2.191000E+00
12	  0.022204408	-3.026500E+01	  0.022204408	-4.303200E+01	  0.022204408	5.224600E+01	  0.022204408	-2.189000E+00
13	  0.022404809	-3.049700E+01	  0.022404809	-4.330600E+01	  0.022404809	5.217600E+01	  0.022404809	-2.139000E+00
14	  0.022605211	-3.045200E+01	  0.022605211	-4.219800E+01	  0.022605211	5.223000E+01	  0.022605211	-2.108000E+00
15	  0.022805611	-3.026100E+01	  0.022805611	-4.483600E+01	  0.022805611	5.217400E+01	  0.022805611	-2.259000E+00
16	  0.023006011	-3.053200E+01	  0.023006011	-4.347400E+01	  0.023006011	5.216100E+01	  0.023006011	-2.136000E+00
17	  0.023206413	-3.038900E+01	  0.023206413	-4.646000E+01	  0.023206413	5.207500E+01	  0.023206413	-2.284000E+00
18	  0.023406813	-3.037900E+01	  0.023406813	-4.481500E+01	  0.023406813	5.214500E+01	  0.023406813	-2.227000E+00
19	  0.023607215	-3.048900E+01	  0.023607215	-4.631900E+01	  0.023607215	5.205800E+01	  0.023607215	-2.252000E+00
20	  0.023807615	-3.033300E+01	  0.023807615	-4.485200E+01	  0.023807615	5.215500E+01	  0.023807615	-2.240000E+00
21	  0.024008015	-3.057600E+01	  0.024008015	-4.373500E+01	  0.024008015	5.214000E+01	  0.024008015	-2.135000E+00
22	  0.024208417	-3.054100E+01	  0.024208417	-4.650700E+01	  0.024208417	5.203800E+01	  0.024208417	-2.245000E+00
23	  0.024408817	-3.094700E+01	  0.024408817	-4.738800E+01	  0.024408817	5.191100E+01	  0.024408817	-2.168000E+00
24	  0.024609219	-3.049800E+01	  0.024609219	-4.558900E+01	  0.024609219	5.208500E+01	  0.024609219	-2.223000E+00
25	  0.024809619	-3.061800E+01	  0.024809619	-4.822500E+01	  0.024809619	5.194900E+01	  0.024809619	-2.283000E+00
26	  0.025010020	-3.053600E+01	  0.025010020	-4.714900E+01	  0.025010020	5.201300E+01	  0.025010020	-2.269000E+00
27	  0.025210422	-3.098600E+01	  0.025210422	-4.746000E+01	  0.025210422	5.189900E+01	  0.025210422	-2.160000E+00
28	  0.025410822	-3.065200E+01	  0.025410822	-4.829500E+01	  0.025410822	5.193900E+01	  0.025410822	-2.276000E+00
29	  0.025611224	-3.085100E+01	  0.025611224	-4.697200E+01	  0.025611224	5.194800E+01	  0.025611224	-2.179000E+00
30	  0.025811624	-3.070300E+01	  0.025811624	-4.755000E+01	  0.025811624	5.195800E+01	  0.025811624	-2.238000E+00
31	  0.026012026	-3.088500E+01	  0.026012026	-4.779100E+01	  0.026012026	5.190800E+01	  0.026012026	-2.197000E+00
32	  0.026212426	-3.097300E+01	  0.026212426	-4.746300E+01	  0.026212426	5.190200E+01	  0.026212426	-2.164000E+00
33	  0.026412826	-3.096300E+01	  0.026412826	-4.971300E+01	  0.026412826	5.181400E+01	  0.026412826	-2.239000E+00
34	  0.026613226	-3.078000E+01	  0.026613226	-4.914300E+01	  0.026613226	5.187600E+01	  0.026613226	-2.270000E+00
35	  0.026813626	-3.147900E+01	  0.026813626	-4.911000E+01	  0.026813626	5.173400E+01	  0.026813626	-2.087000E+00
36	  0.027014028	-3.105100E+01	  0.027014028	-4.897300E+01	  0.027014028	5.182600E+01	  0.027014028	-2.192000E+00
37	  0.027214428	-3.111100E+01	  0.027214428	-4.910900E+01	  0.027214428	5.180800E+01	  0.027214428	-2.181000E+00
38	  0.027414829	-3.137400E+01	  0.027414829	-4.711800E+01	  0.027414829	5.182900E+01	  0.027414829	-2.051000E+00
39	  0.027615231	-3.146900E+01	  0.027615231	-5.046700E+01	  0.027615231	5.168400E+01	  0.027615231	-2.130000E+00
40	  0.027815631	-3.140100E+01	  0.027815631	-5.036500E+01	  0.027815631	5.170100E+01	  0.027815631	-2.144000E+00
41	  0.028016033	-3.141700E+01	  0.028016033	-5.035300E+01	  0.028016033	5.169800E+01	  0.028016033	-2.140000E+00
42	  0.028216433	-3.123300E+01	  0.028216433	-4.947100E+01	  0.028216433	5.176900E+01	  0.028216433	-2.160000E+00
43	  0.028416833	-3.107800E+01	  0.028416833	-5.035500E+01	  0.028416833	5.176500E+01	  0.028416833	-2.228000E+00
44	  0.028617235	-3.159800E+01	  0.028617235	-4.974000E+01	  0.028617235	5.168700E+01	  0.028617235	-2.076000E+00
45	  0.028817635	-3.151100E+01	  0.028817635	-5.225000E+01	  0.028817635	5.160700E+01	  0.028817635	-2.170000E+00
46	  0.029018037	-3.123600E+01	  0.029018037	-5.151700E+01	  0.029018037	5.168700E+01	  0.029018037	-2.221000E+00
47	  0.029218437	-3.186000E+01	  0.029218437	-5.285400E+01	  0.029218437	5.152200E+01	  0.029218437	-2.097000E+00
48	  0.029418837	-3.141600E+01	  0.029418837	-5.272800E+01	  0.029418837	5.160500E+01	  0.029418837	-2.208000E+00
49	  0.029619239	-3.151500E+01	  0.029619239	-5.137000E+01	  0.029619239	5.164000E+01	  0.029619239	-2.144000E+00
50	  0.029819639	-3.177800E+01	  0.029819639	-5.182200E+01	  0.029819639	5.157500E+01	  0.029819639	-2.090000E+00
51	  0.030020041	-3.191100E+01	  0.030020041	-5.422100E+01	  0.030020041	5.146100E+01	  0.030020041	-2.120000E+00
52	  0.030220442	-3.184000E+01	  0.030220442	-5.396900E+01	  0.030220442	5.148300E+01	  0.030220442	-2.131000E+00
53	  0.030420844	-3.172700E+01	  0.030420844	-5.202300E+01	  0.030420844	5.157700E+01	  0.030420844	-2.109000E+00
54	  0.030621244	-3.159600E+01	  0.030621244	-5.485900E+01	  0.030621244	5.148900E+01	  0.030621244	-2.217000E+00
55	  0.030821644	-3.167600E+01	  0.030821644	-5.372800E+01	  0.030821644	5.152000E+01	  0.030821644	-2.167000E+00
56	  0.031022044	-3.194000E+01	  0.031022044	-5.313000E+01	  0.031022044	5.149800E+01	  0.031022044	-2.085000E+00
57	  0.031222444	-3.222900E+01	  0.031222444	-5.735100E+01	  0.031222444	5.129300E+01	  0.031222444	-2.114000E+00
58	  0.031422846	-3.221000E+01	  0.031422846	-5.330100E+01	  0.031422846	5.144600E+01	  0.031422846	-2.023000E+00
59	  0.031623244	-3.222600E+01	  0.031623244	-5.504100E+01	  0.031623244	5.138000E+01	  0.031623244	-2.062000E+00
60	  0.031823646	-3.239400E+01	  0.031823646	-5.308700E+01	  0.031823646	5.142400E+01	  0.031823646	-1.975000E+00
61	  0.032024048	-3.251900E+01	  0.032024048	-5.535400E+01	  0.032024048	5.132300E+01	  0.032024048	-1.999000E+00
62	  0.032224450	-3.207200E+01	  0.032224450	-5.391200E+01	  0.032224450	5.144600E+01	  0.032224450	-2.072000E+00
63	  0.032424849	-3.216300E+01	  0.032424849	-5.677000E+01	  0.032424849	5.132500E+01	  0.032424849	-2.117000E+00
64	  0.032625251	-3.229900E+01	  0.032625251	-5.666000E+01	  0.032625251	5.130800E+01	  0.032625251	-2.081000E+00
65	  0.032825653	-3.223900E+01	  0.032825653	-5.646900E+01	  0.032825653	5.132500E+01	  0.032825653	-2.092000E+00
66	  0.033026051	-3.243600E+01	  0.033026051	-5.748300E+01	  0.033026051	5.125800E+01	  0.033026051	-2.066000E+00
67	  0.033226453	-3.209900E+01	  0.033226453	-5.659600E+01	  0.033226453	5.134100E+01	  0.033226453	-2.130000E+00
68	  0.033426855	-3.252900E+01	  0.033426855	-5.628500E+01	  0.033426855	5.128800E+01	  0.033426855	-2.017000E+00
69	  0.033627257	-3.285500E+01	  0.033627257	-5.462700E+01	  0.033627257	5.129900E+01	  0.033627257	-1.905000E+00
70	  0.033827655	-3.241000E+01	  0.033827655	-5.712000E+01	  0.033827655	5.127500E+01	  0.033827655	-2.064000E+00
71	  0.034028057	-3.204000E+01	  0.034028057	-5.763200E+01	  0.034028057	5.131000E+01	  0.034028057	-2.168000E+00
72	  0.034228459	-3.252400E+01	  0.034228459	-6.064400E+01	  0.034228459	5.112800E+01	  0.034228459	-2.108000E+00
73	  0.034428857	-3.277400E+01	  0.034428857	-5.737900E+01	  0.034428857	5.121500E+01	  0.034428857	-1.983000E+00
74	  0.034629259	-3.283900E+01	  0.034629259	-5.918500E+01	  0.034629259	5.114200E+01	  0.034629259	-2.004000E+00
75	  0.034829661	-3.283600E+01	  0.034829661	-5.986600E+01	  0.034829661	5.111800E+01	  0.034829661	-2.018000E+00
76	  0.035030060	-3.255700E+01	  0.035030060	-6.066600E+01	  0.035030060	5.112300E+01	  0.035030060	-2.100000E+00
77	  0.035230462	-3.263100E+01	  0.035230462	-5.774000E+01	  0.035230462	5.122100E+01	  0.035230462	-2.024000E+00
78	  0.035430863	-3.278100E+01	  0.035430863	-5.707100E+01	  0.035430863	5.122500E+01	  0.035430863	-1.975000E+00
79	  0.035631265	-3.310200E+01	  0.035631265	-6.067500E+01	  0.035631265	5.105600E+01	  0.035631265	-1.970000E+00
80	  0.035831664	-3.302600E+01	  0.035831664	-5.920900E+01	  0.035831664	5.111700E+01	  0.035831664	-1.961000E+00
81	  0.036032066	-3.298100E+01	  0.036032066	-6.244700E+01	  0.036032066	5.100700E+01	  0.036032066	-2.030000E+00
82	  0.036232468	-3.273100E+01	  0.036232468	-6.119600E+01	  0.036232468	5.108200E+01	  0.036232468	-2.068000E+00
83	  0.036432866	-3.312900E+01	  0.036432866	-6.012600E+01	  0.036432866	5.107200E+01	  0.036432866	-1.954000E+00
84	  0.036633268	-3.292400E+01	  0.036633268	-6.151800E+01	  0.036633268	5.104700E+01	  0.036633268	-2.027000E+00
85	  0.036833670	-3.324000E+01	  0.036833670	-6.139300E+01	  0.036833670	5.101500E+01	  0.036833670	-1.951000E+00
86	  0.037034072	-3.250100E+01	  0.037034072	-6.148300E+01	  0.037034072	5.110000E+01	  0.037034072	-2.130000E+00
87	  0.037234470	-3.267400E+01	  0.037234470	-6.409400E+01	  0.037234470	5.098000E+01	  0.037234470	-2.132000E+00
88	  0.037434869	-3.328600E+01	  0.037434869	-6.418100E+01	  0.037434869	5.091300E+01	  0.037434869	-1.986000E+00
89	  0.037635271	-3.321200E+01	  0.037635271	-5.926300E+01	  0.037635271	5.109200E+01	  0.037635271	-1.919000E+00
90	  0.037835669	-3.260200E+01	  0.037835669	-6.071500E+01	  0.037835669	5.111600E+01	  0.037835669	-2.090000E+00
91	  0.038036071	-3.345300E+01	  0.038036071	-6.005500E+01	  0.038036071	5.103600E+01	  0.038036071	-1.880000E+00
92	  0.038236473	-3.332900E+01	  0.038236473	-5.945700E+01	  0.038236473	5.107100E+01	  0.038236473	-1.896000E+00
93	  0.038436871	-3.277300E+01	  0.038436871	-6.242200E+01	  0.038436871	5.103200E+01	  0.038436871	-2.080000E+00
94	  0.038637273	-3.326300E+01	  0.038637273	-6.585000E+01	  0.038637273	5.085600E+01	  0.038637273	-2.016000E+00
95	  0.038837675	-3.341300E+01	  0.038837675	-6.300700E+01	  0.038837675	5.094100E+01	  0.038837675	-1.938000E+00
96	  0.039038073	-3.355000E+01	  0.039038073	-6.467700E+01	  0.039038073	5.086900E+01	  0.039038073	-1.933000E+00
97	  0.039238475	-3.342700E+01	  0.039238475	-6.391300E+01	  0.039238475	5.090800E+01	  0.039238475	-1.949000E+00
98	  0.039438877	-3.356000E+01	  0.039438877	-6.227000E+01	  0.039438877	5.095000E+01	  0.039438877	-1.893000E+00
99	  0.039639279	-3.368700E+01	  0.039639279	-6.599500E+01	  0.039639279	5.081100E+01	  0.039639279	-1.921000E+00
100	  0.039839678	-3.336400E+01	  0.039839678	-6.557500E+01	  0.039839678	5.085600E+01	  0.039839678	-1.989000E+00
101	  0.040040080	-3.365800E+01	  0.040040080	-6.522900E+01	  0.040040080	5.084000E+01	  0.040040080	-1.916000E+00
102	  0.040240481	-3.406000E+01	  0.040240481	-6.763300E+01	  0.040240481	5.072500E+01	  0.040240481	-1.859000E+00
103	  0.040440880	-3.359800E+01	  0.040440880	-6.565500E+01	  0.040440880	5.083100E+01	  0.040440880	-1.936000E+00
104	  0.040641282	-3.409600E+01	  0.040641282	-6.482300E+01	  0.040641282	5.081300E+01	  0.040641282	-1.815000E+00
105	  0.040841684	-3.360400E+01	  0.040841684	-6.592300E+01	  0.040841684	5.082100E+01	  0.040841684	-1.938000E+00
106	  0.041042086	-3.340000E+01	  0.041042086	-6.617400E+01	  0.041042086	5.083100E+01	  0.041042086	-1.989000E+00
107	  0.041242484	-3.421500E+01	  0.041242484	-6.721900E+01	  0.041242484	5.072600E+01	  0.041242484	-1.821000E+00
108	  0.041442886	-3.387000E+01	  0.041442886	-6.936200E+01	  0.041442886	5.068200E+01	  0.041442886	-1.921000E+00
109	  0.041643288	-3.403400E+01	  0.041643288	-6.846000E+01	  0.041643288	5.070000E+01	  0.041643288	-1.875000E+00
110	  0.041843686	-3.433000E+01	  0.041843686	-6.733900E+01	  0.041843686	5.071300E+01	  0.041843686	-1.798000E+00
111	  0.042044088	-3.391000E+01	  0.042044088	-6.965500E+01	  0.042044088	5.066900E+01	  0.042044088	-1.916000E+00
112	  0.042244490	-3.430800E+01	  0.042244490	-6.745500E+01	  0.042244490	5.071100E+01	  0.042244490	-1.804000E+00
113	  0.042444889	-3.403600E+01	  0.042444889	-6.904000E+01	  0.042444889	5.068000E+01	  0.042444889	-1.881000E+00
114	  0.042645290	-3.414100E+01	  0.042645290	-6.610300E+01	  0.042645290	5.076800E+01	  0.042645290	-1.823000E+00
115	  0.042845692	-3.409300E+01	  0.042845692	-6.944700E+01	  0.042845692	5.066200E+01	  0.042845692	-1.873000E+00
116	  0.043046094	-3.434400E+01	  0.043046094	-6.901800E+01	  0.043046094	5.065800E+01	  0.043046094	-1.814000E+00
117	  0.043246493	-3.450300E+01	  0.043246493	-6.856800E+01	  0.043246493	5.066100E+01	  0.043246493	-1.776000E+00
118	  0.043446895	-3.465700E+01	  0.043446895	-6.859700E+01	  0.043446895	5.064900E+01	  0.043446895	-1.745000E+00
119	  0.043647297	-3.445900E+01	  0.043647297	-6.694100E+01	  0.043647297	5.071500E+01	  0.043647297	-1.766000E+00
120	  0.043847695	-3.445700E+01	  0.043847695	-7.143900E+01	  0.043847695	5.057300E+01	  0.043847695	-1.815000E+00
121	  0.044048097	-3.460700E+01	  0.044048097	-6.760400E+01	  0.044048097	5.068300E+01	  0.044048097	-1.744000E+00
122	  0.044248499	-3.484500E+01	  0.044248499	-6.893400E+01	  0.044248499	5.062500E+01	  0.044248499	-1.710000E+00
123	  0.044448901	-3.430500E+01	  0.044448901	-7.272900E+01	  0.044448901	5.054000E+01	  0.044448901	-1.860000E+00
124	  0.044649299	-3.429900E+01	  0.044649299	-7.348600E+01	  0.044649299	5.051600E+01	  0.044649299	-1.867000E+00
125	  0.044849701	-3.464800E+01	  0.044849701	-7.010900E+01	  0.044849701	5.060300E+01	  0.044849701	-1.762000E+00
126	  0.045050103	-3.522300E+01	  0.045050103	-7.065400E+01	  0.045050103	5.055000E+01	  0.045050103	-1.653000E+00
127	  0.045250501	-3.462600E+01	  0.045250501	-6.941700E+01	  0.045250501	5.062600E+01	  0.045250501	-1.760000E+00
128	  0.045450903	-3.503800E+01	  0.045450903	-7.199300E+01	  0.045450903	5.052100E+01	  0.045450903	-1.701000E+00
129	  0.045651305	-3.518700E+01	  0.045651305	-7.364700E+01	  0.045651305	5.046400E+01	  0.045651305	-1.685000E+00
130	  0.045851704	-3.517000E+01	  0.045851704	-7.477000E+01	  0.045851704	5.043100E+01	  0.045851704	-1.697000E+00
131	  0.046052106	-3.543600E+01	  0.046052106	-7.462500E+01	  0.046052106	5.042300E+01	  0.046052106	-1.644000E+00
132	  0.046252504	-3.559700E+01	  0.046252504	-7.233400E+01	  0.046252504	5.048000E+01	  0.046252504	-1.597000E+00
133	  0.046452906	-3.473700E+01	  0.046452906	-7.590800E+01	  0.046452906	5.041600E+01	  0.046452906	-1.792000E+00
134	  0.046653304	-3.497200E+01	  0.046653304	-7.289400E+01	  0.046653304	5.049700E+01	  0.046653304	-1.722000E+00
135	  0.046853706	-3.539000E+01	  0.046853706	-7.420200E+01	  0.046853706	5.043700E+01	  0.046853706	-1.650000E+00
136	  0.047054108	-3.492800E+01	  0.047054108	-7.240200E+01	  0.047054108	5.051500E+01	  0.047054108	-1.727000E+00
137	  0.047254506	-3.505800E+01	  0.047254506	-7.629200E+01	  0.047254506	5.039000E+01	  0.047254506	-1.730000E+00
138	  0.047454908	-3.517100E+01	  0.047454908	-7.732200E+01	  0.047454908	5.035400E+01	  0.047454908	-1.713000E+00
139	  0.047655310	-3.499000E+01	  0.047655310	-7.107800E+01	  0.047655310	5.055100E+01	  0.047655310	-1.703000E+00
140	  0.047855709	-3.577100E+01	  0.047855709	-7.636100E+01	  0.047855709	5.035900E+01	  0.047855709	-1.593000E+00
141	  0.048056111	-3.591000E+01	  0.048056111	-7.524200E+01	  0.048056111	5.038500E+01	  0.048056111	-1.560000E+00
142	  0.048256513	-3.619900E+01	  0.048256513	-7.630200E+01	  0.048256513	5.034500E+01	  0.048256513	-1.515000E+00
143	  0.048456915	-3.539000E+01	  0.048456915	-7.437300E+01	  0.048456915	5.043200E+01	  0.048456915	-1.651000E+00
144	  0.048657313	-3.574500E+01	  0.048657313	-7.681500E+01	  0.048657313	5.034800E+01	  0.048657313	-1.600000E+00
145	  0.048857715	-3.511900E+01	  0.048857715	-7.660500E+01	  0.048857715	5.037800E+01	  0.048857715	-1.719000E+00
146	  0.049058117	-3.595400E+01	  0.049058117	-7.770700E+01	  0.049058117	5.031500E+01	  0.049058117	-1.566000E+00
147	  0.049258515	-3.536700E+01	  0.049258515	-7.673700E+01	  0.049258515	5.036400E+01	  0.049258515	-1.671000E+00
148	  0.049458917	-3.590000E+01	  0.049458917	-7.410700E+01	  0.049458917	5.041600E+01	  0.049458917	-1.555000E+00
149	  0.049659319	-3.543000E+01	  0.049659319	-7.567300E+01	  0.049659319	5.039300E+01	  0.049659319	-1.653000E+00
150	  0.049859721	-3.578700E+01	  0.049859721	-7.615800E+01	  0.049859721	5.036400E+01	  0.049859721	-1.588000E+00
151	  0.050060119	-3.623900E+01	  0.050060119	-8.057000E+01	  0.050060119	5.022900E+01	  0.050060119	-1.528000E+00
152	  0.050260521	-3.562700E+01	  0.050260521	-7.708800E+01	  0.050260521	5.034400E+01	  0.050260521	-1.624000E+00
153	  0.050460923	-3.578400E+01	  0.050460923	-7.870800E+01	  0.050460923	5.029300E+01	  0.050460923	-1.603000E+00
154	  0.050661322	-3.634800E+01	  0.050661322	-8.092400E+01	  0.050661322	5.021700E+01	  0.050661322	-1.510000E+00
155	  0.050861724	-3.620100E+01	  0.050861724	-7.641000E+01	  0.050861724	5.034200E+01	  0.050861724	-1.515000E+00
156	  0.051062126	-3.608700E+01	  0.051062126	-8.273200E+01	  0.051062126	5.017400E+01	  0.051062126	-1.562000E+00
157	  0.051262524	-3.643600E+01	  0.051262524	-8.078900E+01	  0.051262524	5.021900E+01	  0.051262524	-1.494000E+00
158	  0.051462926	-3.635700E+01	  0.051462926	-8.136800E+01	  0.051462926	5.020600E+01	  0.051462926	-1.510000E+00
159	  0.051663328	-3.637900E+01	  0.051663328	-7.601000E+01	  0.051663328	5.034600E+01	  0.051663328	-1.482000E+00
160	  0.051863730	-3.639500E+01	  0.051863730	-7.556900E+01	  0.051863730	5.035700E+01	  0.051863730	-1.477000E+00
161	  0.052064128	-3.621100E+01	  0.052064128	-7.975100E+01	  0.052064128	5.025200E+01	  0.052064128	-1.530000E+00
162	  0.052264530	-3.643700E+01	  0.052264530	-8.379500E+01	  0.052264530	5.014000E+01	  0.052264530	-1.502000E+00
163	  0.052464932	-3.689600E+01	  0.052464932	-8.134500E+01	  0.052464932	5.019500E+01	  0.052464932	-1.418000E+00
164	  0.052665330	-3.620100E+01	  0.052665330	-8.103700E+01	  0.052665330	5.021800E+01	  0.052665330	-1.536000E+00
165	  0.052865732	-3.624500E+01	  0.052865732	-8.050900E+01	  0.052865732	5.023100E+01	  0.052865732	-1.526000E+00
166	  0.053066134	-3.662600E+01	  0.053066134	-8.169100E+01	  0.053066134	5.019200E+01	  0.053066134	-1.465000E+00
167	  0.053266536	-3.653800E+01	  0.053266536	-7.989100E+01	  0.053266536	5.024000E+01	  0.053266536	-1.473000E+00
168	  0.053466935	-3.684600E+01	  0.053466935	-8.411900E+01	  0.053466935	5.012600E+01	  0.053466935	-1.434000E+00
169	  0.053667337	-3.681500E+01	  0.053667337	-7.675400E+01	  0.053667337	5.031100E+01	  0.053667337	-1.413000E+00
170	  0.053867739	-3.620300E+01	  0.053867739	-8.318300E+01	  0.053867739	5.016000E+01	  0.053867739	-1.542000E+00
171	  0.054068137	-3.700800E+01	  0.054068137	-7.748300E+01	  0.054068137	5.028700E+01	  0.054068137	-1.385000E+00
172	  0.054268539	-3.680800E+01	  0.054268539	-8.440100E+01	  0.054268539	5.012000E+01	  0.054268539	-1.440000E+00
173	  0.054468941	-3.689700E+01	  0.054468941	-8.629000E+01	  0.054468941	5.007200E+01	  0.054468941	-1.428000E+00
174	  0.054669339	-3.732300E+01	  0.054669339	-8.491600E+01	  0.054669339	5.010200E+01	  0.054669339	-1.358000E+00
175	  0.054869737	-3.715800E+01	  0.054869737	-8.010500E+01	  0.054869737	5.022000E+01	  0.054869737	-1.372000E+00
176	  0.055070139	-3.797000E+01	  0.055070139	-8.638700E+01	  0.055070139	5.006300E+01	  0.055070139	-1.262000E+00
177	  0.055270538	-3.737100E+01	  0.055270538	-8.122400E+01	  0.055270538	5.018800E+01	  0.055270538	-1.342000E+00
178	  0.055470940	-3.685400E+01	  0.055470940	-8.201300E+01	  0.055470940	5.017900E+01	  0.055470940	-1.427000E+00
179	  0.055671342	-3.760100E+01	  0.055671342	-8.290300E+01	  0.055671342	5.014500E+01	  0.055671342	-1.311000E+00
180	  0.055871744	-3.740500E+01	  0.055871744	-8.623000E+01	  0.055871744	5.007000E+01	  0.055871744	-1.347000E+00
181	  0.056072142	-3.713600E+01	  0.056072142	-8.697600E+01	  0.056072142	5.005400E+01	  0.056072142	-1.390000E+00
182	  0.056272544	-3.786300E+01	  0.056272544	-8.670000E+01	  0.056272544	5.005700E+01	  0.056272544	-1.278000E+00
183	  0.056472946	-3.742500E+01	  0.056472946	-8.497400E+01	  0.056472946	5.009900E+01	  0.056472946	-1.342000E+00
184	  0.056673344	-3.809600E+01	  0.056673344	-8.747600E+01	  0.056673344	5.003900E+01	  0.056673344	-1.244000E+00
185	  0.056873746	-3.757900E+01	  0.056873746	-8.891100E+01	  0.056873746	5.000700E+01	  0.056873746	-1.321000E+00
186	  0.057074148	-3.771700E+01	  0.057074148	-9.161200E+01	  0.057074148	4.994600E+01	  0.057074148	-1.298000E+00
187	  0.057274550	-3.733600E+01	  0.057274550	-9.206900E+01	  0.057274550	4.993200E+01	  0.057274550	-1.356000E+00
188	  0.057474948	-3.799400E+01	  0.057474948	-8.994900E+01	  0.057474948	4.998500E+01	  0.057474948	-1.259000E+00
189	  0.057675350	-3.772400E+01	  0.057675350	-8.747100E+01	  0.057675350	5.004000E+01	  0.057675350	-1.299000E+00
190	  0.057875752	-3.818000E+01	  0.057875752	-9.190100E+01	  0.057875752	4.994300E+01	  0.057875752	-1.231000E+00
191	  0.058076151	-3.723600E+01	  0.058076151	-9.507100E+01	  0.058076151	4.985900E+01	  0.058076151	-1.365000E+00
192	  0.058276553	-3.807200E+01	  0.058276553	-9.210400E+01	  0.058276553	4.993800E+01	  0.058276553	-1.246000E+00
193	  0.058476955	-3.769600E+01	  0.058476955	-9.441700E+01	  0.058476955	4.988200E+01	  0.058476955	-1.296000E+00
194	  0.058677353	-3.864800E+01	  0.058677353	-9.338100E+01	  0.058677353	4.991700E+01	  0.058677353	-1.164000E+00
195	  0.058877755	-3.882500E+01	  0.058877755	-9.569000E+01	  0.058877755	4.987300E+01	  0.058877755	-1.136000E+00
196	  0.059078157	-3.839900E+01	  0.059078157	-9.393300E+01	  0.059078157	4.990300E+01	  0.059078157	-1.197000E+00
197	  0.059278559	-3.809400E+01	  0.059278559	-9.242400E+01	  0.059278559	4.993100E+01	  0.059278559	-1.242000E+00
198	  0.059478957	-3.959800E+01	  0.059478957	-9.255000E+01	  0.059478957	4.994200E+01	  0.059478957	-1.045000E+00
199	  0.059679359	-3.898600E+01	  0.059679359	-9.700600E+01	  0.059679359	4.985000E+01	  0.059679359	-1.112000E+00
200	  0.059879761	-3.963200E+01	  0.059879761	-9.367100E+01	  0.059879761	4.992200E+01	  0.059879761	-1.039000E+00
201	  0.060080159	-3.867900E+01	  0.060080159	-9.552700E+01	  0.060080159	4.987400E+01	  0.060080159	-1.156000E+00
202	  0.060280561	-3.867000E+01	  0.060280561	-9.285300E+01	  0.060280561	4.992800E+01	  0.060280561	-1.162000E+00
203	  0.060480963	-3.907500E+01	  0.060480963	-9.516500E+01	  0.060480963	4.988700E+01	  0.060480963	-1.105000E+00
204	  0.060681365	-3.834000E+01	  0.060681365	-9.831600E+01	  0.060681365	4.981000E+01	  0.060681365	-1.193000E+00
205	  0.060881764	-3.796700E+01	  0.060881764	-9.091200E+01	  0.060881764	4.996300E+01	  0.060881764	-1.262000E+00
206	  0.061082166	-3.887600E+01	  0.061082166	-9.415700E+01	  0.061082166	4.990400E+01	  0.061082166	-1.133000E+00
207	  0.061282568	-3.862400E+01	  0.061282568	-9.243800E+01	  0.061282568	4.993600E+01	  0.061282568	-1.169000E+00
208	  0.061482966	-3.878100E+01	  0.061482966	-9.435500E+01	  0.061482966	4.989900E+01	  0.061482966	-1.145000E+00
209	  0.061683368	-3.935200E+01	  0.061683368	-9.093300E+01	  0.061683368	4.997000E+01	  0.061683368	-1.076000E+00
210	  0.061883770	-3.955000E+01	  0.061883770	-9.855100E+01	  0.061883770	4.983200E+01	  0.061883770	-1.038000E+00
211	  0.062084168	-3.915200E+01	  0.062084168	-9.126900E+01	  0.062084168	4.996300E+01	  0.062084168	-1.101000E+00
212	  0.062284570	-3.979300E+01	  0.062284570	-9.456200E+01	  0.062284570	4.990800E+01	  0.062284570	-1.019000E+00
213	  0.062484972	-4.010100E+01	  0.062484972	-9.941600E+01	  0.062484972	4.982900E+01	  0.062484972	-9.710000E-01
214	  0.062685370	-3.889400E+01	  0.062685370	-9.982700E+01	  0.062685370	4.979400E+01	  0.062685370	-1.114000E+00
215	  0.062885776	-4.031400E+01	  0.062885776	-9.418100E+01	  0.062885776	4.992000E+01	  0.062885776	-9.600000E-01
216	  0.063086174	-3.952800E+01	  0.063086174	-1.010570E+02	  0.063086174	4.978700E+01	  0.063086174	-1.031000E+00
217	  0.063286573	-3.920100E+01	  0.063286573	-1.054350E+02	  0.063286573	4.969800E+01	  0.063286573	-1.050000E+00
218	  0.063486971	-4.110200E+01	  0.063486971	-8.862400E+01	  0.063486971	5.001300E+01	  0.063486971	-8.800000E-01
219	  0.063687377	-4.091900E+01	  0.063687377	-9.540900E+01	  0.063687377	4.990700E+01	  0.063687377	-8.930000E-01
220	  0.063887775	-3.954300E+01	  0.063887775	-1.014370E+02	  0.063887775	4.978000E+01	  0.063887775	-1.028000E+00
221	  0.064088173	-4.076700E+01	  0.064088173	-9.974600E+01	  0.064088173	4.983700E+01	  0.064088173	-8.990000E-01
222	  0.064288579	-3.939800E+01	  0.064288579	-1.034180E+02	  0.064288579	4.974100E+01	  0.064288579	-1.037000E+00
223	  0.064488977	-3.996400E+01	  0.064488977	-9.733500E+01	  0.064488977	4.986200E+01	  0.064488977	-9.930000E-01
224	  0.064689375	-3.952100E+01	  0.064689375	-1.019640E+02	  0.064689375	4.977000E+01	  0.064689375	-1.028000E+00
225	  0.064889781	-4.126200E+01	  0.064889781	-9.801100E+01	  0.064889781	4.987200E+01	  0.064889781	-8.540000E-01
226	  0.065090179	-4.168200E+01	  0.065090179	-1.061370E+02	  0.065090179	4.976500E+01	  0.065090179	-7.870000E-01
227	  0.065290578	-4.002100E+01	  0.065290578	-9.526700E+01	  0.065290578	4.989800E+01	  0.065290578	-9.910000E-01
228	  0.065490983	-3.987000E+01	  0.065490983	-9.808900E+01	  0.065490983	4.984700E+01	  0.065490983	-1.001000E+00
229	  0.065691382	-4.110300E+01	  0.065691382	-1.078080E+02	  0.065691382	4.972400E+01	  0.065691382	-8.330000E-01
230	  0.065891780	-4.232700E+01	  0.065891780	-9.532000E+01	  0.065891780	4.992300E+01	  0.065891780	-7.600000E-01
231	  0.066092186	-4.138900E+01	  0.066092186	-9.906500E+01	  0.066092186	4.985800E+01	  0.066092186	-8.390000E-01
232	  0.066292584	-4.071500E+01	  0.066292584	-1.110160E+02	  0.066292584	4.966300E+01	  0.066292584	-8.530000E-01
233	  0.066492982	-3.989800E+01	  0.066492982	-1.070160E+02	  0.066492982	4.969500E+01	  0.066492982	-9.610000E-01
234	  0.066693388	-4.020300E+01	  0.066693388	-1.084270E+02	  0.066693388	4.968300E+01	  0.066693388	-9.200000E-01
235	  0.066893786	-4.141600E+01	  0.066893786	-1.037260E+02	  0.066893786	4.979200E+01	  0.066893786	-8.210000E-01
236	  0.067094192	-3.936300E+01	  0.067094192	-1.077310E+02	  0.067094192	4.966200E+01	  0.067094192	-1.018000E+00
237	  0.067294590	-4.151600E+01	  0.067294590	-1.069180E+02	  0.067294590	4.974900E+01	  0.067294590	-7.990000E-01
238	  0.067494988	-4.096600E+01	  0.067494988	-1.081070E+02	  0.067494988	4.971500E+01	  0.067494988	-8.450000E-01
239	  0.067695394	-4.159200E+01	  0.067695394	-1.082550E+02	  0.067695394	4.973300E+01	  0.067695394	-7.860000E-01
240	  0.067895792	-4.140800E+01	  0.067895792	-1.063970E+02	  0.067895792	4.975300E+01	  0.067895792	-8.110000E-01
241	  0.068096191	-4.111500E+01	  0.068096191	-1.169720E+02	  0.068096191	4.959600E+01	  0.068096191	-7.770000E-01
242	  0.068296596	-4.133500E+01	  0.068296596	-1.100260E+02	  0.068296596	4.970000E+01	  0.068296596	-8.000000E-01
243	  0.068496995	-4.079500E+01	  0.068496995	-1.102170E+02	  0.068496995	4.967800E+01	  0.068496995	-8.500000E-01
244	  0.068697393	-4.003500E+01	  0.068697393	-1.017630E+02	  0.068697393	4.978700E+01	  0.068697393	-9.700000E-01
245	  0.068897791	-4.223200E+01	  0.068897791	-1.136060E+02	  0.068897791	4.968600E+01	  0.068897791	-7.040000E-01
246	  0.069098189	-4.191400E+01	  0.069098189	-1.066480E+02	  0.069098189	4.976400E+01	  0.069098189	-7.640000E-01
247	  0.069298595	-4.275100E+01	  0.069298595	-1.213410E+02	  0.069298595	4.961800E+01	  0.069298595	-6.170000E-01
248	  0.069498993	-4.111300E+01	  0.069498993	-1.155870E+02	  0.069498993	4.961500E+01	  0.069498993	-7.870000E-01
249	  0.069699399	-4.204800E+01	  0.069699399	-1.219600E+02	  0.069699399	4.957900E+01	  0.069699399	-6.640000E-01
250	  0.069899797	-4.183800E+01	  0.069899797	-1.157270E+02	  0.069899797	4.964400E+01	  0.069899797	-7.230000E-01
251	  0.070100196	-4.328100E+01	  0.070100196	-1.140220E+02	  0.070100196	4.971700E+01	  0.070100196	-6.220000E-01
252	  0.070300601	-4.151200E+01	  0.070300601	-1.208350E+02	  0.070300601	4.956600E+01	  0.070300601	-7.150000E-01
253	  0.070501000	-4.327000E+01	  0.070501000	-1.181250E+02	  0.070501000	4.967300E+01	  0.070501000	-6.010000E-01
254	  0.070701398	-4.357100E+01	  0.070701398	-1.130250E+02	  0.070701398	4.973700E+01	  0.070701398	-6.060000E-01
255	  0.070901804	-4.210700E+01	  0.070901804	-1.125060E+02	  0.070901804	4.969500E+01	  0.070901804	-7.200000E-01
256	  0.071102202	-4.169300E+01	  0.071102202	-1.049000E+02	  0.071102202	4.978200E+01	  0.071102202	-7.910000E-01
257	  0.071302600	-4.302700E+01	  0.071302600	-1.172080E+02	  0.071302600	4.967400E+01	  0.071302600	-6.230000E-01
258	  0.071503006	-4.300900E+01	  0.071503006	-1.163350E+02	  0.071503006	4.968300E+01	  0.071503006	-6.290000E-01
259	  0.071703404	-4.219400E+01	  0.071703404	-1.134500E+02	  0.071703404	4.968600E+01	  0.071703404	-7.080000E-01
260	  0.071903802	-4.312000E+01	  0.071903802	-1.141140E+02	  0.071903802	4.971100E+01	  0.071903802	-6.330000E-01
261	  0.072104208	-4.281800E+01	  0.072104208	-1.272610E+02	  0.072104208	4.956000E+01	  0.072104208	-5.700000E-01
262	  0.072304606	-4.299700E+01	  0.072304606	-1.285590E+02	  0.072304606	4.955700E+01	  0.072304606	-5.480000E-01
263	  0.072505005	-4.226200E+01	  0.072505005	-1.264450E+02	  0.072505005	4.954000E+01	  0.072505005	-6.140000E-01
264	  0.072705410	-4.304100E+01	  0.072705410	-1.294950E+02	  0.072705410	4.955000E+01	  0.072705410	-5.380000E-01
265	  0.072905809	-4.418000E+01	  0.072905809	-1.334410E+02	  0.072905809	4.957400E+01	  0.072905809	-4.440000E-01
266	  0.073106214	-4.567200E+01	  0.073106214	-1.304240E+02	  0.073106214	4.966200E+01	  0.073106214	-3.930000E-01
267	  0.073306613	-4.370400E+01	  0.073306613	-1.308720E+02	  0.073306613	4.957200E+01	  0.073306613	-4.890000E-01
268	  0.073507011	-4.395600E+01	  0.073507011	-1.280510E+02	  0.073507011	4.960800E+01	  0.073507011	-4.950000E-01
269	  0.073707417	-4.421400E+01	  0.073707417	-1.262070E+02	  0.073707417	4.963500E+01	  0.073707417	-4.930000E-01
270	  0.073907815	-4.349300E+01	  0.073907815	-1.335870E+02	  0.073907815	4.953800E+01	  0.073907815	-4.790000E-01
271	  0.074108213	-4.506200E+01	  0.074108213	-1.343750E+02	  0.074108213	4.960900E+01	  0.074108213	-3.950000E-01
272	  0.074308619	-4.393900E+01	  0.074308619	-1.327520E+02	  0.074308619	4.956800E+01	  0.074308619	-4.620000E-01
273	  0.074509017	-4.571000E+01	  0.074509017	-1.410860E+02	  0.074509017	4.959700E+01	  0.074509017	-3.220000E-01
274	  0.074709415	-4.438100E+01	  0.074709415	-1.420370E+02	  0.074709415	4.952400E+01	  0.074709415	-3.670000E-01
275	  0.074909821	-4.584000E+01	  0.074909821	-1.277000E+02	  0.074909821	4.968700E+01	  0.074909821	-4.010000E-01
276	  0.075110219	-4.427300E+01	  0.075110219	-1.331770E+02	  0.075110219	4.958100E+01	  0.075110219	-4.420000E-01
277	  0.075310618	-4.569200E+01	  0.075310618	-1.315260E+02	  0.075310618	4.965500E+01	  0.075310618	-3.860000E-01
278	  0.075511023	-4.277300E+01	  0.075511023	-1.335490E+02	  0.075511023	4.949900E+01	  0.075511023	-5.210000E-01
279	  0.075711422	-4.436800E+01	  0.075711422	-1.450390E+02	  0.075711422	4.950500E+01	  0.075711422	-3.430000E-01
280	  0.075911827	-4.570600E+01	  0.075911827	-1.383870E+02	  0.075911827	4.961200E+01	  0.075911827	-3.410000E-01
281	  0.076112226	-4.387100E+01	  0.076112226	-1.448150E+02	  0.076112226	4.947800E+01	  0.076112226	-3.650000E-01
282	  0.076312624	-4.516600E+01	  0.076312624	-1.549880E+02	  0.076312624	4.950200E+01	  0.076312624	-2.300000E-01
283	  0.076513030	-4.677300E+01	  0.076513030	-1.491910E+02	  0.076513030	4.960700E+01	  0.076513030	-2.320000E-01
284	  0.076713428	-4.361700E+01	  0.076713428	-1.525130E+02	  0.076713428	4.941700E+01	  0.076713428	-3.000000E-01
285	  0.076913826	-4.413800E+01	  0.076913826	-1.542230E+02	  0.076913826	4.944300E+01	  0.076913826	-2.670000E-01
286	  0.077114232	-4.509600E+01	  0.077114232	-1.518670E+02	  0.077114232	4.951100E+01	  0.077114232	-2.590000E-01
287	  0.077314630	-4.530700E+01	  0.077314630	-1.577020E+02	  0.077314630	4.949900E+01	  0.077314630	-2.030000E-01
288	  0.077515028	-4.624400E+01	  0.077515028	-1.432100E+02	  0.077515028	4.961000E+01	  0.077515028	-2.890000E-01
289	  0.077715434	-4.848200E+01	  0.077715434	-1.460780E+02	  0.077715434	4.968800E+01	  0.077715434	-2.080000E-01
290	  0.077915832	-4.585200E+01	  0.077915832	-1.453960E+02	  0.077915832	4.958100E+01	  0.077915832	-2.870000E-01
291	  0.078116231	-4.473400E+01	  0.078116231	-1.516440E+02	  0.078116231	4.949100E+01	  0.078116231	-2.720000E-01
292	  0.078316636	-4.605400E+01	  0.078316636	-1.627260E+02	  0.078316636	4.952600E+01	  0.078316636	-1.460000E-01
293	  0.078517035	-4.523600E+01	  0.078517035	-1.353290E+02	  0.078517035	4.961000E+01	  0.078517035	-3.810000E-01
294	  0.078717433	-4.558400E+01	  0.078717433	-1.497370E+02	  0.078717433	4.954700E+01	  0.078717433	-2.620000E-01
295	  0.078917839	-4.317100E+01	  0.078917839	-1.638540E+02	  0.078917839	4.933700E+01	  0.078917839	-1.900000E-01
296	  0.079118237	-4.482000E+01	  0.079118237	-1.564780E+02	  0.079118237	4.947500E+01	  0.079118237	-2.260000E-01
297	  0.079318643	-4.487500E+01	  0.079318643	-1.523650E+02	  0.079318643	4.949600E+01	  0.079318643	-2.610000E-01
298	  0.079519041	-4.353200E+01	  0.079519041	-1.623630E+02	  0.079519041	4.936900E+01	  0.079519041	-1.990000E-01
299	  0.079719439	-4.460000E+01	  0.079719439	-1.592060E+02	  0.079719439	4.945200E+01	  0.079719439	-2.060000E-01
300	  0.079919845	-4.293200E+01	  0.079919845	-1.640470E+02	  0.079919845	4.931800E+01	  0.079919845	-1.930000E-01
301	  0.080120243	-4.607200E+01	  0.080120243	-1.702450E+02	  0.080120243	4.951200E+01	  0.080120243	-8.300000E-02
302	  0.080320641	-4.533400E+01	  0.080320641	-1.641860E+02	  0.080320641	4.948100E+01	  0.080320641	-1.450000E-01
303	  0.080521047	-4.462500E+01	  0.080521047	-1.600850E+02	  0.080521047	4.945000E+01	  0.080521047	-1.970000E-01
304	  0.080721445	-4.639600E+01	  0.080721445	-1.619870E+02	  0.080721445	4.954600E+01	  0.080721445	-1.460000E-01
305	  0.080921844	-4.462300E+01	  0.080921844	-1.629800E+02	  0.080921844	4.944100E+01	  0.080921844	-1.690000E-01
306	  0.081122249	-4.503600E+01	  0.081122249	-1.670940E+02	  0.081122249	4.945600E+01	  0.081122249	-1.230000E-01
307	  0.081322648	-4.422500E+01	  0.081322648	-1.659730E+02	  0.081322648	4.940600E+01	  0.081322648	-1.470000E-01
308	  0.081523046	-4.320000E+01	  0.081523046	-1.717730E+02	  0.081523046	4.931900E+01	  0.081523046	-9.700000E-02
309	  0.081723452	-4.536200E+01	  0.081723452	1.792420E+02	  0.081723452	4.946300E+01	  0.081723452	7.000000E-03
310	  0.081923850	-4.416400E+01	  0.081923850	-1.686570E+02	  0.081923850	4.939600E+01	  0.081923850	-1.200000E-01
311	  0.082124248	-4.360800E+01	  0.082124248	1.798530E+02	  0.082124248	4.934400E+01	  0.082124248	1.000000E-03
312	  0.082324654	-4.540300E+01	  0.082324654	-1.764360E+02	  0.082324654	4.946700E+01	  0.082324654	-3.300000E-02
313	  0.082525052	-4.459900E+01	  0.082525052	1.639030E+02	  0.082525052	4.943700E+01	  0.082525052	1.610000E-01
314	  0.082725458	-4.540600E+01	  0.082725458	-1.737250E+02	  0.082725458	4.946900E+01	  0.082725458	-5.800000E-02
315	  0.082925856	-4.482400E+01	  0.082925856	1.799490E+02	  0.082925856	4.942900E+01	  0.082925856	0.000000E+00
316	  0.083126254	-4.502300E+01	  0.083126254	1.662350E+02	  0.083126254	4.945800E+01	  0.083126254	1.320000E-01
317	  0.083326660	-4.416800E+01	  0.083326660	1.792060E+02	  0.083326660	4.938500E+01	  0.083326660	8.000000E-03
318	  0.083527058	-4.620100E+01	  0.083527058	1.781320E+02	  0.083527058	4.951200E+01	  0.083527058	1.500000E-02
319	  0.083727457	-4.658800E+01	  0.083727457	1.652210E+02	  0.083727457	4.954900E+01	  0.083727457	1.180000E-01
320	  0.083927862	-4.420000E+01	  0.083927862	1.734500E+02	  0.083927862	4.939100E+01	  0.083927862	6.900000E-02
321	  0.084128261	-4.504300E+01	  0.084128261	1.771620E+02	  0.084128261	4.944400E+01	  0.084128261	2.700000E-02
322	  0.084328659	-4.492600E+01	  0.084328659	1.641740E+02	  0.084328659	4.945700E+01	  0.084328659	1.520000E-01
323	  0.084529065	-4.545400E+01	  0.084529065	1.733890E+02	  0.084529065	4.947200E+01	  0.084529065	6.000000E-02
324	  0.084729463	-4.549100E+01	  0.084729463	1.606540E+02	  0.084729463	4.950000E+01	  0.084729463	1.740000E-01
325	  0.084929861	-4.610700E+01	  0.084929861	1.573900E+02	  0.084929861	4.954400E+01	  0.084929861	1.880000E-01
326	  0.085130267	-4.641300E+01	  0.085130267	1.594880E+02	  0.085130267	4.955400E+01	  0.085130267	1.650000E-01
327	  0.085330658	-4.412400E+01	  0.085330658	1.556090E+02	  0.085330658	4.943600E+01	  0.085330658	2.530000E-01
328	  0.085531056	-4.465100E+01	  0.085531056	1.580880E+02	  0.085531056	4.945900E+01	  0.085531056	2.160000E-01
329	  0.085731462	-4.504500E+01	  0.085731462	1.730080E+02	  0.085731462	4.944700E+01	  0.085731462	6.700000E-02
330	  0.085931860	-4.431700E+01	  0.085931860	1.432350E+02	  0.085931860	4.951300E+01	  0.085931860	3.600000E-01
331	  0.086132258	-4.428900E+01	  0.086132258	1.660550E+02	  0.086132258	4.941000E+01	  0.086132258	1.450000E-01
332	  0.086332664	-4.319800E+01	  0.086332664	1.672580E+02	  0.086332664	4.932900E+01	  0.086332664	1.500000E-01
333	  0.086533062	-4.432200E+01	  0.086533062	1.632800E+02	  0.086533062	4.942000E+01	  0.086533062	1.720000E-01
334	  0.086733460	-4.402500E+01	  0.086733460	1.567120E+02	  0.086733460	4.942400E+01	  0.086733460	2.450000E-01
335	  0.086933866	-4.389700E+01	  0.086933866	1.627990E+02	  0.086933866	4.939300E+01	  0.086933866	1.860000E-01
336	  0.087134264	-4.446800E+01	  0.087134264	1.643210E+02	  0.087134264	4.942700E+01	  0.087134264	1.590000E-01
337	  0.087334670	-4.383200E+01	  0.087334670	1.490450E+02	  0.087334670	4.945000E+01	  0.087334670	3.270000E-01
338	  0.087535068	-4.402500E+01	  0.087535068	1.608840E+02	  0.087535068	4.940800E+01	  0.087535068	2.030000E-01
339	  0.087735467	-4.405900E+01	  0.087735467	1.595510E+02	  0.087735467	4.941500E+01	  0.087735467	2.160000E-01
340	  0.087935872	-4.324900E+01	  0.087935872	1.437470E+02	  0.087935872	4.944600E+01	  0.087935872	4.020000E-01
341	  0.088136271	-4.366600E+01	  0.088136271	1.450720E+02	  0.088136271	4.946300E+01	  0.088136271	3.710000E-01
342	  0.088336669	-4.512600E+01	  0.088336669	1.402090E+02	  0.088336669	4.957400E+01	  0.088336669	3.510000E-01
343	  0.088537075	-4.360900E+01	  0.088537075	1.507370E+02	  0.088537075	4.942600E+01	  0.088537075	3.180000E-01
344	  0.088737473	-4.524000E+01	  0.088737473	1.554360E+02	  0.088737473	4.950400E+01	  0.088737473	2.250000E-01
345	  0.088937871	-4.275300E+01	  0.088937871	1.448900E+02	  0.088937871	4.940600E+01	  0.088937871	4.130000E-01
346	  0.089138277	-4.334300E+01	  0.089138277	1.514080E+02	  0.089138277	4.940500E+01	  0.089138277	3.210000E-01
347	  0.089338675	-4.243000E+01	  0.089338675	1.412610E+02	  0.089338675	4.941100E+01	  0.089338675	4.670000E-01
348	  0.089539073	-4.352900E+01	  0.089539073	1.371370E+02	  0.089539073	4.951200E+01	  0.089539073	4.480000E-01
349	  0.089739479	-4.155200E+01	  0.089739479	1.443040E+02	  0.089739479	4.932300E+01	  0.089739479	4.810000E-01
350	  0.089939877	-4.255400E+01	  0.089939877	1.426350E+02	  0.089939877	4.940900E+01	  0.089939877	4.460000E-01
351	  0.090140276	-4.270200E+01	  0.090140276	1.477520E+02	  0.090140276	4.938200E+01	  0.090140276	3.860000E-01
352	  0.090340681	-4.272100E+01	  0.090340681	1.401100E+02	  0.090340681	4.944000E+01	  0.090340681	4.630000E-01
353	  0.090541080	-4.253000E+01	  0.090541080	1.361600E+02	  0.090541080	4.946100E+01	  0.090541080	5.120000E-01
354	  0.090741485	-4.207500E+01	  0.090741485	1.384560E+02	  0.090741485	4.941100E+01	  0.090741485	5.160000E-01
355	  0.090941884	-4.265400E+01	  0.090941884	1.361390E+02	  0.090941884	4.946900E+01	  0.090941884	5.050000E-01
356	  0.091142282	-4.229400E+01	  0.091142282	1.429750E+02	  0.091142282	4.938800E+01	  0.091142282	4.560000E-01
357	  0.091342688	-4.331900E+01	  0.091342688	1.337930E+02	  0.091342688	4.952700E+01	  0.091342688	4.870000E-01
358	  0.091543086	-4.215200E+01	  0.091543086	1.317140E+02	  0.091543086	4.948000E+01	  0.091543086	5.760000E-01
359	  0.091743484	-4.313800E+01	  0.091743484	1.345810E+02	  0.091743484	4.951000E+01	  0.091743484	4.910000E-01
360	  0.091943890	-4.146900E+01	  0.091943890	1.352460E+02	  0.091943890	4.940000E+01	  0.091943890	5.870000E-01
361	  0.092144288	-4.198700E+01	  0.092144288	1.364090E+02	  0.092144288	4.942400E+01	  0.092144288	5.420000E-01
362	  0.092344686	-4.196800E+01	  0.092344686	1.310170E+02	  0.092344686	4.947500E+01	  0.092344686	5.950000E-01
363	  0.092545092	-4.077700E+01	  0.092545092	1.346270E+02	  0.092545092	4.935700E+01	  0.092545092	6.420000E-01
364	  0.092745490	-4.174400E+01	  0.092745490	1.353670E+02	  0.092745490	4.941700E+01	  0.092745490	5.680000E-01
365	  0.092945889	-4.285800E+01	  0.092945889	1.369440E+02	  0.092945889	4.947400E+01	  0.092945889	4.860000E-01
366	  0.093146294	-4.196600E+01	  0.093146294	1.299940E+02	  0.093146294	4.948600E+01	  0.093146294	6.040000E-01
367	  0.093346693	-4.258800E+01	  0.093346693	1.337890E+02	  0.093346693	4.948600E+01	  0.093346693	5.300000E-01
368	  0.093547091	-4.106500E+01	  0.093547091	1.286160E+02	  0.093547091	4.944600E+01	  0.093547091	6.830000E-01
369	  0.093747497	-4.122900E+01	  0.093747497	1.246210E+02	  0.093747497	4.950400E+01	  0.093747497	7.070000E-01
370	  0.093947895	-4.134800E+01	  0.093947895	1.266950E+02	  0.093947895	4.948600E+01	  0.093947895	6.790000E-01
371	  0.094148301	-4.187800E+01	  0.094148301	1.228570E+02	  0.094148301	4.956000E+01	  0.094148301	6.700000E-01
372	  0.094348699	-4.049000E+01	  0.094348699	1.253710E+02	  0.094348699	4.945000E+01	  0.094348699	7.620000E-01
373	  0.094549097	-4.111300E+01	  0.094549097	1.328730E+02	  0.094549097	4.940000E+01	  0.094549097	6.360000E-01
374	  0.094749503	-4.056300E+01	  0.094749503	1.297530E+02	  0.094749503	4.939900E+01	  0.094749503	7.110000E-01
375	  0.094949901	-4.080600E+01	  0.094949901	1.318550E+02	  0.094949901	4.939100E+01	  0.094949901	6.700000E-01
376	  0.095150299	-4.106400E+01	  0.095150299	1.202040E+02	  0.095150299	4.955100E+01	  0.095150299	7.570000E-01
377	  0.095350705	-4.094100E+01	  0.095350705	1.289620E+02	  0.095350705	4.943400E+01	  0.095350705	6.890000E-01
378	  0.095551103	-4.091900E+01	  0.095551103	1.194230E+02	  0.095551103	4.955300E+01	  0.095551103	7.760000E-01
379	  0.095751502	-4.203900E+01	  0.095751502	1.279140E+02	  0.095751502	4.951200E+01	  0.095751502	6.170000E-01
380	  0.095951907	-3.917500E+01	  0.095951907	1.205210E+02	  0.095951907	4.943500E+01	  0.095951907	9.360000E-01
381	  0.096152306	-4.080100E+01	  0.096152306	1.286570E+02	  0.096152306	4.942800E+01	  0.096152306	7.030000E-01
382	  0.096352704	-4.073400E+01	  0.096352704	1.229940E+02	  0.096352704	4.949600E+01	  0.096352704	7.630000E-01
383	  0.096553110	-3.967600E+01	  0.096553110	1.130890E+02	  0.096553110	4.958500E+01	  0.096553110	9.470000E-01
384	  0.096753508	-4.039200E+01	  0.096753508	1.215570E+02	  0.096753508	4.949500E+01	  0.096753508	8.060000E-01
385	  0.096953906	-4.007900E+01	  0.096953906	1.217770E+02	  0.096953906	4.947300E+01	  0.096953906	8.330000E-01
386	  0.097154312	-4.135300E+01	  0.097154312	1.202810E+02	  0.097154312	4.956400E+01	  0.097154312	7.320000E-01
387	  0.097354710	-4.044200E+01	  0.097354710	1.184350E+02	  0.097354710	4.954200E+01	  0.097354710	8.280000E-01
388	  0.097555116	-4.130900E+01	  0.097555116	1.152650E+02	  0.097555116	4.962800E+01	  0.097555116	7.720000E-01
389	  0.097755514	-3.995100E+01	  0.097755514	1.248500E+02	  0.097755514	4.942100E+01	  0.097755514	8.150000E-01
390	  0.097955912	-4.054600E+01	  0.097955912	1.161460E+02	  0.097955912	4.958000E+01	  0.097955912	8.350000E-01
391	  0.098156318	-3.862500E+01	  0.098156318	1.168550E+02	  0.098156318	4.946200E+01	  0.098156318	1.034000E+00
392	  0.098356716	-3.983000E+01	  0.098356716	1.124370E+02	  0.098356716	4.960300E+01	  0.098356716	9.350000E-01
393	  0.098557115	-3.939600E+01	  0.098557115	1.145760E+02	  0.098557115	4.954600E+01	  0.098557115	9.660000E-01
394	  0.098757520	-3.843400E+01	  0.098757520	1.174340E+02	  0.098757520	4.944000E+01	  0.098757520	1.051000E+00
395	  0.098957919	-3.953000E+01	  0.098957919	1.147620E+02	  0.098957919	4.955000E+01	  0.098957919	9.500000E-01
396	  0.099158317	-3.841700E+01	  0.099158317	1.119050E+02	  0.099158317	4.954200E+01	  0.099158317	1.103000E+00
397	  0.099358723	-3.889000E+01	  0.099358723	1.132010E+02	  0.099358723	4.954300E+01	  0.099358723	1.034000E+00
398	  0.099559121	-3.842300E+01	  0.099559121	1.163580E+02	  0.099559121	4.945900E+01	  0.099559121	1.062000E+00
399	  0.099759519	-3.919500E+01	  0.099759519	1.168680E+02	  0.099759519	4.949700E+01	  0.099759519	9.680000E-01
400	  0.099959925	-3.877700E+01	  0.099959925	1.053110E+02	  0.099959925	4.968400E+01	  0.099959925	1.103000E+00
401	  0.100160323	-3.927800E+01	  0.100160323	1.239020E+02	  0.100160323	4.938900E+01	  0.100160323	8.910000E-01
402	  0.100360721	-3.864800E+01	  0.100360721	1.089000E+02	  0.100360721	4.961000E+01	  0.100360721	1.096000E+00
403	  0.100561127	-3.803000E+01	  0.100561127	1.132300E+02	  0.100561127	4.949400E+01	  0.100561127	1.141000E+00
404	  0.100761525	-3.873300E+01	  0.100761525	1.097770E+02	  0.100761525	4.959800E+01	  0.100761525	1.080000E+00
405	  0.100961931	-3.942800E+01	  0.100961931	1.053700E+02	  0.100961931	4.970700E+01	  0.100961931	1.023000E+00
406	  0.101162329	-3.874200E+01	  0.101162329	1.093580E+02	  0.101162329	4.960600E+01	  0.101162329	1.082000E+00
407	  0.101362728	-3.856500E+01	  0.101362728	1.131120E+02	  0.101362728	4.952700E+01	  0.101362728	1.074000E+00
408	  0.101563133	-3.894700E+01	  0.101563133	1.081920E+02	  0.101563133	4.963700E+01	  0.101563133	1.064000E+00
409	  0.101763532	-3.798300E+01	  0.101763532	1.020030E+02	  0.101763532	4.972300E+01	  0.101763532	1.227000E+00
410	  0.101963930	-3.807200E+01	  0.101963930	1.077770E+02	  0.101963930	4.960600E+01	  0.101963930	1.179000E+00
411	  0.102164336	-3.770300E+01	  0.102164336	1.032440E+02	  0.102164336	4.968600E+01	  0.102164336	1.260000E+00
412	  0.102364734	-3.800700E+01	  0.102364734	1.013200E+02	  0.102364734	4.973800E+01	  0.102364734	1.227000E+00
413	  0.102565132	-3.688900E+01	  0.102565132	1.081650E+02	  0.102565132	4.953700E+01	  0.102565132	1.347000E+00
414	  0.102765530	-3.801300E+01	  0.102765530	1.099860E+02	  0.102765530	4.955800E+01	  0.102765530	1.171000E+00
415	  0.102965929	-3.800100E+01	  0.102965929	1.081340E+02	  0.102965929	4.959500E+01	  0.102965929	1.186000E+00
416	  0.103166327	-3.810500E+01	  0.103166327	1.044610E+02	  0.103166327	4.967600E+01	  0.103166327	1.196000E+00
417	  0.103366733	-3.591100E+01	  0.103366733	1.036800E+02	  0.103366733	4.959800E+01	  0.103366733	1.543000E+00
418	  0.103567131	-3.778800E+01	  0.103567131	1.051130E+02	  0.103567131	4.964900E+01	  0.103567131	1.236000E+00
419	  0.103767529	-3.765500E+01	  0.103767529	1.137740E+02	  0.103767529	4.946000E+01	  0.103767529	1.185000E+00
420	  0.103967935	-3.638800E+01	  0.103967935	1.089330E+02	  0.103967935	4.949000E+01	  0.103967935	1.419000E+00
421	  0.104168333	-3.745300E+01	  0.104168333	1.049270E+02	  0.104168333	4.963900E+01	  0.104168333	1.286000E+00
422	  0.104368731	-3.823500E+01	  0.104368731	9.583000E+01	  0.104368731	4.986000E+01	  0.104368731	1.215000E+00
423	  0.104569137	-3.655500E+01	  0.104569137	1.131440E+02	  0.104569137	4.940000E+01	  0.104569137	1.351000E+00
424	  0.104769535	-3.676100E+01	  0.104769535	1.062600E+02	  0.104769535	4.957500E+01	  0.104769535	1.382000E+00
425	  0.104969934	-3.725000E+01	  0.104969934	1.088860E+02	  0.104969934	4.954100E+01	  0.104969934	1.286000E+00
426	  0.105170339	-3.715100E+01	  0.105170339	1.038690E+02	  0.105170339	4.965000E+01	  0.105170339	1.338000E+00
427	  0.105370738	-3.729900E+01	  0.105370738	1.043770E+02	  0.105370738	4.964400E+01	  0.105370738	1.312000E+00
428	  0.105571143	-3.624400E+01	  0.105571143	1.030570E+02	  0.105571143	4.963000E+01	  0.105571143	1.490000E+00
429	  0.105771542	-3.679600E+01	  0.105771542	1.060650E+02	  0.105771542	4.958200E+01	  0.105771542	1.378000E+00
430	  0.105971940	-3.695700E+01	  0.105971940	1.010890E+02	  0.105971940	4.970800E+01	  0.105971940	1.385000E+00
431	  0.106172346	-3.657600E+01	  0.106172346	1.017970E+02	  0.106172346	4.967600E+01	  0.106172346	1.442000E+00
432	  0.106372744	-3.589700E+01	  0.106372744	1.024390E+02	  0.106372744	4.963100E+01	  0.106372744	1.554000E+00
433	  0.106573142	-3.787700E+01	  0.106573142	1.074320E+02	  0.106573142	4.960400E+01	  0.106573142	1.208000E+00
434	  0.106773548	-3.618600E+01	  0.106773548	9.837000E+01	  0.106773548	4.975100E+01	  0.106773548	1.527000E+00
435	  0.106973946	-3.662000E+01	  0.106973946	1.008560E+02	  0.106973946	4.970200E+01	  0.106973946	1.440000E+00
436	  0.107174344	-3.611900E+01	  0.107174344	9.876500E+01	  0.107174344	4.973800E+01	  0.107174344	1.537000E+00
437	  0.107374750	-3.572700E+01	  0.107374750	1.010330E+02	  0.107374750	4.966200E+01	  0.107374750	1.594000E+00
438	  0.107575148	-3.586600E+01	  0.107575148	9.744800E+01	  0.107575148	4.976600E+01	  0.107575148	1.588000E+00
439	  0.107775547	-3.613600E+01	  0.107775547	9.899600E+01	  0.107775547	4.973300E+01	  0.107775547	1.533000E+00
440	  0.107975952	-3.634600E+01	  0.107975952	9.585300E+01	  0.107975952	4.982200E+01	  0.107975952	1.509000E+00
441	  0.108176351	-3.652700E+01	  0.108176351	1.007250E+02	  0.108176351	4.970100E+01	  0.108176351	1.457000E+00
442	  0.108376749	-3.773500E+01	  0.108376749	8.887200E+01	  0.108376749	5.000800E+01	  0.108376749	1.298000E+00
443	  0.108577155	-3.621600E+01	  0.108577155	9.297600E+01	  0.108577155	4.989600E+01	  0.108577155	1.540000E+00
444	  0.108777553	-3.811500E+01	  0.108777553	9.242500E+01	  0.108777553	4.993200E+01	  0.108777553	1.239000E+00
445	  0.108977959	-3.634200E+01	  0.108977959	1.092110E+02	  0.108977959	4.948000E+01	  0.108977959	1.424000E+00
446	  0.109178357	-3.537600E+01	  0.109178357	9.411400E+01	  0.109178357	4.984900E+01	  0.109178357	1.693000E+00
447	  0.109378755	-3.564700E+01	  0.109378755	9.352600E+01	  0.109378755	4.987100E+01	  0.109378755	1.643000E+00
448	  0.109579161	-3.596600E+01	  0.109579161	9.974000E+01	  0.109579161	4.970700E+01	  0.109579161	1.559000E+00
449	  0.109779559	-3.619300E+01	  0.109779559	9.813700E+01	  0.109779559	4.975700E+01	  0.109779559	1.527000E+00
450	  0.109979957	-3.539000E+01	  0.109979957	9.259500E+01	  0.109979957	4.989400E+01	  0.109979957	1.695000E+00
451	  0.110180363	-3.646500E+01	  0.110180363	1.036460E+02	  0.110180363	4.962500E+01	  0.110180363	1.449000E+00
452	  0.110380761	-3.738200E+01	  0.110380761	9.485500E+01	  0.110380761	4.986700E+01	  0.110380761	1.343000E+00
453	  0.110581160	-3.591700E+01	  0.110581160	9.810800E+01	  0.110581160	4.974900E+01	  0.110581160	1.576000E+00
454	  0.110781565	-3.531900E+01	  0.110781565	9.129500E+01	  0.110781565	4.993100E+01	  0.110781565	1.711000E+00
455	  0.110981964	-3.555800E+01	  0.110981964	9.233000E+01	  0.110981964	4.990400E+01	  0.110981964	1.663000E+00
456	  0.111182362	-3.545000E+01	  0.111182362	9.296700E+01	  0.111182362	4.988400E+01	  0.111182362	1.682000E+00
457	  0.111382768	-3.534600E+01	  0.111382768	9.633600E+01	  0.111382768	4.978300E+01	  0.111382768	1.691000E+00
458	  0.111583166	-3.466800E+01	  0.111583166	9.413000E+01	  0.111583166	4.983300E+01	  0.111583166	1.837000E+00
459	  0.111783572	-3.540400E+01	  0.111783572	9.649500E+01	  0.111783572	4.978000E+01	  0.111783572	1.679000E+00
460	  0.111983970	-3.498300E+01	  0.111983970	9.518100E+01	  0.111983970	4.980800E+01	  0.111983970	1.768000E+00
461	  0.112184368	-3.533900E+01	  0.112184368	9.548100E+01	  0.112184368	4.980800E+01	  0.112184368	1.696000E+00
462	  0.112384774	-3.583500E+01	  0.112384774	9.483100E+01	  0.112384774	4.983800E+01	  0.112384774	1.604000E+00
463	  0.112585172	-3.521000E+01	  0.112585172	8.885100E+01	  0.112585172	5.000400E+01	  0.112585172	1.735000E+00
464	  0.112785570	-3.449000E+01	  0.112785570	9.324000E+01	  0.112785570	4.985800E+01	  0.112785570	1.878000E+00
465	  0.112985976	-3.477300E+01	  0.112985976	9.362800E+01	  0.112985976	4.985100E+01	  0.112985976	1.816000E+00
466	  0.113186374	-3.415300E+01	  0.113186374	8.636300E+01	  0.113186374	5.008600E+01	  0.113186374	1.960000E+00
467	  0.113386773	-3.459100E+01	  0.113386773	9.523600E+01	  0.113386773	4.979500E+01	  0.113386773	1.849000E+00
468	  0.113587178	-3.427100E+01	  0.113587178	8.312500E+01	  0.113587178	5.019400E+01	  0.113587178	1.928000E+00
469	  0.113787577	-3.389600E+01	  0.113787577	9.241800E+01	  0.113787577	4.987400E+01	  0.113787577	2.013000E+00
470	  0.113987975	-3.484500E+01	  0.113987975	8.775400E+01	  0.113987975	5.003800E+01	  0.113987975	1.810000E+00
471	  0.114188381	-3.434000E+01	  0.114188381	8.514300E+01	  0.114188381	5.012500E+01	  0.114188381	1.917000E+00
472	  0.114388779	-3.505200E+01	  0.114388779	9.022100E+01	  0.114388779	4.996100E+01	  0.114388779	1.766000E+00
473	  0.114589177	-3.475400E+01	  0.114589177	9.515700E+01	  0.114589177	4.980200E+01	  0.114589177	1.815000E+00
474	  0.114789583	-3.430500E+01	  0.114789583	8.689500E+01	  0.114789583	5.006700E+01	  0.114789583	1.926000E+00
475	  0.114989981	-3.485600E+01	  0.114989981	8.537900E+01	  0.114989981	5.011300E+01	  0.114989981	1.806000E+00
476	  0.115190387	-3.404400E+01	  0.115190387	8.324000E+01	  0.115190387	5.019500E+01	  0.115190387	1.979000E+00
477	  0.115390785	-3.469800E+01	  0.115390785	8.848200E+01	  0.115390785	5.001400E+01	  0.115390785	1.841000E+00
478	  0.115591183	-3.464400E+01	  0.115591183	8.918200E+01	  0.115591183	4.999200E+01	  0.115591183	1.852000E+00
479	  0.115791589	-3.473900E+01	  0.115791589	9.466800E+01	  0.115791589	4.981700E+01	  0.115791589	1.820000E+00
480	  0.115991987	-3.369300E+01	  0.115991987	8.637400E+01	  0.115991987	5.008800E+01	  0.115991987	2.067000E+00
481	  0.116192386	-3.452100E+01	  0.116192386	9.117900E+01	  0.116192386	4.992600E+01	  0.116192386	1.876000E+00
482	  0.116392791	-3.464400E+01	  0.116392791	8.724800E+01	  0.116392791	5.005400E+01	  0.116392791	1.852000E+00
483	  0.116593190	-3.444300E+01	  0.116593190	8.053700E+01	  0.116593190	5.027700E+01	  0.116593190	1.881000E+00
484	  0.116793588	-3.451900E+01	  0.116793588	8.530600E+01	  0.116793588	5.011800E+01	  0.116793588	1.878000E+00
485	  0.116993994	-3.405700E+01	  0.116993994	8.513400E+01	  0.116993994	5.012900E+01	  0.116993994	1.980000E+00
486	  0.117194392	-3.433400E+01	  0.117194392	8.571800E+01	  0.117194392	5.010600E+01	  0.117194392	1.919000E+00
487	  0.117394790	-3.350300E+01	  0.117394790	8.902500E+01	  0.117394790	4.999100E+01	  0.117394790	2.112000E+00
488	  0.117595196	-3.374000E+01	  0.117595196	8.799100E+01	  0.117595196	5.002900E+01	  0.117595196	2.056000E+00
489	  0.117795594	-3.423400E+01	  0.117795594	8.448800E+01	  0.117795594	5.014900E+01	  0.117795594	1.939000E+00
490	  0.117995992	-3.426900E+01	  0.117995992	8.212200E+01	  0.117995992	5.022800E+01	  0.117995992	1.925000E+00
491	  0.118196398	-3.346400E+01	  0.118196398	8.188900E+01	  0.118196398	5.025500E+01	  0.118196398	2.112000E+00
492	  0.118396796	-3.377600E+01	  0.118396796	8.788300E+01	  0.118396796	5.003300E+01	  0.118396796	2.048000E+00
493	  0.118597202	-3.383000E+01	  0.118597202	7.982200E+01	  0.118597202	5.032000E+01	  0.118597202	2.016000E+00
494	  0.118797600	-3.381600E+01	  0.118797600	8.494200E+01	  0.118797600	5.013800E+01	  0.118797600	2.036000E+00
495	  0.118997999	-3.314300E+01	  0.118997999	8.276300E+01	  0.118997999	5.023000E+01	  0.118997999	2.195000E+00
496	  0.119198404	-3.366700E+01	  0.119198404	8.671000E+01	  0.119198404	5.007600E+01	  0.119198404	2.073000E+00
497	  0.119398803	-3.322800E+01	  0.119398803	8.376600E+01	  0.119398803	5.019000E+01	  0.119398803	2.177000E+00
498	  0.119599201	-3.296500E+01	  0.119599201	8.104700E+01	  0.119599201	5.030100E+01	  0.119599201	2.234000E+00
499	  0.119799607	-3.346500E+01	  0.119799607	8.064100E+01	  0.119799607	5.030100E+01	  0.119799607	2.107000E+00
500	  0.120000005	-3.230200E+01	  0.120000005	8.327800E+01	  0.120000005	5.022600E+01	  0.120000005	2.421000E+00
