! Anritsu VNA Master:             	Model: MS2036C/10/77
! SN:             	1601066
! /card0/usr/18may12.lna.rl/256a.swout.txt
! Existing Calibration Information:
! TYPE:             	Current Settings	Active Cal Settings
! TIME:             	05/13/2018 01:41:26 PM	05/13/2018 01:31:14 PM
! INTERNAL TEMP:    	51.3 C	49.8 C
! # POINTS:         	500	500
! START FREQ:       	20.000 MHz	20.000 MHz
! STOP FREQ:        	120.000 MHz	120.000 MHz
! SOURCE POWER:     	Low	Low
! IFBW:             	10 Hz	10 Hz
! AVG FACTOR:       	  1 	  1 
! REF PLANE 1:      	0 mm	0 mm
! REF PLANE 2:      	0 mm	0 mm
! CAL TYPE:         	Full S22	Full S22
! CAL METHOD:       	SOLT	SOLT
! CAL LINE TYPE:    	Coax	Coax
! DUT PORT 1:       	K-Conn(M)	K-Conn(M)
! DUT PORT 2:       	K-Conn(M)	K-Conn(M)
! CAL STATUS:       	OK: Accuracy High	--
! PROP-V:       	0.700
! CABLE LOSS:       	0.000 dB/m
! REF IMPEDANCE:       	50.0
! Trace Specific Parameters:	TR1	TR2	TR3	TR4
! TRACE.#.Y (GRAPH TYPE)	LOG MAG	PHASE	REAL IMPEDANCE	IMAGINARY IMPEDANCE
! TRACE.#.X 	FREQ.GHZ	FREQ.GHZ	FREQ.GHZ	FREQ.GHZ
! S-PARAMETER	S22	S22	S22	S22
! SMOOTH/APERTURE %	0	0	0	0
! WINDOW	NSL	NSL	NSL	NSL
! GATING	OFF	OFF	OFF	OFF
! FGTD	OFF	OFF	OFF	OFF
Marker Information per Trace:	TR1	TR2	TR3	TR4
!MK1	--	"MK1 TR2:  12.585 170 MHz,##.##"	--	--
!MK2	--	--	"MK2 TR3:  360.721 kHz,##.##"	--
!MK3	--	--	--	--
!MK4	--	--	--	--
!MK5	--	--	--	--
!MK6	--	--	--	--
!MK7	--	--	--	--
!MK8	--	--	--	--
PNT	TR1.FREQ.GHZ	TR1.LOG MAG.dB	TR2.FREQ.GHZ	TR2.PHASE.deg	TR3.FREQ.GHZ	TR3.REAL IMPEDANCE.ohm	TR4.FREQ.GHZ	TR4.IMAGINARY IMPEDANCE.ohm
1	  0.020000000	-3.225600E+01	  0.020000000	-3.975100E+01	  0.020000000	5.188500E+01	  0.020000000	-1.619000E+00
2	  0.020200402	-3.199400E+01	  0.020200402	-4.380200E+01	  0.020200402	5.181500E+01	  0.020200402	-1.804000E+00
3	  0.020400802	-3.221000E+01	  0.020400802	-4.075100E+01	  0.020400802	5.186500E+01	  0.020400802	-1.661000E+00
4	  0.020601204	-3.210800E+01	  0.020601204	-4.552100E+01	  0.020601204	5.173500E+01	  0.020601204	-1.832000E+00
5	  0.020801604	-3.171500E+01	  0.020801604	-4.199600E+01	  0.020801604	5.193400E+01	  0.020801604	-1.805000E+00
6	  0.021002004	-3.204200E+01	  0.021002004	-4.342600E+01	  0.021002004	5.181700E+01	  0.021002004	-1.781000E+00
7	  0.021202406	-3.241100E+01	  0.021202406	-4.321200E+01	  0.021202406	5.174800E+01	  0.021202406	-1.698000E+00
8	  0.021402806	-3.221300E+01	  0.021402806	-4.413900E+01	  0.021402806	5.175900E+01	  0.021402806	-1.767000E+00
9	  0.021603208	-3.226800E+01	  0.021603208	-4.426000E+01	  0.021603208	5.174400E+01	  0.021603208	-1.759000E+00
10	  0.021803608	-3.265400E+01	  0.021803608	-4.504300E+01	  0.021803608	5.164400E+01	  0.021803608	-1.703000E+00
11	  0.022004008	-3.205500E+01	  0.022004008	-4.427200E+01	  0.022004008	5.178700E+01	  0.022004008	-1.805000E+00
12	  0.022204408	-3.234800E+01	  0.022204408	-4.684100E+01	  0.022204408	5.164500E+01	  0.022204408	-1.819000E+00
13	  0.022404809	-3.241000E+01	  0.022404809	-4.577200E+01	  0.022404809	5.166800E+01	  0.022404809	-1.775000E+00
14	  0.022605211	-3.262000E+01	  0.022605211	-4.760500E+01	  0.022605211	5.157000E+01	  0.022605211	-1.782000E+00
15	  0.022805611	-3.247700E+01	  0.022805611	-4.843300E+01	  0.022805611	5.156900E+01	  0.022805611	-1.835000E+00
16	  0.023006011	-3.246400E+01	  0.023006011	-4.494200E+01	  0.023006011	5.168400E+01	  0.023006011	-1.739000E+00
17	  0.023206413	-3.246300E+01	  0.023206413	-4.579000E+01	  0.023206413	5.165700E+01	  0.023206413	-1.764000E+00
18	  0.023406813	-3.276800E+01	  0.023406813	-4.659100E+01	  0.023406813	5.157600E+01	  0.023406813	-1.723000E+00
19	  0.023607215	-3.288800E+01	  0.023607215	-4.645700E+01	  0.023607215	5.155800E+01	  0.023607215	-1.695000E+00
20	  0.023807615	-3.253500E+01	  0.023807615	-4.709000E+01	  0.023807615	5.160200E+01	  0.023807615	-1.786000E+00
21	  0.024008015	-3.271900E+01	  0.024008015	-4.603400E+01	  0.024008015	5.160200E+01	  0.024008015	-1.718000E+00
22	  0.024208417	-3.275200E+01	  0.024208417	-4.764300E+01	  0.024208417	5.154600E+01	  0.024208417	-1.755000E+00
23	  0.024408817	-3.293900E+01	  0.024408817	-4.732400E+01	  0.024408817	5.152300E+01	  0.024408817	-1.708000E+00
24	  0.024609219	-3.293400E+01	  0.024609219	-5.029900E+01	  0.024609219	5.143000E+01	  0.024609219	-1.786000E+00
25	  0.024809619	-3.264400E+01	  0.024809619	-4.706100E+01	  0.024809619	5.158300E+01	  0.024809619	-1.762000E+00
26	  0.025010020	-3.286200E+01	  0.025010020	-4.959500E+01	  0.025010020	5.146400E+01	  0.025010020	-1.783000E+00
27	  0.025210422	-3.317500E+01	  0.025210422	-4.863300E+01	  0.025210422	5.144200E+01	  0.025210422	-1.694000E+00
28	  0.025410822	-3.322500E+01	  0.025410822	-4.939500E+01	  0.025410822	5.141100E+01	  0.025410822	-1.703000E+00
29	  0.025611224	-3.324100E+01	  0.025611224	-4.853800E+01	  0.025611224	5.143400E+01	  0.025611224	-1.679000E+00
30	  0.025811624	-3.349000E+01	  0.025811624	-5.042900E+01	  0.025811624	5.133800E+01	  0.025811624	-1.675000E+00
31	  0.026012026	-3.323100E+01	  0.026012026	-5.227900E+01	  0.026012026	5.132000E+01	  0.026012026	-1.770000E+00
32	  0.026212426	-3.314200E+01	  0.026212426	-5.128600E+01	  0.026212426	5.136500E+01	  0.026212426	-1.766000E+00
33	  0.026412826	-3.296400E+01	  0.026412826	-5.038200E+01	  0.026412826	5.142200E+01	  0.026412826	-1.781000E+00
34	  0.026613226	-3.351200E+01	  0.026613226	-5.154200E+01	  0.026613226	5.130100E+01	  0.026613226	-1.696000E+00
35	  0.026813626	-3.345500E+01	  0.026813626	-5.132900E+01	  0.026813626	5.131600E+01	  0.026813626	-1.702000E+00
36	  0.027014028	-3.340700E+01	  0.027014028	-5.308000E+01	  0.027014028	5.126900E+01	  0.027014028	-1.751000E+00
37	  0.027214428	-3.375500E+01	  0.027214428	-5.087900E+01	  0.027214428	5.128500E+01	  0.027214428	-1.633000E+00
38	  0.027414829	-3.357600E+01	  0.027414829	-5.285900E+01	  0.027414829	5.125200E+01	  0.027414829	-1.712000E+00
39	  0.027615231	-3.353800E+01	  0.027615231	-5.206000E+01	  0.027615231	5.128100E+01	  0.027615231	-1.702000E+00
40	  0.027815631	-3.351300E+01	  0.027815631	-5.401500E+01	  0.027815631	5.122500E+01	  0.027815631	-1.750000E+00
41	  0.028016033	-3.378500E+01	  0.028016033	-5.204600E+01	  0.028016033	5.124600E+01	  0.028016033	-1.653000E+00
42	  0.028216433	-3.373000E+01	  0.028216433	-5.188600E+01	  0.028216433	5.125900E+01	  0.028216433	-1.660000E+00
43	  0.028416833	-3.352100E+01	  0.028416833	-5.084600E+01	  0.028416833	5.132100E+01	  0.028416833	-1.678000E+00
44	  0.028617235	-3.385400E+01	  0.028617235	-5.123200E+01	  0.028617235	5.126000E+01	  0.028617235	-1.622000E+00
45	  0.028817635	-3.356600E+01	  0.028817635	-5.387700E+01	  0.028817635	5.122200E+01	  0.028817635	-1.736000E+00
46	  0.029018037	-3.409600E+01	  0.029018037	-5.391800E+01	  0.029018037	5.114900E+01	  0.029018037	-1.632000E+00
47	  0.029218437	-3.429600E+01	  0.029218437	-5.478300E+01	  0.029218437	5.109800E+01	  0.029218437	-1.610000E+00
48	  0.029418837	-3.354000E+01	  0.029418837	-5.626100E+01	  0.029418837	5.115000E+01	  0.029418837	-1.790000E+00
49	  0.029619239	-3.385800E+01	  0.029619239	-5.312800E+01	  0.029619239	5.120400E+01	  0.029619239	-1.662000E+00
50	  0.029819639	-3.400300E+01	  0.029819639	-5.568100E+01	  0.029819639	5.110900E+01	  0.029819639	-1.684000E+00
51	  0.030020041	-3.386700E+01	  0.030020041	-5.312500E+01	  0.030020041	5.120300E+01	  0.030020041	-1.660000E+00
52	  0.030220442	-3.414800E+01	  0.030220442	-5.749500E+01	  0.030220442	5.103600E+01	  0.030220442	-1.689000E+00
53	  0.030420844	-3.428200E+01	  0.030420844	-5.474800E+01	  0.030420844	5.110100E+01	  0.030420844	-1.612000E+00
54	  0.030621244	-3.440400E+01	  0.030621244	-5.660400E+01	  0.030621244	5.103300E+01	  0.030621244	-1.623000E+00
55	  0.030821644	-3.418700E+01	  0.030821644	-5.472800E+01	  0.030821644	5.111400E+01	  0.030821644	-1.630000E+00
56	  0.031022044	-3.450900E+01	  0.031022044	-5.573100E+01	  0.031022044	5.104500E+01	  0.031022044	-1.588000E+00
57	  0.031222444	-3.422900E+01	  0.031222444	-5.481400E+01	  0.031222444	5.110600E+01	  0.031222444	-1.623000E+00
58	  0.031422846	-3.421200E+01	  0.031422846	-5.938100E+01	  0.031422846	5.097200E+01	  0.031422846	-1.708000E+00
59	  0.031623244	-3.466400E+01	  0.031623244	-5.749100E+01	  0.031623244	5.097800E+01	  0.031623244	-1.589000E+00
60	  0.031823646	-3.512900E+01	  0.031823646	-5.752300E+01	  0.031823646	5.092700E+01	  0.031823646	-1.505000E+00
61	  0.032024048	-3.456200E+01	  0.032024048	-5.764600E+01	  0.032024048	5.098500E+01	  0.032024048	-1.611000E+00
62	  0.032224450	-3.451100E+01	  0.032224450	-5.951600E+01	  0.032224450	5.093600E+01	  0.032224450	-1.652000E+00
63	  0.032424849	-3.516100E+01	  0.032424849	-5.794000E+01	  0.032424849	5.091200E+01	  0.032424849	-1.506000E+00
64	  0.032625251	-3.503300E+01	  0.032625251	-5.719200E+01	  0.032625251	5.094600E+01	  0.032625251	-1.517000E+00
65	  0.032825653	-3.524300E+01	  0.032825653	-5.788400E+01	  0.032825653	5.090500E+01	  0.032825653	-1.491000E+00
66	  0.033026051	-3.512600E+01	  0.033026051	-5.537500E+01	  0.033026051	5.098400E+01	  0.033026051	-1.471000E+00
67	  0.033226453	-3.462700E+01	  0.033226453	-5.809800E+01	  0.033226453	5.096500E+01	  0.033226453	-1.606000E+00
68	  0.033426855	-3.456500E+01	  0.033426855	-6.106300E+01	  0.033426855	5.088500E+01	  0.033426855	-1.665000E+00
69	  0.033627257	-3.504200E+01	  0.033627257	-5.820000E+01	  0.033627257	5.091800E+01	  0.033627257	-1.532000E+00
70	  0.033827655	-3.469000E+01	  0.033827655	-5.829700E+01	  0.033827655	5.095200E+01	  0.033827655	-1.598000E+00
71	  0.034028057	-3.490600E+01	  0.034028057	-5.912500E+01	  0.034028057	5.090600E+01	  0.034028057	-1.571000E+00
72	  0.034228459	-3.444500E+01	  0.034228459	-6.279900E+01	  0.034228459	5.084400E+01	  0.034228459	-1.714000E+00
73	  0.034428857	-3.482800E+01	  0.034428857	-5.916000E+01	  0.034428857	5.091300E+01	  0.034428857	-1.586000E+00
74	  0.034629259	-3.515500E+01	  0.034629259	-6.141500E+01	  0.034629259	5.081800E+01	  0.034629259	-1.559000E+00
75	  0.034829661	-3.522100E+01	  0.034829661	-5.818600E+01	  0.034829661	5.089900E+01	  0.034829661	-1.499000E+00
76	  0.035030060	-3.532300E+01	  0.035030060	-6.152500E+01	  0.035030060	5.080000E+01	  0.035030060	-1.530000E+00
77	  0.035230462	-3.568200E+01	  0.035230462	-6.052100E+01	  0.035230462	5.079400E+01	  0.035230462	-1.454000E+00
78	  0.035430863	-3.517400E+01	  0.035430863	-6.299300E+01	  0.035430863	5.077300E+01	  0.035430863	-1.577000E+00
79	  0.035631265	-3.510600E+01	  0.035631265	-6.134000E+01	  0.035631265	5.082500E+01	  0.035631265	-1.567000E+00
80	  0.035831664	-3.500600E+01	  0.035831664	-6.378300E+01	  0.035831664	5.076500E+01	  0.035831664	-1.618000E+00
81	  0.036032066	-3.566100E+01	  0.036032066	-6.350400E+01	  0.036032066	5.071800E+01	  0.036032066	-1.496000E+00
82	  0.036232468	-3.597100E+01	  0.036232468	-5.796400E+01	  0.036232468	5.083200E+01	  0.036232468	-1.370000E+00
83	  0.036432866	-3.540700E+01	  0.036432866	-6.116400E+01	  0.036432866	5.080200E+01	  0.036432866	-1.510000E+00
84	  0.036633268	-3.549200E+01	  0.036633268	-6.269000E+01	  0.036633268	5.075400E+01	  0.036633268	-1.515000E+00
85	  0.036833670	-3.563800E+01	  0.036833670	-5.839200E+01	  0.036833670	5.085300E+01	  0.036833670	-1.431000E+00
86	  0.037034072	-3.590900E+01	  0.037034072	-6.083400E+01	  0.037034072	5.076600E+01	  0.037034072	-1.420000E+00
87	  0.037234470	-3.564900E+01	  0.037234470	-6.070500E+01	  0.037234470	5.079200E+01	  0.037234470	-1.462000E+00
88	  0.037434869	-3.616400E+01	  0.037434869	-6.270400E+01	  0.037434869	5.069800E+01	  0.037434869	-1.401000E+00
89	  0.037635271	-3.563400E+01	  0.037635271	-6.391000E+01	  0.037635271	5.070900E+01	  0.037635271	-1.506000E+00
90	  0.037835669	-3.632700E+01	  0.037835669	-6.582600E+01	  0.037835669	5.060900E+01	  0.037835669	-1.409000E+00
91	  0.038036071	-3.589100E+01	  0.038036071	-6.558600E+01	  0.038036071	5.064500E+01	  0.038036071	-1.480000E+00
92	  0.038236473	-3.604000E+01	  0.038236473	-6.134600E+01	  0.038236473	5.074200E+01	  0.038236473	-1.405000E+00
93	  0.038436871	-3.553800E+01	  0.038436871	-6.266400E+01	  0.038436871	5.075000E+01	  0.038436871	-1.507000E+00
94	  0.038637273	-3.604500E+01	  0.038637273	-6.208600E+01	  0.038637273	5.072300E+01	  0.038637273	-1.413000E+00
95	  0.038837675	-3.584900E+01	  0.038837675	-6.633900E+01	  0.038837675	5.062900E+01	  0.038837675	-1.496000E+00
96	  0.039038073	-3.640400E+01	  0.039038073	-6.386100E+01	  0.039038073	5.065200E+01	  0.039038073	-1.376000E+00
97	  0.039238475	-3.630800E+01	  0.039238475	-6.472300E+01	  0.039238475	5.063700E+01	  0.039238475	-1.401000E+00
98	  0.039438877	-3.650700E+01	  0.039438877	-6.577100E+01	  0.039438877	5.059800E+01	  0.039438877	-1.379000E+00
99	  0.039639279	-3.656600E+01	  0.039639279	-6.383800E+01	  0.039639279	5.064000E+01	  0.039639279	-1.350000E+00
100	  0.039839678	-3.626800E+01	  0.039839678	-6.534900E+01	  0.039839678	5.062500E+01	  0.039839678	-1.414000E+00
101	  0.040040080	-3.636400E+01	  0.040040080	-6.901200E+01	  0.040040080	5.052600E+01	  0.040040080	-1.434000E+00
102	  0.040240481	-3.606600E+01	  0.040240481	-6.740500E+01	  0.040240481	5.058600E+01	  0.040240481	-1.469000E+00
103	  0.040440880	-3.681600E+01	  0.040440880	-6.210400E+01	  0.040440880	5.066200E+01	  0.040440880	-1.292000E+00
104	  0.040641282	-3.714600E+01	  0.040641282	-6.780000E+01	  0.040641282	5.051000E+01	  0.040641282	-1.299000E+00
105	  0.040841684	-3.739700E+01	  0.040841684	-6.595500E+01	  0.040841684	5.053700E+01	  0.040841684	-1.245000E+00
106	  0.041042086	-3.724600E+01	  0.041042086	-6.715500E+01	  0.041042086	5.051900E+01	  0.041042086	-1.278000E+00
107	  0.041242484	-3.705600E+01	  0.041242484	-6.657200E+01	  0.041242484	5.054400E+01	  0.041242484	-1.301000E+00
108	  0.041442886	-3.765600E+01	  0.041442886	-6.590400E+01	  0.041442886	5.052300E+01	  0.041442886	-1.208000E+00
109	  0.041643288	-3.723600E+01	  0.041643288	-6.728800E+01	  0.041643288	5.051700E+01	  0.041643288	-1.281000E+00
110	  0.041843686	-3.713600E+01	  0.041843686	-6.763100E+01	  0.041843686	5.051500E+01	  0.041843686	-1.299000E+00
111	  0.042044088	-3.749200E+01	  0.042044088	-7.046700E+01	  0.042044088	5.043200E+01	  0.042044088	-1.268000E+00
112	  0.042244490	-3.669400E+01	  0.042244490	-7.135400E+01	  0.042244490	5.045000E+01	  0.042244490	-1.399000E+00
113	  0.042444889	-3.635800E+01	  0.042444889	-6.420600E+01	  0.042444889	5.064700E+01	  0.042444889	-1.387000E+00
114	  0.042645290	-3.752200E+01	  0.042645290	-6.463500E+01	  0.042645290	5.055800E+01	  0.042645290	-1.215000E+00
115	  0.042845692	-3.768200E+01	  0.042845692	-7.081400E+01	  0.042845692	5.041500E+01	  0.042845692	-1.243000E+00
116	  0.043046094	-3.761800E+01	  0.043046094	-6.898600E+01	  0.043046094	5.045800E+01	  0.043046094	-1.239000E+00
117	  0.043246493	-3.785000E+01	  0.043246493	-7.232000E+01	  0.043246493	5.037500E+01	  0.043246493	-1.229000E+00
118	  0.043446895	-3.734600E+01	  0.043446895	-7.030600E+01	  0.043446895	5.044200E+01	  0.043446895	-1.289000E+00
119	  0.043647297	-3.729300E+01	  0.043647297	-7.013800E+01	  0.043647297	5.044900E+01	  0.043647297	-1.296000E+00
120	  0.043847695	-3.794900E+01	  0.043847695	-6.967200E+01	  0.043847695	5.042700E+01	  0.043847695	-1.197000E+00
121	  0.044048097	-3.774500E+01	  0.044048097	-6.994300E+01	  0.044048097	5.043100E+01	  0.044048097	-1.228000E+00
122	  0.044248499	-3.764400E+01	  0.044248499	-6.920700E+01	  0.044248499	5.045200E+01	  0.044248499	-1.237000E+00
123	  0.044448901	-3.776400E+01	  0.044448901	-7.391300E+01	  0.044448901	5.034400E+01	  0.044448901	-1.251000E+00
124	  0.044649299	-3.751600E+01	  0.044649299	-7.203500E+01	  0.044649299	5.039500E+01	  0.044649299	-1.276000E+00
125	  0.044849701	-3.734500E+01	  0.044849701	-7.261200E+01	  0.044849701	5.039000E+01	  0.044849701	-1.305000E+00
126	  0.045050103	-3.813600E+01	  0.045050103	-6.630100E+01	  0.045050103	5.048700E+01	  0.045050103	-1.146000E+00
127	  0.045250501	-3.781000E+01	  0.045250501	-7.450700E+01	  0.045250501	5.032900E+01	  0.045250501	-1.248000E+00
128	  0.045450903	-3.813800E+01	  0.045450903	-7.053400E+01	  0.045450903	5.040000E+01	  0.045450903	-1.177000E+00
129	  0.045651305	-3.811200E+01	  0.045651305	-7.280700E+01	  0.045651305	5.035400E+01	  0.045651305	-1.195000E+00
130	  0.045851704	-3.787000E+01	  0.045851704	-7.261200E+01	  0.045851704	5.036800E+01	  0.045851704	-1.228000E+00
131	  0.046052106	-3.925700E+01	  0.046052106	-7.250600E+01	  0.046052106	5.031700E+01	  0.046052106	-1.045000E+00
132	  0.046252504	-3.862200E+01	  0.046252504	-7.732300E+01	  0.046252504	5.024400E+01	  0.046252504	-1.148000E+00
133	  0.046452906	-3.890200E+01	  0.046452906	-7.071100E+01	  0.046452906	5.036400E+01	  0.046452906	-1.078000E+00
134	  0.046653304	-3.849800E+01	  0.046653304	-6.834900E+01	  0.046653304	5.042800E+01	  0.046653304	-1.114000E+00
135	  0.046853706	-3.909600E+01	  0.046853706	-7.305100E+01	  0.046853706	5.031300E+01	  0.046853706	-1.068000E+00
136	  0.047054108	-3.868400E+01	  0.047054108	-6.919900E+01	  0.047054108	5.040200E+01	  0.047054108	-1.096000E+00
137	  0.047254506	-3.911800E+01	  0.047254506	-7.531200E+01	  0.047254506	5.026900E+01	  0.047254506	-1.076000E+00
138	  0.047454908	-3.974000E+01	  0.047454908	-8.054400E+01	  0.047454908	5.015900E+01	  0.047454908	-1.019000E+00
139	  0.047655310	-3.909900E+01	  0.047655310	-7.942100E+01	  0.047655310	5.019200E+01	  0.047655310	-1.094000E+00
140	  0.047855709	-3.897000E+01	  0.047855709	-7.645000E+01	  0.047855709	5.025200E+01	  0.047855709	-1.100000E+00
141	  0.048056111	-3.952700E+01	  0.048056111	-6.440100E+01	  0.048056111	5.044900E+01	  0.048056111	-9.600000E-01
142	  0.048256513	-3.871500E+01	  0.048256513	-7.526200E+01	  0.048256513	5.028300E+01	  0.048256513	-1.127000E+00
143	  0.048456915	-3.893500E+01	  0.048456915	-7.619800E+01	  0.048456915	5.025800E+01	  0.048456915	-1.103000E+00
144	  0.048657313	-3.933500E+01	  0.048657313	-7.921000E+01	  0.048657313	5.019100E+01	  0.048657313	-1.064000E+00
145	  0.048857715	-3.918000E+01	  0.048857715	-7.243100E+01	  0.048857715	5.032100E+01	  0.048857715	-1.054000E+00
146	  0.049058117	-3.980700E+01	  0.049058117	-7.756000E+01	  0.049058117	5.021000E+01	  0.049058117	-1.002000E+00
147	  0.049258515	-3.939600E+01	  0.049258515	-7.330300E+01	  0.049258515	5.029800E+01	  0.049258515	-1.033000E+00
148	  0.049458917	-3.988100E+01	  0.049458917	-7.728100E+01	  0.049458917	5.021300E+01	  0.049458917	-9.930000E-01
149	  0.049659319	-4.004800E+01	  0.049659319	-8.147500E+01	  0.049659319	5.013700E+01	  0.049659319	-9.860000E-01
150	  0.049859721	-3.993700E+01	  0.049859721	-7.316800E+01	  0.049859721	5.028300E+01	  0.049859721	-9.690000E-01
151	  0.050060119	-3.884500E+01	  0.050060119	-7.558300E+01	  0.050060119	5.027200E+01	  0.050060119	-1.112000E+00
152	  0.050260521	-3.947700E+01	  0.050260521	-7.671100E+01	  0.050260521	5.023300E+01	  0.050260521	-1.038000E+00
153	  0.050460923	-3.940500E+01	  0.050460923	-7.187300E+01	  0.050460923	5.032300E+01	  0.050460923	-1.024000E+00
154	  0.050661322	-3.955000E+01	  0.050661322	-8.018600E+01	  0.050661322	5.016800E+01	  0.050661322	-1.041000E+00
155	  0.050861724	-3.926200E+01	  0.050861724	-8.402400E+01	  0.050861724	5.010100E+01	  0.050861724	-1.085000E+00
156	  0.051062126	-3.922900E+01	  0.051062126	-7.636200E+01	  0.051062126	5.024600E+01	  0.051062126	-1.067000E+00
157	  0.051262524	-4.047700E+01	  0.051262524	-7.508800E+01	  0.051262524	5.023500E+01	  0.051262524	-9.190000E-01
158	  0.051462926	-4.027800E+01	  0.051462926	-8.071300E+01	  0.051462926	5.014700E+01	  0.051462926	-9.580000E-01
159	  0.051663328	-4.022200E+01	  0.051663328	-7.837400E+01	  0.051663328	5.018700E+01	  0.051663328	-9.580000E-01
160	  0.051863730	-4.042800E+01	  0.051863730	-8.100800E+01	  0.051863730	5.014000E+01	  0.051863730	-9.420000E-01
161	  0.052064128	-4.056200E+01	  0.052064128	-8.105500E+01	  0.052064128	5.013700E+01	  0.052064128	-9.280000E-01
162	  0.052264530	-4.112200E+01	  0.052264530	-7.702600E+01	  0.052264530	5.019000E+01	  0.052264530	-8.590000E-01
163	  0.052464932	-4.059200E+01	  0.052464932	-7.707100E+01	  0.052464932	5.020100E+01	  0.052464932	-9.140000E-01
164	  0.052665330	-4.019300E+01	  0.052665330	-8.899400E+01	  0.052665330	5.000700E+01	  0.052665330	-9.780000E-01
165	  0.052865732	-4.066400E+01	  0.052865732	-8.371400E+01	  0.052865732	5.009300E+01	  0.052865732	-9.220000E-01
166	  0.053066134	-4.113200E+01	  0.053066134	-8.632700E+01	  0.053066134	5.004800E+01	  0.053066134	-8.760000E-01
167	  0.053266536	-4.142200E+01	  0.053266536	-7.792100E+01	  0.053266536	5.017100E+01	  0.053266536	-8.330000E-01
168	  0.053466935	-4.073000E+01	  0.053466935	-8.117900E+01	  0.053466935	5.013200E+01	  0.053466935	-9.100000E-01
169	  0.053667337	-4.111200E+01	  0.053667337	-8.352100E+01	  0.053667337	5.009100E+01	  0.053667337	-8.750000E-01
170	  0.053867739	-4.041100E+01	  0.053867739	-8.598300E+01	  0.053867739	5.005700E+01	  0.053867739	-9.520000E-01
171	  0.054068137	-4.098300E+01	  0.054068137	-7.793500E+01	  0.054068137	5.017900E+01	  0.054068137	-8.760000E-01
172	  0.054268539	-4.081900E+01	  0.054268539	-8.177400E+01	  0.054268539	5.012200E+01	  0.054268539	-9.020000E-01
173	  0.054468941	-4.151500E+01	  0.054468941	-7.561600E+01	  0.054468941	5.020200E+01	  0.054468941	-8.160000E-01
174	  0.054669339	-4.194400E+01	  0.054669339	-8.342000E+01	  0.054669339	5.008500E+01	  0.054669339	-7.950000E-01
175	  0.054869737	-4.119700E+01	  0.054869737	-7.356000E+01	  0.054869737	5.024000E+01	  0.054869737	-8.390000E-01
176	  0.055070139	-4.091800E+01	  0.055070139	-7.813700E+01	  0.055070139	5.017700E+01	  0.055070139	-8.830000E-01
177	  0.055270538	-4.076300E+01	  0.055270538	-8.455300E+01	  0.055270538	5.007800E+01	  0.055270538	-9.130000E-01
178	  0.055470940	-4.076400E+01	  0.055470940	-8.268000E+01	  0.055470940	5.010800E+01	  0.055470940	-9.100000E-01
179	  0.055671342	-4.081800E+01	  0.055671342	-8.047100E+01	  0.055671342	5.014200E+01	  0.055671342	-9.000000E-01
180	  0.055871744	-4.331600E+01	  0.055871744	-8.018600E+01	  0.055871744	5.011100E+01	  0.055871744	-6.740000E-01
181	  0.056072142	-4.202000E+01	  0.056072142	-8.789400E+01	  0.056072142	5.002200E+01	  0.056072142	-7.920000E-01
182	  0.056272544	-4.219300E+01	  0.056272544	-8.515600E+01	  0.056272544	5.005900E+01	  0.056272544	-7.750000E-01
183	  0.056472946	-4.243400E+01	  0.056472946	-8.176800E+01	  0.056472946	5.010200E+01	  0.056472946	-7.490000E-01
184	  0.056673344	-4.258800E+01	  0.056673344	-8.273300E+01	  0.056673344	5.008800E+01	  0.056673344	-7.370000E-01
185	  0.056873746	-4.124500E+01	  0.056873746	-8.412000E+01	  0.056873746	5.008100E+01	  0.056873746	-8.630000E-01
186	  0.057074148	-4.342800E+01	  0.057074148	-8.235600E+01	  0.057074148	5.008500E+01	  0.057074148	-6.690000E-01
187	  0.057274550	-4.245300E+01	  0.057274550	-7.680400E+01	  0.057274550	5.016600E+01	  0.057274550	-7.360000E-01
188	  0.057474948	-4.283600E+01	  0.057474948	-9.107300E+01	  0.057474948	4.998100E+01	  0.057474948	-7.210000E-01
189	  0.057675350	-4.361700E+01	  0.057675350	-8.619300E+01	  0.057675350	5.003900E+01	  0.057675350	-6.580000E-01
190	  0.057875752	-4.261700E+01	  0.057875752	-8.537400E+01	  0.057875752	5.005400E+01	  0.057875752	-7.380000E-01
191	  0.058076151	-4.326100E+01	  0.058076151	-8.142300E+01	  0.058076151	5.009700E+01	  0.058076151	-6.800000E-01
192	  0.058276553	-4.268500E+01	  0.058276553	-9.006700E+01	  0.058276553	4.999300E+01	  0.058276553	-7.330000E-01
193	  0.058476955	-4.339800E+01	  0.058476955	-8.467100E+01	  0.058476955	5.005800E+01	  0.058476955	-6.740000E-01
194	  0.058677353	-4.288100E+01	  0.058677353	-8.485200E+01	  0.058677353	5.005900E+01	  0.058677353	-7.150000E-01
195	  0.058877755	-4.308100E+01	  0.058877755	-8.344200E+01	  0.058877755	5.007500E+01	  0.058877755	-6.970000E-01
196	  0.059078157	-4.421400E+01	  0.059078157	-7.708200E+01	  0.059078157	5.013400E+01	  0.059078157	-6.010000E-01
197	  0.059278559	-4.293800E+01	  0.059278559	-8.453400E+01	  0.059278559	5.006200E+01	  0.059278559	-7.100000E-01
198	  0.059478957	-4.437900E+01	  0.059478957	-8.571000E+01	  0.059478957	5.004100E+01	  0.059478957	-6.020000E-01
199	  0.059679359	-4.430600E+01	  0.059679359	-9.209700E+01	  0.059679359	4.997400E+01	  0.059679359	-6.080000E-01
200	  0.059879761	-4.367200E+01	  0.059879761	-8.849100E+01	  0.059879761	5.001200E+01	  0.059879761	-6.550000E-01
201	  0.060080159	-4.454700E+01	  0.060080159	-9.001600E+01	  0.060080159	4.999600E+01	  0.060080159	-5.920000E-01
202	  0.060280561	-4.387800E+01	  0.060280561	-8.581300E+01	  0.060280561	5.004200E+01	  0.060280561	-6.380000E-01
203	  0.060480963	-4.492000E+01	  0.060480963	-9.761300E+01	  0.060480963	4.992100E+01	  0.060480963	-5.610000E-01
204	  0.060681365	-4.488700E+01	  0.060681365	-8.003400E+01	  0.060681365	5.009500E+01	  0.060681365	-5.620000E-01
205	  0.060881764	-4.545100E+01	  0.060881764	-9.535300E+01	  0.060881764	4.994700E+01	  0.060881764	-5.300000E-01
206	  0.061082166	-4.436200E+01	  0.061082166	-8.962100E+01	  0.061082166	5.000000E+01	  0.061082166	-6.050000E-01
207	  0.061282568	-4.550900E+01	  0.061282568	-8.019900E+01	  0.061282568	5.008700E+01	  0.061282568	-5.230000E-01
208	  0.061482966	-4.702000E+01	  0.061482966	-9.611600E+01	  0.061482966	4.995000E+01	  0.061482966	-4.420000E-01
209	  0.061683368	-4.528000E+01	  0.061683368	-9.078800E+01	  0.061683368	4.998900E+01	  0.061683368	-5.440000E-01
210	  0.061883770	-4.474500E+01	  0.061883770	-9.723300E+01	  0.061883770	4.992300E+01	  0.061883770	-5.730000E-01
211	  0.062084168	-4.479800E+01	  0.062084168	-8.465700E+01	  0.062084168	5.005000E+01	  0.062084168	-5.730000E-01
212	  0.062284570	-4.518400E+01	  0.062284570	-9.549100E+01	  0.062284570	4.994400E+01	  0.062284570	-5.470000E-01
213	  0.062484972	-4.661100E+01	  0.062484972	-8.780200E+01	  0.062484972	5.001500E+01	  0.062484972	-4.660000E-01
214	  0.062685370	-4.585400E+01	  0.062685370	-1.200440E+02	  0.062685370	4.974300E+01	  0.062685370	-4.380000E-01
215	  0.062885776	-4.635800E+01	  0.062885776	-9.058100E+01	  0.062885776	4.999200E+01	  0.062885776	-4.800000E-01
216	  0.063086174	-4.653200E+01	  0.063086174	-1.092720E+02	  0.063086174	4.984200E+01	  0.063086174	-4.430000E-01
217	  0.063286573	-4.532900E+01	  0.063286573	-8.193800E+01	  0.063286573	5.007300E+01	  0.063286573	-5.360000E-01
218	  0.063486971	-4.776300E+01	  0.063486971	-7.751200E+01	  0.063486971	5.008600E+01	  0.063486971	-4.000000E-01
219	  0.063687377	-4.461400E+01	  0.063687377	-9.727400E+01	  0.063687377	4.992200E+01	  0.063687377	-5.820000E-01
220	  0.063887775	-4.674000E+01	  0.063887775	-9.128000E+01	  0.063887775	4.998700E+01	  0.063887775	-4.590000E-01
221	  0.064088173	-4.610400E+01	  0.064088173	-1.001780E+02	  0.064088173	4.991000E+01	  0.064088173	-4.860000E-01
222	  0.064288579	-4.489300E+01	  0.064288579	-9.727500E+01	  0.064288579	4.992400E+01	  0.064288579	-5.630000E-01
223	  0.064488977	-4.625100E+01	  0.064488977	-9.142400E+01	  0.064488977	4.998500E+01	  0.064488977	-4.860000E-01
224	  0.064689375	-4.696500E+01	  0.064689375	-9.171700E+01	  0.064689375	4.998400E+01	  0.064689375	-4.480000E-01
225	  0.064889781	-4.492700E+01	  0.064889781	-8.617200E+01	  0.064889781	5.003400E+01	  0.064889781	-5.660000E-01
226	  0.065090179	-4.572300E+01	  0.065090179	-8.457400E+01	  0.065090179	5.004600E+01	  0.065090179	-5.150000E-01
227	  0.065290578	-4.658700E+01	  0.065290578	-1.077560E+02	  0.065290578	4.985500E+01	  0.065290578	-4.440000E-01
228	  0.065490983	-4.813300E+01	  0.065490983	-8.169300E+01	  0.065490983	5.005500E+01	  0.065490983	-3.880000E-01
229	  0.065691382	-4.846200E+01	  0.065691382	-1.038460E+02	  0.065691382	4.990800E+01	  0.065691382	-3.650000E-01
230	  0.065891780	-4.865500E+01	  0.065891780	-1.028340E+02	  0.065891780	4.991600E+01	  0.065891780	-3.590000E-01
231	  0.066092186	-4.695600E+01	  0.066092186	-1.222110E+02	  0.066092186	4.975900E+01	  0.066092186	-3.780000E-01
232	  0.066292584	-4.964600E+01	  0.066292584	-7.649900E+01	  0.066292584	5.007500E+01	  0.066292584	-3.200000E-01
233	  0.066492982	-4.813700E+01	  0.066492982	-1.111340E+02	  0.066492982	4.985700E+01	  0.066492982	-3.640000E-01
234	  0.066693388	-4.835900E+01	  0.066693388	-1.093520E+02	  0.066693388	4.987200E+01	  0.066693388	-3.590000E-01
235	  0.066893786	-4.771100E+01	  0.066893786	-1.090430E+02	  0.066893786	4.986400E+01	  0.066893786	-3.870000E-01
236	  0.067094192	-4.881000E+01	  0.067094192	-8.613500E+01	  0.067094192	5.002300E+01	  0.067094192	-3.610000E-01
237	  0.067294590	-4.578700E+01	  0.067294590	-1.151010E+02	  0.067294590	4.978000E+01	  0.067294590	-4.630000E-01
238	  0.067494988	-5.161000E+01	  0.067494988	-1.017280E+02	  0.067494988	4.994500E+01	  0.067494988	-2.560000E-01
239	  0.067695394	-4.716100E+01	  0.067695394	-1.433740E+02	  0.067695394	4.964800E+01	  0.067695394	-2.590000E-01
240	  0.067895792	-4.865200E+01	  0.067895792	-1.108610E+02	  0.067895792	4.986700E+01	  0.067895792	-3.440000E-01
241	  0.068096191	-5.717200E+01	  0.068096191	-1.013290E+02	  0.068096191	4.997200E+01	  0.068096191	-1.350000E-01
242	  0.068296596	-4.996400E+01	  0.068296596	-1.340800E+02	  0.068296596	4.977900E+01	  0.068296596	-2.270000E-01
243	  0.068496995	-5.249000E+01	  0.068496995	-1.036120E+02	  0.068496995	4.994300E+01	  0.068496995	-2.300000E-01
244	  0.068697393	-5.184000E+01	  0.068697393	-1.179340E+02	  0.068697393	4.987900E+01	  0.068697393	-2.250000E-01
245	  0.068897791	-5.001500E+01	  0.068897791	-9.735600E+01	  0.068897791	4.995800E+01	  0.068897791	-3.120000E-01
246	  0.069098189	-4.939200E+01	  0.069098189	-1.160690E+02	  0.069098189	4.985000E+01	  0.069098189	-3.030000E-01
247	  0.069298595	-4.853500E+01	  0.069298595	-1.292580E+02	  0.069298595	4.976200E+01	  0.069298595	-2.880000E-01
248	  0.069498993	-5.133500E+01	  0.069498993	-1.136480E+02	  0.069498993	4.989000E+01	  0.069498993	-2.470000E-01
249	  0.069699399	-4.721400E+01	  0.069699399	-1.155730E+02	  0.069699399	4.981000E+01	  0.069699399	-3.910000E-01
250	  0.069899797	-4.864600E+01	  0.069899797	-1.237610E+02	  0.069899797	4.979400E+01	  0.069899797	-3.050000E-01
251	  0.070100196	-4.960300E+01	  0.070100196	-1.024980E+02	  0.070100196	4.992700E+01	  0.070100196	-3.220000E-01
252	  0.070300601	-5.065400E+01	  0.070300601	-1.073430E+02	  0.070300601	4.991100E+01	  0.070300601	-2.790000E-01
253	  0.070501000	-4.929400E+01	  0.070501000	-1.144930E+02	  0.070501000	4.985700E+01	  0.070501000	-3.110000E-01
254	  0.070701398	-5.590700E+01	  0.070701398	-9.215300E+01	  0.070701398	4.999300E+01	  0.070701398	-1.600000E-01
255	  0.070901804	-5.085100E+01	  0.070901804	-1.420530E+02	  0.070901804	4.977400E+01	  0.070901804	-1.750000E-01
256	  0.071102202	-5.161400E+01	  0.071102202	-1.615630E+02	  0.071102202	4.975100E+01	  0.071102202	-8.200000E-02
257	  0.071302600	-5.665000E+01	  0.071302600	-1.029620E+02	  0.071302600	4.996600E+01	  0.071302600	-1.430000E-01
258	  0.071503006	-5.038100E+01	  0.071503006	-1.267540E+02	  0.071503006	4.981800E+01	  0.071503006	-2.410000E-01
259	  0.071703404	-5.119100E+01	  0.071703404	-1.108320E+02	  0.071703404	4.990100E+01	  0.071703404	-2.570000E-01
260	  0.071903802	-5.071300E+01	  0.071903802	-1.514320E+02	  0.071903802	4.974400E+01	  0.071903802	-1.380000E-01
261	  0.072104208	-5.034400E+01	  0.072104208	-1.248600E+02	  0.072104208	4.982500E+01	  0.072104208	-2.480000E-01
262	  0.072304606	-5.730000E+01	  0.072304606	-1.233650E+02	  0.072304606	4.992400E+01	  0.072304606	-1.130000E-01
263	  0.072505005	-5.276200E+01	  0.072505005	-1.247710E+02	  0.072505005	4.986800E+01	  0.072505005	-1.880000E-01
264	  0.072705410	-5.838300E+01	  0.072705410	-1.360940E+02	  0.072705410	4.991300E+01	  0.072705410	-8.300000E-02
265	  0.072905809	-5.436500E+01	  0.072905809	1.789270E+02	  0.072905809	4.980900E+01	  0.072905809	3.000000E-03
266	  0.073106214	-5.565100E+01	  0.073106214	-1.338850E+02	  0.073106214	4.988500E+01	  0.073106214	-1.180000E-01
267	  0.073306613	-5.454300E+01	  0.073306613	1.425630E+02	  0.073306613	4.985100E+01	  0.073306613	1.130000E-01
268	  0.073507011	-6.008900E+01	  0.073507011	-1.417230E+02	  0.073507011	4.992200E+01	  0.073507011	-6.100000E-02
269	  0.073707417	-5.537800E+01	  0.073707417	-8.625200E+01	  0.073707417	5.001000E+01	  0.073707417	-1.690000E-01
270	  0.073907815	-4.897300E+01	  0.073907815	-1.422110E+02	  0.073907815	4.971900E+01	  0.073907815	-2.160000E-01
271	  0.074108213	-5.100500E+01	  0.074108213	-1.468420E+02	  0.074108213	4.976400E+01	  0.074108213	-1.530000E-01
272	  0.074308619	-6.109200E+01	  0.074308619	-1.295030E+02	  0.074308619	4.994300E+01	  0.074308619	-6.700000E-02
273	  0.074509017	-4.930100E+01	  0.074509017	1.566050E+02	  0.074509017	4.968600E+01	  0.074509017	1.350000E-01
274	  0.074709415	-5.256500E+01	  0.074709415	-1.537610E+02	  0.074709415	4.978900E+01	  0.074709415	-1.030000E-01
275	  0.074909821	-5.447800E+01	  0.074909821	-1.573680E+02	  0.074909821	4.982500E+01	  0.074909821	-7.200000E-02
276	  0.075110219	-5.264100E+01	  0.075110219	-1.683080E+02	  0.075110219	4.977200E+01	  0.075110219	-4.700000E-02
277	  0.075310618	-5.816500E+01	  0.075310618	-1.794870E+02	  0.075310618	4.987600E+01	  0.075310618	-1.000000E-03
278	  0.075511023	-5.588900E+01	  0.075511023	-1.297090E+02	  0.075511023	4.989700E+01	  0.075511023	-1.230000E-01
279	  0.075711422	-6.049700E+01	  0.075711422	1.547430E+02	  0.075711422	4.991400E+01	  0.075711422	4.000000E-02
280	  0.075911827	-5.997500E+01	  0.075911827	1.572240E+02	  0.075911827	4.990700E+01	  0.075911827	3.800000E-02
281	  0.076112226	-5.876900E+01	  0.076112226	1.704190E+02	  0.076112226	4.988600E+01	  0.076112226	1.900000E-02
282	  0.076312624	-5.948700E+01	  0.076312624	1.624480E+02	  0.076312624	4.989800E+01	  0.076312624	3.100000E-02
283	  0.076513030	-5.190200E+01	  0.076513030	1.515000E+02	  0.076513030	4.977700E+01	  0.076513030	1.200000E-01
284	  0.076713428	-5.187500E+01	  0.076713428	1.500500E+02	  0.076713428	4.977900E+01	  0.076713428	1.260000E-01
285	  0.076913826	-5.182200E+01	  0.076913826	1.080910E+02	  0.076913826	4.991900E+01	  0.076913826	2.430000E-01
286	  0.077114232	-5.175500E+01	  0.077114232	1.623610E+02	  0.077114232	4.975400E+01	  0.077114232	7.700000E-02
287	  0.077314630	-5.106900E+01	  0.077314630	1.034670E+02	  0.077314630	4.993400E+01	  0.077314630	2.710000E-01
288	  0.077515028	-5.248200E+01	  0.077515028	1.115740E+02	  0.077515028	4.991200E+01	  0.077515028	2.200000E-01
289	  0.077715434	-5.016500E+01	  0.077715434	1.672310E+02	  0.077715434	4.969800E+01	  0.077715434	6.800000E-02
290	  0.077915832	-5.726700E+01	  0.077915832	1.426380E+02	  0.077915832	4.989100E+01	  0.077915832	8.200000E-02
291	  0.078116231	-5.231900E+01	  0.078116231	1.213370E+02	  0.078116231	4.987300E+01	  0.078116231	2.060000E-01
292	  0.078316636	-5.291600E+01	  0.078316636	1.347370E+02	  0.078316636	4.984000E+01	  0.078316636	1.600000E-01
293	  0.078517035	-5.016800E+01	  0.078517035	1.341460E+02	  0.078517035	4.978300E+01	  0.078517035	2.210000E-01
294	  0.078717433	-4.731300E+01	  0.078717433	1.490740E+02	  0.078717433	4.963100E+01	  0.078717433	2.190000E-01
295	  0.078917839	-5.835100E+01	  0.078917839	1.363490E+02	  0.078917839	4.991200E+01	  0.078917839	8.300000E-02
296	  0.079118237	-5.621900E+01	  0.079118237	1.640590E+02	  0.079118237	4.985100E+01	  0.079118237	4.200000E-02
297	  0.079318643	-5.391300E+01	  0.079318643	1.697680E+02	  0.079318643	4.980200E+01	  0.079318643	3.500000E-02
298	  0.079519041	-4.994800E+01	  0.079519041	1.275550E+02	  0.079519041	4.980500E+01	  0.079519041	2.510000E-01
299	  0.079719439	-5.356600E+01	  0.079719439	1.557080E+02	  0.079719439	4.980900E+01	  0.079719439	8.500000E-02
300	  0.079919845	-5.013300E+01	  0.079919845	1.470770E+02	  0.079919845	4.973900E+01	  0.079919845	1.680000E-01
301	  0.080120243	-5.180300E+01	  0.080120243	1.165970E+02	  0.080120243	4.988400E+01	  0.080120243	2.290000E-01
302	  0.080320641	-4.956700E+01	  0.080320641	1.198060E+02	  0.080320641	4.983400E+01	  0.080320641	2.870000E-01
303	  0.080521047	-4.709700E+01	  0.080521047	1.261440E+02	  0.080521047	4.973800E+01	  0.080521047	3.540000E-01
304	  0.080721445	-5.026400E+01	  0.080721445	1.208240E+02	  0.080721445	4.984200E+01	  0.080721445	2.620000E-01
305	  0.080921844	-4.944500E+01	  0.080921844	1.179460E+02	  0.080921844	4.984100E+01	  0.080921844	2.960000E-01
306	  0.081122249	-5.358900E+01	  0.081122249	1.466800E+02	  0.081122249	4.982500E+01	  0.081122249	1.140000E-01
307	  0.081322648	-5.360300E+01	  0.081322648	1.086410E+02	  0.081322648	4.993200E+01	  0.081322648	1.970000E-01
308	  0.081523046	-4.685200E+01	  0.081523046	1.039230E+02	  0.081523046	4.988800E+01	  0.081523046	4.390000E-01
309	  0.081723452	-4.913900E+01	  0.081723452	1.341530E+02	  0.081723452	4.975600E+01	  0.081723452	2.490000E-01
310	  0.081923850	-4.849600E+01	  0.081923850	1.179290E+02	  0.081923850	4.982300E+01	  0.081923850	3.310000E-01
311	  0.082124248	-4.900900E+01	  0.082124248	9.892200E+01	  0.082124248	4.994300E+01	  0.082124248	3.490000E-01
312	  0.082324654	-4.778100E+01	  0.082324654	1.096580E+02	  0.082324654	4.986100E+01	  0.082324654	3.830000E-01
313	  0.082525052	-5.025600E+01	  0.082525052	1.248910E+02	  0.082525052	4.982400E+01	  0.082525052	2.500000E-01
314	  0.082725458	-4.903800E+01	  0.082725458	1.242870E+02	  0.082725458	4.980000E+01	  0.082725458	2.900000E-01
315	  0.082925856	-4.611600E+01	  0.082925856	1.117650E+02	  0.082925856	4.981400E+01	  0.082925856	4.570000E-01
316	  0.083126254	-4.553900E+01	  0.083126254	1.200030E+02	  0.083126254	4.973400E+01	  0.083126254	4.550000E-01
317	  0.083326660	-4.808900E+01	  0.083326660	1.153330E+02	  0.083326660	4.983000E+01	  0.083326660	3.540000E-01
318	  0.083527058	-4.615700E+01	  0.083527058	1.118610E+02	  0.083527058	4.981400E+01	  0.083527058	4.550000E-01
319	  0.083727457	-4.614400E+01	  0.083727457	1.148560E+02	  0.083727457	4.979100E+01	  0.083727457	4.450000E-01
320	  0.083927862	-4.656100E+01	  0.083927862	1.013750E+02	  0.083927862	4.990500E+01	  0.083927862	4.590000E-01
321	  0.084128261	-4.826200E+01	  0.084128261	1.129560E+02	  0.084128261	4.984800E+01	  0.084128261	3.540000E-01
322	  0.084328659	-4.639700E+01	  0.084328659	1.123300E+02	  0.084328659	4.981600E+01	  0.084328659	4.410000E-01
323	  0.084529065	-4.856300E+01	  0.084529065	1.085570E+02	  0.084529065	4.988000E+01	  0.084529065	3.520000E-01
324	  0.084729463	-4.429600E+01	  0.084729463	1.107540E+02	  0.084729463	4.978100E+01	  0.084729463	5.670000E-01
325	  0.084929861	-4.582200E+01	  0.084929861	9.647700E+01	  0.084929861	4.993900E+01	  0.084929861	5.070000E-01
326	  0.085130267	-4.508500E+01	  0.085130267	1.115650E+02	  0.085130267	4.979300E+01	  0.085130267	5.150000E-01
327	  0.085330658	-5.164000E+01	  0.085330658	1.150490E+02	  0.085330658	4.988800E+01	  0.085330658	2.360000E-01
328	  0.085531056	-4.591900E+01	  0.085531056	1.096770E+02	  0.085531056	4.982700E+01	  0.085531056	4.740000E-01
329	  0.085731462	-4.580800E+01	  0.085731462	1.091440E+02	  0.085731462	4.982900E+01	  0.085731462	4.820000E-01
330	  0.085931860	-4.718700E+01	  0.085931860	1.143030E+02	  0.085931860	4.981800E+01	  0.085931860	3.960000E-01
331	  0.086132258	-4.442400E+01	  0.086132258	1.050870E+02	  0.086132258	4.984000E+01	  0.086132258	5.780000E-01
332	  0.086332664	-4.563500E+01	  0.086332664	1.101990E+02	  0.086332664	4.981700E+01	  0.086332664	4.880000E-01
333	  0.086533062	-4.541400E+01	  0.086533062	9.629000E+01	  0.086533062	4.993800E+01	  0.086533062	5.320000E-01
334	  0.086733460	-4.608300E+01	  0.086733460	9.529800E+01	  0.086733460	4.995100E+01	  0.086733460	4.930000E-01
335	  0.086933866	-4.471600E+01	  0.086933866	1.008890E+02	  0.086933866	4.988700E+01	  0.086933866	5.690000E-01
336	  0.087134264	-4.636800E+01	  0.087134264	1.015970E+02	  0.087134264	4.990100E+01	  0.087134264	4.690000E-01
337	  0.087334670	-4.466600E+01	  0.087334670	1.084890E+02	  0.087334670	4.981100E+01	  0.087334670	5.520000E-01
338	  0.087535068	-4.722300E+01	  0.087535068	1.172100E+02	  0.087535068	4.979900E+01	  0.087535068	3.850000E-01
339	  0.087735467	-4.584400E+01	  0.087735467	1.066090E+02	  0.087735467	4.985100E+01	  0.087735467	4.870000E-01
340	  0.087935872	-4.365000E+01	  0.087935872	1.133420E+02	  0.087935872	4.973600E+01	  0.087935872	5.990000E-01
341	  0.088136271	-4.399000E+01	  0.088136271	9.877500E+01	  0.088136271	4.989900E+01	  0.088136271	6.230000E-01
342	  0.088336669	-4.421200E+01	  0.088336669	1.090250E+02	  0.088336669	4.979600E+01	  0.088336669	5.790000E-01
343	  0.088537075	-4.394800E+01	  0.088537075	9.053800E+01	  0.088537075	4.999000E+01	  0.088537075	6.340000E-01
344	  0.088737473	-4.230400E+01	  0.088737473	1.087120E+02	  0.088737473	4.974900E+01	  0.088737473	7.220000E-01
345	  0.088937871	-4.350400E+01	  0.088937871	1.033840E+02	  0.088937871	4.984100E+01	  0.088937871	6.470000E-01
346	  0.089138277	-4.538200E+01	  0.089138277	9.591000E+01	  0.089138277	4.994100E+01	  0.089138277	5.340000E-01
347	  0.089338675	-4.337600E+01	  0.089338675	9.872800E+01	  0.089338675	4.989200E+01	  0.089338675	6.680000E-01
348	  0.089539073	-4.398400E+01	  0.089539073	1.002240E+02	  0.089539073	4.988400E+01	  0.089539073	6.200000E-01
349	  0.089739479	-4.316900E+01	  0.089739479	1.030730E+02	  0.089739479	4.983800E+01	  0.089739479	6.740000E-01
350	  0.089939877	-4.464700E+01	  0.089939877	9.835500E+01	  0.089939877	4.991100E+01	  0.089939877	5.780000E-01
351	  0.090140276	-4.336300E+01	  0.090140276	9.521800E+01	  0.090140276	4.993300E+01	  0.090140276	6.750000E-01
352	  0.090340681	-4.351200E+01	  0.090340681	9.976100E+01	  0.090340681	4.988200E+01	  0.090340681	6.560000E-01
353	  0.090541080	-4.264200E+01	  0.090541080	9.971400E+01	  0.090541080	4.987000E+01	  0.090541080	7.250000E-01
354	  0.090741485	-4.152000E+01	  0.090741485	9.962900E+01	  0.090741485	4.985200E+01	  0.090741485	8.250000E-01
355	  0.090941884	-4.218200E+01	  0.090941884	9.764300E+01	  0.090941884	4.989000E+01	  0.090941884	7.690000E-01
356	  0.091142282	-4.220200E+01	  0.091142282	9.753100E+01	  0.091142282	4.989200E+01	  0.091142282	7.670000E-01
357	  0.091342688	-4.263700E+01	  0.091342688	9.561200E+01	  0.091342688	4.992200E+01	  0.091342688	7.330000E-01
358	  0.091543086	-4.201100E+01	  0.091543086	9.043100E+01	  0.091543086	4.998700E+01	  0.091543086	7.930000E-01
359	  0.091743484	-4.268200E+01	  0.091743484	9.828500E+01	  0.091743484	4.988900E+01	  0.091743484	7.250000E-01
360	  0.091943890	-4.206300E+01	  0.091943890	9.923100E+01	  0.091943890	4.986700E+01	  0.091943890	7.760000E-01
361	  0.092144288	-4.157000E+01	  0.092144288	9.295600E+01	  0.092144288	4.995000E+01	  0.092144288	8.320000E-01
362	  0.092344686	-4.324800E+01	  0.092344686	8.845600E+01	  0.092344686	5.001300E+01	  0.092344686	6.870000E-01
363	  0.092545092	-4.015800E+01	  0.092545092	9.608300E+01	  0.092545092	4.988600E+01	  0.092545092	9.740000E-01
364	  0.092745490	-4.180900E+01	  0.092745490	9.084900E+01	  0.092745490	4.998100E+01	  0.092745490	8.110000E-01
365	  0.092945889	-4.336600E+01	  0.092945889	9.225500E+01	  0.092945889	4.996800E+01	  0.092945889	6.770000E-01
366	  0.093146294	-4.133900E+01	  0.093146294	9.069300E+01	  0.093146294	4.998200E+01	  0.093146294	8.560000E-01
367	  0.093346693	-4.179700E+01	  0.093346693	9.099700E+01	  0.093346693	4.997900E+01	  0.093346693	8.120000E-01
368	  0.093547091	-4.106100E+01	  0.093547091	8.943000E+01	  0.093547091	5.000000E+01	  0.093547091	8.850000E-01
369	  0.093747497	-4.171400E+01	  0.093747497	9.552600E+01	  0.093747497	4.991400E+01	  0.093747497	8.150000E-01
370	  0.093947895	-4.196100E+01	  0.093947895	9.288500E+01	  0.093947895	4.995300E+01	  0.093947895	7.960000E-01
371	  0.094148301	-4.256900E+01	  0.094148301	8.807700E+01	  0.094148301	5.001900E+01	  0.094148301	7.430000E-01
372	  0.094348699	-4.172000E+01	  0.094348699	9.642900E+01	  0.094348699	4.990100E+01	  0.094348699	8.130000E-01
373	  0.094549097	-4.069500E+01	  0.094549097	9.400100E+01	  0.094549097	4.992700E+01	  0.094549097	9.190000E-01
374	  0.094749503	-4.032600E+01	  0.094749503	9.289100E+01	  0.094749503	4.994200E+01	  0.094749503	9.600000E-01
375	  0.094949901	-4.111400E+01	  0.094949901	9.039600E+01	  0.094949901	4.998600E+01	  0.094949901	8.790000E-01
376	  0.095150299	-4.054800E+01	  0.095150299	9.615100E+01	  0.095150299	4.989000E+01	  0.095150299	9.310000E-01
377	  0.095350705	-4.148900E+01	  0.095350705	9.713200E+01	  0.095350705	4.988800E+01	  0.095350705	8.340000E-01
378	  0.095551103	-4.107300E+01	  0.095551103	9.010900E+01	  0.095551103	4.999000E+01	  0.095551103	8.830000E-01
379	  0.095751502	-4.027700E+01	  0.095751502	9.588700E+01	  0.095751502	4.989100E+01	  0.095751502	9.610000E-01
380	  0.095951907	-4.052100E+01	  0.095951907	9.013900E+01	  0.095951907	4.998800E+01	  0.095951907	9.410000E-01
381	  0.096152306	-4.064500E+01	  0.096152306	8.142400E+01	  0.096152306	5.013000E+01	  0.096152306	9.200000E-01
382	  0.096352704	-3.983800E+01	  0.096352704	8.556600E+01	  0.096352704	5.006800E+01	  0.096352704	1.017000E+00
383	  0.096553110	-4.058100E+01	  0.096553110	9.651500E+01	  0.096553110	4.988500E+01	  0.096553110	9.270000E-01
384	  0.096753508	-3.963300E+01	  0.096753508	8.977600E+01	  0.096753508	4.999300E+01	  0.096753508	1.043000E+00
385	  0.096953906	-3.942300E+01	  0.096953906	9.013600E+01	  0.096953906	4.998600E+01	  0.096953906	1.068000E+00
386	  0.097154312	-4.003400E+01	  0.097154312	8.521300E+01	  0.097154312	5.007300E+01	  0.097154312	9.940000E-01
387	  0.097354710	-4.006700E+01	  0.097354710	8.145700E+01	  0.097354710	5.013700E+01	  0.097354710	9.840000E-01
388	  0.097555116	-3.950300E+01	  0.097555116	9.254300E+01	  0.097555116	4.994100E+01	  0.097555116	1.056000E+00
389	  0.097755514	-4.018500E+01	  0.097755514	8.606800E+01	  0.097755514	5.005700E+01	  0.097755514	9.770000E-01
390	  0.097955912	-3.930500E+01	  0.097955912	8.846400E+01	  0.097955912	5.001700E+01	  0.097955912	1.083000E+00
391	  0.098156318	-3.879600E+01	  0.098156318	8.588200E+01	  0.098156318	5.006900E+01	  0.098156318	1.147000E+00
392	  0.098356716	-4.005000E+01	  0.098356716	8.256600E+01	  0.098356716	5.011900E+01	  0.098356716	9.880000E-01
393	  0.098557115	-3.890400E+01	  0.098557115	8.873300E+01	  0.098557115	5.001200E+01	  0.098557115	1.134000E+00
394	  0.098757520	-3.921300E+01	  0.098757520	8.993700E+01	  0.098757520	4.998900E+01	  0.098757520	1.094000E+00
395	  0.098957919	-3.935100E+01	  0.098957919	8.116600E+01	  0.098957919	5.015400E+01	  0.098957919	1.068000E+00
396	  0.099158317	-4.007000E+01	  0.099158317	8.309300E+01	  0.099158317	5.010900E+01	  0.099158317	9.870000E-01
397	  0.099358723	-3.984000E+01	  0.099358723	8.500600E+01	  0.099358723	5.007800E+01	  0.099358723	1.016000E+00
398	  0.099559121	-3.939400E+01	  0.099559121	8.754000E+01	  0.099559121	5.003400E+01	  0.099559121	1.072000E+00
399	  0.099759519	-3.955100E+01	  0.099759519	8.150200E+01	  0.099759519	5.014400E+01	  0.099759519	1.044000E+00
400	  0.099959925	-3.956700E+01	  0.099959925	8.285300E+01	  0.099959925	5.012000E+01	  0.099959925	1.045000E+00
401	  0.100160323	-3.847100E+01	  0.100160323	8.517700E+01	  0.100160323	5.008600E+01	  0.100160323	1.190000E+00
402	  0.100360721	-3.815000E+01	  0.100360721	8.249200E+01	  0.100360721	5.014600E+01	  0.100360721	1.230000E+00
403	  0.100561127	-3.854400E+01	  0.100561127	7.587400E+01	  0.100561127	5.027600E+01	  0.100561127	1.153000E+00
404	  0.100761525	-3.856600E+01	  0.100761525	9.091500E+01	  0.100761525	4.996700E+01	  0.100761525	1.178000E+00
405	  0.100961931	-3.976000E+01	  0.100961931	7.272600E+01	  0.100961931	5.029600E+01	  0.100961931	9.870000E-01
406	  0.101162329	-3.836100E+01	  0.101162329	8.891400E+01	  0.101162329	5.000800E+01	  0.101162329	1.207000E+00
407	  0.101362728	-3.919500E+01	  0.101362728	7.040200E+01	  0.101362728	5.035800E+01	  0.101362728	1.040000E+00
408	  0.101563133	-3.900200E+01	  0.101563133	7.855400E+01	  0.101563133	5.021000E+01	  0.101563133	1.104000E+00
409	  0.101763532	-3.825400E+01	  0.101763532	8.221100E+01	  0.101763532	5.015100E+01	  0.101763532	1.215000E+00
410	  0.101963930	-3.852100E+01	  0.101963930	8.229800E+01	  0.101963930	5.014500E+01	  0.101963930	1.178000E+00
411	  0.102164336	-3.829000E+01	  0.102164336	9.142600E+01	  0.102164336	4.995400E+01	  0.102164336	1.216000E+00
412	  0.102364734	-3.749800E+01	  0.102364734	7.449800E+01	  0.102364734	5.034100E+01	  0.102364734	1.294000E+00
413	  0.102565132	-3.812300E+01	  0.102565132	7.930400E+01	  0.102565132	5.021500E+01	  0.102565132	1.224000E+00
414	  0.102765530	-3.719800E+01	  0.102765530	7.500800E+01	  0.102765530	5.034000E+01	  0.102765530	1.342000E+00
415	  0.102965929	-3.792600E+01	  0.102965929	8.745400E+01	  0.102965929	5.004000E+01	  0.102965929	1.269000E+00
416	  0.103166327	-3.827500E+01	  0.103166327	8.055600E+01	  0.103166327	5.018500E+01	  0.103166327	1.207000E+00
417	  0.103366733	-3.766900E+01	  0.103366733	7.673300E+01	  0.103366733	5.028400E+01	  0.103366733	1.280000E+00
418	  0.103567131	-3.716500E+01	  0.103567131	7.706900E+01	  0.103567131	5.029200E+01	  0.103567131	1.358000E+00
419	  0.103767529	-3.894800E+01	  0.103767529	7.959800E+01	  0.103767529	5.019100E+01	  0.103767529	1.114000E+00
420	  0.103967935	-3.708600E+01	  0.103967935	7.875600E+01	  0.103967935	5.025400E+01	  0.103967935	1.378000E+00
421	  0.104168333	-3.720100E+01	  0.104168333	7.702400E+01	  0.104168333	5.029200E+01	  0.104168333	1.353000E+00
422	  0.104368731	-3.766800E+01	  0.104368731	7.752300E+01	  0.104368731	5.026600E+01	  0.104368731	1.284000E+00
423	  0.104569137	-3.845300E+01	  0.104569137	7.486000E+01	  0.104569137	5.029900E+01	  0.104569137	1.160000E+00
424	  0.104769535	-3.769100E+01	  0.104769535	7.699500E+01	  0.104769535	5.027800E+01	  0.104769535	1.278000E+00
425	  0.104969934	-3.782100E+01	  0.104969934	8.654000E+01	  0.104969934	5.006100E+01	  0.104969934	1.284000E+00
426	  0.105170339	-3.774200E+01	  0.105170339	7.192600E+01	  0.105170339	5.038800E+01	  0.105170339	1.242000E+00
427	  0.105370738	-3.636100E+01	  0.105370738	7.496200E+01	  0.105370738	5.037400E+01	  0.105370738	1.479000E+00
428	  0.105571143	-3.729400E+01	  0.105571143	7.692500E+01	  0.105571143	5.029100E+01	  0.105571143	1.338000E+00
429	  0.105771542	-3.616600E+01	  0.105771542	7.456100E+01	  0.105771542	5.039200E+01	  0.105771542	1.510000E+00
430	  0.105971940	-3.666000E+01	  0.105971940	7.218600E+01	  0.105971940	5.043100E+01	  0.105971940	1.410000E+00
431	  0.106172346	-3.741200E+01	  0.106172346	7.197700E+01	  0.106172346	5.040100E+01	  0.106172346	1.291000E+00
432	  0.106372744	-3.593100E+01	  0.106372744	6.640800E+01	  0.106372744	5.062100E+01	  0.106372744	1.482000E+00
433	  0.106573142	-3.742500E+01	  0.106573142	6.861500E+01	  0.106573142	5.047600E+01	  0.106573142	1.264000E+00
434	  0.106773548	-3.764600E+01	  0.106773548	8.458400E+01	  0.106773548	5.010600E+01	  0.106773548	1.308000E+00
435	  0.106973946	-3.738000E+01	  0.106973946	7.982300E+01	  0.106973946	5.022100E+01	  0.106973946	1.336000E+00
436	  0.107174344	-3.761900E+01	  0.107174344	7.627300E+01	  0.107174344	5.029600E+01	  0.107174344	1.285000E+00
437	  0.107374750	-3.579900E+01	  0.107374750	7.120100E+01	  0.107374750	5.050100E+01	  0.107374750	1.551000E+00
438	  0.107575148	-3.625000E+01	  0.107575148	7.652700E+01	  0.107575148	5.033700E+01	  0.107575148	1.507000E+00
439	  0.107775547	-3.615300E+01	  0.107775547	8.210700E+01	  0.107775547	5.019000E+01	  0.107775547	1.548000E+00
440	  0.107975952	-3.759900E+01	  0.107975952	8.379600E+01	  0.107975952	5.012500E+01	  0.107975952	1.314000E+00
441	  0.108176351	-3.625200E+01	  0.108176351	8.040800E+01	  0.108176351	5.023300E+01	  0.108176351	1.525000E+00
442	  0.108376749	-3.812600E+01	  0.108376749	7.535200E+01	  0.108376749	5.030000E+01	  0.108376749	1.207000E+00
443	  0.108577155	-3.631800E+01	  0.108577155	8.462800E+01	  0.108577155	5.012000E+01	  0.108577155	1.525000E+00
444	  0.108777553	-3.633400E+01	  0.108777553	7.556600E+01	  0.108777553	5.035900E+01	  0.108777553	1.487000E+00
445	  0.108977959	-3.637000E+01	  0.108977959	7.593700E+01	  0.108977959	5.034800E+01	  0.108977959	1.483000E+00
446	  0.109178357	-3.618100E+01	  0.109178357	8.004300E+01	  0.109178357	5.024500E+01	  0.109178357	1.536000E+00
447	  0.109378755	-3.599100E+01	  0.109378755	7.047600E+01	  0.109378755	5.051000E+01	  0.109378755	1.510000E+00
448	  0.109579161	-3.586600E+01	  0.109579161	7.426500E+01	  0.109579161	5.041400E+01	  0.109579161	1.562000E+00
449	  0.109779559	-3.559300E+01	  0.109779559	7.539400E+01	  0.109779559	5.039400E+01	  0.109779559	1.620000E+00
450	  0.109979957	-3.590000E+01	  0.109979957	6.864800E+01	  0.109979957	5.056400E+01	  0.109979957	1.510000E+00
451	  0.110180363	-3.525900E+01	  0.110180363	7.287500E+01	  0.110180363	5.048300E+01	  0.110180363	1.665000E+00
452	  0.110380761	-3.521500E+01	  0.110380761	6.824500E+01	  0.110380761	5.062000E+01	  0.110380761	1.631000E+00
453	  0.110581160	-3.620800E+01	  0.110581160	7.609700E+01	  0.110581160	5.035000E+01	  0.110581160	1.512000E+00
454	  0.110781565	-3.635100E+01	  0.110781565	7.629500E+01	  0.110781565	5.033900E+01	  0.110781565	1.489000E+00
455	  0.110981964	-3.576700E+01	  0.110981964	6.391300E+01	  0.110981964	5.069900E+01	  0.110981964	1.482000E+00
456	  0.111182362	-3.648400E+01	  0.111182362	7.073800E+01	  0.111182362	5.047600E+01	  0.111182362	1.428000E+00
457	  0.111382768	-3.546800E+01	  0.111382768	7.176600E+01	  0.111382768	5.050300E+01	  0.111382768	1.616000E+00
458	  0.111583166	-3.586200E+01	  0.111583166	7.238900E+01	  0.111583166	5.046500E+01	  0.111583166	1.549000E+00
459	  0.111783572	-3.516400E+01	  0.111783572	7.337000E+01	  0.111783572	5.047300E+01	  0.111783572	1.688000E+00
460	  0.111983970	-3.589300E+01	  0.111983970	6.508000E+01	  0.111983970	5.065900E+01	  0.111983970	1.474000E+00
461	  0.112184368	-3.639300E+01	  0.112184368	6.196900E+01	  0.112184368	5.069800E+01	  0.112184368	1.355000E+00
462	  0.112384774	-3.604300E+01	  0.112384774	7.218300E+01	  0.112384774	5.046100E+01	  0.112384774	1.515000E+00
463	  0.112585172	-3.536900E+01	  0.112585172	7.122400E+01	  0.112585172	5.052500E+01	  0.112585172	1.630000E+00
464	  0.112785570	-3.560900E+01	  0.112785570	6.373900E+01	  0.112785570	5.071600E+01	  0.112785570	1.508000E+00
465	  0.112985976	-3.597900E+01	  0.112985976	7.197600E+01	  0.112985976	5.047000E+01	  0.112985976	1.525000E+00
466	  0.113186374	-3.543000E+01	  0.113186374	7.118100E+01	  0.113186374	5.052200E+01	  0.113186374	1.619000E+00
467	  0.113386773	-3.516600E+01	  0.113386773	7.212700E+01	  0.113386773	5.051000E+01	  0.113386773	1.677000E+00
468	  0.113587178	-3.541500E+01	  0.113587178	7.100500E+01	  0.113587178	5.052800E+01	  0.113587178	1.620000E+00
469	  0.113787577	-3.558800E+01	  0.113787577	6.975100E+01	  0.113787577	5.055300E+01	  0.113787577	1.576000E+00
470	  0.113987975	-3.563000E+01	  0.113987975	7.403200E+01	  0.113987975	5.043100E+01	  0.113987975	1.604000E+00
471	  0.114188381	-3.536600E+01	  0.114188381	6.808800E+01	  0.114188381	5.061400E+01	  0.114188381	1.601000E+00
472	  0.114388779	-3.475200E+01	  0.114388779	6.903000E+01	  0.114388779	5.062900E+01	  0.114388779	1.730000E+00
473	  0.114589177	-3.541300E+01	  0.114589177	6.958300E+01	  0.114589177	5.056900E+01	  0.114589177	1.607000E+00
474	  0.114789583	-3.538500E+01	  0.114789583	7.232800E+01	  0.114789583	5.049200E+01	  0.114789583	1.637000E+00
475	  0.114989981	-3.498100E+01	  0.114989981	6.235300E+01	  0.114989981	5.080800E+01	  0.114989981	1.604000E+00
476	  0.115190387	-3.477700E+01	  0.115190387	6.856300E+01	  0.115190387	5.064100E+01	  0.115190387	1.720000E+00
477	  0.115390785	-3.469300E+01	  0.115390785	6.734000E+01	  0.115390785	5.068500E+01	  0.115390785	1.723000E+00
478	  0.115591183	-3.535000E+01	  0.115591183	6.697900E+01	  0.115591183	5.064700E+01	  0.115591183	1.592000E+00
479	  0.115791589	-3.492500E+01	  0.115791589	6.954000E+01	  0.115791589	5.060200E+01	  0.115791589	1.701000E+00
480	  0.115991987	-3.467500E+01	  0.115991987	6.964300E+01	  0.115991987	5.061500E+01	  0.115991987	1.752000E+00
481	  0.116192386	-3.498100E+01	  0.116192386	6.441400E+01	  0.116192386	5.074900E+01	  0.116192386	1.631000E+00
482	  0.116392791	-3.441600E+01	  0.116392791	6.449700E+01	  0.116392791	5.079500E+01	  0.116392791	1.744000E+00
483	  0.116593190	-3.402200E+01	  0.116593190	6.904300E+01	  0.116593190	5.068100E+01	  0.116593190	1.884000E+00
484	  0.116793588	-3.469900E+01	  0.116793588	6.097000E+01	  0.116793588	5.087400E+01	  0.116793588	1.638000E+00
485	  0.116993994	-3.474600E+01	  0.116993994	7.084200E+01	  0.116993994	5.057400E+01	  0.116993994	1.750000E+00
486	  0.117194392	-3.435300E+01	  0.117194392	6.524700E+01	  0.117194392	5.077700E+01	  0.117194392	1.767000E+00
487	  0.117394790	-3.492800E+01	  0.117394790	6.814100E+01	  0.117394790	5.064300E+01	  0.117394790	1.686000E+00
488	  0.117595196	-3.481400E+01	  0.117595196	6.504300E+01	  0.117595196	5.074400E+01	  0.117595196	1.672000E+00
489	  0.117795594	-3.513400E+01	  0.117795594	6.749200E+01	  0.117795594	5.064800E+01	  0.117795594	1.639000E+00
490	  0.117995992	-3.461200E+01	  0.117995992	6.265100E+01	  0.117995992	5.083300E+01	  0.117995992	1.679000E+00
491	  0.118196398	-3.476700E+01	  0.118196398	6.643700E+01	  0.118196398	5.070600E+01	  0.118196398	1.698000E+00
492	  0.118396796	-3.448500E+01	  0.118396796	6.257100E+01	  0.118396796	5.084700E+01	  0.118396796	1.703000E+00
493	  0.118597202	-3.432700E+01	  0.118597202	6.653700E+01	  0.118597202	5.073900E+01	  0.118597202	1.789000E+00
494	  0.118797600	-3.374200E+01	  0.118797600	6.754900E+01	  0.118797600	5.075400E+01	  0.118797600	1.929000E+00
495	  0.118997999	-3.385000E+01	  0.118997999	6.168400E+01	  0.118997999	5.093900E+01	  0.118997999	1.821000E+00
496	  0.119198404	-3.415800E+01	  0.119198404	6.262500E+01	  0.119198404	5.087700E+01	  0.119198404	1.771000E+00
497	  0.119398803	-3.413100E+01	  0.119398803	6.348900E+01	  0.119398803	5.085300E+01	  0.119398803	1.789000E+00
498	  0.119599201	-3.387700E+01	  0.119599201	6.391400E+01	  0.119599201	5.086300E+01	  0.119599201	1.849000E+00
499	  0.119799607	-3.390700E+01	  0.119799607	5.840800E+01	  0.119799607	5.103700E+01	  0.119799607	1.754000E+00
500	  0.120000005	-3.465400E+01	  0.120000005	6.553700E+01	  0.120000005	5.074300E+01	  0.120000005	1.709000E+00
