! Anritsu VNA Master:             	Model: MS2036C/10/77
! SN:             	1601066
! /card0/usr/18may12.lna.rl/256a.swout.hot.txt
! Existing Calibration Information:
! TYPE:             	Current Settings	Active Cal Settings
! TIME:             	05/13/2018 01:44:23 PM	05/13/2018 01:31:14 PM
! INTERNAL TEMP:    	51.5 C	49.8 C
! # POINTS:         	500	500
! START FREQ:       	20.000 MHz	20.000 MHz
! STOP FREQ:        	120.000 MHz	120.000 MHz
! SOURCE POWER:     	Low	Low
! IFBW:             	10 Hz	10 Hz
! AVG FACTOR:       	  1 	  1 
! REF PLANE 1:      	0 mm	0 mm
! REF PLANE 2:      	0 mm	0 mm
! CAL TYPE:         	Full S22	Full S22
! CAL METHOD:       	SOLT	SOLT
! CAL LINE TYPE:    	Coax	Coax
! DUT PORT 1:       	K-Conn(M)	K-Conn(M)
! DUT PORT 2:       	K-Conn(M)	K-Conn(M)
! CAL STATUS:       	OK: Accuracy High	--
! PROP-V:       	0.700
! CABLE LOSS:       	0.000 dB/m
! REF IMPEDANCE:       	50.0
! Trace Specific Parameters:	TR1	TR2	TR3	TR4
! TRACE.#.Y (GRAPH TYPE)	LOG MAG	PHASE	REAL IMPEDANCE	IMAGINARY IMPEDANCE
! TRACE.#.X 	FREQ.GHZ	FREQ.GHZ	FREQ.GHZ	FREQ.GHZ
! S-PARAMETER	S22	S22	S22	S22
! SMOOTH/APERTURE %	0	0	0	0
! WINDOW	NSL	NSL	NSL	NSL
! GATING	OFF	OFF	OFF	OFF
! FGTD	OFF	OFF	OFF	OFF
Marker Information per Trace:	TR1	TR2	TR3	TR4
!MK1	--	"MK1 TR2:  12.585 170 MHz,##.##"	--	--
!MK2	--	--	"MK2 TR3:  360.721 kHz,##.##"	--
!MK3	--	--	--	--
!MK4	--	--	--	--
!MK5	--	--	--	--
!MK6	--	--	--	--
!MK7	--	--	--	--
!MK8	--	--	--	--
PNT	TR1.FREQ.GHZ	TR1.LOG MAG.dB	TR2.FREQ.GHZ	TR2.PHASE.deg	TR3.FREQ.GHZ	TR3.REAL IMPEDANCE.ohm	TR4.FREQ.GHZ	TR4.IMAGINARY IMPEDANCE.ohm
1	  0.020000000	-3.514800E+01	  0.020000000	-4.706600E+01	  0.020000000	5.118800E+01	  0.020000000	-1.310000E+00
2	  0.020200402	-3.505400E+01	  0.020200402	-5.047100E+01	  0.020200402	5.111800E+01	  0.020200402	-1.393000E+00
3	  0.020400802	-3.509300E+01	  0.020400802	-4.975300E+01	  0.020400802	5.113100E+01	  0.020400802	-1.373000E+00
4	  0.020601204	-3.530200E+01	  0.020601204	-5.094400E+01	  0.020601204	5.107500E+01	  0.020601204	-1.362000E+00
5	  0.020801604	-3.469400E+01	  0.020801604	-4.802400E+01	  0.020801604	5.122700E+01	  0.020801604	-1.403000E+00
6	  0.021002004	-3.494700E+01	  0.021002004	-4.797000E+01	  0.021002004	5.119400E+01	  0.021002004	-1.361000E+00
7	  0.021202406	-3.581800E+01	  0.021202406	-4.636900E+01	  0.021202406	5.111500E+01	  0.021202406	-1.197000E+00
8	  0.021402806	-3.582700E+01	  0.021402806	-5.077600E+01	  0.021402806	5.101600E+01	  0.021402806	-1.278000E+00
9	  0.021603208	-3.602100E+01	  0.021603208	-5.162100E+01	  0.021603208	5.097500E+01	  0.021603208	-1.263000E+00
10	  0.021803608	-3.605800E+01	  0.021803608	-4.933300E+01	  0.021803608	5.102100E+01	  0.021803608	-1.218000E+00
11	  0.022004008	-3.525100E+01	  0.022004008	-5.251700E+01	  0.022004008	5.104200E+01	  0.022004008	-1.399000E+00
12	  0.022204408	-3.558000E+01	  0.022204408	-5.225300E+01	  0.022204408	5.101000E+01	  0.022204408	-1.342000E+00
13	  0.022404809	-3.567300E+01	  0.022404809	-4.954600E+01	  0.022404809	5.106300E+01	  0.022404809	-1.279000E+00
14	  0.022605211	-3.539700E+01	  0.022605211	-5.021100E+01	  0.022605211	5.108100E+01	  0.022605211	-1.333000E+00
15	  0.022805611	-3.547600E+01	  0.022805611	-5.377100E+01	  0.022805611	5.098500E+01	  0.022805611	-1.385000E+00
16	  0.023006011	-3.518400E+01	  0.023006011	-5.265000E+01	  0.023006011	5.104700E+01	  0.023006011	-1.413000E+00
17	  0.023206413	-3.636400E+01	  0.023206413	-5.569600E+01	  0.023206413	5.084700E+01	  0.023206413	-1.276000E+00
18	  0.023406813	-3.601400E+01	  0.023406813	-5.131600E+01	  0.023406813	5.098300E+01	  0.023406813	-1.259000E+00
19	  0.023607215	-3.649900E+01	  0.023607215	-5.353100E+01	  0.023607215	5.088200E+01	  0.023607215	-1.224000E+00
20	  0.023807615	-3.574200E+01	  0.023807615	-5.184100E+01	  0.023807615	5.100100E+01	  0.023807615	-1.309000E+00
21	  0.024008015	-3.592900E+01	  0.024008015	-5.197300E+01	  0.024008015	5.097700E+01	  0.024008015	-1.283000E+00
22	  0.024208417	-3.678900E+01	  0.024208417	-5.723800E+01	  0.024208417	5.077400E+01	  0.024208417	-1.236000E+00
23	  0.024408817	-3.676700E+01	  0.024408817	-5.599400E+01	  0.024408817	5.080300E+01	  0.024408817	-1.222000E+00
24	  0.024609219	-3.614300E+01	  0.024609219	-5.133700E+01	  0.024609219	5.096800E+01	  0.024609219	-1.241000E+00
25	  0.024809619	-3.646100E+01	  0.024809619	-5.485600E+01	  0.024809619	5.085700E+01	  0.024809619	-1.250000E+00
26	  0.025010020	-3.595700E+01	  0.025010020	-5.256800E+01	  0.025010020	5.096100E+01	  0.025010020	-1.289000E+00
27	  0.025210422	-3.628300E+01	  0.025210422	-5.613100E+01	  0.025210422	5.084500E+01	  0.025210422	-1.295000E+00
28	  0.025410822	-3.673000E+01	  0.025410822	-5.416100E+01	  0.025410822	5.084600E+01	  0.025410822	-1.201000E+00
29	  0.025611224	-3.650600E+01	  0.025611224	-5.334500E+01	  0.025611224	5.088500E+01	  0.025611224	-1.220000E+00
30	  0.025811624	-3.762300E+01	  0.025811624	-5.882600E+01	  0.025811624	5.067200E+01	  0.025811624	-1.140000E+00
31	  0.026012026	-3.664400E+01	  0.026012026	-5.705400E+01	  0.026012026	5.079100E+01	  0.026012026	-1.254000E+00
32	  0.026212426	-3.667800E+01	  0.026212426	-5.793500E+01	  0.026212426	5.076800E+01	  0.026212426	-1.261000E+00
33	  0.026412826	-3.705200E+01	  0.026412826	-5.745600E+01	  0.026412826	5.074600E+01	  0.026412826	-1.201000E+00
34	  0.026613226	-3.700500E+01	  0.026613226	-6.087100E+01	  0.026613226	5.067600E+01	  0.026613226	-1.250000E+00
35	  0.026813626	-3.748000E+01	  0.026813626	-5.907900E+01	  0.026813626	5.067800E+01	  0.026813626	-1.162000E+00
36	  0.027014028	-3.733500E+01	  0.027014028	-5.960700E+01	  0.027014028	5.067800E+01	  0.027014028	-1.188000E+00
37	  0.027214428	-3.770700E+01	  0.027214428	-5.880900E+01	  0.027214428	5.066600E+01	  0.027214428	-1.128000E+00
38	  0.027414829	-3.700400E+01	  0.027414829	-5.766800E+01	  0.027414829	5.074600E+01	  0.027414829	-1.211000E+00
39	  0.027615231	-3.696200E+01	  0.027615231	-5.946100E+01	  0.027615231	5.071000E+01	  0.027615231	-1.239000E+00
40	  0.027815631	-3.712400E+01	  0.027815631	-5.973400E+01	  0.027815631	5.069200E+01	  0.027815631	-1.219000E+00
41	  0.028016033	-3.757800E+01	  0.028016033	-5.925000E+01	  0.028016033	5.066700E+01	  0.028016033	-1.151000E+00
42	  0.028216433	-3.776100E+01	  0.028216433	-6.076300E+01	  0.028216433	5.062300E+01	  0.028216433	-1.143000E+00
43	  0.028416833	-3.756900E+01	  0.028416833	-5.750500E+01	  0.028416833	5.070300E+01	  0.028416833	-1.131000E+00
44	  0.028617235	-3.728500E+01	  0.028617235	-5.959700E+01	  0.028617235	5.068200E+01	  0.028617235	-1.195000E+00
45	  0.028817635	-3.801200E+01	  0.028817635	-5.867100E+01	  0.028817635	5.064600E+01	  0.028817635	-1.087000E+00
46	  0.029018037	-3.891800E+01	  0.029018037	-6.170600E+01	  0.029018037	5.052900E+01	  0.029018037	-1.007000E+00
47	  0.029218437	-3.826800E+01	  0.029218437	-6.381200E+01	  0.029218437	5.052900E+01	  0.029218437	-1.107000E+00
48	  0.029418837	-3.780200E+01	  0.029418837	-6.504300E+01	  0.029418837	5.053200E+01	  0.029418837	-1.180000E+00
49	  0.029619239	-3.765300E+01	  0.029619239	-6.112400E+01	  0.029619239	5.062300E+01	  0.029619239	-1.161000E+00
50	  0.029819639	-3.815400E+01	  0.029819639	-6.056400E+01	  0.029819639	5.059900E+01	  0.029819639	-1.090000E+00
51	  0.030020041	-3.809200E+01	  0.030020041	-6.270600E+01	  0.030020041	5.056100E+01	  0.030020041	-1.119000E+00
52	  0.030220442	-3.808300E+01	  0.030220442	-6.105000E+01	  0.030220442	5.059500E+01	  0.030220442	-1.104000E+00
53	  0.030420844	-3.799200E+01	  0.030420844	-6.170500E+01	  0.030420844	5.058800E+01	  0.030420844	-1.122000E+00
54	  0.030621244	-3.903700E+01	  0.030621244	-6.604200E+01	  0.030621244	5.044500E+01	  0.030621244	-1.030000E+00
55	  0.030821644	-3.828100E+01	  0.030821644	-6.481700E+01	  0.030821644	5.050800E+01	  0.030821644	-1.114000E+00
56	  0.031022044	-3.870500E+01	  0.031022044	-6.120900E+01	  0.031022044	5.055100E+01	  0.031022044	-1.028000E+00
57	  0.031222444	-3.824300E+01	  0.031222444	-6.174800E+01	  0.031222444	5.057000E+01	  0.031222444	-1.090000E+00
58	  0.031422846	-3.767600E+01	  0.031422846	-6.582600E+01	  0.031422846	5.052300E+01	  0.031422846	-1.204000E+00
59	  0.031623244	-3.836500E+01	  0.031623244	-6.402400E+01	  0.031623244	5.051900E+01	  0.031623244	-1.096000E+00
60	  0.031823646	-3.953500E+01	  0.031823646	-7.040100E+01	  0.031823646	5.034500E+01	  0.031823646	-1.000000E+00
61	  0.032024048	-3.859500E+01	  0.032024048	-6.918900E+01	  0.032024048	5.040700E+01	  0.032024048	-1.107000E+00
62	  0.032224450	-3.834600E+01	  0.032224450	-7.106900E+01	  0.032224450	5.038000E+01	  0.032224450	-1.153000E+00
63	  0.032424849	-3.892500E+01	  0.032424849	-6.665700E+01	  0.032424849	5.043900E+01	  0.032424849	-1.048000E+00
64	  0.032625251	-3.926100E+01	  0.032625251	-6.594300E+01	  0.032625251	5.043500E+01	  0.032625251	-1.002000E+00
65	  0.032825653	-3.885300E+01	  0.032825653	-7.010000E+01	  0.032825653	5.037800E+01	  0.032825653	-1.081000E+00
66	  0.033026051	-4.000100E+01	  0.033026051	-6.852900E+01	  0.033026051	5.035800E+01	  0.033026051	-9.370000E-01
67	  0.033226453	-3.935400E+01	  0.033226453	-6.221000E+01	  0.033226453	5.049500E+01	  0.033226453	-9.620000E-01
68	  0.033426855	-3.870200E+01	  0.033426855	-7.310400E+01	  0.033426855	5.032600E+01	  0.033426855	-1.118000E+00
69	  0.033627257	-3.876500E+01	  0.033627257	-6.290700E+01	  0.033627257	5.051700E+01	  0.033627257	-1.036000E+00
70	  0.033827655	-3.951800E+01	  0.033827655	-6.355900E+01	  0.033827655	5.046300E+01	  0.033827655	-9.550000E-01
71	  0.034028057	-4.013700E+01	  0.034028057	-6.575200E+01	  0.034028057	5.039700E+01	  0.034028057	-9.040000E-01
72	  0.034228459	-3.912700E+01	  0.034228459	-6.693600E+01	  0.034228459	5.042400E+01	  0.034228459	-1.026000E+00
73	  0.034428857	-3.924100E+01	  0.034428857	-6.500400E+01	  0.034428857	5.045300E+01	  0.034428857	-9.980000E-01
74	  0.034629259	-3.966700E+01	  0.034629259	-7.395700E+01	  0.034629259	5.027700E+01	  0.034629259	-1.004000E+00
75	  0.034829661	-4.034400E+01	  0.034829661	-6.588900E+01	  0.034829661	5.038600E+01	  0.034829661	-8.840000E-01
76	  0.035030060	-4.004900E+01	  0.035030060	-7.299800E+01	  0.035030060	5.028200E+01	  0.035030060	-9.560000E-01
77	  0.035230462	-4.112200E+01	  0.035230462	-7.126500E+01	  0.035230462	5.027600E+01	  0.035230462	-8.360000E-01
78	  0.035430863	-4.087300E+01	  0.035430863	-7.593500E+01	  0.035430863	5.021200E+01	  0.035430863	-8.810000E-01
79	  0.035631265	-3.963300E+01	  0.035631265	-6.471600E+01	  0.035631265	5.043800E+01	  0.035631265	-9.510000E-01
80	  0.035831664	-3.963500E+01	  0.035831664	-7.281900E+01	  0.035831664	5.029800E+01	  0.035831664	-1.002000E+00
81	  0.036032066	-4.141100E+01	  0.036032066	-7.352900E+01	  0.036032066	5.023400E+01	  0.036032066	-8.190000E-01
82	  0.036232468	-4.099600E+01	  0.036232468	-6.853600E+01	  0.036232468	5.032000E+01	  0.036232468	-8.350000E-01
83	  0.036432866	-3.980000E+01	  0.036432866	-7.075300E+01	  0.036432866	5.032900E+01	  0.036432866	-9.720000E-01
84	  0.036633268	-4.051700E+01	  0.036633268	-7.267100E+01	  0.036633268	5.027300E+01	  0.036633268	-9.040000E-01
85	  0.036833670	-4.085800E+01	  0.036833670	-6.886500E+01	  0.036833670	5.032000E+01	  0.036833670	-8.500000E-01
86	  0.037034072	-4.160000E+01	  0.037034072	-7.783000E+01	  0.037034072	5.016800E+01	  0.037034072	-8.150000E-01
87	  0.037234470	-4.031100E+01	  0.037234470	-7.342300E+01	  0.037234470	5.026700E+01	  0.037234470	-9.290000E-01
88	  0.037434869	-4.120500E+01	  0.037434869	-7.153400E+01	  0.037434869	5.026900E+01	  0.037434869	-8.300000E-01
89	  0.037635271	-4.043800E+01	  0.037635271	-6.999000E+01	  0.037635271	5.031800E+01	  0.037635271	-8.990000E-01
90	  0.037835669	-4.163300E+01	  0.037835669	-7.854200E+01	  0.037835669	5.015800E+01	  0.037835669	-8.140000E-01
91	  0.038036071	-4.001800E+01	  0.038036071	-7.113000E+01	  0.038036071	5.031400E+01	  0.038036071	-9.500000E-01
92	  0.038236473	-4.106000E+01	  0.038236473	-6.692700E+01	  0.038236473	5.034100E+01	  0.038236473	-8.190000E-01
93	  0.038436871	-4.127400E+01	  0.038436871	-7.008000E+01	  0.038436871	5.028800E+01	  0.038436871	-8.160000E-01
94	  0.038637273	-4.132300E+01	  0.038637273	-6.833700E+01	  0.038637273	5.031100E+01	  0.038637273	-8.030000E-01
95	  0.038837675	-4.207400E+01	  0.038837675	-7.439700E+01	  0.038837675	5.020600E+01	  0.038837675	-7.610000E-01
96	  0.039038073	-4.180700E+01	  0.039038073	-6.967900E+01	  0.039038073	5.027600E+01	  0.039038073	-7.650000E-01
97	  0.039238475	-4.172400E+01	  0.039238475	-7.274000E+01	  0.039238475	5.023700E+01	  0.039238475	-7.860000E-01
98	  0.039438877	-4.279600E+01	  0.039438877	-6.836700E+01	  0.039438877	5.026300E+01	  0.039438877	-6.770000E-01
99	  0.039639279	-4.196500E+01	  0.039639279	-7.548200E+01	  0.039639279	5.019400E+01	  0.039639279	-7.750000E-01
100	  0.039839678	-4.231400E+01	  0.039839678	-7.448400E+01	  0.039839678	5.019900E+01	  0.039839678	-7.410000E-01
101	  0.040040080	-4.120000E+01	  0.040040080	-7.639300E+01	  0.040040080	5.019800E+01	  0.040040080	-8.490000E-01
102	  0.040240481	-4.177900E+01	  0.040240481	-7.776200E+01	  0.040240481	5.016600E+01	  0.040240481	-7.980000E-01
103	  0.040440880	-4.203700E+01	  0.040440880	-7.240700E+01	  0.040440880	5.023300E+01	  0.040440880	-7.570000E-01
104	  0.040641282	-4.347700E+01	  0.040641282	-7.081300E+01	  0.040641282	5.021600E+01	  0.040641282	-6.350000E-01
105	  0.040841684	-4.312500E+01	  0.040841684	-8.839700E+01	  0.040841684	5.001400E+01	  0.040841684	-6.970000E-01
106	  0.041042086	-4.121400E+01	  0.041042086	-7.263900E+01	  0.041042086	5.025300E+01	  0.041042086	-8.340000E-01
107	  0.041242484	-4.398900E+01	  0.041242484	-7.495000E+01	  0.041242484	5.016000E+01	  0.041242484	-6.120000E-01
108	  0.041442886	-4.418300E+01	  0.041442886	-7.197900E+01	  0.041442886	5.018800E+01	  0.041442886	-5.890000E-01
109	  0.041643288	-4.238500E+01	  0.041643288	-8.452400E+01	  0.041643288	5.006600E+01	  0.041643288	-7.570000E-01
110	  0.041843686	-4.288500E+01	  0.041843686	-8.110600E+01	  0.041843686	5.010500E+01	  0.041843686	-7.100000E-01
111	  0.042044088	-4.339100E+01	  0.042044088	-7.677800E+01	  0.042044088	5.015000E+01	  0.042044088	-6.600000E-01
112	  0.042244490	-4.217300E+01	  0.042244490	-9.410000E+01	  0.042244490	4.993800E+01	  0.042244490	-7.750000E-01
113	  0.042444889	-4.323700E+01	  0.042444889	-7.181800E+01	  0.042444889	5.021100E+01	  0.042444889	-6.570000E-01
114	  0.042645290	-4.437900E+01	  0.042645290	-8.095700E+01	  0.042645290	5.009100E+01	  0.042645290	-5.970000E-01
115	  0.042845692	-4.387600E+01	  0.042845692	-8.723900E+01	  0.042845692	5.002600E+01	  0.042845692	-6.390000E-01
116	  0.043046094	-4.435600E+01	  0.043046094	-7.928200E+01	  0.043046094	5.010900E+01	  0.043046094	-5.960000E-01
117	  0.043246493	-4.456200E+01	  0.043246493	-7.548400E+01	  0.043246493	5.014500E+01	  0.043246493	-5.740000E-01
118	  0.043446895	-4.326900E+01	  0.043446895	-8.855500E+01	  0.043446895	5.001200E+01	  0.043446895	-6.860000E-01
119	  0.043647297	-4.302200E+01	  0.043647297	-8.087600E+01	  0.043647297	5.010700E+01	  0.043647297	-6.980000E-01
120	  0.043847695	-4.481600E+01	  0.043847695	-8.050500E+01	  0.043847695	5.009100E+01	  0.043847695	-5.670000E-01
121	  0.044048097	-4.398800E+01	  0.044048097	-8.087000E+01	  0.044048097	5.009600E+01	  0.044048097	-6.250000E-01
122	  0.044248499	-4.364300E+01	  0.044248499	-7.763500E+01	  0.044248499	5.013600E+01	  0.044248499	-6.430000E-01
123	  0.044448901	-4.426300E+01	  0.044448901	-8.202300E+01	  0.044448901	5.008100E+01	  0.044448901	-6.070000E-01
124	  0.044649299	-4.398800E+01	  0.044649299	-8.268300E+01	  0.044649299	5.007600E+01	  0.044649299	-6.270000E-01
125	  0.044849701	-4.430000E+01	  0.044849701	-8.145100E+01	  0.044849701	5.008700E+01	  0.044849701	-6.030000E-01
126	  0.045050103	-4.572100E+01	  0.045050103	-7.060000E+01	  0.045050103	5.016900E+01	  0.045050103	-4.890000E-01
127	  0.045250501	-4.331700E+01	  0.045250501	-7.900600E+01	  0.045250501	5.012500E+01	  0.045250501	-6.710000E-01
128	  0.045450903	-4.658200E+01	  0.045450903	-8.184000E+01	  0.045450903	5.006400E+01	  0.045450903	-4.640000E-01
129	  0.045651305	-4.521000E+01	  0.045651305	-8.619100E+01	  0.045651305	5.003300E+01	  0.045651305	-5.480000E-01
130	  0.045851704	-4.569400E+01	  0.045851704	-7.797500E+01	  0.045851704	5.010500E+01	  0.045851704	-5.080000E-01
131	  0.046052106	-4.730000E+01	  0.046052106	-8.430900E+01	  0.046052106	5.004000E+01	  0.046052106	-4.290000E-01
132	  0.046252504	-4.552300E+01	  0.046252504	-8.506600E+01	  0.046252504	5.004200E+01	  0.046252504	-5.270000E-01
133	  0.046452906	-4.583600E+01	  0.046452906	-7.380100E+01	  0.046452906	5.014000E+01	  0.046452906	-4.910000E-01
134	  0.046653304	-4.642500E+01	  0.046653304	-7.785600E+01	  0.046653304	5.009800E+01	  0.046653304	-4.670000E-01
135	  0.046853706	-4.996900E+01	  0.046853706	-9.239000E+01	  0.046853706	4.998500E+01	  0.046853706	-3.160000E-01
136	  0.047054108	-4.634200E+01	  0.047054108	-7.528600E+01	  0.047054108	5.012000E+01	  0.047054108	-4.670000E-01
137	  0.047254506	-4.956800E+01	  0.047254506	-8.828700E+01	  0.047254506	5.000800E+01	  0.047254506	-3.320000E-01
138	  0.047454908	-4.975800E+01	  0.047454908	-1.010450E+02	  0.047454908	4.993600E+01	  0.047454908	-3.180000E-01
139	  0.047655310	-4.749100E+01	  0.047655310	-8.964200E+01	  0.047655310	5.000000E+01	  0.047655310	-4.220000E-01
140	  0.047855709	-4.757800E+01	  0.047855709	-8.917700E+01	  0.047855709	5.000400E+01	  0.047855709	-4.170000E-01
141	  0.048056111	-4.749500E+01	  0.048056111	-7.527000E+01	  0.048056111	5.010500E+01	  0.048056111	-4.080000E-01
142	  0.048256513	-4.766600E+01	  0.048256513	-9.060400E+01	  0.048256513	4.999300E+01	  0.048256513	-4.130000E-01
143	  0.048456915	-4.501500E+01	  0.048456915	-8.084800E+01	  0.048456915	5.008600E+01	  0.048456915	-5.550000E-01
144	  0.048657313	-4.742000E+01	  0.048657313	-9.205500E+01	  0.048657313	4.998200E+01	  0.048657313	-4.250000E-01
145	  0.048857715	-4.848100E+01	  0.048857715	-7.179900E+01	  0.048857715	5.011600E+01	  0.048857715	-3.580000E-01
146	  0.049058117	-4.839300E+01	  0.049058117	-9.183900E+01	  0.049058117	4.998600E+01	  0.049058117	-3.800000E-01
147	  0.049258515	-4.715500E+01	  0.049258515	-8.080400E+01	  0.049258515	5.006800E+01	  0.049258515	-4.330000E-01
148	  0.049458917	-4.752600E+01	  0.049458917	-1.045920E+02	  0.049458917	4.989200E+01	  0.049458917	-4.050000E-01
149	  0.049659319	-4.974100E+01	  0.049659319	-1.068950E+02	  0.049659319	4.990400E+01	  0.049659319	-3.110000E-01
150	  0.049859721	-5.007100E+01	  0.049859721	-7.117800E+01	  0.049859721	5.010000E+01	  0.049859721	-2.970000E-01
151	  0.050060119	-4.808000E+01	  0.050060119	-9.402200E+01	  0.050060119	4.997000E+01	  0.050060119	-3.930000E-01
152	  0.050260521	-4.981700E+01	  0.050260521	-8.964700E+01	  0.050260521	5.000000E+01	  0.050260521	-3.220000E-01
153	  0.050460923	-4.933700E+01	  0.050460923	-9.814200E+01	  0.050460923	4.995000E+01	  0.050460923	-3.370000E-01
154	  0.050661322	-4.982100E+01	  0.050661322	-8.846400E+01	  0.050661322	5.000700E+01	  0.050661322	-3.220000E-01
155	  0.050861724	-4.849000E+01	  0.050861724	-1.076550E+02	  0.050861724	4.988400E+01	  0.050861724	-3.570000E-01
156	  0.051062126	-4.993000E+01	  0.051062126	-8.930900E+01	  0.051062126	5.000200E+01	  0.051062126	-3.180000E-01
157	  0.051262524	-5.199000E+01	  0.051262524	-8.842500E+01	  0.051262524	5.000600E+01	  0.051262524	-2.510000E-01
158	  0.051462926	-4.854800E+01	  0.051462926	-1.040310E+02	  0.051462926	4.990800E+01	  0.051462926	-3.610000E-01
159	  0.051663328	-5.344300E+01	  0.051663328	-8.637700E+01	  0.051663328	5.001200E+01	  0.051663328	-2.120000E-01
160	  0.051863730	-5.148300E+01	  0.051863730	-1.081980E+02	  0.051863730	4.991600E+01	  0.051863730	-2.520000E-01
161	  0.052064128	-5.371400E+01	  0.052064128	-1.217100E+02	  0.052064128	4.989100E+01	  0.052064128	-1.750000E-01
162	  0.052264530	-5.146800E+01	  0.052264530	-9.870700E+01	  0.052264530	4.995800E+01	  0.052264530	-2.630000E-01
163	  0.052464932	-5.403500E+01	  0.052464932	-8.758900E+01	  0.052464932	5.000700E+01	  0.052464932	-1.980000E-01
164	  0.052665330	-4.924300E+01	  0.052665330	-1.067720E+02	  0.052665330	4.989900E+01	  0.052665330	-3.290000E-01
165	  0.052865732	-5.216700E+01	  0.052865732	-9.036600E+01	  0.052865732	4.999700E+01	  0.052865732	-2.460000E-01
166	  0.053066134	-5.227500E+01	  0.053066134	-9.467900E+01	  0.053066134	4.997900E+01	  0.053066134	-2.420000E-01
167	  0.053266536	-5.412400E+01	  0.053266536	-5.038100E+01	  0.053266536	5.012500E+01	  0.053266536	-1.510000E-01
168	  0.053466935	-5.274100E+01	  0.053466935	-1.088350E+02	  0.053466935	4.992500E+01	  0.053466935	-2.170000E-01
169	  0.053667337	-5.481900E+01	  0.053667337	-1.103940E+02	  0.053667337	4.993600E+01	  0.053667337	-1.690000E-01
170	  0.053867739	-5.071800E+01	  0.053867739	-1.046290E+02	  0.053867739	4.992500E+01	  0.053867739	-2.810000E-01
171	  0.054068137	-5.589100E+01	  0.054068137	-8.202700E+01	  0.054068137	5.002200E+01	  0.054068137	-1.580000E-01
172	  0.054268539	-5.158900E+01	  0.054268539	-1.231410E+02	  0.054268539	4.985500E+01	  0.054268539	-2.190000E-01
173	  0.054468941	-5.138400E+01	  0.054468941	-6.706500E+01	  0.054468941	5.010400E+01	  0.054468941	-2.480000E-01
174	  0.054669339	-5.263200E+01	  0.054669339	-1.035640E+02	  0.054669339	4.994400E+01	  0.054669339	-2.260000E-01
175	  0.054869737	-5.356100E+01	  0.054869737	-6.396800E+01	  0.054869737	5.009100E+01	  0.054869737	-1.880000E-01
176	  0.055070139	-5.205900E+01	  0.055070139	-9.314400E+01	  0.055070139	4.998500E+01	  0.055070139	-2.490000E-01
177	  0.055270538	-5.107300E+01	  0.055270538	-1.015630E+02	  0.055270538	4.994300E+01	  0.055270538	-2.730000E-01
178	  0.055470940	-5.484200E+01	  0.055470940	-1.063350E+02	  0.055470940	4.994800E+01	  0.055470940	-1.730000E-01
179	  0.055671342	-5.580900E+01	  0.055671342	-8.806700E+01	  0.055671342	5.000500E+01	  0.055671342	-1.610000E-01
180	  0.055871744	-6.336800E+01	  0.055871744	-1.742970E+02	  0.055871744	4.993200E+01	  0.055871744	-6.000000E-03
181	  0.056072142	-5.735600E+01	  0.056072142	-1.247750E+02	  0.056072142	4.992200E+01	  0.056072142	-1.110000E-01
182	  0.056272544	-5.624800E+01	  0.056272544	-1.067730E+02	  0.056272544	4.995500E+01	  0.056272544	-1.470000E-01
183	  0.056472946	-6.319800E+01	  0.056472946	-8.282200E+01	  0.056472946	5.000800E+01	  0.056472946	-6.800000E-02
184	  0.056673344	-5.491100E+01	  0.056673344	-8.734800E+01	  0.056673344	5.000700E+01	  0.056673344	-1.790000E-01
185	  0.056873746	-5.442500E+01	  0.056873746	-9.008300E+01	  0.056873746	4.999900E+01	  0.056873746	-1.890000E-01
186	  0.057074148	-6.757000E+01	  0.057074148	1.236590E+02	  0.057074148	4.997600E+01	  0.057074148	3.400000E-02
187	  0.057274550	-5.781000E+01	  0.057274550	-1.058190E+02	  0.057274550	4.996400E+01	  0.057274550	-1.230000E-01
188	  0.057474948	-6.328100E+01	  0.057474948	-1.034400E+02	  0.057474948	4.998400E+01	  0.057474948	-6.600000E-02
189	  0.057675350	-6.971500E+01	  0.057675350	9.950000E+01	  0.057675350	4.999400E+01	  0.057675350	3.200000E-02
190	  0.057875752	-5.382800E+01	  0.057875752	-1.188690E+02	  0.057875752	4.990100E+01	  0.057875752	-1.770000E-01
191	  0.058076151	-6.665400E+01	  0.058076151	1.513800E+02	  0.058076151	4.995900E+01	  0.058076151	2.200000E-02
192	  0.058276553	-5.783300E+01	  0.058276553	-1.592400E+02	  0.058276553	4.988000E+01	  0.058276553	-4.500000E-02
193	  0.058476955	-6.285900E+01	  0.058476955	1.616150E+02	  0.058476955	4.993100E+01	  0.058476955	2.200000E-02
194	  0.058677353	-5.643900E+01	  0.058677353	-1.151850E+02	  0.058677353	4.993500E+01	  0.058677353	-1.360000E-01
195	  0.058877755	-7.001400E+01	  0.058877755	1.665050E+02	  0.058877755	4.996900E+01	  0.058877755	7.000000E-03
196	  0.059078157	-6.785300E+01	  0.059078157	1.220900E+01	  0.059078157	5.003900E+01	  0.059078157	8.000000E-03
197	  0.059278559	-6.102100E+01	  0.059278559	1.182950E+02	  0.059278559	4.995700E+01	  0.059278559	7.800000E-02
198	  0.059478957	-6.655300E+01	  0.059478957	-8.002100E+01	  0.059478957	5.000800E+01	  0.059478957	-4.600000E-02
199	  0.059679359	-6.251000E+01	  0.059679359	6.915300E+01	  0.059679359	5.002600E+01	  0.059679359	7.000000E-02
200	  0.059879761	-7.667500E+01	  0.059879761	1.409620E+02	  0.059879761	4.998800E+01	  0.059879761	9.000000E-03
201	  0.060080159	-5.784900E+01	  0.060080159	9.029100E+01	  0.060080159	4.999900E+01	  0.060080159	1.280000E-01
202	  0.060280561	-6.247900E+01	  0.060280561	1.646410E+02	  0.060280561	4.992700E+01	  0.060280561	1.900000E-02
203	  0.060480963	-5.898400E+01	  0.060480963	1.751100E+02	  0.060480963	4.988800E+01	  0.060480963	9.000000E-03
204	  0.060681365	-5.620700E+01	  0.060681365	9.907400E+01	  0.060681365	4.997500E+01	  0.060681365	1.520000E-01
205	  0.060881764	-5.865300E+01	  0.060881764	1.314250E+02	  0.060881764	4.992200E+01	  0.060881764	8.700000E-02
206	  0.061082166	-6.272800E+01	  0.061082166	1.303110E+02	  0.061082166	4.995200E+01	  0.061082166	5.500000E-02
207	  0.061282568	-5.729000E+01	  0.061282568	9.224800E+01	  0.061282568	4.999400E+01	  0.061282568	1.360000E-01
208	  0.061482966	-5.454900E+01	  0.061482966	1.300710E+02	  0.061482966	4.987900E+01	  0.061482966	1.420000E-01
209	  0.061683368	-5.471600E+01	  0.061683368	1.081790E+02	  0.061683368	4.994200E+01	  0.061683368	1.740000E-01
210	  0.061883770	-6.798900E+01	  0.061883770	1.174020E+02	  0.061883770	4.998100E+01	  0.061883770	3.500000E-02
211	  0.062084168	-5.985100E+01	  0.062084168	1.398800E+02	  0.062084168	4.992200E+01	  0.062084168	6.500000E-02
212	  0.062284570	-5.556500E+01	  0.062284570	1.268300E+02	  0.062284570	4.990000E+01	  0.062284570	1.330000E-01
213	  0.062484972	-5.266600E+01	  0.062484972	1.016850E+02	  0.062484972	4.995200E+01	  0.062484972	2.270000E-01
214	  0.062685370	-5.255400E+01	  0.062685370	1.269600E+02	  0.062685370	4.985800E+01	  0.062685370	1.870000E-01
215	  0.062885776	-5.935800E+01	  0.062885776	1.269940E+02	  0.062885776	4.993500E+01	  0.062885776	8.500000E-02
216	  0.063086174	-4.750800E+01	  0.063086174	1.099360E+02	  0.063086174	4.985400E+01	  0.063086174	3.940000E-01
217	  0.063286573	-5.655100E+01	  0.063286573	1.033450E+02	  0.063286573	4.996500E+01	  0.063286573	1.440000E-01
218	  0.063486971	-5.152000E+01	  0.063486971	1.161490E+02	  0.063486971	4.988200E+01	  0.063486971	2.370000E-01
219	  0.063687377	-5.323400E+01	  0.063687377	8.865100E+01	  0.063687377	5.000400E+01	  0.063687377	2.170000E-01
220	  0.063887775	-5.694300E+01	  0.063887775	7.324900E+01	  0.063887775	5.004000E+01	  0.063887775	1.360000E-01
221	  0.064088173	-4.945400E+01	  0.064088173	1.075070E+02	  0.064088173	4.989700E+01	  0.064088173	3.200000E-01
222	  0.064288579	-5.780300E+01	  0.064288579	1.467510E+02	  0.064288579	4.989200E+01	  0.064288579	7.000000E-02
223	  0.064488977	-6.072500E+01	  0.064488977	4.714900E+01	  0.064488977	5.006200E+01	  0.064488977	6.700000E-02
224	  0.064689375	-4.874900E+01	  0.064689375	9.096100E+01	  0.064689375	4.999200E+01	  0.064689375	3.650000E-01
225	  0.064889781	-5.467600E+01	  0.064889781	1.306390E+02	  0.064889781	4.987900E+01	  0.064889781	1.390000E-01
226	  0.065090179	-5.242000E+01	  0.065090179	1.206480E+02	  0.065090179	4.987700E+01	  0.065090179	2.050000E-01
227	  0.065290578	-5.299800E+01	  0.065290578	1.046580E+02	  0.065290578	4.994200E+01	  0.065290578	2.160000E-01
228	  0.065490983	-4.983400E+01	  0.065490983	6.277400E+01	  0.065490983	5.014600E+01	  0.065490983	2.870000E-01
229	  0.065691382	-4.701100E+01	  0.065691382	1.108620E+02	  0.065691382	4.983900E+01	  0.065691382	4.150000E-01
230	  0.065891780	-5.432800E+01	  0.065891780	1.075190E+02	  0.065891780	4.994100E+01	  0.065891780	1.830000E-01
231	  0.066092186	-4.881700E+01	  0.066092186	1.294850E+02	  0.066092186	4.976900E+01	  0.066092186	2.780000E-01
232	  0.066292584	-4.984700E+01	  0.066292584	8.205300E+01	  0.066292584	5.004300E+01	  0.066292584	3.190000E-01
233	  0.066492982	-5.362100E+01	  0.066492982	1.128360E+02	  0.066492982	4.991800E+01	  0.066492982	1.910000E-01
234	  0.066693388	-5.022600E+01	  0.066693388	1.000840E+02	  0.066693388	4.994500E+01	  0.066693388	3.020000E-01
235	  0.066893786	-4.878900E+01	  0.066893786	1.260510E+02	  0.066893786	4.978500E+01	  0.066893786	2.920000E-01
236	  0.067094192	-4.992900E+01	  0.067094192	1.076360E+02	  0.067094192	4.990200E+01	  0.067094192	3.030000E-01
237	  0.067294590	-4.953300E+01	  0.067294590	1.073560E+02	  0.067294590	4.989900E+01	  0.067294590	3.170000E-01
238	  0.067494988	-5.123500E+01	  0.067494988	8.925500E+01	  0.067494988	5.000200E+01	  0.067494988	2.740000E-01
239	  0.067695394	-4.921700E+01	  0.067695394	1.291360E+02	  0.067695394	4.978100E+01	  0.067695394	2.670000E-01
240	  0.067895792	-4.696700E+01	  0.067895792	8.679500E+01	  0.067895792	5.002300E+01	  0.067895792	4.470000E-01
241	  0.068096191	-4.610300E+01	  0.068096191	8.974600E+01	  0.068096191	4.999900E+01	  0.068096191	4.950000E-01
242	  0.068296596	-5.030900E+01	  0.068296596	9.358900E+01	  0.068296596	4.997900E+01	  0.068296596	3.040000E-01
243	  0.068496995	-4.962600E+01	  0.068496995	1.124290E+02	  0.068496995	4.987300E+01	  0.068496995	3.040000E-01
244	  0.068697393	-4.750900E+01	  0.068697393	8.258500E+01	  0.068697393	5.005200E+01	  0.068697393	4.180000E-01
245	  0.068897791	-4.732400E+01	  0.068897791	9.141700E+01	  0.068897791	4.998700E+01	  0.068897791	4.300000E-01
246	  0.069098189	-4.973900E+01	  0.069098189	9.927700E+01	  0.069098189	4.994600E+01	  0.069098189	3.210000E-01
247	  0.069298595	-4.811500E+01	  0.069298595	1.157040E+02	  0.069298595	4.982800E+01	  0.069298595	3.520000E-01
248	  0.069498993	-4.665500E+01	  0.069498993	9.634800E+01	  0.069498993	4.994600E+01	  0.069498993	4.610000E-01
249	  0.069699399	-4.637900E+01	  0.069699399	9.023900E+01	  0.069699399	4.999500E+01	  0.069699399	4.790000E-01
250	  0.069899797	-4.857300E+01	  0.069899797	1.056700E+02	  0.069899797	4.989800E+01	  0.069899797	3.580000E-01
251	  0.070100196	-4.791300E+01	  0.070100196	8.941800E+01	  0.070100196	5.000200E+01	  0.070100196	4.020000E-01
252	  0.070300601	-5.154500E+01	  0.070300601	7.531100E+01	  0.070300601	5.006600E+01	  0.070300601	2.560000E-01
253	  0.070501000	-4.687300E+01	  0.070501000	1.077180E+02	  0.070501000	4.986000E+01	  0.070501000	4.300000E-01
254	  0.070701398	-4.656700E+01	  0.070701398	8.266400E+01	  0.070701398	5.005700E+01	  0.070701398	4.660000E-01
255	  0.070901804	-4.515500E+01	  0.070901804	9.598800E+01	  0.070901804	4.993900E+01	  0.070901804	5.480000E-01
256	  0.071102202	-4.664200E+01	  0.071102202	1.122040E+02	  0.071102202	4.982200E+01	  0.071102202	4.290000E-01
257	  0.071302600	-4.778100E+01	  0.071302600	8.770100E+01	  0.071302600	5.001400E+01	  0.071302600	4.080000E-01
258	  0.071503006	-4.616500E+01	  0.071503006	1.012810E+02	  0.071503006	4.990100E+01	  0.071503006	4.810000E-01
259	  0.071703404	-4.861600E+01	  0.071703404	1.081410E+02	  0.071703404	4.988300E+01	  0.071703404	3.510000E-01
260	  0.071903802	-4.556700E+01	  0.071903802	9.435400E+01	  0.071903802	4.995700E+01	  0.071903802	5.240000E-01
261	  0.072104208	-4.465000E+01	  0.072104208	9.984300E+01	  0.072104208	4.989600E+01	  0.072104208	5.750000E-01
262	  0.072304606	-4.415100E+01	  0.072304606	8.932000E+01	  0.072304606	5.000300E+01	  0.072304606	6.200000E-01
263	  0.072505005	-4.574300E+01	  0.072505005	8.548400E+01	  0.072505005	5.003800E+01	  0.072505005	5.140000E-01
264	  0.072705410	-4.630700E+01	  0.072705410	1.032250E+02	  0.072705410	4.988700E+01	  0.072705410	4.690000E-01
265	  0.072905809	-4.458000E+01	  0.072905809	9.908400E+01	  0.072905809	4.990300E+01	  0.072905809	5.810000E-01
266	  0.073106214	-4.553400E+01	  0.073106214	9.480800E+01	  0.073106214	4.995200E+01	  0.073106214	5.260000E-01
267	  0.073306613	-4.347000E+01	  0.073306613	9.866900E+01	  0.073306613	4.989400E+01	  0.073306613	6.610000E-01
268	  0.073507011	-4.452100E+01	  0.073507011	8.726200E+01	  0.073507011	5.002400E+01	  0.073507011	5.930000E-01
269	  0.073707417	-4.410800E+01	  0.073707417	8.101300E+01	  0.073707417	5.009300E+01	  0.073707417	6.160000E-01
270	  0.073907815	-4.412500E+01	  0.073907815	8.292000E+01	  0.073907815	5.007200E+01	  0.073907815	6.180000E-01
271	  0.074108213	-4.436500E+01	  0.074108213	1.022640E+02	  0.074108213	4.986800E+01	  0.074108213	5.890000E-01
272	  0.074308619	-4.534000E+01	  0.074308619	9.012700E+01	  0.074308619	4.999500E+01	  0.074308619	5.400000E-01
273	  0.074509017	-4.335700E+01	  0.074509017	9.962000E+01	  0.074509017	4.988200E+01	  0.074509017	6.680000E-01
274	  0.074709415	-4.372000E+01	  0.074709415	9.734000E+01	  0.074709415	4.991200E+01	  0.074709415	6.450000E-01
275	  0.074909821	-4.600400E+01	  0.074909821	1.016400E+02	  0.074909821	4.989600E+01	  0.074909821	4.890000E-01
276	  0.075110219	-4.510300E+01	  0.075110219	9.648500E+01	  0.075110219	4.993400E+01	  0.075110219	5.510000E-01
277	  0.075310618	-4.337400E+01	  0.075310618	8.246800E+01	  0.075310618	5.008400E+01	  0.075310618	6.730000E-01
278	  0.075511023	-4.519200E+01	  0.075511023	1.009530E+02	  0.075511023	4.989200E+01	  0.075511023	5.380000E-01
279	  0.075711422	-4.351800E+01	  0.075711422	9.193400E+01	  0.075711422	4.997300E+01	  0.075711422	6.660000E-01
280	  0.075911827	-4.282000E+01	  0.075911827	9.026900E+01	  0.075911827	4.999100E+01	  0.075911827	7.220000E-01
281	  0.076112226	-4.283100E+01	  0.076112226	8.417900E+01	  0.076112226	5.006800E+01	  0.076112226	7.190000E-01
282	  0.076312624	-4.350400E+01	  0.076312624	7.975200E+01	  0.076312624	5.011400E+01	  0.076312624	6.580000E-01
283	  0.076513030	-4.443100E+01	  0.076513030	9.511000E+01	  0.076513030	4.994200E+01	  0.076513030	5.970000E-01
284	  0.076713428	-4.257200E+01	  0.076713428	9.933900E+01	  0.076713428	4.987400E+01	  0.076713428	7.320000E-01
285	  0.076913826	-4.334500E+01	  0.076913826	8.217300E+01	  0.076913826	5.008800E+01	  0.076913826	6.750000E-01
286	  0.077114232	-4.152200E+01	  0.077114232	9.693100E+01	  0.077114232	4.989100E+01	  0.077114232	8.310000E-01
287	  0.077314630	-4.127100E+01	  0.077314630	7.995500E+01	  0.077314630	5.014300E+01	  0.077314630	8.530000E-01
288	  0.077515028	-4.298900E+01	  0.077515028	8.553400E+01	  0.077515028	5.005000E+01	  0.077515028	7.070000E-01
289	  0.077715434	-4.190600E+01	  0.077715434	9.410400E+01	  0.077715434	4.993600E+01	  0.077715434	7.990000E-01
290	  0.077915832	-4.329000E+01	  0.077915832	8.549800E+01	  0.077915832	5.004900E+01	  0.077915832	6.830000E-01
291	  0.078116231	-4.194700E+01	  0.078116231	8.843600E+01	  0.078116231	5.001500E+01	  0.078116231	7.990000E-01
292	  0.078316636	-4.239600E+01	  0.078316636	9.979700E+01	  0.078316636	4.986500E+01	  0.078316636	7.450000E-01
293	  0.078517035	-4.138300E+01	  0.078517035	8.970600E+01	  0.078517035	4.999700E+01	  0.078517035	8.520000E-01
294	  0.078717433	-4.124100E+01	  0.078717433	1.024160E+02	  0.078717433	4.980600E+01	  0.078717433	8.430000E-01
295	  0.078917839	-4.289900E+01	  0.078917839	8.995100E+01	  0.078917839	4.999500E+01	  0.078917839	7.160000E-01
296	  0.079118237	-4.202000E+01	  0.079118237	8.136600E+01	  0.079118237	5.011200E+01	  0.079118237	7.850000E-01
297	  0.079318643	-4.230500E+01	  0.079318643	8.752000E+01	  0.079318643	5.002700E+01	  0.079318643	7.660000E-01
298	  0.079519041	-4.098600E+01	  0.079519041	8.678400E+01	  0.079519041	5.004200E+01	  0.079519041	8.920000E-01
299	  0.079719439	-4.394500E+01	  0.079719439	8.742100E+01	  0.079719439	5.002400E+01	  0.079719439	6.340000E-01
300	  0.079919845	-4.070200E+01	  0.079919845	9.184500E+01	  0.079919845	4.996100E+01	  0.079919845	9.210000E-01
301	  0.080120243	-4.131900E+01	  0.080120243	9.010000E+01	  0.080120243	4.999100E+01	  0.080120243	8.580000E-01
302	  0.080320641	-4.155100E+01	  0.080320641	9.448300E+01	  0.080320641	4.992700E+01	  0.080320641	8.320000E-01
303	  0.080521047	-4.065400E+01	  0.080521047	9.352700E+01	  0.080521047	4.993400E+01	  0.080521047	9.240000E-01
304	  0.080721445	-4.083800E+01	  0.080721445	8.729200E+01	  0.080721445	5.003400E+01	  0.080721445	9.070000E-01
305	  0.080921844	-4.155900E+01	  0.080921844	8.441600E+01	  0.080921844	5.007400E+01	  0.080921844	8.320000E-01
306	  0.081122249	-4.186100E+01	  0.081122249	8.360300E+01	  0.081122249	5.008300E+01	  0.081122249	8.030000E-01
307	  0.081322648	-4.240400E+01	  0.081322648	8.233400E+01	  0.081322648	5.009500E+01	  0.081322648	7.520000E-01
308	  0.081523046	-4.063800E+01	  0.081523046	8.765300E+01	  0.081523046	5.002900E+01	  0.081523046	9.290000E-01
309	  0.081723452	-4.048500E+01	  0.081723452	8.842700E+01	  0.081723452	5.001700E+01	  0.081723452	9.450000E-01
310	  0.081923850	-4.162900E+01	  0.081923850	8.085800E+01	  0.081923850	5.012500E+01	  0.081923850	8.200000E-01
311	  0.082124248	-4.061100E+01	  0.082124248	8.312500E+01	  0.082124248	5.010300E+01	  0.082124248	9.270000E-01
312	  0.082324654	-4.016600E+01	  0.082324654	8.688700E+01	  0.082324654	5.004300E+01	  0.082324654	9.800000E-01
313	  0.082525052	-4.005800E+01	  0.082525052	8.858400E+01	  0.082525052	5.001400E+01	  0.082525052	9.930000E-01
314	  0.082725458	-4.106100E+01	  0.082725458	9.084800E+01	  0.082725458	4.997900E+01	  0.082725458	8.840000E-01
315	  0.082925856	-3.962200E+01	  0.082925856	8.832700E+01	  0.082925856	5.001900E+01	  0.082925856	1.044000E+00
316	  0.083126254	-4.017400E+01	  0.083126254	8.749800E+01	  0.083126254	5.003300E+01	  0.083126254	9.790000E-01
317	  0.083326660	-4.048800E+01	  0.083326660	8.745300E+01	  0.083326660	5.003300E+01	  0.083326660	9.450000E-01
318	  0.083527058	-3.980400E+01	  0.083527058	8.690000E+01	  0.083527058	5.004400E+01	  0.083527058	1.022000E+00
319	  0.083727457	-4.005200E+01	  0.083727457	8.754000E+01	  0.083727457	5.003200E+01	  0.083727457	9.930000E-01
320	  0.083927862	-3.966700E+01	  0.083927862	8.845100E+01	  0.083927862	5.001700E+01	  0.083927862	1.039000E+00
321	  0.084128261	-4.002800E+01	  0.084128261	9.227900E+01	  0.084128261	4.995000E+01	  0.084128261	9.950000E-01
322	  0.084328659	-3.957100E+01	  0.084328659	9.021700E+01	  0.084328659	4.998400E+01	  0.084328659	1.050000E+00
323	  0.084529065	-4.052800E+01	  0.084529065	8.316700E+01	  0.084529065	5.010300E+01	  0.084529065	9.360000E-01
324	  0.084729463	-3.907500E+01	  0.084729463	8.281000E+01	  0.084729463	5.012700E+01	  0.084729463	1.106000E+00
325	  0.084929861	-3.974400E+01	  0.084929861	8.474500E+01	  0.084929861	5.008300E+01	  0.084929861	1.027000E+00
326	  0.085130267	-3.872300E+01	  0.085130267	8.704700E+01	  0.085130267	5.004600E+01	  0.085130267	1.157000E+00
327	  0.085330658	-3.967700E+01	  0.085330658	8.458700E+01	  0.085330658	5.008700E+01	  0.085330658	1.035000E+00
328	  0.085531056	-3.986900E+01	  0.085531056	8.339400E+01	  0.085531056	5.010600E+01	  0.085531056	1.010000E+00
329	  0.085731462	-3.991400E+01	  0.085731462	8.450500E+01	  0.085731462	5.008600E+01	  0.085731462	1.007000E+00
330	  0.085931860	-4.151500E+01	  0.085931860	8.215500E+01	  0.085931860	5.010700E+01	  0.085931860	8.330000E-01
331	  0.086132258	-3.944700E+01	  0.086132258	8.114900E+01	  0.086132258	5.015300E+01	  0.086132258	1.056000E+00
332	  0.086332664	-3.889700E+01	  0.086332664	8.666900E+01	  0.086332664	5.005300E+01	  0.086332664	1.134000E+00
333	  0.086533062	-3.894800E+01	  0.086533062	8.063100E+01	  0.086533062	5.017100E+01	  0.086533062	1.117000E+00
334	  0.086733460	-3.966900E+01	  0.086733460	8.248100E+01	  0.086733460	5.012500E+01	  0.086733460	1.032000E+00
335	  0.086933866	-3.855800E+01	  0.086933866	8.648500E+01	  0.086933866	5.005800E+01	  0.086933866	1.179000E+00
336	  0.087134264	-4.026700E+01	  0.087134264	8.301100E+01	  0.087134264	5.010800E+01	  0.087134264	9.640000E-01
337	  0.087334670	-3.834200E+01	  0.087334670	8.615900E+01	  0.087334670	5.006600E+01	  0.087334670	1.209000E+00
338	  0.087535068	-3.922800E+01	  0.087535068	8.358100E+01	  0.087535068	5.011000E+01	  0.087535068	1.088000E+00
339	  0.087735467	-3.841900E+01	  0.087735467	9.111500E+01	  0.087735467	4.996200E+01	  0.087735467	1.198000E+00
340	  0.087935872	-3.947600E+01	  0.087935872	8.384100E+01	  0.087935872	5.010200E+01	  0.087935872	1.058000E+00
341	  0.088136271	-3.868700E+01	  0.088136271	8.408500E+01	  0.088136271	5.010600E+01	  0.088136271	1.159000E+00
342	  0.088336669	-3.896600E+01	  0.088336669	8.805800E+01	  0.088336669	5.002500E+01	  0.088336669	1.126000E+00
343	  0.088537075	-3.788700E+01	  0.088537075	7.637700E+01	  0.088537075	5.028500E+01	  0.088537075	1.246000E+00
344	  0.088737473	-3.811200E+01	  0.088737473	8.226300E+01	  0.088737473	5.015200E+01	  0.088737473	1.235000E+00
345	  0.088937871	-3.815500E+01	  0.088937871	8.057400E+01	  0.088937871	5.018700E+01	  0.088937871	1.224000E+00
346	  0.089138277	-3.874900E+01	  0.089138277	8.158100E+01	  0.089138277	5.015600E+01	  0.089138277	1.146000E+00
347	  0.089338675	-3.856800E+01	  0.089338675	8.136500E+01	  0.089338675	5.016300E+01	  0.089338675	1.169000E+00
348	  0.089539073	-3.816100E+01	  0.089539073	8.023100E+01	  0.089539073	5.019500E+01	  0.089539073	1.222000E+00
349	  0.089739479	-3.854400E+01	  0.089739479	8.218400E+01	  0.089739479	5.014700E+01	  0.089739479	1.175000E+00
350	  0.089939877	-3.851100E+01	  0.089939877	7.940500E+01	  0.089939877	5.020400E+01	  0.089939877	1.171000E+00
351	  0.090140276	-3.812300E+01	  0.090140276	8.183500E+01	  0.090140276	5.016100E+01	  0.090140276	1.232000E+00
352	  0.090340681	-3.834700E+01	  0.090340681	8.307700E+01	  0.090340681	5.013100E+01	  0.090340681	1.204000E+00
353	  0.090541080	-3.854200E+01	  0.090541080	8.312700E+01	  0.090541080	5.012700E+01	  0.090541080	1.177000E+00
354	  0.090741485	-3.760700E+01	  0.090741485	8.316300E+01	  0.090741485	5.013900E+01	  0.090741485	1.311000E+00
355	  0.090941884	-3.853600E+01	  0.090941884	8.276500E+01	  0.090941884	5.013500E+01	  0.090941884	1.177000E+00
356	  0.091142282	-3.761500E+01	  0.091142282	8.057100E+01	  0.091142282	5.019900E+01	  0.091142282	1.303000E+00
357	  0.091342688	-3.763400E+01	  0.091342688	7.770900E+01	  0.091342688	5.026300E+01	  0.091342688	1.289000E+00
358	  0.091543086	-3.764600E+01	  0.091543086	8.149300E+01	  0.091543086	5.017700E+01	  0.091543086	1.301000E+00
359	  0.091743484	-3.809100E+01	  0.091743484	8.531000E+01	  0.091743484	5.008600E+01	  0.091743484	1.243000E+00
360	  0.091943890	-3.787400E+01	  0.091943890	7.677800E+01	  0.091943890	5.027700E+01	  0.091943890	1.250000E+00
361	  0.092144288	-3.758000E+01	  0.092144288	7.836600E+01	  0.092144288	5.025000E+01	  0.092144288	1.300000E+00
362	  0.092344686	-3.776200E+01	  0.092344686	8.004600E+01	  0.092344686	5.020700E+01	  0.092344686	1.279000E+00
363	  0.092545092	-3.684800E+01	  0.092545092	7.992800E+01	  0.092545092	5.023100E+01	  0.092545092	1.422000E+00
364	  0.092745490	-3.797000E+01	  0.092745490	7.635900E+01	  0.092745490	5.028300E+01	  0.092745490	1.234000E+00
365	  0.092945889	-3.747800E+01	  0.092945889	7.805900E+01	  0.092945889	5.026000E+01	  0.092945889	1.314000E+00
366	  0.093146294	-3.728900E+01	  0.093146294	7.662600E+01	  0.093146294	5.029900E+01	  0.093146294	1.337000E+00
367	  0.093346693	-3.701200E+01	  0.093346693	7.770400E+01	  0.093346693	5.028200E+01	  0.093346693	1.386000E+00
368	  0.093547091	-3.700100E+01	  0.093547091	7.806400E+01	  0.093547091	5.027300E+01	  0.093547091	1.389000E+00
369	  0.093747497	-3.747000E+01	  0.093747497	8.107300E+01	  0.093747497	5.019000E+01	  0.093747497	1.327000E+00
370	  0.093947895	-3.744000E+01	  0.093947895	8.039100E+01	  0.093947895	5.020600E+01	  0.093947895	1.329000E+00
371	  0.094148301	-3.705700E+01	  0.094148301	7.477100E+01	  0.094148301	5.035100E+01	  0.094148301	1.363000E+00
372	  0.094348699	-3.726100E+01	  0.094348699	7.680800E+01	  0.094348699	5.029500E+01	  0.094348699	1.342000E+00
373	  0.094549097	-3.681900E+01	  0.094549097	8.340800E+01	  0.094549097	5.014500E+01	  0.094549097	1.437000E+00
374	  0.094749503	-3.673500E+01	  0.094749503	8.052600E+01	  0.094749503	5.021900E+01	  0.094749503	1.442000E+00
375	  0.094949901	-3.716500E+01	  0.094949901	8.008600E+01	  0.094949901	5.022000E+01	  0.094949901	1.371000E+00
376	  0.095150299	-3.714500E+01	  0.095150299	7.733100E+01	  0.095150299	5.028700E+01	  0.095150299	1.363000E+00
377	  0.095350705	-3.741400E+01	  0.095350705	7.641500E+01	  0.095350705	5.030000E+01	  0.095350705	1.317000E+00
378	  0.095551103	-3.684200E+01	  0.095551103	7.691600E+01	  0.095551103	5.030600E+01	  0.095551103	1.409000E+00
379	  0.095751502	-3.631200E+01	  0.095751502	7.991200E+01	  0.095751502	5.024500E+01	  0.095751502	1.513000E+00
380	  0.095951907	-3.668700E+01	  0.095951907	7.716700E+01	  0.095951907	5.030500E+01	  0.095951907	1.436000E+00
381	  0.096152306	-3.701800E+01	  0.096152306	7.465600E+01	  0.096152306	5.035500E+01	  0.096152306	1.369000E+00
382	  0.096352704	-3.627600E+01	  0.096352704	7.753000E+01	  0.096352704	5.030900E+01	  0.096352704	1.508000E+00
383	  0.096553110	-3.670700E+01	  0.096553110	8.052100E+01	  0.096553110	5.022000E+01	  0.096553110	1.447000E+00
384	  0.096753508	-3.723800E+01	  0.096753508	7.747400E+01	  0.096753508	5.028000E+01	  0.096753508	1.349000E+00
385	  0.096953906	-3.642100E+01	  0.096953906	7.887400E+01	  0.096953906	5.027000E+01	  0.096953906	1.489000E+00
386	  0.097154312	-3.752600E+01	  0.097154312	7.476300E+01	  0.097154312	5.033300E+01	  0.097154312	1.291000E+00
387	  0.097354710	-3.690800E+01	  0.097354710	7.246300E+01	  0.097354710	5.041300E+01	  0.097354710	1.372000E+00
388	  0.097555116	-3.634200E+01	  0.097555116	7.757500E+01	  0.097555116	5.030600E+01	  0.097555116	1.497000E+00
389	  0.097755514	-3.639800E+01	  0.097755514	7.262900E+01	  0.097755514	5.043200E+01	  0.097755514	1.457000E+00
390	  0.097955912	-3.664100E+01	  0.097955912	7.497500E+01	  0.097955912	5.036200E+01	  0.097955912	1.432000E+00
391	  0.098156318	-3.625700E+01	  0.098156318	7.665700E+01	  0.098156318	5.033300E+01	  0.098156318	1.507000E+00
392	  0.098356716	-3.644300E+01	  0.098356716	7.139400E+01	  0.098356716	5.046200E+01	  0.098356716	1.440000E+00
393	  0.098557115	-3.570900E+01	  0.098557115	7.780700E+01	  0.098557115	5.032100E+01	  0.098557115	1.612000E+00
394	  0.098757520	-3.628900E+01	  0.098757520	8.193000E+01	  0.098757520	5.019200E+01	  0.098757520	1.524000E+00
395	  0.098957919	-3.588400E+01	  0.098957919	7.018100E+01	  0.098957919	5.052400E+01	  0.098957919	1.527000E+00
396	  0.099158317	-3.655200E+01	  0.099158317	7.304700E+01	  0.099158317	5.041500E+01	  0.099158317	1.434000E+00
397	  0.099358723	-3.617100E+01	  0.099358723	7.539300E+01	  0.099358723	5.037000E+01	  0.099358723	1.515000E+00
398	  0.099559121	-3.623200E+01	  0.099559121	7.216000E+01	  0.099559121	5.045300E+01	  0.099559121	1.482000E+00
399	  0.099759519	-3.599000E+01	  0.099759519	7.242200E+01	  0.099759519	5.045800E+01	  0.099759519	1.526000E+00
400	  0.099959925	-3.599900E+01	  0.099959925	7.291600E+01	  0.099959925	5.044400E+01	  0.099959925	1.528000E+00
401	  0.100160323	-3.482100E+01	  0.100160323	7.515200E+01	  0.100160323	5.043600E+01	  0.100160323	1.770000E+00
402	  0.100360721	-3.515100E+01	  0.100360721	7.307300E+01	  0.100360721	5.048300E+01	  0.100360721	1.688000E+00
403	  0.100561127	-3.641200E+01	  0.100561127	6.491800E+01	  0.100561127	5.062500E+01	  0.100561127	1.386000E+00
404	  0.100761525	-3.499200E+01	  0.100761525	7.136300E+01	  0.100761525	5.054300E+01	  0.100761525	1.705000E+00
405	  0.100961931	-3.569900E+01	  0.100961931	6.458600E+01	  0.100961931	5.068600E+01	  0.100961931	1.502000E+00
406	  0.101162329	-3.498900E+01	  0.101162329	8.134300E+01	  0.101162329	5.023700E+01	  0.101162329	1.769000E+00
407	  0.101362728	-3.508400E+01	  0.101362728	6.942300E+01	  0.101362728	5.059500E+01	  0.101362728	1.668000E+00
408	  0.101563133	-3.611200E+01	  0.101563133	6.623000E+01	  0.101563133	5.061300E+01	  0.101563133	1.449000E+00
409	  0.101763532	-3.557100E+01	  0.101763532	7.144900E+01	  0.101763532	5.050700E+01	  0.101763532	1.594000E+00
410	  0.101963930	-3.538100E+01	  0.101963930	6.781200E+01	  0.101963930	5.062100E+01	  0.101963930	1.595000E+00
411	  0.102164336	-3.539100E+01	  0.102164336	7.812900E+01	  0.102164336	5.032200E+01	  0.102164336	1.674000E+00
412	  0.102364734	-3.469200E+01	  0.102364734	7.200000E+01	  0.102364734	5.054100E+01	  0.102364734	1.771000E+00
413	  0.102565132	-3.513700E+01	  0.102565132	6.752700E+01	  0.102565132	5.064600E+01	  0.102565132	1.638000E+00
414	  0.102765530	-3.486800E+01	  0.102765530	7.144500E+01	  0.102765530	5.054800E+01	  0.102765530	1.730000E+00
415	  0.102965929	-3.478600E+01	  0.102965929	7.791400E+01	  0.102965929	5.035000E+01	  0.102965929	1.795000E+00
416	  0.103166327	-3.550100E+01	  0.103166327	6.830900E+01	  0.103166327	5.059900E+01	  0.103166327	1.578000E+00
417	  0.103366733	-3.472200E+01	  0.103366733	7.090100E+01	  0.103366733	5.057300E+01	  0.103366733	1.755000E+00
418	  0.103567131	-3.497300E+01	  0.103567131	7.681600E+01	  0.103567131	5.037700E+01	  0.103567131	1.750000E+00
419	  0.103767529	-3.463600E+01	  0.103767529	6.690800E+01	  0.103767529	5.070200E+01	  0.103767529	1.730000E+00
420	  0.103967935	-3.535900E+01	  0.103967935	6.414500E+01	  0.103967935	5.072500E+01	  0.103967935	1.558000E+00
421	  0.104168333	-3.466200E+01	  0.104168333	6.866500E+01	  0.104168333	5.064600E+01	  0.104168333	1.744000E+00
422	  0.104368731	-3.495200E+01	  0.104368731	7.349600E+01	  0.104368731	5.048000E+01	  0.104368731	1.731000E+00
423	  0.104569137	-3.628000E+01	  0.104569137	6.746500E+01	  0.104569137	5.057100E+01	  0.104569137	1.433000E+00
424	  0.104769535	-3.502300E+01	  0.104769535	6.901400E+01	  0.104769535	5.061100E+01	  0.104769535	1.676000E+00
425	  0.104969934	-3.503800E+01	  0.104969934	7.303100E+01	  0.104969934	5.049000E+01	  0.104969934	1.710000E+00
426	  0.105170339	-3.473000E+01	  0.105170339	6.140100E+01	  0.105170339	5.085900E+01	  0.105170339	1.638000E+00
427	  0.105370738	-3.426300E+01	  0.105370738	6.572500E+01	  0.105370738	5.077000E+01	  0.105370738	1.792000E+00
428	  0.105571143	-3.429800E+01	  0.105571143	6.741900E+01	  0.105571143	5.071300E+01	  0.105571143	1.806000E+00
429	  0.105771542	-3.475500E+01	  0.105771542	6.478200E+01	  0.105771542	5.075700E+01	  0.105771542	1.680000E+00
430	  0.105971940	-3.414400E+01	  0.105971940	6.720800E+01	  0.105971940	5.073200E+01	  0.105971940	1.836000E+00
431	  0.106172346	-3.536700E+01	  0.106172346	6.397100E+01	  0.106172346	5.072900E+01	  0.106172346	1.554000E+00
432	  0.106372744	-3.489400E+01	  0.106372744	6.736900E+01	  0.106372744	5.066900E+01	  0.106372744	1.684000E+00
433	  0.106573142	-3.523500E+01	  0.106573142	6.567500E+01	  0.106573142	5.069200E+01	  0.106573142	1.599000E+00
434	  0.106773548	-3.460000E+01	  0.106773548	6.988400E+01	  0.106773548	5.061300E+01	  0.106773548	1.770000E+00
435	  0.106973946	-3.407700E+01	  0.106973946	7.244700E+01	  0.106973946	5.056300E+01	  0.106973946	1.907000E+00
436	  0.107174344	-3.392600E+01	  0.107174344	6.580200E+01	  0.107174344	5.079700E+01	  0.107174344	1.865000E+00
437	  0.107374750	-3.426300E+01	  0.107374750	6.522600E+01	  0.107374750	5.078600E+01	  0.107374750	1.785000E+00
438	  0.107575148	-3.422400E+01	  0.107575148	6.841100E+01	  0.107575148	5.068700E+01	  0.107575148	1.833000E+00
439	  0.107775547	-3.480300E+01	  0.107775547	6.846600E+01	  0.107775547	5.064200E+01	  0.107775547	1.714000E+00
440	  0.107975952	-3.440500E+01	  0.107975952	6.999800E+01	  0.107975952	5.062200E+01	  0.107975952	1.812000E+00
441	  0.108176351	-3.403100E+01	  0.108176351	7.006200E+01	  0.108176351	5.064600E+01	  0.108176351	1.893000E+00
442	  0.108376749	-3.507500E+01	  0.108376749	6.584700E+01	  0.108376749	5.070000E+01	  0.108376749	1.631000E+00
443	  0.108577155	-3.431400E+01	  0.108577155	7.351500E+01	  0.108577155	5.051400E+01	  0.108577155	1.864000E+00
444	  0.108777553	-3.423700E+01	  0.108777553	6.670600E+01	  0.108777553	5.074100E+01	  0.108777553	1.810000E+00
445	  0.108977959	-3.454200E+01	  0.108977959	6.241600E+01	  0.108977959	5.084700E+01	  0.108977959	1.690000E+00
446	  0.109178357	-3.365700E+01	  0.109178357	7.003400E+01	  0.109178357	5.067400E+01	  0.109178357	1.977000E+00
447	  0.109378755	-3.325300E+01	  0.109378755	6.723000E+01	  0.109378755	5.080700E+01	  0.109378755	2.038000E+00
448	  0.109579161	-3.365700E+01	  0.109579161	6.994600E+01	  0.109579161	5.067700E+01	  0.109579161	1.976000E+00
449	  0.109779559	-3.293100E+01	  0.109779559	6.688500E+01	  0.109779559	5.084900E+01	  0.109779559	2.111000E+00
450	  0.109979957	-3.389200E+01	  0.109979957	6.381500E+01	  0.109979957	5.086500E+01	  0.109979957	1.845000E+00
451	  0.110180363	-3.402600E+01	  0.110180363	6.358200E+01	  0.110180363	5.086000E+01	  0.110180363	1.812000E+00
452	  0.110380761	-3.354800E+01	  0.110380761	6.118300E+01	  0.110380761	5.098800E+01	  0.110380761	1.878000E+00
453	  0.110581160	-3.437500E+01	  0.110581160	6.392700E+01	  0.110581160	5.081600E+01	  0.110581160	1.745000E+00
454	  0.110781565	-3.393300E+01	  0.110781565	6.421900E+01	  0.110781565	5.084800E+01	  0.110781565	1.841000E+00
455	  0.110981964	-3.421100E+01	  0.110981964	6.174600E+01	  0.110981964	5.090000E+01	  0.110981964	1.746000E+00
456	  0.111182362	-3.405200E+01	  0.111182362	6.432200E+01	  0.111182362	5.083300E+01	  0.111182362	1.817000E+00
457	  0.111382768	-3.278300E+01	  0.111382768	6.536500E+01	  0.111382768	5.092100E+01	  0.111382768	2.125000E+00
458	  0.111583166	-3.392500E+01	  0.111583166	6.497500E+01	  0.111583166	5.082400E+01	  0.111583166	1.854000E+00
459	  0.111783572	-3.277200E+01	  0.111783572	6.592300E+01	  0.111783572	5.090100E+01	  0.111783572	2.137000E+00
460	  0.111983970	-3.304400E+01	  0.111983970	6.316800E+01	  0.111983970	5.097400E+01	  0.111983970	2.027000E+00
461	  0.112184368	-3.419200E+01	  0.112184368	5.794500E+01	  0.112184368	5.101800E+01	  0.112184368	1.688000E+00
462	  0.112384774	-3.407300E+01	  0.112384774	5.690000E+01	  0.112384774	5.106300E+01	  0.112384774	1.693000E+00
463	  0.112585172	-3.348900E+01	  0.112585172	6.348200E+01	  0.112585172	5.091600E+01	  0.112585172	1.928000E+00
464	  0.112785570	-3.345800E+01	  0.112785570	6.376500E+01	  0.112785570	5.091000E+01	  0.112785570	1.940000E+00
465	  0.112985976	-3.331300E+01	  0.112985976	6.550900E+01	  0.112985976	5.086300E+01	  0.112985976	2.000000E+00
466	  0.113186374	-3.326900E+01	  0.113186374	6.293300E+01	  0.113186374	5.095800E+01	  0.113186374	1.970000E+00
467	  0.113386773	-3.342400E+01	  0.113386773	6.422700E+01	  0.113386773	5.089700E+01	  0.113386773	1.955000E+00
468	  0.113587178	-3.348700E+01	  0.113587178	6.225700E+01	  0.113587178	5.095800E+01	  0.113587178	1.909000E+00
469	  0.113787577	-3.371200E+01	  0.113787577	6.051500E+01	  0.113787577	5.099200E+01	  0.113787577	1.831000E+00
470	  0.113987975	-3.348100E+01	  0.113987975	6.401500E+01	  0.113987975	5.089900E+01	  0.113987975	1.939000E+00
471	  0.114188381	-3.310200E+01	  0.114188381	6.129800E+01	  0.114188381	5.103500E+01	  0.114188381	1.981000E+00
472	  0.114388779	-3.336000E+01	  0.114388779	6.332300E+01	  0.114388779	5.093500E+01	  0.114388779	1.955000E+00
473	  0.114589177	-3.379100E+01	  0.114589177	5.594400E+01	  0.114589177	5.112800E+01	  0.114589177	1.732000E+00
474	  0.114789583	-3.309300E+01	  0.114789583	6.029300E+01	  0.114789583	5.107100E+01	  0.114789583	1.965000E+00
475	  0.114989981	-3.312200E+01	  0.114989981	5.807500E+01	  0.114989981	5.114400E+01	  0.114989981	1.917000E+00
476	  0.115190387	-3.287000E+01	  0.115190387	5.785600E+01	  0.115190387	5.118500E+01	  0.115190387	1.970000E+00
477	  0.115390785	-3.306400E+01	  0.115390785	6.304700E+01	  0.115390785	5.097700E+01	  0.115390785	2.020000E+00
478	  0.115591183	-3.288800E+01	  0.115591183	6.050500E+01	  0.115591183	5.108800E+01	  0.115591183	2.017000E+00
479	  0.115791589	-3.336100E+01	  0.115791589	6.213400E+01	  0.115791589	5.097600E+01	  0.115791589	1.936000E+00
480	  0.115991987	-3.283600E+01	  0.115991987	6.075900E+01	  0.115991987	5.108500E+01	  0.115991987	2.034000E+00
481	  0.116192386	-3.258700E+01	  0.116192386	5.863400E+01	  0.116192386	5.119500E+01	  0.116192386	2.053000E+00
482	  0.116392791	-3.253900E+01	  0.116392791	5.886700E+01	  0.116392791	5.119300E+01	  0.116392791	2.069000E+00
483	  0.116593190	-3.254700E+01	  0.116593190	6.634800E+01	  0.116593190	5.090700E+01	  0.116593190	2.200000E+00
484	  0.116793588	-3.288700E+01	  0.116793588	5.696700E+01	  0.116793588	5.121400E+01	  0.116793588	1.948000E+00
485	  0.116993994	-3.283300E+01	  0.116993994	5.951800E+01	  0.116993994	5.113100E+01	  0.116993994	2.012000E+00
486	  0.117194392	-3.270100E+01	  0.117194392	5.855500E+01	  0.117194392	5.118200E+01	  0.117194392	2.024000E+00
487	  0.117394790	-3.275300E+01	  0.117394790	6.076600E+01	  0.117394790	5.109500E+01	  0.117394790	2.054000E+00
488	  0.117595196	-3.294200E+01	  0.117595196	5.742700E+01	  0.117595196	5.119000E+01	  0.117595196	1.945000E+00
489	  0.117795594	-3.294800E+01	  0.117795594	6.107700E+01	  0.117795594	5.106000E+01	  0.117795594	2.013000E+00
490	  0.117995992	-3.304000E+01	  0.117995992	6.001000E+01	  0.117995992	5.108700E+01	  0.117995992	1.972000E+00
491	  0.118196398	-3.284500E+01	  0.118196398	5.962000E+01	  0.118196398	5.112600E+01	  0.118196398	2.011000E+00
492	  0.118396796	-3.234100E+01	  0.118396796	5.932200E+01	  0.118396796	5.120200E+01	  0.118396796	2.128000E+00
493	  0.118597202	-3.223000E+01	  0.118597202	5.872300E+01	  0.118597202	5.124000E+01	  0.118597202	2.143000E+00
494	  0.118797600	-3.261200E+01	  0.118797600	5.966800E+01	  0.118797600	5.115300E+01	  0.118797600	2.068000E+00
495	  0.118997999	-3.199800E+01	  0.118997999	5.410500E+01	  0.118997999	5.145100E+01	  0.118997999	2.095000E+00
496	  0.119198404	-3.259100E+01	  0.119198404	5.657400E+01	  0.119198404	5.126900E+01	  0.119198404	2.009000E+00
497	  0.119398803	-3.235600E+01	  0.119398803	5.697800E+01	  0.119398803	5.128800E+01	  0.119398803	2.074000E+00
498	  0.119599201	-3.259500E+01	  0.119599201	6.115800E+01	  0.119599201	5.110000E+01	  0.119599201	2.100000E+00
499	  0.119799607	-3.218800E+01	  0.119799607	5.627600E+01	  0.119799607	5.133900E+01	  0.119799607	2.100000E+00
500	  0.120000005	-3.297200E+01	  0.120000005	5.667700E+01	  0.120000005	5.121200E+01	  0.120000005	1.922000E+00
