! Anritsu VNA Master:             	Model: MS2036C/10/77
! SN:             	1601066
! /card0/usr/18may12.lna.rl/256b.swout.hot.txt
! Existing Calibration Information:
! TYPE:             	Current Settings	Active Cal Settings
! TIME:             	05/13/2018 01:59:38 PM	05/13/2018 01:55:30 PM
! INTERNAL TEMP:    	51.3 C	51.5 C
! # POINTS:         	500	500
! START FREQ:       	20.000 MHz	20.000 MHz
! STOP FREQ:        	120.000 MHz	120.000 MHz
! SOURCE POWER:     	Low	Low
! IFBW:             	10 Hz	10 Hz
! AVG FACTOR:       	  1 	  1 
! REF PLANE 1:      	0 mm	0 mm
! REF PLANE 2:      	0 mm	0 mm
! CAL TYPE:         	Full S22	Full S22
! CAL METHOD:       	SOLT	SOLT
! CAL LINE TYPE:    	Coax	Coax
! DUT PORT 1:       	K-Conn(M)	K-Conn(M)
! DUT PORT 2:       	K-Conn(M)	K-Conn(M)
! CAL STATUS:       	OK: Accuracy High	--
! PROP-V:       	0.700
! CABLE LOSS:       	0.000 dB/m
! REF IMPEDANCE:       	50.0
! Trace Specific Parameters:	TR1	TR2	TR3	TR4
! TRACE.#.Y (GRAPH TYPE)	LOG MAG	PHASE	REAL IMPEDANCE	IMAGINARY IMPEDANCE
! TRACE.#.X 	FREQ.GHZ	FREQ.GHZ	FREQ.GHZ	FREQ.GHZ
! S-PARAMETER	S22	S22	S22	S22
! SMOOTH/APERTURE %	0	0	0	0
! WINDOW	NSL	NSL	NSL	NSL
! GATING	OFF	OFF	OFF	OFF
! FGTD	OFF	OFF	OFF	OFF
Marker Information per Trace:	TR1	TR2	TR3	TR4
!MK1	--	"MK1 TR2:  12.585 170 MHz,##.##"	--	--
!MK2	--	--	"MK2 TR3:  360.721 kHz,##.##"	--
!MK3	--	--	--	--
!MK4	--	--	--	--
!MK5	--	--	--	--
!MK6	--	--	--	--
!MK7	--	--	--	--
!MK8	--	--	--	--
PNT	TR1.FREQ.GHZ	TR1.LOG MAG.dB	TR2.FREQ.GHZ	TR2.PHASE.deg	TR3.FREQ.GHZ	TR3.REAL IMPEDANCE.ohm	TR4.FREQ.GHZ	TR4.IMAGINARY IMPEDANCE.ohm
1	  0.020000000	-3.804600E+01	  0.020000000	-4.500500E+01	  0.020000000	5.088500E+01	  0.020000000	-9.010000E-01
2	  0.020200402	-3.832300E+01	  0.020200402	-4.611000E+01	  0.020200402	5.084000E+01	  0.020200402	-8.880000E-01
3	  0.020400802	-3.884100E+01	  0.020400802	-4.109300E+01	  0.020400802	5.086200E+01	  0.020400802	-7.640000E-01
4	  0.020601204	-3.920700E+01	  0.020601204	-4.174900E+01	  0.020601204	5.081800E+01	  0.020601204	-7.410000E-01
5	  0.020801604	-4.030800E+01	  0.020801604	-4.311600E+01	  0.020801604	5.070500E+01	  0.020801604	-6.680000E-01
6	  0.021002004	-3.909500E+01	  0.021002004	-4.092000E+01	  0.021002004	5.084000E+01	  0.021002004	-7.390000E-01
7	  0.021202406	-3.877500E+01	  0.021202406	-4.456800E+01	  0.021202406	5.082000E+01	  0.021202406	-8.210000E-01
8	  0.021402806	-4.006400E+01	  0.021402806	-4.771900E+01	  0.021402806	5.066600E+01	  0.021402806	-7.440000E-01
9	  0.021603208	-4.025800E+01	  0.021603208	-4.476000E+01	  0.021603208	5.068900E+01	  0.021603208	-6.930000E-01
10	  0.021803608	-3.868700E+01	  0.021803608	-4.517000E+01	  0.021803608	5.081900E+01	  0.021803608	-8.380000E-01
11	  0.022004008	-4.023800E+01	  0.022004008	-4.098000E+01	  0.022004008	5.073500E+01	  0.022004008	-6.470000E-01
12	  0.022204408	-4.000700E+01	  0.022204408	-4.331800E+01	  0.022204408	5.072700E+01	  0.022204408	-6.950000E-01
13	  0.022404809	-3.999300E+01	  0.022404809	-5.015800E+01	  0.022404809	5.063900E+01	  0.022404809	-7.780000E-01
14	  0.022605211	-3.937300E+01	  0.022605211	-4.977200E+01	  0.022605211	5.069200E+01	  0.022605211	-8.320000E-01
15	  0.022805611	-3.981600E+01	  0.022805611	-4.792300E+01	  0.022805611	5.068300E+01	  0.022805611	-7.680000E-01
16	  0.023006011	-3.964400E+01	  0.023006011	-4.580600E+01	  0.023006011	5.072500E+01	  0.023006011	-7.570000E-01
17	  0.023206413	-4.075900E+01	  0.023206413	-4.843800E+01	  0.023206413	5.060600E+01	  0.023206413	-6.930000E-01
18	  0.023406813	-4.108000E+01	  0.023406813	-4.970500E+01	  0.023406813	5.056900E+01	  0.023406813	-6.810000E-01
19	  0.023607215	-4.027700E+01	  0.023607215	-4.767700E+01	  0.023607215	5.065100E+01	  0.023607215	-7.250000E-01
20	  0.023807615	-4.074600E+01	  0.023807615	-5.069800E+01	  0.023807615	5.057900E+01	  0.023807615	-7.180000E-01
21	  0.024008015	-4.055900E+01	  0.024008015	-4.564200E+01	  0.024008015	5.065500E+01	  0.024008015	-6.790000E-01
22	  0.024208417	-3.934000E+01	  0.024208417	-5.046400E+01	  0.024208417	5.068400E+01	  0.024208417	-8.430000E-01
23	  0.024408817	-4.164900E+01	  0.024408817	-4.868400E+01	  0.024408817	5.054500E+01	  0.024408817	-6.270000E-01
24	  0.024609219	-4.130500E+01	  0.024609219	-4.637100E+01	  0.024609219	5.059300E+01	  0.024609219	-6.300000E-01
25	  0.024809619	-4.230000E+01	  0.024809619	-5.000500E+01	  0.024809619	5.049200E+01	  0.024809619	-5.930000E-01
26	  0.025010020	-4.171700E+01	  0.025010020	-4.829400E+01	  0.025010020	5.054500E+01	  0.025010020	-6.190000E-01
27	  0.025210422	-4.105600E+01	  0.025210422	-4.868400E+01	  0.025210422	5.058300E+01	  0.025210422	-6.720000E-01
28	  0.025410822	-4.139700E+01	  0.025410822	-5.853700E+01	  0.025410822	5.044100E+01	  0.025410822	-7.320000E-01
29	  0.025611224	-4.123000E+01	  0.025611224	-4.807800E+01	  0.025611224	5.057800E+01	  0.025611224	-6.530000E-01
30	  0.025811624	-4.121200E+01	  0.025811624	-4.547700E+01	  0.025811624	5.060900E+01	  0.025811624	-6.270000E-01
31	  0.026012026	-4.126400E+01	  0.026012026	-4.749800E+01	  0.026012026	5.058300E+01	  0.026012026	-6.440000E-01
32	  0.026212426	-4.146700E+01	  0.026212426	-4.460800E+01	  0.026212426	5.060100E+01	  0.026212426	-6.000000E-01
33	  0.026412826	-4.208100E+01	  0.026412826	-5.088000E+01	  0.026412826	5.049500E+01	  0.026412826	-6.160000E-01
34	  0.026613226	-4.157300E+01	  0.026613226	-4.634300E+01	  0.026613226	5.057500E+01	  0.026613226	-6.100000E-01
35	  0.026813626	-4.282100E+01	  0.026813626	-4.972100E+01	  0.026813626	5.046600E+01	  0.026813626	-5.560000E-01
36	  0.027014028	-4.202300E+01	  0.027014028	-4.849800E+01	  0.027014028	5.052400E+01	  0.027014028	-5.990000E-01
37	  0.027214428	-4.242300E+01	  0.027214428	-4.843300E+01	  0.027214428	5.050100E+01	  0.027214428	-5.710000E-01
38	  0.027414829	-4.342900E+01	  0.027414829	-5.481300E+01	  0.027414829	5.038600E+01	  0.027414829	-5.540000E-01
39	  0.027615231	-4.213300E+01	  0.027615231	-5.398100E+01	  0.027615231	5.045800E+01	  0.027615231	-6.380000E-01
40	  0.027815631	-4.328400E+01	  0.027815631	-5.053000E+01	  0.027815631	5.043400E+01	  0.027815631	-5.330000E-01
41	  0.028016033	-4.284900E+01	  0.028016033	-5.512900E+01	  0.028016033	5.040900E+01	  0.028016033	-5.950000E-01
42	  0.028216433	-4.341500E+01	  0.028216433	-5.132800E+01	  0.028216433	5.042000E+01	  0.028216433	-5.310000E-01
43	  0.028416833	-4.327700E+01	  0.028416833	-4.881100E+01	  0.028416833	5.045000E+01	  0.028416833	-5.200000E-01
44	  0.028617235	-4.350100E+01	  0.028617235	-5.302400E+01	  0.028617235	5.040000E+01	  0.028617235	-5.380000E-01
45	  0.028817635	-4.370200E+01	  0.028817635	-5.104300E+01	  0.028817635	5.040900E+01	  0.028817635	-5.110000E-01
46	  0.029018037	-4.316000E+01	  0.029018037	-4.949500E+01	  0.029018037	5.045000E+01	  0.029018037	-5.330000E-01
47	  0.029218437	-4.340400E+01	  0.029218437	-4.630900E+01	  0.029218437	5.046600E+01	  0.029218437	-4.930000E-01
48	  0.029418837	-4.340300E+01	  0.029418837	-5.049800E+01	  0.029418837	5.042800E+01	  0.029418837	-5.250000E-01
49	  0.029619239	-4.301600E+01	  0.029619239	-5.105600E+01	  0.029619239	5.044300E+01	  0.029619239	-5.540000E-01
50	  0.029819639	-4.378900E+01	  0.029819639	-4.400500E+01	  0.029819639	5.046500E+01	  0.029819639	-4.530000E-01
51	  0.030020041	-4.445500E+01	  0.030020041	-5.281300E+01	  0.030020041	5.036000E+01	  0.030020041	-4.800000E-01
52	  0.030220442	-4.327500E+01	  0.030220442	-4.535800E+01	  0.030220442	5.048100E+01	  0.030220442	-4.920000E-01
53	  0.030420844	-4.415100E+01	  0.030420844	-4.221000E+01	  0.030420844	5.045900E+01	  0.030420844	-4.200000E-01
54	  0.030621244	-4.491300E+01	  0.030621244	-4.679300E+01	  0.030621244	5.038800E+01	  0.030621244	-4.170000E-01
55	  0.030821644	-4.299700E+01	  0.030821644	-4.338900E+01	  0.030821644	5.051400E+01	  0.030821644	-4.910000E-01
56	  0.031022044	-4.514200E+01	  0.031022044	-5.281600E+01	  0.031022044	5.033300E+01	  0.031022044	-4.430000E-01
57	  0.031222444	-4.630500E+01	  0.031222444	-3.860100E+01	  0.031222444	5.037800E+01	  0.031222444	-3.040000E-01
58	  0.031422846	-4.391700E+01	  0.031422846	-5.906700E+01	  0.031422846	5.032500E+01	  0.031422846	-5.490000E-01
59	  0.031623244	-4.576500E+01	  0.031623244	-4.954000E+01	  0.031623244	5.033300E+01	  0.031623244	-3.940000E-01
60	  0.031823646	-4.508500E+01	  0.031823646	-5.205800E+01	  0.031823646	5.034100E+01	  0.031823646	-4.420000E-01
61	  0.032024048	-4.538900E+01	  0.032024048	-4.220900E+01	  0.032024048	5.039800E+01	  0.032024048	-3.640000E-01
62	  0.032224450	-4.480400E+01	  0.032224450	-5.026000E+01	  0.032224450	5.036700E+01	  0.032224450	-4.450000E-01
63	  0.032424849	-4.591800E+01	  0.032424849	-4.796200E+01	  0.032424849	5.033800E+01	  0.032424849	-3.780000E-01
64	  0.032625251	-4.479500E+01	  0.032625251	-4.258400E+01	  0.032625251	5.042400E+01	  0.032625251	-3.920000E-01
65	  0.032825653	-4.621500E+01	  0.032825653	-4.241200E+01	  0.032825653	5.036100E+01	  0.032825653	-3.320000E-01
66	  0.033026051	-4.650100E+01	  0.033026051	-6.584000E+01	  0.033026051	5.019200E+01	  0.033026051	-4.330000E-01
67	  0.033226453	-4.618600E+01	  0.033226453	-4.968500E+01	  0.033226453	5.031600E+01	  0.033226453	-3.760000E-01
68	  0.033426855	-4.591600E+01	  0.033426855	-3.994500E+01	  0.033426855	5.038800E+01	  0.033426855	-3.270000E-01
69	  0.033627257	-4.573800E+01	  0.033627257	-4.445600E+01	  0.033627257	5.036800E+01	  0.033627257	-3.640000E-01
70	  0.033827655	-4.691400E+01	  0.033827655	-4.523200E+01	  0.033827655	5.031700E+01	  0.033827655	-3.220000E-01
71	  0.034028057	-4.801300E+01	  0.034028057	-3.493200E+01	  0.034028057	5.032600E+01	  0.034028057	-2.290000E-01
72	  0.034228459	-4.554800E+01	  0.034228459	-3.656600E+01	  0.034228459	5.042400E+01	  0.034228459	-3.170000E-01
73	  0.034428857	-4.763200E+01	  0.034428857	-5.473500E+01	  0.034428857	5.023900E+01	  0.034428857	-3.400000E-01
74	  0.034629259	-4.806100E+01	  0.034629259	-4.074000E+01	  0.034629259	5.029900E+01	  0.034629259	-2.590000E-01
75	  0.034829661	-4.634200E+01	  0.034829661	-4.451300E+01	  0.034829661	5.034300E+01	  0.034829661	-3.400000E-01
76	  0.035030060	-4.779100E+01	  0.035030060	-4.017400E+01	  0.035030060	5.031100E+01	  0.035030060	-2.640000E-01
77	  0.035230462	-4.768300E+01	  0.035230462	-4.102800E+01	  0.035230462	5.031100E+01	  0.035230462	-2.720000E-01
78	  0.035430863	-4.639000E+01	  0.035430863	-3.779200E+01	  0.035430863	5.037900E+01	  0.035430863	-2.950000E-01
79	  0.035631265	-4.814400E+01	  0.035631265	-4.089600E+01	  0.035631265	5.029600E+01	  0.035631265	-2.570000E-01
80	  0.035831664	-4.964100E+01	  0.035831664	-3.951500E+01	  0.035831664	5.025400E+01	  0.035831664	-2.100000E-01
81	  0.036032066	-4.927500E+01	  0.036032066	-4.812400E+01	  0.036032066	5.022900E+01	  0.036032066	-2.570000E-01
82	  0.036232468	-4.755900E+01	  0.036232468	-3.781700E+01	  0.036232468	5.033100E+01	  0.036232468	-2.580000E-01
83	  0.036432866	-4.895700E+01	  0.036432866	-4.394600E+01	  0.036432866	5.025600E+01	  0.036432866	-2.480000E-01
84	  0.036633268	-4.715900E+01	  0.036633268	-3.334300E+01	  0.036633268	5.036700E+01	  0.036633268	-2.420000E-01
85	  0.036833670	-4.663200E+01	  0.036833670	-3.021800E+01	  0.036833670	5.040300E+01	  0.036833670	-2.360000E-01
86	  0.037034072	-4.972200E+01	  0.037034072	-2.418800E+01	  0.037034072	5.029800E+01	  0.037034072	-1.340000E-01
87	  0.037234470	-4.713600E+01	  0.037234470	-2.523300E+01	  0.037234470	5.039800E+01	  0.037234470	-1.880000E-01
88	  0.037434869	-4.989900E+01	  0.037434869	-4.248800E+01	  0.037434869	5.023500E+01	  0.037434869	-2.170000E-01
89	  0.037635271	-5.127100E+01	  0.037635271	-3.231400E+01	  0.037635271	5.023100E+01	  0.037635271	-1.460000E-01
90	  0.037835669	-4.711900E+01	  0.037835669	-3.568100E+01	  0.037835669	5.035800E+01	  0.037835669	-2.580000E-01
91	  0.038036071	-5.020600E+01	  0.038036071	-3.045200E+01	  0.038036071	5.026600E+01	  0.038036071	-1.570000E-01
92	  0.038236473	-5.099700E+01	  0.038236473	-3.606700E+01	  0.038236473	5.022800E+01	  0.038236473	-1.660000E-01
93	  0.038436871	-5.213900E+01	  0.038436871	-3.736600E+01	  0.038436871	5.019600E+01	  0.038436871	-1.500000E-01
94	  0.038637273	-4.948200E+01	  0.038637273	-4.028200E+01	  0.038637273	5.025600E+01	  0.038637273	-2.180000E-01
95	  0.038837675	-4.775800E+01	  0.038837675	-4.511200E+01	  0.038837675	5.028800E+01	  0.038837675	-2.910000E-01
96	  0.039038073	-5.614400E+01	  0.039038073	-9.830000E+00	  0.039038073	5.015300E+01	  0.039038073	-2.600000E-02
97	  0.039238475	-5.425700E+01	  0.039238475	-2.646000E+01	  0.039238475	5.017300E+01	  0.039238475	-8.600000E-02
98	  0.039438877	-5.392200E+01	  0.039438877	3.482000E+00	  0.039438877	5.020100E+01	  0.039438877	1.200000E-02
99	  0.039639279	-5.896500E+01	  0.039639279	-2.882800E+01	  0.039639279	5.009800E+01	  0.039639279	-5.400000E-02
100	  0.039839678	-5.186600E+01	  0.039839678	5.193000E+00	  0.039839678	5.025400E+01	  0.039839678	2.300000E-02
101	  0.040040080	-5.066100E+01	  0.040040080	-1.711700E+01	  0.040040080	5.028000E+01	  0.040040080	-8.600000E-02
102	  0.040240481	-5.403500E+01	  0.040240481	-2.112200E+01	  0.040240481	5.018500E+01	  0.040240481	-7.100000E-02
103	  0.040440880	-5.039100E+01	  0.040440880	-7.676000E+00	  0.040440880	5.030000E+01	  0.040440880	-4.000000E-02
104	  0.040641282	-5.349400E+01	  0.040641282	-3.558200E+01	  0.040641282	5.017200E+01	  0.040641282	-1.230000E-01
105	  0.040841684	-4.945500E+01	  0.040841684	-4.349300E+01	  0.040841684	5.024400E+01	  0.040841684	-2.320000E-01
106	  0.041042086	-5.721000E+01	  0.041042086	-4.953400E+01	  0.041042086	5.008900E+01	  0.041042086	-1.050000E-01
107	  0.041242484	-5.199400E+01	  0.041242484	-3.615200E+01	  0.041242484	5.020300E+01	  0.041242484	-1.480000E-01
108	  0.041442886	-5.309900E+01	  0.041442886	-1.877300E+01	  0.041442886	5.020900E+01	  0.041442886	-7.100000E-02
109	  0.041643288	-5.264700E+01	  0.041643288	-2.507900E+01	  0.041643288	5.021100E+01	  0.041643288	-9.900000E-02
110	  0.041843686	-5.579300E+01	  0.041843686	-4.078100E+01	  0.041843686	5.012200E+01	  0.041843686	-1.060000E-01
111	  0.042044088	-5.699200E+01	  0.042044088	-5.142000E+00	  0.042044088	5.014100E+01	  0.042044088	-1.200000E-02
112	  0.042244490	-5.258800E+01	  0.042244490	-3.959800E+01	  0.042244490	5.018000E+01	  0.042244490	-1.500000E-01
113	  0.042444889	-5.784300E+01	  0.042444889	-1.103800E+01	  0.042444889	5.012500E+01	  0.042444889	-2.400000E-02
114	  0.042645290	-5.357200E+01	  0.042645290	2.619600E+01	  0.042645290	5.018800E+01	  0.042645290	9.200000E-02
115	  0.042845692	-5.352200E+01	  0.042845692	3.116300E+01	  0.042845692	5.018000E+01	  0.042845692	1.090000E-01
116	  0.043046094	-5.100600E+01	  0.043046094	-5.189000E+00	  0.043046094	5.028100E+01	  0.043046094	-2.500000E-02
117	  0.043246493	-5.187000E+01	  0.043246493	1.159200E+01	  0.043246493	5.025000E+01	  0.043246493	5.100000E-02
118	  0.043446895	-5.721200E+01	  0.043446895	4.936000E+00	  0.043446895	5.013700E+01	  0.043446895	1.100000E-02
119	  0.043647297	-5.169700E+01	  0.043647297	1.294600E+01	  0.043647297	5.025400E+01	  0.043647297	5.800000E-02
120	  0.043847695	-5.090300E+01	  0.043847695	-3.285000E+00	  0.043847695	5.028500E+01	  0.043847695	-1.600000E-02
121	  0.044048097	-4.977000E+01	  0.044048097	1.048900E+01	  0.044048097	5.032000E+01	  0.044048097	5.900000E-02
122	  0.044248499	-5.050300E+01	  0.044248499	1.231000E+00	  0.044248499	5.029900E+01	  0.044248499	6.000000E-03
123	  0.044448901	-5.084600E+01	  0.044448901	3.493500E+01	  0.044448901	5.023500E+01	  0.044448901	1.650000E-01
124	  0.044649299	-5.223300E+01	  0.044649299	3.591900E+01	  0.044649299	5.019800E+01	  0.044649299	1.440000E-01
125	  0.044849701	-5.122700E+01	  0.044849701	1.938200E+01	  0.044849701	5.025900E+01	  0.044849701	9.100000E-02
126	  0.045050103	-5.064400E+01	  0.045050103	1.887800E+01	  0.045050103	5.027800E+01	  0.045050103	9.500000E-02
127	  0.045250501	-5.003600E+01	  0.045250501	3.780900E+01	  0.045250501	5.024900E+01	  0.045250501	1.940000E-01
128	  0.045450903	-5.380900E+01	  0.045450903	2.053300E+01	  0.045450903	5.019100E+01	  0.045450903	7.100000E-02
129	  0.045651305	-5.282600E+01	  0.045651305	2.479200E+01	  0.045651305	5.020700E+01	  0.045651305	9.600000E-02
130	  0.045851704	-4.900400E+01	  0.045851704	1.260000E+01	  0.045851704	5.034700E+01	  0.045851704	7.700000E-02
131	  0.046052106	-5.059500E+01	  0.046052106	4.835300E+01	  0.046052106	5.019600E+01	  0.046052106	2.210000E-01
132	  0.046252504	-5.200500E+01	  0.046252504	5.935700E+01	  0.046252504	5.012700E+01	  0.046252504	2.160000E-01
133	  0.046452906	-5.002700E+01	  0.046452906	8.635000E+00	  0.046452906	5.031200E+01	  0.046452906	4.700000E-02
134	  0.046653304	-5.021600E+01	  0.046653304	2.007900E+01	  0.046653304	5.029000E+01	  0.046653304	1.060000E-01
135	  0.046853706	-5.280000E+01	  0.046853706	3.312700E+01	  0.046853706	5.019200E+01	  0.046853706	1.250000E-01
136	  0.047054108	-4.906500E+01	  0.047054108	1.689200E+01	  0.047054108	5.033700E+01	  0.047054108	1.030000E-01
137	  0.047254506	-5.118200E+01	  0.047254506	4.856900E+01	  0.047254506	5.018200E+01	  0.047254506	2.070000E-01
138	  0.047454908	-5.210600E+01	  0.047454908	6.197400E+01	  0.047454908	5.011600E+01	  0.047454908	2.190000E-01
139	  0.047655310	-5.099700E+01	  0.047655310	4.122400E+01	  0.047655310	5.021200E+01	  0.047655310	1.860000E-01
140	  0.047855709	-5.053500E+01	  0.047855709	2.830700E+01	  0.047855709	5.026200E+01	  0.047855709	1.410000E-01
141	  0.048056111	-5.379700E+01	  0.048056111	1.658200E+01	  0.048056111	5.019600E+01	  0.048056111	5.800000E-02
142	  0.048256513	-4.997100E+01	  0.048256513	4.314300E+01	  0.048256513	5.023100E+01	  0.048256513	2.170000E-01
143	  0.048456915	-4.851400E+01	  0.048456915	4.006800E+01	  0.048456915	5.028700E+01	  0.048456915	2.420000E-01
144	  0.048657313	-5.079500E+01	  0.048657313	2.372000E+01	  0.048657313	5.026400E+01	  0.048657313	1.160000E-01
145	  0.048857715	-5.124100E+01	  0.048857715	7.201100E+01	  0.048857715	5.008400E+01	  0.048857715	2.610000E-01
146	  0.049058117	-5.001600E+01	  0.049058117	1.581500E+01	  0.049058117	5.030400E+01	  0.049058117	8.600000E-02
147	  0.049258515	-5.324800E+01	  0.049258515	4.122500E+01	  0.049258515	5.016300E+01	  0.049258515	1.430000E-01
148	  0.049458917	-5.135600E+01	  0.049458917	4.746100E+01	  0.049458917	5.018200E+01	  0.049458917	2.000000E-01
149	  0.049659319	-5.011900E+01	  0.049659319	4.842100E+01	  0.049659319	5.020600E+01	  0.049659319	2.340000E-01
150	  0.049859721	-5.162300E+01	  0.049859721	4.335100E+01	  0.049859721	5.019000E+01	  0.049859721	1.800000E-01
151	  0.050060119	-4.900100E+01	  0.050060119	5.886800E+01	  0.050060119	5.018200E+01	  0.050060119	3.040000E-01
152	  0.050260521	-4.947900E+01	  0.050260521	5.315300E+01	  0.050260521	5.020100E+01	  0.050260521	2.690000E-01
153	  0.050460923	-5.011900E+01	  0.050460923	3.937100E+01	  0.050460923	5.024100E+01	  0.050460923	1.980000E-01
154	  0.050661322	-4.950000E+01	  0.050661322	5.247800E+01	  0.050661322	5.020300E+01	  0.050661322	2.660000E-01
155	  0.050861724	-5.032900E+01	  0.050861724	6.364600E+01	  0.050861724	5.013400E+01	  0.050861724	2.730000E-01
156	  0.051062126	-4.804700E+01	  0.051062126	5.100500E+01	  0.051062126	5.024800E+01	  0.051062126	3.090000E-01
157	  0.051262524	-4.962000E+01	  0.051262524	8.085000E+01	  0.051262524	5.005100E+01	  0.051262524	3.260000E-01
158	  0.051462926	-4.826400E+01	  0.051462926	4.346600E+01	  0.051462926	5.028000E+01	  0.051462926	2.670000E-01
159	  0.051663328	-4.532300E+01	  0.051663328	6.093800E+01	  0.051663328	5.026100E+01	  0.051663328	4.760000E-01
160	  0.051863730	-4.731200E+01	  0.051863730	4.849000E+01	  0.051863730	5.028500E+01	  0.051863730	3.240000E-01
161	  0.052064128	-4.675400E+01	  0.052064128	5.854500E+01	  0.052064128	5.023800E+01	  0.052064128	3.930000E-01
162	  0.052264530	-4.785700E+01	  0.052264530	5.711700E+01	  0.052264530	5.021900E+01	  0.052264530	3.410000E-01
163	  0.052464932	-4.749400E+01	  0.052464932	4.961600E+01	  0.052464932	5.027300E+01	  0.052464932	3.230000E-01
164	  0.052665330	-4.645600E+01	  0.052665330	6.359500E+01	  0.052665330	5.021000E+01	  0.052665330	4.270000E-01
165	  0.052865732	-4.562400E+01	  0.052865732	6.368600E+01	  0.052865732	5.023000E+01	  0.052865732	4.710000E-01
166	  0.053066134	-4.688000E+01	  0.053066134	6.285200E+01	  0.053066134	5.020500E+01	  0.053066134	4.040000E-01
167	  0.053266536	-4.740300E+01	  0.053266536	5.671200E+01	  0.053266536	5.023300E+01	  0.053266536	3.580000E-01
168	  0.053466935	-4.732000E+01	  0.053466935	6.101600E+01	  0.053466935	5.020700E+01	  0.053466935	3.780000E-01
169	  0.053667337	-4.929400E+01	  0.053667337	8.345000E+01	  0.053667337	5.003700E+01	  0.053667337	3.410000E-01
170	  0.053867739	-4.664100E+01	  0.053867739	5.830600E+01	  0.053867739	5.024300E+01	  0.053867739	3.980000E-01
171	  0.054068137	-4.760700E+01	  0.054068137	6.746100E+01	  0.054068137	5.015800E+01	  0.054068137	3.850000E-01
172	  0.054268539	-4.649100E+01	  0.054268539	6.122200E+01	  0.054268539	5.022600E+01	  0.054268539	4.160000E-01
173	  0.054468941	-4.690300E+01	  0.054468941	6.310800E+01	  0.054468941	5.020300E+01	  0.054468941	4.040000E-01
174	  0.054669339	-4.669400E+01	  0.054669339	5.732100E+01	  0.054669339	5.024800E+01	  0.054669339	3.910000E-01
175	  0.054869737	-4.618900E+01	  0.054869737	6.944900E+01	  0.054869737	5.017000E+01	  0.054869737	4.600000E-01
176	  0.055070139	-4.700200E+01	  0.055070139	6.410000E+01	  0.055070139	5.019300E+01	  0.055070139	4.030000E-01
177	  0.055270538	-4.581600E+01	  0.055270538	6.532700E+01	  0.055270538	5.021100E+01	  0.055270538	4.670000E-01
178	  0.055470940	-4.508100E+01	  0.055470940	5.750700E+01	  0.055470940	5.029700E+01	  0.055470940	4.720000E-01
179	  0.055671342	-4.722500E+01	  0.055671342	6.564000E+01	  0.055671342	5.017800E+01	  0.055671342	3.970000E-01
180	  0.055871744	-4.555100E+01	  0.055871744	6.742000E+01	  0.055871744	5.020000E+01	  0.055871744	4.890000E-01
181	  0.056072142	-4.641900E+01	  0.056072142	6.902100E+01	  0.056072142	5.016900E+01	  0.056072142	4.470000E-01
182	  0.056272544	-4.505300E+01	  0.056272544	6.145500E+01	  0.056272544	5.026500E+01	  0.056272544	4.930000E-01
183	  0.056472946	-4.568500E+01	  0.056472946	5.385400E+01	  0.056472946	5.030500E+01	  0.056472946	4.220000E-01
184	  0.056673344	-4.510000E+01	  0.056673344	7.149100E+01	  0.056673344	5.017300E+01	  0.056673344	5.280000E-01
185	  0.056873746	-4.604100E+01	  0.056873746	6.133700E+01	  0.056873746	5.023700E+01	  0.056873746	4.390000E-01
186	  0.057074148	-4.491800E+01	  0.057074148	6.182900E+01	  0.057074148	5.026600E+01	  0.057074148	5.030000E-01
187	  0.057274550	-4.478800E+01	  0.057274550	6.754700E+01	  0.057274550	5.021700E+01	  0.057274550	5.340000E-01
188	  0.057474948	-4.472400E+01	  0.057474948	6.648600E+01	  0.057474948	5.022900E+01	  0.057474948	5.340000E-01
189	  0.057675350	-4.474200E+01	  0.057675350	7.446200E+01	  0.057675350	5.015200E+01	  0.057675350	5.590000E-01
190	  0.057875752	-4.477500E+01	  0.057875752	6.491100E+01	  0.057875752	5.024200E+01	  0.057875752	5.250000E-01
191	  0.058076151	-4.473200E+01	  0.058076151	6.111700E+01	  0.058076151	5.027800E+01	  0.058076151	5.100000E-01
192	  0.058276553	-4.494200E+01	  0.058276553	7.062800E+01	  0.058276553	5.018500E+01	  0.058276553	5.360000E-01
193	  0.058476955	-4.373200E+01	  0.058476955	7.686900E+01	  0.058476955	5.014300E+01	  0.058476955	6.350000E-01
194	  0.058677353	-4.342500E+01	  0.058677353	7.296200E+01	  0.058677353	5.019300E+01	  0.058677353	6.470000E-01
195	  0.058877755	-4.503100E+01	  0.058877755	6.850300E+01	  0.058877755	5.020300E+01	  0.058877755	5.230000E-01
196	  0.059078157	-4.371000E+01	  0.059078157	5.714400E+01	  0.059078157	5.035200E+01	  0.059078157	5.510000E-01
197	  0.059278559	-4.368700E+01	  0.059278559	6.445600E+01	  0.059278559	5.027900E+01	  0.059278559	5.930000E-01
198	  0.059478957	-4.407100E+01	  0.059478957	7.240500E+01	  0.059478957	5.018500E+01	  0.059478957	5.980000E-01
199	  0.059679359	-4.435900E+01	  0.059679359	6.823100E+01	  0.059679359	5.022100E+01	  0.059679359	5.640000E-01
200	  0.059879761	-4.282700E+01	  0.059879761	7.212700E+01	  0.059879761	5.021700E+01	  0.059879761	6.900000E-01
201	  0.060080159	-4.407700E+01	  0.060080159	6.623700E+01	  0.060080159	5.024900E+01	  0.060080159	5.750000E-01
202	  0.060280561	-4.331900E+01	  0.060280561	7.305600E+01	  0.060280561	5.019400E+01	  0.060280561	6.550000E-01
203	  0.060480963	-4.341200E+01	  0.060480963	6.590700E+01	  0.060480963	5.027200E+01	  0.060480963	6.190000E-01
204	  0.060681365	-4.346600E+01	  0.060681365	6.641400E+01	  0.060681365	5.026500E+01	  0.060681365	6.180000E-01
205	  0.060881764	-4.365400E+01	  0.060881764	6.379200E+01	  0.060881764	5.028700E+01	  0.060881764	5.920000E-01
206	  0.061082166	-4.449300E+01	  0.061082166	6.919200E+01	  0.061082166	5.020900E+01	  0.061082166	5.590000E-01
207	  0.061282568	-4.192600E+01	  0.061282568	6.770000E+01	  0.061282568	5.029900E+01	  0.061282568	7.450000E-01
208	  0.061482966	-4.324600E+01	  0.061482966	6.850100E+01	  0.061482966	5.024800E+01	  0.061482966	6.430000E-01
209	  0.061683368	-4.394800E+01	  0.061683368	6.770600E+01	  0.061683368	5.023700E+01	  0.061683368	5.900000E-01
210	  0.061883770	-4.155500E+01	  0.061883770	6.711700E+01	  0.061883770	5.032000E+01	  0.061883770	7.750000E-01
211	  0.062084168	-4.207900E+01	  0.062084168	6.066800E+01	  0.062084168	5.038200E+01	  0.062084168	6.910000E-01
212	  0.062284570	-4.295200E+01	  0.062284570	6.498900E+01	  0.062284570	5.029700E+01	  0.062284570	6.480000E-01
213	  0.062484972	-4.156100E+01	  0.062484972	6.513000E+01	  0.062484972	5.034600E+01	  0.062484972	7.630000E-01
214	  0.062685370	-4.243200E+01	  0.062685370	7.703200E+01	  0.062685370	5.016400E+01	  0.062685370	7.380000E-01
215	  0.062885776	-4.308600E+01	  0.062885776	7.171100E+01	  0.062885776	5.021500E+01	  0.062885776	6.680000E-01
216	  0.063086174	-4.128400E+01	  0.063086174	6.350300E+01	  0.063086174	5.038000E+01	  0.063086174	7.770000E-01
217	  0.063286573	-4.280900E+01	  0.063286573	7.125300E+01	  0.063286573	5.022800E+01	  0.063286573	6.880000E-01
218	  0.063486971	-4.335500E+01	  0.063486971	6.138400E+01	  0.063486971	5.032200E+01	  0.063486971	6.000000E-01
219	  0.063687377	-4.073600E+01	  0.063687377	7.275200E+01	  0.063687377	5.026500E+01	  0.063687377	8.820000E-01
220	  0.063887775	-4.258300E+01	  0.063887775	6.632200E+01	  0.063887775	5.029400E+01	  0.063887775	6.840000E-01
221	  0.064088173	-4.221100E+01	  0.064088173	6.715100E+01	  0.064088173	5.029600E+01	  0.064088173	7.180000E-01
222	  0.064288579	-4.119100E+01	  0.064288579	7.042900E+01	  0.064288579	5.028600E+01	  0.064288579	8.260000E-01
223	  0.064488977	-4.183200E+01	  0.064488977	6.729100E+01	  0.064488977	5.030700E+01	  0.064488977	7.510000E-01
224	  0.064689375	-4.131300E+01	  0.064689375	6.749400E+01	  0.064689375	5.032300E+01	  0.064689375	7.990000E-01
225	  0.064889781	-4.219100E+01	  0.064889781	7.116600E+01	  0.064889781	5.024600E+01	  0.064889781	7.390000E-01
226	  0.065090179	-4.009200E+01	  0.065090179	7.212000E+01	  0.065090179	5.029500E+01	  0.065090179	9.470000E-01
227	  0.065290578	-4.190500E+01	  0.065290578	6.756600E+01	  0.065290578	5.030100E+01	  0.065290578	7.460000E-01
228	  0.065490983	-4.211400E+01	  0.065490983	6.320600E+01	  0.065490983	5.034900E+01	  0.065490983	7.040000E-01
229	  0.065691382	-4.121600E+01	  0.065691382	7.184100E+01	  0.065691382	5.026400E+01	  0.065691382	8.300000E-01
230	  0.065891780	-4.208100E+01	  0.065891780	6.399200E+01	  0.065891780	5.034100E+01	  0.065891780	7.120000E-01
231	  0.066092186	-4.149700E+01	  0.066092186	5.502400E+01	  0.066092186	5.047900E+01	  0.066092186	6.960000E-01
232	  0.066292584	-4.180800E+01	  0.066292584	6.726000E+01	  0.066292584	5.030900E+01	  0.066292584	7.530000E-01
233	  0.066492982	-4.192700E+01	  0.066492982	6.421700E+01	  0.066492982	5.034400E+01	  0.066492982	7.260000E-01
234	  0.066693388	-4.131500E+01	  0.066693388	7.358900E+01	  0.066693388	5.023600E+01	  0.066693388	8.280000E-01
235	  0.066893786	-4.078600E+01	  0.066893786	6.906000E+01	  0.066893786	5.032000E+01	  0.066893786	8.580000E-01
236	  0.067094192	-4.276200E+01	  0.067094192	7.016000E+01	  0.067094192	5.024200E+01	  0.067094192	6.870000E-01
237	  0.067294590	-4.264000E+01	  0.067294590	6.714700E+01	  0.067294590	5.028200E+01	  0.067294590	6.830000E-01
238	  0.067494988	-4.149300E+01	  0.067494988	8.267500E+01	  0.067494988	5.010000E+01	  0.067494988	8.360000E-01
239	  0.067695394	-4.026200E+01	  0.067695394	7.012100E+01	  0.067695394	5.032200E+01	  0.067695394	9.180000E-01
240	  0.067895792	-4.049100E+01	  0.067895792	7.460000E+01	  0.067895792	5.024300E+01	  0.067895792	9.150000E-01
241	  0.068096191	-4.045400E+01	  0.068096191	6.880900E+01	  0.068096191	5.033600E+01	  0.068096191	8.900000E-01
242	  0.068296596	-4.050200E+01	  0.068296596	7.083500E+01	  0.068296596	5.030200E+01	  0.068296596	8.960000E-01
243	  0.068496995	-3.990400E+01	  0.068496995	7.378000E+01	  0.068496995	5.027300E+01	  0.068496995	9.760000E-01
244	  0.068697393	-4.084400E+01	  0.068697393	7.060700E+01	  0.068697393	5.029400E+01	  0.068697393	8.610000E-01
245	  0.068897791	-4.111400E+01	  0.068897791	6.946600E+01	  0.068897791	5.030200E+01	  0.068897791	8.280000E-01
246	  0.069098189	-4.004900E+01	  0.069098189	6.547500E+01	  0.069098189	5.040600E+01	  0.069098189	9.120000E-01
247	  0.069298595	-4.002200E+01	  0.069298595	7.321500E+01	  0.069298595	5.027900E+01	  0.069298595	9.600000E-01
248	  0.069498993	-3.923500E+01	  0.069498993	6.663100E+01	  0.069498993	5.042400E+01	  0.069498993	1.011000E+00
249	  0.069699399	-4.041600E+01	  0.069699399	6.610000E+01	  0.069699399	5.037900E+01	  0.069699399	8.780000E-01
250	  0.069899797	-3.987700E+01	  0.069899797	7.663500E+01	  0.069899797	5.022500E+01	  0.069899797	9.910000E-01
251	  0.070100196	-3.953200E+01	  0.070100196	7.106000E+01	  0.070100196	5.033300E+01	  0.070100196	1.004000E+00
252	  0.070300601	-3.928900E+01	  0.070300601	7.054700E+01	  0.070300601	5.035200E+01	  0.070300601	1.030000E+00
253	  0.070501000	-3.949500E+01	  0.070501000	6.743800E+01	  0.070501000	5.039800E+01	  0.070501000	9.860000E-01
254	  0.070701398	-3.887200E+01	  0.070701398	6.663500E+01	  0.070701398	5.044200E+01	  0.070701398	1.054000E+00
255	  0.070901804	-4.007300E+01	  0.070901804	6.248900E+01	  0.070901804	5.045200E+01	  0.070901804	8.870000E-01
256	  0.071102202	-3.988600E+01	  0.071102202	7.513400E+01	  0.071102202	5.025000E+01	  0.071102202	9.840000E-01
257	  0.071302600	-3.955500E+01	  0.071302600	7.988800E+01	  0.071302600	5.017400E+01	  0.071302600	1.039000E+00
258	  0.071503006	-4.119000E+01	  0.071503006	7.273100E+01	  0.071503006	5.025200E+01	  0.071503006	8.360000E-01
259	  0.071703404	-3.979400E+01	  0.071703404	6.738500E+01	  0.071703404	5.038600E+01	  0.071703404	9.520000E-01
260	  0.071903802	-3.895800E+01	  0.071903802	6.701700E+01	  0.071903802	5.043100E+01	  0.071903802	1.046000E+00
261	  0.072104208	-4.038300E+01	  0.072104208	7.185600E+01	  0.072104208	5.029000E+01	  0.072104208	9.140000E-01
262	  0.072304606	-3.999400E+01	  0.072304606	6.805500E+01	  0.072304606	5.036600E+01	  0.072304606	9.350000E-01
263	  0.072505005	-4.006300E+01	  0.072505005	7.128800E+01	  0.072505005	5.031000E+01	  0.072505005	9.460000E-01
264	  0.072705410	-3.987100E+01	  0.072705410	7.651000E+01	  0.072705410	5.022700E+01	  0.072705410	9.910000E-01
265	  0.072905809	-3.972700E+01	  0.072905809	6.618800E+01	  0.072905809	5.040900E+01	  0.072905809	9.510000E-01
266	  0.073106214	-3.816200E+01	  0.073106214	6.658100E+01	  0.073106214	5.048000E+01	  0.073106214	1.144000E+00
267	  0.073306613	-3.843500E+01	  0.073306613	6.895200E+01	  0.073306613	5.041900E+01	  0.073306613	1.126000E+00
268	  0.073507011	-3.790100E+01	  0.073507011	7.002500E+01	  0.073507011	5.042200E+01	  0.073507011	1.207000E+00
269	  0.073707417	-3.840600E+01	  0.073707417	7.528300E+01	  0.073707417	5.029200E+01	  0.073707417	1.168000E+00
270	  0.073907815	-3.975300E+01	  0.073907815	7.186700E+01	  0.073907815	5.031100E+01	  0.073907815	9.830000E-01
271	  0.074108213	-3.852600E+01	  0.074108213	7.112200E+01	  0.074108213	5.037200E+01	  0.074108213	1.129000E+00
272	  0.074308619	-3.879600E+01	  0.074308619	7.741200E+01	  0.074308619	5.023800E+01	  0.074308619	1.126000E+00
273	  0.074509017	-3.886800E+01	  0.074509017	6.974500E+01	  0.074509017	5.038400E+01	  0.074509017	1.077000E+00
274	  0.074709415	-4.061000E+01	  0.074709415	6.081700E+01	  0.074709415	5.044900E+01	  0.074709415	8.210000E-01
275	  0.074909821	-3.873400E+01	  0.074909821	6.305300E+01	  0.074909821	5.051600E+01	  0.074909821	1.042000E+00
276	  0.075110219	-3.894600E+01	  0.075110219	6.947700E+01	  0.075110219	5.038600E+01	  0.075110219	1.065000E+00
277	  0.075310618	-3.845800E+01	  0.075310618	6.728700E+01	  0.075310618	5.045000E+01	  0.075310618	1.111000E+00
278	  0.075511023	-3.813200E+01	  0.075511023	6.556500E+01	  0.075511023	5.050200E+01	  0.075511023	1.140000E+00
279	  0.075711422	-3.838800E+01	  0.075711422	6.968300E+01	  0.075711422	5.040600E+01	  0.075711422	1.138000E+00
280	  0.075911827	-3.844300E+01	  0.075911827	7.433400E+01	  0.075911827	5.031000E+01	  0.075911827	1.159000E+00
281	  0.076112226	-3.863600E+01	  0.076112226	6.986500E+01	  0.076112226	5.039200E+01	  0.076112226	1.107000E+00
282	  0.076312624	-3.875400E+01	  0.076312624	7.081100E+01	  0.076312624	5.036800E+01	  0.076312624	1.098000E+00
283	  0.076513030	-3.842100E+01	  0.076513030	8.159700E+01	  0.076513030	5.016100E+01	  0.076513030	1.190000E+00
284	  0.076713428	-3.799300E+01	  0.076713428	7.863000E+01	  0.076713428	5.023300E+01	  0.076713428	1.241000E+00
285	  0.076913826	-3.772800E+01	  0.076913826	7.232700E+01	  0.076913826	5.038000E+01	  0.076913826	1.247000E+00
286	  0.077114232	-3.763000E+01	  0.077114232	6.912000E+01	  0.077114232	5.045500E+01	  0.077114232	1.238000E+00
287	  0.077314630	-3.774300E+01	  0.077314630	7.133500E+01	  0.077314630	5.040100E+01	  0.077314630	1.238000E+00
288	  0.077515028	-3.756800E+01	  0.077515028	7.349800E+01	  0.077515028	5.036000E+01	  0.077515028	1.277000E+00
289	  0.077715434	-3.765900E+01	  0.077715434	6.806400E+01	  0.077715434	5.047600E+01	  0.077715434	1.226000E+00
290	  0.077915832	-3.829100E+01	  0.077915832	6.712600E+01	  0.077915832	5.046200E+01	  0.077915832	1.132000E+00
291	  0.078116231	-3.700300E+01	  0.078116231	7.096800E+01	  0.078116231	5.044400E+01	  0.078116231	1.346000E+00
292	  0.078316636	-3.834000E+01	  0.078316636	6.490100E+01	  0.078316636	5.050300E+01	  0.078316636	1.107000E+00
293	  0.078517035	-3.839900E+01	  0.078517035	6.099500E+01	  0.078517035	5.057500E+01	  0.078517035	1.063000E+00
294	  0.078717433	-3.736100E+01	  0.078717433	6.246000E+01	  0.078717433	5.061500E+01	  0.078717433	1.216000E+00
295	  0.078917839	-3.872300E+01	  0.078917839	7.311200E+01	  0.078917839	5.032500E+01	  0.078917839	1.115000E+00
296	  0.079118237	-3.671800E+01	  0.079118237	7.213200E+01	  0.079118237	5.043000E+01	  0.079118237	1.400000E+00
297	  0.079318643	-3.671700E+01	  0.079318643	6.584700E+01	  0.079318643	5.058200E+01	  0.079318643	1.347000E+00
298	  0.079519041	-3.792200E+01	  0.079519041	6.705100E+01	  0.079519041	5.048300E+01	  0.079519041	1.181000E+00
299	  0.079719439	-3.681300E+01	  0.079719439	6.864900E+01	  0.079719439	5.050900E+01	  0.079719439	1.358000E+00
300	  0.079919845	-3.664600E+01	  0.079919845	7.682000E+01	  0.079919845	5.031500E+01	  0.079919845	1.441000E+00
301	  0.080120243	-3.697600E+01	  0.080120243	6.429000E+01	  0.080120243	5.060100E+01	  0.080120243	1.291000E+00
302	  0.080320641	-3.771300E+01	  0.080320641	7.265600E+01	  0.080320641	5.037300E+01	  0.080320641	1.251000E+00
303	  0.080521047	-3.758500E+01	  0.080521047	7.288600E+01	  0.080521047	5.037300E+01	  0.080521047	1.271000E+00
304	  0.080721445	-3.753300E+01	  0.080721445	6.979400E+01	  0.080721445	5.044500E+01	  0.080721445	1.257000E+00
305	  0.080921844	-3.717900E+01	  0.080921844	6.685700E+01	  0.080921844	5.053000E+01	  0.080921844	1.286000E+00
306	  0.081122249	-3.711900E+01	  0.081122249	6.482600E+01	  0.081122249	5.057900E+01	  0.081122249	1.275000E+00
307	  0.081322648	-3.672900E+01	  0.081322648	7.204300E+01	  0.081322648	5.043100E+01	  0.081322648	1.398000E+00
308	  0.081523046	-3.706700E+01	  0.081523046	6.755000E+01	  0.081523046	5.052100E+01	  0.081523046	1.309000E+00
309	  0.081723452	-3.711800E+01	  0.081723452	7.259700E+01	  0.081723452	5.040000E+01	  0.081723452	1.340000E+00
310	  0.081923850	-3.689800E+01	  0.081923850	7.160000E+01	  0.081923850	5.043400E+01	  0.081923850	1.368000E+00
311	  0.082124248	-3.715300E+01	  0.082124248	7.423500E+01	  0.082124248	5.036000E+01	  0.082124248	1.345000E+00
312	  0.082324654	-3.724200E+01	  0.082324654	6.649400E+01	  0.082324654	5.053400E+01	  0.082324654	1.273000E+00
313	  0.082525052	-3.638300E+01	  0.082525052	7.101000E+01	  0.082525052	5.047500E+01	  0.082525052	1.447000E+00
314	  0.082725458	-3.704400E+01	  0.082725458	7.280100E+01	  0.082725458	5.039900E+01	  0.082725458	1.353000E+00
315	  0.082925856	-3.710800E+01	  0.082925856	7.385600E+01	  0.082925856	5.037100E+01	  0.082925856	1.350000E+00
316	  0.083126254	-3.674900E+01	  0.083126254	7.701400E+01	  0.083126254	5.030700E+01	  0.083126254	1.425000E+00
317	  0.083326660	-3.663400E+01	  0.083326660	6.999400E+01	  0.083326660	5.048700E+01	  0.083326660	1.398000E+00
318	  0.083527058	-3.643800E+01	  0.083527058	7.059700E+01	  0.083527058	5.048200E+01	  0.083527058	1.435000E+00
319	  0.083727457	-3.604200E+01	  0.083727457	6.506400E+01	  0.083727457	5.064800E+01	  0.083727457	1.449000E+00
320	  0.083927862	-3.651300E+01	  0.083927862	7.182000E+01	  0.083927862	5.044700E+01	  0.083927862	1.432000E+00
321	  0.084128261	-3.657500E+01	  0.084128261	6.784600E+01	  0.084128261	5.054300E+01	  0.084128261	1.388000E+00
322	  0.084328659	-3.593500E+01	  0.084328659	6.917700E+01	  0.084328659	5.054800E+01	  0.084328659	1.509000E+00
323	  0.084529065	-3.639800E+01	  0.084529065	7.364200E+01	  0.084529065	5.040600E+01	  0.084529065	1.464000E+00
324	  0.084729463	-3.624200E+01	  0.084729463	6.992400E+01	  0.084729463	5.051000E+01	  0.084729463	1.462000E+00
325	  0.084929861	-3.600700E+01	  0.084929861	6.733000E+01	  0.084929861	5.059200E+01	  0.084929861	1.478000E+00
326	  0.085130267	-3.636900E+01	  0.085130267	6.953200E+01	  0.085130267	5.051300E+01	  0.085130267	1.437000E+00
327	  0.085330658	-3.704300E+01	  0.085330658	6.738800E+01	  0.085330658	5.052600E+01	  0.085330658	1.311000E+00
328	  0.085531056	-3.617500E+01	  0.085531056	7.051400E+01	  0.085531056	5.049800E+01	  0.085531056	1.479000E+00
329	  0.085731462	-3.582600E+01	  0.085731462	6.787000E+01	  0.085731462	5.058900E+01	  0.085731462	1.515000E+00
330	  0.085931860	-3.682600E+01	  0.085931860	6.889100E+01	  0.085931860	5.050300E+01	  0.085931860	1.358000E+00
331	  0.086132258	-3.598700E+01	  0.086132258	6.304100E+01	  0.086132258	5.070400E+01	  0.086132258	1.435000E+00
332	  0.086332664	-3.586700E+01	  0.086332664	6.822200E+01	  0.086332664	5.057700E+01	  0.086332664	1.512000E+00
333	  0.086533062	-3.566400E+01	  0.086533062	6.869600E+01	  0.086533062	5.057800E+01	  0.086533062	1.552000E+00
334	  0.086733460	-3.655900E+01	  0.086733460	6.841500E+01	  0.086733460	5.053000E+01	  0.086733460	1.396000E+00
335	  0.086933866	-3.624300E+01	  0.086933866	6.937100E+01	  0.086933866	5.052400E+01	  0.086933866	1.457000E+00
336	  0.087134264	-3.564900E+01	  0.087134264	6.763400E+01	  0.087134264	5.060800E+01	  0.087134264	1.545000E+00
337	  0.087334670	-3.644100E+01	  0.087334670	6.769600E+01	  0.087334670	5.055500E+01	  0.087334670	1.409000E+00
338	  0.087535068	-3.495200E+01	  0.087535068	6.706100E+01	  0.087535068	5.067400E+01	  0.087535068	1.669000E+00
339	  0.087735467	-3.650400E+01	  0.087735467	6.709100E+01	  0.087735467	5.056600E+01	  0.087735467	1.393000E+00
340	  0.087935872	-3.497300E+01	  0.087935872	6.794200E+01	  0.087935872	5.064600E+01	  0.087935872	1.675000E+00
341	  0.088136271	-3.564600E+01	  0.088136271	6.903100E+01	  0.088136271	5.057000E+01	  0.088136271	1.559000E+00
342	  0.088336669	-3.650300E+01	  0.088336669	6.429700E+01	  0.088336669	5.063400E+01	  0.088336669	1.365000E+00
343	  0.088537075	-3.524500E+01	  0.088537075	6.993700E+01	  0.088537075	5.056900E+01	  0.088537075	1.642000E+00
344	  0.088737473	-3.595700E+01	  0.088737473	6.914900E+01	  0.088737473	5.054700E+01	  0.088737473	1.505000E+00
345	  0.088937871	-3.579000E+01	  0.088937871	6.866200E+01	  0.088937871	5.057000E+01	  0.088937871	1.529000E+00
346	  0.089138277	-3.579500E+01	  0.089138277	6.925600E+01	  0.089138277	5.055400E+01	  0.089138277	1.534000E+00
347	  0.089338675	-3.559600E+01	  0.089338675	6.817700E+01	  0.089338675	5.059600E+01	  0.089338675	1.560000E+00
348	  0.089539073	-3.536400E+01	  0.089539073	6.569800E+01	  0.089539073	5.068200E+01	  0.089539073	1.575000E+00
349	  0.089739479	-3.543600E+01	  0.089739479	7.000500E+01	  0.089739479	5.055500E+01	  0.089739479	1.607000E+00
350	  0.089939877	-3.504400E+01	  0.089939877	7.080100E+01	  0.089939877	5.055600E+01	  0.089939877	1.689000E+00
351	  0.090140276	-3.543400E+01	  0.090140276	7.008700E+01	  0.090140276	5.055300E+01	  0.090140276	1.608000E+00
352	  0.090340681	-3.519500E+01	  0.090340681	6.669100E+01	  0.090340681	5.066600E+01	  0.090340681	1.618000E+00
353	  0.090541080	-3.508000E+01	  0.090541080	6.710800E+01	  0.090541080	5.066300E+01	  0.090541080	1.645000E+00
354	  0.090741485	-3.519100E+01	  0.090741485	6.875000E+01	  0.090741485	5.060700E+01	  0.090741485	1.641000E+00
355	  0.090941884	-3.554000E+01	  0.090941884	6.447700E+01	  0.090941884	5.070100E+01	  0.090941884	1.529000E+00
356	  0.091142282	-3.496700E+01	  0.091142282	7.000700E+01	  0.091142282	5.058500E+01	  0.091142282	1.697000E+00
357	  0.091342688	-3.557000E+01	  0.091342688	6.781800E+01	  0.091342688	5.060800E+01	  0.091342688	1.561000E+00
358	  0.091543086	-3.435400E+01	  0.091543086	6.586800E+01	  0.091543086	5.075800E+01	  0.091543086	1.775000E+00
359	  0.091743484	-3.523400E+01	  0.091743484	6.421000E+01	  0.091743484	5.073300E+01	  0.091743484	1.581000E+00
360	  0.091943890	-3.483600E+01	  0.091943890	6.736100E+01	  0.091943890	5.067300E+01	  0.091943890	1.695000E+00
361	  0.092144288	-3.508300E+01	  0.092144288	6.668300E+01	  0.092144288	5.067500E+01	  0.092144288	1.639000E+00
362	  0.092344686	-3.542400E+01	  0.092344686	6.753100E+01	  0.092344686	5.062600E+01	  0.092344686	1.584000E+00
363	  0.092545092	-3.492600E+01	  0.092545092	6.736700E+01	  0.092545092	5.066600E+01	  0.092545092	1.677000E+00
364	  0.092745490	-3.531800E+01	  0.092745490	6.654600E+01	  0.092745490	5.066100E+01	  0.092745490	1.593000E+00
365	  0.092945889	-3.483700E+01	  0.092945889	6.845500E+01	  0.092945889	5.064000E+01	  0.092945889	1.707000E+00
366	  0.093146294	-3.553600E+01	  0.093146294	6.261700E+01	  0.093146294	5.075200E+01	  0.093146294	1.507000E+00
367	  0.093346693	-3.521300E+01	  0.093346693	6.737300E+01	  0.093346693	5.064500E+01	  0.093346693	1.622000E+00
368	  0.093547091	-3.438300E+01	  0.093547091	6.336400E+01	  0.093547091	5.083300E+01	  0.093547091	1.735000E+00
369	  0.093747497	-3.448100E+01	  0.093747497	6.665500E+01	  0.093747497	5.072200E+01	  0.093747497	1.758000E+00
370	  0.093947895	-3.459100E+01	  0.093947895	6.438000E+01	  0.093947895	5.078300E+01	  0.093947895	1.707000E+00
371	  0.094148301	-3.510500E+01	  0.094148301	6.533000E+01	  0.094148301	5.071200E+01	  0.094148301	1.619000E+00
372	  0.094348699	-3.466200E+01	  0.094348699	6.709600E+01	  0.094348699	5.069500E+01	  0.094348699	1.727000E+00
373	  0.094549097	-3.480800E+01	  0.094549097	6.682700E+01	  0.094549097	5.069100E+01	  0.094549097	1.694000E+00
374	  0.094749503	-3.500200E+01	  0.094749503	6.840600E+01	  0.094749503	5.063000E+01	  0.094749503	1.674000E+00
375	  0.094949901	-3.449100E+01	  0.094949901	6.568600E+01	  0.094949901	5.075200E+01	  0.094949901	1.744000E+00
376	  0.095150299	-3.439500E+01	  0.095150299	6.817400E+01	  0.095150299	5.068100E+01	  0.095150299	1.794000E+00
377	  0.095350705	-3.434700E+01	  0.095350705	6.906300E+01	  0.095350705	5.065700E+01	  0.095350705	1.814000E+00
378	  0.095551103	-3.460000E+01	  0.095551103	6.108000E+01	  0.095551103	5.088100E+01	  0.095551103	1.659000E+00
379	  0.095751502	-3.468500E+01	  0.095751502	6.599900E+01	  0.095751502	5.072600E+01	  0.095751502	1.709000E+00
380	  0.095951907	-3.440200E+01	  0.095951907	6.306100E+01	  0.095951907	5.084000E+01	  0.095951907	1.727000E+00
381	  0.096152306	-3.423600E+01	  0.096152306	6.744700E+01	  0.096152306	5.071700E+01	  0.096152306	1.819000E+00
382	  0.096352704	-3.427900E+01	  0.096352704	6.375200E+01	  0.096352704	5.083100E+01	  0.096352704	1.762000E+00
383	  0.096553110	-3.431000E+01	  0.096553110	6.407800E+01	  0.096553110	5.081800E+01	  0.096553110	1.760000E+00
384	  0.096753508	-3.448200E+01	  0.096753508	6.358100E+01	  0.096753508	5.081700E+01	  0.096753508	1.718000E+00
385	  0.096953906	-3.434500E+01	  0.096953906	6.632200E+01	  0.096953906	5.074400E+01	  0.096953906	1.782000E+00
386	  0.097154312	-3.387300E+01	  0.097154312	6.798100E+01	  0.097154312	5.072800E+01	  0.097154312	1.904000E+00
387	  0.097354710	-3.396800E+01	  0.097354710	6.113700E+01	  0.097354710	5.094400E+01	  0.097354710	1.787000E+00
388	  0.097555116	-3.445800E+01	  0.097555116	6.513600E+01	  0.097555116	5.077100E+01	  0.097555116	1.744000E+00
389	  0.097755514	-3.356500E+01	  0.097755514	6.666200E+01	  0.097755514	5.079900E+01	  0.097755514	1.957000E+00
390	  0.097955912	-3.358000E+01	  0.097955912	6.391700E+01	  0.097955912	5.089200E+01	  0.097955912	1.915000E+00
391	  0.098156318	-3.400500E+01	  0.098156318	6.695300E+01	  0.098156318	5.075200E+01	  0.098156318	1.863000E+00
392	  0.098356716	-3.412200E+01	  0.098356716	6.451100E+01	  0.098356716	5.082100E+01	  0.098356716	1.805000E+00
393	  0.098557115	-3.347300E+01	  0.098557115	6.190200E+01	  0.098557115	5.097200E+01	  0.098557115	1.907000E+00
394	  0.098757520	-3.412100E+01	  0.098757520	6.524500E+01	  0.098757520	5.079800E+01	  0.098757520	1.816000E+00
395	  0.098957919	-3.404300E+01	  0.098957919	6.351800E+01	  0.098957919	5.086000E+01	  0.098957919	1.808000E+00
396	  0.099158317	-3.370700E+01	  0.099158317	6.465500E+01	  0.099158317	5.085500E+01	  0.099158317	1.897000E+00
397	  0.099358723	-3.360400E+01	  0.099358723	6.382400E+01	  0.099358723	5.089300E+01	  0.099358723	1.908000E+00
398	  0.099559121	-3.404100E+01	  0.099559121	6.283000E+01	  0.099559121	5.088300E+01	  0.099559121	1.798000E+00
399	  0.099759519	-3.343200E+01	  0.099759519	6.275800E+01	  0.099759519	5.094700E+01	  0.099759519	1.930000E+00
400	  0.099959925	-3.382100E+01	  0.099959925	6.395100E+01	  0.099959925	5.086800E+01	  0.099959925	1.862000E+00
401	  0.100160323	-3.306200E+01	  0.100160323	6.771500E+01	  0.100160323	5.080600E+01	  0.100160323	2.090000E+00
402	  0.100360721	-3.375600E+01	  0.100360721	5.909200E+01	  0.100360721	5.103300E+01	  0.100360721	1.797000E+00
403	  0.100561127	-3.304600E+01	  0.100561127	6.373900E+01	  0.100561127	5.095300E+01	  0.100561127	2.036000E+00
404	  0.100761525	-3.370400E+01	  0.100761525	6.093800E+01	  0.100761525	5.097900E+01	  0.100761525	1.840000E+00
405	  0.100961931	-3.359600E+01	  0.100961931	6.570200E+01	  0.100961931	5.083000E+01	  0.100961931	1.937000E+00
406	  0.101162329	-3.372900E+01	  0.101162329	6.383800E+01	  0.101162329	5.088000E+01	  0.101162329	1.880000E+00
407	  0.101362728	-3.413700E+01	  0.101362728	6.229800E+01	  0.101362728	5.089000E+01	  0.101362728	1.770000E+00
408	  0.101563133	-3.358900E+01	  0.101563133	5.629200E+01	  0.101563133	5.114300E+01	  0.101563133	1.780000E+00
409	  0.101763532	-3.394900E+01	  0.101763532	5.955000E+01	  0.101763532	5.099600E+01	  0.101763532	1.765000E+00
410	  0.101963930	-3.372700E+01	  0.101963930	6.052500E+01	  0.101963930	5.099000E+01	  0.101963930	1.828000E+00
411	  0.102164336	-3.350400E+01	  0.102164336	5.687100E+01	  0.102164336	5.113500E+01	  0.102164336	1.809000E+00
412	  0.102364734	-3.342900E+01	  0.102364734	6.383100E+01	  0.102364734	5.091000E+01	  0.102364734	1.948000E+00
413	  0.102565132	-3.303300E+01	  0.102565132	6.746000E+01	  0.102565132	5.081800E+01	  0.102565132	2.094000E+00
414	  0.102765530	-3.274100E+01	  0.102765530	5.788500E+01	  0.102765530	5.120100E+01	  0.102765530	2.001000E+00
415	  0.102965929	-3.379700E+01	  0.102965929	6.046800E+01	  0.102965929	5.098400E+01	  0.102965929	1.812000E+00
416	  0.103166327	-3.413300E+01	  0.103166327	6.779100E+01	  0.103166327	5.071400E+01	  0.103166327	1.845000E+00
417	  0.103366733	-3.386400E+01	  0.103366733	6.566800E+01	  0.103366733	5.080700E+01	  0.103366733	1.877000E+00
418	  0.103567131	-3.276400E+01	  0.103567131	6.257100E+01	  0.103567131	5.102700E+01	  0.103567131	2.084000E+00
419	  0.103767529	-3.248600E+01	  0.103767529	6.101800E+01	  0.103767529	5.111900E+01	  0.103767529	2.125000E+00
420	  0.103967935	-3.267900E+01	  0.103967935	6.306800E+01	  0.103967935	5.101900E+01	  0.103967935	2.114000E+00
421	  0.104168333	-3.325100E+01	  0.104168333	6.098600E+01	  0.104168333	5.102800E+01	  0.104168333	1.941000E+00
422	  0.104368731	-3.350200E+01	  0.104368731	6.007400E+01	  0.104368731	5.103000E+01	  0.104368731	1.869000E+00
423	  0.104569137	-3.219500E+01	  0.104569137	5.909900E+01	  0.104569137	5.123100E+01	  0.104569137	2.160000E+00
424	  0.104769535	-3.233400E+01	  0.104769535	6.378500E+01	  0.104769535	5.103000E+01	  0.104769535	2.214000E+00
425	  0.104969934	-3.242700E+01	  0.104969934	6.375100E+01	  0.104969934	5.102100E+01	  0.104969934	2.189000E+00
426	  0.105170339	-3.243200E+01	  0.105170339	5.786900E+01	  0.105170339	5.124400E+01	  0.105170339	2.075000E+00
427	  0.105370738	-3.243300E+01	  0.105370738	5.901100E+01	  0.105370738	5.120200E+01	  0.105370738	2.098000E+00
428	  0.105571143	-3.266000E+01	  0.105571143	6.183700E+01	  0.105571143	5.106700E+01	  0.105571143	2.097000E+00
429	  0.105771542	-3.308300E+01	  0.105771542	5.870600E+01	  0.105771542	5.112800E+01	  0.105771542	1.938000E+00
430	  0.105971940	-3.232400E+01	  0.105971940	5.845500E+01	  0.105971940	5.123700E+01	  0.105971940	2.114000E+00
431	  0.106172346	-3.221000E+01	  0.106172346	6.044800E+01	  0.106172346	5.117600E+01	  0.106172346	2.184000E+00
432	  0.106372744	-3.266300E+01	  0.106372744	5.510100E+01	  0.106372744	5.131100E+01	  0.106372744	1.959000E+00
433	  0.106573142	-3.255000E+01	  0.106573142	5.932000E+01	  0.106573142	5.117500E+01	  0.106573142	2.076000E+00
434	  0.106773548	-3.236600E+01	  0.106773548	5.951300E+01	  0.106773548	5.119200E+01	  0.106773548	2.125000E+00
435	  0.106973946	-3.286700E+01	  0.106973946	5.925100E+01	  0.106973946	5.113600E+01	  0.106973946	1.999000E+00
436	  0.107174344	-3.332200E+01	  0.107174344	5.929800E+01	  0.107174344	5.107800E+01	  0.107174344	1.895000E+00
437	  0.107374750	-3.202800E+01	  0.107374750	6.169500E+01	  0.107374750	5.115100E+01	  0.107374750	2.256000E+00
438	  0.107575148	-3.261600E+01	  0.107575148	6.110500E+01	  0.107575148	5.110000E+01	  0.107575148	2.094000E+00
439	  0.107775547	-3.286100E+01	  0.107775547	6.051700E+01	  0.107775547	5.109100E+01	  0.107775547	2.024000E+00
440	  0.107975952	-3.203600E+01	  0.107975952	6.033200E+01	  0.107975952	5.120400E+01	  0.107975952	2.227000E+00
441	  0.108176351	-3.258600E+01	  0.108176351	6.110800E+01	  0.108176351	5.110300E+01	  0.108176351	2.102000E+00
442	  0.108376749	-3.232600E+01	  0.108376749	6.292600E+01	  0.108376749	5.106500E+01	  0.108376749	2.201000E+00
443	  0.108577155	-3.270700E+01	  0.108577155	5.516900E+01	  0.108577155	5.130200E+01	  0.108577155	1.951000E+00
444	  0.108777553	-3.239900E+01	  0.108777553	5.782600E+01	  0.108777553	5.125100E+01	  0.108777553	2.082000E+00
445	  0.108977959	-3.245200E+01	  0.108977959	6.126800E+01	  0.108977959	5.111400E+01	  0.108977959	2.138000E+00
446	  0.109178357	-3.179200E+01	  0.109178357	5.690100E+01	  0.109178357	5.137600E+01	  0.109178357	2.215000E+00
447	  0.109378755	-3.214400E+01	  0.109378755	6.046400E+01	  0.109378755	5.118400E+01	  0.109378755	2.201000E+00
448	  0.109579161	-3.241900E+01	  0.109579161	5.918900E+01	  0.109579161	5.119700E+01	  0.109579161	2.106000E+00
449	  0.109779559	-3.288200E+01	  0.109779559	5.919700E+01	  0.109779559	5.113600E+01	  0.109779559	1.994000E+00
450	  0.109979957	-3.197800E+01	  0.109979957	5.875300E+01	  0.109979957	5.127500E+01	  0.109979957	2.209000E+00
451	  0.110180363	-3.178700E+01	  0.110180363	6.217100E+01	  0.110180363	5.116200E+01	  0.110180363	2.330000E+00
452	  0.110380761	-3.304300E+01	  0.110380761	6.014900E+01	  0.110380761	5.108200E+01	  0.110380761	1.974000E+00
453	  0.110581160	-3.203100E+01	  0.110581160	5.487700E+01	  0.110581160	5.141700E+01	  0.110581160	2.106000E+00
454	  0.110781565	-3.209700E+01	  0.110781565	5.528600E+01	  0.110781565	5.139100E+01	  0.110781565	2.099000E+00
455	  0.110981964	-3.266800E+01	  0.110981964	5.546700E+01	  0.110981964	5.129700E+01	  0.110981964	1.966000E+00
456	  0.111182362	-3.263000E+01	  0.111182362	5.701100E+01	  0.111182362	5.124800E+01	  0.111182362	2.009000E+00
457	  0.111382768	-3.204900E+01	  0.111382768	5.728900E+01	  0.111382768	5.132200E+01	  0.111382768	2.158000E+00
458	  0.111583166	-3.211300E+01	  0.111583166	5.247100E+01	  0.111583166	5.149300E+01	  0.111583166	2.026000E+00
459	  0.111783572	-3.181200E+01	  0.111783572	5.765300E+01	  0.111783572	5.134300E+01	  0.111783572	2.228000E+00
460	  0.111983970	-3.257800E+01	  0.111983970	5.773000E+01	  0.111983970	5.122900E+01	  0.111983970	2.036000E+00
461	  0.112184368	-3.228900E+01	  0.112184368	5.565800E+01	  0.112184368	5.134700E+01	  0.112184368	2.061000E+00
462	  0.112384774	-3.201500E+01	  0.112384774	6.125000E+01	  0.112384774	5.117000E+01	  0.112384774	2.251000E+00
463	  0.112585172	-3.203000E+01	  0.112585172	6.098900E+01	  0.112585172	5.117900E+01	  0.112585172	2.242000E+00
464	  0.112785570	-3.200600E+01	  0.112785570	6.033100E+01	  0.112785570	5.120800E+01	  0.112785570	2.235000E+00
465	  0.112985976	-3.161000E+01	  0.112985976	5.383900E+01	  0.112985976	5.152700E+01	  0.112985976	2.187000E+00
466	  0.113186374	-3.139900E+01	  0.113186374	5.230700E+01	  0.113186374	5.162500E+01	  0.113186374	2.200000E+00
467	  0.113386773	-3.157200E+01	  0.113386773	5.813000E+01	  0.113386773	5.136000E+01	  0.113386773	2.303000E+00
468	  0.113587178	-3.164300E+01	  0.113587178	5.750400E+01	  0.113587178	5.137500E+01	  0.113587178	2.269000E+00
469	  0.113787577	-3.178300E+01	  0.113787577	5.557300E+01	  0.113787577	5.143000E+01	  0.113787577	2.186000E+00
470	  0.113987975	-3.158100E+01	  0.113987975	5.691200E+01	  0.113987975	5.140900E+01	  0.113987975	2.272000E+00
471	  0.114188381	-3.175000E+01	  0.114188381	5.871500E+01	  0.114188381	5.130900E+01	  0.114188381	2.268000E+00
472	  0.114388779	-3.127000E+01	  0.114388779	5.464200E+01	  0.114388779	5.155400E+01	  0.114388779	2.299000E+00
473	  0.114589177	-3.150300E+01	  0.114589177	5.366900E+01	  0.114589177	5.155200E+01	  0.114589177	2.210000E+00
474	  0.114789583	-3.167200E+01	  0.114789583	5.476700E+01	  0.114789583	5.148000E+01	  0.114789583	2.195000E+00
475	  0.114989981	-3.184600E+01	  0.114989981	5.248400E+01	  0.114989981	5.153800E+01	  0.114989981	2.091000E+00
476	  0.115190387	-3.186100E+01	  0.115190387	5.818000E+01	  0.115190387	5.131500E+01	  0.115190387	2.227000E+00
477	  0.115390785	-3.106500E+01	  0.115390785	5.240900E+01	  0.115390785	5.168400E+01	  0.115390785	2.292000E+00
478	  0.115591183	-3.217500E+01	  0.115591183	5.266800E+01	  0.115591183	5.147500E+01	  0.115591183	2.016000E+00
479	  0.115791589	-3.129200E+01	  0.115791589	5.297100E+01	  0.115791589	5.161800E+01	  0.115791589	2.247000E+00
480	  0.115991987	-3.175200E+01	  0.115991987	6.075700E+01	  0.115991987	5.122500E+01	  0.115991987	2.312000E+00
481	  0.116192386	-3.179400E+01	  0.116192386	5.702600E+01	  0.116192386	5.137100E+01	  0.116192386	2.218000E+00
482	  0.116392791	-3.139800E+01	  0.116392791	5.317200E+01	  0.116392791	5.159100E+01	  0.116392791	2.225000E+00
483	  0.116593190	-3.131600E+01	  0.116593190	5.478300E+01	  0.116593190	5.154000E+01	  0.116593190	2.290000E+00
484	  0.116793588	-3.096100E+01	  0.116793588	5.571200E+01	  0.116793588	5.156300E+01	  0.116793588	2.413000E+00
485	  0.116993994	-3.167200E+01	  0.116993994	5.348000E+01	  0.116993994	5.153000E+01	  0.116993994	2.161000E+00
486	  0.117194392	-3.157400E+01	  0.117194392	5.464800E+01	  0.117194392	5.150100E+01	  0.117194392	2.217000E+00
487	  0.117394790	-3.124600E+01	  0.117394790	5.358600E+01	  0.117394790	5.160200E+01	  0.117394790	2.276000E+00
488	  0.117595196	-3.132200E+01	  0.117595196	5.396200E+01	  0.117595196	5.157300E+01	  0.117595196	2.266000E+00
489	  0.117795594	-3.155500E+01	  0.117795594	5.744000E+01	  0.117795594	5.139100E+01	  0.117795594	2.291000E+00
490	  0.117995992	-3.093300E+01	  0.117995992	5.055500E+01	  0.117995992	5.178600E+01	  0.117995992	2.273000E+00
491	  0.118196398	-3.143400E+01	  0.118196398	5.484700E+01	  0.118196398	5.151700E+01	  0.118196398	2.260000E+00
492	  0.118396796	-3.087100E+01	  0.118396796	5.034800E+01	  0.118396796	5.180700E+01	  0.118396796	2.283000E+00
493	  0.118597202	-3.127500E+01	  0.118597202	5.350200E+01	  0.118597202	5.160000E+01	  0.118597202	2.266000E+00
494	  0.118797600	-3.086600E+01	  0.118797600	5.315000E+01	  0.118797600	5.169100E+01	  0.118797600	2.369000E+00
495	  0.118997999	-3.083100E+01	  0.118997999	5.389900E+01	  0.118997999	5.166500E+01	  0.118997999	2.401000E+00
496	  0.119198404	-3.101700E+01	  0.119198404	5.101200E+01	  0.119198404	5.175100E+01	  0.119198404	2.264000E+00
497	  0.119398803	-3.104200E+01	  0.119398803	5.299200E+01	  0.119398803	5.166400E+01	  0.119398803	2.316000E+00
498	  0.119599201	-3.153200E+01	  0.119599201	4.866800E+01	  0.119599201	5.174000E+01	  0.119599201	2.061000E+00
499	  0.119799607	-3.053400E+01	  0.119799607	5.285100E+01	  0.119799607	5.176900E+01	  0.119799607	2.456000E+00
500	  0.120000005	-3.071600E+01	  0.120000005	5.046300E+01	  0.120000005	5.183500E+01	  0.120000005	2.330000E+00
