! Anritsu VNA Master:             	Model: MS2036C/10/77
! SN:             	1601066
! /card0/usr/18may12.lna.rl/256b.swout.cold_1.txt
! Existing Calibration Information:
! TYPE:             	Current Settings	Active Cal Settings
! TIME:             	05/13/2018 02:03:17 PM	05/13/2018 01:55:30 PM
! INTERNAL TEMP:    	51.3 C	51.5 C
! # POINTS:         	500	500
! START FREQ:       	20.000 MHz	20.000 MHz
! STOP FREQ:        	120.000 MHz	120.000 MHz
! SOURCE POWER:     	Low	Low
! IFBW:             	10 Hz	10 Hz
! AVG FACTOR:       	  1 	  1 
! REF PLANE 1:      	0 mm	0 mm
! REF PLANE 2:      	0 mm	0 mm
! CAL TYPE:         	Full S22	Full S22
! CAL METHOD:       	SOLT	SOLT
! CAL LINE TYPE:    	Coax	Coax
! DUT PORT 1:       	K-Conn(M)	K-Conn(M)
! DUT PORT 2:       	K-Conn(M)	K-Conn(M)
! CAL STATUS:       	OK: Accuracy High	--
! PROP-V:       	0.700
! CABLE LOSS:       	0.000 dB/m
! REF IMPEDANCE:       	50.0
! Trace Specific Parameters:	TR1	TR2	TR3	TR4
! TRACE.#.Y (GRAPH TYPE)	LOG MAG	PHASE	REAL IMPEDANCE	IMAGINARY IMPEDANCE
! TRACE.#.X 	FREQ.GHZ	FREQ.GHZ	FREQ.GHZ	FREQ.GHZ
! S-PARAMETER	S22	S22	S22	S22
! SMOOTH/APERTURE %	0	0	0	0
! WINDOW	NSL	NSL	NSL	NSL
! GATING	OFF	OFF	OFF	OFF
! FGTD	OFF	OFF	OFF	OFF
Marker Information per Trace:	TR1	TR2	TR3	TR4
!MK1	--	"MK1 TR2:  12.585 170 MHz,##.##"	--	--
!MK2	--	--	"MK2 TR3:  360.721 kHz,##.##"	--
!MK3	--	--	--	--
!MK4	--	--	--	--
!MK5	--	--	--	--
!MK6	--	--	--	--
!MK7	--	--	--	--
!MK8	--	--	--	--
PNT	TR1.FREQ.GHZ	TR1.LOG MAG.dB	TR2.FREQ.GHZ	TR2.PHASE.deg	TR3.FREQ.GHZ	TR3.REAL IMPEDANCE.ohm	TR4.FREQ.GHZ	TR4.IMAGINARY IMPEDANCE.ohm
1	  0.020000000	-3.320100E+01	  0.020000000	-3.863300E+01	  0.020000000	5.171800E+01	  0.020000000	-1.413000E+00
2	  0.020200402	-3.391700E+01	  0.020200402	-3.852300E+01	  0.020200402	5.158400E+01	  0.020200402	-1.294000E+00
3	  0.020400802	-3.356900E+01	  0.020400802	-4.018200E+01	  0.020400802	5.160800E+01	  0.020400802	-1.396000E+00
4	  0.020601204	-3.381000E+01	  0.020601204	-3.610700E+01	  0.020601204	5.166000E+01	  0.020601204	-1.242000E+00
5	  0.020801604	-3.422100E+01	  0.020801604	-3.910400E+01	  0.020801604	5.151600E+01	  0.020801604	-1.264000E+00
6	  0.021002004	-3.354900E+01	  0.021002004	-3.748000E+01	  0.021002004	5.167800E+01	  0.021002004	-1.322000E+00
7	  0.021202406	-3.361300E+01	  0.021202406	-3.757500E+01	  0.021202406	5.166300E+01	  0.021202406	-1.314000E+00
8	  0.021402806	-3.409500E+01	  0.021402806	-3.834300E+01	  0.021402806	5.155600E+01	  0.021402806	-1.262000E+00
9	  0.021603208	-3.391300E+01	  0.021603208	-4.201200E+01	  0.021603208	5.150100E+01	  0.021603208	-1.389000E+00
10	  0.021803608	-3.378700E+01	  0.021803608	-3.956500E+01	  0.021803608	5.158300E+01	  0.021803608	-1.344000E+00
11	  0.022004008	-3.444000E+01	  0.022004008	-3.985200E+01	  0.022004008	5.146200E+01	  0.022004008	-1.251000E+00
12	  0.022204408	-3.404400E+01	  0.022204408	-4.120600E+01	  0.022204408	5.149800E+01	  0.022204408	-1.347000E+00
13	  0.022404809	-3.448100E+01	  0.022404809	-4.197500E+01	  0.022404809	5.140600E+01	  0.022404809	-1.298000E+00
14	  0.022605211	-3.442200E+01	  0.022605211	-4.289300E+01	  0.022605211	5.139400E+01	  0.022605211	-1.330000E+00
15	  0.022805611	-3.427600E+01	  0.022805611	-4.177900E+01	  0.022805611	5.144400E+01	  0.022805611	-1.325000E+00
16	  0.023006011	-3.425100E+01	  0.023006011	-4.068000E+01	  0.023006011	5.147500E+01	  0.023006011	-1.301000E+00
17	  0.023206413	-3.468200E+01	  0.023206413	-4.199700E+01	  0.023206413	5.137400E+01	  0.023206413	-1.268000E+00
18	  0.023406813	-3.443100E+01	  0.023406813	-4.490300E+01	  0.023406813	5.134400E+01	  0.023406813	-1.376000E+00
19	  0.023607215	-3.455200E+01	  0.023607215	-4.130700E+01	  0.023607215	5.141000E+01	  0.023607215	-1.271000E+00
20	  0.023807615	-3.478600E+01	  0.023807615	-4.439700E+01	  0.023807615	5.130200E+01	  0.023807615	-1.308000E+00
21	  0.024008015	-3.436000E+01	  0.024008015	-4.272400E+01	  0.024008015	5.140800E+01	  0.024008015	-1.335000E+00
22	  0.024208417	-3.466100E+01	  0.024208417	-4.613000E+01	  0.024208417	5.127900E+01	  0.024208417	-1.367000E+00
23	  0.024408817	-3.485100E+01	  0.024408817	-4.447100E+01	  0.024408817	5.129100E+01	  0.024408817	-1.300000E+00
24	  0.024609219	-3.495800E+01	  0.024609219	-4.308800E+01	  0.024609219	5.130600E+01	  0.024609219	-1.252000E+00
25	  0.024809619	-3.508300E+01	  0.024809619	-4.216400E+01	  0.024809619	5.130800E+01	  0.024809619	-1.213000E+00
26	  0.025010020	-3.505100E+01	  0.025010020	-4.283300E+01	  0.025010020	5.129800E+01	  0.025010020	-1.233000E+00
27	  0.025210422	-3.485900E+01	  0.025210422	-4.411200E+01	  0.025210422	5.129800E+01	  0.025210422	-1.291000E+00
28	  0.025410822	-3.488000E+01	  0.025410822	-4.568400E+01	  0.025410822	5.125800E+01	  0.025410822	-1.322000E+00
29	  0.025611224	-3.530300E+01	  0.025611224	-4.571100E+01	  0.025611224	5.119800E+01	  0.025611224	-1.259000E+00
30	  0.025811624	-3.472900E+01	  0.025811624	-3.802900E+01	  0.025811624	5.145200E+01	  0.025811624	-1.163000E+00
31	  0.026012026	-3.468800E+01	  0.026012026	-4.557400E+01	  0.026012026	5.128900E+01	  0.026012026	-1.350000E+00
32	  0.026212426	-3.486800E+01	  0.026212426	-4.150300E+01	  0.026212426	5.135500E+01	  0.026212426	-1.229000E+00
33	  0.026412826	-3.526700E+01	  0.026412826	-4.753900E+01	  0.026412826	5.116000E+01	  0.026412826	-1.301000E+00
34	  0.026613226	-3.488400E+01	  0.026613226	-4.343500E+01	  0.026613226	5.130900E+01	  0.026613226	-1.271000E+00
35	  0.026813626	-3.530700E+01	  0.026813626	-4.630200E+01	  0.026813626	5.118400E+01	  0.026813626	-1.270000E+00
36	  0.027014028	-3.564400E+01	  0.027014028	-4.387600E+01	  0.027014028	5.119000E+01	  0.027014028	-1.171000E+00
37	  0.027214428	-3.539600E+01	  0.027214428	-4.697400E+01	  0.027214428	5.115600E+01	  0.027214428	-1.271000E+00
38	  0.027414829	-3.570400E+01	  0.027414829	-4.711600E+01	  0.027414829	5.111300E+01	  0.027414829	-1.228000E+00
39	  0.027615231	-3.545600E+01	  0.027615231	-4.662200E+01	  0.027615231	5.115600E+01	  0.027615231	-1.255000E+00
40	  0.027815631	-3.614900E+01	  0.027815631	-4.491900E+01	  0.027815631	5.110200E+01	  0.027815631	-1.124000E+00
41	  0.028016033	-3.592100E+01	  0.028016033	-4.700600E+01	  0.028016033	5.108800E+01	  0.028016033	-1.195000E+00
42	  0.028216433	-3.555000E+01	  0.028216433	-4.403500E+01	  0.028216433	5.120000E+01	  0.028216433	-1.188000E+00
43	  0.028416833	-3.564400E+01	  0.028416833	-4.493200E+01	  0.028416833	5.116800E+01	  0.028416833	-1.193000E+00
44	  0.028617235	-3.597300E+01	  0.028617235	-4.885400E+01	  0.028617235	5.104200E+01	  0.028617235	-1.222000E+00
45	  0.028817635	-3.574200E+01	  0.028817635	-4.721000E+01	  0.028817635	5.110600E+01	  0.028817635	-1.224000E+00
46	  0.029018037	-3.546900E+01	  0.029018037	-4.708200E+01	  0.029018037	5.114400E+01	  0.029018037	-1.262000E+00
47	  0.029218437	-3.609900E+01	  0.029218437	-4.602300E+01	  0.029218437	5.108600E+01	  0.029218437	-1.152000E+00
48	  0.029418837	-3.556800E+01	  0.029418837	-4.877900E+01	  0.029418837	5.109300E+01	  0.029418837	-1.280000E+00
49	  0.029619239	-3.568600E+01	  0.029619239	-5.025200E+01	  0.029619239	5.104500E+01	  0.029619239	-1.290000E+00
50	  0.029819639	-3.596300E+01	  0.029819639	-4.737700E+01	  0.029819639	5.107500E+01	  0.029819639	-1.196000E+00
51	  0.030020041	-3.631300E+01	  0.030020041	-4.542100E+01	  0.030020041	5.107200E+01	  0.030020041	-1.112000E+00
52	  0.030220442	-3.625500E+01	  0.030220442	-4.660600E+01	  0.030220442	5.105500E+01	  0.030220442	-1.142000E+00
53	  0.030420844	-3.605200E+01	  0.030420844	-4.663000E+01	  0.030420844	5.108000E+01	  0.030420844	-1.170000E+00
54	  0.030621244	-3.629400E+01	  0.030621244	-4.649100E+01	  0.030621244	5.105300E+01	  0.030621244	-1.134000E+00
55	  0.030821644	-3.597800E+01	  0.030821644	-4.836100E+01	  0.030821644	5.105200E+01	  0.030821644	-1.212000E+00
56	  0.031022044	-3.646500E+01	  0.031022044	-4.765300E+01	  0.031022044	5.100900E+01	  0.031022044	-1.132000E+00
57	  0.031222444	-3.645000E+01	  0.031222444	-4.866700E+01	  0.031222444	5.099000E+01	  0.031222444	-1.152000E+00
58	  0.031422846	-3.596900E+01	  0.031422846	-5.045500E+01	  0.031422846	5.100700E+01	  0.031422846	-1.251000E+00
59	  0.031623244	-3.662900E+01	  0.031623244	-4.859600E+01	  0.031623244	5.097100E+01	  0.031623244	-1.127000E+00
60	  0.031823646	-3.707100E+01	  0.031823646	-5.217800E+01	  0.031823646	5.085300E+01	  0.031823646	-1.125000E+00
61	  0.032024048	-3.674400E+01	  0.032024048	-4.712100E+01	  0.032024048	5.098800E+01	  0.032024048	-1.087000E+00
62	  0.032224450	-3.629300E+01	  0.032224450	-4.905600E+01	  0.032224450	5.100000E+01	  0.032224450	-1.180000E+00
63	  0.032424849	-3.710300E+01	  0.032424849	-4.667500E+01	  0.032424849	5.095600E+01	  0.032424849	-1.035000E+00
64	  0.032625251	-3.640900E+01	  0.032625251	-4.573000E+01	  0.032625251	5.105400E+01	  0.032625251	-1.105000E+00
65	  0.032825653	-3.719300E+01	  0.032825653	-4.591500E+01	  0.032825653	5.096000E+01	  0.032825653	-1.011000E+00
66	  0.033026051	-3.733600E+01	  0.033026051	-5.362000E+01	  0.033026051	5.080000E+01	  0.033026051	-1.111000E+00
67	  0.033226453	-3.612500E+01	  0.033226453	-4.797000E+01	  0.033226453	5.104300E+01	  0.033226453	-1.184000E+00
68	  0.033426855	-3.704400E+01	  0.033426855	-5.045500E+01	  0.033426855	5.089000E+01	  0.033426855	-1.103000E+00
69	  0.033627257	-3.682400E+01	  0.033627257	-4.997100E+01	  0.033627257	5.092300E+01	  0.033627257	-1.124000E+00
70	  0.033827655	-3.710300E+01	  0.033827655	-4.986800E+01	  0.033827655	5.089600E+01	  0.033827655	-1.086000E+00
71	  0.034028057	-3.738800E+01	  0.034028057	-4.921900E+01	  0.034028057	5.087900E+01	  0.034028057	-1.041000E+00
72	  0.034228459	-3.715100E+01	  0.034228459	-4.745000E+01	  0.034228459	5.093600E+01	  0.034228459	-1.041000E+00
73	  0.034428857	-3.727700E+01	  0.034428857	-5.120000E+01	  0.034428857	5.085300E+01	  0.034428857	-1.084000E+00
74	  0.034629259	-3.777600E+01	  0.034629259	-5.127900E+01	  0.034629259	5.080400E+01	  0.034629259	-1.024000E+00
75	  0.034829661	-3.738700E+01	  0.034829661	-4.907500E+01	  0.034829661	5.088200E+01	  0.034829661	-1.038000E+00
76	  0.035030060	-3.689200E+01	  0.035030060	-4.927800E+01	  0.035030060	5.092900E+01	  0.035030060	-1.104000E+00
77	  0.035230462	-3.707900E+01	  0.035230462	-4.746500E+01	  0.035230462	5.094400E+01	  0.035230462	-1.051000E+00
78	  0.035430863	-3.726400E+01	  0.035430863	-5.387600E+01	  0.035430863	5.080100E+01	  0.035430863	-1.124000E+00
79	  0.035631265	-3.782400E+01	  0.035631265	-4.896000E+01	  0.035631265	5.084000E+01	  0.035631265	-9.850000E-01
80	  0.035831664	-3.783300E+01	  0.035831664	-4.744900E+01	  0.035831664	5.086600E+01	  0.035831664	-9.610000E-01
81	  0.036032066	-3.785800E+01	  0.036032066	-4.911700E+01	  0.036032066	5.083500E+01	  0.036032066	-9.830000E-01
82	  0.036232468	-3.808600E+01	  0.036232468	-4.735800E+01	  0.036232468	5.084200E+01	  0.036232468	-9.320000E-01
83	  0.036432866	-3.810800E+01	  0.036432866	-5.402200E+01	  0.036432866	5.072500E+01	  0.036432866	-1.020000E+00
84	  0.036633268	-3.716600E+01	  0.036633268	-4.893500E+01	  0.036633268	5.090700E+01	  0.036633268	-1.063000E+00
85	  0.036833670	-3.759500E+01	  0.036833670	-4.777800E+01	  0.036833670	5.088400E+01	  0.036833670	-9.940000E-01
86	  0.037034072	-3.755000E+01	  0.037034072	-4.629300E+01	  0.037034072	5.091500E+01	  0.037034072	-9.760000E-01
87	  0.037234470	-3.761800E+01	  0.037234470	-4.753500E+01	  0.037234470	5.088600E+01	  0.037234470	-9.870000E-01
88	  0.037434869	-3.817200E+01	  0.037434869	-4.722100E+01	  0.037434869	5.083600E+01	  0.037434869	-9.210000E-01
89	  0.037635271	-3.837900E+01	  0.037635271	-4.773600E+01	  0.037635271	5.080800E+01	  0.037635271	-9.060000E-01
90	  0.037835669	-3.789400E+01	  0.037835669	-4.950800E+01	  0.037835669	5.082400E+01	  0.037835669	-9.850000E-01
91	  0.038036071	-3.873400E+01	  0.038036071	-5.076200E+01	  0.038036071	5.072800E+01	  0.038036071	-9.090000E-01
92	  0.038236473	-3.816100E+01	  0.038236473	-5.310000E+01	  0.038236473	5.073700E+01	  0.038236473	-1.002000E+00
93	  0.038436871	-3.892400E+01	  0.038436871	-5.164100E+01	  0.038436871	5.069900E+01	  0.038436871	-8.990000E-01
94	  0.038637273	-3.848200E+01	  0.038637273	-4.527200E+01	  0.038637273	5.083700E+01	  0.038637273	-8.600000E-01
95	  0.038837675	-3.846300E+01	  0.038837675	-5.328900E+01	  0.038837675	5.070900E+01	  0.038837675	-9.700000E-01
96	  0.039038073	-3.902000E+01	  0.039038073	-5.099100E+01	  0.039038073	5.070100E+01	  0.039038073	-8.820000E-01
97	  0.039238475	-3.904900E+01	  0.039238475	-5.163300E+01	  0.039238475	5.068900E+01	  0.039238475	-8.860000E-01
98	  0.039438877	-3.902600E+01	  0.039438877	-4.956400E+01	  0.039438877	5.072300E+01	  0.039438877	-8.630000E-01
99	  0.039639279	-4.005300E+01	  0.039639279	-5.298900E+01	  0.039639279	5.059500E+01	  0.039639279	-8.030000E-01
100	  0.039839678	-3.919400E+01	  0.039839678	-4.962600E+01	  0.039839678	5.070800E+01	  0.039839678	-8.470000E-01
101	  0.040040080	-3.883500E+01	  0.040040080	-4.672700E+01	  0.040040080	5.078200E+01	  0.040040080	-8.450000E-01
102	  0.040240481	-3.945300E+01	  0.040240481	-5.344600E+01	  0.040240481	5.063000E+01	  0.040240481	-8.660000E-01
103	  0.040440880	-3.949000E+01	  0.040440880	-5.152400E+01	  0.040440880	5.065700E+01	  0.040440880	-8.410000E-01
104	  0.040641282	-3.851900E+01	  0.040641282	-5.478300E+01	  0.040641282	5.067800E+01	  0.040641282	-9.820000E-01
105	  0.040841684	-3.900000E+01	  0.040841684	-5.342200E+01	  0.040841684	5.066400E+01	  0.040841684	-9.130000E-01
106	  0.041042086	-3.960500E+01	  0.041042086	-5.273200E+01	  0.041042086	5.063000E+01	  0.041042086	-8.430000E-01
107	  0.041242484	-3.918100E+01	  0.041242484	-5.658200E+01	  0.041242484	5.060000E+01	  0.041242484	-9.280000E-01
108	  0.041442886	-3.936900E+01	  0.041442886	-5.144000E+01	  0.041442886	5.066700E+01	  0.041442886	-8.520000E-01
109	  0.041643288	-3.891400E+01	  0.041643288	-5.355800E+01	  0.041643288	5.066900E+01	  0.041643288	-9.230000E-01
110	  0.041843686	-3.948900E+01	  0.041843686	-5.494200E+01	  0.041843686	5.060500E+01	  0.041843686	-8.780000E-01
111	  0.042044088	-4.049200E+01	  0.042044088	-6.088300E+01	  0.042044088	5.045500E+01	  0.042044088	-8.330000E-01
112	  0.042244490	-3.984500E+01	  0.042244490	-5.389400E+01	  0.042244490	5.059600E+01	  0.042244490	-8.320000E-01
113	  0.042444889	-3.879900E+01	  0.042444889	-6.075500E+01	  0.042444889	5.055300E+01	  0.042444889	-1.013000E+00
114	  0.042645290	-4.057400E+01	  0.042645290	-5.470500E+01	  0.042645290	5.053700E+01	  0.042645290	-7.720000E-01
115	  0.042845692	-4.008000E+01	  0.042845692	-4.948600E+01	  0.042845692	5.064200E+01	  0.042845692	-7.620000E-01
116	  0.043046094	-4.061700E+01	  0.043046094	-5.000500E+01	  0.043046094	5.059700E+01	  0.043046094	-7.220000E-01
117	  0.043246493	-4.040500E+01	  0.043246493	-5.250900E+01	  0.043246493	5.057800E+01	  0.043246493	-7.660000E-01
118	  0.043446895	-3.986700E+01	  0.043446895	-5.642400E+01	  0.043446895	5.055700E+01	  0.043446895	-8.550000E-01
119	  0.043647297	-4.056000E+01	  0.043647297	-4.792900E+01	  0.043647297	5.062700E+01	  0.043647297	-7.040000E-01
120	  0.043847695	-3.917200E+01	  0.043847695	-5.526600E+01	  0.043847695	5.062200E+01	  0.043847695	-9.150000E-01
121	  0.044048097	-4.035500E+01	  0.044048097	-4.870400E+01	  0.044048097	5.063200E+01	  0.044048097	-7.300000E-01
122	  0.044248499	-3.940100E+01	  0.044248499	-5.164100E+01	  0.044248499	5.066200E+01	  0.044248499	-8.510000E-01
123	  0.044448901	-4.128100E+01	  0.044448901	-4.773800E+01	  0.044448901	5.057900E+01	  0.044448901	-6.450000E-01
124	  0.044649299	-4.146000E+01	  0.044649299	-4.716400E+01	  0.044649299	5.057400E+01	  0.044649299	-6.260000E-01
125	  0.044849701	-4.067200E+01	  0.044849701	-5.275900E+01	  0.044849701	5.055700E+01	  0.044849701	-7.450000E-01
126	  0.045050103	-4.040600E+01	  0.045050103	-5.117900E+01	  0.045050103	5.059600E+01	  0.045050103	-7.520000E-01
127	  0.045250501	-4.099100E+01	  0.045250501	-4.696200E+01	  0.045250501	5.060800E+01	  0.045250501	-6.600000E-01
128	  0.045450903	-4.134800E+01	  0.045450903	-5.435000E+01	  0.045450903	5.049600E+01	  0.045450903	-7.020000E-01
129	  0.045651305	-4.175000E+01	  0.045651305	-5.258400E+01	  0.045651305	5.049400E+01	  0.045651305	-6.550000E-01
130	  0.045851704	-4.115000E+01	  0.045851704	-5.436000E+01	  0.045851704	5.050700E+01	  0.045851704	-7.190000E-01
131	  0.046052106	-4.233500E+01	  0.046052106	-4.633700E+01	  0.046052106	5.052700E+01	  0.046052106	-5.580000E-01
132	  0.046252504	-4.188600E+01	  0.046252504	-4.774200E+01	  0.046252504	5.054000E+01	  0.046252504	-6.020000E-01
133	  0.046452906	-4.030700E+01	  0.046452906	-4.711300E+01	  0.046452906	5.065600E+01	  0.046452906	-7.160000E-01
134	  0.046653304	-4.064400E+01	  0.046653304	-4.798200E+01	  0.046653304	5.062000E+01	  0.046653304	-6.980000E-01
135	  0.046853706	-4.167400E+01	  0.046853706	-4.957800E+01	  0.046853706	5.053300E+01	  0.046853706	-6.340000E-01
136	  0.047054108	-4.075900E+01	  0.047054108	-4.994700E+01	  0.047054108	5.058800E+01	  0.047054108	-7.090000E-01
137	  0.047254506	-4.161600E+01	  0.047254506	-5.701400E+01	  0.047254506	5.044900E+01	  0.047254506	-7.020000E-01
138	  0.047454908	-4.239900E+01	  0.047454908	-5.710700E+01	  0.047454908	5.040900E+01	  0.047454908	-6.420000E-01
139	  0.047655310	-4.195700E+01	  0.047655310	-5.013500E+01	  0.047655310	5.051000E+01	  0.047655310	-6.190000E-01
140	  0.047855709	-4.066400E+01	  0.047855709	-5.247600E+01	  0.047855709	5.056100E+01	  0.047855709	-7.430000E-01
141	  0.048056111	-4.188100E+01	  0.048056111	-5.858700E+01	  0.048056111	5.041600E+01	  0.048056111	-6.920000E-01
142	  0.048256513	-4.158800E+01	  0.048256513	-5.386300E+01	  0.048256513	5.048800E+01	  0.048256513	-6.790000E-01
143	  0.048456915	-4.229900E+01	  0.048456915	-4.693900E+01	  0.048456915	5.052300E+01	  0.048456915	-5.660000E-01
144	  0.048657313	-4.143900E+01	  0.048657313	-5.986100E+01	  0.048657313	5.042100E+01	  0.048657313	-7.380000E-01
145	  0.048857715	-4.381700E+01	  0.048857715	-5.999100E+01	  0.048857715	5.032000E+01	  0.048857715	-5.610000E-01
146	  0.049058117	-4.131900E+01	  0.049058117	-5.332500E+01	  0.049058117	5.051000E+01	  0.049058117	-6.960000E-01
147	  0.049258515	-4.303300E+01	  0.049258515	-5.554600E+01	  0.049258515	5.039700E+01	  0.049258515	-5.860000E-01
148	  0.049458917	-4.296200E+01	  0.049458917	-4.976700E+01	  0.049458917	5.045800E+01	  0.049458917	-5.470000E-01
149	  0.049659319	-4.328100E+01	  0.049659319	-5.254800E+01	  0.049659319	5.041500E+01	  0.049659319	-5.480000E-01
150	  0.049859721	-4.334000E+01	  0.049859721	-5.034800E+01	  0.049859721	5.043300E+01	  0.049859721	-5.280000E-01
151	  0.050060119	-4.239300E+01	  0.050060119	-4.744200E+01	  0.050060119	5.051200E+01	  0.050060119	-5.640000E-01
152	  0.050260521	-4.292500E+01	  0.050260521	-5.293200E+01	  0.050260521	5.042800E+01	  0.050260521	-5.740000E-01
153	  0.050460923	-4.251100E+01	  0.050460923	-5.176400E+01	  0.050460923	5.046200E+01	  0.050460923	-5.930000E-01
154	  0.050661322	-4.267800E+01	  0.050661322	-5.142000E+01	  0.050661322	5.045600E+01	  0.050661322	-5.790000E-01
155	  0.050861724	-4.280100E+01	  0.050861724	-5.814200E+01	  0.050861724	5.037900E+01	  0.050861724	-6.190000E-01
156	  0.051062126	-4.337500E+01	  0.051062126	-5.462600E+01	  0.051062126	5.039000E+01	  0.051062126	-5.570000E-01
157	  0.051262524	-4.458600E+01	  0.051262524	-5.470000E+01	  0.051262524	5.033900E+01	  0.051262524	-4.840000E-01
158	  0.051462926	-4.314100E+01	  0.051462926	-5.221500E+01	  0.051462926	5.042500E+01	  0.051462926	-5.550000E-01
159	  0.051663328	-4.597000E+01	  0.051663328	-4.245000E+01	  0.051663328	5.037100E+01	  0.051663328	-3.410000E-01
160	  0.051863730	-4.435300E+01	  0.051863730	-4.625900E+01	  0.051863730	5.041800E+01	  0.051863730	-4.410000E-01
161	  0.052064128	-4.523000E+01	  0.052064128	-5.071000E+01	  0.052064128	5.034600E+01	  0.052064128	-4.260000E-01
162	  0.052264530	-4.440400E+01	  0.052264530	-4.957700E+01	  0.052264530	5.038900E+01	  0.052264530	-4.620000E-01
163	  0.052464932	-4.341400E+01	  0.052464932	-4.499300E+01	  0.052464932	5.047700E+01	  0.052464932	-4.810000E-01
164	  0.052665330	-4.645000E+01	  0.052665330	-5.133500E+01	  0.052665330	5.029600E+01	  0.052665330	-3.730000E-01
165	  0.052865732	-4.531000E+01	  0.052865732	-4.474000E+01	  0.052865732	5.038500E+01	  0.052865732	-3.840000E-01
166	  0.053066134	-4.461500E+01	  0.053066134	-6.471200E+01	  0.053066134	5.024800E+01	  0.053066134	-5.340000E-01
167	  0.053266536	-4.545400E+01	  0.053266536	-4.667500E+01	  0.053266536	5.036500E+01	  0.053266536	-3.910000E-01
168	  0.053466935	-4.545700E+01	  0.053466935	-5.115500E+01	  0.053466935	5.033300E+01	  0.053466935	-4.180000E-01
169	  0.053667337	-4.608600E+01	  0.053667337	-6.532700E+01	  0.053667337	5.020500E+01	  0.053667337	-4.520000E-01
170	  0.053867739	-4.483500E+01	  0.053867739	-5.413800E+01	  0.053867739	5.033400E+01	  0.053867739	-4.670000E-01
171	  0.054068137	-4.481200E+01	  0.054068137	-5.599100E+01	  0.054068137	5.032000E+01	  0.054068137	-4.790000E-01
172	  0.054268539	-4.484700E+01	  0.054268539	-4.915300E+01	  0.054268539	5.037300E+01	  0.054268539	-4.360000E-01
173	  0.054468941	-4.524600E+01	  0.054468941	-5.348400E+01	  0.054468941	5.032400E+01	  0.054468941	-4.420000E-01
174	  0.054669339	-4.456500E+01	  0.054669339	-4.253400E+01	  0.054669339	5.043500E+01	  0.054669339	-4.030000E-01
175	  0.054869737	-4.675200E+01	  0.054869737	-5.739300E+01	  0.054869737	5.024600E+01	  0.054869737	-3.890000E-01
176	  0.055070139	-4.613100E+01	  0.055070139	-5.377400E+01	  0.055070139	5.029000E+01	  0.055070139	-4.000000E-01
177	  0.055270538	-4.572500E+01	  0.055270538	-3.282400E+01	  0.055270538	5.043500E+01	  0.055270538	-2.820000E-01
178	  0.055470940	-4.563400E+01	  0.055470940	-4.826000E+01	  0.055470940	5.034700E+01	  0.055470940	-3.920000E-01
179	  0.055671342	-4.543900E+01	  0.055671342	-6.058100E+01	  0.055671342	5.026100E+01	  0.055671342	-4.680000E-01
180	  0.055871744	-4.572100E+01	  0.055871744	-4.426100E+01	  0.055871744	5.037000E+01	  0.055871744	-3.630000E-01
181	  0.056072142	-4.674200E+01	  0.056072142	-5.596400E+01	  0.056072142	5.025600E+01	  0.056072142	-3.830000E-01
182	  0.056272544	-4.618700E+01	  0.056272544	-4.779900E+01	  0.056272544	5.032900E+01	  0.056272544	-3.650000E-01
183	  0.056472946	-4.641000E+01	  0.056472946	-5.317400E+01	  0.056472946	5.028500E+01	  0.056472946	-3.840000E-01
184	  0.056673344	-4.606800E+01	  0.056673344	-4.579600E+01	  0.056673344	5.034600E+01	  0.056673344	-3.580000E-01
185	  0.056873746	-4.800600E+01	  0.056873746	-4.953500E+01	  0.056873746	5.025700E+01	  0.056873746	-3.040000E-01
186	  0.057074148	-4.632500E+01	  0.057074148	-4.032800E+01	  0.057074148	5.036800E+01	  0.057074148	-3.140000E-01
187	  0.057274550	-4.763500E+01	  0.057274550	-5.476200E+01	  0.057274550	5.023800E+01	  0.057274550	-3.400000E-01
188	  0.057474948	-4.789900E+01	  0.057474948	-4.270500E+01	  0.057474948	5.029600E+01	  0.057474948	-2.740000E-01
189	  0.057675350	-5.084200E+01	  0.057675350	-3.893200E+01	  0.057675350	5.022300E+01	  0.057675350	-1.810000E-01
190	  0.057875752	-4.837300E+01	  0.057875752	-5.198100E+01	  0.057875752	5.023400E+01	  0.057875752	-3.010000E-01
191	  0.058076151	-4.681300E+01	  0.058076151	-3.098800E+01	  0.058076151	5.039200E+01	  0.058076151	-2.360000E-01
192	  0.058276553	-4.857000E+01	  0.058276553	-4.926900E+01	  0.058276553	5.024300E+01	  0.058276553	-2.830000E-01
193	  0.058476955	-5.095700E+01	  0.058476955	-4.205100E+01	  0.058476955	5.021000E+01	  0.058476955	-1.900000E-01
194	  0.058677353	-4.836800E+01	  0.058677353	-3.434700E+01	  0.058677353	5.031500E+01	  0.058677353	-2.160000E-01
195	  0.058877755	-4.645800E+01	  0.058877755	-4.230300E+01	  0.058877755	5.035100E+01	  0.058877755	-3.220000E-01
196	  0.059078157	-4.638900E+01	  0.059078157	-4.339100E+01	  0.059078157	5.034800E+01	  0.059078157	-3.310000E-01
197	  0.059278559	-4.821700E+01	  0.059278559	-3.405100E+01	  0.059278559	5.032200E+01	  0.059278559	-2.180000E-01
198	  0.059478957	-4.888700E+01	  0.059478957	-4.546300E+01	  0.059478957	5.025200E+01	  0.059478957	-2.570000E-01
199	  0.059679359	-5.238300E+01	  0.059679359	-4.890000E+01	  0.059679359	5.015700E+01	  0.059679359	-1.810000E-01
200	  0.059879761	-5.245700E+01	  0.059879761	-3.388500E+01	  0.059879761	5.019800E+01	  0.059879761	-1.330000E-01
201	  0.060080159	-4.918500E+01	  0.060080159	-3.962600E+01	  0.060080159	5.026700E+01	  0.060080159	-2.220000E-01
202	  0.060280561	-5.272300E+01	  0.060280561	-1.472900E+01	  0.060280561	5.022300E+01	  0.060280561	-5.900000E-02
203	  0.060480963	-4.878500E+01	  0.060480963	-5.158300E+01	  0.060480963	5.022500E+01	  0.060480963	-2.860000E-01
204	  0.060681365	-4.742700E+01	  0.060681365	-5.148500E+01	  0.060681365	5.026400E+01	  0.060681365	-3.340000E-01
205	  0.060881764	-4.848900E+01	  0.060881764	-4.099000E+01	  0.060881764	5.028400E+01	  0.060881764	-2.480000E-01
206	  0.061082166	-5.288300E+01	  0.061082166	-4.067100E+01	  0.061082166	5.017200E+01	  0.061082166	-1.480000E-01
207	  0.061282568	-4.907300E+01	  0.061282568	-2.014100E+01	  0.061282568	5.033100E+01	  0.061282568	-1.210000E-01
208	  0.061482966	-5.258900E+01	  0.061482966	-3.165800E+01	  0.061482966	5.020000E+01	  0.061482966	-1.230000E-01
209	  0.061683368	-4.802800E+01	  0.061683368	-4.133700E+01	  0.061683368	5.029800E+01	  0.061683368	-2.630000E-01
210	  0.061883770	-5.221600E+01	  0.061883770	-1.235100E+01	  0.061883770	5.023900E+01	  0.061883770	-5.200000E-02
211	  0.062084168	-4.994700E+01	  0.062084168	-2.572300E+01	  0.062084168	5.028700E+01	  0.062084168	-1.380000E-01
212	  0.062284570	-4.874100E+01	  0.062284570	-3.485100E+01	  0.062284570	5.030000E+01	  0.062284570	-2.100000E-01
213	  0.062484972	-5.776700E+01	  0.062484972	-4.791200E+01	  0.062484972	5.008600E+01	  0.062484972	-9.600000E-02
214	  0.062685370	-5.705400E+01	  0.062685370	-4.236600E+01	  0.062685370	5.010300E+01	  0.062685370	-9.400000E-02
215	  0.062885776	-5.347800E+01	  0.062885776	-3.309300E+01	  0.062885776	5.017700E+01	  0.062885776	-1.160000E-01
216	  0.063086174	-4.958000E+01	  0.063086174	-2.904900E+01	  0.063086174	5.029000E+01	  0.063086174	-1.620000E-01
217	  0.063286573	-5.558600E+01	  0.063286573	-3.877500E+01	  0.063286573	5.012900E+01	  0.063286573	-1.040000E-01
218	  0.063486971	-5.143100E+01	  0.063486971	-3.867200E+01	  0.063486971	5.020900E+01	  0.063486971	-1.680000E-01
219	  0.063687377	-5.827600E+01	  0.063687377	-3.139800E+01	  0.063687377	5.010400E+01	  0.063687377	-6.300000E-02
220	  0.063887775	-5.036700E+01	  0.063887775	-7.093600E+01	  0.063887775	5.009800E+01	  0.063887775	-2.870000E-01
221	  0.064088173	-5.994100E+01	  0.064088173	-2.240900E+01	  0.064088173	5.009300E+01	  0.064088173	-3.800000E-02
222	  0.064288579	-4.790200E+01	  0.064288579	-4.402000E+00	  0.064288579	5.040300E+01	  0.064288579	-3.100000E-02
223	  0.064488977	-5.337200E+01	  0.064488977	-4.409700E+01	  0.064488977	5.015400E+01	  0.064488977	-1.490000E-01
224	  0.064689375	-5.528900E+01	  0.064689375	2.114900E+01	  0.064689375	5.016000E+01	  0.064689375	6.200000E-02
225	  0.064889781	-5.937400E+01	  0.064889781	6.616600E+01	  0.064889781	5.004300E+01	  0.064889781	9.800000E-02
226	  0.065090179	-6.269400E+01	  0.065090179	-4.324100E+01	  0.065090179	5.005300E+01	  0.065090179	-5.000000E-02
227	  0.065290578	-5.530100E+01	  0.065290578	-8.870000E-01	  0.065290578	5.017200E+01	  0.065290578	-2.000000E-03
228	  0.065490983	-5.205400E+01	  0.065490983	-3.138400E+01	  0.065490983	5.021300E+01	  0.065490983	-1.300000E-01
229	  0.065691382	-5.360600E+01	  0.065691382	2.976800E+01	  0.065691382	5.018100E+01	  0.065691382	1.040000E-01
230	  0.065891780	-4.936100E+01	  0.065891780	-5.127000E+00	  0.065891780	5.034000E+01	  0.065891780	-3.000000E-02
231	  0.066092186	-4.914100E+01	  0.066092186	-1.283300E+01	  0.066092186	5.034100E+01	  0.066092186	-7.800000E-02
232	  0.066292584	-5.168300E+01	  0.066292584	1.323000E+01	  0.066292584	5.025400E+01	  0.066292584	5.900000E-02
233	  0.066492982	-5.310200E+01	  0.066492982	1.225500E+01	  0.066492982	5.021600E+01	  0.066492982	4.700000E-02
234	  0.066693388	-5.547200E+01	  0.066693388	-6.710000E-01	  0.066693388	5.016800E+01	  0.066693388	-1.000000E-03
235	  0.066893786	-5.167100E+01	  0.066893786	2.637000E+01	  0.066893786	5.023400E+01	  0.066893786	1.160000E-01
236	  0.067094192	-6.274000E+01	  0.067094192	1.149140E+02	  0.067094192	4.996900E+01	  0.067094192	6.600000E-02
237	  0.067294590	-5.852400E+01	  0.067294590	-8.810800E+01	  0.067294590	5.000300E+01	  0.067294590	-1.180000E-01
238	  0.067494988	-5.707800E+01	  0.067494988	8.318600E+01	  0.067494988	5.001600E+01	  0.067494988	1.390000E-01
239	  0.067695394	-4.958800E+01	  0.067695394	2.125400E+01	  0.067695394	5.030900E+01	  0.067695394	1.200000E-01
240	  0.067895792	-5.151000E+01	  0.067895792	3.737100E+01	  0.067895792	5.021100E+01	  0.067895792	1.610000E-01
241	  0.068096191	-5.171400E+01	  0.068096191	3.767500E+01	  0.068096191	5.020500E+01	  0.068096191	1.590000E-01
242	  0.068296596	-5.103300E+01	  0.068296596	6.360400E+01	  0.068296596	5.012400E+01	  0.068296596	2.520000E-01
243	  0.068496995	-5.662400E+01	  0.068496995	2.356000E+00	  0.068496995	5.014700E+01	  0.068496995	6.000000E-03
244	  0.068697393	-5.916000E+01	  0.068697393	2.216300E+01	  0.068697393	5.010200E+01	  0.068697393	4.100000E-02
245	  0.068897791	-5.474700E+01	  0.068897791	2.779500E+01	  0.068897791	5.016200E+01	  0.068897791	8.500000E-02
246	  0.069098189	-5.765300E+01	  0.069098189	4.743100E+01	  0.069098189	5.008800E+01	  0.069098189	9.600000E-02
247	  0.069298595	-4.953700E+01	  0.069298595	5.064900E+01	  0.069298595	5.021100E+01	  0.069298595	2.590000E-01
248	  0.069498993	-5.264600E+01	  0.069498993	2.712200E+01	  0.069498993	5.020700E+01	  0.069498993	1.060000E-01
249	  0.069699399	-5.597900E+01	  0.069699399	5.442100E+01	  0.069699399	5.009200E+01	  0.069699399	1.290000E-01
250	  0.069899797	-4.992900E+01	  0.069899797	9.023600E+01	  0.069899797	4.999700E+01	  0.069899797	3.180000E-01
251	  0.070100196	-4.961200E+01	  0.070100196	4.649000E+01	  0.070100196	5.022700E+01	  0.070100196	2.400000E-01
252	  0.070300601	-5.250300E+01	  0.070300601	4.019600E+01	  0.070300601	5.018100E+01	  0.070300601	1.530000E-01
253	  0.070501000	-4.918100E+01	  0.070501000	5.798600E+01	  0.070501000	5.018300E+01	  0.070501000	2.950000E-01
254	  0.070701398	-5.306000E+01	  0.070701398	5.291300E+01	  0.070701398	5.013300E+01	  0.070701398	1.770000E-01
255	  0.070901804	-4.923800E+01	  0.070901804	3.679300E+01	  0.070901804	5.027600E+01	  0.070901804	2.070000E-01
256	  0.071102202	-5.069100E+01	  0.071102202	4.624600E+01	  0.071102202	5.020100E+01	  0.071102202	2.110000E-01
257	  0.071302600	-5.864000E+01	  0.071302600	6.613500E+01	  0.071302600	5.004700E+01	  0.071302600	1.070000E-01
258	  0.071503006	-6.091300E+01	  0.071503006	1.124600E+01	  0.071503006	5.008800E+01	  0.071503006	1.700000E-02
259	  0.071703404	-5.143100E+01	  0.071703404	6.800500E+01	  0.071703404	5.009900E+01	  0.071703404	2.490000E-01
260	  0.071903802	-4.854000E+01	  0.071903802	5.898100E+01	  0.071903802	5.019200E+01	  0.071903802	3.210000E-01
261	  0.072104208	-5.434100E+01	  0.072104208	5.304200E+01	  0.072104208	5.011500E+01	  0.072104208	1.530000E-01
262	  0.072304606	-5.022100E+01	  0.072304606	9.144300E+01	  0.072304606	4.999100E+01	  0.072304606	3.080000E-01
263	  0.072505005	-5.015700E+01	  0.072505005	6.694400E+01	  0.072505005	5.012000E+01	  0.072505005	2.860000E-01
264	  0.072705410	-5.201700E+01	  0.072705410	4.892800E+01	  0.072705410	5.016400E+01	  0.072705410	1.890000E-01
265	  0.072905809	-5.150200E+01	  0.072905809	3.774400E+01	  0.072905809	5.021000E+01	  0.072905809	1.630000E-01
266	  0.073106214	-5.238100E+01	  0.073106214	3.580200E+01	  0.073106214	5.019500E+01	  0.073106214	1.410000E-01
267	  0.073306613	-4.690200E+01	  0.073306613	5.593300E+01	  0.073306613	5.025200E+01	  0.073306613	3.760000E-01
268	  0.073507011	-4.797500E+01	  0.073507011	5.994700E+01	  0.073507011	5.019900E+01	  0.073507011	3.460000E-01
269	  0.073707417	-4.730600E+01	  0.073707417	8.198500E+01	  0.073707417	5.005800E+01	  0.073707417	4.270000E-01
270	  0.073907815	-5.102500E+01	  0.073907815	5.551300E+01	  0.073907815	5.015800E+01	  0.073907815	2.320000E-01
271	  0.074108213	-4.907700E+01	  0.074108213	6.494000E+01	  0.074108213	5.014800E+01	  0.074108213	3.190000E-01
272	  0.074308619	-4.527600E+01	  0.074308619	8.597300E+01	  0.074308619	5.003500E+01	  0.074308619	5.430000E-01
273	  0.074509017	-5.128800E+01	  0.074509017	7.040600E+01	  0.074509017	5.009000E+01	  0.074509017	2.570000E-01
274	  0.074709415	-5.060700E+01	  0.074709415	6.077100E+01	  0.074709415	5.014300E+01	  0.074709415	2.580000E-01
275	  0.074909821	-4.755300E+01	  0.074909821	9.727000E+01	  0.074909821	4.994500E+01	  0.074909821	4.150000E-01
276	  0.075110219	-4.728200E+01	  0.075110219	7.898500E+01	  0.075110219	5.008000E+01	  0.075110219	4.250000E-01
277	  0.075310618	-4.557900E+01	  0.075310618	6.994500E+01	  0.075310618	5.017800E+01	  0.075310618	4.950000E-01
278	  0.075511023	-4.540200E+01	  0.075511023	6.853500E+01	  0.075511023	5.019400E+01	  0.075511023	5.010000E-01
279	  0.075711422	-4.854800E+01	  0.075711422	7.796600E+01	  0.075711422	5.007600E+01	  0.075711422	3.660000E-01
280	  0.075911827	-4.883400E+01	  0.075911827	7.678900E+01	  0.075911827	5.008100E+01	  0.075911827	3.520000E-01
281	  0.076112226	-4.914300E+01	  0.076112226	6.155000E+01	  0.076112226	5.016500E+01	  0.076112226	3.070000E-01
282	  0.076312624	-4.672800E+01	  0.076312624	7.022200E+01	  0.076312624	5.015400E+01	  0.076312624	4.350000E-01
283	  0.076513030	-4.684900E+01	  0.076513030	9.542800E+01	  0.076513030	4.995400E+01	  0.076513030	4.520000E-01
284	  0.076713428	-4.544500E+01	  0.076713428	8.545900E+01	  0.076713428	5.003900E+01	  0.076713428	5.320000E-01
285	  0.076913826	-4.839800E+01	  0.076913826	9.953100E+01	  0.076913826	4.993500E+01	  0.076913826	3.740000E-01
286	  0.077114232	-4.377100E+01	  0.077114232	8.672800E+01	  0.077114232	5.003200E+01	  0.077114232	6.470000E-01
287	  0.077314630	-4.460300E+01	  0.077314630	8.406000E+01	  0.077314630	5.005700E+01	  0.077314630	5.860000E-01
288	  0.077515028	-4.571600E+01	  0.077515028	7.612600E+01	  0.077515028	5.012100E+01	  0.077515028	5.030000E-01
289	  0.077715434	-4.538700E+01	  0.077715434	7.464300E+01	  0.077715434	5.013900E+01	  0.077715434	5.200000E-01
290	  0.077915832	-4.567600E+01	  0.077915832	7.859200E+01	  0.077915832	5.010000E+01	  0.077915832	5.100000E-01
291	  0.078116231	-4.493800E+01	  0.078116231	8.798700E+01	  0.078116231	5.001600E+01	  0.078116231	5.660000E-01
292	  0.078316636	-4.590900E+01	  0.078316636	6.842900E+01	  0.078316636	5.018400E+01	  0.078316636	4.720000E-01
293	  0.078517035	-4.556900E+01	  0.078517035	5.605700E+01	  0.078517035	5.029300E+01	  0.078517035	4.390000E-01
294	  0.078717433	-4.690000E+01	  0.078717433	8.225200E+01	  0.078717433	5.005800E+01	  0.078717433	4.480000E-01
295	  0.078917839	-4.593900E+01	  0.078917839	7.480100E+01	  0.078917839	5.013000E+01	  0.078917839	4.880000E-01
296	  0.079118237	-4.306900E+01	  0.079118237	8.096500E+01	  0.079118237	5.010500E+01	  0.079118237	6.950000E-01
297	  0.079318643	-4.305800E+01	  0.079318643	6.543900E+01	  0.079318643	5.028900E+01	  0.079318643	6.430000E-01
298	  0.079519041	-4.633800E+01	  0.079519041	7.249200E+01	  0.079519041	5.014300E+01	  0.079519041	4.610000E-01
299	  0.079719439	-4.417100E+01	  0.079719439	7.841900E+01	  0.079719439	5.012000E+01	  0.079719439	6.070000E-01
300	  0.079919845	-4.272500E+01	  0.079919845	7.869200E+01	  0.079919845	5.013800E+01	  0.079919845	7.180000E-01
301	  0.080120243	-4.339300E+01	  0.080120243	6.750200E+01	  0.080120243	5.025500E+01	  0.080120243	6.280000E-01
302	  0.080320641	-4.638000E+01	  0.080320641	9.013800E+01	  0.080320641	4.999600E+01	  0.080320641	4.790000E-01
303	  0.080521047	-4.457000E+01	  0.080521047	8.353900E+01	  0.080521047	5.006300E+01	  0.080521047	5.870000E-01
304	  0.080721445	-4.454200E+01	  0.080721445	8.911100E+01	  0.080721445	5.000500E+01	  0.080721445	5.920000E-01
305	  0.080921844	-4.620900E+01	  0.080921844	7.416200E+01	  0.080921844	5.013100E+01	  0.080921844	4.710000E-01
306	  0.081122249	-4.497600E+01	  0.081122249	8.088800E+01	  0.081122249	5.008600E+01	  0.081122249	5.570000E-01
307	  0.081322648	-4.545800E+01	  0.081322648	7.857500E+01	  0.081322648	5.010300E+01	  0.081322648	5.230000E-01
308	  0.081523046	-4.432600E+01	  0.081523046	7.613600E+01	  0.081523046	5.014200E+01	  0.081523046	5.910000E-01
309	  0.081723452	-4.339200E+01	  0.081723452	8.020700E+01	  0.081723452	5.011000E+01	  0.081723452	6.680000E-01
310	  0.081923850	-4.318100E+01	  0.081923850	8.275700E+01	  0.081923850	5.008200E+01	  0.081923850	6.880000E-01
311	  0.082124248	-4.329600E+01	  0.082124248	8.210000E+01	  0.082124248	5.008900E+01	  0.082124248	6.780000E-01
312	  0.082324654	-4.450600E+01	  0.082324654	8.231900E+01	  0.082324654	5.007600E+01	  0.082324654	5.900000E-01
313	  0.082525052	-4.249600E+01	  0.082525052	8.526700E+01	  0.082525052	5.005600E+01	  0.082525052	7.480000E-01
314	  0.082725458	-4.345800E+01	  0.082725458	8.915100E+01	  0.082725458	5.000500E+01	  0.082725458	6.710000E-01
315	  0.082925856	-4.392600E+01	  0.082925856	8.023500E+01	  0.082925856	5.010400E+01	  0.082925856	6.280000E-01
316	  0.083126254	-4.318000E+01	  0.083126254	8.893400E+01	  0.083126254	5.000800E+01	  0.083126254	6.930000E-01
317	  0.083326660	-4.227200E+01	  0.083326660	8.362100E+01	  0.083326660	5.007900E+01	  0.083326660	7.660000E-01
318	  0.083527058	-4.200900E+01	  0.083527058	8.271500E+01	  0.083527058	5.009400E+01	  0.083527058	7.880000E-01
319	  0.083727457	-4.178200E+01	  0.083727457	8.110500E+01	  0.083727457	5.011900E+01	  0.083727457	8.060000E-01
320	  0.083927862	-4.342300E+01	  0.083927862	8.761600E+01	  0.083927862	5.002300E+01	  0.083927862	6.740000E-01
321	  0.084128261	-4.224000E+01	  0.084128261	7.916400E+01	  0.084128261	5.013900E+01	  0.084128261	7.610000E-01
322	  0.084328659	-4.256400E+01	  0.084328659	8.413000E+01	  0.084328659	5.007000E+01	  0.084328659	7.410000E-01
323	  0.084529065	-4.261200E+01	  0.084529065	9.462300E+01	  0.084529065	4.993400E+01	  0.084529065	7.360000E-01
324	  0.084729463	-4.350600E+01	  0.084729463	7.956900E+01	  0.084729463	5.011600E+01	  0.084729463	6.580000E-01
325	  0.084929861	-4.227400E+01	  0.084929861	7.057000E+01	  0.084929861	5.025100E+01	  0.084929861	7.290000E-01
326	  0.085130267	-4.150200E+01	  0.085130267	9.027300E+01	  0.085130267	4.998800E+01	  0.085130267	8.400000E-01
327	  0.085330658	-4.301300E+01	  0.085330658	7.478000E+01	  0.085330658	5.018100E+01	  0.085330658	6.840000E-01
328	  0.085531056	-4.237100E+01	  0.085531056	8.374300E+01	  0.085531056	5.007700E+01	  0.085531056	7.570000E-01
329	  0.085731462	-4.151300E+01	  0.085731462	7.946600E+01	  0.085731462	5.014600E+01	  0.085731462	8.280000E-01
330	  0.085931860	-4.168600E+01	  0.085931860	8.863900E+01	  0.085931860	5.001200E+01	  0.085931860	8.230000E-01
331	  0.086132258	-4.232700E+01	  0.086132258	7.712500E+01	  0.086132258	5.016500E+01	  0.086132258	7.480000E-01
332	  0.086332664	-4.185600E+01	  0.086332664	8.395900E+01	  0.086332664	5.007800E+01	  0.086332664	8.040000E-01
333	  0.086533062	-4.114900E+01	  0.086533062	8.131100E+01	  0.086533062	5.012400E+01	  0.086533062	8.680000E-01
334	  0.086733460	-4.058300E+01	  0.086733460	8.089500E+01	  0.086733460	5.013900E+01	  0.086733460	9.250000E-01
335	  0.086933866	-4.151500E+01	  0.086933866	8.051300E+01	  0.086933866	5.013100E+01	  0.086933866	8.300000E-01
336	  0.087134264	-4.154300E+01	  0.087134264	7.578200E+01	  0.087134264	5.019900E+01	  0.087134264	8.140000E-01
337	  0.087334670	-4.166300E+01	  0.087334670	7.694000E+01	  0.087334670	5.018000E+01	  0.087334670	8.070000E-01
338	  0.087535068	-4.022800E+01	  0.087535068	7.958200E+01	  0.087535068	5.016700E+01	  0.087535068	9.610000E-01
339	  0.087735467	-4.106100E+01	  0.087735467	7.592500E+01	  0.087735467	5.020800E+01	  0.087735467	8.620000E-01
340	  0.087935872	-4.028600E+01	  0.087935872	7.882300E+01	  0.087935872	5.017800E+01	  0.087935872	9.520000E-01
341	  0.088136271	-3.970100E+01	  0.088136271	8.741200E+01	  0.088136271	5.003600E+01	  0.088136271	1.034000E+00
342	  0.088336669	-4.221200E+01	  0.088336669	7.306600E+01	  0.088336669	5.022000E+01	  0.088336669	7.440000E-01
343	  0.088537075	-3.915300E+01	  0.088537075	7.893300E+01	  0.088537075	5.020000E+01	  0.088537075	1.086000E+00
344	  0.088737473	-4.054600E+01	  0.088737473	8.784400E+01	  0.088737473	5.002600E+01	  0.088737473	9.380000E-01
345	  0.088937871	-4.033000E+01	  0.088937871	8.183800E+01	  0.088937871	5.012700E+01	  0.088937871	9.550000E-01
346	  0.089138277	-4.006100E+01	  0.089138277	7.809200E+01	  0.089138277	5.019500E+01	  0.089138277	9.750000E-01
347	  0.089338675	-4.032400E+01	  0.089338675	7.756000E+01	  0.089338675	5.019900E+01	  0.089338675	9.440000E-01
348	  0.089539073	-4.056000E+01	  0.089539073	8.234700E+01	  0.089539073	5.011600E+01	  0.089539073	9.310000E-01
349	  0.089739479	-3.938700E+01	  0.089739479	8.493800E+01	  0.089739479	5.008300E+01	  0.089739479	1.070000E+00
350	  0.089939877	-3.950800E+01	  0.089939877	8.410500E+01	  0.089939877	5.009700E+01	  0.089939877	1.054000E+00
351	  0.090140276	-3.958200E+01	  0.090140276	8.296100E+01	  0.090140276	5.011700E+01	  0.090140276	1.043000E+00
352	  0.090340681	-3.967100E+01	  0.090340681	7.441800E+01	  0.090340681	5.026900E+01	  0.090340681	1.005000E+00
353	  0.090541080	-3.983800E+01	  0.090541080	7.987700E+01	  0.090541080	5.016900E+01	  0.090541080	1.006000E+00
354	  0.090741485	-3.922900E+01	  0.090741485	8.567200E+01	  0.090741485	5.007000E+01	  0.090741485	1.091000E+00
355	  0.090941884	-4.064400E+01	  0.090941884	7.348100E+01	  0.090941884	5.025600E+01	  0.090941884	8.940000E-01
356	  0.091142282	-3.896600E+01	  0.091142282	7.814500E+01	  0.091142282	5.021900E+01	  0.091142282	1.107000E+00
357	  0.091342688	-3.883500E+01	  0.091342688	7.378000E+01	  0.091342688	5.030800E+01	  0.091342688	1.104000E+00
358	  0.091543086	-3.841300E+01	  0.091543086	7.877700E+01	  0.091543086	5.022000E+01	  0.091543086	1.182000E+00
359	  0.091743484	-4.108200E+01	  0.091743484	7.489200E+01	  0.091743484	5.022300E+01	  0.091743484	8.560000E-01
360	  0.091943890	-3.929800E+01	  0.091943890	7.649900E+01	  0.091943890	5.024200E+01	  0.091943890	1.059000E+00
361	  0.092144288	-3.866300E+01	  0.092144288	8.050100E+01	  0.092144288	5.017900E+01	  0.092144288	1.154000E+00
362	  0.092344686	-3.901200E+01	  0.092344686	8.135500E+01	  0.092344686	5.015600E+01	  0.092344686	1.111000E+00
363	  0.092545092	-3.899900E+01	  0.092545092	8.136800E+01	  0.092545092	5.015600E+01	  0.092545092	1.112000E+00
364	  0.092745490	-3.901600E+01	  0.092745490	7.824900E+01	  0.092745490	5.021600E+01	  0.092745490	1.101000E+00
365	  0.092945889	-3.901000E+01	  0.092945889	7.622700E+01	  0.092945889	5.025500E+01	  0.092945889	1.094000E+00
366	  0.093146294	-3.917700E+01	  0.093146294	7.895500E+01	  0.093146294	5.019900E+01	  0.093146294	1.083000E+00
367	  0.093346693	-3.895100E+01	  0.093346693	7.816000E+01	  0.093346693	5.021900E+01	  0.093346693	1.109000E+00
368	  0.093547091	-3.870800E+01	  0.093547091	7.031600E+01	  0.093547091	5.038000E+01	  0.093547091	1.100000E+00
369	  0.093747497	-3.907900E+01	  0.093747497	7.973700E+01	  0.093747497	5.018600E+01	  0.093747497	1.098000E+00
370	  0.093947895	-3.920400E+01	  0.093947895	7.404900E+01	  0.093947895	5.029000E+01	  0.093947895	1.060000E+00
371	  0.094148301	-3.829800E+01	  0.094148301	7.689800E+01	  0.094148301	5.026200E+01	  0.094148301	1.191000E+00
372	  0.094348699	-3.813100E+01	  0.094348699	8.010700E+01	  0.094348699	5.019800E+01	  0.094348699	1.226000E+00
373	  0.094549097	-3.861900E+01	  0.094549097	7.938700E+01	  0.094549097	5.020200E+01	  0.094549097	1.157000E+00
374	  0.094749503	-3.829500E+01	  0.094749503	7.866600E+01	  0.094749503	5.022500E+01	  0.094749503	1.198000E+00
375	  0.094949901	-3.876900E+01	  0.094949901	7.997200E+01	  0.094949901	5.018800E+01	  0.094949901	1.138000E+00
376	  0.095150299	-3.756300E+01	  0.095150299	8.381500E+01	  0.095150299	5.012500E+01	  0.095150299	1.319000E+00
377	  0.095350705	-3.711700E+01	  0.095350705	8.129200E+01	  0.095350705	5.019200E+01	  0.095350705	1.383000E+00
378	  0.095551103	-3.730400E+01	  0.095551103	7.164200E+01	  0.095551103	5.041400E+01	  0.095551103	1.305000E+00
379	  0.095751502	-3.896000E+01	  0.095751502	8.133500E+01	  0.095751502	5.015700E+01	  0.095751502	1.117000E+00
380	  0.095951907	-3.811400E+01	  0.095951907	7.563600E+01	  0.095951907	5.029400E+01	  0.095951907	1.210000E+00
381	  0.096152306	-3.785100E+01	  0.096152306	7.979300E+01	  0.096152306	5.021100E+01	  0.096152306	1.265000E+00
382	  0.096352704	-3.799000E+01	  0.096352704	7.344200E+01	  0.096352704	5.034500E+01	  0.096352704	1.216000E+00
383	  0.096553110	-3.795200E+01	  0.096553110	7.649700E+01	  0.096553110	5.028100E+01	  0.096553110	1.237000E+00
384	  0.096753508	-3.788900E+01	  0.096753508	7.523900E+01	  0.096753508	5.031000E+01	  0.096753508	1.240000E+00
385	  0.096953906	-3.812800E+01	  0.096953906	7.626700E+01	  0.096953906	5.028000E+01	  0.096953906	1.211000E+00
386	  0.097154312	-3.800100E+01	  0.097154312	7.823200E+01	  0.097154312	5.024200E+01	  0.097154312	1.238000E+00
387	  0.097354710	-3.768400E+01	  0.097354710	7.292200E+01	  0.097354710	5.036900E+01	  0.097354710	1.257000E+00
388	  0.097555116	-3.754200E+01	  0.097555116	7.537600E+01	  0.097555116	5.031900E+01	  0.097555116	1.292000E+00
389	  0.097755514	-3.704900E+01	  0.097755514	7.784900E+01	  0.097755514	5.027700E+01	  0.097755514	1.381000E+00
390	  0.097955912	-3.737000E+01	  0.097955912	7.054800E+01	  0.097955912	5.043600E+01	  0.097955912	1.287000E+00
391	  0.098156318	-3.752400E+01	  0.098156318	7.556900E+01	  0.098156318	5.031500E+01	  0.098156318	1.296000E+00
392	  0.098356716	-3.747400E+01	  0.098356716	7.391500E+01	  0.098356716	5.035500E+01	  0.098356716	1.294000E+00
393	  0.098557115	-3.690100E+01	  0.098557115	7.214400E+01	  0.098557115	5.042100E+01	  0.098557115	1.371000E+00
394	  0.098757520	-3.794700E+01	  0.098757520	7.441600E+01	  0.098757520	5.032600E+01	  0.098757520	1.228000E+00
395	  0.098957919	-3.706300E+01	  0.098957919	7.877600E+01	  0.098957919	5.025400E+01	  0.098957919	1.382000E+00
396	  0.099158317	-3.685200E+01	  0.099158317	7.620100E+01	  0.099158317	5.032400E+01	  0.099158317	1.404000E+00
397	  0.099358723	-3.686700E+01	  0.099358723	7.730600E+01	  0.099358723	5.029600E+01	  0.099358723	1.407000E+00
398	  0.099559121	-3.711100E+01	  0.099559121	7.538100E+01	  0.099559121	5.033400E+01	  0.099559121	1.358000E+00
399	  0.099759519	-3.632200E+01	  0.099759519	6.930000E+01	  0.099759519	5.052200E+01	  0.099759519	1.443000E+00
400	  0.099959925	-3.624600E+01	  0.099959925	7.209900E+01	  0.099959925	5.045300E+01	  0.099959925	1.479000E+00
401	  0.100160323	-3.505600E+01	  0.100160323	7.522000E+01	  0.100160323	5.042300E+01	  0.100160323	1.723000E+00
402	  0.100360721	-3.622900E+01	  0.100360721	7.067400E+01	  0.100360721	5.049100E+01	  0.100360721	1.471000E+00
403	  0.100561127	-3.549200E+01	  0.100561127	7.031900E+01	  0.100561127	5.054300E+01	  0.100561127	1.599000E+00
404	  0.100761525	-3.674900E+01	  0.100761525	7.515600E+01	  0.100761525	5.035300E+01	  0.100761525	1.415000E+00
405	  0.100961931	-3.572400E+01	  0.100961931	7.678200E+01	  0.100961931	5.034900E+01	  0.100961931	1.604000E+00
406	  0.101162329	-3.648800E+01	  0.101162329	8.032600E+01	  0.101162329	5.023000E+01	  0.101162329	1.483000E+00
407	  0.101362728	-3.827200E+01	  0.101362728	8.005600E+01	  0.101362728	5.019600E+01	  0.101362728	1.206000E+00
408	  0.101563133	-3.568900E+01	  0.101563133	6.246500E+01	  0.101563133	5.074300E+01	  0.101563133	1.478000E+00
409	  0.101763532	-3.627500E+01	  0.101763532	7.234000E+01	  0.101763532	5.044600E+01	  0.101763532	1.476000E+00
410	  0.101963930	-3.702900E+01	  0.101963930	7.615800E+01	  0.101963930	5.031900E+01	  0.101963930	1.375000E+00
411	  0.102164336	-3.652800E+01	  0.102164336	6.125000E+01	  0.102164336	5.070400E+01	  0.102164336	1.326000E+00
412	  0.102364734	-3.638300E+01	  0.102364734	7.392300E+01	  0.102364734	5.040000E+01	  0.102364734	1.469000E+00
413	  0.102565132	-3.667600E+01	  0.102565132	8.012400E+01	  0.102565132	5.023100E+01	  0.102565132	1.451000E+00
414	  0.102765530	-3.581300E+01	  0.102765530	6.590800E+01	  0.102765530	5.064300E+01	  0.102765530	1.497000E+00
415	  0.102965929	-3.760500E+01	  0.102965929	6.792700E+01	  0.102965929	5.048200E+01	  0.102965929	1.232000E+00
416	  0.103166327	-3.615700E+01	  0.103166327	7.568000E+01	  0.103166327	5.036300E+01	  0.103166327	1.519000E+00
417	  0.103366733	-3.628000E+01	  0.103366733	7.388900E+01	  0.103366733	5.040500E+01	  0.103366733	1.486000E+00
418	  0.103567131	-3.595700E+01	  0.103567131	6.535700E+01	  0.103567131	5.064700E+01	  0.103567131	1.466000E+00
419	  0.103767529	-3.528200E+01	  0.103767529	7.133000E+01	  0.103767529	5.052700E+01	  0.103767529	1.648000E+00
420	  0.103967935	-3.530000E+01	  0.103967935	6.957900E+01	  0.103967935	5.057600E+01	  0.103967935	1.628000E+00
421	  0.104168333	-3.662500E+01	  0.104168333	6.415200E+01	  0.104168333	5.062900E+01	  0.104168333	1.344000E+00
422	  0.104368731	-3.624500E+01	  0.104368731	7.301900E+01	  0.104368731	5.042900E+01	  0.104368731	1.486000E+00
423	  0.104569137	-3.440100E+01	  0.104569137	6.775500E+01	  0.104569137	5.069400E+01	  0.104569137	1.788000E+00
424	  0.104769535	-3.470700E+01	  0.104769535	6.947100E+01	  0.104769535	5.061800E+01	  0.104769535	1.744000E+00
425	  0.104969934	-3.463200E+01	  0.104969934	7.033300E+01	  0.104969934	5.059700E+01	  0.104969934	1.768000E+00
426	  0.105170339	-3.435300E+01	  0.105170339	6.617200E+01	  0.105170339	5.074800E+01	  0.105170339	1.779000E+00
427	  0.105370738	-3.472900E+01	  0.105370738	6.630400E+01	  0.105370738	5.071300E+01	  0.105370738	1.704000E+00
428	  0.105571143	-3.541400E+01	  0.105571143	7.346800E+01	  0.105571143	5.045700E+01	  0.105571143	1.640000E+00
429	  0.105771542	-3.544400E+01	  0.105771542	6.031000E+01	  0.105771542	5.082100E+01	  0.105771542	1.492000E+00
430	  0.105971940	-3.496600E+01	  0.105971940	6.300600E+01	  0.105971940	5.079100E+01	  0.105971940	1.616000E+00
431	  0.106172346	-3.428300E+01	  0.106172346	6.646300E+01	  0.106172346	5.074500E+01	  0.106172346	1.797000E+00
432	  0.106372744	-3.530400E+01	  0.106372744	6.697900E+01	  0.106372744	5.065000E+01	  0.106372744	1.601000E+00
433	  0.106573142	-3.466300E+01	  0.106573142	6.810300E+01	  0.106573142	5.066400E+01	  0.106573142	1.738000E+00
434	  0.106773548	-3.610200E+01	  0.106773548	7.448000E+01	  0.106773548	5.039700E+01	  0.106773548	1.521000E+00
435	  0.106973946	-3.498300E+01	  0.106973946	7.543100E+01	  0.106973946	5.042000E+01	  0.106973946	1.739000E+00
436	  0.107174344	-3.529400E+01	  0.107174344	7.012900E+01	  0.107174344	5.056100E+01	  0.107174344	1.635000E+00
437	  0.107374750	-3.470000E+01	  0.107374750	6.980400E+01	  0.107374750	5.060900E+01	  0.107374750	1.749000E+00
438	  0.107575148	-3.583000E+01	  0.107575148	7.091400E+01	  0.107575148	5.050700E+01	  0.107575148	1.543000E+00
439	  0.107775547	-3.527100E+01	  0.107775547	7.117700E+01	  0.107775547	5.053200E+01	  0.107775547	1.649000E+00
440	  0.107975952	-3.496500E+01	  0.107975952	6.864400E+01	  0.107975952	5.062600E+01	  0.107975952	1.684000E+00
441	  0.108176351	-3.415600E+01	  0.108176351	6.916500E+01	  0.108176351	5.066700E+01	  0.108176351	1.856000E+00
442	  0.108376749	-3.403500E+01	  0.108376749	7.142700E+01	  0.108376749	5.060000E+01	  0.108376749	1.907000E+00
443	  0.108577155	-3.507100E+01	  0.108577155	6.297900E+01	  0.108577155	5.078200E+01	  0.108577155	1.596000E+00
444	  0.108777553	-3.412800E+01	  0.108777553	6.834800E+01	  0.108777553	5.069600E+01	  0.108777553	1.853000E+00
445	  0.108977959	-3.506300E+01	  0.108977959	6.673100E+01	  0.108977959	5.067500E+01	  0.108977959	1.644000E+00
446	  0.109178357	-3.416600E+01	  0.109178357	6.272400E+01	  0.109178357	5.087400E+01	  0.109178357	1.770000E+00
447	  0.109378755	-3.488900E+01	  0.109378755	7.094700E+01	  0.109378755	5.056100E+01	  0.109378755	1.722000E+00
448	  0.109579161	-3.438900E+01	  0.109579161	6.601500E+01	  0.109579161	5.075000E+01	  0.109579161	1.769000E+00
449	  0.109779559	-3.470000E+01	  0.109779559	6.395900E+01	  0.109779559	5.078600E+01	  0.109779559	1.680000E+00
450	  0.109979957	-3.423400E+01	  0.109979957	6.634300E+01	  0.109979957	5.075300E+01	  0.109979957	1.806000E+00
451	  0.110180363	-3.475300E+01	  0.110180363	7.107000E+01	  0.110180363	5.056600E+01	  0.110180363	1.750000E+00
452	  0.110380761	-3.475800E+01	  0.110380761	6.798500E+01	  0.110380761	5.066000E+01	  0.110380761	1.718000E+00
453	  0.110581160	-3.438100E+01	  0.110581160	6.569100E+01	  0.110581160	5.076100E+01	  0.110581160	1.767000E+00
454	  0.110781565	-3.404000E+01	  0.110781565	6.668800E+01	  0.110781565	5.075800E+01	  0.110781565	1.852000E+00
455	  0.110981964	-3.497100E+01	  0.110981964	6.623300E+01	  0.110981964	5.069600E+01	  0.110981964	1.656000E+00
456	  0.111182362	-3.444200E+01	  0.111182362	7.067500E+01	  0.111182362	5.059800E+01	  0.111182362	1.811000E+00
457	  0.111382768	-3.406800E+01	  0.111382768	6.737700E+01	  0.111382768	5.073300E+01	  0.111382768	1.854000E+00
458	  0.111583166	-3.384300E+01	  0.111583166	5.969400E+01	  0.111583166	5.100400E+01	  0.111583166	1.789000E+00
459	  0.111783572	-3.464000E+01	  0.111783572	6.950100E+01	  0.111783572	5.062200E+01	  0.111783572	1.758000E+00
460	  0.111983970	-3.378100E+01	  0.111983970	6.676300E+01	  0.111983970	5.077700E+01	  0.111983970	1.910000E+00
461	  0.112184368	-3.398700E+01	  0.112184368	6.273900E+01	  0.112184368	5.089100E+01	  0.112184368	1.808000E+00
462	  0.112384774	-3.356300E+01	  0.112384774	6.924700E+01	  0.112384774	5.070900E+01	  0.112384774	1.990000E+00
463	  0.112585172	-3.378500E+01	  0.112585172	7.046100E+01	  0.112585172	5.065000E+01	  0.112585172	1.953000E+00
464	  0.112785570	-3.415300E+01	  0.112785570	6.554300E+01	  0.112785570	5.078500E+01	  0.112785570	1.813000E+00
465	  0.112985976	-3.405700E+01	  0.112985976	6.631800E+01	  0.112985976	5.076800E+01	  0.112985976	1.843000E+00
466	  0.113186374	-3.333500E+01	  0.113186374	6.311300E+01	  0.113186374	5.094500E+01	  0.113186374	1.958000E+00
467	  0.113386773	-3.363400E+01	  0.113386773	7.353300E+01	  0.113386773	5.055200E+01	  0.113386773	2.018000E+00
468	  0.113587178	-3.358000E+01	  0.113587178	6.077800E+01	  0.113587178	5.099800E+01	  0.113587178	1.864000E+00
469	  0.113787577	-3.408300E+01	  0.113787577	6.512100E+01	  0.113787577	5.080500E+01	  0.113787577	1.822000E+00
470	  0.113987975	-3.321900E+01	  0.113987975	6.642000E+01	  0.113987975	5.083900E+01	  0.113987975	2.035000E+00
471	  0.114188381	-3.392500E+01	  0.114188381	6.492700E+01	  0.114188381	5.082600E+01	  0.114188381	1.853000E+00
472	  0.114388779	-3.342000E+01	  0.114388779	6.250100E+01	  0.114388779	5.095700E+01	  0.114388779	1.929000E+00
473	  0.114589177	-3.322100E+01	  0.114589177	6.302400E+01	  0.114589177	5.096000E+01	  0.114589177	1.983000E+00
474	  0.114789583	-3.343400E+01	  0.114789583	6.495300E+01	  0.114789583	5.087100E+01	  0.114789583	1.963000E+00
475	  0.114989981	-3.292200E+01	  0.114989981	6.253400E+01	  0.114989981	5.101100E+01	  0.114989981	2.045000E+00
476	  0.115190387	-3.343700E+01	  0.115190387	6.499400E+01	  0.115190387	5.086900E+01	  0.115190387	1.963000E+00
477	  0.115390785	-3.284300E+01	  0.115390785	6.279000E+01	  0.115390785	5.101000E+01	  0.115390785	2.069000E+00
478	  0.115591183	-3.378900E+01	  0.115591183	6.058700E+01	  0.115591183	5.098100E+01	  0.115591183	1.816000E+00
479	  0.115791589	-3.309700E+01	  0.115791589	6.464200E+01	  0.115791589	5.091500E+01	  0.115791589	2.038000E+00
480	  0.115991987	-3.349600E+01	  0.115991987	6.413200E+01	  0.115991987	5.089300E+01	  0.115991987	1.937000E+00
481	  0.116192386	-3.358500E+01	  0.116192386	6.801100E+01	  0.116192386	5.075100E+01	  0.116192386	1.970000E+00
482	  0.116392791	-3.297200E+01	  0.116392791	6.121600E+01	  0.116392791	5.105300E+01	  0.116392791	2.010000E+00
483	  0.116593190	-3.287200E+01	  0.116593190	6.586300E+01	  0.116593190	5.089300E+01	  0.116593190	2.111000E+00
484	  0.116793588	-3.253800E+01	  0.116793588	6.610600E+01	  0.116793588	5.091700E+01	  0.116793588	2.199000E+00
485	  0.116993994	-3.353100E+01	  0.116993994	5.956600E+01	  0.116993994	5.104400E+01	  0.116993994	1.854000E+00
486	  0.117194392	-3.307300E+01	  0.117194392	6.401700E+01	  0.117194392	5.094100E+01	  0.117194392	2.034000E+00
487	  0.117394790	-3.314600E+01	  0.117394790	6.208200E+01	  0.117394790	5.100200E+01	  0.117394790	1.985000E+00
488	  0.117595196	-3.312100E+01	  0.117595196	6.338500E+01	  0.117595196	5.095800E+01	  0.117595196	2.012000E+00
489	  0.117795594	-3.236100E+01	  0.117795594	6.278200E+01	  0.117795594	5.106600E+01	  0.117795594	2.189000E+00
490	  0.117995992	-3.293900E+01	  0.117995992	5.872100E+01	  0.117995992	5.114500E+01	  0.117995992	1.971000E+00
491	  0.118196398	-3.294200E+01	  0.118196398	6.383900E+01	  0.118196398	5.096100E+01	  0.118196398	2.062000E+00
492	  0.118396796	-3.273800E+01	  0.118396796	6.102900E+01	  0.118396796	5.108700E+01	  0.118396796	2.063000E+00
493	  0.118597202	-3.292600E+01	  0.118597202	6.157400E+01	  0.118597202	5.104500E+01	  0.118597202	2.028000E+00
494	  0.118797600	-3.340000E+01	  0.118797600	6.030800E+01	  0.118797600	5.103400E+01	  0.118797600	1.896000E+00
495	  0.118997999	-3.237200E+01	  0.118997999	6.341900E+01	  0.118997999	5.104000E+01	  0.118997999	2.198000E+00
496	  0.119198404	-3.291000E+01	  0.119198404	5.949600E+01	  0.119198404	5.112200E+01	  0.119198404	1.993000E+00
497	  0.119398803	-3.272600E+01	  0.119398803	6.203600E+01	  0.119398803	5.105200E+01	  0.119398803	2.084000E+00
498	  0.119599201	-3.276300E+01	  0.119599201	6.014500E+01	  0.119599201	5.111700E+01	  0.119599201	2.040000E+00
499	  0.119799607	-3.207400E+01	  0.119799607	5.857100E+01	  0.119799607	5.126800E+01	  0.119799607	2.180000E+00
500	  0.120000005	-3.229200E+01	  0.120000005	6.082800E+01	  0.120000005	5.115100E+01	  0.120000005	2.170000E+00
