! Anritsu VNA Master:             	Model: MS2036C/10/77
! SN:             	1601066
! /bd0/18may10/255.ns.m3.txt
! Existing Calibration Information:
! TYPE:             	Current Settings	Active Cal Settings
! TIME:             	05/10/2018 02:22:09 PM	05/10/2018 02:13:17 PM
! INTERNAL TEMP:    	58.8 C	57.5 C
! # POINTS:         	492	492
! START FREQ:       	20.000 MHz	20.000 MHz
! STOP FREQ:        	118.396 793 MHz	118.396 793 MHz
! SOURCE POWER:     	High	High
! IFBW:             	50 Hz	50 Hz
! AVG FACTOR:       	  1 	  1 
! REF PLANE 1:      	0 mm	0 mm
! REF PLANE 2:      	0 mm	0 mm
! CAL TYPE:         	Full S22	Full S22
! CAL METHOD:       	SOLT	SOLT
! CAL LINE TYPE:    	Coax	Coax
! DUT PORT 1:       	K-Conn(M)	K-Conn(M)
! DUT PORT 2:       	K-Conn(M)	K-Conn(M)
! CAL STATUS:       	OK: Accuracy High	--
! PROP-V:       	0.700
! CABLE LOSS:       	0.000 dB/m
! REF IMPEDANCE:       	50.0
! Trace Specific Parameters:	TR1	TR2	TR3	TR4
! TRACE.#.Y (GRAPH TYPE)	LOG MAG	PHASE	REAL IMPEDANCE	IMAGINARY IMPEDANCE
! TRACE.#.X 	FREQ.GHZ	FREQ.GHZ	FREQ.GHZ	FREQ.GHZ
! S-PARAMETER	S22	S22	S22	S22
! SMOOTH/APERTURE %	0	0	0	0
! WINDOW	NSL	NSL	NSL	NSL
! GATING	OFF	OFF	OFF	OFF
! FGTD	OFF	OFF	OFF	OFF
Marker Information per Trace:	TR1	TR2	TR3	TR4
!MK1	--	"MK1 TR2:  20.000 MHz,PH:-125.32°"	--	--
!MK2	--	--	"MK2 TR3:  70.100 200 MHz,Z:(17.319 ohm, -1.636 ohm)"	--
!MK3	--	--	--	--
!MK4	--	--	--	--
!MK5	--	--	--	--
!MK6	--	--	--	--
!MK7	--	--	--	--
!MK8	--	--	--	--
PNT	TR1.FREQ.GHZ	TR1.LOG MAG.dB	TR2.FREQ.GHZ	TR2.PHASE.deg	TR3.FREQ.GHZ	TR3.REAL IMPEDANCE.ohm	TR4.FREQ.GHZ	TR4.IMAGINARY IMPEDANCE.ohm
1	  0.020000000	-6.430000E-01	  0.020000000	-1.253220E+02	  0.020000000	2.345000E+00	  0.020000000	-2.580400E+01
2	  0.020200402	-6.470000E-01	  0.020200402	-1.267690E+02	  0.020200402	2.329000E+00	  0.020200402	-2.501100E+01
3	  0.020400802	-6.490000E-01	  0.020400802	-1.282170E+02	  0.020400802	2.308000E+00	  0.020400802	-2.422700E+01
4	  0.020601204	-6.530000E-01	  0.020601204	-1.296970E+02	  0.020601204	2.292000E+00	  0.020601204	-2.343500E+01
5	  0.020801604	-6.570000E-01	  0.020801604	-1.311950E+02	  0.020801604	2.279000E+00	  0.020801604	-2.264400E+01
6	  0.021002004	-6.580000E-01	  0.021002004	-1.327050E+02	  0.021002004	2.256000E+00	  0.021002004	-2.185600E+01
7	  0.021202406	-6.620000E-01	  0.021202406	-1.342250E+02	  0.021202406	2.243000E+00	  0.021202406	-2.107100E+01
8	  0.021402806	-6.640000E-01	  0.021402806	-1.357540E+02	  0.021402806	2.227000E+00	  0.021402806	-2.029100E+01
9	  0.021603208	-6.680000E-01	  0.021603208	-1.372570E+02	  0.021603208	2.216000E+00	  0.021603208	-1.953200E+01
10	  0.021803608	-6.720000E-01	  0.021803608	-1.387750E+02	  0.021803608	2.207000E+00	  0.021803608	-1.877300E+01
11	  0.022004008	-6.750000E-01	  0.022004008	-1.402960E+02	  0.022004008	2.195000E+00	  0.022004008	-1.802100E+01
12	  0.022204408	-6.820000E-01	  0.022204408	-1.418510E+02	  0.022204408	2.198000E+00	  0.022204408	-1.725900E+01
13	  0.022404809	-6.860000E-01	  0.022404809	-1.434250E+02	  0.022404809	2.190000E+00	  0.022404809	-1.649500E+01
14	  0.022605211	-6.850000E-01	  0.022605211	-1.450140E+02	  0.022605211	2.168000E+00	  0.022605211	-1.573100E+01
15	  0.022805611	-6.900000E-01	  0.022805611	-1.466030E+02	  0.022805611	2.163000E+00	  0.022805611	-1.497300E+01
16	  0.023006011	-6.950000E-01	  0.023006011	-1.481810E+02	  0.023006011	2.161000E+00	  0.023006011	-1.422600E+01
17	  0.023206413	-6.990000E-01	  0.023206413	-1.497580E+02	  0.023206413	2.160000E+00	  0.023206413	-1.348700E+01
18	  0.023406813	-7.040000E-01	  0.023406813	-1.513280E+02	  0.023406813	2.159000E+00	  0.023406813	-1.275500E+01
19	  0.023607215	-7.080000E-01	  0.023607215	-1.529290E+02	  0.023607215	2.154000E+00	  0.023607215	-1.201500E+01
20	  0.023807615	-7.150000E-01	  0.023807615	-1.545350E+02	  0.023807615	2.164000E+00	  0.023807615	-1.127700E+01
21	  0.024008015	-7.230000E-01	  0.024008015	-1.561630E+02	  0.024008015	2.173000E+00	  0.024008015	-1.053400E+01
22	  0.024208417	-7.290000E-01	  0.024208417	-1.578080E+02	  0.024208417	2.179000E+00	  0.024208417	-9.788000E+00
23	  0.024408817	-7.360000E-01	  0.024408817	-1.594510E+02	  0.024408817	2.189000E+00	  0.024408817	-9.046000E+00
24	  0.024609219	-7.410000E-01	  0.024609219	-1.611050E+02	  0.024609219	2.191000E+00	  0.024609219	-8.304000E+00
25	  0.024809619	-7.500000E-01	  0.024809619	-1.627580E+02	  0.024809619	2.207000E+00	  0.024809619	-7.565000E+00
26	  0.025010020	-7.580000E-01	  0.025010020	-1.644190E+02	  0.025010020	2.222000E+00	  0.025010020	-6.827000E+00
27	  0.025210422	-7.690000E-01	  0.025210422	-1.660960E+02	  0.025210422	2.244000E+00	  0.025210422	-6.084000E+00
28	  0.025410822	-7.790000E-01	  0.025410822	-1.677780E+02	  0.025410822	2.267000E+00	  0.025410822	-5.341000E+00
29	  0.025611224	-7.890000E-01	  0.025611224	-1.694690E+02	  0.025611224	2.291000E+00	  0.025611224	-4.598000E+00
30	  0.025811624	-8.010000E-01	  0.025811624	-1.711710E+02	  0.025811624	2.318000E+00	  0.025811624	-3.851000E+00
31	  0.026012026	-8.110000E-01	  0.026012026	-1.728940E+02	  0.026012026	2.342000E+00	  0.026012026	-3.097000E+00
32	  0.026212426	-8.210000E-01	  0.026212426	-1.746230E+02	  0.026212426	2.368000E+00	  0.026212426	-2.342000E+00
33	  0.026412826	-8.350000E-01	  0.026412826	-1.763540E+02	  0.026412826	2.406000E+00	  0.026412826	-1.587000E+00
34	  0.026613226	-8.500000E-01	  0.026613226	-1.780980E+02	  0.026613226	2.447000E+00	  0.026613226	-8.270000E-01
35	  0.026813626	-8.650000E-01	  0.026813626	-1.798460E+02	  0.026813626	2.490000E+00	  0.026813626	-6.700000E-02
36	  0.027014028	-8.810000E-01	  0.027014028	1.783990E+02	  0.027014028	2.535000E+00	  0.027014028	6.960000E-01
37	  0.027214428	-8.980000E-01	  0.027214428	1.766290E+02	  0.027214428	2.585000E+00	  0.027214428	1.467000E+00
38	  0.027414829	-9.130000E-01	  0.027414829	1.748620E+02	  0.027414829	2.632000E+00	  0.027414829	2.236000E+00
39	  0.027615231	-9.320000E-01	  0.027615231	1.730780E+02	  0.027615231	2.689000E+00	  0.027615231	3.015000E+00
40	  0.027815631	-9.500000E-01	  0.027815631	1.712860E+02	  0.027815631	2.749000E+00	  0.027815631	3.798000E+00
41	  0.028016033	-9.680000E-01	  0.028016033	1.694780E+02	  0.028016033	2.809000E+00	  0.028016033	4.589000E+00
42	  0.028216433	-9.900000E-01	  0.028216433	1.676660E+02	  0.028216433	2.879000E+00	  0.028216433	5.384000E+00
43	  0.028416833	-1.009000E+00	  0.028416833	1.658380E+02	  0.028416833	2.948000E+00	  0.028416833	6.189000E+00
44	  0.028617235	-1.031000E+00	  0.028617235	1.640130E+02	  0.028617235	3.022000E+00	  0.028617235	6.996000E+00
45	  0.028817635	-1.054000E+00	  0.028817635	1.621870E+02	  0.028817635	3.104000E+00	  0.028817635	7.806000E+00
46	  0.029018037	-1.077000E+00	  0.029018037	1.603560E+02	  0.029018037	3.189000E+00	  0.029018037	8.621000E+00
47	  0.029218437	-1.101000E+00	  0.029218437	1.585100E+02	  0.029218437	3.279000E+00	  0.029218437	9.448000E+00
48	  0.029418837	-1.128000E+00	  0.029418837	1.566430E+02	  0.029418837	3.382000E+00	  0.029418837	1.028900E+01
49	  0.029619239	-1.154000E+00	  0.029619239	1.547740E+02	  0.029619239	3.483000E+00	  0.029619239	1.113600E+01
50	  0.029819639	-1.181000E+00	  0.029819639	1.528950E+02	  0.029819639	3.590000E+00	  0.029819639	1.199300E+01
51	  0.030020041	-1.210000E+00	  0.030020041	1.510080E+02	  0.030020041	3.709000E+00	  0.030020041	1.286000E+01
52	  0.030220442	-1.239000E+00	  0.030220442	1.491120E+02	  0.030220442	3.833000E+00	  0.030220442	1.373700E+01
53	  0.030420844	-1.268000E+00	  0.030420844	1.472240E+02	  0.030420844	3.957000E+00	  0.030420844	1.461900E+01
54	  0.030621244	-1.300000E+00	  0.030621244	1.453380E+02	  0.030621244	4.098000E+00	  0.030621244	1.550700E+01
55	  0.030821642	-1.334000E+00	  0.030821642	1.434320E+02	  0.030821642	4.250000E+00	  0.030821642	1.641200E+01
56	  0.031022044	-1.367000E+00	  0.031022044	1.415140E+02	  0.031022044	4.401000E+00	  0.031022044	1.733200E+01
57	  0.031222444	-1.397000E+00	  0.031222444	1.395920E+02	  0.031222444	4.554000E+00	  0.031222444	1.826500E+01
58	  0.031422846	-1.431000E+00	  0.031422846	1.376280E+02	  0.031422846	4.724000E+00	  0.031422846	1.922900E+01
59	  0.031623244	-1.469000E+00	  0.031623244	1.356740E+02	  0.031623244	4.913000E+00	  0.031623244	2.019700E+01
60	  0.031823646	-1.502000E+00	  0.031823646	1.337060E+02	  0.031823646	5.095000E+00	  0.031823646	2.118600E+01
61	  0.032024048	-1.541000E+00	  0.032024048	1.317430E+02	  0.032024048	5.304000E+00	  0.032024048	2.218500E+01
62	  0.032224450	-1.579000E+00	  0.032224450	1.297750E+02	  0.032224450	5.520000E+00	  0.032224450	2.320000E+01
63	  0.032424849	-1.617000E+00	  0.032424849	1.277840E+02	  0.032424849	5.745000E+00	  0.032424849	2.424100E+01
64	  0.032625251	-1.655000E+00	  0.032625251	1.258020E+02	  0.032625251	5.981000E+00	  0.032625251	2.529400E+01
65	  0.032825653	-1.692000E+00	  0.032825653	1.237670E+02	  0.032825653	6.224000E+00	  0.032825653	2.639300E+01
66	  0.033026051	-1.730000E+00	  0.033026051	1.217600E+02	  0.033026051	6.486000E+00	  0.033026051	2.749300E+01
67	  0.033226453	-1.770000E+00	  0.033226453	1.197380E+02	  0.033226453	6.766000E+00	  0.033226453	2.862000E+01
68	  0.033426855	-1.805000E+00	  0.033426855	1.177000E+02	  0.033426855	7.043000E+00	  0.033426855	2.978000E+01
69	  0.033627257	-1.849000E+00	  0.033627257	1.157190E+02	  0.033627257	7.364000E+00	  0.033627257	3.092200E+01
70	  0.033827655	-1.886000E+00	  0.033827655	1.137010E+02	  0.033827655	7.677000E+00	  0.033827655	3.211300E+01
71	  0.034028057	-1.927000E+00	  0.034028057	1.116740E+02	  0.034028057	8.022000E+00	  0.034028057	3.333000E+01
72	  0.034228459	-1.971000E+00	  0.034228459	1.096580E+02	  0.034228459	8.400000E+00	  0.034228459	3.456400E+01
73	  0.034428857	-2.013000E+00	  0.034428857	1.076300E+02	  0.034428857	8.795000E+00	  0.034428857	3.583100E+01
74	  0.034629259	-2.055000E+00	  0.034629259	1.055930E+02	  0.034629259	9.209000E+00	  0.034629259	3.713200E+01
75	  0.034829661	-2.097000E+00	  0.034829661	1.035590E+02	  0.034829661	9.649000E+00	  0.034829661	3.846100E+01
76	  0.035030060	-2.144000E+00	  0.035030060	1.015100E+02	  0.035030060	1.013600E+01	  0.035030060	3.982700E+01
77	  0.035230462	-2.193000E+00	  0.035230462	9.947700E+01	  0.035230462	1.066400E+01	  0.035230462	4.121000E+01
78	  0.035430863	-2.243000E+00	  0.035430863	9.745000E+01	  0.035430863	1.122700E+01	  0.035430863	4.262100E+01
79	  0.035631265	-2.292000E+00	  0.035631265	9.542200E+01	  0.035631265	1.182000E+01	  0.035631265	4.406800E+01
80	  0.035831664	-2.343000E+00	  0.035831664	9.336200E+01	  0.035831664	1.246500E+01	  0.035831664	4.557200E+01
81	  0.036032066	-2.396000E+00	  0.036032066	9.132600E+01	  0.036032066	1.316400E+01	  0.036032066	4.709100E+01
82	  0.036232468	-2.447000E+00	  0.036232468	8.927300E+01	  0.036232468	1.389900E+01	  0.036232468	4.866700E+01
83	  0.036432866	-2.499000E+00	  0.036432866	8.721300E+01	  0.036432866	1.468900E+01	  0.036432866	5.028900E+01
84	  0.036633268	-2.555000E+00	  0.036633268	8.515700E+01	  0.036633268	1.556000E+01	  0.036633268	5.194100E+01
85	  0.036833670	-2.614000E+00	  0.036833670	8.307600E+01	  0.036833670	1.651300E+01	  0.036833670	5.365400E+01
86	  0.037034072	-2.671000E+00	  0.037034072	8.100300E+01	  0.037034072	1.752400E+01	  0.037034072	5.540800E+01
87	  0.037234470	-2.728000E+00	  0.037234470	7.892700E+01	  0.037234470	1.861600E+01	  0.037234470	5.721000E+01
88	  0.037434869	-2.787000E+00	  0.037434869	7.684500E+01	  0.037434869	1.980200E+01	  0.037434869	5.906100E+01
89	  0.037635271	-2.848000E+00	  0.037635271	7.476800E+01	  0.037635271	2.108800E+01	  0.037635271	6.094900E+01
90	  0.037835669	-2.910000E+00	  0.037835669	7.266300E+01	  0.037835669	2.249800E+01	  0.037835669	6.291000E+01
91	  0.038036071	-2.969000E+00	  0.038036071	7.055200E+01	  0.038036071	2.400600E+01	  0.038036071	6.493300E+01
92	  0.038236473	-3.028000E+00	  0.038236473	6.842000E+01	  0.038236473	2.564800E+01	  0.038236473	6.703300E+01
93	  0.038436871	-3.091000E+00	  0.038436871	6.628100E+01	  0.038436871	2.746600E+01	  0.038436871	6.917100E+01
94	  0.038637273	-3.153000E+00	  0.038637273	6.416100E+01	  0.038637273	2.941100E+01	  0.038637273	7.134100E+01
95	  0.038837675	-3.212000E+00	  0.038837675	6.203700E+01	  0.038837675	3.151400E+01	  0.038837675	7.356900E+01
96	  0.039038073	-3.271000E+00	  0.039038073	5.993500E+01	  0.039038073	3.377800E+01	  0.039038073	7.581200E+01
97	  0.039238475	-3.326000E+00	  0.039238475	5.783400E+01	  0.039238475	3.620600E+01	  0.039238475	7.811200E+01
98	  0.039438877	-3.383000E+00	  0.039438877	5.571900E+01	  0.039438877	3.889300E+01	  0.039438877	8.043900E+01
99	  0.039639279	-3.439000E+00	  0.039639279	5.361900E+01	  0.039639279	4.178800E+01	  0.039639279	8.277800E+01
100	  0.039839678	-3.494000E+00	  0.039839678	5.149900E+01	  0.039839678	4.497100E+01	  0.039839678	8.515400E+01
101	  0.040040080	-3.546000E+00	  0.040040080	4.941300E+01	  0.040040080	4.836500E+01	  0.040040080	8.750700E+01
102	  0.040240481	-3.598000E+00	  0.040240481	4.732600E+01	  0.040240481	5.207600E+01	  0.040240481	8.983000E+01
103	  0.040440880	-3.650000E+00	  0.040440880	4.525100E+01	  0.040440880	5.611400E+01	  0.040440880	9.207700E+01
104	  0.040641282	-3.701000E+00	  0.040641282	4.321300E+01	  0.040641282	6.042800E+01	  0.040641282	9.421400E+01
105	  0.040841684	-3.751000E+00	  0.040841684	4.117300E+01	  0.040841684	6.512600E+01	  0.040841684	9.623900E+01
106	  0.041042086	-3.803000E+00	  0.041042086	3.917000E+01	  0.041042086	7.015400E+01	  0.041042086	9.804100E+01
107	  0.041242484	-3.857000E+00	  0.041242484	3.714900E+01	  0.041242484	7.567000E+01	  0.041242484	9.959600E+01
108	  0.041442886	-3.909000E+00	  0.041442886	3.513300E+01	  0.041442886	8.159600E+01	  0.041442886	1.008970E+02
109	  0.041643288	-3.960000E+00	  0.041643288	3.313200E+01	  0.041643288	8.793100E+01	  0.041643288	1.018340E+02
110	  0.041843686	-4.011000E+00	  0.041843686	3.113200E+01	  0.041843686	9.470800E+01	  0.041843686	1.023500E+02
111	  0.042044088	-4.060000E+00	  0.042044088	2.913600E+01	  0.042044088	1.019070E+02	  0.042044088	1.023710E+02
112	  0.042244490	-4.112000E+00	  0.042244490	2.718000E+01	  0.042244490	1.093740E+02	  0.042244490	1.016690E+02
113	  0.042444889	-4.166000E+00	  0.042444889	2.520600E+01	  0.042444889	1.172480E+02	  0.042444889	1.002100E+02
114	  0.042645290	-4.219000E+00	  0.042645290	2.324900E+01	  0.042645290	1.253160E+02	  0.042645290	9.792700E+01
115	  0.042845692	-4.272000E+00	  0.042845692	2.129900E+01	  0.042845692	1.335010E+02	  0.042845692	9.471800E+01
116	  0.043046094	-4.325000E+00	  0.043046094	1.932100E+01	  0.043046094	1.418320E+02	  0.043046094	9.045400E+01
117	  0.043246493	-4.380000E+00	  0.043246493	1.736700E+01	  0.043246493	1.498730E+02	  0.043246493	8.505900E+01
118	  0.043446895	-4.428000E+00	  0.043446895	1.539800E+01	  0.043446895	1.577290E+02	  0.043446895	7.868300E+01
119	  0.043647297	-4.480000E+00	  0.043647297	1.344000E+01	  0.043647297	1.649390E+02	  0.043647297	7.113500E+01
120	  0.043847695	-4.533000E+00	  0.043847695	1.146200E+01	  0.043847695	1.713890E+02	  0.043847695	6.238300E+01
121	  0.044048097	-4.585000E+00	  0.044048097	9.503000E+00	  0.044048097	1.767790E+02	  0.044048097	5.279800E+01
122	  0.044248499	-4.637000E+00	  0.044248499	7.543000E+00	  0.044248499	1.809800E+02	  0.044248499	4.244700E+01
123	  0.044448901	-4.689000E+00	  0.044448901	5.585000E+00	  0.044448901	1.838580E+02	  0.044448901	3.159100E+01
124	  0.044649299	-4.734000E+00	  0.044649299	3.619000E+00	  0.044649299	1.855380E+02	  0.044649299	2.046100E+01
125	  0.044849701	-4.781000E+00	  0.044849701	1.651000E+00	  0.044849701	1.857270E+02	  0.044849701	9.247000E+00
126	  0.045050103	-4.828000E+00	  0.045050103	-3.080000E-01	  0.045050103	1.844910E+02	  0.045050103	-1.699000E+00
127	  0.045250501	-4.872000E+00	  0.045250501	-2.273000E+00	  0.045250501	1.820120E+02	  0.045250501	-1.221600E+01
128	  0.045450903	-4.918000E+00	  0.045450903	-4.228000E+00	  0.045450903	1.783420E+02	  0.045450903	-2.202500E+01
129	  0.045651305	-4.962000E+00	  0.045651305	-6.166000E+00	  0.045651305	1.737650E+02	  0.045651305	-3.095900E+01
130	  0.045851704	-4.999000E+00	  0.045851704	-8.112000E+00	  0.045851704	1.686080E+02	  0.045851704	-3.914300E+01
131	  0.046052102	-5.040000E+00	  0.046052102	-1.003100E+01	  0.046052102	1.627590E+02	  0.046052102	-4.621700E+01
132	  0.046252504	-5.076000E+00	  0.046252504	-1.193200E+01	  0.046252504	1.566710E+02	  0.046252504	-5.239100E+01
133	  0.046452906	-5.113000E+00	  0.046452906	-1.382900E+01	  0.046452906	1.503170E+02	  0.046452906	-5.765200E+01
134	  0.046653304	-5.145000E+00	  0.046653304	-1.571700E+01	  0.046653304	1.439160E+02	  0.046653304	-6.210800E+01
135	  0.046853706	-5.178000E+00	  0.046853706	-1.760700E+01	  0.046853706	1.374820E+02	  0.046853706	-6.578800E+01
136	  0.047054108	-5.209000E+00	  0.047054108	-1.948200E+01	  0.047054108	1.311760E+02	  0.047054108	-6.875300E+01
137	  0.047254506	-5.240000E+00	  0.047254506	-2.134700E+01	  0.047254506	1.250240E+02	  0.047254506	-7.105000E+01
138	  0.047454908	-5.269000E+00	  0.047454908	-2.318400E+01	  0.047454908	1.191460E+02	  0.047454908	-7.277100E+01
139	  0.047655310	-5.299000E+00	  0.047655310	-2.501700E+01	  0.047655310	1.134910E+02	  0.047655310	-7.399300E+01
140	  0.047855709	-5.327000E+00	  0.047855709	-2.679100E+01	  0.047855709	1.082470E+02	  0.047855709	-7.477900E+01
141	  0.048056111	-5.358000E+00	  0.048056111	-2.857700E+01	  0.048056111	1.031940E+02	  0.048056111	-7.515400E+01
142	  0.048256513	-5.388000E+00	  0.048256513	-3.034800E+01	  0.048256513	9.843900E+01	  0.048256513	-7.525900E+01
143	  0.048456915	-5.416000E+00	  0.048456915	-3.211200E+01	  0.048456915	9.395000E+01	  0.048456915	-7.512400E+01
144	  0.048657313	-5.440000E+00	  0.048657313	-3.386500E+01	  0.048657313	8.972500E+01	  0.048657313	-7.482900E+01
145	  0.048857715	-5.468000E+00	  0.048857715	-3.561600E+01	  0.048857715	8.573900E+01	  0.048857715	-7.429700E+01
146	  0.049058117	-5.495000E+00	  0.049058117	-3.737700E+01	  0.049058117	8.195600E+01	  0.049058117	-7.361900E+01
147	  0.049258515	-5.521000E+00	  0.049258515	-3.910300E+01	  0.049258515	7.845900E+01	  0.049258515	-7.284800E+01
148	  0.049458917	-5.547000E+00	  0.049458917	-4.082800E+01	  0.049458917	7.516700E+01	  0.049458917	-7.195300E+01
149	  0.049659319	-5.575000E+00	  0.049659319	-4.254500E+01	  0.049659319	7.208400E+01	  0.049659319	-7.095700E+01
150	  0.049859721	-5.602000E+00	  0.049859721	-4.424900E+01	  0.049859721	6.920100E+01	  0.049859721	-6.992000E+01
151	  0.050060119	-5.627000E+00	  0.050060119	-4.593900E+01	  0.050060119	6.650400E+01	  0.050060119	-6.884200E+01
152	  0.050260521	-5.650000E+00	  0.050260521	-4.764200E+01	  0.050260521	6.393200E+01	  0.050260521	-6.774600E+01
153	  0.050460923	-5.675000E+00	  0.050460923	-4.933900E+01	  0.050460923	6.152500E+01	  0.050460923	-6.658900E+01
154	  0.050661322	-5.695000E+00	  0.050661322	-5.103900E+01	  0.050661322	5.923400E+01	  0.050661322	-6.545200E+01
155	  0.050861724	-5.714000E+00	  0.050861724	-5.270800E+01	  0.050861724	5.710900E+01	  0.050861724	-6.431700E+01
156	  0.051062126	-5.735000E+00	  0.051062126	-5.439300E+01	  0.051062126	5.508900E+01	  0.051062126	-6.313800E+01
157	  0.051262524	-5.759000E+00	  0.051262524	-5.604300E+01	  0.051262524	5.323300E+01	  0.051262524	-6.195100E+01
158	  0.051462926	-5.779000E+00	  0.051462926	-5.770300E+01	  0.051462926	5.145200E+01	  0.051462926	-6.078400E+01
159	  0.051663328	-5.796000E+00	  0.051663328	-5.934800E+01	  0.051663328	4.977500E+01	  0.051663328	-5.963700E+01
160	  0.051863730	-5.815000E+00	  0.051863730	-6.098400E+01	  0.051863730	4.820000E+01	  0.051863730	-5.848600E+01
161	  0.052064128	-5.826000E+00	  0.052064128	-6.260600E+01	  0.052064128	4.668900E+01	  0.052064128	-5.739700E+01
162	  0.052264530	-5.839000E+00	  0.052264530	-6.425200E+01	  0.052264530	4.524400E+01	  0.052264530	-5.627600E+01
163	  0.052464932	-5.851000E+00	  0.052464932	-6.583700E+01	  0.052464932	4.391700E+01	  0.052464932	-5.520800E+01
164	  0.052665330	-5.862000E+00	  0.052665330	-6.742900E+01	  0.052665330	4.264900E+01	  0.052665330	-5.414300E+01
165	  0.052865732	-5.875000E+00	  0.052865732	-6.901900E+01	  0.052865732	4.145000E+01	  0.052865732	-5.307600E+01
166	  0.053066134	-5.890000E+00	  0.053066134	-7.055900E+01	  0.053066134	4.036000E+01	  0.053066134	-5.203400E+01
167	  0.053266536	-5.898000E+00	  0.053266536	-7.210300E+01	  0.053266536	3.928600E+01	  0.053266536	-5.103600E+01
168	  0.053466935	-5.915000E+00	  0.053466935	-7.365200E+01	  0.053466935	3.829500E+01	  0.053466935	-5.000000E+01
169	  0.053667337	-5.923000E+00	  0.053667337	-7.515500E+01	  0.053667337	3.734500E+01	  0.053667337	-4.904200E+01
170	  0.053867739	-5.933000E+00	  0.053867739	-7.667700E+01	  0.053867739	3.643300E+01	  0.053867739	-4.807200E+01
171	  0.054068137	-5.946000E+00	  0.054068137	-7.818000E+01	  0.054068137	3.558800E+01	  0.054068137	-4.710900E+01
172	  0.054268539	-5.950000E+00	  0.054268539	-7.966600E+01	  0.054268539	3.475300E+01	  0.054268539	-4.620200E+01
173	  0.054468941	-5.965000E+00	  0.054468941	-8.112900E+01	  0.054468941	3.400900E+01	  0.054468941	-4.527600E+01
174	  0.054669335	-5.977000E+00	  0.054669335	-8.260700E+01	  0.054669335	3.327400E+01	  0.054669335	-4.436600E+01
175	  0.054869737	-5.989000E+00	  0.054869737	-8.407100E+01	  0.054869737	3.258300E+01	  0.054869737	-4.347000E+01
176	  0.055070139	-6.002000E+00	  0.055070139	-8.550200E+01	  0.055070139	3.193900E+01	  0.055070139	-4.260200E+01
177	  0.055270538	-6.014000E+00	  0.055270538	-8.695300E+01	  0.055270538	3.130700E+01	  0.055270538	-4.173700E+01
178	  0.055470940	-6.025000E+00	  0.055470940	-8.838500E+01	  0.055470940	3.070900E+01	  0.055470940	-4.089200E+01
179	  0.055671342	-6.035000E+00	  0.055671342	-8.981400E+01	  0.055671342	3.013400E+01	  0.055671342	-4.006100E+01
180	  0.055871744	-6.044000E+00	  0.055871744	-9.126600E+01	  0.055871744	2.956700E+01	  0.055871744	-3.923000E+01
181	  0.056072142	-6.056000E+00	  0.056072142	-9.269500E+01	  0.056072142	2.904100E+01	  0.056072142	-3.841500E+01
182	  0.056272544	-6.064000E+00	  0.056272544	-9.411300E+01	  0.056272544	2.852900E+01	  0.056272544	-3.762200E+01
183	  0.056472946	-6.075000E+00	  0.056472946	-9.551400E+01	  0.056472946	2.805300E+01	  0.056472946	-3.684100E+01
184	  0.056673344	-6.083000E+00	  0.056673344	-9.694500E+01	  0.056673344	2.757200E+01	  0.056673344	-3.606100E+01
185	  0.056873746	-6.091000E+00	  0.056873746	-9.828600E+01	  0.056873746	2.714500E+01	  0.056873746	-3.533400E+01
186	  0.057074148	-6.098000E+00	  0.057074148	-9.969900E+01	  0.057074148	2.670400E+01	  0.057074148	-3.457900E+01
187	  0.057274550	-6.105000E+00	  0.057274550	-1.011000E+02	  0.057274550	2.628400E+01	  0.057274550	-3.384000E+01
188	  0.057474948	-6.112000E+00	  0.057474948	-1.024860E+02	  0.057474948	2.588800E+01	  0.057474948	-3.311300E+01
189	  0.057675350	-6.113000E+00	  0.057675350	-1.038730E+02	  0.057675350	2.548100E+01	  0.057675350	-3.240700E+01
190	  0.057875752	-6.118000E+00	  0.057875752	-1.052530E+02	  0.057875752	2.510900E+01	  0.057875752	-3.170200E+01
191	  0.058076151	-6.123000E+00	  0.058076151	-1.066070E+02	  0.058076151	2.475500E+01	  0.058076151	-3.101600E+01
192	  0.058276553	-6.124000E+00	  0.058276553	-1.079580E+02	  0.058276553	2.440400E+01	  0.058276553	-3.034500E+01
193	  0.058476955	-6.128000E+00	  0.058476955	-1.092910E+02	  0.058476955	2.407600E+01	  0.058476955	-2.968500E+01
194	  0.058677353	-6.126000E+00	  0.058677353	-1.106160E+02	  0.058677353	2.374800E+01	  0.058677353	-2.904100E+01
195	  0.058877755	-6.129000E+00	  0.058877755	-1.119450E+02	  0.058877755	2.344100E+01	  0.058877755	-2.839600E+01
196	  0.059078157	-6.125000E+00	  0.059078157	-1.132360E+02	  0.059078157	2.313500E+01	  0.059078157	-2.778300E+01
197	  0.059278559	-6.128000E+00	  0.059278559	-1.145270E+02	  0.059278559	2.286000E+01	  0.059278559	-2.716400E+01
198	  0.059478957	-6.125000E+00	  0.059478957	-1.158110E+02	  0.059478957	2.257500E+01	  0.059478957	-2.656200E+01
199	  0.059679359	-6.126000E+00	  0.059679359	-1.170930E+02	  0.059679359	2.231500E+01	  0.059679359	-2.596000E+01
200	  0.059879761	-6.125000E+00	  0.059879761	-1.183490E+02	  0.059879761	2.206300E+01	  0.059879761	-2.537600E+01
201	  0.060080159	-6.126000E+00	  0.060080159	-1.195970E+02	  0.060080159	2.182500E+01	  0.060080159	-2.479900E+01
202	  0.060280561	-6.129000E+00	  0.060280561	-1.208380E+02	  0.060280561	2.160400E+01	  0.060280561	-2.422600E+01
203	  0.060480963	-6.132000E+00	  0.060480963	-1.220650E+02	  0.060480963	2.139200E+01	  0.060480963	-2.366300E+01
204	  0.060681365	-6.130000E+00	  0.060681365	-1.232740E+02	  0.060681365	2.117700E+01	  0.060681365	-2.311800E+01
205	  0.060881764	-6.134000E+00	  0.060881764	-1.245000E+02	  0.060881764	2.098200E+01	  0.060881764	-2.256200E+01
206	  0.061082166	-6.133000E+00	  0.061082166	-1.257220E+02	  0.061082166	2.078200E+01	  0.061082166	-2.201600E+01
207	  0.061282568	-6.135000E+00	  0.061282568	-1.269450E+02	  0.061282568	2.059500E+01	  0.061282568	-2.147100E+01
208	  0.061482966	-6.144000E+00	  0.061482966	-1.281280E+02	  0.061482966	2.044200E+01	  0.061482966	-2.094000E+01
209	  0.061683368	-6.146000E+00	  0.061683368	-1.293340E+02	  0.061683368	2.027000E+01	  0.061683368	-2.040900E+01
210	  0.061883770	-6.154000E+00	  0.061883770	-1.305240E+02	  0.061883770	2.012400E+01	  0.061883770	-1.988300E+01
211	  0.062084168	-6.156000E+00	  0.062084168	-1.317230E+02	  0.062084168	1.996500E+01	  0.062084168	-1.936100E+01
212	  0.062284570	-6.159000E+00	  0.062284570	-1.328910E+02	  0.062284570	1.982000E+01	  0.062284570	-1.885500E+01
213	  0.062484972	-6.156000E+00	  0.062484972	-1.340830E+02	  0.062484972	1.965800E+01	  0.062484972	-1.834600E+01
214	  0.062685370	-6.161000E+00	  0.062685370	-1.352690E+02	  0.062685370	1.952400E+01	  0.062685370	-1.783700E+01
215	  0.062885776	-6.165000E+00	  0.062885776	-1.364500E+02	  0.062885776	1.939600E+01	  0.062885776	-1.733200E+01
216	  0.063086174	-6.173000E+00	  0.063086174	-1.376440E+02	  0.063086174	1.927900E+01	  0.063086174	-1.682300E+01
217	  0.063286573	-6.174000E+00	  0.063286573	-1.388510E+02	  0.063286573	1.914700E+01	  0.063286573	-1.631600E+01
218	  0.063486971	-6.179000E+00	  0.063486971	-1.399850E+02	  0.063486971	1.904000E+01	  0.063486971	-1.583800E+01
219	  0.063687377	-6.176000E+00	  0.063687377	-1.411710E+02	  0.063687377	1.891000E+01	  0.063687377	-1.534700E+01
220	  0.063887775	-6.178000E+00	  0.063887775	-1.422970E+02	  0.063887775	1.880300E+01	  0.063887775	-1.487900E+01
221	  0.064088173	-6.181000E+00	  0.064088173	-1.434920E+02	  0.064088173	1.869700E+01	  0.064088173	-1.438500E+01
222	  0.064288579	-6.185000E+00	  0.064288579	-1.446680E+02	  0.064288579	1.859800E+01	  0.064288579	-1.389900E+01
223	  0.064488977	-6.188000E+00	  0.064488977	-1.458420E+02	  0.064488977	1.850400E+01	  0.064488977	-1.341700E+01
224	  0.064689375	-6.189000E+00	  0.064689375	-1.469610E+02	  0.064689375	1.841200E+01	  0.064689375	-1.296100E+01
225	  0.064889781	-6.193000E+00	  0.064889781	-1.481210E+02	  0.064889781	1.832700E+01	  0.064889781	-1.248800E+01
226	  0.065090179	-6.194000E+00	  0.065090179	-1.492570E+02	  0.065090179	1.824100E+01	  0.065090179	-1.202900E+01
227	  0.065290578	-6.195000E+00	  0.065290578	-1.503730E+02	  0.065290578	1.815900E+01	  0.065290578	-1.157900E+01
228	  0.065490983	-6.196000E+00	  0.065490983	-1.514880E+02	  0.065490983	1.808300E+01	  0.065490983	-1.113000E+01
229	  0.065691382	-6.194000E+00	  0.065691382	-1.525950E+02	  0.065691382	1.800200E+01	  0.065691382	-1.068800E+01
230	  0.065891780	-6.198000E+00	  0.065891780	-1.537190E+02	  0.065891780	1.793900E+01	  0.065891780	-1.023800E+01
231	  0.066092186	-6.199000E+00	  0.066092186	-1.548060E+02	  0.066092186	1.787300E+01	  0.066092186	-9.805000E+00
232	  0.066292584	-6.201000E+00	  0.066292584	-1.558760E+02	  0.066292584	1.781400E+01	  0.066292584	-9.380000E+00
233	  0.066492982	-6.203000E+00	  0.066492982	-1.569700E+02	  0.066492982	1.775700E+01	  0.066492982	-8.946000E+00
234	  0.066693388	-6.207000E+00	  0.066693388	-1.580480E+02	  0.066693388	1.770900E+01	  0.066693388	-8.519000E+00
235	  0.066893786	-6.214000E+00	  0.066893786	-1.591020E+02	  0.066893786	1.767300E+01	  0.066893786	-8.102000E+00
236	  0.067094192	-6.213000E+00	  0.067094192	-1.601560E+02	  0.067094192	1.762000E+01	  0.067094192	-7.688000E+00
237	  0.067294590	-6.219000E+00	  0.067294590	-1.612060E+02	  0.067294590	1.758700E+01	  0.067294590	-7.274000E+00
238	  0.067494988	-6.225000E+00	  0.067494988	-1.622770E+02	  0.067494988	1.755600E+01	  0.067494988	-6.854000E+00
239	  0.067695394	-6.224000E+00	  0.067695394	-1.633390E+02	  0.067695394	1.751000E+01	  0.067695394	-6.439000E+00
240	  0.067895792	-6.233000E+00	  0.067895792	-1.643920E+02	  0.067895792	1.749400E+01	  0.067895792	-6.027000E+00
241	  0.068096191	-6.238000E+00	  0.068096191	-1.654520E+02	  0.068096191	1.746800E+01	  0.068096191	-5.614000E+00
242	  0.068296596	-6.241000E+00	  0.068296596	-1.664930E+02	  0.068296596	1.744200E+01	  0.068296596	-5.209000E+00
243	  0.068496995	-6.247000E+00	  0.068496995	-1.675340E+02	  0.068496995	1.742400E+01	  0.068496995	-4.804000E+00
244	  0.068697393	-6.257000E+00	  0.068697393	-1.685680E+02	  0.068697393	1.742100E+01	  0.068697393	-4.402000E+00
245	  0.068897791	-6.257000E+00	  0.068897791	-1.695960E+02	  0.068897791	1.739400E+01	  0.068897791	-4.004000E+00
246	  0.069098189	-6.257000E+00	  0.069098189	-1.706460E+02	  0.069098189	1.737200E+01	  0.069098189	-3.599000E+00
247	  0.069298595	-6.263000E+00	  0.069298595	-1.716720E+02	  0.069298595	1.736500E+01	  0.069298595	-3.202000E+00
248	  0.069498993	-6.261000E+00	  0.069498993	-1.727150E+02	  0.069498993	1.734200E+01	  0.069498993	-2.801000E+00
249	  0.069699399	-6.265000E+00	  0.069699399	-1.737710E+02	  0.069699399	1.733400E+01	  0.069699399	-2.394000E+00
250	  0.069899797	-6.271000E+00	  0.069899797	-1.747480E+02	  0.069899797	1.733600E+01	  0.069899797	-2.017000E+00
251	  0.070100196	-6.268000E+00	  0.070100196	-1.757430E+02	  0.070100196	1.731900E+01	  0.070100196	-1.635000E+00
252	  0.070300601	-6.267000E+00	  0.070300601	-1.767600E+02	  0.070300601	1.730800E+01	  0.070300601	-1.244000E+00
253	  0.070501000	-6.268000E+00	  0.070501000	-1.777710E+02	  0.070501000	1.730300E+01	  0.070501000	-8.550000E-01
254	  0.070701398	-6.263000E+00	  0.070701398	-1.787200E+02	  0.070701398	1.728800E+01	  0.070701398	-4.910000E-01
255	  0.070901804	-6.264000E+00	  0.070901804	-1.796930E+02	  0.070901804	1.728700E+01	  0.070901804	-1.170000E-01
256	  0.071102202	-6.265000E+00	  0.071102202	1.793150E+02	  0.071102202	1.728900E+01	  0.071102202	2.620000E-01
257	  0.071302600	-6.265000E+00	  0.071302600	1.783540E+02	  0.071302600	1.729200E+01	  0.071302600	6.320000E-01
258	  0.071503006	-6.268000E+00	  0.071503006	1.774050E+02	  0.071503006	1.730500E+01	  0.071503006	9.960000E-01
259	  0.071703404	-6.268000E+00	  0.071703404	1.765090E+02	  0.071703404	1.731100E+01	  0.071703404	1.341000E+00
260	  0.071903802	-6.270000E+00	  0.071903802	1.755570E+02	  0.071903802	1.732600E+01	  0.071903802	1.706000E+00
261	  0.072104208	-6.270000E+00	  0.072104208	1.746220E+02	  0.072104208	1.733700E+01	  0.072104208	2.066000E+00
262	  0.072304606	-6.270000E+00	  0.072304606	1.737460E+02	  0.072304606	1.734800E+01	  0.072304606	2.403000E+00
263	  0.072505005	-6.277000E+00	  0.072505005	1.728420E+02	  0.072505005	1.737900E+01	  0.072505005	2.750000E+00
264	  0.072705410	-6.278000E+00	  0.072705410	1.719390E+02	  0.072705410	1.739800E+01	  0.072705410	3.098000E+00
265	  0.072905809	-6.288000E+00	  0.072905809	1.710290E+02	  0.072905809	1.744100E+01	  0.072905809	3.447000E+00
266	  0.073106214	-6.294000E+00	  0.073106214	1.701140E+02	  0.073106214	1.747600E+01	  0.073106214	3.799000E+00
267	  0.073306613	-6.300000E+00	  0.073306613	1.692370E+02	  0.073306613	1.751400E+01	  0.073306613	4.136000E+00
268	  0.073507011	-6.312000E+00	  0.073507011	1.683650E+02	  0.073507011	1.756600E+01	  0.073507011	4.470000E+00
269	  0.073707417	-6.321000E+00	  0.073707417	1.674420E+02	  0.073707417	1.761600E+01	  0.073707417	4.825000E+00
270	  0.073907815	-6.334000E+00	  0.073907815	1.665550E+02	  0.073907815	1.767600E+01	  0.073907815	5.165000E+00
271	  0.074108213	-6.341000E+00	  0.074108213	1.656930E+02	  0.074108213	1.772400E+01	  0.074108213	5.497000E+00
272	  0.074308619	-6.356000E+00	  0.074308619	1.647620E+02	  0.074308619	1.779300E+01	  0.074308619	5.854000E+00
273	  0.074509017	-6.368000E+00	  0.074509017	1.638380E+02	  0.074509017	1.785900E+01	  0.074509017	6.208000E+00
274	  0.074709415	-6.380000E+00	  0.074709415	1.629450E+02	  0.074709415	1.792700E+01	  0.074709415	6.551000E+00
275	  0.074909821	-6.399000E+00	  0.074909821	1.619980E+02	  0.074909821	1.801400E+01	  0.074909821	6.913000E+00
276	  0.075110219	-6.413000E+00	  0.075110219	1.611060E+02	  0.075110219	1.809000E+01	  0.075110219	7.255000E+00
277	  0.075310618	-6.425000E+00	  0.075310618	1.601390E+02	  0.075310618	1.816500E+01	  0.075310618	7.628000E+00
278	  0.075511023	-6.441000E+00	  0.075511023	1.592310E+02	  0.075511023	1.825100E+01	  0.075511023	7.976000E+00
279	  0.075711422	-6.451000E+00	  0.075711422	1.583170E+02	  0.075711422	1.832500E+01	  0.075711422	8.328000E+00
280	  0.075911827	-6.459000E+00	  0.075911827	1.573880E+02	  0.075911827	1.839700E+01	  0.075911827	8.688000E+00
281	  0.076112226	-6.474000E+00	  0.076112226	1.564290E+02	  0.076112226	1.849000E+01	  0.076112226	9.057000E+00
282	  0.076312624	-6.488000E+00	  0.076312624	1.555110E+02	  0.076312624	1.858000E+01	  0.076312624	9.411000E+00
283	  0.076513030	-6.497000E+00	  0.076513030	1.545770E+02	  0.076513030	1.866400E+01	  0.076513030	9.773000E+00
284	  0.076713428	-6.509000E+00	  0.076713428	1.536230E+02	  0.076713428	1.875500E+01	  0.076713428	1.014200E+01
285	  0.076913826	-6.521000E+00	  0.076913826	1.527010E+02	  0.076913826	1.884900E+01	  0.076913826	1.050000E+01
286	  0.077114232	-6.530000E+00	  0.077114232	1.517890E+02	  0.077114232	1.893800E+01	  0.077114232	1.085400E+01
287	  0.077314630	-6.534000E+00	  0.077314630	1.508880E+02	  0.077314630	1.901300E+01	  0.077314630	1.120800E+01
288	  0.077515028	-6.540000E+00	  0.077515028	1.499700E+02	  0.077515028	1.909800E+01	  0.077515028	1.156800E+01
289	  0.077715434	-6.545000E+00	  0.077715434	1.490850E+02	  0.077715434	1.918100E+01	  0.077715434	1.191700E+01
290	  0.077915832	-6.554000E+00	  0.077915832	1.482170E+02	  0.077915832	1.927400E+01	  0.077915832	1.225700E+01
291	  0.078116231	-6.562000E+00	  0.078116231	1.473390E+02	  0.078116231	1.937000E+01	  0.078116231	1.260200E+01
292	  0.078316636	-6.568000E+00	  0.078316636	1.464600E+02	  0.078316636	1.946200E+01	  0.078316636	1.294900E+01
293	  0.078517035	-6.574000E+00	  0.078517035	1.455980E+02	  0.078517035	1.955600E+01	  0.078517035	1.329000E+01
294	  0.078717433	-6.579000E+00	  0.078717433	1.447500E+02	  0.078717433	1.964700E+01	  0.078717433	1.362700E+01
295	  0.078917839	-6.586000E+00	  0.078917839	1.439510E+02	  0.078917839	1.974000E+01	  0.078917839	1.394400E+01
296	  0.079118237	-6.595000E+00	  0.079118237	1.431500E+02	  0.079118237	1.984200E+01	  0.079118237	1.426100E+01
297	  0.079318643	-6.605000E+00	  0.079318643	1.423570E+02	  0.079318643	1.994800E+01	  0.079318643	1.457400E+01
298	  0.079519041	-6.616000E+00	  0.079519041	1.415610E+02	  0.079519041	2.005900E+01	  0.079519041	1.488900E+01
299	  0.079719439	-6.629000E+00	  0.079719439	1.407550E+02	  0.079719439	2.017900E+01	  0.079719439	1.520600E+01
300	  0.079919845	-6.640000E+00	  0.079919845	1.399900E+02	  0.079919845	2.029300E+01	  0.079919845	1.550800E+01
301	  0.080120243	-6.655000E+00	  0.080120243	1.391740E+02	  0.080120243	2.042300E+01	  0.080120243	1.582900E+01
302	  0.080320641	-6.673000E+00	  0.080320641	1.384050E+02	  0.080320641	2.055900E+01	  0.080320641	1.613000E+01
303	  0.080521047	-6.685000E+00	  0.080521047	1.376610E+02	  0.080521047	2.067800E+01	  0.080521047	1.642400E+01
304	  0.080721445	-6.707000E+00	  0.080721445	1.368880E+02	  0.080721445	2.083000E+01	  0.080721445	1.672300E+01
305	  0.080921844	-6.725000E+00	  0.080921844	1.361220E+02	  0.080921844	2.097500E+01	  0.080921844	1.702200E+01
306	  0.081122249	-6.747000E+00	  0.081122249	1.353420E+02	  0.081122249	2.113200E+01	  0.081122249	1.732400E+01
307	  0.081322648	-6.771000E+00	  0.081322648	1.345730E+02	  0.081322648	2.129500E+01	  0.081322648	1.762000E+01
308	  0.081523046	-6.791000E+00	  0.081523046	1.337780E+02	  0.081523046	2.145700E+01	  0.081523046	1.792900E+01
309	  0.081723452	-6.809000E+00	  0.081723452	1.329860E+02	  0.081723452	2.161200E+01	  0.081723452	1.824000E+01
310	  0.081923850	-6.830000E+00	  0.081923850	1.322060E+02	  0.081923850	2.177800E+01	  0.081923850	1.854300E+01
311	  0.082124248	-6.852000E+00	  0.082124248	1.314280E+02	  0.082124248	2.195100E+01	  0.082124248	1.884400E+01
312	  0.082324654	-6.876000E+00	  0.082324654	1.306060E+02	  0.082324654	2.213600E+01	  0.082324654	1.916200E+01
313	  0.082525052	-6.900000E+00	  0.082525052	1.298380E+02	  0.082525052	2.231700E+01	  0.082525052	1.945700E+01
314	  0.082725458	-6.922000E+00	  0.082725458	1.290420E+02	  0.082725458	2.250000E+01	  0.082725458	1.976600E+01
315	  0.082925856	-6.942000E+00	  0.082925856	1.282410E+02	  0.082925856	2.268000E+01	  0.082925856	2.007800E+01
316	  0.083126254	-6.968000E+00	  0.083126254	1.274290E+02	  0.083126254	2.288300E+01	  0.083126254	2.039000E+01
317	  0.083326660	-6.988000E+00	  0.083326660	1.266240E+02	  0.083326660	2.306900E+01	  0.083326660	2.070500E+01
318	  0.083527058	-7.006000E+00	  0.083527058	1.258330E+02	  0.083527058	2.325300E+01	  0.083527058	2.101500E+01
319	  0.083727457	-7.024000E+00	  0.083727457	1.250330E+02	  0.083727457	2.344000E+01	  0.083727457	2.133100E+01
320	  0.083927862	-7.048000E+00	  0.083927862	1.242690E+02	  0.083927862	2.364100E+01	  0.083927862	2.162400E+01
321	  0.084128261	-7.063000E+00	  0.084128261	1.234620E+02	  0.084128261	2.383000E+01	  0.084128261	2.194500E+01
322	  0.084328659	-7.085000E+00	  0.084328659	1.226820E+02	  0.084328659	2.403400E+01	  0.084328659	2.224800E+01
323	  0.084529065	-7.103000E+00	  0.084529065	1.219200E+02	  0.084529065	2.422700E+01	  0.084529065	2.254800E+01
324	  0.084729463	-7.121000E+00	  0.084729463	1.211790E+02	  0.084729463	2.442200E+01	  0.084729463	2.283700E+01
325	  0.084929854	-7.139000E+00	  0.084929854	1.204300E+02	  0.084929854	2.461900E+01	  0.084929854	2.313100E+01
326	  0.085130259	-7.150000E+00	  0.085130259	1.196870E+02	  0.085130259	2.480000E+01	  0.085130259	2.343200E+01
327	  0.085330658	-7.166000E+00	  0.085330658	1.189440E+02	  0.085330658	2.499700E+01	  0.085330658	2.372600E+01
328	  0.085531056	-7.182000E+00	  0.085531056	1.182350E+02	  0.085531056	2.519000E+01	  0.085531056	2.400600E+01
329	  0.085731462	-7.202000E+00	  0.085731462	1.175260E+02	  0.085731462	2.539500E+01	  0.085731462	2.428100E+01
330	  0.085931860	-7.216000E+00	  0.085931860	1.168310E+02	  0.085931860	2.558900E+01	  0.085931860	2.455600E+01
331	  0.086132258	-7.237000E+00	  0.086132258	1.161970E+02	  0.086132258	2.578700E+01	  0.086132258	2.479700E+01
332	  0.086332664	-7.256000E+00	  0.086332664	1.155410E+02	  0.086332664	2.598900E+01	  0.086332664	2.504900E+01
333	  0.086533062	-7.280000E+00	  0.086533062	1.148750E+02	  0.086533062	2.620800E+01	  0.086533062	2.529900E+01
334	  0.086733460	-7.296000E+00	  0.086733460	1.142200E+02	  0.086733460	2.640800E+01	  0.086733460	2.555400E+01
335	  0.086933866	-7.315000E+00	  0.086933866	1.136010E+02	  0.086933866	2.660800E+01	  0.086933866	2.579000E+01
336	  0.087134264	-7.336000E+00	  0.087134264	1.129500E+02	  0.087134264	2.682500E+01	  0.087134264	2.603600E+01
337	  0.087334670	-7.365000E+00	  0.087334670	1.123190E+02	  0.087334670	2.706100E+01	  0.087334670	2.626000E+01
338	  0.087535068	-7.391000E+00	  0.087535068	1.116870E+02	  0.087535068	2.729200E+01	  0.087535068	2.648800E+01
339	  0.087735467	-7.420000E+00	  0.087735467	1.110660E+02	  0.087735467	2.753300E+01	  0.087735467	2.670600E+01
340	  0.087935872	-7.447000E+00	  0.087935872	1.104670E+02	  0.087935872	2.776400E+01	  0.087935872	2.691600E+01
341	  0.088136271	-7.473000E+00	  0.088136271	1.098340E+02	  0.088136271	2.800600E+01	  0.088136271	2.714100E+01
342	  0.088336669	-7.506000E+00	  0.088336669	1.092110E+02	  0.088336669	2.826600E+01	  0.088336669	2.734900E+01
343	  0.088537075	-7.534000E+00	  0.088537075	1.085520E+02	  0.088537075	2.852200E+01	  0.088537075	2.758200E+01
344	  0.088737473	-7.556000E+00	  0.088737473	1.079530E+02	  0.088737473	2.875200E+01	  0.088737473	2.779600E+01
345	  0.088937871	-7.587000E+00	  0.088937871	1.072760E+02	  0.088937871	2.902900E+01	  0.088937871	2.802700E+01
346	  0.089138277	-7.618000E+00	  0.089138277	1.066570E+02	  0.089138277	2.929200E+01	  0.089138277	2.823400E+01
347	  0.089338675	-7.649000E+00	  0.089338675	1.060270E+02	  0.089338675	2.956400E+01	  0.089338675	2.844100E+01
348	  0.089539073	-7.681000E+00	  0.089539073	1.054070E+02	  0.089539073	2.983500E+01	  0.089539073	2.864300E+01
349	  0.089739479	-7.715000E+00	  0.089739479	1.047740E+02	  0.089739479	3.012200E+01	  0.089739479	2.884200E+01
350	  0.089939877	-7.739000E+00	  0.089939877	1.041240E+02	  0.089939877	3.038600E+01	  0.089939877	2.907000E+01
351	  0.090140276	-7.773000E+00	  0.090140276	1.034830E+02	  0.090140276	3.068200E+01	  0.090140276	2.927000E+01
352	  0.090340681	-7.792000E+00	  0.090340681	1.028670E+02	  0.090340681	3.092900E+01	  0.090340681	2.949000E+01
353	  0.090541080	-7.823000E+00	  0.090541080	1.022250E+02	  0.090541080	3.122000E+01	  0.090541080	2.969500E+01
354	  0.090741485	-7.850000E+00	  0.090741485	1.015900E+02	  0.090741485	3.150300E+01	  0.090741485	2.990300E+01
355	  0.090941884	-7.872000E+00	  0.090941884	1.009520E+02	  0.090941884	3.177600E+01	  0.090941884	3.012100E+01
356	  0.091142282	-7.905000E+00	  0.091142282	1.003440E+02	  0.091142282	3.207000E+01	  0.091142282	3.030300E+01
357	  0.091342688	-7.930000E+00	  0.091342688	9.972300E+01	  0.091342688	3.235200E+01	  0.091342688	3.050600E+01
358	  0.091543086	-7.954000E+00	  0.091543086	9.912500E+01	  0.091543086	3.262400E+01	  0.091543086	3.070000E+01
359	  0.091743484	-7.975000E+00	  0.091743484	9.849500E+01	  0.091743484	3.290500E+01	  0.091743484	3.091100E+01
360	  0.091943890	-7.999000E+00	  0.091943890	9.790900E+01	  0.091943890	3.317900E+01	  0.091943890	3.109800E+01
361	  0.092144288	-8.018000E+00	  0.092144288	9.730000E+01	  0.092144288	3.345300E+01	  0.092144288	3.130200E+01
362	  0.092344686	-8.037000E+00	  0.092344686	9.673300E+01	  0.092344686	3.371200E+01	  0.092344686	3.149100E+01
363	  0.092545092	-8.052000E+00	  0.092545092	9.615900E+01	  0.092545092	3.396800E+01	  0.092545092	3.168800E+01
364	  0.092745490	-8.080000E+00	  0.092745490	9.562000E+01	  0.092745490	3.424600E+01	  0.092745490	3.184000E+01
365	  0.092945889	-8.095000E+00	  0.092945889	9.506800E+01	  0.092945889	3.449800E+01	  0.092945889	3.202800E+01
366	  0.093146294	-8.124000E+00	  0.093146294	9.455300E+01	  0.093146294	3.477600E+01	  0.093146294	3.216300E+01
367	  0.093346693	-8.142000E+00	  0.093346693	9.401900E+01	  0.093346693	3.503300E+01	  0.093346693	3.233300E+01
368	  0.093547091	-8.153000E+00	  0.093547091	9.350600E+01	  0.093547091	3.526700E+01	  0.093547091	3.251100E+01
369	  0.093747497	-8.176000E+00	  0.093747497	9.302600E+01	  0.093747497	3.552100E+01	  0.093747497	3.264300E+01
370	  0.093947895	-8.189000E+00	  0.093947895	9.250600E+01	  0.093947895	3.576900E+01	  0.093947895	3.281500E+01
371	  0.094148301	-8.215000E+00	  0.094148301	9.202500E+01	  0.094148301	3.603400E+01	  0.094148301	3.293900E+01
372	  0.094348699	-8.228000E+00	  0.094348699	9.155900E+01	  0.094348699	3.626400E+01	  0.094348699	3.308700E+01
373	  0.094549097	-8.256000E+00	  0.094549097	9.109800E+01	  0.094549097	3.653100E+01	  0.094549097	3.319300E+01
374	  0.094749503	-8.274000E+00	  0.094749503	9.062400E+01	  0.094749503	3.677900E+01	  0.094749503	3.333000E+01
375	  0.094949901	-8.296000E+00	  0.094949901	9.020000E+01	  0.094949901	3.701800E+01	  0.094949901	3.343500E+01
376	  0.095150299	-8.314000E+00	  0.095150299	8.970900E+01	  0.095150299	3.727700E+01	  0.095150299	3.357600E+01
377	  0.095350705	-8.330000E+00	  0.095350705	8.926500E+01	  0.095350705	3.751500E+01	  0.095350705	3.370100E+01
378	  0.095551103	-8.350000E+00	  0.095551103	8.881300E+01	  0.095551103	3.776700E+01	  0.095551103	3.381800E+01
379	  0.095751502	-8.364000E+00	  0.095751502	8.835900E+01	  0.095751502	3.800500E+01	  0.095751502	3.395300E+01
380	  0.095951907	-8.382000E+00	  0.095951907	8.790400E+01	  0.095951907	3.825800E+01	  0.095951907	3.407300E+01
381	  0.096152306	-8.400000E+00	  0.096152306	8.748000E+01	  0.096152306	3.849600E+01	  0.096152306	3.418100E+01
382	  0.096352704	-8.415000E+00	  0.096352704	8.703700E+01	  0.096352704	3.873800E+01	  0.096352704	3.430500E+01
383	  0.096553110	-8.430000E+00	  0.096553110	8.658200E+01	  0.096553110	3.898700E+01	  0.096553110	3.443200E+01
384	  0.096753508	-8.441000E+00	  0.096753508	8.616600E+01	  0.096753508	3.921200E+01	  0.096753508	3.455200E+01
385	  0.096953906	-8.457000E+00	  0.096953906	8.574500E+01	  0.096953906	3.945000E+01	  0.096953906	3.466200E+01
386	  0.097154312	-8.470000E+00	  0.097154312	8.531700E+01	  0.097154312	3.968800E+01	  0.097154312	3.478100E+01
387	  0.097354710	-8.476000E+00	  0.097354710	8.490000E+01	  0.097354710	3.990400E+01	  0.097354710	3.491700E+01
388	  0.097555116	-8.490000E+00	  0.097555116	8.447400E+01	  0.097555116	4.014600E+01	  0.097555116	3.503000E+01
389	  0.097755514	-8.494000E+00	  0.097755514	8.404300E+01	  0.097755514	4.036900E+01	  0.097755514	3.517400E+01
390	  0.097955912	-8.506000E+00	  0.097955912	8.364400E+01	  0.097955912	4.059600E+01	  0.097955912	3.528300E+01
391	  0.098156318	-8.511000E+00	  0.098156318	8.324700E+01	  0.098156318	4.080800E+01	  0.098156318	3.541000E+01
392	  0.098356716	-8.520000E+00	  0.098356716	8.284900E+01	  0.098356716	4.103200E+01	  0.098356716	3.552400E+01
393	  0.098557115	-8.527000E+00	  0.098557115	8.242600E+01	  0.098557115	4.126300E+01	  0.098557115	3.565500E+01
394	  0.098757520	-8.526000E+00	  0.098757520	8.203700E+01	  0.098757520	4.146400E+01	  0.098757520	3.579700E+01
395	  0.098957919	-8.533000E+00	  0.098957919	8.162800E+01	  0.098957919	4.169200E+01	  0.098957919	3.592100E+01
396	  0.099158317	-8.533000E+00	  0.099158317	8.120700E+01	  0.099158317	4.191400E+01	  0.099158317	3.606900E+01
397	  0.099358723	-8.535000E+00	  0.099358723	8.081300E+01	  0.099358723	4.212700E+01	  0.099358723	3.620500E+01
398	  0.099559121	-8.537000E+00	  0.099559121	8.041200E+01	  0.099559121	4.234700E+01	  0.099559121	3.633800E+01
399	  0.099759519	-8.543000E+00	  0.099759519	8.003100E+01	  0.099759519	4.256500E+01	  0.099759519	3.645400E+01
400	  0.099959925	-8.534000E+00	  0.099959925	7.965400E+01	  0.099959925	4.275000E+01	  0.099959925	3.661800E+01
401	  0.100160323	-8.537000E+00	  0.100160323	7.923500E+01	  0.100160323	4.298700E+01	  0.100160323	3.675300E+01
402	  0.100360721	-8.539000E+00	  0.100360721	7.887100E+01	  0.100360721	4.319400E+01	  0.100360721	3.687200E+01
403	  0.100561127	-8.538000E+00	  0.100561127	7.839600E+01	  0.100561127	4.345600E+01	  0.100561127	3.704300E+01
404	  0.100761525	-8.538000E+00	  0.100761525	7.796700E+01	  0.100761525	4.369800E+01	  0.100761525	3.719000E+01
405	  0.100961931	-8.540000E+00	  0.100961931	7.762200E+01	  0.100961931	4.389900E+01	  0.100961931	3.730100E+01
406	  0.101162329	-8.532000E+00	  0.101162329	7.717300E+01	  0.101162329	4.413900E+01	  0.101162329	3.748600E+01
407	  0.101362728	-8.541000E+00	  0.101362728	7.672100E+01	  0.101362728	4.442200E+01	  0.101362728	3.760400E+01
408	  0.101563133	-8.545000E+00	  0.101563133	7.629100E+01	  0.101563133	4.468200E+01	  0.101563133	3.773500E+01
409	  0.101763532	-8.541000E+00	  0.101763532	7.580800E+01	  0.101763532	4.495900E+01	  0.101763532	3.791300E+01
410	  0.101963930	-8.541000E+00	  0.101963930	7.533900E+01	  0.101963930	4.524000E+01	  0.101963930	3.806800E+01
411	  0.102164328	-8.540000E+00	  0.102164328	7.487800E+01	  0.102164328	4.551700E+01	  0.102164328	3.822400E+01
412	  0.102364726	-8.537000E+00	  0.102364726	7.439300E+01	  0.102364726	4.580600E+01	  0.102364726	3.839600E+01
413	  0.102565125	-8.534000E+00	  0.102565125	7.389200E+01	  0.102565125	4.610800E+01	  0.102565125	3.857300E+01
414	  0.102765530	-8.528000E+00	  0.102765530	7.341000E+01	  0.102765530	4.639600E+01	  0.102765530	3.875400E+01
415	  0.102965929	-8.524000E+00	  0.102965929	7.290700E+01	  0.102965929	4.670600E+01	  0.102965929	3.893000E+01
416	  0.103166327	-8.522000E+00	  0.103166327	7.239400E+01	  0.103166327	4.702900E+01	  0.103166327	3.910300E+01
417	  0.103366733	-8.520000E+00	  0.103366733	7.180400E+01	  0.103366733	4.740600E+01	  0.103366733	3.929700E+01
418	  0.103567131	-8.515000E+00	  0.103567131	7.130900E+01	  0.103567131	4.772000E+01	  0.103567131	3.947200E+01
419	  0.103767529	-8.510000E+00	  0.103767529	7.077300E+01	  0.103767529	4.806400E+01	  0.103767529	3.966100E+01
420	  0.103967935	-8.509000E+00	  0.103967935	7.020900E+01	  0.103967935	4.843900E+01	  0.103967935	3.984000E+01
421	  0.104168333	-8.491000E+00	  0.104168333	6.965000E+01	  0.104168333	4.878200E+01	  0.104168333	4.008900E+01
422	  0.104368731	-8.487000E+00	  0.104368731	6.909600E+01	  0.104368731	4.915600E+01	  0.104368731	4.026900E+01
423	  0.104569137	-8.477000E+00	  0.104569137	6.857400E+01	  0.104569137	4.949900E+01	  0.104569137	4.047000E+01
424	  0.104769535	-8.475000E+00	  0.104769535	6.803400E+01	  0.104769535	4.987400E+01	  0.104769535	4.063900E+01
425	  0.104969934	-8.456000E+00	  0.104969934	6.752000E+01	  0.104969934	5.020400E+01	  0.104969934	4.087900E+01
426	  0.105170339	-8.442000E+00	  0.105170339	6.689500E+01	  0.105170339	5.063000E+01	  0.105170339	4.112000E+01
427	  0.105370738	-8.438000E+00	  0.105370738	6.641000E+01	  0.105370738	5.097500E+01	  0.105370738	4.127900E+01
428	  0.105571143	-8.424000E+00	  0.105571143	6.586900E+01	  0.105571143	5.135000E+01	  0.105571143	4.149700E+01
429	  0.105771542	-8.410000E+00	  0.105771542	6.530900E+01	  0.105771542	5.174300E+01	  0.105771542	4.172200E+01
430	  0.105971940	-8.396000E+00	  0.105971940	6.477400E+01	  0.105971940	5.212400E+01	  0.105971940	4.193700E+01
431	  0.106172346	-8.384000E+00	  0.106172346	6.419500E+01	  0.106172346	5.254700E+01	  0.106172346	4.215300E+01
432	  0.106372744	-8.372000E+00	  0.106372744	6.370500E+01	  0.106372744	5.290800E+01	  0.106372744	4.234100E+01
433	  0.106573142	-8.361000E+00	  0.106573142	6.316200E+01	  0.106573142	5.331600E+01	  0.106573142	4.254000E+01
434	  0.106773548	-8.343000E+00	  0.106773548	6.255900E+01	  0.106773548	5.376700E+01	  0.106773548	4.278700E+01
435	  0.106973946	-8.330000E+00	  0.106973946	6.203900E+01	  0.106973946	5.416700E+01	  0.106973946	4.298400E+01
436	  0.107174344	-8.311000E+00	  0.107174344	6.148600E+01	  0.107174344	5.458800E+01	  0.107174344	4.322000E+01
437	  0.107374750	-8.300000E+00	  0.107374750	6.088200E+01	  0.107374750	5.507100E+01	  0.107374750	4.342700E+01
438	  0.107575148	-8.283000E+00	  0.107575148	6.036800E+01	  0.107575148	5.547700E+01	  0.107575148	4.364300E+01
439	  0.107775547	-8.267000E+00	  0.107775547	5.979300E+01	  0.107775547	5.594200E+01	  0.107775547	4.386500E+01
440	  0.107975952	-8.249000E+00	  0.107975952	5.922200E+01	  0.107975952	5.640800E+01	  0.107975952	4.409200E+01
441	  0.108176351	-8.231000E+00	  0.108176351	5.866600E+01	  0.108176351	5.686800E+01	  0.108176351	4.431900E+01
442	  0.108376749	-8.222000E+00	  0.108376749	5.804500E+01	  0.108376749	5.740600E+01	  0.108376749	4.450200E+01
443	  0.108577155	-8.206000E+00	  0.108577155	5.744500E+01	  0.108577155	5.792300E+01	  0.108577155	4.471800E+01
444	  0.108777553	-8.199000E+00	  0.108777553	5.682700E+01	  0.108777553	5.847600E+01	  0.108777553	4.488100E+01
445	  0.108977959	-8.184000E+00	  0.108977959	5.625400E+01	  0.108977959	5.898600E+01	  0.108977959	4.508000E+01
446	  0.109178357	-8.167000E+00	  0.109178357	5.553900E+01	  0.109178357	5.963500E+01	  0.109178357	4.531100E+01
447	  0.109378755	-8.156000E+00	  0.109378755	5.497600E+01	  0.109378755	6.015600E+01	  0.109378755	4.547900E+01
448	  0.109579161	-8.139000E+00	  0.109579161	5.432800E+01	  0.109579161	6.076300E+01	  0.109579161	4.568600E+01
449	  0.109779559	-8.124000E+00	  0.109779559	5.365300E+01	  0.109779559	6.140700E+01	  0.109779559	4.588900E+01
450	  0.109979957	-8.117000E+00	  0.109979957	5.300500E+01	  0.109979957	6.204200E+01	  0.109979957	4.602200E+01
451	  0.110180363	-8.105000E+00	  0.110180363	5.232500E+01	  0.110180363	6.271500E+01	  0.110180363	4.618800E+01
452	  0.110380761	-8.086000E+00	  0.110380761	5.164200E+01	  0.110380761	6.339600E+01	  0.110380761	4.639700E+01
453	  0.110581160	-8.073000E+00	  0.110581160	5.095000E+01	  0.110581160	6.410300E+01	  0.110581160	4.655700E+01
454	  0.110781565	-8.063000E+00	  0.110781565	5.027900E+01	  0.110781565	6.480000E+01	  0.110781565	4.669100E+01
455	  0.110981964	-8.053000E+00	  0.110981964	4.954100E+01	  0.110981964	6.558100E+01	  0.110981964	4.681800E+01
456	  0.111182362	-8.041000E+00	  0.111182362	4.887800E+01	  0.111182362	6.629100E+01	  0.111182362	4.693800E+01
457	  0.111382768	-8.033000E+00	  0.111382768	4.818600E+01	  0.111382768	6.704500E+01	  0.111382768	4.703000E+01
458	  0.111583166	-8.016000E+00	  0.111583166	4.744000E+01	  0.111583166	6.786900E+01	  0.111583166	4.717900E+01
459	  0.111783572	-8.009000E+00	  0.111783572	4.674700E+01	  0.111783572	6.864800E+01	  0.111783572	4.723500E+01
460	  0.111983970	-8.006000E+00	  0.111983970	4.601100E+01	  0.111983970	6.948700E+01	  0.111983970	4.725100E+01
461	  0.112184368	-7.999000E+00	  0.112184368	4.525900E+01	  0.112184368	7.035500E+01	  0.112184368	4.728700E+01
462	  0.112384774	-7.991000E+00	  0.112384774	4.451000E+01	  0.112384774	7.123400E+01	  0.112384774	4.731500E+01
463	  0.112585172	-7.990000E+00	  0.112585172	4.376000E+01	  0.112585172	7.212200E+01	  0.112585172	4.726800E+01
464	  0.112785570	-7.986000E+00	  0.112785570	4.295100E+01	  0.112785570	7.309300E+01	  0.112785570	4.722500E+01
465	  0.112985976	-7.986000E+00	  0.112985976	4.222100E+01	  0.112985976	7.397600E+01	  0.112985976	4.713500E+01
466	  0.113186374	-7.980000E+00	  0.113186374	4.144000E+01	  0.113186374	7.493900E+01	  0.113186374	4.707200E+01
467	  0.113386773	-7.991000E+00	  0.113386773	4.067100E+01	  0.113386773	7.587800E+01	  0.113386773	4.685600E+01
468	  0.113587178	-7.987000E+00	  0.113587178	3.981800E+01	  0.113587178	7.694700E+01	  0.113587178	4.671100E+01
469	  0.113787577	-7.996000E+00	  0.113787577	3.902600E+01	  0.113787577	7.793100E+01	  0.113787577	4.645700E+01
470	  0.113987975	-8.004000E+00	  0.113987975	3.816800E+01	  0.113987975	7.900500E+01	  0.113987975	4.616300E+01
471	  0.114188381	-8.012000E+00	  0.114188381	3.734600E+01	  0.114188381	8.003900E+01	  0.114188381	4.584800E+01
472	  0.114388779	-8.018000E+00	  0.114388779	3.648400E+01	  0.114388779	8.113400E+01	  0.114388779	4.551400E+01
473	  0.114589177	-8.028000E+00	  0.114589177	3.557400E+01	  0.114589177	8.228400E+01	  0.114589177	4.508500E+01
474	  0.114789583	-8.038000E+00	  0.114789583	3.473100E+01	  0.114789583	8.335100E+01	  0.114789583	4.465500E+01
475	  0.114989981	-8.051000E+00	  0.114989981	3.384500E+01	  0.114989981	8.446600E+01	  0.114989981	4.415200E+01
476	  0.115190387	-8.061000E+00	  0.115190387	3.290600E+01	  0.115190387	8.565500E+01	  0.115190387	4.360100E+01
477	  0.115390785	-8.077000E+00	  0.115390785	3.195100E+01	  0.115390785	8.684600E+01	  0.115390785	4.295600E+01
478	  0.115591183	-8.097000E+00	  0.115591183	3.099900E+01	  0.115591183	8.800600E+01	  0.115591183	4.223000E+01
479	  0.115791589	-8.109000E+00	  0.115791589	3.007700E+01	  0.115791589	8.915000E+01	  0.115791589	4.154900E+01
480	  0.115991987	-8.132000E+00	  0.115991987	2.909300E+01	  0.115991987	9.031600E+01	  0.115991987	4.069000E+01
481	  0.116192386	-8.149000E+00	  0.116192386	2.810100E+01	  0.116192386	9.150300E+01	  0.116192386	3.983000E+01
482	  0.116392791	-8.172000E+00	  0.116392791	2.711000E+01	  0.116392791	9.264000E+01	  0.116392791	3.887600E+01
483	  0.116593190	-8.193000E+00	  0.116593190	2.606600E+01	  0.116593190	9.382700E+01	  0.116593190	3.783900E+01
484	  0.116793588	-8.213000E+00	  0.116793588	2.504500E+01	  0.116793588	9.496800E+01	  0.116793588	3.678400E+01
485	  0.116993994	-8.237000E+00	  0.116993994	2.403600E+01	  0.116993994	9.603800E+01	  0.116993994	3.565600E+01
486	  0.117194392	-8.262000E+00	  0.117194392	2.295300E+01	  0.117194392	9.715500E+01	  0.117194392	3.440100E+01
487	  0.117394790	-8.288000E+00	  0.117394790	2.187400E+01	  0.117394790	9.822500E+01	  0.117394790	3.309600E+01
488	  0.117595196	-8.316000E+00	  0.117595196	2.083600E+01	  0.117595196	9.917900E+01	  0.117595196	3.176200E+01
489	  0.117795594	-8.349000E+00	  0.117795594	1.976400E+01	  0.117795594	1.000970E+02	  0.117795594	3.032300E+01
490	  0.117995992	-8.382000E+00	  0.117995992	1.865800E+01	  0.117995992	1.009880E+02	  0.117995992	2.879500E+01
491	  0.118196398	-8.416000E+00	  0.118196398	1.759300E+01	  0.118196398	1.017710E+02	  0.118196398	2.727200E+01
492	  0.118396796	-8.455000E+00	  0.118396796	1.650800E+01	  0.118396796	1.024660E+02	  0.118396796	2.565900E+01
