! Anritsu VNA Master:             	Model: MS2036C/10/77
! SN:             	1601066
! /bd0/18may10/255.ns.m5.txt
! Existing Calibration Information:
! TYPE:             	Current Settings	Active Cal Settings
! TIME:             	05/10/2018 02:35:48 PM	05/10/2018 02:31:48 PM
! INTERNAL TEMP:    	60.0 C	59.5 C
! # POINTS:         	492	492
! START FREQ:       	20.000 MHz	20.000 MHz
! STOP FREQ:        	118.396 793 MHz	118.396 793 MHz
! SOURCE POWER:     	High	High
! IFBW:             	50 Hz	50 Hz
! AVG FACTOR:       	  1 	  1 
! REF PLANE 1:      	0 mm	0 mm
! REF PLANE 2:      	0 mm	0 mm
! CAL TYPE:         	Full S22	Full S22
! CAL METHOD:       	SOLT	SOLT
! CAL LINE TYPE:    	Coax	Coax
! DUT PORT 1:       	K-Conn(M)	K-Conn(M)
! DUT PORT 2:       	K-Conn(M)	K-Conn(M)
! CAL STATUS:       	OK: Accuracy High	--
! PROP-V:       	0.700
! CABLE LOSS:       	0.000 dB/m
! REF IMPEDANCE:       	50.0
! Trace Specific Parameters:	TR1	TR2	TR3	TR4
! TRACE.#.Y (GRAPH TYPE)	LOG MAG	PHASE	REAL IMPEDANCE	IMAGINARY IMPEDANCE
! TRACE.#.X 	FREQ.GHZ	FREQ.GHZ	FREQ.GHZ	FREQ.GHZ
! S-PARAMETER	S22	S22	S22	S22
! SMOOTH/APERTURE %	0	0	0	0
! WINDOW	NSL	NSL	NSL	NSL
! GATING	OFF	OFF	OFF	OFF
! FGTD	OFF	OFF	OFF	OFF
Marker Information per Trace:	TR1	TR2	TR3	TR4
!MK1	--	"MK1 TR2:  20.000 MHz,PH:-125.62°"	--	--
!MK2	--	--	"MK2 TR3:  70.100 200 MHz,Z:(17.305 ohm, -1.297 ohm)"	--
!MK3	--	--	--	--
!MK4	--	--	--	--
!MK5	--	--	--	--
!MK6	--	--	--	--
!MK7	--	--	--	--
!MK8	--	--	--	--
PNT	TR1.FREQ.GHZ	TR1.LOG MAG.dB	TR2.FREQ.GHZ	TR2.PHASE.deg	TR3.FREQ.GHZ	TR3.REAL IMPEDANCE.ohm	TR4.FREQ.GHZ	TR4.IMAGINARY IMPEDANCE.ohm
1	  0.020000000	-6.330000E-01	  0.020000000	-1.256210E+02	  0.020000000	2.301000E+00	  0.020000000	-2.564100E+01
2	  0.020200402	-6.360000E-01	  0.020200402	-1.270760E+02	  0.020200402	2.283000E+00	  0.020200402	-2.484500E+01
3	  0.020400802	-6.380000E-01	  0.020400802	-1.285350E+02	  0.020400802	2.264000E+00	  0.020400802	-2.405700E+01
4	  0.020601204	-6.410000E-01	  0.020601204	-1.300080E+02	  0.020601204	2.244000E+00	  0.020601204	-2.327200E+01
5	  0.020801604	-6.440000E-01	  0.020801604	-1.315220E+02	  0.020801604	2.230000E+00	  0.020801604	-2.247400E+01
6	  0.021002004	-6.450000E-01	  0.021002004	-1.330530E+02	  0.021002004	2.207000E+00	  0.021002004	-2.167700E+01
7	  0.021202406	-6.490000E-01	  0.021202406	-1.345720E+02	  0.021202406	2.196000E+00	  0.021202406	-2.089500E+01
8	  0.021402806	-6.510000E-01	  0.021402806	-1.361100E+02	  0.021402806	2.177000E+00	  0.021402806	-2.011200E+01
9	  0.021603208	-6.530000E-01	  0.021603208	-1.376170E+02	  0.021603208	2.162000E+00	  0.021603208	-1.935300E+01
10	  0.021803608	-6.540000E-01	  0.021803608	-1.391480E+02	  0.021803608	2.145000E+00	  0.021803608	-1.859000E+01
11	  0.022004008	-6.600000E-01	  0.022004008	-1.406720E+02	  0.022004008	2.143000E+00	  0.022004008	-1.783700E+01
12	  0.022204408	-6.690000E-01	  0.022204408	-1.422170E+02	  0.022204408	2.149000E+00	  0.022204408	-1.708100E+01
13	  0.022404809	-6.740000E-01	  0.022404809	-1.437970E+02	  0.022404809	2.147000E+00	  0.022404809	-1.631600E+01
14	  0.022605211	-6.740000E-01	  0.022605211	-1.453790E+02	  0.022605211	2.130000E+00	  0.022605211	-1.555700E+01
15	  0.022805611	-6.770000E-01	  0.022805611	-1.469700E+02	  0.022805611	2.120000E+00	  0.022805611	-1.479900E+01
16	  0.023006011	-6.810000E-01	  0.023006011	-1.485530E+02	  0.023006011	2.115000E+00	  0.023006011	-1.405300E+01
17	  0.023206413	-6.860000E-01	  0.023206413	-1.501350E+02	  0.023206413	2.114000E+00	  0.023206413	-1.331100E+01
18	  0.023406813	-6.940000E-01	  0.023406813	-1.516900E+02	  0.023406813	2.123000E+00	  0.023406813	-1.258800E+01
19	  0.023607215	-6.990000E-01	  0.023607215	-1.532950E+02	  0.023607215	2.125000E+00	  0.023607215	-1.184700E+01
20	  0.023807615	-7.060000E-01	  0.023807615	-1.548900E+02	  0.023807615	2.134000E+00	  0.023807615	-1.111500E+01
21	  0.024008015	-7.150000E-01	  0.024008015	-1.565110E+02	  0.024008015	2.147000E+00	  0.024008015	-1.037600E+01
22	  0.024208417	-7.220000E-01	  0.024208417	-1.581560E+02	  0.024208417	2.156000E+00	  0.024208417	-9.630000E+00
23	  0.024408817	-7.270000E-01	  0.024408817	-1.598030E+02	  0.024408817	2.160000E+00	  0.024408817	-8.888000E+00
24	  0.024609219	-7.340000E-01	  0.024609219	-1.614440E+02	  0.024609219	2.169000E+00	  0.024609219	-8.152000E+00
25	  0.024809619	-7.420000E-01	  0.024809619	-1.631060E+02	  0.024809619	2.181000E+00	  0.024809619	-7.411000E+00
26	  0.025010020	-7.510000E-01	  0.025010020	-1.647670E+02	  0.025010020	2.201000E+00	  0.025010020	-6.673000E+00
27	  0.025210422	-7.620000E-01	  0.025210422	-1.664270E+02	  0.025210422	2.223000E+00	  0.025210422	-5.938000E+00
28	  0.025410822	-7.730000E-01	  0.025410822	-1.681130E+02	  0.025410822	2.248000E+00	  0.025410822	-5.194000E+00
29	  0.025611224	-7.820000E-01	  0.025611224	-1.698060E+02	  0.025611224	2.269000E+00	  0.025611224	-4.450000E+00
30	  0.025811624	-7.950000E-01	  0.025811624	-1.715040E+02	  0.025811624	2.301000E+00	  0.025811624	-3.705000E+00
31	  0.026012026	-8.050000E-01	  0.026012026	-1.732310E+02	  0.026012026	2.325000E+00	  0.026012026	-2.950000E+00
32	  0.026212426	-8.160000E-01	  0.026212426	-1.749540E+02	  0.026212426	2.354000E+00	  0.026212426	-2.197000E+00
33	  0.026412826	-8.310000E-01	  0.026412826	-1.766790E+02	  0.026412826	2.392000E+00	  0.026412826	-1.446000E+00
34	  0.026613226	-8.450000E-01	  0.026613226	-1.784340E+02	  0.026613226	2.432000E+00	  0.026613226	-6.810000E-01
35	  0.026813626	-8.600000E-01	  0.026813626	1.798010E+02	  0.026813626	2.474000E+00	  0.026813626	8.600000E-02
36	  0.027014028	-8.770000E-01	  0.027014028	1.780400E+02	  0.027014028	2.524000E+00	  0.027014028	8.520000E-01
37	  0.027214428	-8.920000E-01	  0.027214428	1.762700E+02	  0.027214428	2.569000E+00	  0.027214428	1.623000E+00
38	  0.027414829	-9.110000E-01	  0.027414829	1.744910E+02	  0.027414829	2.625000E+00	  0.027414829	2.398000E+00
39	  0.027615231	-9.280000E-01	  0.027615231	1.726910E+02	  0.027615231	2.681000E+00	  0.027615231	3.183000E+00
40	  0.027815631	-9.480000E-01	  0.027815631	1.708890E+02	  0.027815631	2.744000E+00	  0.027815631	3.971000E+00
41	  0.028016033	-9.660000E-01	  0.028016033	1.690650E+02	  0.028016033	2.804000E+00	  0.028016033	4.770000E+00
42	  0.028216433	-9.870000E-01	  0.028216433	1.672390E+02	  0.028216433	2.875000E+00	  0.028216433	5.572000E+00
43	  0.028416833	-1.009000E+00	  0.028416833	1.654010E+02	  0.028416833	2.950000E+00	  0.028416833	6.382000E+00
44	  0.028617235	-1.029000E+00	  0.028617235	1.635620E+02	  0.028617235	3.022000E+00	  0.028617235	7.196000E+00
45	  0.028817635	-1.052000E+00	  0.028817635	1.617220E+02	  0.028817635	3.102000E+00	  0.028817635	8.013000E+00
46	  0.029018037	-1.076000E+00	  0.029018037	1.598720E+02	  0.029018037	3.192000E+00	  0.029018037	8.838000E+00
47	  0.029218437	-1.102000E+00	  0.029218437	1.580210E+02	  0.029218437	3.288000E+00	  0.029218437	9.668000E+00
48	  0.029418837	-1.129000E+00	  0.029418837	1.561420E+02	  0.029418837	3.391000E+00	  0.029418837	1.051600E+01
49	  0.029619239	-1.155000E+00	  0.029619239	1.542520E+02	  0.029619239	3.494000E+00	  0.029619239	1.137400E+01
50	  0.029819639	-1.183000E+00	  0.029819639	1.523640E+02	  0.029819639	3.606000E+00	  0.029819639	1.223700E+01
51	  0.030020041	-1.213000E+00	  0.030020041	1.504670E+02	  0.030020041	3.726000E+00	  0.030020041	1.311000E+01
52	  0.030220442	-1.241000E+00	  0.030220442	1.485750E+02	  0.030220442	3.848000E+00	  0.030220442	1.398800E+01
53	  0.030420844	-1.270000E+00	  0.030420844	1.466860E+02	  0.030420844	3.975000E+00	  0.030420844	1.487200E+01
54	  0.030621244	-1.301000E+00	  0.030621244	1.447890E+02	  0.030621244	4.113000E+00	  0.030621244	1.576800E+01
55	  0.030821642	-1.335000E+00	  0.030821642	1.428930E+02	  0.030821642	4.266000E+00	  0.030821642	1.667100E+01
56	  0.031022044	-1.366000E+00	  0.031022044	1.409820E+02	  0.031022044	4.415000E+00	  0.031022044	1.759100E+01
57	  0.031222444	-1.394000E+00	  0.031222444	1.390650E+02	  0.031222444	4.557000E+00	  0.031222444	1.852500E+01
58	  0.031422846	-1.427000E+00	  0.031422846	1.371350E+02	  0.031422846	4.725000E+00	  0.031422846	1.947500E+01
59	  0.031623244	-1.463000E+00	  0.031623244	1.351830E+02	  0.031623244	4.911000E+00	  0.031623244	2.044600E+01
60	  0.031823646	-1.499000E+00	  0.031823646	1.332260E+02	  0.031823646	5.103000E+00	  0.031823646	2.143300E+01
61	  0.032024048	-1.535000E+00	  0.032024048	1.312690E+02	  0.032024048	5.303000E+00	  0.032024048	2.243200E+01
62	  0.032224450	-1.573000E+00	  0.032224450	1.293170E+02	  0.032224450	5.518000E+00	  0.032224450	2.344200E+01
63	  0.032424849	-1.611000E+00	  0.032424849	1.273410E+02	  0.032424849	5.745000E+00	  0.032424849	2.448000E+01
64	  0.032625251	-1.648000E+00	  0.032625251	1.253610E+02	  0.032625251	5.980000E+00	  0.032625251	2.553500E+01
65	  0.032825653	-1.687000E+00	  0.032825653	1.233510E+02	  0.032825653	6.230000E+00	  0.032825653	2.662400E+01
66	  0.033026051	-1.725000E+00	  0.033026051	1.213450E+02	  0.033026051	6.492000E+00	  0.033026051	2.772900E+01
67	  0.033226453	-1.764000E+00	  0.033226453	1.193400E+02	  0.033226453	6.771000E+00	  0.033226453	2.885100E+01
68	  0.033426855	-1.801000E+00	  0.033426855	1.173200E+02	  0.033426855	7.056000E+00	  0.033426855	3.000300E+01
69	  0.033627257	-1.842000E+00	  0.033627257	1.153070E+02	  0.033627257	7.369000E+00	  0.033627257	3.117200E+01
70	  0.033827655	-1.885000E+00	  0.033827655	1.132970E+02	  0.033827655	7.706000E+00	  0.033827655	3.235900E+01
71	  0.034028057	-1.924000E+00	  0.034028057	1.112820E+02	  0.034028057	8.049000E+00	  0.034028057	3.357500E+01
72	  0.034228459	-1.968000E+00	  0.034228459	1.092510E+02	  0.034228459	8.430000E+00	  0.034228459	3.482300E+01
73	  0.034428857	-2.014000E+00	  0.034428857	1.071890E+02	  0.034428857	8.845000E+00	  0.034428857	3.611700E+01
74	  0.034629259	-2.057000E+00	  0.034629259	1.051200E+02	  0.034629259	9.274000E+00	  0.034629259	3.744500E+01
75	  0.034829661	-2.106000E+00	  0.034829661	1.030620E+02	  0.034829661	9.750000E+00	  0.034829661	3.879200E+01
76	  0.035030060	-2.155000E+00	  0.035030060	1.010060E+02	  0.035030060	1.025800E+01	  0.035030060	4.016800E+01
77	  0.035230462	-2.203000E+00	  0.035230462	9.894000E+01	  0.035230462	1.079300E+01	  0.035230462	4.158400E+01
78	  0.035430863	-2.252000E+00	  0.035430863	9.688900E+01	  0.035430863	1.136400E+01	  0.035430863	4.302300E+01
79	  0.035631265	-2.303000E+00	  0.035631265	9.480700E+01	  0.035631265	1.198900E+01	  0.035631265	4.451700E+01
80	  0.035831664	-2.354000E+00	  0.035831664	9.273500E+01	  0.035831664	1.265000E+01	  0.035831664	4.604200E+01
81	  0.036032066	-2.407000E+00	  0.036032066	9.065500E+01	  0.036032066	1.336600E+01	  0.036032066	4.761100E+01
82	  0.036232468	-2.460000E+00	  0.036232468	8.858000E+01	  0.036232468	1.413000E+01	  0.036232468	4.921600E+01
83	  0.036432866	-2.513000E+00	  0.036432866	8.649300E+01	  0.036432866	1.495700E+01	  0.036432866	5.087200E+01
84	  0.036633268	-2.565000E+00	  0.036633268	8.441000E+01	  0.036633268	1.583200E+01	  0.036633268	5.257100E+01
85	  0.036833670	-2.622000E+00	  0.036833670	8.233200E+01	  0.036833670	1.679500E+01	  0.036833670	5.430500E+01
86	  0.037034072	-2.678000E+00	  0.037034072	8.024000E+01	  0.037034072	1.782900E+01	  0.037034072	5.609700E+01
87	  0.037234470	-2.735000E+00	  0.037234470	7.815900E+01	  0.037234470	1.894700E+01	  0.037234470	5.792500E+01
88	  0.037434869	-2.791000E+00	  0.037434869	7.608200E+01	  0.037434869	2.014100E+01	  0.037434869	5.980000E+01
89	  0.037635271	-2.850000E+00	  0.037635271	7.400600E+01	  0.037635271	2.145100E+01	  0.037635271	6.171500E+01
90	  0.037835669	-2.907000E+00	  0.037835669	7.192900E+01	  0.037835669	2.284700E+01	  0.037835669	6.368600E+01
91	  0.038036071	-2.967000E+00	  0.038036071	6.982600E+01	  0.038036071	2.439100E+01	  0.038036071	6.572500E+01
92	  0.038236473	-3.026000E+00	  0.038236473	6.773000E+01	  0.038236473	2.605200E+01	  0.038236473	6.780900E+01
93	  0.038436871	-3.086000E+00	  0.038436871	6.561700E+01	  0.038436871	2.787200E+01	  0.038436871	6.995600E+01
94	  0.038637273	-3.145000E+00	  0.038637273	6.352800E+01	  0.038637273	2.981900E+01	  0.038637273	7.212800E+01
95	  0.038837675	-3.205000E+00	  0.038837675	6.144600E+01	  0.038837675	3.194400E+01	  0.038837675	7.432200E+01
96	  0.039038073	-3.261000E+00	  0.039038073	5.936400E+01	  0.039038073	3.420800E+01	  0.039038073	7.658600E+01
97	  0.039238475	-3.317000E+00	  0.039238475	5.729900E+01	  0.039238475	3.666400E+01	  0.039238475	7.885600E+01
98	  0.039438877	-3.374000E+00	  0.039438877	5.521600E+01	  0.039438877	3.936900E+01	  0.039438877	8.116400E+01
99	  0.039639279	-3.429000E+00	  0.039639279	5.314900E+01	  0.039639279	4.227500E+01	  0.039639279	8.348500E+01
100	  0.039839678	-3.488000E+00	  0.039839678	5.106300E+01	  0.039839678	4.550100E+01	  0.039839678	8.580100E+01
101	  0.040040080	-3.543000E+00	  0.040040080	4.899900E+01	  0.040040080	4.895700E+01	  0.040040080	8.810000E+01
102	  0.040240481	-3.597000E+00	  0.040240481	4.691500E+01	  0.040240481	5.274500E+01	  0.040240481	9.040800E+01
103	  0.040440880	-3.652000E+00	  0.040440880	4.484900E+01	  0.040440880	5.686000E+01	  0.040440880	9.261100E+01
104	  0.040641282	-3.705000E+00	  0.040641282	4.280500E+01	  0.040641282	6.128100E+01	  0.040641282	9.471400E+01
105	  0.040841684	-3.760000E+00	  0.040841684	4.077300E+01	  0.040841684	6.608200E+01	  0.040841684	9.664400E+01
106	  0.041042086	-3.816000E+00	  0.041042086	3.874300E+01	  0.041042086	7.130200E+01	  0.041042086	9.835100E+01
107	  0.041242484	-3.873000E+00	  0.041242484	3.670200E+01	  0.041242484	7.697900E+01	  0.041242484	9.982800E+01
108	  0.041442886	-3.927000E+00	  0.041442886	3.465900E+01	  0.041442886	8.309800E+01	  0.041442886	1.010370E+02
109	  0.041643288	-3.981000E+00	  0.041643288	3.260400E+01	  0.041643288	8.971700E+01	  0.041643288	1.018620E+02
110	  0.041843686	-4.034000E+00	  0.041843686	3.056400E+01	  0.041843686	9.674800E+01	  0.041843686	1.022040E+02
111	  0.042044088	-4.084000E+00	  0.042044088	2.853900E+01	  0.042044088	1.041650E+02	  0.042044088	1.020170E+02
112	  0.042244490	-4.138000E+00	  0.042244490	2.651400E+01	  0.042244490	1.119970E+02	  0.042244490	1.010620E+02
113	  0.042444889	-4.188000E+00	  0.042444889	2.450900E+01	  0.042444889	1.200870E+02	  0.042444889	9.940000E+01
114	  0.042645290	-4.243000E+00	  0.042645290	2.251000E+01	  0.042645290	1.283840E+02	  0.042645290	9.670400E+01
115	  0.042845692	-4.296000E+00	  0.042845692	2.051600E+01	  0.042845692	1.367830E+02	  0.042845692	9.307300E+01
116	  0.043046094	-4.347000E+00	  0.043046094	1.849900E+01	  0.043046094	1.452580E+02	  0.043046094	8.835400E+01
117	  0.043246493	-4.399000E+00	  0.043246493	1.649800E+01	  0.043246493	1.534190E+02	  0.043246493	8.244000E+01
118	  0.043446895	-4.446000E+00	  0.043446895	1.450500E+01	  0.043446895	1.612100E+02	  0.043446895	7.552900E+01
119	  0.043647297	-4.494000E+00	  0.043647297	1.251700E+01	  0.043647297	1.683270E+02	  0.043647297	6.745500E+01
120	  0.043847695	-4.542000E+00	  0.043847695	1.053800E+01	  0.043847695	1.745010E+02	  0.043847695	5.832900E+01
121	  0.044048097	-4.591000E+00	  0.044048097	8.567000E+00	  0.044048097	1.795480E+02	  0.044048097	4.831800E+01
122	  0.044248499	-4.638000E+00	  0.044248499	6.596000E+00	  0.044248499	1.833570E+02	  0.044248499	3.762600E+01
123	  0.044448901	-4.683000E+00	  0.044448901	4.647000E+00	  0.044448901	1.858100E+02	  0.044448901	2.661000E+01
124	  0.044649299	-4.728000E+00	  0.044649299	2.705000E+00	  0.044649299	1.868410E+02	  0.044649299	1.542600E+01
125	  0.044849701	-4.774000E+00	  0.044849701	7.820000E-01	  0.044849701	1.863640E+02	  0.044849701	4.403000E+00
126	  0.045050103	-4.817000E+00	  0.045050103	-1.176000E+00	  0.045050103	1.846560E+02	  0.045050103	-6.500000E+00
127	  0.045250501	-4.858000E+00	  0.045250501	-3.103000E+00	  0.045250501	1.817570E+02	  0.045250501	-1.670800E+01
128	  0.045450903	-4.899000E+00	  0.045450903	-5.023000E+00	  0.045450903	1.777840E+02	  0.045450903	-2.618700E+01
129	  0.045651305	-4.941000E+00	  0.045651305	-6.941000E+00	  0.045651305	1.728530E+02	  0.045651305	-3.480700E+01
130	  0.045851704	-4.982000E+00	  0.045851704	-8.848000E+00	  0.045851704	1.673110E+02	  0.045851704	-4.249800E+01
131	  0.046052102	-5.018000E+00	  0.046052102	-1.073100E+01	  0.046052102	1.614130E+02	  0.046052102	-4.923300E+01
132	  0.046252504	-5.057000E+00	  0.046252504	-1.259700E+01	  0.046252504	1.551510E+02	  0.046252504	-5.496000E+01
133	  0.046452906	-5.093000E+00	  0.046452906	-1.446600E+01	  0.046452906	1.487350E+02	  0.046452906	-5.987300E+01
134	  0.046653304	-5.130000E+00	  0.046653304	-1.632200E+01	  0.046653304	1.422640E+02	  0.046653304	-6.390800E+01
135	  0.046853706	-5.166000E+00	  0.046853706	-1.819900E+01	  0.046853706	1.357640E+02	  0.046853706	-6.724500E+01
136	  0.047054108	-5.198000E+00	  0.047054108	-2.005600E+01	  0.047054108	1.294850E+02	  0.047054108	-6.995000E+01
137	  0.047254506	-5.232000E+00	  0.047254506	-2.191700E+01	  0.047254506	1.233190E+02	  0.047254506	-7.197400E+01
138	  0.047454908	-5.263000E+00	  0.047454908	-2.372300E+01	  0.047454908	1.175610E+02	  0.047454908	-7.347700E+01
139	  0.047655310	-5.298000E+00	  0.047655310	-2.556400E+01	  0.047655310	1.119010E+02	  0.047655310	-7.446100E+01
140	  0.047855709	-5.327000E+00	  0.047855709	-2.736300E+01	  0.047855709	1.066360E+02	  0.047855709	-7.511300E+01
141	  0.048056111	-5.361000E+00	  0.048056111	-2.916000E+01	  0.048056111	1.016180E+02	  0.048056111	-7.534600E+01
142	  0.048256513	-5.391000E+00	  0.048256513	-3.095000E+01	  0.048256513	9.688700E+01	  0.048256513	-7.534300E+01
143	  0.048456915	-5.421000E+00	  0.048456915	-3.273900E+01	  0.048456915	9.241200E+01	  0.048456915	-7.509800E+01
144	  0.048657313	-5.451000E+00	  0.048657313	-3.452300E+01	  0.048657313	8.820100E+01	  0.048657313	-7.465300E+01
145	  0.048857715	-5.477000E+00	  0.048857715	-3.630300E+01	  0.048857715	8.423400E+01	  0.048857715	-7.408000E+01
146	  0.049058117	-5.505000E+00	  0.049058117	-3.808300E+01	  0.049058117	8.050000E+01	  0.049058117	-7.333300E+01
147	  0.049258515	-5.524000E+00	  0.049258515	-3.983300E+01	  0.049258515	7.702600E+01	  0.049258515	-7.257900E+01
148	  0.049458917	-5.551000E+00	  0.049458917	-4.156600E+01	  0.049458917	7.379800E+01	  0.049458917	-7.163300E+01
149	  0.049659319	-5.577000E+00	  0.049659319	-4.329300E+01	  0.049659319	7.077100E+01	  0.049659319	-7.061800E+01
150	  0.049859721	-5.603000E+00	  0.049859721	-4.502700E+01	  0.049859721	6.790600E+01	  0.049859721	-6.954500E+01
151	  0.050060119	-5.628000E+00	  0.050060119	-4.671800E+01	  0.050060119	6.527800E+01	  0.050060119	-6.844000E+01
152	  0.050260521	-5.649000E+00	  0.050260521	-4.844900E+01	  0.050260521	6.272500E+01	  0.050260521	-6.732100E+01
153	  0.050460923	-5.667000E+00	  0.050460923	-5.013800E+01	  0.050460923	6.036900E+01	  0.050460923	-6.621300E+01
154	  0.050661322	-5.687000E+00	  0.050661322	-5.185200E+01	  0.050661322	5.811800E+01	  0.050661322	-6.505000E+01
155	  0.050861724	-5.705000E+00	  0.050861724	-5.351800E+01	  0.050861724	5.604800E+01	  0.050861724	-6.390800E+01
156	  0.051062126	-5.724000E+00	  0.051062126	-5.518000E+01	  0.051062126	5.410200E+01	  0.051062126	-6.274400E+01
157	  0.051262524	-5.745000E+00	  0.051262524	-5.683900E+01	  0.051262524	5.227200E+01	  0.051262524	-6.156300E+01
158	  0.051462926	-5.765000E+00	  0.051462926	-5.848700E+01	  0.051462926	5.055300E+01	  0.051462926	-6.038800E+01
159	  0.051663328	-5.779000E+00	  0.051663328	-6.010300E+01	  0.051663328	4.893000E+01	  0.051663328	-5.927800E+01
160	  0.051863730	-5.797000E+00	  0.051863730	-6.173800E+01	  0.051863730	4.739300E+01	  0.051863730	-5.812400E+01
161	  0.052064128	-5.811000E+00	  0.052064128	-6.335600E+01	  0.052064128	4.593400E+01	  0.052064128	-5.701100E+01
162	  0.052264530	-5.824000E+00	  0.052264530	-6.494900E+01	  0.052264530	4.456500E+01	  0.052264530	-5.592600E+01
163	  0.052464932	-5.837000E+00	  0.052464932	-6.655900E+01	  0.052464932	4.325700E+01	  0.052464932	-5.482600E+01
164	  0.052665330	-5.850000E+00	  0.052665330	-6.814300E+01	  0.052665330	4.203000E+01	  0.052665330	-5.375500E+01
165	  0.052865732	-5.867000E+00	  0.052865732	-6.969600E+01	  0.052865732	4.090300E+01	  0.052865732	-5.269100E+01
166	  0.053066134	-5.882000E+00	  0.053066134	-7.125300E+01	  0.053066134	3.982100E+01	  0.053066134	-5.164200E+01
167	  0.053266536	-5.892000E+00	  0.053266536	-7.279700E+01	  0.053266536	3.878000E+01	  0.053266536	-5.063200E+01
168	  0.053466935	-5.908000E+00	  0.053466935	-7.433500E+01	  0.053466935	3.781400E+01	  0.053466935	-4.961200E+01
169	  0.053667337	-5.924000E+00	  0.053667337	-7.588900E+01	  0.053667337	3.688400E+01	  0.053667337	-4.859000E+01
170	  0.053867739	-5.935000E+00	  0.053867739	-7.740600E+01	  0.053867739	3.600100E+01	  0.053867739	-4.762000E+01
171	  0.054068137	-5.944000E+00	  0.054068137	-7.891900E+01	  0.054068137	3.514900E+01	  0.054068137	-4.667500E+01
172	  0.054268539	-5.956000E+00	  0.054268539	-8.043100E+01	  0.054268539	3.435100E+01	  0.054268539	-4.572400E+01
173	  0.054468941	-5.970000E+00	  0.054468941	-8.192800E+01	  0.054468941	3.360300E+01	  0.054468941	-4.478800E+01
174	  0.054669335	-5.981000E+00	  0.054669335	-8.340700E+01	  0.054669335	3.288400E+01	  0.054669335	-4.388300E+01
175	  0.054869737	-5.995000E+00	  0.054869737	-8.491200E+01	  0.054869737	3.219300E+01	  0.054869737	-4.296500E+01
176	  0.055070139	-6.007000E+00	  0.055070139	-8.635300E+01	  0.055070139	3.156000E+01	  0.055070139	-4.209700E+01
177	  0.055270538	-6.016000E+00	  0.055270538	-8.783800E+01	  0.055270538	3.092000E+01	  0.055270538	-4.122500E+01
178	  0.055470940	-6.026000E+00	  0.055470940	-8.928300E+01	  0.055470940	3.032500E+01	  0.055470940	-4.038400E+01
179	  0.055671342	-6.034000E+00	  0.055671342	-9.075300E+01	  0.055671342	2.973900E+01	  0.055671342	-3.954100E+01
180	  0.055871744	-6.042000E+00	  0.055871744	-9.219400E+01	  0.055871744	2.918800E+01	  0.055871744	-3.872500E+01
181	  0.056072142	-6.051000E+00	  0.056072142	-9.362600E+01	  0.056072142	2.866600E+01	  0.056072142	-3.791900E+01
182	  0.056272544	-6.058000E+00	  0.056272544	-9.507200E+01	  0.056272544	2.815100E+01	  0.056272544	-3.712100E+01
183	  0.056472946	-6.065000E+00	  0.056472946	-9.648500E+01	  0.056472946	2.767200E+01	  0.056472946	-3.634600E+01
184	  0.056673344	-6.072000E+00	  0.056673344	-9.786900E+01	  0.056673344	2.722100E+01	  0.056673344	-3.559500E+01
185	  0.056873746	-6.080000E+00	  0.056873746	-9.926400E+01	  0.056873746	2.678500E+01	  0.056873746	-3.484400E+01
186	  0.057074148	-6.086000E+00	  0.057074148	-1.006620E+02	  0.057074148	2.635600E+01	  0.057074148	-3.410500E+01
187	  0.057274550	-6.089000E+00	  0.057274550	-1.020430E+02	  0.057274550	2.594100E+01	  0.057274550	-3.338700E+01
188	  0.057474948	-6.093000E+00	  0.057474948	-1.034120E+02	  0.057474948	2.555100E+01	  0.057474948	-3.267800E+01
189	  0.057675350	-6.095000E+00	  0.057675350	-1.047720E+02	  0.057675350	2.516700E+01	  0.057675350	-3.198600E+01
190	  0.057875752	-6.100000E+00	  0.057875752	-1.061320E+02	  0.057875752	2.480700E+01	  0.057875752	-3.129500E+01
191	  0.058076151	-6.107000E+00	  0.058076151	-1.074980E+02	  0.058076151	2.446600E+01	  0.058076151	-3.060300E+01
192	  0.058276553	-6.109000E+00	  0.058276553	-1.088240E+02	  0.058276553	2.413400E+01	  0.058276553	-2.994400E+01
193	  0.058476955	-6.113000E+00	  0.058476955	-1.101350E+02	  0.058476955	2.382300E+01	  0.058476955	-2.929600E+01
194	  0.058677353	-6.116000E+00	  0.058677353	-1.114800E+02	  0.058677353	2.350800E+01	  0.058677353	-2.864000E+01
195	  0.058877755	-6.118000E+00	  0.058877755	-1.127950E+02	  0.058877755	2.321200E+01	  0.058877755	-2.800400E+01
196	  0.059078157	-6.119000E+00	  0.059078157	-1.140820E+02	  0.059078157	2.292700E+01	  0.059078157	-2.738800E+01
197	  0.059278559	-6.121000E+00	  0.059278559	-1.154060E+02	  0.059278559	2.264900E+01	  0.059278559	-2.675800E+01
198	  0.059478957	-6.121000E+00	  0.059478957	-1.166890E+02	  0.059478957	2.238300E+01	  0.059478957	-2.615500E+01
199	  0.059679359	-6.122000E+00	  0.059679359	-1.179830E+02	  0.059679359	2.212600E+01	  0.059679359	-2.555000E+01
200	  0.059879761	-6.126000E+00	  0.059879761	-1.192560E+02	  0.059879761	2.189000E+01	  0.059879761	-2.495600E+01
201	  0.060080159	-6.128000E+00	  0.060080159	-1.205050E+02	  0.060080159	2.166200E+01	  0.060080159	-2.437900E+01
202	  0.060280561	-6.130000E+00	  0.060280561	-1.217740E+02	  0.060280561	2.144000E+01	  0.060280561	-2.379700E+01
203	  0.060480963	-6.134000E+00	  0.060480963	-1.230140E+02	  0.060480963	2.123200E+01	  0.060480963	-2.323100E+01
204	  0.060681365	-6.137000E+00	  0.060681365	-1.242700E+02	  0.060681365	2.103100E+01	  0.060681365	-2.266100E+01
205	  0.060881764	-6.138000E+00	  0.060881764	-1.254970E+02	  0.060881764	2.083300E+01	  0.060881764	-2.211100E+01
206	  0.061082166	-6.139000E+00	  0.061082166	-1.267360E+02	  0.061082166	2.064000E+01	  0.061082166	-2.155900E+01
207	  0.061282568	-6.142000E+00	  0.061282568	-1.279760E+02	  0.061282568	2.045800E+01	  0.061282568	-2.100900E+01
208	  0.061482966	-6.143000E+00	  0.061482966	-1.292090E+02	  0.061482966	2.027900E+01	  0.061482966	-2.046700E+01
209	  0.061683368	-6.148000E+00	  0.061683368	-1.304180E+02	  0.061683368	2.012300E+01	  0.061683368	-1.993400E+01
210	  0.061883770	-6.151000E+00	  0.061883770	-1.316320E+02	  0.061883770	1.996300E+01	  0.061883770	-1.940500E+01
211	  0.062084168	-6.156000E+00	  0.062084168	-1.328430E+02	  0.062084168	1.981700E+01	  0.062084168	-1.887800E+01
212	  0.062284570	-6.156000E+00	  0.062284570	-1.340410E+02	  0.062284570	1.966300E+01	  0.062284570	-1.836500E+01
213	  0.062484972	-6.154000E+00	  0.062484972	-1.351950E+02	  0.062484972	1.951500E+01	  0.062484972	-1.787400E+01
214	  0.062685370	-6.150000E+00	  0.062685370	-1.363840E+02	  0.062685370	1.936000E+01	  0.062685370	-1.737200E+01
215	  0.062885776	-6.153000E+00	  0.062885776	-1.375980E+02	  0.062885776	1.923000E+01	  0.062885776	-1.685700E+01
216	  0.063086174	-6.158000E+00	  0.063086174	-1.387710E+02	  0.063086174	1.911300E+01	  0.063086174	-1.636000E+01
217	  0.063286573	-6.159000E+00	  0.063286573	-1.399750E+02	  0.063286573	1.898600E+01	  0.063286573	-1.585600E+01
218	  0.063486971	-6.158000E+00	  0.063486971	-1.410970E+02	  0.063486971	1.886800E+01	  0.063486971	-1.538900E+01
219	  0.063687377	-6.155000E+00	  0.063687377	-1.422510E+02	  0.063687377	1.874500E+01	  0.063687377	-1.491300E+01
220	  0.063887775	-6.158000E+00	  0.063887775	-1.434170E+02	  0.063887775	1.864100E+01	  0.063887775	-1.443000E+01
221	  0.064088173	-6.160000E+00	  0.064088173	-1.445650E+02	  0.064088173	1.854200E+01	  0.064088173	-1.395600E+01
222	  0.064288579	-6.161000E+00	  0.064288579	-1.457220E+02	  0.064288579	1.844200E+01	  0.064288579	-1.348200E+01
223	  0.064488977	-6.163000E+00	  0.064488977	-1.468750E+02	  0.064488977	1.834900E+01	  0.064488977	-1.301000E+01
224	  0.064689375	-6.168000E+00	  0.064689375	-1.480080E+02	  0.064689375	1.827000E+01	  0.064689375	-1.254800E+01
225	  0.064889781	-6.170000E+00	  0.064889781	-1.491370E+02	  0.064889781	1.818600E+01	  0.064889781	-1.209000E+01
226	  0.065090179	-6.169000E+00	  0.065090179	-1.502450E+02	  0.065090179	1.810200E+01	  0.065090179	-1.164300E+01
227	  0.065290578	-6.172000E+00	  0.065290578	-1.513710E+02	  0.065290578	1.802800E+01	  0.065290578	-1.118800E+01
228	  0.065490983	-6.177000E+00	  0.065490983	-1.524570E+02	  0.065490983	1.796600E+01	  0.065490983	-1.075100E+01
229	  0.065691382	-6.177000E+00	  0.065691382	-1.535700E+02	  0.065691382	1.789200E+01	  0.065691382	-1.030600E+01
230	  0.065891780	-6.183000E+00	  0.065891780	-1.546830E+02	  0.065891780	1.783900E+01	  0.065891780	-9.860000E+00
231	  0.066092186	-6.181000E+00	  0.066092186	-1.557740E+02	  0.066092186	1.776800E+01	  0.066092186	-9.428000E+00
232	  0.066292584	-6.186000E+00	  0.066292584	-1.568150E+02	  0.066292584	1.772200E+01	  0.066292584	-9.013000E+00
233	  0.066492982	-6.186000E+00	  0.066492982	-1.579560E+02	  0.066492982	1.766000E+01	  0.066492982	-8.562000E+00
234	  0.066693388	-6.195000E+00	  0.066693388	-1.589780E+02	  0.066693388	1.763000E+01	  0.066693388	-8.156000E+00
235	  0.066893786	-6.200000E+00	  0.066893786	-1.600550E+02	  0.066893786	1.759100E+01	  0.066893786	-7.732000E+00
236	  0.067094192	-6.202000E+00	  0.067094192	-1.611160E+02	  0.067094192	1.754700E+01	  0.067094192	-7.315000E+00
237	  0.067294590	-6.205000E+00	  0.067294590	-1.621780E+02	  0.067294590	1.750800E+01	  0.067294590	-6.898000E+00
238	  0.067494988	-6.210000E+00	  0.067494988	-1.632300E+02	  0.067494988	1.747900E+01	  0.067494988	-6.485000E+00
239	  0.067695394	-6.213000E+00	  0.067695394	-1.642850E+02	  0.067695394	1.744500E+01	  0.067695394	-6.073000E+00
240	  0.067895792	-6.223000E+00	  0.067895792	-1.653410E+02	  0.067895792	1.743400E+01	  0.067895792	-5.660000E+00
241	  0.068096191	-6.225000E+00	  0.068096191	-1.663850E+02	  0.068096191	1.740300E+01	  0.068096191	-5.254000E+00
242	  0.068296596	-6.229000E+00	  0.068296596	-1.674530E+02	  0.068296596	1.738100E+01	  0.068296596	-4.839000E+00
243	  0.068496995	-6.235000E+00	  0.068496995	-1.684690E+02	  0.068496995	1.736900E+01	  0.068496995	-4.444000E+00
244	  0.068697393	-6.241000E+00	  0.068697393	-1.694790E+02	  0.068697393	1.735900E+01	  0.068697393	-4.052000E+00
245	  0.068897791	-6.243000E+00	  0.068897791	-1.705180E+02	  0.068897791	1.733800E+01	  0.068897791	-3.650000E+00
246	  0.069098189	-6.245000E+00	  0.069098189	-1.715230E+02	  0.069098189	1.732300E+01	  0.069098189	-3.262000E+00
247	  0.069298595	-6.252000E+00	  0.069298595	-1.725610E+02	  0.069298595	1.732200E+01	  0.069298595	-2.861000E+00
248	  0.069498993	-6.251000E+00	  0.069498993	-1.735800E+02	  0.069498993	1.730200E+01	  0.069498993	-2.468000E+00
249	  0.069699399	-6.260000E+00	  0.069699399	-1.745890E+02	  0.069699399	1.731200E+01	  0.069699399	-2.079000E+00
250	  0.069899797	-6.266000E+00	  0.069899797	-1.756060E+02	  0.069899797	1.731600E+01	  0.069899797	-1.688000E+00
251	  0.070100196	-6.266000E+00	  0.070100196	-1.766240E+02	  0.070100196	1.730500E+01	  0.070100196	-1.297000E+00
252	  0.070300601	-6.272000E+00	  0.070300601	-1.775920E+02	  0.070300601	1.731400E+01	  0.070300601	-9.240000E-01
253	  0.070501000	-6.273000E+00	  0.070501000	-1.785920E+02	  0.070501000	1.731300E+01	  0.070501000	-5.400000E-01
254	  0.070701398	-6.273000E+00	  0.070701398	-1.795680E+02	  0.070701398	1.731000E+01	  0.070701398	-1.650000E-01
255	  0.070901804	-6.280000E+00	  0.070901804	1.794740E+02	  0.070901804	1.732900E+01	  0.070901804	2.010000E-01
256	  0.071102202	-6.284000E+00	  0.071102202	1.784780E+02	  0.071102202	1.734000E+01	  0.071102202	5.840000E-01
257	  0.071302600	-6.286000E+00	  0.071302600	1.774840E+02	  0.071302600	1.735000E+01	  0.071302600	9.650000E-01
258	  0.071503006	-6.291000E+00	  0.071503006	1.765290E+02	  0.071503006	1.737000E+01	  0.071503006	1.332000E+00
259	  0.071703404	-6.296000E+00	  0.071703404	1.755500E+02	  0.071703404	1.739100E+01	  0.071703404	1.707000E+00
260	  0.071903802	-6.302000E+00	  0.071903802	1.746170E+02	  0.071903802	1.741700E+01	  0.071903802	2.065000E+00
261	  0.072104208	-6.307000E+00	  0.072104208	1.736570E+02	  0.072104208	1.744200E+01	  0.072104208	2.434000E+00
262	  0.072304606	-6.310000E+00	  0.072304606	1.727150E+02	  0.072304606	1.746700E+01	  0.072304606	2.795000E+00
263	  0.072505005	-6.313000E+00	  0.072505005	1.717580E+02	  0.072505005	1.749000E+01	  0.072505005	3.163000E+00
264	  0.072705410	-6.320000E+00	  0.072705410	1.708340E+02	  0.072705410	1.752700E+01	  0.072705410	3.517000E+00
265	  0.072905809	-6.325000E+00	  0.072905809	1.698790E+02	  0.072905809	1.756300E+01	  0.072905809	3.884000E+00
266	  0.073106214	-6.333000E+00	  0.073106214	1.689390E+02	  0.073106214	1.760600E+01	  0.073106214	4.245000E+00
267	  0.073306613	-6.340000E+00	  0.073306613	1.679980E+02	  0.073306613	1.764900E+01	  0.073306613	4.607000E+00
268	  0.073507011	-6.349000E+00	  0.073507011	1.670470E+02	  0.073507011	1.770000E+01	  0.073507011	4.972000E+00
269	  0.073707417	-6.355000E+00	  0.073707417	1.661260E+02	  0.073707417	1.774500E+01	  0.073707417	5.326000E+00
270	  0.073907815	-6.364000E+00	  0.073907815	1.651970E+02	  0.073907815	1.780000E+01	  0.073907815	5.683000E+00
271	  0.074108213	-6.371000E+00	  0.074108213	1.642840E+02	  0.074108213	1.784900E+01	  0.074108213	6.035000E+00
272	  0.074308619	-6.379000E+00	  0.074308619	1.633760E+02	  0.074308619	1.790600E+01	  0.074308619	6.385000E+00
273	  0.074509017	-6.385000E+00	  0.074509017	1.624280E+02	  0.074509017	1.796100E+01	  0.074509017	6.750000E+00
274	  0.074709415	-6.395000E+00	  0.074709415	1.615110E+02	  0.074709415	1.802600E+01	  0.074709415	7.104000E+00
275	  0.074909821	-6.408000E+00	  0.074909821	1.605840E+02	  0.074909821	1.810100E+01	  0.074909821	7.460000E+00
276	  0.075110219	-6.416000E+00	  0.075110219	1.596520E+02	  0.075110219	1.816700E+01	  0.075110219	7.820000E+00
277	  0.075310618	-6.426000E+00	  0.075310618	1.587600E+02	  0.075310618	1.823800E+01	  0.075310618	8.164000E+00
278	  0.075511023	-6.432000E+00	  0.075511023	1.578540E+02	  0.075511023	1.830200E+01	  0.075511023	8.516000E+00
279	  0.075711422	-6.440000E+00	  0.075711422	1.569880E+02	  0.075711422	1.837000E+01	  0.075711422	8.851000E+00
280	  0.075911827	-6.450000E+00	  0.075911827	1.560660E+02	  0.075911827	1.845000E+01	  0.075911827	9.208000E+00
281	  0.076112226	-6.460000E+00	  0.076112226	1.551780E+02	  0.076112226	1.853100E+01	  0.076112226	9.552000E+00
282	  0.076312624	-6.462000E+00	  0.076312624	1.542730E+02	  0.076312624	1.859300E+01	  0.076312624	9.907000E+00
283	  0.076513030	-6.479000E+00	  0.076513030	1.533560E+02	  0.076513030	1.869600E+01	  0.076513030	1.026000E+01
284	  0.076713428	-6.491000E+00	  0.076713428	1.524810E+02	  0.076713428	1.878800E+01	  0.076713428	1.059900E+01
285	  0.076913826	-6.501000E+00	  0.076913826	1.516050E+02	  0.076913826	1.887500E+01	  0.076913826	1.094100E+01
286	  0.077114232	-6.509000E+00	  0.077114232	1.507260E+02	  0.077114232	1.896100E+01	  0.077114232	1.128400E+01
287	  0.077314630	-6.520000E+00	  0.077314630	1.498530E+02	  0.077314630	1.905500E+01	  0.077314630	1.162500E+01
288	  0.077515028	-6.531000E+00	  0.077515028	1.489840E+02	  0.077515028	1.915400E+01	  0.077515028	1.196400E+01
289	  0.077715434	-6.540000E+00	  0.077715434	1.481290E+02	  0.077715434	1.924500E+01	  0.077715434	1.229900E+01
290	  0.077915832	-6.553000E+00	  0.077915832	1.472580E+02	  0.077915832	1.935400E+01	  0.077915832	1.263900E+01
291	  0.078116231	-6.560000E+00	  0.078116231	1.463930E+02	  0.078116231	1.944800E+01	  0.078116231	1.298000E+01
292	  0.078316636	-6.577000E+00	  0.078316636	1.455600E+02	  0.078316636	1.956600E+01	  0.078316636	1.330400E+01
293	  0.078517035	-6.588000E+00	  0.078517035	1.446780E+02	  0.078517035	1.967700E+01	  0.078517035	1.365000E+01
294	  0.078717433	-6.599000E+00	  0.078717433	1.438430E+02	  0.078717433	1.978400E+01	  0.078717433	1.397900E+01
295	  0.078917839	-6.614000E+00	  0.078917839	1.429940E+02	  0.078917839	1.990800E+01	  0.078917839	1.431100E+01
296	  0.079118237	-6.628000E+00	  0.079118237	1.421760E+02	  0.079118237	2.002800E+01	  0.079118237	1.463100E+01
297	  0.079318643	-6.645000E+00	  0.079318643	1.413320E+02	  0.079318643	2.016000E+01	  0.079318643	1.496100E+01
298	  0.079519041	-6.658000E+00	  0.079519041	1.405070E+02	  0.079519041	2.028400E+01	  0.079519041	1.528600E+01
299	  0.079719439	-6.677000E+00	  0.079719439	1.396740E+02	  0.079719439	2.042500E+01	  0.079719439	1.561000E+01
300	  0.079919845	-6.688000E+00	  0.079919845	1.388240E+02	  0.079919845	2.055000E+01	  0.079919845	1.594800E+01
301	  0.080120243	-6.704000E+00	  0.080120243	1.380120E+02	  0.080120243	2.068900E+01	  0.080120243	1.626600E+01
302	  0.080320641	-6.721000E+00	  0.080320641	1.371850E+02	  0.080320641	2.083200E+01	  0.080320641	1.659100E+01
303	  0.080521047	-6.733000E+00	  0.080521047	1.363690E+02	  0.080521047	2.096400E+01	  0.080521047	1.691400E+01
304	  0.080721445	-6.752000E+00	  0.080721445	1.355710E+02	  0.080721445	2.111600E+01	  0.080721445	1.722600E+01
305	  0.080921844	-6.773000E+00	  0.080921844	1.347260E+02	  0.080921844	2.128200E+01	  0.080921844	1.755500E+01
306	  0.081122249	-6.783000E+00	  0.081122249	1.339290E+02	  0.081122249	2.141500E+01	  0.081122249	1.787400E+01
307	  0.081322648	-6.802000E+00	  0.081322648	1.331330E+02	  0.081322648	2.157200E+01	  0.081322648	1.818600E+01
308	  0.081523046	-6.818000E+00	  0.081523046	1.323110E+02	  0.081523046	2.173100E+01	  0.081523046	1.851100E+01
309	  0.081723452	-6.835000E+00	  0.081723452	1.315100E+02	  0.081723452	2.189100E+01	  0.081723452	1.882700E+01
310	  0.081923850	-6.851000E+00	  0.081923850	1.306940E+02	  0.081923850	2.205400E+01	  0.081923850	1.915000E+01
311	  0.082124248	-6.864000E+00	  0.082124248	1.299060E+02	  0.082124248	2.220800E+01	  0.082124248	1.946400E+01
312	  0.082324654	-6.880000E+00	  0.082324654	1.291050E+02	  0.082324654	2.237400E+01	  0.082324654	1.978200E+01
313	  0.082525052	-6.898000E+00	  0.082525052	1.283620E+02	  0.082525052	2.253900E+01	  0.082525052	2.007400E+01
314	  0.082725458	-6.919000E+00	  0.082725458	1.276060E+02	  0.082725458	2.271800E+01	  0.082725458	2.036900E+01
315	  0.082925856	-6.931000E+00	  0.082925856	1.268130E+02	  0.082925856	2.288100E+01	  0.082925856	2.068800E+01
316	  0.083126254	-6.952000E+00	  0.083126254	1.260550E+02	  0.083126254	2.306500E+01	  0.083126254	2.098300E+01
317	  0.083326660	-6.970000E+00	  0.083326660	1.253040E+02	  0.083326660	2.324300E+01	  0.083326660	2.127900E+01
318	  0.083527058	-6.985000E+00	  0.083527058	1.245320E+02	  0.083527058	2.342000E+01	  0.083527058	2.158700E+01
319	  0.083727457	-7.003000E+00	  0.083727457	1.237880E+02	  0.083727457	2.360400E+01	  0.083727457	2.187900E+01
320	  0.083927862	-7.021000E+00	  0.083927862	1.230540E+02	  0.083927862	2.378700E+01	  0.083927862	2.216900E+01
321	  0.084128261	-7.042000E+00	  0.084128261	1.223080E+02	  0.084128261	2.398300E+01	  0.084128261	2.245900E+01
322	  0.084328659	-7.063000E+00	  0.084328659	1.216230E+02	  0.084328659	2.417200E+01	  0.084328659	2.272400E+01
323	  0.084529065	-7.085000E+00	  0.084529065	1.208970E+02	  0.084529065	2.437700E+01	  0.084529065	2.300300E+01
324	  0.084729463	-7.102000E+00	  0.084729463	1.201600E+02	  0.084729463	2.456900E+01	  0.084729463	2.329500E+01
325	  0.084929854	-7.120000E+00	  0.084929854	1.194090E+02	  0.084929854	2.477100E+01	  0.084929854	2.359100E+01
326	  0.085130259	-7.142000E+00	  0.085130259	1.186960E+02	  0.085130259	2.498100E+01	  0.085130259	2.386400E+01
327	  0.085330658	-7.165000E+00	  0.085330658	1.179770E+02	  0.085330658	2.519600E+01	  0.085330658	2.414000E+01
328	  0.085531056	-7.186000E+00	  0.085531056	1.172750E+02	  0.085531056	2.540500E+01	  0.085531056	2.441100E+01
329	  0.085731462	-7.214000E+00	  0.085731462	1.165710E+02	  0.085731462	2.563800E+01	  0.085731462	2.467200E+01
330	  0.085931860	-7.236000E+00	  0.085931860	1.158610E+02	  0.085931860	2.585800E+01	  0.085931860	2.494300E+01
331	  0.086132258	-7.260000E+00	  0.086132258	1.151930E+02	  0.086132258	2.607900E+01	  0.086132258	2.519300E+01
332	  0.086332664	-7.281000E+00	  0.086332664	1.145110E+02	  0.086332664	2.629600E+01	  0.086332664	2.545300E+01
333	  0.086533062	-7.306000E+00	  0.086533062	1.138060E+02	  0.086533062	2.653200E+01	  0.086533062	2.571700E+01
334	  0.086733460	-7.332000E+00	  0.086733460	1.131180E+02	  0.086733460	2.677100E+01	  0.086733460	2.597100E+01
335	  0.086933866	-7.354000E+00	  0.086933866	1.124130E+02	  0.086933866	2.700800E+01	  0.086933866	2.623700E+01
336	  0.087134264	-7.376000E+00	  0.087134264	1.117540E+02	  0.087134264	2.723400E+01	  0.087134264	2.648300E+01
337	  0.087334670	-7.406000E+00	  0.087334670	1.110550E+02	  0.087334670	2.749600E+01	  0.087334670	2.673400E+01
338	  0.087535068	-7.429000E+00	  0.087535068	1.103620E+02	  0.087535068	2.774000E+01	  0.087535068	2.699200E+01
339	  0.087735467	-7.453000E+00	  0.087735467	1.096970E+02	  0.087735467	2.798400E+01	  0.087735467	2.723500E+01
340	  0.087935872	-7.477000E+00	  0.087935872	1.090350E+02	  0.087935872	2.822900E+01	  0.087935872	2.747800E+01
341	  0.088136271	-7.509000E+00	  0.088136271	1.083680E+02	  0.088136271	2.850300E+01	  0.088136271	2.770500E+01
342	  0.088336669	-7.530000E+00	  0.088336669	1.076980E+02	  0.088336669	2.874900E+01	  0.088336669	2.795300E+01
343	  0.088537075	-7.554000E+00	  0.088537075	1.070250E+02	  0.088537075	2.900800E+01	  0.088537075	2.819700E+01
344	  0.088737473	-7.573000E+00	  0.088737473	1.063680E+02	  0.088737473	2.924900E+01	  0.088737473	2.844300E+01
345	  0.088937871	-7.594000E+00	  0.088937871	1.056980E+02	  0.088937871	2.950600E+01	  0.088937871	2.868800E+01
346	  0.089138277	-7.622000E+00	  0.089138277	1.050650E+02	  0.089138277	2.977400E+01	  0.089138277	2.890400E+01
347	  0.089338675	-7.642000E+00	  0.089338675	1.044380E+02	  0.089338675	3.002000E+01	  0.089338675	2.913200E+01
348	  0.089539073	-7.666000E+00	  0.089539073	1.038280E+02	  0.089539073	3.027500E+01	  0.089539073	2.934400E+01
349	  0.089739479	-7.692000E+00	  0.089739479	1.031930E+02	  0.089739479	3.054700E+01	  0.089739479	2.956100E+01
350	  0.089939877	-7.711000E+00	  0.089939877	1.025960E+02	  0.089939877	3.078900E+01	  0.089939877	2.977500E+01
351	  0.090140276	-7.735000E+00	  0.090140276	1.019720E+02	  0.090140276	3.105800E+01	  0.090140276	2.999000E+01
352	  0.090340681	-7.756000E+00	  0.090340681	1.013420E+02	  0.090340681	3.132300E+01	  0.090340681	3.021200E+01
353	  0.090541080	-7.780000E+00	  0.090541080	1.007840E+02	  0.090541080	3.157600E+01	  0.090541080	3.039600E+01
354	  0.090741485	-7.802000E+00	  0.090741485	1.001880E+02	  0.090741485	3.183700E+01	  0.090741485	3.060000E+01
355	  0.090941884	-7.826000E+00	  0.090941884	9.963600E+01	  0.090941884	3.209500E+01	  0.090941884	3.077700E+01
356	  0.091142282	-7.850000E+00	  0.091142282	9.903400E+01	  0.091142282	3.237000E+01	  0.091142282	3.097700E+01
357	  0.091342688	-7.876000E+00	  0.091342688	9.848700E+01	  0.091342688	3.263600E+01	  0.091342688	3.114500E+01
358	  0.091543086	-7.902000E+00	  0.091543086	9.792500E+01	  0.091543086	3.290800E+01	  0.091543086	3.132000E+01
359	  0.091743484	-7.925000E+00	  0.091743484	9.736500E+01	  0.091743484	3.317400E+01	  0.091743484	3.150000E+01
360	  0.091943890	-7.948000E+00	  0.091943890	9.678800E+01	  0.091943890	3.344900E+01	  0.091943890	3.168400E+01
361	  0.092144288	-7.971000E+00	  0.092144288	9.626100E+01	  0.092144288	3.370700E+01	  0.092144288	3.184800E+01
362	  0.092344686	-7.993000E+00	  0.092344686	9.570200E+01	  0.092344686	3.398000E+01	  0.092344686	3.202400E+01
363	  0.092545092	-8.016000E+00	  0.092545092	9.515100E+01	  0.092545092	3.425300E+01	  0.092545092	3.219300E+01
364	  0.092745490	-8.042000E+00	  0.092745490	9.462300E+01	  0.092745490	3.452700E+01	  0.092745490	3.234600E+01
365	  0.092945889	-8.065000E+00	  0.092945889	9.408600E+01	  0.092945889	3.480100E+01	  0.092945889	3.250500E+01
366	  0.093146294	-8.091000E+00	  0.093146294	9.357700E+01	  0.093146294	3.507300E+01	  0.093146294	3.264500E+01
367	  0.093346693	-8.115000E+00	  0.093346693	9.304500E+01	  0.093346693	3.535100E+01	  0.093346693	3.279800E+01
368	  0.093547091	-8.141000E+00	  0.093547091	9.254900E+01	  0.093547091	3.562300E+01	  0.093547091	3.292900E+01
369	  0.093747497	-8.158000E+00	  0.093747497	9.199400E+01	  0.093747497	3.589700E+01	  0.093747497	3.310700E+01
370	  0.093947895	-8.185000E+00	  0.093947895	9.151100E+01	  0.093947895	3.617000E+01	  0.093947895	3.322600E+01
371	  0.094148301	-8.210000E+00	  0.094148301	9.096700E+01	  0.094148301	3.646400E+01	  0.094148301	3.337500E+01
372	  0.094348699	-8.229000E+00	  0.094348699	9.044100E+01	  0.094348699	3.674000E+01	  0.094348699	3.353000E+01
373	  0.094549097	-8.256000E+00	  0.094549097	8.995900E+01	  0.094549097	3.701800E+01	  0.094549097	3.364500E+01
374	  0.094749503	-8.276000E+00	  0.094749503	8.943700E+01	  0.094749503	3.730000E+01	  0.094749503	3.379000E+01
375	  0.094949901	-8.297000E+00	  0.094949901	8.896600E+01	  0.094949901	3.756200E+01	  0.094949901	3.391500E+01
376	  0.095150299	-8.318000E+00	  0.095150299	8.847900E+01	  0.095150299	3.783300E+01	  0.095150299	3.404400E+01
377	  0.095350705	-8.334000E+00	  0.095350705	8.798100E+01	  0.095350705	3.810000E+01	  0.095350705	3.418800E+01
378	  0.095551103	-8.347000E+00	  0.095551103	8.748900E+01	  0.095551103	3.835800E+01	  0.095551103	3.433900E+01
379	  0.095751502	-8.365000E+00	  0.095751502	8.696800E+01	  0.095751502	3.864400E+01	  0.095751502	3.448400E+01
380	  0.095951907	-8.380000E+00	  0.095951907	8.649300E+01	  0.095951907	3.890400E+01	  0.095951907	3.462000E+01
381	  0.096152306	-8.395000E+00	  0.096152306	8.600900E+01	  0.096152306	3.917100E+01	  0.096152306	3.475700E+01
382	  0.096352704	-8.406000E+00	  0.096352704	8.557600E+01	  0.096352704	3.940500E+01	  0.096352704	3.488700E+01
383	  0.096553110	-8.420000E+00	  0.096553110	8.511100E+01	  0.096553110	3.966500E+01	  0.096553110	3.501600E+01
384	  0.096753508	-8.433000E+00	  0.096753508	8.466600E+01	  0.096753508	3.991200E+01	  0.096753508	3.514300E+01
385	  0.096953906	-8.441000E+00	  0.096953906	8.417600E+01	  0.096953906	4.017400E+01	  0.096953906	3.529900E+01
386	  0.097154312	-8.453000E+00	  0.097154312	8.375700E+01	  0.097154312	4.041100E+01	  0.097154312	3.541600E+01
387	  0.097354710	-8.462000E+00	  0.097354710	8.330500E+01	  0.097354710	4.066100E+01	  0.097354710	3.555000E+01
388	  0.097555116	-8.472000E+00	  0.097555116	8.286600E+01	  0.097555116	4.090800E+01	  0.097555116	3.567900E+01
389	  0.097755514	-8.478000E+00	  0.097755514	8.244900E+01	  0.097755514	4.113600E+01	  0.097755514	3.581000E+01
390	  0.097955912	-8.484000E+00	  0.097955912	8.200600E+01	  0.097955912	4.138000E+01	  0.097955912	3.595200E+01
391	  0.098156318	-8.494000E+00	  0.098156318	8.158700E+01	  0.098156318	4.162100E+01	  0.098156318	3.607100E+01
392	  0.098356716	-8.493000E+00	  0.098356716	8.116500E+01	  0.098356716	4.184200E+01	  0.098356716	3.622400E+01
393	  0.098557115	-8.505000E+00	  0.098557115	8.076100E+01	  0.098557115	4.208400E+01	  0.098557115	3.632900E+01
394	  0.098757520	-8.509000E+00	  0.098757520	8.034200E+01	  0.098757520	4.231800E+01	  0.098757520	3.646400E+01
395	  0.098957919	-8.511000E+00	  0.098957919	7.989500E+01	  0.098957919	4.256500E+01	  0.098957919	3.661400E+01
396	  0.099158317	-8.514000E+00	  0.099158317	7.944000E+01	  0.099158317	4.282100E+01	  0.099158317	3.676400E+01
397	  0.099358723	-8.519000E+00	  0.099358723	7.902400E+01	  0.099358723	4.306100E+01	  0.099358723	3.689400E+01
398	  0.099559121	-8.520000E+00	  0.099559121	7.860100E+01	  0.099559121	4.329900E+01	  0.099559121	3.703800E+01
399	  0.099759519	-8.524000E+00	  0.099759519	7.816400E+01	  0.099759519	4.355500E+01	  0.099759519	3.717300E+01
400	  0.099959925	-8.517000E+00	  0.099959925	7.772600E+01	  0.099959925	4.378700E+01	  0.099959925	3.735300E+01
401	  0.100160323	-8.515000E+00	  0.100160323	7.730000E+01	  0.100160323	4.402700E+01	  0.100160323	3.750700E+01
402	  0.100360721	-8.514000E+00	  0.100360721	7.684100E+01	  0.100360721	4.429200E+01	  0.100360721	3.766600E+01
403	  0.100561127	-8.523000E+00	  0.100561127	7.645300E+01	  0.100561127	4.453800E+01	  0.100561127	3.776400E+01
404	  0.100761525	-8.524000E+00	  0.100761525	7.597700E+01	  0.100761525	4.482100E+01	  0.100761525	3.792200E+01
405	  0.100961931	-8.516000E+00	  0.100961931	7.555000E+01	  0.100961931	4.505900E+01	  0.100961931	3.809600E+01
406	  0.101162329	-8.512000E+00	  0.101162329	7.499000E+01	  0.101162329	4.538700E+01	  0.101162329	3.829900E+01
407	  0.101362728	-8.505000E+00	  0.101362728	7.453700E+01	  0.101362728	4.564900E+01	  0.101362728	3.847600E+01
408	  0.101563133	-8.498000E+00	  0.101563133	7.407600E+01	  0.101563133	4.591600E+01	  0.101563133	3.866000E+01
409	  0.101763532	-8.497000E+00	  0.101763532	7.358600E+01	  0.101763532	4.622000E+01	  0.101763532	3.882500E+01
410	  0.101963930	-8.490000E+00	  0.101963930	7.312800E+01	  0.101963930	4.649400E+01	  0.101963930	3.900000E+01
411	  0.102164328	-8.483000E+00	  0.102164328	7.262300E+01	  0.102164328	4.680000E+01	  0.102164328	3.919500E+01
412	  0.102364726	-8.478000E+00	  0.102364726	7.213900E+01	  0.102364726	4.710100E+01	  0.102364726	3.937100E+01
413	  0.102565125	-8.466000E+00	  0.102565125	7.163100E+01	  0.102565125	4.740600E+01	  0.102565125	3.958600E+01
414	  0.102765530	-8.465000E+00	  0.102765530	7.113000E+01	  0.102765530	4.773500E+01	  0.102765530	3.974700E+01
415	  0.102965929	-8.446000E+00	  0.102965929	7.057800E+01	  0.102965929	4.806300E+01	  0.102965929	4.000500E+01
416	  0.103166327	-8.445000E+00	  0.103166327	7.011400E+01	  0.103166327	4.837400E+01	  0.103166327	4.015400E+01
417	  0.103366733	-8.431000E+00	  0.103366733	6.960400E+01	  0.103366733	4.869400E+01	  0.103366733	4.037100E+01
418	  0.103567131	-8.426000E+00	  0.103567131	6.906700E+01	  0.103567131	4.905500E+01	  0.103567131	4.055700E+01
419	  0.103767529	-8.420000E+00	  0.103767529	6.861000E+01	  0.103767529	4.936100E+01	  0.103767529	4.072500E+01
420	  0.103967935	-8.406000E+00	  0.103967935	6.806900E+01	  0.103967935	4.971600E+01	  0.103967935	4.095000E+01
421	  0.104168333	-8.393000E+00	  0.104168333	6.752100E+01	  0.104168333	5.008100E+01	  0.104168333	4.117700E+01
422	  0.104368731	-8.387000E+00	  0.104368731	6.707700E+01	  0.104368731	5.039100E+01	  0.104368731	4.133500E+01
423	  0.104569137	-8.379000E+00	  0.104569137	6.649700E+01	  0.104569137	5.080300E+01	  0.104569137	4.153800E+01
424	  0.104769535	-8.367000E+00	  0.104769535	6.597700E+01	  0.104769535	5.116400E+01	  0.104769535	4.174600E+01
425	  0.104969934	-8.359000E+00	  0.104969934	6.549300E+01	  0.104969934	5.151100E+01	  0.104969934	4.192500E+01
426	  0.105170339	-8.350000E+00	  0.105170339	6.501600E+01	  0.105170339	5.185800E+01	  0.105170339	4.209900E+01
427	  0.105370738	-8.340000E+00	  0.105370738	6.442900E+01	  0.105370738	5.228900E+01	  0.105370738	4.231400E+01
428	  0.105571143	-8.330000E+00	  0.105571143	6.398400E+01	  0.105571143	5.261700E+01	  0.105571143	4.248200E+01
429	  0.105771542	-8.322000E+00	  0.105771542	6.336400E+01	  0.105771542	5.309100E+01	  0.105771542	4.268800E+01
430	  0.105971940	-8.316000E+00	  0.105971940	6.286200E+01	  0.105971940	5.347900E+01	  0.105971940	4.285300E+01
431	  0.106172346	-8.300000E+00	  0.106172346	6.232200E+01	  0.106172346	5.388600E+01	  0.106172346	4.307700E+01
432	  0.106372744	-8.288000E+00	  0.106372744	6.178300E+01	  0.106372744	5.430700E+01	  0.106372744	4.327200E+01
433	  0.106573142	-8.281000E+00	  0.106573142	6.124500E+01	  0.106573142	5.473900E+01	  0.106573142	4.344500E+01
434	  0.106773548	-8.271000E+00	  0.106773548	6.072300E+01	  0.106773548	5.516000E+01	  0.106773548	4.362400E+01
435	  0.106973946	-8.258000E+00	  0.106973946	6.014900E+01	  0.106973946	5.562500E+01	  0.106973946	4.383000E+01
436	  0.107174344	-8.250000E+00	  0.107174344	5.959500E+01	  0.107174344	5.608700E+01	  0.107174344	4.400500E+01
437	  0.107374750	-8.235000E+00	  0.107374750	5.901300E+01	  0.107374750	5.657000E+01	  0.107374750	4.422000E+01
438	  0.107575148	-8.218000E+00	  0.107575148	5.842400E+01	  0.107575148	5.706400E+01	  0.107575148	4.444400E+01
439	  0.107775547	-8.222000E+00	  0.107775547	5.787100E+01	  0.107775547	5.756100E+01	  0.107775547	4.453800E+01
440	  0.107975952	-8.194000E+00	  0.107975952	5.725800E+01	  0.107975952	5.807700E+01	  0.107975952	4.482700E+01
441	  0.108176351	-8.194000E+00	  0.108176351	5.668400E+01	  0.108176351	5.860200E+01	  0.108176351	4.493600E+01
442	  0.108376749	-8.182000E+00	  0.108376749	5.602000E+01	  0.108376749	5.920100E+01	  0.108376749	4.513400E+01
443	  0.108577155	-8.170000E+00	  0.108577155	5.545900E+01	  0.108577155	5.971400E+01	  0.108577155	4.531000E+01
444	  0.108777553	-8.159000E+00	  0.108777553	5.478500E+01	  0.108777553	6.034400E+01	  0.108777553	4.548700E+01
445	  0.108977959	-8.151000E+00	  0.108977959	5.412300E+01	  0.108977959	6.097400E+01	  0.108977959	4.564500E+01
446	  0.109178357	-8.139000E+00	  0.109178357	5.346500E+01	  0.109178357	6.160600E+01	  0.109178357	4.581700E+01
447	  0.109378755	-8.119000E+00	  0.109378755	5.285500E+01	  0.109378755	6.219300E+01	  0.109378755	4.603000E+01
448	  0.109579161	-8.114000E+00	  0.109579161	5.218100E+01	  0.109579161	6.286700E+01	  0.109579161	4.614700E+01
449	  0.109779559	-8.096000E+00	  0.109779559	5.149900E+01	  0.109779559	6.354900E+01	  0.109779559	4.634800E+01
450	  0.109979957	-8.083000E+00	  0.109979957	5.086800E+01	  0.109979957	6.419400E+01	  0.109979957	4.649700E+01
451	  0.110180363	-8.076000E+00	  0.110180363	5.014100E+01	  0.110180363	6.495300E+01	  0.110180363	4.661000E+01
452	  0.110380761	-8.064000E+00	  0.110380761	4.946800E+01	  0.110380761	6.566300E+01	  0.110380761	4.674500E+01
453	  0.110581160	-8.056000E+00	  0.110581160	4.879200E+01	  0.110581160	6.639000E+01	  0.110581160	4.683700E+01
454	  0.110781565	-8.042000E+00	  0.110781565	4.805700E+01	  0.110781565	6.718900E+01	  0.110781565	4.697300E+01
455	  0.110981964	-8.040000E+00	  0.110981964	4.734500E+01	  0.110981964	6.797800E+01	  0.110981964	4.700300E+01
456	  0.111182362	-8.024000E+00	  0.111182362	4.663100E+01	  0.111182362	6.877900E+01	  0.111182362	4.712600E+01
457	  0.111382768	-8.010000E+00	  0.111382768	4.590600E+01	  0.111382768	6.960700E+01	  0.111382768	4.722300E+01
458	  0.111583166	-8.010000E+00	  0.111583166	4.517400E+01	  0.111583166	7.045200E+01	  0.111583166	4.720100E+01
459	  0.111783572	-8.006000E+00	  0.111783572	4.446600E+01	  0.111783572	7.128000E+01	  0.111783572	4.719200E+01
460	  0.111983970	-8.000000E+00	  0.111983970	4.368500E+01	  0.111983970	7.220600E+01	  0.111983970	4.718400E+01
461	  0.112184368	-7.994000E+00	  0.112184368	4.291700E+01	  0.112184368	7.312900E+01	  0.112184368	4.716100E+01
462	  0.112384774	-7.987000E+00	  0.112384774	4.212800E+01	  0.112384774	7.408900E+01	  0.112384774	4.711500E+01
463	  0.112585172	-7.992000E+00	  0.112585172	4.138300E+01	  0.112585172	7.499600E+01	  0.112585172	4.696700E+01
464	  0.112785570	-7.989000E+00	  0.112785570	4.058200E+01	  0.112785570	7.598900E+01	  0.112785570	4.684900E+01
465	  0.112985976	-7.988000E+00	  0.112985976	3.979400E+01	  0.112985976	7.697600E+01	  0.112985976	4.669900E+01
466	  0.113186374	-7.992000E+00	  0.113186374	3.901300E+01	  0.113186374	7.795500E+01	  0.113186374	4.648800E+01
467	  0.113386773	-7.989000E+00	  0.113386773	3.824200E+01	  0.113386773	7.893800E+01	  0.113386773	4.630600E+01
468	  0.113587178	-7.996000E+00	  0.113587178	3.741300E+01	  0.113587178	7.998600E+01	  0.113587178	4.600900E+01
469	  0.113787577	-8.004000E+00	  0.113787577	3.659100E+01	  0.113787577	8.102700E+01	  0.113787577	4.566500E+01
470	  0.113987975	-8.010000E+00	  0.113987975	3.573200E+01	  0.113987975	8.212600E+01	  0.113987975	4.530300E+01
471	  0.114188381	-8.020000E+00	  0.114188381	3.489400E+01	  0.114188381	8.319000E+01	  0.114188381	4.488200E+01
472	  0.114388779	-8.026000E+00	  0.114388779	3.401600E+01	  0.114388779	8.431900E+01	  0.114388779	4.444200E+01
473	  0.114589177	-8.037000E+00	  0.114589177	3.312200E+01	  0.114589177	8.545400E+01	  0.114589177	4.391800E+01
474	  0.114789583	-8.046000E+00	  0.114789583	3.221600E+01	  0.114789583	8.661000E+01	  0.114789583	4.336500E+01
475	  0.114989981	-8.063000E+00	  0.114989981	3.136600E+01	  0.114989981	8.766100E+01	  0.114989981	4.274300E+01
476	  0.115190387	-8.073000E+00	  0.115190387	3.044900E+01	  0.115190387	8.881900E+01	  0.115190387	4.209600E+01
477	  0.115390785	-8.093000E+00	  0.115390785	2.954600E+01	  0.115390785	8.991100E+01	  0.115390785	4.133800E+01
478	  0.115591183	-8.103000E+00	  0.115591183	2.860500E+01	  0.115591183	9.108000E+01	  0.115591183	4.059000E+01
479	  0.115791589	-8.122000E+00	  0.115791589	2.761200E+01	  0.115791589	9.226100E+01	  0.115791589	3.968700E+01
480	  0.115991987	-8.150000E+00	  0.115991987	2.670800E+01	  0.115991987	9.326000E+01	  0.115991987	3.872900E+01
481	  0.116192386	-8.160000E+00	  0.116192386	2.574400E+01	  0.116192386	9.441400E+01	  0.116192386	3.783200E+01
482	  0.116392791	-8.186000E+00	  0.116392791	2.477000E+01	  0.116392791	9.546700E+01	  0.116392791	3.675300E+01
483	  0.116593190	-8.210000E+00	  0.116593190	2.378700E+01	  0.116593190	9.650700E+01	  0.116593190	3.563000E+01
484	  0.116793588	-8.235000E+00	  0.116793588	2.279200E+01	  0.116793588	9.752500E+01	  0.116793588	3.444700E+01
485	  0.116993994	-8.259000E+00	  0.116993994	2.180400E+01	  0.116993994	9.850500E+01	  0.116993994	3.323700E+01
486	  0.117194392	-8.288000E+00	  0.117194392	2.071900E+01	  0.117194392	9.952000E+01	  0.117194392	3.184200E+01
487	  0.117394790	-8.327000E+00	  0.117394790	1.969600E+01	  0.117394790	1.003340E+02	  0.117394790	3.039600E+01
488	  0.117595196	-8.362000E+00	  0.117595196	1.865800E+01	  0.117595196	1.011410E+02	  0.117595196	2.892600E+01
489	  0.117795594	-8.394000E+00	  0.117795594	1.756800E+01	  0.117795594	1.019730E+02	  0.117795594	2.738200E+01
490	  0.117995992	-8.437000E+00	  0.117995992	1.649500E+01	  0.117995992	1.026320E+02	  0.117995992	2.575200E+01
491	  0.118196398	-8.477000E+00	  0.118196398	1.543400E+01	  0.118196398	1.032390E+02	  0.118196398	2.413200E+01
492	  0.118396796	-8.526000E+00	  0.118396796	1.432800E+01	  0.118396796	1.037340E+02	  0.118396796	2.238000E+01
