! Anritsu VNA Master:             	Model: MS2036C/10/77
! SN:             	1601066
! /bd0/18may10/255.ns.m2.txt
! Existing Calibration Information:
! TYPE:             	Current Settings	Active Cal Settings
! TIME:             	05/10/2018 02:19:51 PM	05/10/2018 02:13:17 PM
! INTERNAL TEMP:    	58.3 C	57.5 C
! # POINTS:         	492	492
! START FREQ:       	20.000 MHz	20.000 MHz
! STOP FREQ:        	118.396 793 MHz	118.396 793 MHz
! SOURCE POWER:     	High	High
! IFBW:             	50 Hz	50 Hz
! AVG FACTOR:       	  1 	  1 
! REF PLANE 1:      	0 mm	0 mm
! REF PLANE 2:      	0 mm	0 mm
! CAL TYPE:         	Full S22	Full S22
! CAL METHOD:       	SOLT	SOLT
! CAL LINE TYPE:    	Coax	Coax
! DUT PORT 1:       	K-Conn(M)	K-Conn(M)
! DUT PORT 2:       	K-Conn(M)	K-Conn(M)
! CAL STATUS:       	OK: Accuracy High	--
! PROP-V:       	0.700
! CABLE LOSS:       	0.000 dB/m
! REF IMPEDANCE:       	50.0
! Trace Specific Parameters:	TR1	TR2	TR3	TR4
! TRACE.#.Y (GRAPH TYPE)	LOG MAG	PHASE	REAL IMPEDANCE	IMAGINARY IMPEDANCE
! TRACE.#.X 	FREQ.GHZ	FREQ.GHZ	FREQ.GHZ	FREQ.GHZ
! S-PARAMETER	S22	S22	S22	S22
! SMOOTH/APERTURE %	0	0	0	0
! WINDOW	NSL	NSL	NSL	NSL
! GATING	OFF	OFF	OFF	OFF
! FGTD	OFF	OFF	OFF	OFF
Marker Information per Trace:	TR1	TR2	TR3	TR4
!MK1	--	"MK1 TR2:  20.000 MHz,PH:-125.33°"	--	--
!MK2	--	--	"MK2 TR3:  70.100 200 MHz,Z:(17.306 ohm, -1.716 ohm)"	--
!MK3	--	--	--	--
!MK4	--	--	--	--
!MK5	--	--	--	--
!MK6	--	--	--	--
!MK7	--	--	--	--
!MK8	--	--	--	--
PNT	TR1.FREQ.GHZ	TR1.LOG MAG.dB	TR2.FREQ.GHZ	TR2.PHASE.deg	TR3.FREQ.GHZ	TR3.REAL IMPEDANCE.ohm	TR4.FREQ.GHZ	TR4.IMAGINARY IMPEDANCE.ohm
1	  0.020000000	-6.390000E-01	  0.020000000	-1.253280E+02	  0.020000000	2.331000E+00	  0.020000000	-2.580100E+01
2	  0.020200402	-6.430000E-01	  0.020200402	-1.267810E+02	  0.020200402	2.314000E+00	  0.020200402	-2.500500E+01
3	  0.020400802	-6.450000E-01	  0.020400802	-1.282220E+02	  0.020400802	2.293000E+00	  0.020400802	-2.422400E+01
4	  0.020601204	-6.480000E-01	  0.020601204	-1.297030E+02	  0.020601204	2.275000E+00	  0.020601204	-2.343300E+01
5	  0.020801604	-6.530000E-01	  0.020801604	-1.312030E+02	  0.020801604	2.266000E+00	  0.020801604	-2.264000E+01
6	  0.021002004	-6.550000E-01	  0.021002004	-1.327150E+02	  0.021002004	2.246000E+00	  0.021002004	-2.185100E+01
7	  0.021202406	-6.590000E-01	  0.021202406	-1.342310E+02	  0.021202406	2.233000E+00	  0.021202406	-2.106800E+01
8	  0.021402806	-6.610000E-01	  0.021402806	-1.357510E+02	  0.021402806	2.216000E+00	  0.021402806	-2.029300E+01
9	  0.021603208	-6.640000E-01	  0.021603208	-1.372580E+02	  0.021603208	2.203000E+00	  0.021603208	-1.953200E+01
10	  0.021803608	-6.680000E-01	  0.021803608	-1.387740E+02	  0.021803608	2.194000E+00	  0.021803608	-1.877400E+01
11	  0.022004008	-6.700000E-01	  0.022004008	-1.402860E+02	  0.022004008	2.181000E+00	  0.022004008	-1.802600E+01
12	  0.022204408	-6.790000E-01	  0.022204408	-1.418400E+02	  0.022204408	2.186000E+00	  0.022204408	-1.726400E+01
13	  0.022404809	-6.830000E-01	  0.022404809	-1.434040E+02	  0.022404809	2.179000E+00	  0.022404809	-1.650500E+01
14	  0.022605211	-6.830000E-01	  0.022605211	-1.449840E+02	  0.022605211	2.160000E+00	  0.022605211	-1.574500E+01
15	  0.022805611	-6.850000E-01	  0.022805611	-1.465700E+02	  0.022805611	2.150000E+00	  0.022805611	-1.498900E+01
16	  0.023006011	-6.900000E-01	  0.023006011	-1.481430E+02	  0.023006011	2.147000E+00	  0.023006011	-1.424400E+01
17	  0.023206413	-6.940000E-01	  0.023206413	-1.497190E+02	  0.023206413	2.144000E+00	  0.023206413	-1.350500E+01
18	  0.023406813	-6.990000E-01	  0.023406813	-1.512820E+02	  0.023406813	2.145000E+00	  0.023406813	-1.277700E+01
19	  0.023607215	-7.040000E-01	  0.023607215	-1.528710E+02	  0.023607215	2.145000E+00	  0.023607215	-1.204200E+01
20	  0.023807615	-7.110000E-01	  0.023807615	-1.544690E+02	  0.023807615	2.151000E+00	  0.023807615	-1.130700E+01
21	  0.024008015	-7.190000E-01	  0.024008015	-1.560980E+02	  0.024008015	2.161000E+00	  0.024008015	-1.056300E+01
22	  0.024208417	-7.260000E-01	  0.024208417	-1.577420E+02	  0.024208417	2.169000E+00	  0.024208417	-9.817000E+00
23	  0.024408817	-7.320000E-01	  0.024408817	-1.593910E+02	  0.024408817	2.177000E+00	  0.024408817	-9.073000E+00
24	  0.024609219	-7.370000E-01	  0.024609219	-1.610320E+02	  0.024609219	2.179000E+00	  0.024609219	-8.337000E+00
25	  0.024809619	-7.470000E-01	  0.024809619	-1.626870E+02	  0.024809619	2.198000E+00	  0.024809619	-7.597000E+00
26	  0.025010020	-7.550000E-01	  0.025010020	-1.643490E+02	  0.025010020	2.214000E+00	  0.025010020	-6.858000E+00
27	  0.025210422	-7.650000E-01	  0.025210422	-1.660220E+02	  0.025210422	2.236000E+00	  0.025210422	-6.117000E+00
28	  0.025410822	-7.760000E-01	  0.025410822	-1.677110E+02	  0.025410822	2.258000E+00	  0.025410822	-5.371000E+00
29	  0.025611224	-7.880000E-01	  0.025611224	-1.693980E+02	  0.025611224	2.286000E+00	  0.025611224	-4.629000E+00
30	  0.025811624	-7.990000E-01	  0.025811624	-1.711100E+02	  0.025811624	2.312000E+00	  0.025811624	-3.878000E+00
31	  0.026012026	-8.100000E-01	  0.026012026	-1.728370E+02	  0.026012026	2.340000E+00	  0.026012026	-3.122000E+00
32	  0.026212426	-8.190000E-01	  0.026212426	-1.745700E+02	  0.026212426	2.363000E+00	  0.026212426	-2.365000E+00
33	  0.026412826	-8.350000E-01	  0.026412826	-1.763000E+02	  0.026412826	2.405000E+00	  0.026412826	-1.611000E+00
34	  0.026613226	-8.490000E-01	  0.026613226	-1.780610E+02	  0.026613226	2.444000E+00	  0.026613226	-8.430000E-01
35	  0.026813626	-8.650000E-01	  0.026813626	-1.798150E+02	  0.026813626	2.489000E+00	  0.026813626	-8.000000E-02
36	  0.027014028	-8.820000E-01	  0.027014028	1.784190E+02	  0.027014028	2.538000E+00	  0.027014028	6.870000E-01
37	  0.027214428	-8.990000E-01	  0.027214428	1.766580E+02	  0.027214428	2.588000E+00	  0.027214428	1.454000E+00
38	  0.027414829	-9.130000E-01	  0.027414829	1.748720E+02	  0.027414829	2.632000E+00	  0.027414829	2.232000E+00
39	  0.027615231	-9.320000E-01	  0.027615231	1.730920E+02	  0.027615231	2.690000E+00	  0.027615231	3.008000E+00
40	  0.027815631	-9.500000E-01	  0.027815631	1.713010E+02	  0.027815631	2.748000E+00	  0.027815631	3.791000E+00
41	  0.028016033	-9.680000E-01	  0.028016033	1.694790E+02	  0.028016033	2.809000E+00	  0.028016033	4.589000E+00
42	  0.028216433	-9.890000E-01	  0.028216433	1.676710E+02	  0.028216433	2.877000E+00	  0.028216433	5.382000E+00
43	  0.028416833	-1.008000E+00	  0.028416833	1.658410E+02	  0.028416833	2.945000E+00	  0.028416833	6.188000E+00
44	  0.028617235	-1.031000E+00	  0.028617235	1.640100E+02	  0.028617235	3.022000E+00	  0.028617235	6.997000E+00
45	  0.028817635	-1.053000E+00	  0.028817635	1.621860E+02	  0.028817635	3.101000E+00	  0.028817635	7.806000E+00
46	  0.029018037	-1.075000E+00	  0.029018037	1.603550E+02	  0.029018037	3.183000E+00	  0.029018037	8.622000E+00
47	  0.029218437	-1.100000E+00	  0.029218437	1.585140E+02	  0.029218437	3.276000E+00	  0.029218437	9.447000E+00
48	  0.029418837	-1.127000E+00	  0.029418837	1.566510E+02	  0.029418837	3.378000E+00	  0.029418837	1.028500E+01
49	  0.029619239	-1.152000E+00	  0.029619239	1.547870E+02	  0.029619239	3.477000E+00	  0.029619239	1.113000E+01
50	  0.029819639	-1.179000E+00	  0.029819639	1.529160E+02	  0.029819639	3.586000E+00	  0.029819639	1.198400E+01
51	  0.030020041	-1.208000E+00	  0.030020041	1.510280E+02	  0.030020041	3.701000E+00	  0.030020041	1.285100E+01
52	  0.030220442	-1.237000E+00	  0.030220442	1.491500E+02	  0.030220442	3.824000E+00	  0.030220442	1.372000E+01
53	  0.030420844	-1.264000E+00	  0.030420844	1.472650E+02	  0.030420844	3.945000E+00	  0.030420844	1.460000E+01
54	  0.030621244	-1.297000E+00	  0.030621244	1.453850E+02	  0.030621244	4.087000E+00	  0.030621244	1.548500E+01
55	  0.030821642	-1.331000E+00	  0.030821642	1.434880E+02	  0.030821642	4.238000E+00	  0.030821642	1.638600E+01
56	  0.031022044	-1.363000E+00	  0.031022044	1.415770E+02	  0.031022044	4.389000E+00	  0.031022044	1.730200E+01
57	  0.031222444	-1.393000E+00	  0.031222444	1.396660E+02	  0.031222444	4.538000E+00	  0.031222444	1.823000E+01
58	  0.031422846	-1.426000E+00	  0.031422846	1.377080E+02	  0.031422846	4.706000E+00	  0.031422846	1.918900E+01
59	  0.031623244	-1.464000E+00	  0.031623244	1.357610E+02	  0.031623244	4.893000E+00	  0.031623244	2.015500E+01
60	  0.031823646	-1.497000E+00	  0.031823646	1.337980E+02	  0.031823646	5.073000E+00	  0.031823646	2.114100E+01
61	  0.032024048	-1.536000E+00	  0.032024048	1.318330E+02	  0.032024048	5.282000E+00	  0.032024048	2.214000E+01
62	  0.032224450	-1.575000E+00	  0.032224450	1.298610E+02	  0.032224450	5.501000E+00	  0.032224450	2.315600E+01
63	  0.032424849	-1.612000E+00	  0.032424849	1.278820E+02	  0.032424849	5.724000E+00	  0.032424849	2.419000E+01
64	  0.032625251	-1.652000E+00	  0.032625251	1.258910E+02	  0.032625251	5.963000E+00	  0.032625251	2.524700E+01
65	  0.032825653	-1.689000E+00	  0.032825653	1.238620E+02	  0.032825653	6.207000E+00	  0.032825653	2.634100E+01
66	  0.033026051	-1.726000E+00	  0.033026051	1.218350E+02	  0.033026051	6.466000E+00	  0.033026051	2.745200E+01
67	  0.033226453	-1.768000E+00	  0.033226453	1.198170E+02	  0.033226453	6.751000E+00	  0.033226453	2.857700E+01
68	  0.033426855	-1.803000E+00	  0.033426855	1.177750E+02	  0.033426855	7.029000E+00	  0.033426855	2.973700E+01
69	  0.033627257	-1.847000E+00	  0.033627257	1.157830E+02	  0.033627257	7.350000E+00	  0.033627257	3.088600E+01
70	  0.033827655	-1.885000E+00	  0.033827655	1.137680E+02	  0.033827655	7.668000E+00	  0.033827655	3.207300E+01
71	  0.034028057	-1.925000E+00	  0.034028057	1.117380E+02	  0.034028057	8.011000E+00	  0.034028057	3.329100E+01
72	  0.034228459	-1.970000E+00	  0.034228459	1.096990E+02	  0.034228459	8.394000E+00	  0.034228459	3.453800E+01
73	  0.034428857	-2.013000E+00	  0.034428857	1.076620E+02	  0.034428857	8.791000E+00	  0.034428857	3.581100E+01
74	  0.034629259	-2.055000E+00	  0.034629259	1.056210E+02	  0.034629259	9.204000E+00	  0.034629259	3.711400E+01
75	  0.034829661	-2.099000E+00	  0.034829661	1.035810E+02	  0.034829661	9.652000E+00	  0.034829661	3.844500E+01
76	  0.035030060	-2.145000E+00	  0.035030060	1.015320E+02	  0.035030060	1.013800E+01	  0.035030060	3.981000E+01
77	  0.035230462	-2.194000E+00	  0.035230462	9.949700E+01	  0.035230462	1.066600E+01	  0.035230462	4.119500E+01
78	  0.035430863	-2.245000E+00	  0.035430863	9.745600E+01	  0.035430863	1.123600E+01	  0.035430863	4.261400E+01
79	  0.035631265	-2.292000E+00	  0.035631265	9.542400E+01	  0.035631265	1.181900E+01	  0.035631265	4.406600E+01
80	  0.035831664	-2.343000E+00	  0.035831664	9.335500E+01	  0.035831664	1.246800E+01	  0.035831664	4.557700E+01
81	  0.036032066	-2.395000E+00	  0.036032066	9.131000E+01	  0.036032066	1.315800E+01	  0.036032066	4.710700E+01
82	  0.036232468	-2.447000E+00	  0.036232468	8.926300E+01	  0.036232468	1.390000E+01	  0.036232468	4.867600E+01
83	  0.036432866	-2.498000E+00	  0.036432866	8.720100E+01	  0.036432866	1.468700E+01	  0.036432866	5.030000E+01
84	  0.036633268	-2.553000E+00	  0.036633268	8.514000E+01	  0.036633268	1.555000E+01	  0.036633268	5.196100E+01
85	  0.036833670	-2.610000E+00	  0.036833670	8.307000E+01	  0.036833670	1.649600E+01	  0.036833670	5.366600E+01
86	  0.037034072	-2.668000E+00	  0.037034072	8.099300E+01	  0.037034072	1.751500E+01	  0.037034072	5.542200E+01
87	  0.037234470	-2.726000E+00	  0.037234470	7.891800E+01	  0.037234470	1.860400E+01	  0.037234470	5.722500E+01
88	  0.037434869	-2.782000E+00	  0.037434869	7.683600E+01	  0.037434869	1.977200E+01	  0.037434869	5.908300E+01
89	  0.037635271	-2.843000E+00	  0.037635271	7.474800E+01	  0.037635271	2.106500E+01	  0.037635271	6.098300E+01
90	  0.037835669	-2.905000E+00	  0.037835669	7.265900E+01	  0.037835669	2.246400E+01	  0.037835669	6.293100E+01
91	  0.038036071	-2.964000E+00	  0.038036071	7.055400E+01	  0.038036071	2.396900E+01	  0.038036071	6.495000E+01
92	  0.038236473	-3.023000E+00	  0.038236473	6.842500E+01	  0.038236473	2.560400E+01	  0.038236473	6.704900E+01
93	  0.038436871	-3.085000E+00	  0.038436871	6.629500E+01	  0.038436871	2.741200E+01	  0.038436871	6.918100E+01
94	  0.038637273	-3.148000E+00	  0.038637273	6.417500E+01	  0.038637273	2.936500E+01	  0.038637273	7.134700E+01
95	  0.038837675	-3.206000E+00	  0.038837675	6.205600E+01	  0.038837675	3.145300E+01	  0.038837675	7.357700E+01
96	  0.039038073	-3.263000E+00	  0.039038073	5.996100E+01	  0.039038073	3.369300E+01	  0.039038073	7.582300E+01
97	  0.039238475	-3.320000E+00	  0.039238475	5.787100E+01	  0.039238475	3.611800E+01	  0.039238475	7.810500E+01
98	  0.039438877	-3.378000E+00	  0.039438877	5.576200E+01	  0.039438877	3.879600E+01	  0.039438877	8.042500E+01
99	  0.039639279	-3.433000E+00	  0.039639279	5.366600E+01	  0.039639279	4.167500E+01	  0.039639279	8.276700E+01
100	  0.039839678	-3.489000E+00	  0.039839678	5.154500E+01	  0.039839678	4.486200E+01	  0.039839678	8.513700E+01
101	  0.040040080	-3.542000E+00	  0.040040080	4.946300E+01	  0.040040080	4.825100E+01	  0.040040080	8.748000E+01
102	  0.040240481	-3.592000E+00	  0.040240481	4.737800E+01	  0.040240481	5.193900E+01	  0.040240481	8.982400E+01
103	  0.040440880	-3.645000E+00	  0.040440880	4.531100E+01	  0.040440880	5.596000E+01	  0.040440880	9.205800E+01
104	  0.040641282	-3.697000E+00	  0.040641282	4.326800E+01	  0.040641282	6.028100E+01	  0.040641282	9.419400E+01
105	  0.040841684	-3.749000E+00	  0.040841684	4.123100E+01	  0.040841684	6.497900E+01	  0.040841684	9.619900E+01
106	  0.041042086	-3.800000E+00	  0.041042086	3.922300E+01	  0.041042086	7.000800E+01	  0.041042086	9.800700E+01
107	  0.041242484	-3.855000E+00	  0.041242484	3.719600E+01	  0.041242484	7.553200E+01	  0.041242484	9.957300E+01
108	  0.041442886	-3.906000E+00	  0.041442886	3.518100E+01	  0.041442886	8.144100E+01	  0.041442886	1.008980E+02
109	  0.041643288	-3.958000E+00	  0.041643288	3.317800E+01	  0.041643288	8.777500E+01	  0.041643288	1.018280E+02
110	  0.041843686	-4.009000E+00	  0.041843686	3.116300E+01	  0.041843686	9.459500E+01	  0.041843686	1.023660E+02
111	  0.042044088	-4.059000E+00	  0.042044088	2.917300E+01	  0.042044088	1.017680E+02	  0.042044088	1.023820E+02
112	  0.042244490	-4.113000E+00	  0.042244490	2.719800E+01	  0.042244490	1.093060E+02	  0.042244490	1.016460E+02
113	  0.042444889	-4.166000E+00	  0.042444889	2.523800E+01	  0.042444889	1.171170E+02	  0.042444889	1.002090E+02
114	  0.042645290	-4.218000E+00	  0.042645290	2.326800E+01	  0.042645290	1.252380E+02	  0.042645290	9.796100E+01
115	  0.042845692	-4.274000E+00	  0.042845692	2.130000E+01	  0.042845692	1.334830E+02	  0.042845692	9.466400E+01
116	  0.043046094	-4.324000E+00	  0.043046094	1.933000E+01	  0.043046094	1.418030E+02	  0.043046094	9.049900E+01
117	  0.043246493	-4.379000E+00	  0.043246493	1.736800E+01	  0.043246493	1.498830E+02	  0.043246493	8.509500E+01
118	  0.043446895	-4.429000E+00	  0.043446895	1.540700E+01	  0.043446895	1.576800E+02	  0.043446895	7.869200E+01
119	  0.043647297	-4.481000E+00	  0.043647297	1.343000E+01	  0.043647297	1.649610E+02	  0.043647297	7.107100E+01
120	  0.043847695	-4.533000E+00	  0.043847695	1.145800E+01	  0.043847695	1.713950E+02	  0.043847695	6.236400E+01
121	  0.044048097	-4.584000E+00	  0.044048097	9.499000E+00	  0.044048097	1.768160E+02	  0.044048097	5.279600E+01
122	  0.044248499	-4.635000E+00	  0.044248499	7.523000E+00	  0.044248499	1.811020E+02	  0.044248499	4.238600E+01
123	  0.044448901	-4.687000E+00	  0.044448901	5.567000E+00	  0.044448901	1.839610E+02	  0.044448901	3.151900E+01
124	  0.044649299	-4.734000E+00	  0.044649299	3.598000E+00	  0.044649299	1.855690E+02	  0.044649299	2.034200E+01
125	  0.044849701	-4.779000E+00	  0.044849701	1.634000E+00	  0.044849701	1.857970E+02	  0.044849701	9.161000E+00
126	  0.045050103	-4.826000E+00	  0.045050103	-3.300000E-01	  0.045050103	1.845470E+02	  0.045050103	-1.820000E+00
127	  0.045250501	-4.870000E+00	  0.045250501	-2.301000E+00	  0.045250501	1.820740E+02	  0.045250501	-1.238000E+01
128	  0.045450903	-4.913000E+00	  0.045450903	-4.241000E+00	  0.045450903	1.784900E+02	  0.045450903	-2.213500E+01
129	  0.045651305	-4.956000E+00	  0.045651305	-6.191000E+00	  0.045651305	1.739020E+02	  0.045651305	-3.114700E+01
130	  0.045851704	-4.994000E+00	  0.045851704	-8.129000E+00	  0.045851704	1.686940E+02	  0.045851704	-3.928200E+01
131	  0.046052102	-5.034000E+00	  0.046052102	-1.004400E+01	  0.046052102	1.628820E+02	  0.046052102	-4.637500E+01
132	  0.046252504	-5.069000E+00	  0.046252504	-1.193900E+01	  0.046252504	1.568000E+02	  0.046252504	-5.254100E+01
133	  0.046452906	-5.107000E+00	  0.046452906	-1.382500E+01	  0.046452906	1.504340E+02	  0.046452906	-5.774500E+01
134	  0.046653304	-5.141000E+00	  0.046653304	-1.572100E+01	  0.046653304	1.439870E+02	  0.046653304	-6.221700E+01
135	  0.046853706	-5.173000E+00	  0.046853706	-1.759500E+01	  0.046853706	1.375930E+02	  0.046853706	-6.587300E+01
136	  0.047054108	-5.204000E+00	  0.047054108	-1.946400E+01	  0.047054108	1.312870E+02	  0.047054108	-6.882200E+01
137	  0.047254506	-5.232000E+00	  0.047254506	-2.133200E+01	  0.047254506	1.251410E+02	  0.047254506	-7.118800E+01
138	  0.047454908	-5.263000E+00	  0.047454908	-2.316000E+01	  0.047454908	1.192660E+02	  0.047454908	-7.287100E+01
139	  0.047655310	-5.291000E+00	  0.047655310	-2.498000E+01	  0.047655310	1.136440E+02	  0.047655310	-7.411500E+01
140	  0.047855709	-5.321000E+00	  0.047855709	-2.675800E+01	  0.047855709	1.083650E+02	  0.047855709	-7.486900E+01
141	  0.048056111	-5.351000E+00	  0.048056111	-2.854400E+01	  0.048056111	1.033030E+02	  0.048056111	-7.526400E+01
142	  0.048256513	-5.382000E+00	  0.048256513	-3.031300E+01	  0.048256513	9.853800E+01	  0.048256513	-7.533700E+01
143	  0.048456915	-5.411000E+00	  0.048456915	-3.207600E+01	  0.048456915	9.404200E+01	  0.048456915	-7.520500E+01
144	  0.048657313	-5.438000E+00	  0.048657313	-3.382800E+01	  0.048657313	8.981300E+01	  0.048657313	-7.486700E+01
145	  0.048857715	-5.464000E+00	  0.048857715	-3.558100E+01	  0.048857715	8.581400E+01	  0.048857715	-7.437000E+01
146	  0.049058117	-5.491000E+00	  0.049058117	-3.734100E+01	  0.049058117	8.202700E+01	  0.049058117	-7.369100E+01
147	  0.049258515	-5.518000E+00	  0.049258515	-3.905800E+01	  0.049258515	7.854600E+01	  0.049258515	-7.288900E+01
148	  0.049458917	-5.545000E+00	  0.049458917	-4.078200E+01	  0.049458917	7.525100E+01	  0.049458917	-7.199100E+01
149	  0.049659319	-5.573000E+00	  0.049659319	-4.249200E+01	  0.049659319	7.217500E+01	  0.049659319	-7.100400E+01
150	  0.049859721	-5.598000E+00	  0.049859721	-4.419800E+01	  0.049859721	6.927500E+01	  0.049859721	-6.998600E+01
151	  0.050060119	-5.626000E+00	  0.050060119	-4.587800E+01	  0.050060119	6.659700E+01	  0.050060119	-6.888500E+01
152	  0.050260521	-5.648000E+00	  0.050260521	-4.759300E+01	  0.050260521	6.400100E+01	  0.050260521	-6.778700E+01
153	  0.050460923	-5.672000E+00	  0.050460923	-4.928700E+01	  0.050460923	6.159100E+01	  0.050460923	-6.664200E+01
154	  0.050661322	-5.694000E+00	  0.050661322	-5.099300E+01	  0.050661322	5.929500E+01	  0.050661322	-6.548200E+01
155	  0.050861724	-5.714000E+00	  0.050861724	-5.267200E+01	  0.050861724	5.715600E+01	  0.050861724	-6.433500E+01
156	  0.051062126	-5.733000E+00	  0.051062126	-5.435500E+01	  0.051062126	5.512700E+01	  0.051062126	-6.317900E+01
157	  0.051262524	-5.760000E+00	  0.051262524	-5.599500E+01	  0.051262524	5.329200E+01	  0.051262524	-6.197400E+01
158	  0.051462926	-5.779000E+00	  0.051462926	-5.766500E+01	  0.051462926	5.149400E+01	  0.051462926	-6.080700E+01
159	  0.051663328	-5.794000E+00	  0.051663328	-5.929500E+01	  0.051663328	4.982100E+01	  0.051663328	-5.968400E+01
160	  0.051863730	-5.812000E+00	  0.051863730	-6.092700E+01	  0.051863730	4.824500E+01	  0.051863730	-5.853900E+01
161	  0.052064128	-5.823000E+00	  0.052064128	-6.257400E+01	  0.052064128	4.670600E+01	  0.052064128	-5.743600E+01
162	  0.052264530	-5.839000E+00	  0.052264530	-6.419700E+01	  0.052264530	4.529000E+01	  0.052264530	-5.631400E+01
163	  0.052464932	-5.850000E+00	  0.052464932	-6.579400E+01	  0.052464932	4.395000E+01	  0.052464932	-5.524200E+01
164	  0.052665330	-5.862000E+00	  0.052665330	-6.737300E+01	  0.052665330	4.269500E+01	  0.052665330	-5.417700E+01
165	  0.052865732	-5.872000E+00	  0.052865732	-6.894800E+01	  0.052865732	4.149500E+01	  0.052865732	-5.313400E+01
166	  0.053066134	-5.886000E+00	  0.053066134	-7.050600E+01	  0.053066134	4.038200E+01	  0.053066134	-5.208800E+01
167	  0.053266536	-5.897000E+00	  0.053266536	-7.204500E+01	  0.053266536	3.932000E+01	  0.053266536	-5.107900E+01
168	  0.053466935	-5.913000E+00	  0.053466935	-7.359000E+01	  0.053466935	3.832700E+01	  0.053466935	-5.004900E+01
169	  0.053667337	-5.921000E+00	  0.053667337	-7.509600E+01	  0.053667337	3.737400E+01	  0.053667337	-4.908700E+01
170	  0.053867739	-5.930000E+00	  0.053867739	-7.660400E+01	  0.053867739	3.646600E+01	  0.053867739	-4.812900E+01
171	  0.054068137	-5.940000E+00	  0.054068137	-7.813100E+01	  0.054068137	3.559100E+01	  0.054068137	-4.716300E+01
172	  0.054268539	-5.947000E+00	  0.054268539	-7.960500E+01	  0.054268539	3.477400E+01	  0.054268539	-4.625000E+01
173	  0.054468941	-5.962000E+00	  0.054468941	-8.107600E+01	  0.054468941	3.402500E+01	  0.054468941	-4.531900E+01
174	  0.054669335	-5.972000E+00	  0.054669335	-8.254500E+01	  0.054669335	3.328700E+01	  0.054669335	-4.441900E+01
175	  0.054869737	-5.983000E+00	  0.054869737	-8.399700E+01	  0.054869737	3.259600E+01	  0.054869737	-4.353300E+01
176	  0.055070139	-5.999000E+00	  0.055070139	-8.542800E+01	  0.055070139	3.196300E+01	  0.055070139	-4.265400E+01
177	  0.055270538	-6.010000E+00	  0.055270538	-8.688000E+01	  0.055270538	3.132800E+01	  0.055270538	-4.178800E+01
178	  0.055470940	-6.022000E+00	  0.055470940	-8.831700E+01	  0.055470940	3.072700E+01	  0.055470940	-4.094000E+01
179	  0.055671342	-6.031000E+00	  0.055671342	-8.974400E+01	  0.055671342	3.014800E+01	  0.055671342	-4.011100E+01
180	  0.055871744	-6.040000E+00	  0.055871744	-9.119600E+01	  0.055871744	2.958000E+01	  0.055871744	-3.928000E+01
181	  0.056072142	-6.052000E+00	  0.056072142	-9.262700E+01	  0.056072142	2.905500E+01	  0.056072142	-3.846100E+01
182	  0.056272544	-6.062000E+00	  0.056272544	-9.405300E+01	  0.056272544	2.854300E+01	  0.056272544	-3.766100E+01
183	  0.056472946	-6.073000E+00	  0.056472946	-9.544800E+01	  0.056472946	2.806900E+01	  0.056472946	-3.688200E+01
184	  0.056673344	-6.080000E+00	  0.056673344	-9.687100E+01	  0.056673344	2.759000E+01	  0.056673344	-3.610600E+01
185	  0.056873746	-6.089000E+00	  0.056873746	-9.824300E+01	  0.056873746	2.715300E+01	  0.056873746	-3.536100E+01
186	  0.057074148	-6.097000E+00	  0.057074148	-9.963400E+01	  0.057074148	2.672300E+01	  0.057074148	-3.461500E+01
187	  0.057274550	-6.100000E+00	  0.057274550	-1.010480E+02	  0.057274550	2.628500E+01	  0.057274550	-3.387500E+01
188	  0.057474948	-6.110000E+00	  0.057474948	-1.024150E+02	  0.057474948	2.590100E+01	  0.057474948	-3.315400E+01
189	  0.057675350	-6.109000E+00	  0.057675350	-1.038230E+02	  0.057675350	2.548300E+01	  0.057675350	-3.244000E+01
190	  0.057875752	-6.114000E+00	  0.057875752	-1.051930E+02	  0.057875752	2.511300E+01	  0.057875752	-3.173900E+01
191	  0.058076151	-6.120000E+00	  0.058076151	-1.065520E+02	  0.058076151	2.476200E+01	  0.058076151	-3.104800E+01
192	  0.058276553	-6.120000E+00	  0.058276553	-1.078960E+02	  0.058276553	2.440600E+01	  0.058276553	-3.038300E+01
193	  0.058476955	-6.123000E+00	  0.058476955	-1.092390E+02	  0.058476955	2.407600E+01	  0.058476955	-2.971800E+01
194	  0.058677353	-6.122000E+00	  0.058677353	-1.105550E+02	  0.058677353	2.374700E+01	  0.058677353	-2.907900E+01
195	  0.058877755	-6.123000E+00	  0.058877755	-1.118830E+02	  0.058877755	2.343600E+01	  0.058877755	-2.843500E+01
196	  0.059078157	-6.119000E+00	  0.059078157	-1.131800E+02	  0.059078157	2.312700E+01	  0.059078157	-2.781900E+01
197	  0.059278559	-6.121000E+00	  0.059278559	-1.144660E+02	  0.059278559	2.285000E+01	  0.059278559	-2.720300E+01
198	  0.059478957	-6.117000E+00	  0.059478957	-1.157370E+02	  0.059478957	2.256600E+01	  0.059478957	-2.660800E+01
199	  0.059679359	-6.121000E+00	  0.059679359	-1.170150E+02	  0.059679359	2.231400E+01	  0.059679359	-2.600300E+01
200	  0.059879761	-6.116000E+00	  0.059879761	-1.182790E+02	  0.059879761	2.204800E+01	  0.059879761	-2.542100E+01
201	  0.060080159	-6.117000E+00	  0.060080159	-1.194980E+02	  0.060080159	2.181700E+01	  0.060080159	-2.485500E+01
202	  0.060280561	-6.120000E+00	  0.060280561	-1.207470E+02	  0.060280561	2.159400E+01	  0.060280561	-2.427800E+01
203	  0.060480963	-6.119000E+00	  0.060480963	-1.219700E+02	  0.060480963	2.137100E+01	  0.060480963	-2.372000E+01
204	  0.060681365	-6.122000E+00	  0.060681365	-1.231890E+02	  0.060681365	2.116800E+01	  0.060681365	-2.316400E+01
205	  0.060881764	-6.123000E+00	  0.060881764	-1.243860E+02	  0.060881764	2.096900E+01	  0.060881764	-2.262400E+01
206	  0.061082166	-6.123000E+00	  0.061082166	-1.256000E+02	  0.061082166	2.077100E+01	  0.061082166	-2.208100E+01
207	  0.061282568	-6.127000E+00	  0.061282568	-1.268230E+02	  0.061282568	2.059100E+01	  0.061282568	-2.153300E+01
208	  0.061482966	-6.133000E+00	  0.061482966	-1.280020E+02	  0.061482966	2.043000E+01	  0.061482966	-2.100600E+01
209	  0.061683368	-6.137000E+00	  0.061683368	-1.291990E+02	  0.061683368	2.026400E+01	  0.061683368	-2.047600E+01
210	  0.061883770	-6.144000E+00	  0.061883770	-1.303850E+02	  0.061883770	2.011500E+01	  0.061883770	-1.995200E+01
211	  0.062084168	-6.148000E+00	  0.062084168	-1.315570E+02	  0.062084168	1.996500E+01	  0.062084168	-1.944000E+01
212	  0.062284570	-6.152000E+00	  0.062284570	-1.327330E+02	  0.062284570	1.982100E+01	  0.062284570	-1.892900E+01
213	  0.062484972	-6.150000E+00	  0.062484972	-1.339100E+02	  0.062484972	1.966400E+01	  0.062484972	-1.842500E+01
214	  0.062685370	-6.153000E+00	  0.062685370	-1.350940E+02	  0.062685370	1.952300E+01	  0.062685370	-1.791800E+01
215	  0.062885776	-6.160000E+00	  0.062885776	-1.362880E+02	  0.062885776	1.940100E+01	  0.062885776	-1.740500E+01
216	  0.063086174	-6.165000E+00	  0.063086174	-1.374710E+02	  0.063086174	1.927800E+01	  0.063086174	-1.690100E+01
217	  0.063286573	-6.172000E+00	  0.063286573	-1.386570E+02	  0.063286573	1.916400E+01	  0.063286573	-1.639800E+01
218	  0.063486971	-6.178000E+00	  0.063486971	-1.398280E+02	  0.063486971	1.905300E+01	  0.063486971	-1.590400E+01
219	  0.063687377	-6.173000E+00	  0.063687377	-1.409880E+02	  0.063687377	1.892000E+01	  0.063687377	-1.542500E+01
220	  0.063887775	-6.179000E+00	  0.063887775	-1.421440E+02	  0.063887775	1.882100E+01	  0.063887775	-1.494200E+01
221	  0.064088173	-6.180000E+00	  0.064088173	-1.433280E+02	  0.064088173	1.870900E+01	  0.064088173	-1.445300E+01
222	  0.064288579	-6.183000E+00	  0.064288579	-1.445040E+02	  0.064288579	1.860900E+01	  0.064288579	-1.396800E+01
223	  0.064488977	-6.186000E+00	  0.064488977	-1.456690E+02	  0.064488977	1.851400E+01	  0.064488977	-1.348900E+01
224	  0.064689375	-6.189000E+00	  0.064689375	-1.468220E+02	  0.064689375	1.842200E+01	  0.064689375	-1.301800E+01
225	  0.064889781	-6.193000E+00	  0.064889781	-1.480010E+02	  0.064889781	1.833700E+01	  0.064889781	-1.253700E+01
226	  0.065090179	-6.196000E+00	  0.065090179	-1.491180E+02	  0.065090179	1.825600E+01	  0.065090179	-1.208400E+01
227	  0.065290578	-6.194000E+00	  0.065290578	-1.502220E+02	  0.065290578	1.816800E+01	  0.065290578	-1.164000E+01
228	  0.065490983	-6.196000E+00	  0.065490983	-1.513600E+02	  0.065490983	1.809200E+01	  0.065490983	-1.118200E+01
229	  0.065691382	-6.195000E+00	  0.065691382	-1.524680E+02	  0.065691382	1.801200E+01	  0.065691382	-1.073900E+01
230	  0.065891780	-6.199000E+00	  0.065891780	-1.535940E+02	  0.065891780	1.794900E+01	  0.065891780	-1.028700E+01
231	  0.066092186	-6.198000E+00	  0.066092186	-1.546870E+02	  0.066092186	1.787800E+01	  0.066092186	-9.853000E+00
232	  0.066292584	-6.200000E+00	  0.066292584	-1.557740E+02	  0.066292584	1.781600E+01	  0.066292584	-9.421000E+00
233	  0.066492982	-6.202000E+00	  0.066492982	-1.568540E+02	  0.066492982	1.776000E+01	  0.066492982	-8.992000E+00
234	  0.066693388	-6.204000E+00	  0.066693388	-1.579500E+02	  0.066693388	1.770700E+01	  0.066693388	-8.559000E+00
235	  0.066893786	-6.210000E+00	  0.066893786	-1.590070E+02	  0.066893786	1.766800E+01	  0.066893786	-8.140000E+00
236	  0.067094192	-6.210000E+00	  0.067094192	-1.600580E+02	  0.067094192	1.761600E+01	  0.067094192	-7.727000E+00
237	  0.067294590	-6.212000E+00	  0.067294590	-1.610890E+02	  0.067294590	1.757400E+01	  0.067294590	-7.322000E+00
238	  0.067494988	-6.221000E+00	  0.067494988	-1.621680E+02	  0.067494988	1.754900E+01	  0.067494988	-6.897000E+00
239	  0.067695394	-6.219000E+00	  0.067695394	-1.632290E+02	  0.067695394	1.750000E+01	  0.067695394	-6.484000E+00
240	  0.067895792	-6.227000E+00	  0.067895792	-1.642590E+02	  0.067895792	1.748300E+01	  0.067895792	-6.080000E+00
241	  0.068096191	-6.231000E+00	  0.068096191	-1.653060E+02	  0.068096191	1.745500E+01	  0.068096191	-5.672000E+00
242	  0.068296596	-6.232000E+00	  0.068296596	-1.663500E+02	  0.068296596	1.742400E+01	  0.068296596	-5.266000E+00
243	  0.068496995	-6.239000E+00	  0.068496995	-1.673870E+02	  0.068496995	1.740900E+01	  0.068496995	-4.862000E+00
244	  0.068697393	-6.246000E+00	  0.068697393	-1.684140E+02	  0.068697393	1.739700E+01	  0.068697393	-4.463000E+00
245	  0.068897791	-6.248000E+00	  0.068897791	-1.694270E+02	  0.068897791	1.737700E+01	  0.068897791	-4.071000E+00
246	  0.069098189	-6.249000E+00	  0.069098189	-1.704830E+02	  0.069098189	1.735400E+01	  0.069098189	-3.663000E+00
247	  0.069298595	-6.255000E+00	  0.069298595	-1.715040E+02	  0.069298595	1.734800E+01	  0.069298595	-3.268000E+00
248	  0.069498993	-6.256000E+00	  0.069498993	-1.725280E+02	  0.069498993	1.733300E+01	  0.069498993	-2.873000E+00
249	  0.069699399	-6.259000E+00	  0.069699399	-1.735680E+02	  0.069699399	1.732300E+01	  0.069699399	-2.472000E+00
250	  0.069899797	-6.264000E+00	  0.069899797	-1.745710E+02	  0.069899797	1.732200E+01	  0.069899797	-2.086000E+00
251	  0.070100196	-6.262000E+00	  0.070100196	-1.755350E+02	  0.070100196	1.730600E+01	  0.070100196	-1.715000E+00
252	  0.070300601	-6.263000E+00	  0.070300601	-1.765510E+02	  0.070300601	1.729900E+01	  0.070300601	-1.325000E+00
253	  0.070501000	-6.264000E+00	  0.070501000	-1.775360E+02	  0.070501000	1.729400E+01	  0.070501000	-9.460000E-01
254	  0.070701398	-6.263000E+00	  0.070701398	-1.785060E+02	  0.070701398	1.728800E+01	  0.070701398	-5.730000E-01
255	  0.070901804	-6.262000E+00	  0.070901804	-1.794810E+02	  0.070901804	1.728100E+01	  0.070901804	-1.990000E-01
256	  0.071102202	-6.265000E+00	  0.071102202	1.795310E+02	  0.071102202	1.729100E+01	  0.071102202	1.790000E-01
257	  0.071302600	-6.266000E+00	  0.071302600	1.785800E+02	  0.071302600	1.729500E+01	  0.071302600	5.450000E-01
258	  0.071503006	-6.268000E+00	  0.071503006	1.776180E+02	  0.071503006	1.730300E+01	  0.071503006	9.140000E-01
259	  0.071703404	-6.270000E+00	  0.071703404	1.767300E+02	  0.071703404	1.731400E+01	  0.071703404	1.256000E+00
260	  0.071903802	-6.274000E+00	  0.071903802	1.757660E+02	  0.071903802	1.733200E+01	  0.071903802	1.626000E+00
261	  0.072104208	-6.273000E+00	  0.072104208	1.748290E+02	  0.072104208	1.734000E+01	  0.072104208	1.986000E+00
262	  0.072304606	-6.273000E+00	  0.072304606	1.739390E+02	  0.072304606	1.735200E+01	  0.072304606	2.328000E+00
263	  0.072505005	-6.277000E+00	  0.072505005	1.730400E+02	  0.072505005	1.737700E+01	  0.072505005	2.674000E+00
264	  0.072705410	-6.281000E+00	  0.072705410	1.721170E+02	  0.072705410	1.740300E+01	  0.072705410	3.029000E+00
265	  0.072905809	-6.290000E+00	  0.072905809	1.712030E+02	  0.072905809	1.744400E+01	  0.072905809	3.380000E+00
266	  0.073106214	-6.296000E+00	  0.073106214	1.702960E+02	  0.073106214	1.747900E+01	  0.073106214	3.728000E+00
267	  0.073306613	-6.303000E+00	  0.073306613	1.694240E+02	  0.073306613	1.751800E+01	  0.073306613	4.063000E+00
268	  0.073507011	-6.314000E+00	  0.073507011	1.685260E+02	  0.073507011	1.756900E+01	  0.073507011	4.408000E+00
269	  0.073707417	-6.324000E+00	  0.073707417	1.676110E+02	  0.073707417	1.761900E+01	  0.073707417	4.759000E+00
270	  0.073907815	-6.335000E+00	  0.073907815	1.667230E+02	  0.073907815	1.767500E+01	  0.073907815	5.100000E+00
271	  0.074108213	-6.341000E+00	  0.074108213	1.658280E+02	  0.074108213	1.772000E+01	  0.074108213	5.445000E+00
272	  0.074308619	-6.355000E+00	  0.074308619	1.649100E+02	  0.074308619	1.778500E+01	  0.074308619	5.796000E+00
273	  0.074509017	-6.368000E+00	  0.074509017	1.639960E+02	  0.074509017	1.785300E+01	  0.074509017	6.147000E+00
274	  0.074709415	-6.381000E+00	  0.074709415	1.631070E+02	  0.074709415	1.792200E+01	  0.074709415	6.488000E+00
275	  0.074909821	-6.396000E+00	  0.074909821	1.621560E+02	  0.074909821	1.800000E+01	  0.074909821	6.853000E+00
276	  0.075110219	-6.411000E+00	  0.075110219	1.612460E+02	  0.075110219	1.808000E+01	  0.075110219	7.202000E+00
277	  0.075310618	-6.425000E+00	  0.075310618	1.602950E+02	  0.075310618	1.815800E+01	  0.075310618	7.567000E+00
278	  0.075511023	-6.439000E+00	  0.075511023	1.593990E+02	  0.075511023	1.823900E+01	  0.075511023	7.911000E+00
279	  0.075711422	-6.446000E+00	  0.075711422	1.584630E+02	  0.075711422	1.830500E+01	  0.075711422	8.273000E+00
280	  0.075911827	-6.460000E+00	  0.075911827	1.575540E+02	  0.075911827	1.839000E+01	  0.075911827	8.623000E+00
281	  0.076112226	-6.470000E+00	  0.076112226	1.565990E+02	  0.076112226	1.847200E+01	  0.076112226	8.992000E+00
282	  0.076312624	-6.484000E+00	  0.076312624	1.556880E+02	  0.076312624	1.855900E+01	  0.076312624	9.343000E+00
283	  0.076513030	-6.497000E+00	  0.076513030	1.547530E+02	  0.076513030	1.865300E+01	  0.076513030	9.704000E+00
284	  0.076713428	-6.507000E+00	  0.076713428	1.538150E+02	  0.076713428	1.873700E+01	  0.076713428	1.006800E+01
285	  0.076913826	-6.515000E+00	  0.076913826	1.528850E+02	  0.076913826	1.882200E+01	  0.076913826	1.043000E+01
286	  0.077114232	-6.524000E+00	  0.077114232	1.519640E+02	  0.077114232	1.890800E+01	  0.077114232	1.078800E+01
287	  0.077314630	-6.530000E+00	  0.077314630	1.510610E+02	  0.077314630	1.899000E+01	  0.077314630	1.114200E+01
288	  0.077515028	-6.533000E+00	  0.077515028	1.501670E+02	  0.077515028	1.906500E+01	  0.077515028	1.149400E+01
289	  0.077715434	-6.541000E+00	  0.077715434	1.492670E+02	  0.077715434	1.915600E+01	  0.077715434	1.184600E+01
290	  0.077915832	-6.549000E+00	  0.077915832	1.484000E+02	  0.077915832	1.924800E+01	  0.077915832	1.218600E+01
291	  0.078116231	-6.558000E+00	  0.078116231	1.475300E+02	  0.078116231	1.934400E+01	  0.078116231	1.252800E+01
292	  0.078316636	-6.559000E+00	  0.078316636	1.466440E+02	  0.078316636	1.942300E+01	  0.078316636	1.288000E+01
293	  0.078517035	-6.566000E+00	  0.078517035	1.457870E+02	  0.078517035	1.951600E+01	  0.078517035	1.321900E+01
294	  0.078717433	-6.573000E+00	  0.078717433	1.449590E+02	  0.078717433	1.961000E+01	  0.078717433	1.354700E+01
295	  0.078917839	-6.581000E+00	  0.078917839	1.441540E+02	  0.078917839	1.970700E+01	  0.078917839	1.386500E+01
296	  0.079118237	-6.590000E+00	  0.079118237	1.433580E+02	  0.079118237	1.980900E+01	  0.079118237	1.418000E+01
297	  0.079318643	-6.597000E+00	  0.079318643	1.425550E+02	  0.079318643	1.990800E+01	  0.079318643	1.449900E+01
298	  0.079519041	-6.611000E+00	  0.079519041	1.418050E+02	  0.079519041	2.002100E+01	  0.079519041	1.479300E+01
299	  0.079719439	-6.622000E+00	  0.079719439	1.409860E+02	  0.079719439	2.013500E+01	  0.079719439	1.511700E+01
300	  0.079919845	-6.637000E+00	  0.079919845	1.402180E+02	  0.079919845	2.025800E+01	  0.079919845	1.541900E+01
301	  0.080120243	-6.647000E+00	  0.080120243	1.394250E+02	  0.080120243	2.037300E+01	  0.080120243	1.573300E+01
302	  0.080320641	-6.666000E+00	  0.080320641	1.386750E+02	  0.080320641	2.051000E+01	  0.080320641	1.602500E+01
303	  0.080521047	-6.681000E+00	  0.080521047	1.378870E+02	  0.080521047	2.064000E+01	  0.080521047	1.633500E+01
304	  0.080721445	-6.700000E+00	  0.080721445	1.371550E+02	  0.080721445	2.078000E+01	  0.080721445	1.661900E+01
305	  0.080921844	-6.718000E+00	  0.080921844	1.363870E+02	  0.080921844	2.092200E+01	  0.080921844	1.691900E+01
306	  0.081122249	-6.741000E+00	  0.081122249	1.356120E+02	  0.081122249	2.108200E+01	  0.081122249	1.721800E+01
307	  0.081322648	-6.762000E+00	  0.081322648	1.348480E+02	  0.081322648	2.123600E+01	  0.081322648	1.751400E+01
308	  0.081523046	-6.786000E+00	  0.081523046	1.340680E+02	  0.081523046	2.140400E+01	  0.081523046	1.781400E+01
309	  0.081723452	-6.803000E+00	  0.081723452	1.332910E+02	  0.081723452	2.155600E+01	  0.081723452	1.811900E+01
310	  0.081923850	-6.825000E+00	  0.081923850	1.325170E+02	  0.081923850	2.172300E+01	  0.081923850	1.841900E+01
311	  0.082124248	-6.853000E+00	  0.082124248	1.317400E+02	  0.082124248	2.190900E+01	  0.082124248	1.871400E+01
312	  0.082324654	-6.873000E+00	  0.082324654	1.309420E+02	  0.082324654	2.207800E+01	  0.082324654	1.902600E+01
313	  0.082525052	-6.899000E+00	  0.082525052	1.301550E+02	  0.082525052	2.226500E+01	  0.082525052	1.932700E+01
314	  0.082725458	-6.925000E+00	  0.082725458	1.293690E+02	  0.082725458	2.245700E+01	  0.082725458	1.962600E+01
315	  0.082925856	-6.944000E+00	  0.082925856	1.285860E+02	  0.082925856	2.262900E+01	  0.082925856	1.993300E+01
316	  0.083126254	-6.968000E+00	  0.083126254	1.277850E+02	  0.083126254	2.282400E+01	  0.083126254	2.024100E+01
317	  0.083326660	-6.991000E+00	  0.083326660	1.269600E+02	  0.083326660	2.302100E+01	  0.083326660	2.056100E+01
318	  0.083527058	-7.012000E+00	  0.083527058	1.261840E+02	  0.083527058	2.321000E+01	  0.083527058	2.086200E+01
319	  0.083727457	-7.030000E+00	  0.083727457	1.253900E+02	  0.083727457	2.339700E+01	  0.083727457	2.117400E+01
320	  0.083927862	-7.056000E+00	  0.083927862	1.245870E+02	  0.083927862	2.360700E+01	  0.083927862	2.148100E+01
321	  0.084128261	-7.074000E+00	  0.084128261	1.237830E+02	  0.084128261	2.380200E+01	  0.084128261	2.179700E+01
322	  0.084328659	-7.093000E+00	  0.084328659	1.229950E+02	  0.084328659	2.399800E+01	  0.084328659	2.210600E+01
323	  0.084529065	-7.116000E+00	  0.084529065	1.222430E+02	  0.084529065	2.420300E+01	  0.084529065	2.239400E+01
324	  0.084729463	-7.132000E+00	  0.084729463	1.214910E+02	  0.084729463	2.439300E+01	  0.084729463	2.269100E+01
325	  0.084929854	-7.155000E+00	  0.084929854	1.207230E+02	  0.084929854	2.460700E+01	  0.084929854	2.298600E+01
326	  0.085130259	-7.169000E+00	  0.085130259	1.199740E+02	  0.085130259	2.479300E+01	  0.085130259	2.328500E+01
327	  0.085330658	-7.184000E+00	  0.085330658	1.192080E+02	  0.085330658	2.499200E+01	  0.085330658	2.359000E+01
328	  0.085531056	-7.197000E+00	  0.085531056	1.185020E+02	  0.085531056	2.517600E+01	  0.085531056	2.387100E+01
329	  0.085731462	-7.217000E+00	  0.085731462	1.177740E+02	  0.085731462	2.538500E+01	  0.085731462	2.415400E+01
330	  0.085931860	-7.234000E+00	  0.085931860	1.170820E+02	  0.085931860	2.558300E+01	  0.085931860	2.442400E+01
331	  0.086132258	-7.255000E+00	  0.086132258	1.164320E+02	  0.086132258	2.578500E+01	  0.086132258	2.467100E+01
332	  0.086332664	-7.273000E+00	  0.086332664	1.157570E+02	  0.086332664	2.598600E+01	  0.086332664	2.493300E+01
333	  0.086533062	-7.296000E+00	  0.086533062	1.150920E+02	  0.086533062	2.620300E+01	  0.086533062	2.518200E+01
334	  0.086733460	-7.313000E+00	  0.086733460	1.144190E+02	  0.086733460	2.640800E+01	  0.086733460	2.544300E+01
335	  0.086933866	-7.330000E+00	  0.086933866	1.138080E+02	  0.086933866	2.659900E+01	  0.086933866	2.567900E+01
336	  0.087134264	-7.353000E+00	  0.087134264	1.131250E+02	  0.087134264	2.682900E+01	  0.087134264	2.593400E+01
337	  0.087334670	-7.379000E+00	  0.087334670	1.125150E+02	  0.087334670	2.705400E+01	  0.087334670	2.615200E+01
338	  0.087535068	-7.400000E+00	  0.087535068	1.118600E+02	  0.087535068	2.727600E+01	  0.087535068	2.639800E+01
339	  0.087735467	-7.436000E+00	  0.087735467	1.112340E+02	  0.087735467	2.753400E+01	  0.087735467	2.660700E+01
340	  0.087935872	-7.461000E+00	  0.087935872	1.106300E+02	  0.087935872	2.776200E+01	  0.087935872	2.682200E+01
341	  0.088136271	-7.484000E+00	  0.088136271	1.099970E+02	  0.088136271	2.799200E+01	  0.088136271	2.705300E+01
342	  0.088336669	-7.515000E+00	  0.088336669	1.093530E+02	  0.088336669	2.825100E+01	  0.088336669	2.727400E+01
343	  0.088537075	-7.541000E+00	  0.088537075	1.087200E+02	  0.088537075	2.849600E+01	  0.088537075	2.749700E+01
344	  0.088737473	-7.567000E+00	  0.088737473	1.081170E+02	  0.088737473	2.873600E+01	  0.088737473	2.770600E+01
345	  0.088937871	-7.590000E+00	  0.088937871	1.074420E+02	  0.088937871	2.899100E+01	  0.088937871	2.795100E+01
346	  0.089138277	-7.621000E+00	  0.089138277	1.068440E+02	  0.089138277	2.924900E+01	  0.089138277	2.814700E+01
347	  0.089338675	-7.651000E+00	  0.089338675	1.061980E+02	  0.089338675	2.951900E+01	  0.089338675	2.836500E+01
348	  0.089539073	-7.685000E+00	  0.089539073	1.055880E+02	  0.089539073	2.979400E+01	  0.089539073	2.855700E+01
349	  0.089739479	-7.718000E+00	  0.089739479	1.049740E+02	  0.089739479	3.007000E+01	  0.089739479	2.875200E+01
350	  0.089939877	-7.742000E+00	  0.089939877	1.043260E+02	  0.089939877	3.033500E+01	  0.089939877	2.897700E+01
351	  0.090140276	-7.776000E+00	  0.090140276	1.037020E+02	  0.090140276	3.062200E+01	  0.090140276	2.917100E+01
352	  0.090340681	-7.795000E+00	  0.090340681	1.030890E+02	  0.090340681	3.086600E+01	  0.090340681	2.939100E+01
353	  0.090541080	-7.828000E+00	  0.090541080	1.024660E+02	  0.090541080	3.115600E+01	  0.090541080	2.958400E+01
354	  0.090741485	-7.852000E+00	  0.090741485	1.018280E+02	  0.090741485	3.143000E+01	  0.090741485	2.980000E+01
355	  0.090941884	-7.875000E+00	  0.090941884	1.012050E+02	  0.090941884	3.170000E+01	  0.090941884	3.000900E+01
356	  0.091142282	-7.905000E+00	  0.091142282	1.005990E+02	  0.091142282	3.198500E+01	  0.091142282	3.019600E+01
357	  0.091342688	-7.933000E+00	  0.091342688	9.997800E+01	  0.091342688	3.227100E+01	  0.091342688	3.039400E+01
358	  0.091543086	-7.959000E+00	  0.091543086	9.938800E+01	  0.091543086	3.254700E+01	  0.091543086	3.057800E+01
359	  0.091743484	-7.979000E+00	  0.091743484	9.876500E+01	  0.091743484	3.281900E+01	  0.091743484	3.079100E+01
360	  0.091943890	-8.004000E+00	  0.091943890	9.819100E+01	  0.091943890	3.309200E+01	  0.091943890	3.096800E+01
361	  0.092144288	-8.024000E+00	  0.092144288	9.758400E+01	  0.092144288	3.336500E+01	  0.092144288	3.117100E+01
362	  0.092344686	-8.042000E+00	  0.092344686	9.701100E+01	  0.092344686	3.362200E+01	  0.092344686	3.136500E+01
363	  0.092545092	-8.059000E+00	  0.092545092	9.645300E+01	  0.092545092	3.387600E+01	  0.092545092	3.155100E+01
364	  0.092745490	-8.087000E+00	  0.092745490	9.592200E+01	  0.092745490	3.415100E+01	  0.092745490	3.169900E+01
365	  0.092945889	-8.104000E+00	  0.092945889	9.535400E+01	  0.092945889	3.441400E+01	  0.092945889	3.188600E+01
366	  0.093146294	-8.133000E+00	  0.093146294	9.488900E+01	  0.093146294	3.466800E+01	  0.093146294	3.200400E+01
367	  0.093346693	-8.148000E+00	  0.093346693	9.433000E+01	  0.093346693	3.492800E+01	  0.093346693	3.219100E+01
368	  0.093547091	-8.163000E+00	  0.093547091	9.381300E+01	  0.093547091	3.517300E+01	  0.093547091	3.236000E+01
369	  0.093747497	-8.187000E+00	  0.093747497	9.333700E+01	  0.093747497	3.542500E+01	  0.093747497	3.248900E+01
370	  0.093947895	-8.205000E+00	  0.093947895	9.280300E+01	  0.093947895	3.569000E+01	  0.093947895	3.265300E+01
371	  0.094148301	-8.229000E+00	  0.094148301	9.233400E+01	  0.094148301	3.594300E+01	  0.094148301	3.277800E+01
372	  0.094348699	-8.244000E+00	  0.094348699	9.188800E+01	  0.094348699	3.616700E+01	  0.094348699	3.291500E+01
373	  0.094549097	-8.270000E+00	  0.094549097	9.139700E+01	  0.094549097	3.644100E+01	  0.094549097	3.303600E+01
374	  0.094749503	-8.288000E+00	  0.094749503	9.094100E+01	  0.094749503	3.668000E+01	  0.094749503	3.316600E+01
375	  0.094949901	-8.314000E+00	  0.094949901	9.050400E+01	  0.094949901	3.693300E+01	  0.094949901	3.326500E+01
376	  0.095150299	-8.330000E+00	  0.095150299	9.002800E+01	  0.095150299	3.718200E+01	  0.095150299	3.340300E+01
377	  0.095350705	-8.351000E+00	  0.095350705	8.959300E+01	  0.095350705	3.742400E+01	  0.095350705	3.351400E+01
378	  0.095551103	-8.368000E+00	  0.095551103	8.914800E+01	  0.095551103	3.766200E+01	  0.095551103	3.363700E+01
379	  0.095751502	-8.387000E+00	  0.095751502	8.866800E+01	  0.095751502	3.792400E+01	  0.095751502	3.376600E+01
380	  0.095951907	-8.402000E+00	  0.095951907	8.820200E+01	  0.095951907	3.817200E+01	  0.095951907	3.390000E+01
381	  0.096152306	-8.425000E+00	  0.096152306	8.778400E+01	  0.096152306	3.842000E+01	  0.096152306	3.399100E+01
382	  0.096352704	-8.441000E+00	  0.096352704	8.731900E+01	  0.096352704	3.867200E+01	  0.096352704	3.412000E+01
383	  0.096553110	-8.454000E+00	  0.096553110	8.688400E+01	  0.096553110	3.890500E+01	  0.096553110	3.424500E+01
384	  0.096753508	-8.468000E+00	  0.096753508	8.646600E+01	  0.096753508	3.913600E+01	  0.096753508	3.435800E+01
385	  0.096953906	-8.482000E+00	  0.096953906	8.600700E+01	  0.096953906	3.938700E+01	  0.096953906	3.448600E+01
386	  0.097154312	-8.493000E+00	  0.097154312	8.560400E+01	  0.097154312	3.960700E+01	  0.097154312	3.460000E+01
387	  0.097354710	-8.504000E+00	  0.097354710	8.516100E+01	  0.097354710	3.984800E+01	  0.097354710	3.472900E+01
388	  0.097555116	-8.517000E+00	  0.097555116	8.474300E+01	  0.097555116	4.008000E+01	  0.097555116	3.484300E+01
389	  0.097755514	-8.522000E+00	  0.097755514	8.430600E+01	  0.097755514	4.030600E+01	  0.097755514	3.498800E+01
390	  0.097955912	-8.534000E+00	  0.097955912	8.391500E+01	  0.097955912	4.052900E+01	  0.097955912	3.509100E+01
391	  0.098156318	-8.540000E+00	  0.098156318	8.350800E+01	  0.098156318	4.074600E+01	  0.098156318	3.522000E+01
392	  0.098356716	-8.549000E+00	  0.098356716	8.308300E+01	  0.098356716	4.098100E+01	  0.098356716	3.534400E+01
393	  0.098557115	-8.550000E+00	  0.098557115	8.266300E+01	  0.098557115	4.119900E+01	  0.098557115	3.548900E+01
394	  0.098757520	-8.554000E+00	  0.098757520	8.226600E+01	  0.098757520	4.141000E+01	  0.098757520	3.562100E+01
395	  0.098957919	-8.562000E+00	  0.098957919	8.186000E+01	  0.098957919	4.163900E+01	  0.098957919	3.573900E+01
396	  0.099158317	-8.559000E+00	  0.099158317	8.143500E+01	  0.099158317	4.185500E+01	  0.099158317	3.590000E+01
397	  0.099358723	-8.561000E+00	  0.099358723	8.104200E+01	  0.099358723	4.206500E+01	  0.099358723	3.603300E+01
398	  0.099559121	-8.563000E+00	  0.099559121	8.061600E+01	  0.099559121	4.229800E+01	  0.099559121	3.617500E+01
399	  0.099759519	-8.565000E+00	  0.099759519	8.025300E+01	  0.099759519	4.249700E+01	  0.099759519	3.629600E+01
400	  0.099959925	-8.559000E+00	  0.099959925	7.987400E+01	  0.099959925	4.268900E+01	  0.099959925	3.644900E+01
401	  0.100160323	-8.558000E+00	  0.100160323	7.945700E+01	  0.100160323	4.291200E+01	  0.100160323	3.660100E+01
402	  0.100360721	-8.560000E+00	  0.100360721	7.905800E+01	  0.100360721	4.313700E+01	  0.100360721	3.673200E+01
403	  0.100561127	-8.560000E+00	  0.100561127	7.862100E+01	  0.100561127	4.338100E+01	  0.100561127	3.688200E+01
404	  0.100761525	-8.560000E+00	  0.100761525	7.818400E+01	  0.100761525	4.362700E+01	  0.100761525	3.703100E+01
405	  0.100961931	-8.566000E+00	  0.100961931	7.782300E+01	  0.100961931	4.384400E+01	  0.100961931	3.713300E+01
406	  0.101162329	-8.556000E+00	  0.101162329	7.737300E+01	  0.101162329	4.407800E+01	  0.101162329	3.732600E+01
407	  0.101362728	-8.561000E+00	  0.101362728	7.696000E+01	  0.101362728	4.432800E+01	  0.101362728	3.744500E+01
408	  0.101563133	-8.558000E+00	  0.101563133	7.655100E+01	  0.101563133	4.455800E+01	  0.101563133	3.759700E+01
409	  0.101763532	-8.562000E+00	  0.101763532	7.606600E+01	  0.101763532	4.485300E+01	  0.101763532	3.774300E+01
410	  0.101963930	-8.558000E+00	  0.101963930	7.561400E+01	  0.101963930	4.511300E+01	  0.101963930	3.790900E+01
411	  0.102164328	-8.557000E+00	  0.102164328	7.511300E+01	  0.102164328	4.541100E+01	  0.102164328	3.807800E+01
412	  0.102364726	-8.553000E+00	  0.102364726	7.464500E+01	  0.102364726	4.568600E+01	  0.102364726	3.825000E+01
413	  0.102565125	-8.553000E+00	  0.102565125	7.420200E+01	  0.102565125	4.595900E+01	  0.102565125	3.839200E+01
414	  0.102765530	-8.544000E+00	  0.102765530	7.365500E+01	  0.102765530	4.627700E+01	  0.102765530	3.860900E+01
415	  0.102965929	-8.550000E+00	  0.102965929	7.319900E+01	  0.102965929	4.657600E+01	  0.102965929	3.872800E+01
416	  0.103166327	-8.545000E+00	  0.103166327	7.268100E+01	  0.103166327	4.689300E+01	  0.103166327	3.891500E+01
417	  0.103366733	-8.533000E+00	  0.103366733	7.214000E+01	  0.103366733	4.721500E+01	  0.103366733	3.913700E+01
418	  0.103567131	-8.535000E+00	  0.103567131	7.159200E+01	  0.103567131	4.757400E+01	  0.103567131	3.930000E+01
419	  0.103767529	-8.527000E+00	  0.103767529	7.110200E+01	  0.103767529	4.788100E+01	  0.103767529	3.948400E+01
420	  0.103967935	-8.530000E+00	  0.103967935	7.049700E+01	  0.103967935	4.828900E+01	  0.103967935	3.965600E+01
421	  0.104168333	-8.510000E+00	  0.104168333	6.997400E+01	  0.104168333	4.860000E+01	  0.104168333	3.990600E+01
422	  0.104368731	-8.510000E+00	  0.104368731	6.941400E+01	  0.104368731	4.898200E+01	  0.104368731	4.007300E+01
423	  0.104569137	-8.499000E+00	  0.104569137	6.891000E+01	  0.104569137	4.930800E+01	  0.104569137	4.027100E+01
424	  0.104769535	-8.494000E+00	  0.104769535	6.834500E+01	  0.104769535	4.969100E+01	  0.104769535	4.046200E+01
425	  0.104969934	-8.480000E+00	  0.104969934	6.779700E+01	  0.104969934	5.005300E+01	  0.104969934	4.068300E+01
426	  0.105170339	-8.468000E+00	  0.105170339	6.725400E+01	  0.105170339	5.041700E+01	  0.105170339	4.089700E+01
427	  0.105370738	-8.457000E+00	  0.105370738	6.677200E+01	  0.105370738	5.074600E+01	  0.105370738	4.108700E+01
428	  0.105571143	-8.448000E+00	  0.105571143	6.622000E+01	  0.105571143	5.113400E+01	  0.105571143	4.128300E+01
429	  0.105771542	-8.431000E+00	  0.105771542	6.566500E+01	  0.105771542	5.151500E+01	  0.105771542	4.152000E+01
430	  0.105971940	-8.418000E+00	  0.105971940	6.517000E+01	  0.105971940	5.186300E+01	  0.105971940	4.171900E+01
431	  0.106172346	-8.399000E+00	  0.106172346	6.454500E+01	  0.106172346	5.230600E+01	  0.106172346	4.198000E+01
432	  0.106372744	-8.394000E+00	  0.106372744	6.401500E+01	  0.106372744	5.270500E+01	  0.106372744	4.214600E+01
433	  0.106573142	-8.379000E+00	  0.106573142	6.351000E+01	  0.106573142	5.307200E+01	  0.106573142	4.235800E+01
434	  0.106773548	-8.366000E+00	  0.106773548	6.290100E+01	  0.106773548	5.353300E+01	  0.106773548	4.257800E+01
435	  0.106973946	-8.348000E+00	  0.106973946	6.237000E+01	  0.106973946	5.392800E+01	  0.106973946	4.280700E+01
436	  0.107174344	-8.335000E+00	  0.107174344	6.184400E+01	  0.107174344	5.433400E+01	  0.107174344	4.300400E+01
437	  0.107374750	-8.320000E+00	  0.107374750	6.127500E+01	  0.107374750	5.477700E+01	  0.107374750	4.322500E+01
438	  0.107575148	-8.301000E+00	  0.107575148	6.068700E+01	  0.107575148	5.523700E+01	  0.107575148	4.346500E+01
439	  0.107775547	-8.291000E+00	  0.107775547	6.013700E+01	  0.107775547	5.568400E+01	  0.107775547	4.365300E+01
440	  0.107975952	-8.263000E+00	  0.107975952	5.955900E+01	  0.107975952	5.613700E+01	  0.107975952	4.394000E+01
441	  0.108176351	-8.259000E+00	  0.108176351	5.901200E+01	  0.108176351	5.660400E+01	  0.108176351	4.408300E+01
442	  0.108376749	-8.243000E+00	  0.108376749	5.842900E+01	  0.108376749	5.709400E+01	  0.108376749	4.430000E+01
443	  0.108577155	-8.230000E+00	  0.108577155	5.777600E+01	  0.108577155	5.765700E+01	  0.108577155	4.450900E+01
444	  0.108777553	-8.218000E+00	  0.108777553	5.720400E+01	  0.108777553	5.815600E+01	  0.108777553	4.469600E+01
445	  0.108977959	-8.204000E+00	  0.108977959	5.658000E+01	  0.108977959	5.871000E+01	  0.108977959	4.489400E+01
446	  0.109178357	-8.190000E+00	  0.109178357	5.593000E+01	  0.109178357	5.929500E+01	  0.109178357	4.510300E+01
447	  0.109378755	-8.183000E+00	  0.109378755	5.531400E+01	  0.109378755	5.986600E+01	  0.109378755	4.524900E+01
448	  0.109579161	-8.165000E+00	  0.109579161	5.467600E+01	  0.109579161	6.045400E+01	  0.109579161	4.546900E+01
449	  0.109779559	-8.148000E+00	  0.109779559	5.399800E+01	  0.109779559	6.109200E+01	  0.109779559	4.568200E+01
450	  0.109979957	-8.146000E+00	  0.109979957	5.332100E+01	  0.109979957	6.175500E+01	  0.109979957	4.578900E+01
451	  0.110180363	-8.125000E+00	  0.110180363	5.269300E+01	  0.110180363	6.236100E+01	  0.110180363	4.600900E+01
452	  0.110380761	-8.111000E+00	  0.110380761	5.198000E+01	  0.110380761	6.307000E+01	  0.110380761	4.618800E+01
453	  0.110581160	-8.100000E+00	  0.110581160	5.127800E+01	  0.110581160	6.377900E+01	  0.110581160	4.634400E+01
454	  0.110781565	-8.083000E+00	  0.110781565	5.062800E+01	  0.110781565	6.444500E+01	  0.110781565	4.651900E+01
455	  0.110981964	-8.080000E+00	  0.110981964	4.989300E+01	  0.110981964	6.521800E+01	  0.110981964	4.660000E+01
456	  0.111182362	-8.074000E+00	  0.111182362	4.917000E+01	  0.111182362	6.598700E+01	  0.111182362	4.669100E+01
457	  0.111382768	-8.060000E+00	  0.111382768	4.850400E+01	  0.111382768	6.670400E+01	  0.111382768	4.681900E+01
458	  0.111583166	-8.043000E+00	  0.111583166	4.775100E+01	  0.111583166	6.752800E+01	  0.111583166	4.697200E+01
459	  0.111783572	-8.039000E+00	  0.111783572	4.700600E+01	  0.111783572	6.835700E+01	  0.111783572	4.701500E+01
460	  0.111983970	-8.036000E+00	  0.111983970	4.629400E+01	  0.111983970	6.916100E+01	  0.111983970	4.703200E+01
461	  0.112184368	-8.025000E+00	  0.112184368	4.550400E+01	  0.112184368	7.006600E+01	  0.112184368	4.709400E+01
462	  0.112384774	-8.021000E+00	  0.112384774	4.477000E+01	  0.112384774	7.091800E+01	  0.112384774	4.709600E+01
463	  0.112585172	-8.016000E+00	  0.112585172	4.403300E+01	  0.112585172	7.178400E+01	  0.112585172	4.708900E+01
464	  0.112785570	-8.011000E+00	  0.112785570	4.321900E+01	  0.112785570	7.275400E+01	  0.112785570	4.705700E+01
465	  0.112985976	-8.008000E+00	  0.112985976	4.244600E+01	  0.112985976	7.368500E+01	  0.112985976	4.699300E+01
466	  0.113186374	-8.008000E+00	  0.113186374	4.167000E+01	  0.113186374	7.462800E+01	  0.113186374	4.688200E+01
467	  0.113386773	-8.017000E+00	  0.113386773	4.088500E+01	  0.113386773	7.558200E+01	  0.113386773	4.668300E+01
468	  0.113587178	-8.017000E+00	  0.113587178	4.006800E+01	  0.113587178	7.659200E+01	  0.113587178	4.651600E+01
469	  0.113787577	-8.020000E+00	  0.113787577	3.925400E+01	  0.113787577	7.760500E+01	  0.113787577	4.631300E+01
470	  0.113987975	-8.024000E+00	  0.113987975	3.841600E+01	  0.113987975	7.865500E+01	  0.113987975	4.606600E+01
471	  0.114188381	-8.031000E+00	  0.114188381	3.755100E+01	  0.114188381	7.973900E+01	  0.114188381	4.575800E+01
472	  0.114388779	-8.038000E+00	  0.114388779	3.671400E+01	  0.114388779	8.079200E+01	  0.114388779	4.541900E+01
473	  0.114589177	-8.051000E+00	  0.114589177	3.581700E+01	  0.114589177	8.191300E+01	  0.114589177	4.498900E+01
474	  0.114789583	-8.062000E+00	  0.114789583	3.498000E+01	  0.114789583	8.296300E+01	  0.114789583	4.456100E+01
475	  0.114989981	-8.070000E+00	  0.114989981	3.409600E+01	  0.114989981	8.408200E+01	  0.114989981	4.410400E+01
476	  0.115190387	-8.082000E+00	  0.115190387	3.314500E+01	  0.115190387	8.527600E+01	  0.115190387	4.354400E+01
477	  0.115390785	-8.095000E+00	  0.115390785	3.219900E+01	  0.115390785	8.645700E+01	  0.115390785	4.294000E+01
478	  0.115591183	-8.119000E+00	  0.115591183	3.124400E+01	  0.115591183	8.760300E+01	  0.115591183	4.218900E+01
479	  0.115791589	-8.130000E+00	  0.115791589	3.031700E+01	  0.115791589	8.875200E+01	  0.115791589	4.152800E+01
480	  0.115991987	-8.148000E+00	  0.115991987	2.935200E+01	  0.115991987	8.990900E+01	  0.115991987	4.073200E+01
481	  0.116192386	-8.168000E+00	  0.116192386	2.836500E+01	  0.116192386	9.107400E+01	  0.116192386	3.986600E+01
482	  0.116392791	-8.190000E+00	  0.116392791	2.737400E+01	  0.116392791	9.221400E+01	  0.116392791	3.893500E+01
483	  0.116593190	-8.211000E+00	  0.116593190	2.636100E+01	  0.116593190	9.336100E+01	  0.116593190	3.793900E+01
484	  0.116793588	-8.234000E+00	  0.116793588	2.533400E+01	  0.116793588	9.449000E+01	  0.116793588	3.687000E+01
485	  0.116993994	-8.260000E+00	  0.116993994	2.430500E+01	  0.116993994	9.557300E+01	  0.116993994	3.572700E+01
486	  0.117194392	-8.289000E+00	  0.117194392	2.322200E+01	  0.117194392	9.666700E+01	  0.117194392	3.446300E+01
487	  0.117394790	-8.312000E+00	  0.117394790	2.216500E+01	  0.117394790	9.772600E+01	  0.117394790	3.321900E+01
488	  0.117595196	-8.346000E+00	  0.117595196	2.113800E+01	  0.117595196	9.863100E+01	  0.117595196	3.187500E+01
489	  0.117795594	-8.375000E+00	  0.117795594	2.004300E+01	  0.117795594	9.960200E+01	  0.117795594	3.045500E+01
490	  0.117995992	-8.408000E+00	  0.117995992	1.896700E+01	  0.117995992	1.004700E+02	  0.117995992	2.898900E+01
491	  0.118196398	-8.444000E+00	  0.118196398	1.785900E+01	  0.118196398	1.012850E+02	  0.118196398	2.742100E+01
492	  0.118396796	-8.489000E+00	  0.118396796	1.677900E+01	  0.118396796	1.019380E+02	  0.118396796	2.580200E+01
