! Anritsu VNA Master:             	Model: MS2036C/10/77
! SN:             	1601066
! /bd0/18may12.cable.cal/bot.20.txt
! Existing Calibration Information:
! TYPE:             	Current Settings	Active Cal Settings
! TIME:             	05/12/2018 01:46:13 PM	05/12/2018 01:41:40 PM
! INTERNAL TEMP:    	49.0 C	49.0 C
! # POINTS:         	500	500
! START FREQ:       	20.000 MHz	20.000 MHz
! STOP FREQ:        	120.000 MHz	120.000 MHz
! SOURCE POWER:     	High	High
! IFBW:             	50 Hz	50 Hz
! AVG FACTOR:       	  1 	  1 
! REF PLANE 1:      	0 mm	0 mm
! REF PLANE 2:      	0 mm	0 mm
! CAL TYPE:         	Full S22	Full S22
! CAL METHOD:       	SOLT	SOLT
! CAL LINE TYPE:    	Coax	Coax
! DUT PORT 1:       	K-Conn(M)	K-Conn(M)
! DUT PORT 2:       	K-Conn(M)	K-Conn(M)
! CAL STATUS:       	OK: Accuracy High	--
! PROP-V:       	0.700
! CABLE LOSS:       	0.000 dB/m
! REF IMPEDANCE:       	50.0
! Trace Specific Parameters:	TR1	TR2	TR3	TR4
! TRACE.#.Y (GRAPH TYPE)	LOG MAG	PHASE	REAL IMPEDANCE	IMAGINARY IMPEDANCE
! TRACE.#.X 	FREQ.GHZ	FREQ.GHZ	FREQ.GHZ	FREQ.GHZ
! S-PARAMETER	S22	S22	S22	S22
! SMOOTH/APERTURE %	0	0	0	0
! WINDOW	NSL	NSL	NSL	NSL
! GATING	OFF	OFF	OFF	OFF
! FGTD	OFF	OFF	OFF	OFF
Marker Information per Trace:	TR1	TR2	TR3	TR4
!MK1	--	"MK1 TR2:  12.184 368 MHz,##.##"	--	--
!MK2	--	--	"MK2 TR3:  12.184 368 MHz,##.##"	--
!MK3	--	--	--	--
!MK4	--	--	--	--
!MK5	--	--	--	--
!MK6	--	--	--	--
!MK7	--	--	--	--
!MK8	--	--	--	--
PNT	TR1.FREQ.GHZ	TR1.LOG MAG.dB	TR2.FREQ.GHZ	TR2.PHASE.deg	TR3.FREQ.GHZ	TR3.REAL IMPEDANCE.ohm	TR4.FREQ.GHZ	TR4.IMAGINARY IMPEDANCE.ohm
1	  0.020000000	-7.253000E+00	  0.020000000	1.546570E+02	  0.020000000	2.057900E+01	  0.020000000	9.414000E+00
2	  0.020200402	-7.254000E+00	  0.020200402	1.544130E+02	  0.020200402	2.059900E+01	  0.020200402	9.506000E+00
3	  0.020400802	-7.254000E+00	  0.020400802	1.541710E+02	  0.020400802	2.061400E+01	  0.020400802	9.598000E+00
4	  0.020601204	-7.253000E+00	  0.020601204	1.539160E+02	  0.020601204	2.062900E+01	  0.020601204	9.694000E+00
5	  0.020801604	-7.253000E+00	  0.020801604	1.536690E+02	  0.020801604	2.064700E+01	  0.020801604	9.788000E+00
6	  0.021002004	-7.253000E+00	  0.021002004	1.534150E+02	  0.021002004	2.066500E+01	  0.021002004	9.884000E+00
7	  0.021202406	-7.254000E+00	  0.021202406	1.531780E+02	  0.021202406	2.068400E+01	  0.021202406	9.973000E+00
8	  0.021402806	-7.253000E+00	  0.021402806	1.529260E+02	  0.021402806	2.070000E+01	  0.021402806	1.007000E+01
9	  0.021603208	-7.254000E+00	  0.021603208	1.526640E+02	  0.021603208	2.072200E+01	  0.021603208	1.016800E+01
10	  0.021803608	-7.255000E+00	  0.021803608	1.524230E+02	  0.021803608	2.074300E+01	  0.021803608	1.025900E+01
11	  0.022004008	-7.257000E+00	  0.022004008	1.521660E+02	  0.022004008	2.076500E+01	  0.022004008	1.035600E+01
12	  0.022204408	-7.258000E+00	  0.022204408	1.519170E+02	  0.022204408	2.078700E+01	  0.022204408	1.045000E+01
13	  0.022404809	-7.256000E+00	  0.022404809	1.516770E+02	  0.022404809	2.080000E+01	  0.022404809	1.054200E+01
14	  0.022605211	-7.255000E+00	  0.022605211	1.514210E+02	  0.022605211	2.081700E+01	  0.022605211	1.064100E+01
15	  0.022805611	-7.256000E+00	  0.022805611	1.511750E+02	  0.022805611	2.083900E+01	  0.022805611	1.073300E+01
16	  0.023006011	-7.256000E+00	  0.023006011	1.509270E+02	  0.023006011	2.085800E+01	  0.023006011	1.082800E+01
17	  0.023206413	-7.255000E+00	  0.023206413	1.506670E+02	  0.023206413	2.087600E+01	  0.023206413	1.092700E+01
18	  0.023406813	-7.256000E+00	  0.023406813	1.504230E+02	  0.023406813	2.090000E+01	  0.023406813	1.101900E+01
19	  0.023607215	-7.257000E+00	  0.023607215	1.501840E+02	  0.023607215	2.092100E+01	  0.023607215	1.111000E+01
20	  0.023807615	-7.258000E+00	  0.023807615	1.499340E+02	  0.023807615	2.094300E+01	  0.023807615	1.120500E+01
21	  0.024008015	-7.256000E+00	  0.024008015	1.496890E+02	  0.024008015	2.095800E+01	  0.024008015	1.130000E+01
22	  0.024208417	-7.256000E+00	  0.024208417	1.494380E+02	  0.024208417	2.098000E+01	  0.024208417	1.139600E+01
23	  0.024408817	-7.259000E+00	  0.024408817	1.491880E+02	  0.024408817	2.100900E+01	  0.024408817	1.148900E+01
24	  0.024609219	-7.258000E+00	  0.024609219	1.489380E+02	  0.024609219	2.102700E+01	  0.024609219	1.158600E+01
25	  0.024809619	-7.260000E+00	  0.024809619	1.486930E+02	  0.024809619	2.105200E+01	  0.024809619	1.167900E+01
26	  0.025010020	-7.258000E+00	  0.025010020	1.484360E+02	  0.025010020	2.106900E+01	  0.025010020	1.177800E+01
27	  0.025210422	-7.260000E+00	  0.025210422	1.481980E+02	  0.025210422	2.109500E+01	  0.025210422	1.186800E+01
28	  0.025410822	-7.260000E+00	  0.025410822	1.479400E+02	  0.025410822	2.111900E+01	  0.025410822	1.196700E+01
29	  0.025611224	-7.263000E+00	  0.025611224	1.476940E+02	  0.025611224	2.114800E+01	  0.025611224	1.206000E+01
30	  0.025811624	-7.263000E+00	  0.025811624	1.474390E+02	  0.025811624	2.117100E+01	  0.025811624	1.215700E+01
31	  0.026012026	-7.263000E+00	  0.026012026	1.471940E+02	  0.026012026	2.119100E+01	  0.026012026	1.225200E+01
32	  0.026212426	-7.265000E+00	  0.026212426	1.469610E+02	  0.026212426	2.121800E+01	  0.026212426	1.234000E+01
33	  0.026412826	-7.264000E+00	  0.026412826	1.467060E+02	  0.026412826	2.124100E+01	  0.026412826	1.243800E+01
34	  0.026613226	-7.264000E+00	  0.026613226	1.464440E+02	  0.026613226	2.126300E+01	  0.026613226	1.254000E+01
35	  0.026813626	-7.264000E+00	  0.026813626	1.461990E+02	  0.026813626	2.128700E+01	  0.026813626	1.263400E+01
36	  0.027014028	-7.264000E+00	  0.027014028	1.459540E+02	  0.027014028	2.131100E+01	  0.027014028	1.272800E+01
37	  0.027214428	-7.262000E+00	  0.027214428	1.457080E+02	  0.027214428	2.133000E+01	  0.027214428	1.282400E+01
38	  0.027414829	-7.266000E+00	  0.027414829	1.454500E+02	  0.027414829	2.136400E+01	  0.027414829	1.292100E+01
39	  0.027615231	-7.266000E+00	  0.027615231	1.452170E+02	  0.027615231	2.138700E+01	  0.027615231	1.301100E+01
40	  0.027815631	-7.265000E+00	  0.027815631	1.449600E+02	  0.027815631	2.140900E+01	  0.027815631	1.311100E+01
41	  0.028016033	-7.266000E+00	  0.028016033	1.447170E+02	  0.028016033	2.143400E+01	  0.028016033	1.320400E+01
42	  0.028216433	-7.264000E+00	  0.028216433	1.444640E+02	  0.028216433	2.145600E+01	  0.028216433	1.330300E+01
43	  0.028416833	-7.267000E+00	  0.028416833	1.442180E+02	  0.028416833	2.148600E+01	  0.028416833	1.339700E+01
44	  0.028617235	-7.268000E+00	  0.028617235	1.439650E+02	  0.028617235	2.151400E+01	  0.028617235	1.349400E+01
45	  0.028817635	-7.268000E+00	  0.028817635	1.437210E+02	  0.028817635	2.153900E+01	  0.028817635	1.358800E+01
46	  0.029018037	-7.265000E+00	  0.029018037	1.434670E+02	  0.029018037	2.155900E+01	  0.029018037	1.368900E+01
47	  0.029218437	-7.266000E+00	  0.029218437	1.432240E+02	  0.029218437	2.158600E+01	  0.029218437	1.378300E+01
48	  0.029418837	-7.268000E+00	  0.029418837	1.429740E+02	  0.029418837	2.161600E+01	  0.029418837	1.387800E+01
49	  0.029619239	-7.267000E+00	  0.029619239	1.427150E+02	  0.029619239	2.164200E+01	  0.029619239	1.398000E+01
50	  0.029819639	-7.267000E+00	  0.029819639	1.424720E+02	  0.029819639	2.166700E+01	  0.029819639	1.407400E+01
51	  0.030020041	-7.267000E+00	  0.030020041	1.422270E+02	  0.030020041	2.169400E+01	  0.030020041	1.416900E+01
52	  0.030220442	-7.266000E+00	  0.030220442	1.419780E+02	  0.030220442	2.171700E+01	  0.030220442	1.426700E+01
53	  0.030420844	-7.267000E+00	  0.030420844	1.417180E+02	  0.030420844	2.174900E+01	  0.030420844	1.436800E+01
54	  0.030621244	-7.266000E+00	  0.030621244	1.414750E+02	  0.030621244	2.177400E+01	  0.030621244	1.446300E+01
55	  0.030821644	-7.267000E+00	  0.030821644	1.412130E+02	  0.030821644	2.180400E+01	  0.030821644	1.456500E+01
56	  0.031022044	-7.267000E+00	  0.031022044	1.409690E+02	  0.031022044	2.183100E+01	  0.031022044	1.466000E+01
57	  0.031222444	-7.251000E+00	  0.031222444	1.407990E+02	  0.031222444	2.181000E+01	  0.031222444	1.473800E+01
58	  0.031422846	-7.250000E+00	  0.031422846	1.405600E+02	  0.031422846	2.183500E+01	  0.031422846	1.483200E+01
59	  0.031623244	-7.253000E+00	  0.031623244	1.403170E+02	  0.031623244	2.187000E+01	  0.031623244	1.492500E+01
60	  0.031823646	-7.251000E+00	  0.031823646	1.400690E+02	  0.031823646	2.189200E+01	  0.031823646	1.502400E+01
61	  0.032024048	-7.254000E+00	  0.032024048	1.398090E+02	  0.032024048	2.192900E+01	  0.032024048	1.512400E+01
62	  0.032224450	-7.254000E+00	  0.032224450	1.395600E+02	  0.032224450	2.195800E+01	  0.032224450	1.522200E+01
63	  0.032424849	-7.254000E+00	  0.032424849	1.393140E+02	  0.032424849	2.198700E+01	  0.032424849	1.531800E+01
64	  0.032625251	-7.254000E+00	  0.032625251	1.390540E+02	  0.032625251	2.201900E+01	  0.032625251	1.542000E+01
65	  0.032825653	-7.256000E+00	  0.032825653	1.388160E+02	  0.032825653	2.205100E+01	  0.032825653	1.551200E+01
66	  0.033026051	-7.255000E+00	  0.033026051	1.385560E+02	  0.033026051	2.208200E+01	  0.033026051	1.561500E+01
67	  0.033226453	-7.256000E+00	  0.033226453	1.383140E+02	  0.033226453	2.211100E+01	  0.033226453	1.571000E+01
68	  0.033426855	-7.254000E+00	  0.033426855	1.380550E+02	  0.033426855	2.213900E+01	  0.033426855	1.581300E+01
69	  0.033627257	-7.254000E+00	  0.033627257	1.378170E+02	  0.033627257	2.216900E+01	  0.033627257	1.590700E+01
70	  0.033827655	-7.255000E+00	  0.033827655	1.375640E+02	  0.033827655	2.220200E+01	  0.033827655	1.600700E+01
71	  0.034028057	-7.256000E+00	  0.034028057	1.373200E+02	  0.034028057	2.223500E+01	  0.034028057	1.610200E+01
72	  0.034228459	-7.256000E+00	  0.034228459	1.370720E+02	  0.034228459	2.226500E+01	  0.034228459	1.620100E+01
73	  0.034428857	-7.254000E+00	  0.034428857	1.368280E+02	  0.034428857	2.229300E+01	  0.034428857	1.629800E+01
74	  0.034629259	-7.255000E+00	  0.034629259	1.365750E+02	  0.034629259	2.232600E+01	  0.034629259	1.639800E+01
75	  0.034829661	-7.256000E+00	  0.034829661	1.363300E+02	  0.034829661	2.236100E+01	  0.034829661	1.649400E+01
76	  0.035030060	-7.257000E+00	  0.035030060	1.360820E+02	  0.035030060	2.239400E+01	  0.035030060	1.659200E+01
77	  0.035230462	-7.257000E+00	  0.035230462	1.358400E+02	  0.035230462	2.242600E+01	  0.035230462	1.668800E+01
78	  0.035430863	-7.254000E+00	  0.035430863	1.355790E+02	  0.035430863	2.245400E+01	  0.035430863	1.679400E+01
79	  0.035631265	-7.256000E+00	  0.035631265	1.353420E+02	  0.035631265	2.248800E+01	  0.035631265	1.688700E+01
80	  0.035831664	-7.254000E+00	  0.035831664	1.350950E+02	  0.035831664	2.251700E+01	  0.035831664	1.698700E+01
81	  0.036032066	-7.255000E+00	  0.036032066	1.348580E+02	  0.036032066	2.255100E+01	  0.036032066	1.708100E+01
82	  0.036232468	-7.256000E+00	  0.036232468	1.346060E+02	  0.036232468	2.258800E+01	  0.036232468	1.718000E+01
83	  0.036432866	-7.254000E+00	  0.036432866	1.343580E+02	  0.036432866	2.261600E+01	  0.036432866	1.728100E+01
84	  0.036633268	-7.256000E+00	  0.036633268	1.341300E+02	  0.036633268	2.265200E+01	  0.036633268	1.737000E+01
85	  0.036833670	-7.253000E+00	  0.036833670	1.338730E+02	  0.036833670	2.268000E+01	  0.036833670	1.747600E+01
86	  0.037034072	-7.255000E+00	  0.037034072	1.336300E+02	  0.037034072	2.272000E+01	  0.037034072	1.757000E+01
87	  0.037234470	-7.254000E+00	  0.037234470	1.334130E+02	  0.037234470	2.274600E+01	  0.037234470	1.765900E+01
88	  0.037434869	-7.253000E+00	  0.037434869	1.331380E+02	  0.037434869	2.278300E+01	  0.037434869	1.777000E+01
89	  0.037635271	-7.252000E+00	  0.037635271	1.329250E+02	  0.037635271	2.281000E+01	  0.037635271	1.785600E+01
90	  0.037835669	-7.252000E+00	  0.037835669	1.326520E+02	  0.037835669	2.285100E+01	  0.037835669	1.796500E+01
91	  0.038036071	-7.254000E+00	  0.038036071	1.324130E+02	  0.038036071	2.289000E+01	  0.038036071	1.805900E+01
92	  0.038236473	-7.252000E+00	  0.038236473	1.321660E+02	  0.038236473	2.291900E+01	  0.038236473	1.816100E+01
93	  0.038436871	-7.253000E+00	  0.038436871	1.319210E+02	  0.038436871	2.295900E+01	  0.038436871	1.825800E+01
94	  0.038637273	-7.252000E+00	  0.038637273	1.316650E+02	  0.038637273	2.299300E+01	  0.038637273	1.836200E+01
95	  0.038837675	-7.252000E+00	  0.038837675	1.314230E+02	  0.038837675	2.302800E+01	  0.038837675	1.846000E+01
96	  0.039038073	-7.252000E+00	  0.039038073	1.311950E+02	  0.039038073	2.306200E+01	  0.039038073	1.855200E+01
97	  0.039238475	-7.252000E+00	  0.039238475	1.309380E+02	  0.039238475	2.310100E+01	  0.039238475	1.865600E+01
98	  0.039438877	-7.251000E+00	  0.039438877	1.307000E+02	  0.039438877	2.313600E+01	  0.039438877	1.875300E+01
99	  0.039639279	-7.249000E+00	  0.039639279	1.304510E+02	  0.039639279	2.316800E+01	  0.039639279	1.885500E+01
100	  0.039839678	-7.248000E+00	  0.039839678	1.302200E+02	  0.039839678	2.319900E+01	  0.039839678	1.895000E+01
101	  0.040040080	-7.251000E+00	  0.040040080	1.299670E+02	  0.040040080	2.324800E+01	  0.040040080	1.904900E+01
102	  0.040240481	-7.249000E+00	  0.040240481	1.297210E+02	  0.040240481	2.327800E+01	  0.040240481	1.915200E+01
103	  0.040440880	-7.248000E+00	  0.040440880	1.294810E+02	  0.040440880	2.331600E+01	  0.040440880	1.924900E+01
104	  0.040641282	-7.247000E+00	  0.040641282	1.292420E+02	  0.040641282	2.334900E+01	  0.040641282	1.934800E+01
105	  0.040841684	-7.249000E+00	  0.040841684	1.289990E+02	  0.040841684	2.339400E+01	  0.040841684	1.944400E+01
106	  0.041042086	-7.248000E+00	  0.041042086	1.287650E+02	  0.041042086	2.342900E+01	  0.041042086	1.954100E+01
107	  0.041242484	-7.249000E+00	  0.041242484	1.285120E+02	  0.041242484	2.347100E+01	  0.041242484	1.964300E+01
108	  0.041442886	-7.248000E+00	  0.041442886	1.282770E+02	  0.041442886	2.350600E+01	  0.041442886	1.974000E+01
109	  0.041643288	-7.248000E+00	  0.041643288	1.280220E+02	  0.041643288	2.354900E+01	  0.041643288	1.984300E+01
110	  0.041843686	-7.247000E+00	  0.041843686	1.277810E+02	  0.041843686	2.358500E+01	  0.041843686	1.994300E+01
111	  0.042044088	-7.248000E+00	  0.042044088	1.275450E+02	  0.042044088	2.362500E+01	  0.042044088	2.003900E+01
112	  0.042244490	-7.245000E+00	  0.042244490	1.272860E+02	  0.042244490	2.366200E+01	  0.042244490	2.014800E+01
113	  0.042444889	-7.247000E+00	  0.042444889	1.270440E+02	  0.042444889	2.370600E+01	  0.042444889	2.024600E+01
114	  0.042645290	-7.247000E+00	  0.042645290	1.268000E+02	  0.042645290	2.374800E+01	  0.042645290	2.034500E+01
115	  0.042845692	-7.247000E+00	  0.042845692	1.265590E+02	  0.042845692	2.378900E+01	  0.042845692	2.044400E+01
116	  0.043046094	-7.246000E+00	  0.043046094	1.263140E+02	  0.043046094	2.382700E+01	  0.043046094	2.054600E+01
117	  0.043246493	-7.247000E+00	  0.043246493	1.260610E+02	  0.043246493	2.387500E+01	  0.043246493	2.064800E+01
118	  0.043446895	-7.245000E+00	  0.043446895	1.258220E+02	  0.043446895	2.391000E+01	  0.043446895	2.074900E+01
119	  0.043647297	-7.246000E+00	  0.043647297	1.255760E+02	  0.043647297	2.395500E+01	  0.043647297	2.084900E+01
120	  0.043847695	-7.246000E+00	  0.043847695	1.253260E+02	  0.043847695	2.399800E+01	  0.043847695	2.095300E+01
121	  0.044048097	-7.246000E+00	  0.044048097	1.250770E+02	  0.044048097	2.404200E+01	  0.044048097	2.105500E+01
122	  0.044248499	-7.246000E+00	  0.044248499	1.248320E+02	  0.044248499	2.408700E+01	  0.044248499	2.115600E+01
123	  0.044448901	-7.245000E+00	  0.044448901	1.245870E+02	  0.044448901	2.412800E+01	  0.044448901	2.125800E+01
124	  0.044649299	-7.245000E+00	  0.044649299	1.243400E+02	  0.044649299	2.417100E+01	  0.044649299	2.136200E+01
125	  0.044849701	-7.247000E+00	  0.044849701	1.241040E+02	  0.044849701	2.421900E+01	  0.044849701	2.145600E+01
126	  0.045050103	-7.245000E+00	  0.045050103	1.238420E+02	  0.045050103	2.426100E+01	  0.045050103	2.156800E+01
127	  0.045250501	-7.243000E+00	  0.045250501	1.235910E+02	  0.045250501	2.430300E+01	  0.045250501	2.167400E+01
128	  0.045450903	-7.244000E+00	  0.045450903	1.233510E+02	  0.045450903	2.434800E+01	  0.045450903	2.177300E+01
129	  0.045651305	-7.242000E+00	  0.045651305	1.230890E+02	  0.045651305	2.439300E+01	  0.045651305	2.188400E+01
130	  0.045851704	-7.243000E+00	  0.045851704	1.228620E+02	  0.045851704	2.443800E+01	  0.045851704	2.197700E+01
131	  0.046052106	-7.244000E+00	  0.046052106	1.226030E+02	  0.046052106	2.448900E+01	  0.046052106	2.208400E+01
132	  0.046252504	-7.243000E+00	  0.046252504	1.223690E+02	  0.046252504	2.453000E+01	  0.046252504	2.218300E+01
133	  0.046452906	-7.243000E+00	  0.046452906	1.221220E+02	  0.046452906	2.457800E+01	  0.046452906	2.228600E+01
134	  0.046653304	-7.241000E+00	  0.046653304	1.218730E+02	  0.046653304	2.462100E+01	  0.046653304	2.239200E+01
135	  0.046853706	-7.243000E+00	  0.046853706	1.216300E+02	  0.046853706	2.467200E+01	  0.046853706	2.249200E+01
136	  0.047054108	-7.241000E+00	  0.047054108	1.213570E+02	  0.047054108	2.472100E+01	  0.047054108	2.260800E+01
137	  0.047254506	-7.239000E+00	  0.047254506	1.211500E+02	  0.047254506	2.475600E+01	  0.047254506	2.269700E+01
138	  0.047454908	-7.239000E+00	  0.047454908	1.208670E+02	  0.047454908	2.481000E+01	  0.047454908	2.281600E+01
139	  0.047655310	-7.238000E+00	  0.047655310	1.206470E+02	  0.047655310	2.485200E+01	  0.047655310	2.291000E+01
140	  0.047855709	-7.239000E+00	  0.047855709	1.203980E+02	  0.047855709	2.490300E+01	  0.047855709	2.301400E+01
141	  0.048056111	-7.239000E+00	  0.048056111	1.201450E+02	  0.048056111	2.495400E+01	  0.048056111	2.312000E+01
142	  0.048256513	-7.237000E+00	  0.048256513	1.199130E+02	  0.048256513	2.499700E+01	  0.048256513	2.322000E+01
143	  0.048456915	-7.238000E+00	  0.048456915	1.196570E+02	  0.048456915	2.505100E+01	  0.048456915	2.332700E+01
144	  0.048657313	-7.236000E+00	  0.048657313	1.194140E+02	  0.048657313	2.509500E+01	  0.048657313	2.343200E+01
145	  0.048857715	-7.237000E+00	  0.048857715	1.191700E+02	  0.048857715	2.514800E+01	  0.048857715	2.353400E+01
146	  0.049058117	-7.235000E+00	  0.049058117	1.189240E+02	  0.049058117	2.519300E+01	  0.049058117	2.364100E+01
147	  0.049258515	-7.235000E+00	  0.049258515	1.187040E+02	  0.049258515	2.524000E+01	  0.049258515	2.373300E+01
148	  0.049458917	-7.235000E+00	  0.049458917	1.184510E+02	  0.049458917	2.529300E+01	  0.049458917	2.384000E+01
149	  0.049659319	-7.236000E+00	  0.049659319	1.181840E+02	  0.049659319	2.535000E+01	  0.049659319	2.395300E+01
150	  0.049859721	-7.233000E+00	  0.049859721	1.179540E+02	  0.049859721	2.539300E+01	  0.049859721	2.405400E+01
151	  0.050060119	-7.234000E+00	  0.050060119	1.177160E+02	  0.050060119	2.544700E+01	  0.050060119	2.415400E+01
152	  0.050260521	-7.234000E+00	  0.050260521	1.174670E+02	  0.050260521	2.549900E+01	  0.050260521	2.426000E+01
153	  0.050460923	-7.234000E+00	  0.050460923	1.172260E+02	  0.050460923	2.555200E+01	  0.050460923	2.436300E+01
154	  0.050661322	-7.231000E+00	  0.050661322	1.169640E+02	  0.050661322	2.559900E+01	  0.050661322	2.447900E+01
155	  0.050861724	-7.231000E+00	  0.050861724	1.167160E+02	  0.050861724	2.565400E+01	  0.050861724	2.458500E+01
156	  0.051062126	-7.232000E+00	  0.051062126	1.164950E+02	  0.051062126	2.570800E+01	  0.051062126	2.467700E+01
157	  0.051262524	-7.231000E+00	  0.051262524	1.162580E+02	  0.051262524	2.575600E+01	  0.051262524	2.478100E+01
158	  0.051462926	-7.229000E+00	  0.051462926	1.159950E+02	  0.051462926	2.581000E+01	  0.051462926	2.489500E+01
159	  0.051663328	-7.229000E+00	  0.051663328	1.157530E+02	  0.051663328	2.586400E+01	  0.051663328	2.500000E+01
160	  0.051863730	-7.228000E+00	  0.051863730	1.155060E+02	  0.051863730	2.591600E+01	  0.051863730	2.510700E+01
161	  0.052064128	-7.227000E+00	  0.052064128	1.152810E+02	  0.052064128	2.596600E+01	  0.052064128	2.520400E+01
162	  0.052264530	-7.229000E+00	  0.052264530	1.150370E+02	  0.052264530	2.602600E+01	  0.052264530	2.530700E+01
163	  0.052464932	-7.227000E+00	  0.052464932	1.147880E+02	  0.052464932	2.607900E+01	  0.052464932	2.541700E+01
164	  0.052665330	-7.228000E+00	  0.052665330	1.145450E+02	  0.052665330	2.613700E+01	  0.052665330	2.552000E+01
165	  0.052865732	-7.226000E+00	  0.052865732	1.143000E+02	  0.052865732	2.619000E+01	  0.052865732	2.562800E+01
166	  0.053066134	-7.224000E+00	  0.053066134	1.140620E+02	  0.053066134	2.624100E+01	  0.053066134	2.573400E+01
167	  0.053266536	-7.223000E+00	  0.053266536	1.138210E+02	  0.053266536	2.629300E+01	  0.053266536	2.584100E+01
168	  0.053466935	-7.225000E+00	  0.053466935	1.135830E+02	  0.053466935	2.635600E+01	  0.053466935	2.594000E+01
169	  0.053667337	-7.221000E+00	  0.053667337	1.133340E+02	  0.053667337	2.640600E+01	  0.053667337	2.605300E+01
170	  0.053867739	-7.220000E+00	  0.053867739	1.131070E+02	  0.053867739	2.645800E+01	  0.053867739	2.615300E+01
171	  0.054068137	-7.219000E+00	  0.054068137	1.128590E+02	  0.054068137	2.651200E+01	  0.054068137	2.626400E+01
172	  0.054268539	-7.215000E+00	  0.054268539	1.125990E+02	  0.054268539	2.656500E+01	  0.054268539	2.638300E+01
173	  0.054468941	-7.218000E+00	  0.054468941	1.123870E+02	  0.054468941	2.662700E+01	  0.054468941	2.647000E+01
174	  0.054669339	-7.218000E+00	  0.054669339	1.121250E+02	  0.054669339	2.669000E+01	  0.054669339	2.658400E+01
175	  0.054869737	-7.219000E+00	  0.054869737	1.118900E+02	  0.054869737	2.675100E+01	  0.054869737	2.668500E+01
176	  0.055070139	-7.216000E+00	  0.055070139	1.116550E+02	  0.055070139	2.680300E+01	  0.055070139	2.679100E+01
177	  0.055270538	-7.214000E+00	  0.055270538	1.114010E+02	  0.055270538	2.686000E+01	  0.055270538	2.690600E+01
178	  0.055470940	-7.214000E+00	  0.055470940	1.111670E+02	  0.055470940	2.691900E+01	  0.055470940	2.700800E+01
179	  0.055671342	-7.215000E+00	  0.055671342	1.109260E+02	  0.055671342	2.698400E+01	  0.055671342	2.711200E+01
180	  0.055871744	-7.211000E+00	  0.055871744	1.106850E+02	  0.055871744	2.703400E+01	  0.055871744	2.722400E+01
181	  0.056072142	-7.211000E+00	  0.056072142	1.104380E+02	  0.056072142	2.709800E+01	  0.056072142	2.733200E+01
182	  0.056272544	-7.212000E+00	  0.056272544	1.101900E+02	  0.056272544	2.716600E+01	  0.056272544	2.743900E+01
183	  0.056472946	-7.212000E+00	  0.056472946	1.099400E+02	  0.056472946	2.723100E+01	  0.056472946	2.754900E+01
184	  0.056673344	-7.211000E+00	  0.056673344	1.097020E+02	  0.056673344	2.728800E+01	  0.056673344	2.765700E+01
185	  0.056873746	-7.209000E+00	  0.056873746	1.094630E+02	  0.056873746	2.734600E+01	  0.056873746	2.776500E+01
186	  0.057074148	-7.212000E+00	  0.057074148	1.092190E+02	  0.057074148	2.742000E+01	  0.057074148	2.786700E+01
187	  0.057274550	-7.211000E+00	  0.057274550	1.089970E+02	  0.057274550	2.747600E+01	  0.057274550	2.796700E+01
188	  0.057474948	-7.212000E+00	  0.057474948	1.087340E+02	  0.057474948	2.755100E+01	  0.057474948	2.808100E+01
189	  0.057675350	-7.208000E+00	  0.057675350	1.084940E+02	  0.057675350	2.760300E+01	  0.057675350	2.819400E+01
190	  0.057875752	-7.208000E+00	  0.057875752	1.082600E+02	  0.057875752	2.766800E+01	  0.057875752	2.829700E+01
191	  0.058076151	-7.206000E+00	  0.058076151	1.080290E+02	  0.058076151	2.772500E+01	  0.058076151	2.840300E+01
192	  0.058276553	-7.208000E+00	  0.058276553	1.077620E+02	  0.058276553	2.780400E+01	  0.058276553	2.851800E+01
193	  0.058476955	-7.206000E+00	  0.058476955	1.075260E+02	  0.058476955	2.786400E+01	  0.058476955	2.862700E+01
194	  0.058677353	-7.206000E+00	  0.058677353	1.072910E+02	  0.058677353	2.793100E+01	  0.058677353	2.873000E+01
195	  0.058877755	-7.205000E+00	  0.058877755	1.070500E+02	  0.058877755	2.799400E+01	  0.058877755	2.884000E+01
196	  0.059078157	-7.206000E+00	  0.059078157	1.067960E+02	  0.059078157	2.807100E+01	  0.059078157	2.895000E+01
197	  0.059278559	-7.202000E+00	  0.059278559	1.065650E+02	  0.059278559	2.812300E+01	  0.059278559	2.906200E+01
198	  0.059478957	-7.204000E+00	  0.059478957	1.063190E+02	  0.059478957	2.820000E+01	  0.059478957	2.916700E+01
199	  0.059679359	-7.202000E+00	  0.059679359	1.060800E+02	  0.059679359	2.826300E+01	  0.059679359	2.927700E+01
200	  0.059879761	-7.201000E+00	  0.059879761	1.058510E+02	  0.059879761	2.832700E+01	  0.059879761	2.938100E+01
201	  0.060080159	-7.202000E+00	  0.060080159	1.055850E+02	  0.060080159	2.840700E+01	  0.060080159	2.949800E+01
202	  0.060280561	-7.200000E+00	  0.060280561	1.053420E+02	  0.060280561	2.847300E+01	  0.060280561	2.961000E+01
203	  0.060480963	-7.200000E+00	  0.060480963	1.051100E+02	  0.060480963	2.853900E+01	  0.060480963	2.971600E+01
204	  0.060681365	-7.201000E+00	  0.060681365	1.048590E+02	  0.060681365	2.861700E+01	  0.060681365	2.982700E+01
205	  0.060881764	-7.196000E+00	  0.060881764	1.046360E+02	  0.060881764	2.867000E+01	  0.060881764	2.993600E+01
206	  0.061082166	-7.199000E+00	  0.061082166	1.043880E+02	  0.061082166	2.875300E+01	  0.061082166	3.004200E+01
207	  0.061282568	-7.195000E+00	  0.061282568	1.041550E+02	  0.061282568	2.881300E+01	  0.061282568	3.015300E+01
208	  0.061482966	-7.195000E+00	  0.061482966	1.039210E+02	  0.061482966	2.888400E+01	  0.061482966	3.025900E+01
209	  0.061683368	-7.195000E+00	  0.061683368	1.036710E+02	  0.061683368	2.895900E+01	  0.061683368	3.037300E+01
210	  0.061883770	-7.195000E+00	  0.061883770	1.034300E+02	  0.061883770	2.903400E+01	  0.061883770	3.048100E+01
211	  0.062084168	-7.197000E+00	  0.062084168	1.031790E+02	  0.062084168	2.911700E+01	  0.062084168	3.059100E+01
212	  0.062284570	-7.195000E+00	  0.062284570	1.029500E+02	  0.062284570	2.918200E+01	  0.062284570	3.069900E+01
213	  0.062484972	-7.181000E+00	  0.062484972	1.027960E+02	  0.062484972	2.919100E+01	  0.062484972	3.079600E+01
214	  0.062685370	-7.177000E+00	  0.062685370	1.025640E+02	  0.062685370	2.925000E+01	  0.062685370	3.091000E+01
215	  0.062885776	-7.178000E+00	  0.062885776	1.023150E+02	  0.062885776	2.933300E+01	  0.062885776	3.102100E+01
216	  0.063086174	-7.177000E+00	  0.063086174	1.020590E+02	  0.063086174	2.941000E+01	  0.063086174	3.114000E+01
217	  0.063286573	-7.177000E+00	  0.063286573	1.018310E+02	  0.063286573	2.948500E+01	  0.063286573	3.124300E+01
218	  0.063486971	-7.175000E+00	  0.063486971	1.015950E+02	  0.063486971	2.955300E+01	  0.063486971	3.135600E+01
219	  0.063687377	-7.168000E+00	  0.063687377	1.013590E+02	  0.063687377	2.960900E+01	  0.063687377	3.147800E+01
220	  0.063887775	-7.167000E+00	  0.063887775	1.011390E+02	  0.063887775	2.967900E+01	  0.063887775	3.158000E+01
221	  0.064088173	-7.170000E+00	  0.064088173	1.008920E+02	  0.064088173	2.976700E+01	  0.064088173	3.168700E+01
222	  0.064288579	-7.168000E+00	  0.064288579	1.006740E+02	  0.064288579	2.983500E+01	  0.064288579	3.178900E+01
223	  0.064488977	-7.168000E+00	  0.064488977	1.003960E+02	  0.064488977	2.992700E+01	  0.064488977	3.191800E+01
224	  0.064689375	-7.165000E+00	  0.064689375	1.001490E+02	  0.064689375	3.000200E+01	  0.064689375	3.203600E+01
225	  0.064889781	-7.167000E+00	  0.064889781	9.991300E+01	  0.064889781	3.008500E+01	  0.064889781	3.214200E+01
226	  0.065090179	-7.164000E+00	  0.065090179	9.968800E+01	  0.065090179	3.015200E+01	  0.065090179	3.225200E+01
227	  0.065290578	-7.160000E+00	  0.065290578	9.944200E+01	  0.065290578	3.022500E+01	  0.065290578	3.237200E+01
228	  0.065490983	-7.158000E+00	  0.065490983	9.917700E+01	  0.065490983	3.030900E+01	  0.065490983	3.250000E+01
229	  0.065691382	-7.159000E+00	  0.065691382	9.894900E+01	  0.065691382	3.039000E+01	  0.065691382	3.260300E+01
230	  0.065891780	-7.158000E+00	  0.065891780	9.872400E+01	  0.065891780	3.046700E+01	  0.065891780	3.270700E+01
231	  0.066092186	-7.158000E+00	  0.066092186	9.850000E+01	  0.066092186	3.054300E+01	  0.066092186	3.281200E+01
232	  0.066292584	-7.157000E+00	  0.066292584	9.824200E+01	  0.066292584	3.063100E+01	  0.066292584	3.293300E+01
233	  0.066492982	-7.156000E+00	  0.066492982	9.799600E+01	  0.066492982	3.071600E+01	  0.066492982	3.304900E+01
234	  0.066693388	-7.154000E+00	  0.066693388	9.776300E+01	  0.066693388	3.079300E+01	  0.066693388	3.316000E+01
235	  0.066893786	-7.152000E+00	  0.066893786	9.754200E+01	  0.066893786	3.086600E+01	  0.066893786	3.326700E+01
236	  0.067094192	-7.153000E+00	  0.067094192	9.731500E+01	  0.067094192	3.095100E+01	  0.067094192	3.337000E+01
237	  0.067294590	-7.151000E+00	  0.067294590	9.705500E+01	  0.067294590	3.103600E+01	  0.067294590	3.349700E+01
238	  0.067494988	-7.152000E+00	  0.067494988	9.679400E+01	  0.067494988	3.113500E+01	  0.067494988	3.361600E+01
239	  0.067695394	-7.150000E+00	  0.067695394	9.657600E+01	  0.067695394	3.120900E+01	  0.067695394	3.372200E+01
240	  0.067895792	-7.150000E+00	  0.067895792	9.634500E+01	  0.067895792	3.129400E+01	  0.067895792	3.382900E+01
241	  0.068096191	-7.146000E+00	  0.068096191	9.609400E+01	  0.068096191	3.137700E+01	  0.068096191	3.395400E+01
242	  0.068296596	-7.146000E+00	  0.068296596	9.588800E+01	  0.068296596	3.145300E+01	  0.068296596	3.405100E+01
243	  0.068496995	-7.144000E+00	  0.068496995	9.560700E+01	  0.068496995	3.155300E+01	  0.068496995	3.418600E+01
244	  0.068697393	-7.144000E+00	  0.068697393	9.537600E+01	  0.068697393	3.163900E+01	  0.068697393	3.429500E+01
245	  0.068897791	-7.142000E+00	  0.068897791	9.515100E+01	  0.068897791	3.171700E+01	  0.068897791	3.440600E+01
246	  0.069098189	-7.144000E+00	  0.069098189	9.490500E+01	  0.069098189	3.181800E+01	  0.069098189	3.451600E+01
247	  0.069298595	-7.142000E+00	  0.069298595	9.466500E+01	  0.069298595	3.190300E+01	  0.069298595	3.463400E+01
248	  0.069498993	-7.141000E+00	  0.069498993	9.443400E+01	  0.069498993	3.199000E+01	  0.069498993	3.474300E+01
249	  0.069699399	-7.139000E+00	  0.069699399	9.420100E+01	  0.069699399	3.207400E+01	  0.069699399	3.485800E+01
250	  0.069899797	-7.140000E+00	  0.069899797	9.396200E+01	  0.069899797	3.217100E+01	  0.069899797	3.496800E+01
251	  0.070100196	-7.138000E+00	  0.070100196	9.369900E+01	  0.070100196	3.226900E+01	  0.070100196	3.509600E+01
252	  0.070300601	-7.139000E+00	  0.070300601	9.348000E+01	  0.070300601	3.235800E+01	  0.070300601	3.519700E+01
253	  0.070501000	-7.136000E+00	  0.070501000	9.324900E+01	  0.070501000	3.244100E+01	  0.070501000	3.531300E+01
254	  0.070701398	-7.138000E+00	  0.070701398	9.301000E+01	  0.070701398	3.254300E+01	  0.070701398	3.542000E+01
255	  0.070901804	-7.136000E+00	  0.070901804	9.277400E+01	  0.070901804	3.263400E+01	  0.070901804	3.553500E+01
256	  0.071102202	-7.133000E+00	  0.071102202	9.254200E+01	  0.071102202	3.271900E+01	  0.071102202	3.565200E+01
257	  0.071302600	-7.132000E+00	  0.071302600	9.229800E+01	  0.071302600	3.281400E+01	  0.071302600	3.577100E+01
258	  0.071503006	-7.132000E+00	  0.071503006	9.207400E+01	  0.071503006	3.290800E+01	  0.071503006	3.587600E+01
259	  0.071703404	-7.130000E+00	  0.071703404	9.181700E+01	  0.071703404	3.300600E+01	  0.071703404	3.600400E+01
260	  0.071903802	-7.133000E+00	  0.071903802	9.158700E+01	  0.071903802	3.311100E+01	  0.071903802	3.610400E+01
261	  0.072104208	-7.129000E+00	  0.072104208	9.132600E+01	  0.072104208	3.320900E+01	  0.072104208	3.623800E+01
262	  0.072304606	-7.128000E+00	  0.072304606	9.111700E+01	  0.072304606	3.329300E+01	  0.072304606	3.634000E+01
263	  0.072505005	-7.126000E+00	  0.072505005	9.087200E+01	  0.072505005	3.339100E+01	  0.072505005	3.646200E+01
264	  0.072705410	-7.126000E+00	  0.072705410	9.062500E+01	  0.072705410	3.349600E+01	  0.072705410	3.657900E+01
265	  0.072905809	-7.126000E+00	  0.072905809	9.037700E+01	  0.072905809	3.360300E+01	  0.072905809	3.669500E+01
266	  0.073106214	-7.123000E+00	  0.073106214	9.014700E+01	  0.073106214	3.369300E+01	  0.073106214	3.681400E+01
267	  0.073306613	-7.125000E+00	  0.073306613	8.992300E+01	  0.073306613	3.379500E+01	  0.073306613	3.691600E+01
268	  0.073507011	-7.123000E+00	  0.073507011	8.968600E+01	  0.073507011	3.389200E+01	  0.073507011	3.703400E+01
269	  0.073707417	-7.117000E+00	  0.073707417	8.944700E+01	  0.073707417	3.398100E+01	  0.073707417	3.716300E+01
270	  0.073907815	-7.119000E+00	  0.073907815	8.921600E+01	  0.073907815	3.408700E+01	  0.073907815	3.726900E+01
271	  0.074108213	-7.120000E+00	  0.074108213	8.900000E+01	  0.074108213	3.418700E+01	  0.074108213	3.736800E+01
272	  0.074308619	-7.117000E+00	  0.074308619	8.874300E+01	  0.074308619	3.429100E+01	  0.074308619	3.750100E+01
273	  0.074509017	-7.118000E+00	  0.074509017	8.850400E+01	  0.074509017	3.440200E+01	  0.074509017	3.761200E+01
274	  0.074709415	-7.115000E+00	  0.074709415	8.827100E+01	  0.074709415	3.450100E+01	  0.074709415	3.772900E+01
275	  0.074909821	-7.116000E+00	  0.074909821	8.803700E+01	  0.074909821	3.460800E+01	  0.074909821	3.784000E+01
276	  0.075110219	-7.113000E+00	  0.075110219	8.778800E+01	  0.075110219	3.471300E+01	  0.075110219	3.796800E+01
277	  0.075310618	-7.116000E+00	  0.075310618	8.754800E+01	  0.075310618	3.483400E+01	  0.075310618	3.807300E+01
278	  0.075511023	-7.113000E+00	  0.075511023	8.733400E+01	  0.075511023	3.492500E+01	  0.075511023	3.818200E+01
279	  0.075711422	-7.114000E+00	  0.075711422	8.709200E+01	  0.075711422	3.503900E+01	  0.075711422	3.829700E+01
280	  0.075911827	-7.114000E+00	  0.075911827	8.686300E+01	  0.075911827	3.514700E+01	  0.075911827	3.840700E+01
281	  0.076112226	-7.108000E+00	  0.076112226	8.662800E+01	  0.076112226	3.523900E+01	  0.076112226	3.853800E+01
282	  0.076312624	-7.110000E+00	  0.076312624	8.637400E+01	  0.076312624	3.536800E+01	  0.076312624	3.865200E+01
283	  0.076513030	-7.108000E+00	  0.076513030	8.615400E+01	  0.076513030	3.546700E+01	  0.076513030	3.876300E+01
284	  0.076713428	-7.105000E+00	  0.076713428	8.588900E+01	  0.076713428	3.558500E+01	  0.076713428	3.890000E+01
285	  0.076913826	-7.108000E+00	  0.076913826	8.565300E+01	  0.076913826	3.570800E+01	  0.076913826	3.900500E+01
286	  0.077114232	-7.107000E+00	  0.077114232	8.542100E+01	  0.077114232	3.581900E+01	  0.077114232	3.911700E+01
287	  0.077314630	-7.107000E+00	  0.077314630	8.518700E+01	  0.077314630	3.593300E+01	  0.077314630	3.923000E+01
288	  0.077515028	-7.104000E+00	  0.077515028	8.496100E+01	  0.077515028	3.603400E+01	  0.077515028	3.934900E+01
289	  0.077715434	-7.106000E+00	  0.077715434	8.469700E+01	  0.077715434	3.617100E+01	  0.077715434	3.947100E+01
290	  0.077915832	-7.103000E+00	  0.077915832	8.448100E+01	  0.077915832	3.626900E+01	  0.077915832	3.958400E+01
291	  0.078116231	-7.102000E+00	  0.078116231	8.424500E+01	  0.078116231	3.638700E+01	  0.078116231	3.969900E+01
292	  0.078316636	-7.101000E+00	  0.078316636	8.399500E+01	  0.078316636	3.650800E+01	  0.078316636	3.982400E+01
293	  0.078517035	-7.101000E+00	  0.078517035	8.376900E+01	  0.078517035	3.662300E+01	  0.078517035	3.993300E+01
294	  0.078717433	-7.097000E+00	  0.078717433	8.352400E+01	  0.078717433	3.673800E+01	  0.078717433	4.006100E+01
295	  0.078917839	-7.098000E+00	  0.078917839	8.329200E+01	  0.078917839	3.685900E+01	  0.078917839	4.017200E+01
296	  0.079118237	-7.098000E+00	  0.079118237	8.307200E+01	  0.079118237	3.697500E+01	  0.079118237	4.027600E+01
297	  0.079318643	-7.096000E+00	  0.079318643	8.283500E+01	  0.079318643	3.709100E+01	  0.079318643	4.039800E+01
298	  0.079519041	-7.094000E+00	  0.079519041	8.258800E+01	  0.079519041	3.721500E+01	  0.079519041	4.052400E+01
299	  0.079719439	-7.095000E+00	  0.079719439	8.235200E+01	  0.079719439	3.734100E+01	  0.079719439	4.063500E+01
300	  0.079919845	-7.091000E+00	  0.079919845	8.210600E+01	  0.079919845	3.746000E+01	  0.079919845	4.076600E+01
301	  0.080120243	-7.096000E+00	  0.080120243	8.189500E+01	  0.080120243	3.758800E+01	  0.080120243	4.085100E+01
302	  0.080320641	-7.094000E+00	  0.080320641	8.164000E+01	  0.080320641	3.772100E+01	  0.080320641	4.097800E+01
303	  0.080521047	-7.092000E+00	  0.080521047	8.140600E+01	  0.080521047	3.784000E+01	  0.080521047	4.110000E+01
304	  0.080721445	-7.093000E+00	  0.080721445	8.117800E+01	  0.080721445	3.796600E+01	  0.080721445	4.120700E+01
305	  0.080921844	-7.088000E+00	  0.080921844	8.093300E+01	  0.080921844	3.808600E+01	  0.080921844	4.134100E+01
306	  0.081122249	-7.092000E+00	  0.081122249	8.069400E+01	  0.081122249	3.823000E+01	  0.081122249	4.144300E+01
307	  0.081322648	-7.088000E+00	  0.081322648	8.046000E+01	  0.081322648	3.834700E+01	  0.081322648	4.157000E+01
308	  0.081523046	-7.088000E+00	  0.081523046	8.021900E+01	  0.081523046	3.848200E+01	  0.081523046	4.168500E+01
309	  0.081723452	-7.087000E+00	  0.081723452	7.997800E+01	  0.081723452	3.861500E+01	  0.081723452	4.180400E+01
310	  0.081923850	-7.085000E+00	  0.081923850	7.976200E+01	  0.081923850	3.872900E+01	  0.081923850	4.191700E+01
311	  0.082124248	-7.085000E+00	  0.082124248	7.952300E+01	  0.082124248	3.886700E+01	  0.082124248	4.203000E+01
312	  0.082324654	-7.084000E+00	  0.082324654	7.927700E+01	  0.082324654	3.900500E+01	  0.082324654	4.215100E+01
313	  0.082525052	-7.085000E+00	  0.082525052	7.906100E+01	  0.082525052	3.913000E+01	  0.082525052	4.225400E+01
314	  0.082725458	-7.083000E+00	  0.082725458	7.880600E+01	  0.082725458	3.927100E+01	  0.082725458	4.238500E+01
315	  0.082925856	-7.083000E+00	  0.082925856	7.856800E+01	  0.082925856	3.941000E+01	  0.082925856	4.249900E+01
316	  0.083126254	-7.079000E+00	  0.083126254	7.834100E+01	  0.083126254	3.953100E+01	  0.083126254	4.262200E+01
317	  0.083326660	-7.081000E+00	  0.083326660	7.811400E+01	  0.083326660	3.967100E+01	  0.083326660	4.272300E+01
318	  0.083527058	-7.082000E+00	  0.083527058	7.787100E+01	  0.083527058	3.981700E+01	  0.083527058	4.283800E+01
319	  0.083727457	-7.077000E+00	  0.083727457	7.763800E+01	  0.083727457	3.994200E+01	  0.083727457	4.296800E+01
320	  0.083927862	-7.078000E+00	  0.083927862	7.740500E+01	  0.083927862	4.008500E+01	  0.083927862	4.307700E+01
321	  0.084128261	-7.076000E+00	  0.084128261	7.715900E+01	  0.084128261	4.022800E+01	  0.084128261	4.320100E+01
322	  0.084328659	-7.077000E+00	  0.084328659	7.694100E+01	  0.084328659	4.036200E+01	  0.084328659	4.330300E+01
323	  0.084529065	-7.075000E+00	  0.084529065	7.669200E+01	  0.084529065	4.051100E+01	  0.084529065	4.342800E+01
324	  0.084729463	-7.072000E+00	  0.084729463	7.646700E+01	  0.084729463	4.063900E+01	  0.084729463	4.354900E+01
325	  0.084929861	-7.076000E+00	  0.084929861	7.623500E+01	  0.084929861	4.079400E+01	  0.084929861	4.364600E+01
326	  0.085130267	-7.072000E+00	  0.085130267	7.599100E+01	  0.085130267	4.093600E+01	  0.085130267	4.377700E+01
327	  0.085330658	-7.073000E+00	  0.085330658	7.576400E+01	  0.085330658	4.108100E+01	  0.085330658	4.388100E+01
328	  0.085531056	-7.073000E+00	  0.085531056	7.552600E+01	  0.085531056	4.122900E+01	  0.085531056	4.399700E+01
329	  0.085731462	-7.070000E+00	  0.085731462	7.528700E+01	  0.085731462	4.137200E+01	  0.085731462	4.412300E+01
330	  0.085931860	-7.069000E+00	  0.085931860	7.504800E+01	  0.085931860	4.152300E+01	  0.085931860	4.423900E+01
331	  0.086132258	-7.068000E+00	  0.086132258	7.482900E+01	  0.086132258	4.166000E+01	  0.086132258	4.435000E+01
332	  0.086332664	-7.071000E+00	  0.086332664	7.460100E+01	  0.086332664	4.181500E+01	  0.086332664	4.444700E+01
333	  0.086533062	-7.070000E+00	  0.086533062	7.435800E+01	  0.086533062	4.197200E+01	  0.086533062	4.456600E+01
334	  0.086733460	-7.066000E+00	  0.086733460	7.412400E+01	  0.086733460	4.211400E+01	  0.086733460	4.469200E+01
335	  0.086933866	-7.066000E+00	  0.086933866	7.388900E+01	  0.086933866	4.226900E+01	  0.086933866	4.480300E+01
336	  0.087134264	-7.066000E+00	  0.087134264	7.366200E+01	  0.087134264	4.241900E+01	  0.087134264	4.491200E+01
337	  0.087334670	-7.068000E+00	  0.087334670	7.343300E+01	  0.087334670	4.257700E+01	  0.087334670	4.501300E+01
338	  0.087535068	-7.068000E+00	  0.087535068	7.320000E+01	  0.087535068	4.273300E+01	  0.087535068	4.512400E+01
339	  0.087735467	-7.068000E+00	  0.087735467	7.296000E+01	  0.087735467	4.289500E+01	  0.087735467	4.523800E+01
340	  0.087935872	-7.064000E+00	  0.087935872	7.274900E+01	  0.087935872	4.302500E+01	  0.087935872	4.535600E+01
341	  0.088136271	-7.067000E+00	  0.088136271	7.248600E+01	  0.088136271	4.321700E+01	  0.088136271	4.546300E+01
342	  0.088336669	-7.066000E+00	  0.088336669	7.226300E+01	  0.088336669	4.336500E+01	  0.088336669	4.557500E+01
343	  0.088537075	-7.063000E+00	  0.088537075	7.202300E+01	  0.088537075	4.352200E+01	  0.088537075	4.570200E+01
344	  0.088737473	-7.060000E+00	  0.088737473	7.179100E+01	  0.088737473	4.367500E+01	  0.088737473	4.582300E+01
345	  0.088937871	-7.064000E+00	  0.088937871	7.156300E+01	  0.088937871	4.384800E+01	  0.088937871	4.591100E+01
346	  0.089138277	-7.065000E+00	  0.089138277	7.131700E+01	  0.089138277	4.402300E+01	  0.089138277	4.602300E+01
347	  0.089338675	-7.064000E+00	  0.089338675	7.109300E+01	  0.089338675	4.418000E+01	  0.089338675	4.613200E+01
348	  0.089539073	-7.064000E+00	  0.089539073	7.085200E+01	  0.089539073	4.435100E+01	  0.089539073	4.624400E+01
349	  0.089739479	-7.064000E+00	  0.089739479	7.061100E+01	  0.089739479	4.452400E+01	  0.089739479	4.635600E+01
350	  0.089939877	-7.065000E+00	  0.089939877	7.038500E+01	  0.089939877	4.469300E+01	  0.089939877	4.645500E+01
351	  0.090140276	-7.064000E+00	  0.090140276	7.014400E+01	  0.090140276	4.486300E+01	  0.090140276	4.657300E+01
352	  0.090340681	-7.061000E+00	  0.090340681	6.991800E+01	  0.090340681	4.502000E+01	  0.090340681	4.669100E+01
353	  0.090541080	-7.062000E+00	  0.090541080	6.968500E+01	  0.090541080	4.519300E+01	  0.090541080	4.679700E+01
354	  0.090741485	-7.060000E+00	  0.090741485	6.945500E+01	  0.090741485	4.535600E+01	  0.090741485	4.691300E+01
355	  0.090941884	-7.061000E+00	  0.090941884	6.922700E+01	  0.090941884	4.553000E+01	  0.090941884	4.701400E+01
356	  0.091142282	-7.059000E+00	  0.091142282	6.897400E+01	  0.091142282	4.571400E+01	  0.091142282	4.714000E+01
357	  0.091342688	-7.057000E+00	  0.091342688	6.875500E+01	  0.091342688	4.587400E+01	  0.091342688	4.724800E+01
358	  0.091543086	-7.058000E+00	  0.091543086	6.850900E+01	  0.091543086	4.606400E+01	  0.091543086	4.735500E+01
359	  0.091743484	-7.058000E+00	  0.091743484	6.825900E+01	  0.091743484	4.625400E+01	  0.091743484	4.747100E+01
360	  0.091943890	-7.058000E+00	  0.091943890	6.804300E+01	  0.091943890	4.642100E+01	  0.091943890	4.756800E+01
361	  0.092144288	-7.057000E+00	  0.092144288	6.781100E+01	  0.092144288	4.659700E+01	  0.092144288	4.767800E+01
362	  0.092344686	-7.057000E+00	  0.092344686	6.757600E+01	  0.092344686	4.677900E+01	  0.092344686	4.778700E+01
363	  0.092545092	-7.053000E+00	  0.092545092	6.733600E+01	  0.092545092	4.695600E+01	  0.092545092	4.791300E+01
364	  0.092745490	-7.055000E+00	  0.092745490	6.710300E+01	  0.092745490	4.714400E+01	  0.092745490	4.801200E+01
365	  0.092945889	-7.054000E+00	  0.092945889	6.685600E+01	  0.092945889	4.733700E+01	  0.092945889	4.812800E+01
366	  0.093146294	-7.053000E+00	  0.093146294	6.664500E+01	  0.093146294	4.750300E+01	  0.093146294	4.822700E+01
367	  0.093346693	-7.050000E+00	  0.093346693	6.639400E+01	  0.093346693	4.769600E+01	  0.093346693	4.835500E+01
368	  0.093547091	-7.050000E+00	  0.093547091	6.615800E+01	  0.093547091	4.788700E+01	  0.093547091	4.845800E+01
369	  0.093747497	-7.049000E+00	  0.093747497	6.592100E+01	  0.093747497	4.807700E+01	  0.093747497	4.856900E+01
370	  0.093947895	-7.053000E+00	  0.093947895	6.568200E+01	  0.093947895	4.828200E+01	  0.093947895	4.865600E+01
371	  0.094148301	-7.050000E+00	  0.094148301	6.546400E+01	  0.094148301	4.845400E+01	  0.094148301	4.876700E+01
372	  0.094348699	-7.048000E+00	  0.094348699	6.522000E+01	  0.094348699	4.865000E+01	  0.094348699	4.888600E+01
373	  0.094549097	-7.047000E+00	  0.094549097	6.500500E+01	  0.094549097	4.882600E+01	  0.094549097	4.898500E+01
374	  0.094749503	-7.048000E+00	  0.094749503	6.474700E+01	  0.094749503	4.904500E+01	  0.094749503	4.909300E+01
375	  0.094949901	-7.047000E+00	  0.094949901	6.451700E+01	  0.094949901	4.923700E+01	  0.094949901	4.919800E+01
376	  0.095150299	-7.044000E+00	  0.095150299	6.429200E+01	  0.095150299	4.941700E+01	  0.095150299	4.931600E+01
377	  0.095350705	-7.043000E+00	  0.095350705	6.405900E+01	  0.095350705	4.961400E+01	  0.095350705	4.942200E+01
378	  0.095551103	-7.042000E+00	  0.095551103	6.382500E+01	  0.095551103	4.981300E+01	  0.095551103	4.952700E+01
379	  0.095751502	-7.039000E+00	  0.095751502	6.356200E+01	  0.095751502	5.003000E+01	  0.095751502	4.966000E+01
380	  0.095951907	-7.038000E+00	  0.095951907	6.333400E+01	  0.095951907	5.022700E+01	  0.095951907	4.976100E+01
381	  0.096152306	-7.034000E+00	  0.096152306	6.310000E+01	  0.096152306	5.042000E+01	  0.096152306	4.988400E+01
382	  0.096352704	-7.035000E+00	  0.096352704	6.285500E+01	  0.096352704	5.063900E+01	  0.096352704	4.998200E+01
383	  0.096553110	-7.035000E+00	  0.096553110	6.263800E+01	  0.096553110	5.083000E+01	  0.096553110	5.007900E+01
384	  0.096753508	-7.033000E+00	  0.096753508	6.241900E+01	  0.096753508	5.102100E+01	  0.096753508	5.017700E+01
385	  0.096953906	-7.035000E+00	  0.096953906	6.215100E+01	  0.096953906	5.126700E+01	  0.096953906	5.027900E+01
386	  0.097154312	-7.032000E+00	  0.097154312	6.192900E+01	  0.097154312	5.145900E+01	  0.097154312	5.039100E+01
387	  0.097354710	-7.030000E+00	  0.097354710	6.170000E+01	  0.097354710	5.165900E+01	  0.097354710	5.050100E+01
388	  0.097555116	-7.029000E+00	  0.097555116	6.145800E+01	  0.097555116	5.188000E+01	  0.097555116	5.060200E+01
389	  0.097755514	-7.030000E+00	  0.097755514	6.122700E+01	  0.097755514	5.209500E+01	  0.097755514	5.069200E+01
390	  0.097955912	-7.027000E+00	  0.097955912	6.101000E+01	  0.097955912	5.228700E+01	  0.097955912	5.080200E+01
391	  0.098156318	-7.027000E+00	  0.098156318	6.077000E+01	  0.098156318	5.251100E+01	  0.098156318	5.089800E+01
392	  0.098356716	-7.026000E+00	  0.098356716	6.053400E+01	  0.098356716	5.272700E+01	  0.098356716	5.100400E+01
393	  0.098557115	-7.027000E+00	  0.098557115	6.029800E+01	  0.098557115	5.295300E+01	  0.098557115	5.109000E+01
394	  0.098757520	-7.025000E+00	  0.098757520	6.008000E+01	  0.098757520	5.315400E+01	  0.098757520	5.119200E+01
395	  0.098957919	-7.022000E+00	  0.098957919	5.984500E+01	  0.098957919	5.336900E+01	  0.098957919	5.130400E+01
396	  0.099158317	-7.023000E+00	  0.099158317	5.960500E+01	  0.099158317	5.360200E+01	  0.099158317	5.139400E+01
397	  0.099358723	-7.022000E+00	  0.099358723	5.937700E+01	  0.099358723	5.381900E+01	  0.099358723	5.149100E+01
398	  0.099559121	-7.020000E+00	  0.099559121	5.914700E+01	  0.099559121	5.403900E+01	  0.099559121	5.158900E+01
399	  0.099759519	-7.018000E+00	  0.099759519	5.890100E+01	  0.099759519	5.427200E+01	  0.099759519	5.170300E+01
400	  0.099959925	-7.008000E+00	  0.099959925	5.871800E+01	  0.099959925	5.442700E+01	  0.099959925	5.183800E+01
401	  0.100160323	-7.013000E+00	  0.100160323	5.849300E+01	  0.100160323	5.466200E+01	  0.100160323	5.189200E+01
402	  0.100360721	-7.007000E+00	  0.100360721	5.822300E+01	  0.100360721	5.491500E+01	  0.100360721	5.203300E+01
403	  0.100561127	-7.006000E+00	  0.100561127	5.800600E+01	  0.100561127	5.513000E+01	  0.100561127	5.212200E+01
404	  0.100761525	-7.003000E+00	  0.100761525	5.780300E+01	  0.100761525	5.532600E+01	  0.100761525	5.221900E+01
405	  0.100961931	-7.008000E+00	  0.100961931	5.755400E+01	  0.100961931	5.559000E+01	  0.100961931	5.228100E+01
406	  0.101162329	-7.003000E+00	  0.101162329	5.733200E+01	  0.101162329	5.580400E+01	  0.101162329	5.239900E+01
407	  0.101362728	-7.001000E+00	  0.101362728	5.710400E+01	  0.101362728	5.603300E+01	  0.101362728	5.249300E+01
408	  0.101563133	-7.000000E+00	  0.101563133	5.686300E+01	  0.101563133	5.628000E+01	  0.101563133	5.258800E+01
409	  0.101763532	-7.000000E+00	  0.101763532	5.665900E+01	  0.101763532	5.648900E+01	  0.101763532	5.266700E+01
410	  0.101963930	-7.002000E+00	  0.101963930	5.640800E+01	  0.101963930	5.675700E+01	  0.101963930	5.273900E+01
411	  0.102164336	-6.998000E+00	  0.102164336	5.620700E+01	  0.102164336	5.695600E+01	  0.102164336	5.284400E+01
412	  0.102364734	-6.999000E+00	  0.102364734	5.595000E+01	  0.102364734	5.723000E+01	  0.102364734	5.292700E+01
413	  0.102565132	-6.995000E+00	  0.102565132	5.569100E+01	  0.102565132	5.749600E+01	  0.102565132	5.304600E+01
414	  0.102765530	-6.996000E+00	  0.102765530	5.547500E+01	  0.102765530	5.772900E+01	  0.102765530	5.311400E+01
415	  0.102965929	-6.993000E+00	  0.102965929	5.526000E+01	  0.102965929	5.795300E+01	  0.102965929	5.320600E+01
416	  0.103166327	-6.995000E+00	  0.103166327	5.504200E+01	  0.103166327	5.819300E+01	  0.103166327	5.326800E+01
417	  0.103366733	-6.998000E+00	  0.103366733	5.479200E+01	  0.103366733	5.847000E+01	  0.103366733	5.333500E+01
418	  0.103567131	-6.994000E+00	  0.103567131	5.459300E+01	  0.103567131	5.868000E+01	  0.103567131	5.342600E+01
419	  0.103767529	-6.995000E+00	  0.103767529	5.432100E+01	  0.103767529	5.898000E+01	  0.103767529	5.351300E+01
420	  0.103967935	-6.994000E+00	  0.103967935	5.411800E+01	  0.103967935	5.920200E+01	  0.103967935	5.358400E+01
421	  0.104168333	-6.991000E+00	  0.104168333	5.389500E+01	  0.104168333	5.944400E+01	  0.104168333	5.367800E+01
422	  0.104368731	-6.992000E+00	  0.104368731	5.363900E+01	  0.104368731	5.973200E+01	  0.104368731	5.375000E+01
423	  0.104569137	-6.990000E+00	  0.104569137	5.341200E+01	  0.104569137	5.998200E+01	  0.104569137	5.384300E+01
424	  0.104769535	-6.993000E+00	  0.104769535	5.319500E+01	  0.104769535	6.023300E+01	  0.104769535	5.388800E+01
425	  0.104969934	-6.990000E+00	  0.104969934	5.295800E+01	  0.104969934	6.049600E+01	  0.104969934	5.398400E+01
426	  0.105170339	-6.985000E+00	  0.105170339	5.274600E+01	  0.105170339	6.072900E+01	  0.105170339	5.408100E+01
427	  0.105370738	-6.988000E+00	  0.105370738	5.251100E+01	  0.105370738	6.100500E+01	  0.105370738	5.413300E+01
428	  0.105571143	-6.987000E+00	  0.105571143	5.225200E+01	  0.105571143	6.130300E+01	  0.105571143	5.421500E+01
429	  0.105771542	-6.987000E+00	  0.105771542	5.202400E+01	  0.105771542	6.156700E+01	  0.105771542	5.428400E+01
430	  0.105971940	-6.983000E+00	  0.105971940	5.182600E+01	  0.105971940	6.179200E+01	  0.105971940	5.437100E+01
431	  0.106172346	-6.984000E+00	  0.106172346	5.157800E+01	  0.106172346	6.208500E+01	  0.106172346	5.443400E+01
432	  0.106372744	-6.982000E+00	  0.106372744	5.135300E+01	  0.106372744	6.234800E+01	  0.106372744	5.451100E+01
433	  0.106573142	-6.983000E+00	  0.106573142	5.112400E+01	  0.106573142	6.262300E+01	  0.106573142	5.456500E+01
434	  0.106773548	-6.979000E+00	  0.106773548	5.089700E+01	  0.106773548	6.288800E+01	  0.106773548	5.465500E+01
435	  0.106973946	-6.981000E+00	  0.106973946	5.065200E+01	  0.106973946	6.318600E+01	  0.106973946	5.470400E+01
436	  0.107174344	-6.978000E+00	  0.107174344	5.042300E+01	  0.107174344	6.345800E+01	  0.107174344	5.478700E+01
437	  0.107374750	-6.977000E+00	  0.107374750	5.019400E+01	  0.107374750	6.373400E+01	  0.107374750	5.485800E+01
438	  0.107575148	-6.976000E+00	  0.107575148	4.994700E+01	  0.107575148	6.403400E+01	  0.107575148	5.492900E+01
439	  0.107775547	-6.974000E+00	  0.107775547	4.972200E+01	  0.107775547	6.430700E+01	  0.107775547	5.500100E+01
440	  0.107975952	-6.973000E+00	  0.107975952	4.947500E+01	  0.107975952	6.461300E+01	  0.107975952	5.506700E+01
441	  0.108176351	-6.974000E+00	  0.108176351	4.926900E+01	  0.108176351	6.487200E+01	  0.108176351	5.510400E+01
442	  0.108376749	-6.972000E+00	  0.108376749	4.901900E+01	  0.108376749	6.518200E+01	  0.108376749	5.517600E+01
443	  0.108577155	-6.971000E+00	  0.108577155	4.880500E+01	  0.108577155	6.544800E+01	  0.108577155	5.523800E+01
444	  0.108777553	-6.971000E+00	  0.108777553	4.857900E+01	  0.108777553	6.573400E+01	  0.108777553	5.528300E+01
445	  0.108977959	-6.972000E+00	  0.108977959	4.833500E+01	  0.108977959	6.604600E+01	  0.108977959	5.533100E+01
446	  0.109178357	-6.970000E+00	  0.109178357	4.810000E+01	  0.109178357	6.634400E+01	  0.109178357	5.539800E+01
447	  0.109378755	-6.970000E+00	  0.109378755	4.787000E+01	  0.109378755	6.664000E+01	  0.109378755	5.544100E+01
448	  0.109579161	-6.966000E+00	  0.109579161	4.766900E+01	  0.109579161	6.689600E+01	  0.109579161	5.550900E+01
449	  0.109779559	-6.966000E+00	  0.109779559	4.742100E+01	  0.109779559	6.721700E+01	  0.109779559	5.555800E+01
450	  0.109979957	-6.965000E+00	  0.109979957	4.719700E+01	  0.109979957	6.750900E+01	  0.109979957	5.560800E+01
451	  0.110180363	-6.966000E+00	  0.110180363	4.696100E+01	  0.110180363	6.782100E+01	  0.110180363	5.563900E+01
452	  0.110380761	-6.962000E+00	  0.110380761	4.673100E+01	  0.110380761	6.812000E+01	  0.110380761	5.571700E+01
453	  0.110581160	-6.964000E+00	  0.110581160	4.649000E+01	  0.110581160	6.844300E+01	  0.110581160	5.573600E+01
454	  0.110781565	-6.962000E+00	  0.110781565	4.627300E+01	  0.110781565	6.872900E+01	  0.110781565	5.579200E+01
455	  0.110981964	-6.960000E+00	  0.110981964	4.602900E+01	  0.110981964	6.905400E+01	  0.110981964	5.584800E+01
456	  0.111182362	-6.956000E+00	  0.111182362	4.579800E+01	  0.111182362	6.936400E+01	  0.111182362	5.591400E+01
457	  0.111382768	-6.960000E+00	  0.111382768	4.556900E+01	  0.111382768	6.967800E+01	  0.111382768	5.591100E+01
458	  0.111583166	-6.958000E+00	  0.111583166	4.534100E+01	  0.111583166	6.998600E+01	  0.111583166	5.595700E+01
459	  0.111783572	-6.957000E+00	  0.111783572	4.512200E+01	  0.111783572	7.028500E+01	  0.111783572	5.599900E+01
460	  0.111983970	-6.955000E+00	  0.111983970	4.490500E+01	  0.111983970	7.058300E+01	  0.111983970	5.603900E+01
461	  0.112184368	-6.954000E+00	  0.112184368	4.465100E+01	  0.112184368	7.093400E+01	  0.112184368	5.608000E+01
462	  0.112384774	-6.954000E+00	  0.112384774	4.444300E+01	  0.112384774	7.122300E+01	  0.112384774	5.609500E+01
463	  0.112585172	-6.953000E+00	  0.112585172	4.420000E+01	  0.112585172	7.156200E+01	  0.112585172	5.612800E+01
464	  0.112785570	-6.954000E+00	  0.112785570	4.399300E+01	  0.112785570	7.185400E+01	  0.112785570	5.613900E+01
465	  0.112985976	-6.952000E+00	  0.112985976	4.375400E+01	  0.112985976	7.219000E+01	  0.112985976	5.618200E+01
466	  0.113186374	-6.950000E+00	  0.113186374	4.351800E+01	  0.113186374	7.252500E+01	  0.113186374	5.621400E+01
467	  0.113386773	-6.950000E+00	  0.113386773	4.329900E+01	  0.113386773	7.283600E+01	  0.113386773	5.622800E+01
468	  0.113587178	-6.950000E+00	  0.113587178	4.306600E+01	  0.113587178	7.317100E+01	  0.113587178	5.623800E+01
469	  0.113787577	-6.949000E+00	  0.113787577	4.284500E+01	  0.113787577	7.348800E+01	  0.113787577	5.626700E+01
470	  0.113987975	-6.951000E+00	  0.113987975	4.263600E+01	  0.113987975	7.379100E+01	  0.113987975	5.624800E+01
471	  0.114188381	-6.947000E+00	  0.114188381	4.238400E+01	  0.114188381	7.415700E+01	  0.114188381	5.630000E+01
472	  0.114388779	-6.946000E+00	  0.114388779	4.215900E+01	  0.114388779	7.448500E+01	  0.114388779	5.631200E+01
473	  0.114589177	-6.946000E+00	  0.114589177	4.192300E+01	  0.114589177	7.483200E+01	  0.114589177	5.632200E+01
474	  0.114789583	-6.946000E+00	  0.114789583	4.167900E+01	  0.114789583	7.519200E+01	  0.114789583	5.632400E+01
475	  0.114989981	-6.947000E+00	  0.114989981	4.146800E+01	  0.114989981	7.550400E+01	  0.114989981	5.630900E+01
476	  0.115190387	-6.944000E+00	  0.115190387	4.125200E+01	  0.115190387	7.582500E+01	  0.115190387	5.633400E+01
477	  0.115390785	-6.945000E+00	  0.115390785	4.101800E+01	  0.115390785	7.617400E+01	  0.115390785	5.632000E+01
478	  0.115591183	-6.943000E+00	  0.115591183	4.078800E+01	  0.115591183	7.652100E+01	  0.115591183	5.633400E+01
479	  0.115791589	-6.941000E+00	  0.115791589	4.055900E+01	  0.115791589	7.686700E+01	  0.115791589	5.634500E+01
480	  0.115991987	-6.945000E+00	  0.115991987	4.031800E+01	  0.115991987	7.723100E+01	  0.115991987	5.629500E+01
481	  0.116192386	-6.941000E+00	  0.116192386	4.011000E+01	  0.116192386	7.754900E+01	  0.116192386	5.632600E+01
482	  0.116392791	-6.943000E+00	  0.116392791	3.987400E+01	  0.116392791	7.790900E+01	  0.116392791	5.629400E+01
483	  0.116593190	-6.942000E+00	  0.116593190	3.965800E+01	  0.116593190	7.824000E+01	  0.116593190	5.628900E+01
484	  0.116793588	-6.938000E+00	  0.116793588	3.944200E+01	  0.116793588	7.857500E+01	  0.116793588	5.631200E+01
485	  0.116993994	-6.940000E+00	  0.116993994	3.921800E+01	  0.116993994	7.892100E+01	  0.116993994	5.626300E+01
486	  0.117194392	-6.938000E+00	  0.117194392	3.896300E+01	  0.117194392	7.931800E+01	  0.117194392	5.625600E+01
487	  0.117394790	-6.941000E+00	  0.117394790	3.875800E+01	  0.117394790	7.963500E+01	  0.117394790	5.621100E+01
488	  0.117595196	-6.939000E+00	  0.117595196	3.853100E+01	  0.117595196	7.999300E+01	  0.117595196	5.620200E+01
489	  0.117795594	-6.937000E+00	  0.117795594	3.828100E+01	  0.117795594	8.038700E+01	  0.117795594	5.619000E+01
490	  0.117995992	-6.936000E+00	  0.117995992	3.806700E+01	  0.117995992	8.072700E+01	  0.117995992	5.616800E+01
491	  0.118196398	-6.936000E+00	  0.118196398	3.783300E+01	  0.118196398	8.109800E+01	  0.118196398	5.612900E+01
492	  0.118396796	-6.938000E+00	  0.118396796	3.758800E+01	  0.118396796	8.148600E+01	  0.118396796	5.606900E+01
493	  0.118597202	-6.934000E+00	  0.118597202	3.739000E+01	  0.118597202	8.180700E+01	  0.118597202	5.607400E+01
494	  0.118797600	-6.932000E+00	  0.118797600	3.714800E+01	  0.118797600	8.219800E+01	  0.118797600	5.604800E+01
495	  0.118997999	-6.933000E+00	  0.118997999	3.692700E+01	  0.118997999	8.255300E+01	  0.118997999	5.599400E+01
496	  0.119198404	-6.931000E+00	  0.119198404	3.669500E+01	  0.119198404	8.293000E+01	  0.119198404	5.596600E+01
497	  0.119398803	-6.932000E+00	  0.119398803	3.647100E+01	  0.119398803	8.329200E+01	  0.119398803	5.590800E+01
498	  0.119599201	-6.932000E+00	  0.119599201	3.623600E+01	  0.119599201	8.367500E+01	  0.119599201	5.585400E+01
499	  0.119799607	-6.929000E+00	  0.119799607	3.600800E+01	  0.119799607	8.405200E+01	  0.119799607	5.582700E+01
500	  0.120000005	-6.929000E+00	  0.120000005	3.576900E+01	  0.120000005	8.444400E+01	  0.120000005	5.576000E+01
