! Anritsu VNA Master:             	Model: MS2036C/10/77
! SN:             	1601066
! /bd0/18may12.cable.cal/top.200.txt
! Existing Calibration Information:
! TYPE:             	Current Settings	Active Cal Settings
! TIME:             	05/12/2018 01:33:34 PM	05/12/2018 01:24:18 PM
! INTERNAL TEMP:    	49.3 C	49.3 C
! # POINTS:         	500	500
! START FREQ:       	20.000 MHz	20.000 MHz
! STOP FREQ:        	120.000 MHz	120.000 MHz
! SOURCE POWER:     	High	High
! IFBW:             	50 Hz	50 Hz
! AVG FACTOR:       	  1 	  1 
! REF PLANE 1:      	0 mm	0 mm
! REF PLANE 2:      	0 mm	0 mm
! CAL TYPE:         	Full S22	Full S22
! CAL METHOD:       	SOLT	SOLT
! CAL LINE TYPE:    	Coax	Coax
! DUT PORT 1:       	K-Conn(M)	K-Conn(M)
! DUT PORT 2:       	K-Conn(M)	K-Conn(M)
! CAL STATUS:       	OK: Accuracy High	--
! PROP-V:       	0.700
! CABLE LOSS:       	0.000 dB/m
! REF IMPEDANCE:       	50.0
! Trace Specific Parameters:	TR1	TR2	TR3	TR4
! TRACE.#.Y (GRAPH TYPE)	LOG MAG	PHASE	REAL IMPEDANCE	IMAGINARY IMPEDANCE
! TRACE.#.X 	FREQ.GHZ	FREQ.GHZ	FREQ.GHZ	FREQ.GHZ
! S-PARAMETER	S22	S22	S22	S22
! SMOOTH/APERTURE %	0	0	0	0
! WINDOW	NSL	NSL	NSL	NSL
! GATING	OFF	OFF	OFF	OFF
! FGTD	OFF	OFF	OFF	OFF
Marker Information per Trace:	TR1	TR2	TR3	TR4
!MK1	--	"MK1 TR2:  12.184 368 MHz,##.##"	--	--
!MK2	--	--	"MK2 TR3:  12.184 368 MHz,##.##"	--
!MK3	--	--	--	--
!MK4	--	--	--	--
!MK5	--	--	--	--
!MK6	--	--	--	--
!MK7	--	--	--	--
!MK8	--	--	--	--
PNT	TR1.FREQ.GHZ	TR1.LOG MAG.dB	TR2.FREQ.GHZ	TR2.PHASE.deg	TR3.FREQ.GHZ	TR3.REAL IMPEDANCE.ohm	TR4.FREQ.GHZ	TR4.IMAGINARY IMPEDANCE.ohm
1	  0.020000000	-4.537000E+00	  0.020000000	-2.252600E+01	  0.020000000	1.265750E+02	  0.020000000	-8.873900E+01
2	  0.020200402	-4.535000E+00	  0.020200402	-2.276200E+01	  0.020200402	1.256580E+02	  0.020200402	-8.900000E+01
3	  0.020400802	-4.536000E+00	  0.020400802	-2.298600E+01	  0.020400802	1.247810E+02	  0.020400802	-8.918500E+01
4	  0.020601204	-4.539000E+00	  0.020601204	-2.320800E+01	  0.020601204	1.239080E+02	  0.020601204	-8.931500E+01
5	  0.020801604	-4.538000E+00	  0.020801604	-2.343900E+01	  0.020801604	1.230210E+02	  0.020801604	-8.952500E+01
6	  0.021002004	-4.539000E+00	  0.021002004	-2.367400E+01	  0.021002004	1.221160E+02	  0.021002004	-8.968200E+01
7	  0.021202406	-4.539000E+00	  0.021202406	-2.389000E+01	  0.021202406	1.212900E+02	  0.021202406	-8.983400E+01
8	  0.021402806	-4.540000E+00	  0.021402806	-2.412800E+01	  0.021402806	1.203820E+02	  0.021402806	-8.997700E+01
9	  0.021603208	-4.541000E+00	  0.021603208	-2.434700E+01	  0.021603208	1.195500E+02	  0.021603208	-9.009600E+01
10	  0.021803608	-4.540000E+00	  0.021803608	-2.458700E+01	  0.021803608	1.186580E+02	  0.021803608	-9.027300E+01
11	  0.022004008	-4.542000E+00	  0.022004008	-2.480700E+01	  0.022004008	1.178290E+02	  0.022004008	-9.035700E+01
12	  0.022204408	-4.541000E+00	  0.022204408	-2.504000E+01	  0.022204408	1.169690E+02	  0.022204408	-9.051700E+01
13	  0.022404809	-4.542000E+00	  0.022404809	-2.526300E+01	  0.022404809	1.161460E+02	  0.022404809	-9.060400E+01
14	  0.022605211	-4.544000E+00	  0.022605211	-2.547400E+01	  0.022605211	1.153670E+02	  0.022605211	-9.065600E+01
15	  0.022805611	-4.546000E+00	  0.022805611	-2.570300E+01	  0.022805611	1.145280E+02	  0.022805611	-9.070900E+01
16	  0.023006011	-4.545000E+00	  0.023006011	-2.594000E+01	  0.023006011	1.136740E+02	  0.023006011	-9.081000E+01
17	  0.023206413	-4.544000E+00	  0.023206413	-2.617200E+01	  0.023206413	1.128420E+02	  0.023206413	-9.091200E+01
18	  0.023406813	-4.545000E+00	  0.023406813	-2.639500E+01	  0.023406813	1.120430E+02	  0.023406813	-9.097500E+01
19	  0.023607215	-4.547000E+00	  0.023607215	-2.662300E+01	  0.023607215	1.112310E+02	  0.023607215	-9.098200E+01
20	  0.023807615	-4.547000E+00	  0.023807615	-2.684500E+01	  0.023807615	1.104500E+02	  0.023807615	-9.104800E+01
21	  0.024008015	-4.548000E+00	  0.024008015	-2.707300E+01	  0.024008015	1.096500E+02	  0.024008015	-9.107100E+01
22	  0.024208417	-4.547000E+00	  0.024208417	-2.729900E+01	  0.024208417	1.088680E+02	  0.024208417	-9.114200E+01
23	  0.024408817	-4.548000E+00	  0.024408817	-2.753100E+01	  0.024408817	1.080630E+02	  0.024408817	-9.115500E+01
24	  0.024609219	-4.550000E+00	  0.024609219	-2.775000E+01	  0.024609219	1.073140E+02	  0.024609219	-9.115200E+01
25	  0.024809619	-4.550000E+00	  0.024809619	-2.797600E+01	  0.024809619	1.065430E+02	  0.024809619	-9.118000E+01
26	  0.025010020	-4.550000E+00	  0.025010020	-2.819800E+01	  0.025010020	1.057950E+02	  0.025010020	-9.120100E+01
27	  0.025210422	-4.555000E+00	  0.025210422	-2.842400E+01	  0.025210422	1.050340E+02	  0.025210422	-9.109900E+01
28	  0.025410822	-4.553000E+00	  0.025410822	-2.864900E+01	  0.025410822	1.042860E+02	  0.025410822	-9.114700E+01
29	  0.025611224	-4.555000E+00	  0.025611224	-2.886700E+01	  0.025611224	1.035660E+02	  0.025611224	-9.109900E+01
30	  0.025811624	-4.555000E+00	  0.025811624	-2.910400E+01	  0.025811624	1.027870E+02	  0.025811624	-9.109200E+01
31	  0.026012026	-4.556000E+00	  0.026012026	-2.933400E+01	  0.026012026	1.020390E+02	  0.026012026	-9.105200E+01
32	  0.026212426	-4.558000E+00	  0.026212426	-2.956100E+01	  0.026212426	1.013050E+02	  0.026212426	-9.100400E+01
33	  0.026412826	-4.558000E+00	  0.026412826	-2.977800E+01	  0.026412826	1.006100E+02	  0.026412826	-9.096900E+01
34	  0.026613226	-4.557000E+00	  0.026613226	-3.001800E+01	  0.026613226	9.984600E+01	  0.026613226	-9.097100E+01
35	  0.026813626	-4.558000E+00	  0.026813626	-3.024400E+01	  0.026813626	9.913300E+01	  0.026813626	-9.091700E+01
36	  0.027014028	-4.560000E+00	  0.027014028	-3.046900E+01	  0.027014028	9.842900E+01	  0.027014028	-9.083900E+01
37	  0.027214428	-4.559000E+00	  0.027214428	-3.069300E+01	  0.027214428	9.773100E+01	  0.027214428	-9.081600E+01
38	  0.027414829	-4.560000E+00	  0.027414829	-3.092900E+01	  0.027414829	9.700500E+01	  0.027414829	-9.073300E+01
39	  0.027615231	-4.559000E+00	  0.027615231	-3.116200E+01	  0.027615231	9.629200E+01	  0.027615231	-9.069400E+01
40	  0.027815631	-4.561000E+00	  0.027815631	-3.137900E+01	  0.027815631	9.563500E+01	  0.027815631	-9.060800E+01
41	  0.028016033	-4.563000E+00	  0.028016033	-3.160500E+01	  0.028016033	9.495800E+01	  0.028016033	-9.050400E+01
42	  0.028216433	-4.563000E+00	  0.028216433	-3.184000E+01	  0.028216433	9.425500E+01	  0.028216433	-9.043600E+01
43	  0.028416833	-4.564000E+00	  0.028416833	-3.207800E+01	  0.028416833	9.355200E+01	  0.028416833	-9.033500E+01
44	  0.028617235	-4.564000E+00	  0.028617235	-3.229500E+01	  0.028617235	9.291600E+01	  0.028617235	-9.025900E+01
45	  0.028817635	-4.564000E+00	  0.028817635	-3.252200E+01	  0.028817635	9.225300E+01	  0.028817635	-9.016800E+01
46	  0.029018037	-4.562000E+00	  0.029018037	-3.275300E+01	  0.029018037	9.158100E+01	  0.029018037	-9.011800E+01
47	  0.029218437	-4.566000E+00	  0.029218437	-3.298100E+01	  0.029218437	9.093500E+01	  0.029218437	-8.996500E+01
48	  0.029418837	-4.567000E+00	  0.029418837	-3.321000E+01	  0.029418837	9.028800E+01	  0.029418837	-8.984300E+01
49	  0.029619239	-4.565000E+00	  0.029619239	-3.343900E+01	  0.029619239	8.963900E+01	  0.029619239	-8.977500E+01
50	  0.029819639	-4.567000E+00	  0.029819639	-3.367700E+01	  0.029819639	8.897900E+01	  0.029819639	-8.963700E+01
51	  0.030020041	-4.568000E+00	  0.030020041	-3.390400E+01	  0.030020041	8.835000E+01	  0.030020041	-8.951800E+01
52	  0.030220442	-4.568000E+00	  0.030220442	-3.414200E+01	  0.030220442	8.769800E+01	  0.030220442	-8.939600E+01
53	  0.030420844	-4.569000E+00	  0.030420844	-3.436800E+01	  0.030420844	8.708500E+01	  0.030420844	-8.926700E+01
54	  0.030621244	-4.569000E+00	  0.030621244	-3.459300E+01	  0.030621244	8.647900E+01	  0.030621244	-8.915100E+01
55	  0.030821644	-4.569000E+00	  0.030821644	-3.482400E+01	  0.030821644	8.585500E+01	  0.030821644	-8.904200E+01
56	  0.031022044	-4.570000E+00	  0.031022044	-3.505300E+01	  0.031022044	8.525400E+01	  0.031022044	-8.888800E+01
57	  0.031222444	-4.557000E+00	  0.031222444	-3.521400E+01	  0.031222444	8.478000E+01	  0.031222444	-8.903200E+01
58	  0.031422846	-4.559000E+00	  0.031422846	-3.545700E+01	  0.031422846	8.415000E+01	  0.031422846	-8.885700E+01
59	  0.031623244	-4.560000E+00	  0.031623244	-3.569800E+01	  0.031623244	8.352900E+01	  0.031623244	-8.869100E+01
60	  0.031823646	-4.559000E+00	  0.031823646	-3.591200E+01	  0.031823646	8.297400E+01	  0.031823646	-8.858300E+01
61	  0.032024048	-4.562000E+00	  0.032024048	-3.614000E+01	  0.032024048	8.240200E+01	  0.032024048	-8.839900E+01
62	  0.032224450	-4.562000E+00	  0.032224450	-3.638500E+01	  0.032224450	8.178400E+01	  0.032224450	-8.823700E+01
63	  0.032424849	-4.564000E+00	  0.032424849	-3.661800E+01	  0.032424849	8.120700E+01	  0.032424849	-8.806400E+01
64	  0.032625251	-4.565000E+00	  0.032625251	-3.683800E+01	  0.032625251	8.066700E+01	  0.032625251	-8.789800E+01
65	  0.032825653	-4.564000E+00	  0.032825653	-3.707200E+01	  0.032825653	8.008500E+01	  0.032825653	-8.776300E+01
66	  0.033026051	-4.566000E+00	  0.033026051	-3.730200E+01	  0.033026051	7.952900E+01	  0.033026051	-8.758800E+01
67	  0.033226453	-4.566000E+00	  0.033226453	-3.753700E+01	  0.033226453	7.895900E+01	  0.033226453	-8.743300E+01
68	  0.033426855	-4.566000E+00	  0.033426855	-3.777000E+01	  0.033426855	7.839900E+01	  0.033426855	-8.727000E+01
69	  0.033627257	-4.565000E+00	  0.033627257	-3.799100E+01	  0.033627257	7.787300E+01	  0.033627257	-8.711900E+01
70	  0.033827655	-4.568000E+00	  0.033827655	-3.822400E+01	  0.033827655	7.733600E+01	  0.033827655	-8.692000E+01
71	  0.034028057	-4.567000E+00	  0.034028057	-3.844300E+01	  0.034028057	7.681900E+01	  0.034028057	-8.677800E+01
72	  0.034228459	-4.568000E+00	  0.034228459	-3.868900E+01	  0.034228459	7.625600E+01	  0.034228459	-8.657900E+01
73	  0.034428857	-4.569000E+00	  0.034428857	-3.890500E+01	  0.034428857	7.576300E+01	  0.034428857	-8.641300E+01
74	  0.034629259	-4.570000E+00	  0.034629259	-3.913800E+01	  0.034629259	7.523800E+01	  0.034629259	-8.622500E+01
75	  0.034829661	-4.568000E+00	  0.034829661	-3.937100E+01	  0.034829661	7.470700E+01	  0.034829661	-8.606700E+01
76	  0.035030060	-4.569000E+00	  0.035030060	-3.960000E+01	  0.035030060	7.419800E+01	  0.035030060	-8.588400E+01
77	  0.035230462	-4.569000E+00	  0.035230462	-3.982000E+01	  0.035230462	7.371000E+01	  0.035230462	-8.571700E+01
78	  0.035430863	-4.569000E+00	  0.035430863	-4.006300E+01	  0.035430863	7.317700E+01	  0.035430863	-8.552400E+01
79	  0.035631265	-4.571000E+00	  0.035631265	-4.027300E+01	  0.035631265	7.272800E+01	  0.035631265	-8.533800E+01
80	  0.035831664	-4.571000E+00	  0.035831664	-4.051800E+01	  0.035831664	7.220000E+01	  0.035831664	-8.514900E+01
81	  0.036032066	-4.570000E+00	  0.036032066	-4.072900E+01	  0.036032066	7.174600E+01	  0.036032066	-8.498700E+01
82	  0.036232468	-4.574000E+00	  0.036232468	-4.097600E+01	  0.036232468	7.124100E+01	  0.036232468	-8.474000E+01
83	  0.036432866	-4.572000E+00	  0.036432866	-4.119500E+01	  0.036432866	7.077300E+01	  0.036432866	-8.458700E+01
84	  0.036633268	-4.573000E+00	  0.036633268	-4.141500E+01	  0.036633268	7.032000E+01	  0.036633268	-8.439400E+01
85	  0.036833670	-4.573000E+00	  0.036833670	-4.165300E+01	  0.036833670	6.983000E+01	  0.036833670	-8.419800E+01
86	  0.037034072	-4.573000E+00	  0.037034072	-4.187500E+01	  0.037034072	6.937600E+01	  0.037034072	-8.401600E+01
87	  0.037234470	-4.574000E+00	  0.037234470	-4.209500E+01	  0.037234470	6.893600E+01	  0.037234470	-8.381500E+01
88	  0.037434869	-4.573000E+00	  0.037434869	-4.233200E+01	  0.037434869	6.845400E+01	  0.037434869	-8.363600E+01
89	  0.037635271	-4.572000E+00	  0.037635271	-4.255700E+01	  0.037635271	6.800200E+01	  0.037635271	-8.345500E+01
90	  0.037835669	-4.574000E+00	  0.037835669	-4.277900E+01	  0.037835669	6.757900E+01	  0.037835669	-8.323700E+01
91	  0.038036071	-4.574000E+00	  0.038036071	-4.300900E+01	  0.038036071	6.712400E+01	  0.038036071	-8.304900E+01
92	  0.038236473	-4.576000E+00	  0.038236473	-4.323800E+01	  0.038236473	6.669000E+01	  0.038236473	-8.283100E+01
93	  0.038436871	-4.575000E+00	  0.038436871	-4.346100E+01	  0.038436871	6.626200E+01	  0.038436871	-8.264100E+01
94	  0.038637273	-4.578000E+00	  0.038637273	-4.366800E+01	  0.038637273	6.588200E+01	  0.038637273	-8.243200E+01
95	  0.038837675	-4.577000E+00	  0.038837675	-4.391000E+01	  0.038837675	6.542100E+01	  0.038837675	-8.222900E+01
96	  0.039038073	-4.576000E+00	  0.039038073	-4.414000E+01	  0.039038073	6.498500E+01	  0.039038073	-8.204500E+01
97	  0.039238475	-4.578000E+00	  0.039238475	-4.436000E+01	  0.039238475	6.459000E+01	  0.039238475	-8.182500E+01
98	  0.039438877	-4.578000E+00	  0.039438877	-4.459600E+01	  0.039438877	6.415600E+01	  0.039438877	-8.161800E+01
99	  0.039639279	-4.579000E+00	  0.039639279	-4.482300E+01	  0.039639279	6.374600E+01	  0.039639279	-8.141200E+01
100	  0.039839678	-4.581000E+00	  0.039839678	-4.505700E+01	  0.039839678	6.333700E+01	  0.039839678	-8.117900E+01
101	  0.040040080	-4.580000E+00	  0.040040080	-4.527000E+01	  0.040040080	6.295200E+01	  0.040040080	-8.099500E+01
102	  0.040240481	-4.581000E+00	  0.040240481	-4.549700E+01	  0.040240481	6.255400E+01	  0.040240481	-8.078800E+01
103	  0.040440880	-4.581000E+00	  0.040440880	-4.574200E+01	  0.040440880	6.212600E+01	  0.040440880	-8.056400E+01
104	  0.040641282	-4.583000E+00	  0.040641282	-4.595900E+01	  0.040641282	6.176000E+01	  0.040641282	-8.034700E+01
105	  0.040841684	-4.585000E+00	  0.040841684	-4.618500E+01	  0.040841684	6.138400E+01	  0.040841684	-8.011900E+01
106	  0.041042086	-4.583000E+00	  0.041042086	-4.641400E+01	  0.041042086	6.098100E+01	  0.041042086	-7.993500E+01
107	  0.041242484	-4.583000E+00	  0.041242484	-4.662900E+01	  0.041242484	6.061500E+01	  0.041242484	-7.974200E+01
108	  0.041442886	-4.585000E+00	  0.041442886	-4.685900E+01	  0.041442886	6.024100E+01	  0.041442886	-7.951100E+01
109	  0.041643288	-4.587000E+00	  0.041643288	-4.708600E+01	  0.041643288	5.987300E+01	  0.041643288	-7.928700E+01
110	  0.041843686	-4.586000E+00	  0.041843686	-4.732100E+01	  0.041843686	5.948000E+01	  0.041843686	-7.908100E+01
111	  0.042044088	-4.586000E+00	  0.042044088	-4.755000E+01	  0.042044088	5.910500E+01	  0.042044088	-7.887500E+01
112	  0.042244490	-4.589000E+00	  0.042244490	-4.778300E+01	  0.042244490	5.874300E+01	  0.042244490	-7.863500E+01
113	  0.042444889	-4.590000E+00	  0.042444889	-4.801300E+01	  0.042444889	5.838300E+01	  0.042444889	-7.840800E+01
114	  0.042645290	-4.589000E+00	  0.042645290	-4.824000E+01	  0.042645290	5.801700E+01	  0.042645290	-7.821100E+01
115	  0.042845692	-4.590000E+00	  0.042845692	-4.846300E+01	  0.042845692	5.767100E+01	  0.042845692	-7.799400E+01
116	  0.043046094	-4.591000E+00	  0.043046094	-4.868700E+01	  0.043046094	5.732500E+01	  0.043046094	-7.778100E+01
117	  0.043246493	-4.592000E+00	  0.043246493	-4.892300E+01	  0.043246493	5.696400E+01	  0.043246493	-7.755900E+01
118	  0.043446895	-4.593000E+00	  0.043446895	-4.915600E+01	  0.043446895	5.661300E+01	  0.043446895	-7.733200E+01
119	  0.043647297	-4.593000E+00	  0.043647297	-4.937900E+01	  0.043647297	5.627500E+01	  0.043647297	-7.712500E+01
120	  0.043847695	-4.594000E+00	  0.043847695	-4.960400E+01	  0.043847695	5.594400E+01	  0.043847695	-7.690400E+01
121	  0.044048097	-4.595000E+00	  0.044048097	-4.984900E+01	  0.044048097	5.558400E+01	  0.044048097	-7.667000E+01
122	  0.044248499	-4.596000E+00	  0.044248499	-5.006900E+01	  0.044248499	5.525900E+01	  0.044248499	-7.646200E+01
123	  0.044448901	-4.597000E+00	  0.044448901	-5.029900E+01	  0.044448901	5.493300E+01	  0.044448901	-7.623200E+01
124	  0.044649299	-4.598000E+00	  0.044649299	-5.053000E+01	  0.044649299	5.459700E+01	  0.044649299	-7.601700E+01
125	  0.044849701	-4.599000E+00	  0.044849701	-5.076100E+01	  0.044849701	5.427200E+01	  0.044849701	-7.579200E+01
126	  0.045050103	-4.599000E+00	  0.045050103	-5.100200E+01	  0.045050103	5.393000E+01	  0.045050103	-7.556600E+01
127	  0.045250501	-4.604000E+00	  0.045250501	-5.122200E+01	  0.045250501	5.364500E+01	  0.045250501	-7.531900E+01
128	  0.045450903	-4.605000E+00	  0.045450903	-5.144900E+01	  0.045450903	5.333300E+01	  0.045450903	-7.510100E+01
129	  0.045651305	-4.605000E+00	  0.045651305	-5.168900E+01	  0.045651305	5.300000E+01	  0.045651305	-7.487700E+01
130	  0.045851704	-4.604000E+00	  0.045851704	-5.193400E+01	  0.045851704	5.265400E+01	  0.045851704	-7.466200E+01
131	  0.046052106	-4.603000E+00	  0.046052106	-5.216100E+01	  0.046052106	5.234100E+01	  0.046052106	-7.445700E+01
132	  0.046252504	-4.603000E+00	  0.046252504	-5.238800E+01	  0.046252504	5.203500E+01	  0.046252504	-7.424400E+01
133	  0.046452906	-4.604000E+00	  0.046452906	-5.262700E+01	  0.046452906	5.171700E+01	  0.046452906	-7.402100E+01
134	  0.046653304	-4.605000E+00	  0.046653304	-5.284400E+01	  0.046653304	5.143600E+01	  0.046653304	-7.380600E+01
135	  0.046853706	-4.606000E+00	  0.046853706	-5.308200E+01	  0.046853706	5.112700E+01	  0.046853706	-7.358100E+01
136	  0.047054108	-4.610000E+00	  0.047054108	-5.331800E+01	  0.047054108	5.084100E+01	  0.047054108	-7.332900E+01
137	  0.047254506	-4.609000E+00	  0.047254506	-5.355200E+01	  0.047254506	5.053600E+01	  0.047254506	-7.311500E+01
138	  0.047454908	-4.611000E+00	  0.047454908	-5.377500E+01	  0.047454908	5.025900E+01	  0.047454908	-7.289600E+01
139	  0.047655310	-4.610000E+00	  0.047655310	-5.400900E+01	  0.047655310	4.995800E+01	  0.047655310	-7.268600E+01
140	  0.047855709	-4.611000E+00	  0.047855709	-5.424400E+01	  0.047855709	4.966600E+01	  0.047855709	-7.246300E+01
141	  0.048056111	-4.612000E+00	  0.048056111	-5.446700E+01	  0.048056111	4.939000E+01	  0.048056111	-7.225300E+01
142	  0.048256513	-4.612000E+00	  0.048256513	-5.471700E+01	  0.048256513	4.908000E+01	  0.048256513	-7.202200E+01
143	  0.048456915	-4.613000E+00	  0.048456915	-5.494500E+01	  0.048456915	4.880700E+01	  0.048456915	-7.180300E+01
144	  0.048657313	-4.614000E+00	  0.048657313	-5.517300E+01	  0.048657313	4.853900E+01	  0.048657313	-7.158000E+01
145	  0.048857715	-4.615000E+00	  0.048857715	-5.539800E+01	  0.048857715	4.826900E+01	  0.048857715	-7.137100E+01
146	  0.049058117	-4.616000E+00	  0.049058117	-5.563800E+01	  0.049058117	4.799100E+01	  0.049058117	-7.113800E+01
147	  0.049258515	-4.618000E+00	  0.049258515	-5.586400E+01	  0.049258515	4.773200E+01	  0.049258515	-7.091900E+01
148	  0.049458917	-4.619000E+00	  0.049458917	-5.609300E+01	  0.049458917	4.746900E+01	  0.049458917	-7.070300E+01
149	  0.049659319	-4.617000E+00	  0.049659319	-5.631900E+01	  0.049659319	4.719400E+01	  0.049659319	-7.050800E+01
150	  0.049859721	-4.621000E+00	  0.049859721	-5.655600E+01	  0.049859721	4.694500E+01	  0.049859721	-7.026100E+01
151	  0.050060119	-4.622000E+00	  0.050060119	-5.679500E+01	  0.050060119	4.667900E+01	  0.050060119	-7.003400E+01
152	  0.050260521	-4.621000E+00	  0.050260521	-5.701500E+01	  0.050260521	4.642200E+01	  0.050260521	-6.984100E+01
153	  0.050460923	-4.622000E+00	  0.050460923	-5.724800E+01	  0.050460923	4.616200E+01	  0.050460923	-6.962500E+01
154	  0.050661322	-4.623000E+00	  0.050661322	-5.748200E+01	  0.050661322	4.590800E+01	  0.050661322	-6.940200E+01
155	  0.050861724	-4.624000E+00	  0.050861724	-5.771900E+01	  0.050861724	4.565300E+01	  0.050861724	-6.918000E+01
156	  0.051062126	-4.626000E+00	  0.051062126	-5.793700E+01	  0.051062126	4.542600E+01	  0.051062126	-6.896700E+01
157	  0.051262524	-4.626000E+00	  0.051262524	-5.816300E+01	  0.051262524	4.518100E+01	  0.051262524	-6.876100E+01
158	  0.051462926	-4.626000E+00	  0.051462926	-5.840600E+01	  0.051462926	4.491700E+01	  0.051462926	-6.854300E+01
159	  0.051663328	-4.628000E+00	  0.051663328	-5.863800E+01	  0.051663328	4.468300E+01	  0.051663328	-6.831600E+01
160	  0.051863730	-4.628000E+00	  0.051863730	-5.885900E+01	  0.051863730	4.444800E+01	  0.051863730	-6.811700E+01
161	  0.052064128	-4.631000E+00	  0.052064128	-5.909500E+01	  0.052064128	4.421500E+01	  0.052064128	-6.788600E+01
162	  0.052264530	-4.628000E+00	  0.052264530	-5.932800E+01	  0.052264530	4.395700E+01	  0.052264530	-6.769500E+01
163	  0.052464932	-4.629000E+00	  0.052464932	-5.956900E+01	  0.052464932	4.371000E+01	  0.052464932	-6.747500E+01
164	  0.052665330	-4.631000E+00	  0.052665330	-5.979200E+01	  0.052665330	4.349300E+01	  0.052665330	-6.726100E+01
165	  0.052865732	-4.631000E+00	  0.052865732	-6.003200E+01	  0.052865732	4.325000E+01	  0.052865732	-6.704500E+01
166	  0.053066134	-4.632000E+00	  0.053066134	-6.025200E+01	  0.053066134	4.303600E+01	  0.053066134	-6.684100E+01
167	  0.053266536	-4.634000E+00	  0.053266536	-6.048000E+01	  0.053266536	4.281700E+01	  0.053266536	-6.662700E+01
168	  0.053466935	-4.634000E+00	  0.053466935	-6.069900E+01	  0.053466935	4.260100E+01	  0.053466935	-6.643000E+01
169	  0.053667337	-4.636000E+00	  0.053667337	-6.093200E+01	  0.053667337	4.238400E+01	  0.053667337	-6.621000E+01
170	  0.053867739	-4.636000E+00	  0.053867739	-6.116200E+01	  0.053867739	4.216100E+01	  0.053867739	-6.600400E+01
171	  0.054068137	-4.637000E+00	  0.054068137	-6.139300E+01	  0.054068137	4.193900E+01	  0.054068137	-6.579800E+01
172	  0.054268539	-4.637000E+00	  0.054268539	-6.163400E+01	  0.054268539	4.171200E+01	  0.054268539	-6.558100E+01
173	  0.054468941	-4.639000E+00	  0.054468941	-6.185400E+01	  0.054468941	4.151400E+01	  0.054468941	-6.537500E+01
174	  0.054669339	-4.638000E+00	  0.054669339	-6.208400E+01	  0.054669339	4.129000E+01	  0.054669339	-6.517900E+01
175	  0.054869737	-4.639000E+00	  0.054869737	-6.232000E+01	  0.054869737	4.107300E+01	  0.054869737	-6.496900E+01
176	  0.055070139	-4.640000E+00	  0.055070139	-6.254200E+01	  0.055070139	4.087500E+01	  0.055070139	-6.476500E+01
177	  0.055270538	-4.639000E+00	  0.055270538	-6.276300E+01	  0.055270538	4.066900E+01	  0.055270538	-6.457500E+01
178	  0.055470940	-4.642000E+00	  0.055470940	-6.300900E+01	  0.055470940	4.046100E+01	  0.055470940	-6.434200E+01
179	  0.055671342	-4.643000E+00	  0.055671342	-6.323100E+01	  0.055671342	4.026600E+01	  0.055671342	-6.414100E+01
180	  0.055871744	-4.644000E+00	  0.055871744	-6.346300E+01	  0.055871744	4.006000E+01	  0.055871744	-6.393700E+01
181	  0.056072142	-4.643000E+00	  0.056072142	-6.368600E+01	  0.056072142	3.985500E+01	  0.056072142	-6.375000E+01
182	  0.056272544	-4.645000E+00	  0.056272544	-6.391900E+01	  0.056272544	3.966400E+01	  0.056272544	-6.353400E+01
183	  0.056472946	-4.646000E+00	  0.056472946	-6.416200E+01	  0.056472946	3.945700E+01	  0.056472946	-6.331600E+01
184	  0.056673344	-4.648000E+00	  0.056673344	-6.438900E+01	  0.056673344	3.926700E+01	  0.056673344	-6.311500E+01
185	  0.056873746	-4.649000E+00	  0.056873746	-6.461700E+01	  0.056873746	3.907600E+01	  0.056873746	-6.291200E+01
186	  0.057074148	-4.650000E+00	  0.057074148	-6.485500E+01	  0.057074148	3.888200E+01	  0.057074148	-6.269800E+01
187	  0.057274550	-4.651000E+00	  0.057274550	-6.507000E+01	  0.057274550	3.870500E+01	  0.057274550	-6.250800E+01
188	  0.057474948	-4.652000E+00	  0.057474948	-6.529800E+01	  0.057474948	3.852000E+01	  0.057474948	-6.230600E+01
189	  0.057675350	-4.654000E+00	  0.057675350	-6.553400E+01	  0.057675350	3.833400E+01	  0.057675350	-6.209500E+01
190	  0.057875752	-4.653000E+00	  0.057875752	-6.577000E+01	  0.057875752	3.813000E+01	  0.057875752	-6.190100E+01
191	  0.058076151	-4.655000E+00	  0.058076151	-6.602000E+01	  0.058076151	3.793700E+01	  0.058076151	-6.167800E+01
192	  0.058276553	-4.655000E+00	  0.058276553	-6.624400E+01	  0.058276553	3.775700E+01	  0.058276553	-6.148500E+01
193	  0.058476955	-4.658000E+00	  0.058476955	-6.646600E+01	  0.058476955	3.759200E+01	  0.058476955	-6.128300E+01
194	  0.058677353	-4.657000E+00	  0.058677353	-6.670600E+01	  0.058677353	3.739400E+01	  0.058677353	-6.108800E+01
195	  0.058877755	-4.660000E+00	  0.058877755	-6.693400E+01	  0.058877755	3.722800E+01	  0.058877755	-6.088000E+01
196	  0.059078157	-4.661000E+00	  0.059078157	-6.717600E+01	  0.059078157	3.704400E+01	  0.059078157	-6.067200E+01
197	  0.059278559	-4.661000E+00	  0.059278559	-6.739400E+01	  0.059278559	3.687700E+01	  0.059278559	-6.048400E+01
198	  0.059478957	-4.663000E+00	  0.059478957	-6.762500E+01	  0.059478957	3.670500E+01	  0.059478957	-6.028600E+01
199	  0.059679359	-4.664000E+00	  0.059679359	-6.787600E+01	  0.059679359	3.652200E+01	  0.059679359	-6.006600E+01
200	  0.059879761	-4.661000E+00	  0.059879761	-6.810200E+01	  0.059879761	3.633300E+01	  0.059879761	-5.989300E+01
201	  0.060080159	-4.665000E+00	  0.060080159	-6.833600E+01	  0.060080159	3.617700E+01	  0.060080159	-5.968000E+01
202	  0.060280561	-4.664000E+00	  0.060280561	-6.856900E+01	  0.060280561	3.599700E+01	  0.060280561	-5.949200E+01
203	  0.060480963	-4.666000E+00	  0.060480963	-6.880300E+01	  0.060480963	3.583400E+01	  0.060480963	-5.928800E+01
204	  0.060681365	-4.666000E+00	  0.060681365	-6.904000E+01	  0.060681365	3.565800E+01	  0.060681365	-5.909400E+01
205	  0.060881764	-4.669000E+00	  0.060881764	-6.927900E+01	  0.060881764	3.549800E+01	  0.060881764	-5.888300E+01
206	  0.061082166	-4.669000E+00	  0.061082166	-6.949600E+01	  0.061082166	3.534000E+01	  0.061082166	-5.870500E+01
207	  0.061282568	-4.669000E+00	  0.061282568	-6.974400E+01	  0.061282568	3.516100E+01	  0.061282568	-5.850200E+01
208	  0.061482966	-4.672000E+00	  0.061482966	-6.997600E+01	  0.061482966	3.501300E+01	  0.061482966	-5.829700E+01
209	  0.061683368	-4.672000E+00	  0.061683368	-7.020000E+01	  0.061683368	3.485200E+01	  0.061683368	-5.811700E+01
210	  0.061883770	-4.673000E+00	  0.061883770	-7.042800E+01	  0.061883770	3.469700E+01	  0.061883770	-5.792700E+01
211	  0.062084168	-4.673000E+00	  0.062084168	-7.066900E+01	  0.062084168	3.453100E+01	  0.062084168	-5.772900E+01
212	  0.062284570	-4.675000E+00	  0.062284570	-7.089700E+01	  0.062284570	3.438200E+01	  0.062284570	-5.753700E+01
213	  0.062484972	-4.663000E+00	  0.062484972	-7.105200E+01	  0.062484972	3.420900E+01	  0.062484972	-5.746800E+01
214	  0.062685370	-4.666000E+00	  0.062685370	-7.127700E+01	  0.062685370	3.407200E+01	  0.062685370	-5.727200E+01
215	  0.062885776	-4.667000E+00	  0.062885776	-7.150900E+01	  0.062885776	3.391900E+01	  0.062885776	-5.708100E+01
216	  0.063086174	-4.669000E+00	  0.063086174	-7.175100E+01	  0.063086174	3.376700E+01	  0.063086174	-5.687800E+01
217	  0.063286573	-4.671000E+00	  0.063286573	-7.198400E+01	  0.063286573	3.362500E+01	  0.063286573	-5.668000E+01
218	  0.063486971	-4.671000E+00	  0.063486971	-7.221900E+01	  0.063486971	3.347100E+01	  0.063486971	-5.649100E+01
219	  0.063687377	-4.667000E+00	  0.063687377	-7.244200E+01	  0.063687377	3.330100E+01	  0.063687377	-5.633300E+01
220	  0.063887775	-4.667000E+00	  0.063887775	-7.265700E+01	  0.063887775	3.316000E+01	  0.063887775	-5.616200E+01
221	  0.064088173	-4.667000E+00	  0.064088173	-7.289500E+01	  0.064088173	3.300800E+01	  0.064088173	-5.597100E+01
222	  0.064288579	-4.668000E+00	  0.064288579	-7.313400E+01	  0.064288579	3.285900E+01	  0.064288579	-5.577800E+01
223	  0.064488977	-4.670000E+00	  0.064488977	-7.336500E+01	  0.064488977	3.271900E+01	  0.064488977	-5.558900E+01
224	  0.064689375	-4.668000E+00	  0.064689375	-7.359600E+01	  0.064689375	3.256300E+01	  0.064689375	-5.541600E+01
225	  0.064889781	-4.670000E+00	  0.064889781	-7.384900E+01	  0.064889781	3.241700E+01	  0.064889781	-5.520700E+01
226	  0.065090179	-4.673000E+00	  0.065090179	-7.407500E+01	  0.065090179	3.229000E+01	  0.065090179	-5.501900E+01
227	  0.065290578	-4.672000E+00	  0.065290578	-7.430000E+01	  0.065290578	3.214600E+01	  0.065290578	-5.484700E+01
228	  0.065490983	-4.675000E+00	  0.065490983	-7.455100E+01	  0.065490983	3.201100E+01	  0.065490983	-5.463700E+01
229	  0.065691382	-4.674000E+00	  0.065691382	-7.477500E+01	  0.065691382	3.186900E+01	  0.065691382	-5.446700E+01
230	  0.065891780	-4.677000E+00	  0.065891780	-7.500800E+01	  0.065891780	3.174200E+01	  0.065891780	-5.427500E+01
231	  0.066092186	-4.676000E+00	  0.066092186	-7.523600E+01	  0.066092186	3.159800E+01	  0.066092186	-5.410400E+01
232	  0.066292584	-4.675000E+00	  0.066292584	-7.547600E+01	  0.066292584	3.145200E+01	  0.066292584	-5.392200E+01
233	  0.066492982	-4.675000E+00	  0.066492982	-7.571600E+01	  0.066492982	3.131000E+01	  0.066492982	-5.373800E+01
234	  0.066693388	-4.677000E+00	  0.066693388	-7.591900E+01	  0.066693388	3.120400E+01	  0.066693388	-5.357200E+01
235	  0.066893786	-4.679000E+00	  0.066893786	-7.618100E+01	  0.066893786	3.106100E+01	  0.066893786	-5.336400E+01
236	  0.067094192	-4.678000E+00	  0.067094192	-7.640000E+01	  0.067094192	3.092700E+01	  0.067094192	-5.320200E+01
237	  0.067294590	-4.679000E+00	  0.067294590	-7.665300E+01	  0.067294590	3.078900E+01	  0.067294590	-5.300500E+01
238	  0.067494988	-4.680000E+00	  0.067494988	-7.688300E+01	  0.067494988	3.066200E+01	  0.067494988	-5.282700E+01
239	  0.067695394	-4.680000E+00	  0.067695394	-7.710900E+01	  0.067695394	3.053500E+01	  0.067695394	-5.265600E+01
240	  0.067895792	-4.683000E+00	  0.067895792	-7.732700E+01	  0.067895792	3.042900E+01	  0.067895792	-5.247900E+01
241	  0.068096191	-4.683000E+00	  0.068096191	-7.756900E+01	  0.068096191	3.029600E+01	  0.068096191	-5.229500E+01
242	  0.068296596	-4.684000E+00	  0.068296596	-7.781100E+01	  0.068296596	3.016500E+01	  0.068296596	-5.211100E+01
243	  0.068496995	-4.683000E+00	  0.068496995	-7.803800E+01	  0.068496995	3.003900E+01	  0.068496995	-5.194200E+01
244	  0.068697393	-4.685000E+00	  0.068697393	-7.827500E+01	  0.068697393	2.992000E+01	  0.068697393	-5.175800E+01
245	  0.068897791	-4.683000E+00	  0.068897791	-7.852800E+01	  0.068897791	2.977200E+01	  0.068897791	-5.157800E+01
246	  0.069098189	-4.686000E+00	  0.069098189	-7.874500E+01	  0.069098189	2.967100E+01	  0.069098189	-5.140500E+01
247	  0.069298595	-4.687000E+00	  0.069298595	-7.896500E+01	  0.069298595	2.955900E+01	  0.069298595	-5.123800E+01
248	  0.069498993	-4.690000E+00	  0.069498993	-7.919600E+01	  0.069498993	2.945200E+01	  0.069498993	-5.105600E+01
249	  0.069699399	-4.690000E+00	  0.069699399	-7.945000E+01	  0.069699399	2.932100E+01	  0.069699399	-5.086800E+01
250	  0.069899797	-4.689000E+00	  0.069899797	-7.966500E+01	  0.069899797	2.920400E+01	  0.069899797	-5.071300E+01
251	  0.070100196	-4.690000E+00	  0.070100196	-7.990000E+01	  0.070100196	2.908800E+01	  0.070100196	-5.053700E+01
252	  0.070300601	-4.695000E+00	  0.070300601	-8.013000E+01	  0.070300601	2.899200E+01	  0.070300601	-5.035300E+01
253	  0.070501000	-4.693000E+00	  0.070501000	-8.037800E+01	  0.070501000	2.885800E+01	  0.070501000	-5.017800E+01
254	  0.070701398	-4.694000E+00	  0.070701398	-8.060200E+01	  0.070701398	2.875000E+01	  0.070701398	-5.001100E+01
255	  0.070901804	-4.694000E+00	  0.070901804	-8.083400E+01	  0.070901804	2.863600E+01	  0.070901804	-4.984000E+01
256	  0.071102202	-4.696000E+00	  0.071102202	-8.108600E+01	  0.071102202	2.851800E+01	  0.071102202	-4.965300E+01
257	  0.071302600	-4.696000E+00	  0.071302600	-8.129600E+01	  0.071302600	2.841800E+01	  0.071302600	-4.949900E+01
258	  0.071503006	-4.699000E+00	  0.071503006	-8.155600E+01	  0.071503006	2.830200E+01	  0.071503006	-4.930300E+01
259	  0.071703404	-4.700000E+00	  0.071703404	-8.176500E+01	  0.071703404	2.820500E+01	  0.071703404	-4.914900E+01
260	  0.071903802	-4.699000E+00	  0.071903802	-8.199200E+01	  0.071903802	2.809000E+01	  0.071903802	-4.899000E+01
261	  0.072104208	-4.702000E+00	  0.072104208	-8.225400E+01	  0.072104208	2.798000E+01	  0.072104208	-4.879300E+01
262	  0.072304606	-4.701000E+00	  0.072304606	-8.248300E+01	  0.072304606	2.786800E+01	  0.072304606	-4.863100E+01
263	  0.072505005	-4.703000E+00	  0.072505005	-8.270500E+01	  0.072505005	2.777200E+01	  0.072505005	-4.846700E+01
264	  0.072705410	-4.706000E+00	  0.072705410	-8.295100E+01	  0.072705410	2.767200E+01	  0.072705410	-4.828200E+01
265	  0.072905809	-4.703000E+00	  0.072905809	-8.318500E+01	  0.072905809	2.754800E+01	  0.072905809	-4.812600E+01
266	  0.073106214	-4.704000E+00	  0.073106214	-8.342500E+01	  0.073106214	2.744200E+01	  0.073106214	-4.795400E+01
267	  0.073306613	-4.707000E+00	  0.073306613	-8.364600E+01	  0.073306613	2.735300E+01	  0.073306613	-4.779000E+01
268	  0.073507011	-4.706000E+00	  0.073507011	-8.389300E+01	  0.073507011	2.723700E+01	  0.073507011	-4.761800E+01
269	  0.073707417	-4.709000E+00	  0.073707417	-8.411700E+01	  0.073707417	2.715100E+01	  0.073707417	-4.745200E+01
270	  0.073907815	-4.709000E+00	  0.073907815	-8.436200E+01	  0.073907815	2.704100E+01	  0.073907815	-4.728000E+01
271	  0.074108213	-4.711000E+00	  0.074108213	-8.459900E+01	  0.074108213	2.694300E+01	  0.074108213	-4.711000E+01
272	  0.074308619	-4.713000E+00	  0.074308619	-8.481000E+01	  0.074308619	2.685800E+01	  0.074308619	-4.695800E+01
273	  0.074509017	-4.713000E+00	  0.074509017	-8.506300E+01	  0.074509017	2.675000E+01	  0.074509017	-4.678000E+01
274	  0.074709415	-4.713000E+00	  0.074709415	-8.528900E+01	  0.074709415	2.664900E+01	  0.074709415	-4.662600E+01
275	  0.074909821	-4.714000E+00	  0.074909821	-8.553000E+01	  0.074909821	2.655200E+01	  0.074909821	-4.645500E+01
276	  0.075110219	-4.712000E+00	  0.075110219	-8.575500E+01	  0.075110219	2.644600E+01	  0.075110219	-4.630500E+01
277	  0.075310618	-4.718000E+00	  0.075310618	-8.598600E+01	  0.075310618	2.637500E+01	  0.075310618	-4.613000E+01
278	  0.075511023	-4.717000E+00	  0.075511023	-8.624200E+01	  0.075511023	2.626100E+01	  0.075511023	-4.595800E+01
279	  0.075711422	-4.718000E+00	  0.075711422	-8.645600E+01	  0.075711422	2.617600E+01	  0.075711422	-4.580900E+01
280	  0.075911827	-4.716000E+00	  0.075911827	-8.669200E+01	  0.075911827	2.607100E+01	  0.075911827	-4.565100E+01
281	  0.076112226	-4.719000E+00	  0.076112226	-8.692500E+01	  0.076112226	2.598800E+01	  0.076112226	-4.548500E+01
282	  0.076312624	-4.717000E+00	  0.076312624	-8.715300E+01	  0.076312624	2.588500E+01	  0.076312624	-4.533500E+01
283	  0.076513030	-4.719000E+00	  0.076513030	-8.739200E+01	  0.076513030	2.579500E+01	  0.076513030	-4.516900E+01
284	  0.076713428	-4.719000E+00	  0.076713428	-8.762700E+01	  0.076713428	2.570000E+01	  0.076713428	-4.501000E+01
285	  0.076913826	-4.721000E+00	  0.076913826	-8.785800E+01	  0.076913826	2.561600E+01	  0.076913826	-4.485000E+01
286	  0.077114232	-4.721000E+00	  0.077114232	-8.808000E+01	  0.077114232	2.552900E+01	  0.077114232	-4.469900E+01
287	  0.077314630	-4.723000E+00	  0.077314630	-8.834100E+01	  0.077314630	2.543300E+01	  0.077314630	-4.452000E+01
288	  0.077515028	-4.720000E+00	  0.077515028	-8.855500E+01	  0.077515028	2.533300E+01	  0.077515028	-4.438500E+01
289	  0.077715434	-4.723000E+00	  0.077715434	-8.878100E+01	  0.077715434	2.525900E+01	  0.077715434	-4.422600E+01
290	  0.077915832	-4.723000E+00	  0.077915832	-8.903800E+01	  0.077915832	2.515800E+01	  0.077915832	-4.405600E+01
291	  0.078116231	-4.724000E+00	  0.078116231	-8.926100E+01	  0.078116231	2.507800E+01	  0.078116231	-4.390500E+01
292	  0.078316636	-4.724000E+00	  0.078316636	-8.950500E+01	  0.078316636	2.498400E+01	  0.078316636	-4.374300E+01
293	  0.078517035	-4.726000E+00	  0.078517035	-8.974600E+01	  0.078517035	2.490100E+01	  0.078517035	-4.358000E+01
294	  0.078717433	-4.727000E+00	  0.078717433	-8.997600E+01	  0.078717433	2.482100E+01	  0.078717433	-4.342400E+01
295	  0.078917839	-4.728000E+00	  0.078917839	-9.021300E+01	  0.078917839	2.473300E+01	  0.078917839	-4.326800E+01
296	  0.079118237	-4.727000E+00	  0.079118237	-9.044100E+01	  0.079118237	2.464500E+01	  0.079118237	-4.312000E+01
297	  0.079318643	-4.726000E+00	  0.079318643	-9.066700E+01	  0.079318643	2.455600E+01	  0.079318643	-4.297500E+01
298	  0.079519041	-4.728000E+00	  0.079519041	-9.090700E+01	  0.079519041	2.447600E+01	  0.079519041	-4.281400E+01
299	  0.079719439	-4.728000E+00	  0.079719439	-9.114000E+01	  0.079719439	2.439500E+01	  0.079719439	-4.266000E+01
300	  0.079919845	-4.730000E+00	  0.079919845	-9.136400E+01	  0.079919845	2.432000E+01	  0.079919845	-4.251100E+01
301	  0.080120243	-4.731000E+00	  0.080120243	-9.161900E+01	  0.080120243	2.423100E+01	  0.080120243	-4.234400E+01
302	  0.080320641	-4.731000E+00	  0.080320641	-9.185100E+01	  0.080320641	2.415000E+01	  0.080320641	-4.219300E+01
303	  0.080521047	-4.732000E+00	  0.080521047	-9.207900E+01	  0.080521047	2.407600E+01	  0.080521047	-4.204400E+01
304	  0.080721445	-4.734000E+00	  0.080721445	-9.231100E+01	  0.080721445	2.400200E+01	  0.080721445	-4.189000E+01
305	  0.080921844	-4.732000E+00	  0.080921844	-9.253300E+01	  0.080921844	2.391600E+01	  0.080921844	-4.175200E+01
306	  0.081122249	-4.733000E+00	  0.081122249	-9.277800E+01	  0.081122249	2.383300E+01	  0.081122249	-4.159400E+01
307	  0.081322648	-4.736000E+00	  0.081322648	-9.300300E+01	  0.081322648	2.376700E+01	  0.081322648	-4.144400E+01
308	  0.081523046	-4.737000E+00	  0.081523046	-9.325600E+01	  0.081523046	2.368700E+01	  0.081523046	-4.128000E+01
309	  0.081723452	-4.733000E+00	  0.081723452	-9.346600E+01	  0.081723452	2.359800E+01	  0.081723452	-4.115500E+01
310	  0.081923850	-4.735000E+00	  0.081923850	-9.371300E+01	  0.081923850	2.352100E+01	  0.081923850	-4.099500E+01
311	  0.082124248	-4.735000E+00	  0.082124248	-9.394600E+01	  0.082124248	2.344400E+01	  0.082124248	-4.084700E+01
312	  0.082324654	-4.736000E+00	  0.082324654	-9.417600E+01	  0.082324654	2.337300E+01	  0.082324654	-4.069900E+01
313	  0.082525052	-4.737000E+00	  0.082525052	-9.440900E+01	  0.082525052	2.329700E+01	  0.082525052	-4.055200E+01
314	  0.082725458	-4.739000E+00	  0.082725458	-9.463100E+01	  0.082725458	2.323400E+01	  0.082725458	-4.040700E+01
315	  0.082925856	-4.737000E+00	  0.082925856	-9.486800E+01	  0.082925856	2.315000E+01	  0.082925856	-4.026300E+01
316	  0.083126254	-4.740000E+00	  0.083126254	-9.509400E+01	  0.083126254	2.308800E+01	  0.083126254	-4.011600E+01
317	  0.083326660	-4.741000E+00	  0.083326660	-9.535300E+01	  0.083326660	2.301100E+01	  0.083326660	-3.995100E+01
318	  0.083527058	-4.742000E+00	  0.083527058	-9.558100E+01	  0.083527058	2.294000E+01	  0.083527058	-3.980800E+01
319	  0.083727457	-4.744000E+00	  0.083727457	-9.579300E+01	  0.083727457	2.287900E+01	  0.083727457	-3.967300E+01
320	  0.083927862	-4.743000E+00	  0.083927862	-9.603800E+01	  0.083927862	2.279800E+01	  0.083927862	-3.952400E+01
321	  0.084128261	-4.744000E+00	  0.084128261	-9.627900E+01	  0.084128261	2.272700E+01	  0.084128261	-3.937200E+01
322	  0.084328659	-4.746000E+00	  0.084328659	-9.651500E+01	  0.084328659	2.266200E+01	  0.084328659	-3.922300E+01
323	  0.084529065	-4.748000E+00	  0.084529065	-9.674800E+01	  0.084529065	2.260000E+01	  0.084529065	-3.907500E+01
324	  0.084729463	-4.748000E+00	  0.084729463	-9.697000E+01	  0.084729463	2.253000E+01	  0.084729463	-3.893900E+01
325	  0.084929861	-4.747000E+00	  0.084929861	-9.720700E+01	  0.084929861	2.245500E+01	  0.084929861	-3.879500E+01
326	  0.085130267	-4.750000E+00	  0.085130267	-9.743000E+01	  0.085130267	2.240000E+01	  0.085130267	-3.865300E+01
327	  0.085330658	-4.751000E+00	  0.085330658	-9.767100E+01	  0.085330658	2.233100E+01	  0.085330658	-3.850400E+01
328	  0.085531056	-4.751000E+00	  0.085531056	-9.791400E+01	  0.085531056	2.225800E+01	  0.085531056	-3.835700E+01
329	  0.085731462	-4.755000E+00	  0.085731462	-9.814700E+01	  0.085731462	2.220300E+01	  0.085731462	-3.820900E+01
330	  0.085931860	-4.754000E+00	  0.085931860	-9.838000E+01	  0.085931860	2.213100E+01	  0.085931860	-3.807000E+01
331	  0.086132258	-4.757000E+00	  0.086132258	-9.860800E+01	  0.086132258	2.207700E+01	  0.086132258	-3.792600E+01
332	  0.086332664	-4.756000E+00	  0.086332664	-9.884000E+01	  0.086332664	2.200600E+01	  0.086332664	-3.778800E+01
333	  0.086533062	-4.758000E+00	  0.086533062	-9.906600E+01	  0.086533062	2.194700E+01	  0.086533062	-3.764900E+01
334	  0.086733460	-4.759000E+00	  0.086733460	-9.931000E+01	  0.086733460	2.188000E+01	  0.086733460	-3.750200E+01
335	  0.086933866	-4.761000E+00	  0.086933866	-9.955700E+01	  0.086933866	2.181800E+01	  0.086933866	-3.735000E+01
336	  0.087134264	-4.762000E+00	  0.087134264	-9.977400E+01	  0.087134264	2.176000E+01	  0.087134264	-3.721900E+01
337	  0.087334670	-4.763000E+00	  0.087334670	-1.000120E+02	  0.087334670	2.169600E+01	  0.087334670	-3.707600E+01
338	  0.087535068	-4.765000E+00	  0.087535068	-1.002330E+02	  0.087535068	2.164300E+01	  0.087535068	-3.694100E+01
339	  0.087735467	-4.766000E+00	  0.087735467	-1.004760E+02	  0.087735467	2.158100E+01	  0.087735467	-3.679400E+01
340	  0.087935872	-4.766000E+00	  0.087935872	-1.007070E+02	  0.087935872	2.151600E+01	  0.087935872	-3.665800E+01
341	  0.088136271	-4.767000E+00	  0.088136271	-1.009400E+02	  0.088136271	2.145600E+01	  0.088136271	-3.651900E+01
342	  0.088336669	-4.770000E+00	  0.088336669	-1.011810E+02	  0.088336669	2.140100E+01	  0.088336669	-3.637300E+01
343	  0.088537075	-4.771000E+00	  0.088537075	-1.014100E+02	  0.088537075	2.134500E+01	  0.088537075	-3.623500E+01
344	  0.088737473	-4.774000E+00	  0.088737473	-1.016400E+02	  0.088737473	2.129200E+01	  0.088737473	-3.609700E+01
345	  0.088937871	-4.774000E+00	  0.088937871	-1.018720E+02	  0.088937871	2.123200E+01	  0.088937871	-3.596000E+01
346	  0.089138277	-4.776000E+00	  0.089138277	-1.021080E+02	  0.089138277	2.117800E+01	  0.089138277	-3.581900E+01
347	  0.089338675	-4.777000E+00	  0.089338675	-1.023440E+02	  0.089338675	2.111600E+01	  0.089338675	-3.568100E+01
348	  0.089539073	-4.778000E+00	  0.089539073	-1.025800E+02	  0.089539073	2.106000E+01	  0.089539073	-3.554200E+01
349	  0.089739479	-4.781000E+00	  0.089739479	-1.028180E+02	  0.089739479	2.100800E+01	  0.089739479	-3.540000E+01
350	  0.089939877	-4.781000E+00	  0.089939877	-1.030580E+02	  0.089939877	2.094600E+01	  0.089939877	-3.526100E+01
351	  0.090140276	-4.784000E+00	  0.090140276	-1.032970E+02	  0.090140276	2.089700E+01	  0.090140276	-3.511700E+01
352	  0.090340681	-4.788000E+00	  0.090340681	-1.035210E+02	  0.090340681	2.085400E+01	  0.090340681	-3.498300E+01
353	  0.090541080	-4.786000E+00	  0.090541080	-1.037740E+02	  0.090541080	2.078300E+01	  0.090541080	-3.484100E+01
354	  0.090741485	-4.791000E+00	  0.090741485	-1.039940E+02	  0.090741485	2.074800E+01	  0.090741485	-3.470600E+01
355	  0.090941884	-4.790000E+00	  0.090941884	-1.042330E+02	  0.090941884	2.068300E+01	  0.090941884	-3.457200E+01
356	  0.091142282	-4.792000E+00	  0.091142282	-1.044550E+02	  0.091142282	2.063400E+01	  0.091142282	-3.444200E+01
357	  0.091342688	-4.793000E+00	  0.091342688	-1.047080E+02	  0.091342688	2.057800E+01	  0.091342688	-3.429600E+01
358	  0.091543086	-4.792000E+00	  0.091543086	-1.049480E+02	  0.091543086	2.051300E+01	  0.091543086	-3.416200E+01
359	  0.091743484	-4.796000E+00	  0.091743484	-1.051760E+02	  0.091743484	2.047400E+01	  0.091743484	-3.402600E+01
360	  0.091943890	-4.795000E+00	  0.091943890	-1.054310E+02	  0.091943890	2.040900E+01	  0.091943890	-3.388300E+01
361	  0.092144288	-4.799000E+00	  0.092144288	-1.056560E+02	  0.092144288	2.036900E+01	  0.092144288	-3.375100E+01
362	  0.092344686	-4.798000E+00	  0.092344686	-1.058840E+02	  0.092344686	2.031000E+01	  0.092344686	-3.362400E+01
363	  0.092545092	-4.801000E+00	  0.092545092	-1.061180E+02	  0.092545092	2.026600E+01	  0.092545092	-3.348800E+01
364	  0.092745490	-4.802000E+00	  0.092745490	-1.063580E+02	  0.092745490	2.021400E+01	  0.092745490	-3.335200E+01
365	  0.092945889	-4.803000E+00	  0.092945889	-1.065930E+02	  0.092945889	2.016100E+01	  0.092945889	-3.322000E+01
366	  0.093146294	-4.803000E+00	  0.093146294	-1.068390E+02	  0.093146294	2.010300E+01	  0.093146294	-3.308300E+01
367	  0.093346693	-4.804000E+00	  0.093346693	-1.070650E+02	  0.093346693	2.005400E+01	  0.093346693	-3.295600E+01
368	  0.093547091	-4.806000E+00	  0.093547091	-1.073180E+02	  0.093547091	2.000400E+01	  0.093547091	-3.281200E+01
369	  0.093747497	-4.806000E+00	  0.093747497	-1.075400E+02	  0.093747497	1.995400E+01	  0.093747497	-3.268900E+01
370	  0.093947895	-4.806000E+00	  0.093947895	-1.077930E+02	  0.093947895	1.989600E+01	  0.093947895	-3.254900E+01
371	  0.094148301	-4.808000E+00	  0.094148301	-1.080240E+02	  0.094148301	1.985300E+01	  0.094148301	-3.241800E+01
372	  0.094348699	-4.809000E+00	  0.094348699	-1.082350E+02	  0.094348699	1.980700E+01	  0.094348699	-3.230100E+01
373	  0.094549097	-4.808000E+00	  0.094549097	-1.084860E+02	  0.094549097	1.974800E+01	  0.094549097	-3.216500E+01
374	  0.094749503	-4.812000E+00	  0.094749503	-1.087190E+02	  0.094749503	1.971000E+01	  0.094749503	-3.203200E+01
375	  0.094949901	-4.812000E+00	  0.094949901	-1.089590E+02	  0.094949901	1.965800E+01	  0.094949901	-3.190000E+01
376	  0.095150299	-4.813000E+00	  0.095150299	-1.091970E+02	  0.095150299	1.961000E+01	  0.095150299	-3.176900E+01
377	  0.095350705	-4.813000E+00	  0.095350705	-1.094330E+02	  0.095350705	1.955800E+01	  0.095350705	-3.164000E+01
378	  0.095551103	-4.814000E+00	  0.095551103	-1.096690E+02	  0.095551103	1.951400E+01	  0.095551103	-3.150900E+01
379	  0.095751502	-4.816000E+00	  0.095751502	-1.099020E+02	  0.095751502	1.947000E+01	  0.095751502	-3.138100E+01
380	  0.095951907	-4.818000E+00	  0.095951907	-1.101400E+02	  0.095951907	1.942600E+01	  0.095951907	-3.124900E+01
381	  0.096152306	-4.818000E+00	  0.096152306	-1.103800E+02	  0.096152306	1.937600E+01	  0.096152306	-3.111900E+01
382	  0.096352704	-4.819000E+00	  0.096352704	-1.106190E+02	  0.096352704	1.932900E+01	  0.096352704	-3.098900E+01
383	  0.096553110	-4.819000E+00	  0.096553110	-1.108580E+02	  0.096553110	1.928000E+01	  0.096553110	-3.086000E+01
384	  0.096753508	-4.819000E+00	  0.096753508	-1.110920E+02	  0.096753508	1.923200E+01	  0.096753508	-3.073400E+01
385	  0.096953906	-4.821000E+00	  0.096953906	-1.113220E+02	  0.096953906	1.919000E+01	  0.096953906	-3.060900E+01
386	  0.097154312	-4.823000E+00	  0.097154312	-1.115700E+02	  0.097154312	1.914800E+01	  0.097154312	-3.047300E+01
387	  0.097354710	-4.823000E+00	  0.097354710	-1.118050E+02	  0.097354710	1.909800E+01	  0.097354710	-3.034800E+01
388	  0.097555116	-4.824000E+00	  0.097555116	-1.120410E+02	  0.097555116	1.905300E+01	  0.097555116	-3.022200E+01
389	  0.097755514	-4.826000E+00	  0.097755514	-1.122740E+02	  0.097755514	1.901400E+01	  0.097755514	-3.009400E+01
390	  0.097955912	-4.826000E+00	  0.097955912	-1.125190E+02	  0.097955912	1.896600E+01	  0.097955912	-2.996400E+01
391	  0.098156318	-4.827000E+00	  0.098156318	-1.127440E+02	  0.098156318	1.892600E+01	  0.098156318	-2.984300E+01
392	  0.098356716	-4.828000E+00	  0.098356716	-1.129900E+02	  0.098356716	1.888200E+01	  0.098356716	-2.971200E+01
393	  0.098557115	-4.829000E+00	  0.098557115	-1.132250E+02	  0.098557115	1.883700E+01	  0.098557115	-2.958800E+01
394	  0.098757520	-4.830000E+00	  0.098757520	-1.134670E+02	  0.098757520	1.879500E+01	  0.098757520	-2.945800E+01
395	  0.098957919	-4.830000E+00	  0.098957919	-1.136900E+02	  0.098957919	1.875100E+01	  0.098957919	-2.934100E+01
396	  0.099158317	-4.830000E+00	  0.099158317	-1.139230E+02	  0.099158317	1.870800E+01	  0.099158317	-2.921800E+01
397	  0.099358723	-4.831000E+00	  0.099358723	-1.141670E+02	  0.099358723	1.866300E+01	  0.099358723	-2.909000E+01
398	  0.099559121	-4.834000E+00	  0.099559121	-1.143980E+02	  0.099559121	1.863200E+01	  0.099559121	-2.896500E+01
399	  0.099759519	-4.833000E+00	  0.099759519	-1.146480E+02	  0.099759519	1.858000E+01	  0.099759519	-2.883600E+01
400	  0.099959925	-4.822000E+00	  0.099959925	-1.148230E+02	  0.099959925	1.850900E+01	  0.099959925	-2.875900E+01
401	  0.100160323	-4.825000E+00	  0.100160323	-1.150770E+02	  0.100160323	1.847300E+01	  0.100160323	-2.862300E+01
402	  0.100360721	-4.825000E+00	  0.100360721	-1.153230E+02	  0.100360721	1.842700E+01	  0.100360721	-2.849500E+01
403	  0.100561127	-4.827000E+00	  0.100561127	-1.155530E+02	  0.100561127	1.839300E+01	  0.100561127	-2.837300E+01
404	  0.100761525	-4.827000E+00	  0.100761525	-1.157840E+02	  0.100761525	1.835100E+01	  0.100761525	-2.825300E+01
405	  0.100961931	-4.831000E+00	  0.100961931	-1.160210E+02	  0.100961931	1.832100E+01	  0.100961931	-2.812700E+01
406	  0.101162329	-4.827000E+00	  0.101162329	-1.162630E+02	  0.101162329	1.826600E+01	  0.101162329	-2.800600E+01
407	  0.101362728	-4.831000E+00	  0.101362728	-1.165020E+02	  0.101362728	1.823600E+01	  0.101362728	-2.787900E+01
408	  0.101563133	-4.830000E+00	  0.101563133	-1.167340E+02	  0.101563133	1.819200E+01	  0.101563133	-2.776100E+01
409	  0.101763532	-4.831000E+00	  0.101763532	-1.169740E+02	  0.101763532	1.815400E+01	  0.101763532	-2.763600E+01
410	  0.101963930	-4.834000E+00	  0.101963930	-1.172020E+02	  0.101963930	1.812400E+01	  0.101963930	-2.751700E+01
411	  0.102164336	-4.838000E+00	  0.102164336	-1.174270E+02	  0.102164336	1.809600E+01	  0.102164336	-2.739800E+01
412	  0.102364734	-4.836000E+00	  0.102364734	-1.176800E+02	  0.102364734	1.804700E+01	  0.102364734	-2.727100E+01
413	  0.102565132	-4.837000E+00	  0.102565132	-1.179130E+02	  0.102565132	1.801100E+01	  0.102565132	-2.715100E+01
414	  0.102765530	-4.837000E+00	  0.102765530	-1.181630E+02	  0.102765530	1.796900E+01	  0.102765530	-2.702300E+01
415	  0.102965929	-4.840000E+00	  0.102965929	-1.184130E+02	  0.102965929	1.793500E+01	  0.102965929	-2.689400E+01
416	  0.103166327	-4.841000E+00	  0.103166327	-1.186340E+02	  0.103166327	1.790300E+01	  0.103166327	-2.678000E+01
417	  0.103366733	-4.841000E+00	  0.103366733	-1.188830E+02	  0.103366733	1.786200E+01	  0.103366733	-2.665500E+01
418	  0.103567131	-4.846000E+00	  0.103567131	-1.190950E+02	  0.103567131	1.784200E+01	  0.103567131	-2.654300E+01
419	  0.103767529	-4.846000E+00	  0.103767529	-1.193510E+02	  0.103767529	1.779900E+01	  0.103767529	-2.641400E+01
420	  0.103967935	-4.847000E+00	  0.103967935	-1.195800E+02	  0.103967935	1.776400E+01	  0.103967935	-2.629800E+01
421	  0.104168333	-4.849000E+00	  0.104168333	-1.198290E+02	  0.104168333	1.773200E+01	  0.104168333	-2.617100E+01
422	  0.104368731	-4.852000E+00	  0.104368731	-1.200910E+02	  0.104368731	1.770000E+01	  0.104368731	-2.603600E+01
423	  0.104569137	-4.851000E+00	  0.104569137	-1.203070E+02	  0.104569137	1.766200E+01	  0.104569137	-2.592900E+01
424	  0.104769535	-4.854000E+00	  0.104769535	-1.205390E+02	  0.104769535	1.763500E+01	  0.104769535	-2.581100E+01
425	  0.104969934	-4.852000E+00	  0.104969934	-1.207840E+02	  0.104969934	1.759000E+01	  0.104969934	-2.569100E+01
426	  0.105170339	-4.855000E+00	  0.105170339	-1.210190E+02	  0.105170339	1.756100E+01	  0.105170339	-2.557100E+01
427	  0.105370738	-4.856000E+00	  0.105370738	-1.212440E+02	  0.105370738	1.752900E+01	  0.105370738	-2.545800E+01
428	  0.105571143	-4.859000E+00	  0.105571143	-1.215080E+02	  0.105571143	1.749800E+01	  0.105571143	-2.532400E+01
429	  0.105771542	-4.862000E+00	  0.105771542	-1.217360E+02	  0.105771542	1.747300E+01	  0.105771542	-2.520900E+01
430	  0.105971940	-4.863000E+00	  0.105971940	-1.219690E+02	  0.105971940	1.744100E+01	  0.105971940	-2.509300E+01
431	  0.106172346	-4.858000E+00	  0.106172346	-1.222060E+02	  0.106172346	1.738900E+01	  0.106172346	-2.498100E+01
432	  0.106372744	-4.864000E+00	  0.106372744	-1.224930E+02	  0.106372744	1.736500E+01	  0.106372744	-2.483400E+01
433	  0.106573142	-4.863000E+00	  0.106573142	-1.227190E+02	  0.106573142	1.732800E+01	  0.106573142	-2.472400E+01
434	  0.106773548	-4.864000E+00	  0.106773548	-1.229580E+02	  0.106773548	1.729500E+01	  0.106773548	-2.460600E+01
435	  0.106973946	-4.866000E+00	  0.106973946	-1.231900E+02	  0.106973946	1.726700E+01	  0.106973946	-2.449000E+01
436	  0.107174344	-4.871000E+00	  0.107174344	-1.234450E+02	  0.107174344	1.724600E+01	  0.107174344	-2.436100E+01
437	  0.107374750	-4.870000E+00	  0.107374750	-1.237020E+02	  0.107374750	1.720500E+01	  0.107374750	-2.423600E+01
438	  0.107575148	-4.868000E+00	  0.107575148	-1.239290E+02	  0.107575148	1.716700E+01	  0.107575148	-2.412700E+01
439	  0.107775547	-4.871000E+00	  0.107775547	-1.241610E+02	  0.107775547	1.714300E+01	  0.107775547	-2.401200E+01
440	  0.107975952	-4.871000E+00	  0.107975952	-1.244000E+02	  0.107975952	1.710700E+01	  0.107975952	-2.389600E+01
441	  0.108176351	-4.874000E+00	  0.108176351	-1.246560E+02	  0.108176351	1.708200E+01	  0.108176351	-2.376900E+01
442	  0.108376749	-4.874000E+00	  0.108376749	-1.248700E+02	  0.108376749	1.705000E+01	  0.108376749	-2.366600E+01
443	  0.108577155	-4.874000E+00	  0.108577155	-1.251170E+02	  0.108577155	1.701700E+01	  0.108577155	-2.354600E+01
444	  0.108777553	-4.875000E+00	  0.108777553	-1.253580E+02	  0.108777553	1.698500E+01	  0.108777553	-2.343000E+01
445	  0.108977959	-4.877000E+00	  0.108977959	-1.255800E+02	  0.108977959	1.696000E+01	  0.108977959	-2.332100E+01
446	  0.109178357	-4.877000E+00	  0.109178357	-1.258410E+02	  0.109178357	1.692500E+01	  0.109178357	-2.319500E+01
447	  0.109378755	-4.876000E+00	  0.109378755	-1.260460E+02	  0.109378755	1.689500E+01	  0.109378755	-2.309700E+01
448	  0.109579161	-4.877000E+00	  0.109579161	-1.263050E+02	  0.109579161	1.686200E+01	  0.109579161	-2.297300E+01
449	  0.109779559	-4.880000E+00	  0.109779559	-1.265320E+02	  0.109779559	1.684100E+01	  0.109779559	-2.286100E+01
450	  0.109979957	-4.879000E+00	  0.109979957	-1.267670E+02	  0.109979957	1.680800E+01	  0.109979957	-2.275000E+01
451	  0.110180363	-4.880000E+00	  0.110180363	-1.270040E+02	  0.110180363	1.677900E+01	  0.110180363	-2.263600E+01
452	  0.110380761	-4.881000E+00	  0.110380761	-1.272580E+02	  0.110380761	1.674600E+01	  0.110380761	-2.251500E+01
453	  0.110581160	-4.881000E+00	  0.110581160	-1.274930E+02	  0.110581160	1.671600E+01	  0.110581160	-2.240300E+01
454	  0.110781565	-4.883000E+00	  0.110781565	-1.277340E+02	  0.110781565	1.669200E+01	  0.110781565	-2.228600E+01
455	  0.110981964	-4.882000E+00	  0.110981964	-1.279670E+02	  0.110981964	1.666000E+01	  0.110981964	-2.217600E+01
456	  0.111182362	-4.886000E+00	  0.111182362	-1.281910E+02	  0.111182362	1.664200E+01	  0.111182362	-2.206700E+01
457	  0.111382768	-4.883000E+00	  0.111382768	-1.284450E+02	  0.111382768	1.660000E+01	  0.111382768	-2.195000E+01
458	  0.111583166	-4.886000E+00	  0.111583166	-1.286850E+02	  0.111583166	1.658000E+01	  0.111583166	-2.183400E+01
459	  0.111783572	-4.885000E+00	  0.111783572	-1.289260E+02	  0.111783572	1.654700E+01	  0.111783572	-2.172100E+01
460	  0.111983970	-4.889000E+00	  0.111983970	-1.291510E+02	  0.111983970	1.653000E+01	  0.111983970	-2.161200E+01
461	  0.112184368	-4.887000E+00	  0.112184368	-1.293930E+02	  0.112184368	1.649500E+01	  0.112184368	-2.150000E+01
462	  0.112384774	-4.889000E+00	  0.112384774	-1.296370E+02	  0.112384774	1.646900E+01	  0.112384774	-2.138400E+01
463	  0.112585172	-4.891000E+00	  0.112585172	-1.298960E+02	  0.112585172	1.644500E+01	  0.112585172	-2.126100E+01
464	  0.112785570	-4.892000E+00	  0.112785570	-1.301130E+02	  0.112785570	1.642000E+01	  0.112785570	-2.115900E+01
465	  0.112985976	-4.891000E+00	  0.112985976	-1.303520E+02	  0.112985976	1.639000E+01	  0.112985976	-2.104800E+01
466	  0.113186374	-4.893000E+00	  0.113186374	-1.305780E+02	  0.113186374	1.636700E+01	  0.113186374	-2.094100E+01
467	  0.113386773	-4.895000E+00	  0.113386773	-1.308300E+02	  0.113386773	1.634400E+01	  0.113386773	-2.082200E+01
468	  0.113587178	-4.895000E+00	  0.113587178	-1.310580E+02	  0.113587178	1.631700E+01	  0.113587178	-2.071600E+01
469	  0.113787577	-4.896000E+00	  0.113787577	-1.312900E+02	  0.113787577	1.629400E+01	  0.113787577	-2.060700E+01
470	  0.113987975	-4.893000E+00	  0.113987975	-1.315410E+02	  0.113987975	1.625500E+01	  0.113987975	-2.049300E+01
471	  0.114188381	-4.896000E+00	  0.114188381	-1.317540E+02	  0.114188381	1.623800E+01	  0.114188381	-2.039300E+01
472	  0.114388779	-4.897000E+00	  0.114388779	-1.320080E+02	  0.114388779	1.621400E+01	  0.114388779	-2.027400E+01
473	  0.114589177	-4.898000E+00	  0.114589177	-1.322490E+02	  0.114589177	1.618800E+01	  0.114589177	-2.016200E+01
474	  0.114789583	-4.900000E+00	  0.114789583	-1.324760E+02	  0.114789583	1.616700E+01	  0.114789583	-2.005600E+01
475	  0.114989981	-4.901000E+00	  0.114989981	-1.327120E+02	  0.114989981	1.614600E+01	  0.114989981	-1.994600E+01
476	  0.115190387	-4.903000E+00	  0.115190387	-1.329470E+02	  0.115190387	1.612300E+01	  0.115190387	-1.983700E+01
477	  0.115390785	-4.899000E+00	  0.115390785	-1.331970E+02	  0.115390785	1.608600E+01	  0.115390785	-1.972400E+01
478	  0.115591183	-4.902000E+00	  0.115591183	-1.334290E+02	  0.115591183	1.606800E+01	  0.115591183	-1.961600E+01
479	  0.115791589	-4.906000E+00	  0.115791589	-1.336660E+02	  0.115791589	1.605400E+01	  0.115791589	-1.950500E+01
480	  0.115991987	-4.905000E+00	  0.115991987	-1.339190E+02	  0.115991987	1.602500E+01	  0.115991987	-1.939000E+01
481	  0.116192386	-4.909000E+00	  0.116192386	-1.341600E+02	  0.116192386	1.600800E+01	  0.116192386	-1.927700E+01
482	  0.116392791	-4.905000E+00	  0.116392791	-1.343830E+02	  0.116392791	1.597400E+01	  0.116392791	-1.917800E+01
483	  0.116593190	-4.906000E+00	  0.116593190	-1.346130E+02	  0.116593190	1.595200E+01	  0.116593190	-1.907200E+01
484	  0.116793588	-4.910000E+00	  0.116793588	-1.348740E+02	  0.116793588	1.593700E+01	  0.116793588	-1.895100E+01
485	  0.116993994	-4.910000E+00	  0.116993994	-1.350880E+02	  0.116993994	1.591400E+01	  0.116993994	-1.885400E+01
486	  0.117194392	-4.911000E+00	  0.117194392	-1.353430E+02	  0.117194392	1.589100E+01	  0.117194392	-1.873700E+01
487	  0.117394790	-4.912000E+00	  0.117394790	-1.355710E+02	  0.117394790	1.587000E+01	  0.117394790	-1.863300E+01
488	  0.117595196	-4.914000E+00	  0.117595196	-1.358090E+02	  0.117595196	1.585100E+01	  0.117595196	-1.852400E+01
489	  0.117795594	-4.913000E+00	  0.117795594	-1.360340E+02	  0.117795594	1.582500E+01	  0.117795594	-1.842300E+01
490	  0.117995992	-4.915000E+00	  0.117995992	-1.362850E+02	  0.117995992	1.580700E+01	  0.117995992	-1.830800E+01
491	  0.118196398	-4.914000E+00	  0.118196398	-1.365120E+02	  0.118196398	1.578100E+01	  0.118196398	-1.820600E+01
492	  0.118396796	-4.916000E+00	  0.118396796	-1.367760E+02	  0.118396796	1.576000E+01	  0.118396796	-1.808600E+01
493	  0.118597202	-4.915000E+00	  0.118597202	-1.369930E+02	  0.118597202	1.573600E+01	  0.118597202	-1.798900E+01
494	  0.118797600	-4.919000E+00	  0.118797600	-1.372180E+02	  0.118797600	1.572500E+01	  0.118797600	-1.788600E+01
495	  0.118997999	-4.918000E+00	  0.118997999	-1.374700E+02	  0.118997999	1.569600E+01	  0.118997999	-1.777300E+01
496	  0.119198404	-4.916000E+00	  0.119198404	-1.377230E+02	  0.119198404	1.566700E+01	  0.119198404	-1.766100E+01
497	  0.119398803	-4.918000E+00	  0.119398803	-1.379560E+02	  0.119398803	1.565100E+01	  0.119398803	-1.755600E+01
498	  0.119599201	-4.920000E+00	  0.119599201	-1.381960E+02	  0.119599201	1.563200E+01	  0.119599201	-1.744700E+01
499	  0.119799607	-4.919000E+00	  0.119799607	-1.384390E+02	  0.119799607	1.560700E+01	  0.119799607	-1.733900E+01
500	  0.120000005	-4.917000E+00	  0.120000005	-1.386780E+02	  0.120000005	1.557900E+01	  0.120000005	-1.723400E+01
