! Anritsu VNA Master:             	Model: MS2036C/10/77
! SN:             	1601066
! /bd0/18may12.cable.cal/top.20.txt
! Existing Calibration Information:
! TYPE:             	Current Settings	Active Cal Settings
! TIME:             	05/12/2018 01:29:28 PM	05/12/2018 01:24:18 PM
! INTERNAL TEMP:    	49.3 C	49.3 C
! # POINTS:         	500	500
! START FREQ:       	20.000 MHz	20.000 MHz
! STOP FREQ:        	120.000 MHz	120.000 MHz
! SOURCE POWER:     	High	High
! IFBW:             	50 Hz	50 Hz
! AVG FACTOR:       	  1 	  1 
! REF PLANE 1:      	0 mm	0 mm
! REF PLANE 2:      	0 mm	0 mm
! CAL TYPE:         	Full S22	Full S22
! CAL METHOD:       	SOLT	SOLT
! CAL LINE TYPE:    	Coax	Coax
! DUT PORT 1:       	K-Conn(M)	K-Conn(M)
! DUT PORT 2:       	K-Conn(M)	K-Conn(M)
! CAL STATUS:       	OK: Accuracy High	--
! PROP-V:       	0.700
! CABLE LOSS:       	0.000 dB/m
! REF IMPEDANCE:       	50.0
! Trace Specific Parameters:	TR1	TR2	TR3	TR4
! TRACE.#.Y (GRAPH TYPE)	LOG MAG	PHASE	REAL IMPEDANCE	IMAGINARY IMPEDANCE
! TRACE.#.X 	FREQ.GHZ	FREQ.GHZ	FREQ.GHZ	FREQ.GHZ
! S-PARAMETER	S22	S22	S22	S22
! SMOOTH/APERTURE %	0	0	0	0
! WINDOW	NSL	NSL	NSL	NSL
! GATING	OFF	OFF	OFF	OFF
! FGTD	OFF	OFF	OFF	OFF
Marker Information per Trace:	TR1	TR2	TR3	TR4
!MK1	--	"MK1 TR2:  12.184 368 MHz,##.##"	--	--
!MK2	--	--	"MK2 TR3:  12.184 368 MHz,##.##"	--
!MK3	--	--	--	--
!MK4	--	--	--	--
!MK5	--	--	--	--
!MK6	--	--	--	--
!MK7	--	--	--	--
!MK8	--	--	--	--
PNT	TR1.FREQ.GHZ	TR1.LOG MAG.dB	TR2.FREQ.GHZ	TR2.PHASE.deg	TR3.FREQ.GHZ	TR3.REAL IMPEDANCE.ohm	TR4.FREQ.GHZ	TR4.IMAGINARY IMPEDANCE.ohm
1	  0.020000000	-7.267000E+00	  0.020000000	1.545570E+02	  0.020000000	2.062100E+01	  0.020000000	9.446000E+00
2	  0.020200402	-7.271000E+00	  0.020200402	1.543260E+02	  0.020200402	2.064500E+01	  0.020200402	9.531000E+00
3	  0.020400802	-7.271000E+00	  0.020400802	1.540790E+02	  0.020400802	2.066200E+01	  0.020400802	9.625000E+00
4	  0.020601204	-7.269000E+00	  0.020601204	1.538180E+02	  0.020601204	2.067500E+01	  0.020601204	9.724000E+00
5	  0.020801604	-7.269000E+00	  0.020801604	1.535760E+02	  0.020801604	2.069400E+01	  0.020801604	9.816000E+00
6	  0.021002004	-7.272000E+00	  0.021002004	1.533400E+02	  0.021002004	2.071700E+01	  0.021002004	9.904000E+00
7	  0.021202406	-7.272000E+00	  0.021202406	1.530850E+02	  0.021202406	2.073600E+01	  0.021202406	1.000000E+01
8	  0.021402806	-7.271000E+00	  0.021402806	1.528350E+02	  0.021402806	2.075200E+01	  0.021402806	1.009500E+01
9	  0.021603208	-7.273000E+00	  0.021603208	1.525840E+02	  0.021603208	2.077500E+01	  0.021603208	1.018900E+01
10	  0.021803608	-7.272000E+00	  0.021803608	1.523340E+02	  0.021803608	2.079200E+01	  0.021803608	1.028400E+01
11	  0.022004008	-7.273000E+00	  0.022004008	1.520990E+02	  0.022004008	2.081100E+01	  0.022004008	1.037300E+01
12	  0.022204408	-7.275000E+00	  0.022204408	1.518290E+02	  0.022204408	2.083600E+01	  0.022204408	1.047500E+01
13	  0.022404809	-7.273000E+00	  0.022404809	1.515870E+02	  0.022404809	2.085000E+01	  0.022404809	1.056800E+01
14	  0.022605211	-7.278000E+00	  0.022605211	1.513500E+02	  0.022605211	2.088000E+01	  0.022605211	1.065500E+01
15	  0.022805611	-7.278000E+00	  0.022805611	1.510930E+02	  0.022805611	2.090200E+01	  0.022805611	1.075300E+01
16	  0.023006011	-7.278000E+00	  0.023006011	1.508550E+02	  0.023006011	2.091900E+01	  0.023006011	1.084400E+01
17	  0.023206413	-7.276000E+00	  0.023206413	1.506020E+02	  0.023206413	2.093600E+01	  0.023206413	1.094100E+01
18	  0.023406813	-7.276000E+00	  0.023406813	1.503440E+02	  0.023406813	2.095500E+01	  0.023406813	1.104000E+01
19	  0.023607215	-7.278000E+00	  0.023607215	1.501000E+02	  0.023607215	2.098000E+01	  0.023607215	1.113100E+01
20	  0.023807615	-7.279000E+00	  0.023807615	1.498560E+02	  0.023807615	2.100400E+01	  0.023807615	1.122400E+01
21	  0.024008015	-7.278000E+00	  0.024008015	1.496230E+02	  0.024008015	2.102100E+01	  0.024008015	1.131300E+01
22	  0.024208417	-7.279000E+00	  0.024208417	1.493740E+02	  0.024208417	2.104200E+01	  0.024208417	1.140800E+01
23	  0.024408817	-7.280000E+00	  0.024408817	1.491170E+02	  0.024408817	2.106800E+01	  0.024408817	1.150500E+01
24	  0.024609219	-7.282000E+00	  0.024609219	1.488570E+02	  0.024609219	2.109300E+01	  0.024609219	1.160300E+01
25	  0.024809619	-7.282000E+00	  0.024809619	1.486220E+02	  0.024809619	2.111600E+01	  0.024809619	1.169300E+01
26	  0.025010020	-7.284000E+00	  0.025010020	1.483660E+02	  0.025010020	2.114200E+01	  0.025010020	1.179000E+01
27	  0.025210422	-7.284000E+00	  0.025210422	1.481240E+02	  0.025210422	2.116200E+01	  0.025210422	1.188300E+01
28	  0.025410822	-7.287000E+00	  0.025410822	1.478670E+02	  0.025410822	2.119300E+01	  0.025410822	1.197900E+01
29	  0.025611224	-7.288000E+00	  0.025611224	1.476280E+02	  0.025611224	2.121700E+01	  0.025611224	1.207000E+01
30	  0.025811624	-7.286000E+00	  0.025811624	1.473720E+02	  0.025811624	2.123500E+01	  0.025811624	1.216900E+01
31	  0.026012026	-7.287000E+00	  0.026012026	1.471240E+02	  0.026012026	2.126000E+01	  0.026012026	1.226400E+01
32	  0.026212426	-7.288000E+00	  0.026212426	1.468880E+02	  0.026212426	2.128400E+01	  0.026212426	1.235400E+01
33	  0.026412826	-7.290000E+00	  0.026412826	1.466260E+02	  0.026412826	2.131400E+01	  0.026412826	1.245300E+01
34	  0.026613226	-7.289000E+00	  0.026613226	1.463720E+02	  0.026613226	2.133500E+01	  0.026613226	1.255200E+01
35	  0.026813626	-7.290000E+00	  0.026813626	1.461200E+02	  0.026813626	2.135900E+01	  0.026813626	1.264800E+01
36	  0.027014028	-7.289000E+00	  0.027014028	1.458860E+02	  0.027014028	2.138000E+01	  0.027014028	1.273800E+01
37	  0.027214428	-7.292000E+00	  0.027214428	1.456200E+02	  0.027214428	2.141200E+01	  0.027214428	1.283900E+01
38	  0.027414829	-7.290000E+00	  0.027414829	1.453750E+02	  0.027414829	2.143100E+01	  0.027414829	1.293500E+01
39	  0.027615231	-7.290000E+00	  0.027615231	1.451350E+02	  0.027615231	2.145600E+01	  0.027615231	1.302700E+01
40	  0.027815631	-7.291000E+00	  0.027815631	1.448680E+02	  0.027815631	2.148500E+01	  0.027815631	1.312900E+01
41	  0.028016033	-7.293000E+00	  0.028016033	1.446230E+02	  0.028016033	2.151300E+01	  0.028016033	1.322300E+01
42	  0.028216433	-7.293000E+00	  0.028216433	1.443760E+02	  0.028216433	2.153900E+01	  0.028216433	1.331800E+01
43	  0.028416833	-7.293000E+00	  0.028416833	1.441380E+02	  0.028416833	2.156000E+01	  0.028416833	1.341100E+01
44	  0.028617235	-7.294000E+00	  0.028617235	1.438780E+02	  0.028617235	2.159000E+01	  0.028617235	1.351000E+01
45	  0.028817635	-7.292000E+00	  0.028817635	1.436340E+02	  0.028817635	2.161100E+01	  0.028817635	1.360600E+01
46	  0.029018037	-7.292000E+00	  0.029018037	1.433810E+02	  0.029018037	2.163600E+01	  0.029018037	1.370400E+01
47	  0.029218437	-7.295000E+00	  0.029218437	1.431410E+02	  0.029218437	2.166900E+01	  0.029218437	1.379500E+01
48	  0.029418837	-7.294000E+00	  0.029418837	1.428900E+02	  0.029418837	2.169200E+01	  0.029418837	1.389300E+01
49	  0.029619239	-7.292000E+00	  0.029619239	1.426320E+02	  0.029619239	2.171500E+01	  0.029619239	1.399400E+01
50	  0.029819639	-7.295000E+00	  0.029819639	1.423900E+02	  0.029819639	2.174800E+01	  0.029819639	1.408600E+01
51	  0.030020041	-7.293000E+00	  0.030020041	1.421380E+02	  0.030020041	2.177100E+01	  0.030020041	1.418500E+01
52	  0.030220442	-7.294000E+00	  0.030220442	1.418880E+02	  0.030220442	2.179900E+01	  0.030220442	1.428200E+01
53	  0.030420844	-7.293000E+00	  0.030420844	1.416430E+02	  0.030420844	2.182500E+01	  0.030420844	1.437800E+01
54	  0.030621244	-7.294000E+00	  0.030621244	1.413900E+02	  0.030621244	2.185500E+01	  0.030621244	1.447600E+01
55	  0.030821644	-7.294000E+00	  0.030821644	1.411290E+02	  0.030821644	2.188400E+01	  0.030821644	1.457700E+01
56	  0.031022044	-7.295000E+00	  0.031022044	1.408880E+02	  0.031022044	2.191400E+01	  0.031022044	1.467100E+01
57	  0.031222444	-7.277000E+00	  0.031222444	1.407110E+02	  0.031222444	2.188600E+01	  0.031222444	1.475300E+01
58	  0.031422846	-7.277000E+00	  0.031422846	1.404710E+02	  0.031422846	2.191300E+01	  0.031422846	1.484700E+01
59	  0.031623244	-7.277000E+00	  0.031623244	1.402330E+02	  0.031623244	2.194100E+01	  0.031623244	1.494000E+01
60	  0.031823646	-7.278000E+00	  0.031823646	1.399710E+02	  0.031823646	2.197200E+01	  0.031823646	1.504200E+01
61	  0.032024048	-7.280000E+00	  0.032024048	1.397180E+02	  0.032024048	2.200700E+01	  0.032024048	1.514000E+01
62	  0.032224450	-7.279000E+00	  0.032224450	1.394730E+02	  0.032224450	2.203400E+01	  0.032224450	1.523600E+01
63	  0.032424849	-7.281000E+00	  0.032424849	1.392070E+02	  0.032424849	2.207000E+01	  0.032424849	1.533900E+01
64	  0.032625251	-7.281000E+00	  0.032625251	1.389670E+02	  0.032625251	2.209900E+01	  0.032625251	1.543300E+01
65	  0.032825653	-7.279000E+00	  0.032825653	1.387120E+02	  0.032825653	2.212300E+01	  0.032825653	1.553500E+01
66	  0.033026051	-7.281000E+00	  0.033026051	1.384530E+02	  0.033026051	2.216100E+01	  0.033026051	1.563500E+01
67	  0.033226453	-7.282000E+00	  0.033226453	1.382170E+02	  0.033226453	2.219200E+01	  0.033226453	1.572700E+01
68	  0.033426855	-7.282000E+00	  0.033426855	1.379680E+02	  0.033426855	2.222200E+01	  0.033426855	1.582500E+01
69	  0.033627257	-7.282000E+00	  0.033627257	1.377190E+02	  0.033627257	2.225200E+01	  0.033627257	1.592400E+01
70	  0.033827655	-7.282000E+00	  0.033827655	1.374390E+02	  0.033827655	2.228700E+01	  0.033827655	1.603400E+01
71	  0.034028057	-7.284000E+00	  0.034028057	1.372180E+02	  0.034028057	2.232100E+01	  0.034028057	1.612000E+01
72	  0.034228459	-7.280000E+00	  0.034228459	1.369620E+02	  0.034228459	2.234200E+01	  0.034228459	1.622400E+01
73	  0.034428857	-7.281000E+00	  0.034428857	1.367240E+02	  0.034428857	2.237500E+01	  0.034428857	1.631700E+01
74	  0.034629259	-7.282000E+00	  0.034629259	1.364670E+02	  0.034629259	2.241100E+01	  0.034629259	1.641800E+01
75	  0.034829661	-7.282000E+00	  0.034829661	1.362090E+02	  0.034829661	2.244400E+01	  0.034829661	1.652000E+01
76	  0.035030060	-7.279000E+00	  0.035030060	1.359870E+02	  0.035030060	2.246600E+01	  0.035030060	1.661000E+01
77	  0.035230462	-7.280000E+00	  0.035230462	1.357280E+02	  0.035230462	2.250200E+01	  0.035230462	1.671200E+01
78	  0.035430863	-7.281000E+00	  0.035430863	1.354930E+02	  0.035430863	2.253600E+01	  0.035430863	1.680500E+01
79	  0.035631265	-7.281000E+00	  0.035631265	1.352210E+02	  0.035631265	2.257000E+01	  0.035631265	1.691300E+01
80	  0.035831664	-7.282000E+00	  0.035831664	1.349880E+02	  0.035831664	2.260500E+01	  0.035831664	1.700400E+01
81	  0.036032066	-7.282000E+00	  0.036032066	1.347450E+02	  0.036032066	2.263700E+01	  0.036032066	1.710200E+01
82	  0.036232468	-7.279000E+00	  0.036232468	1.344990E+02	  0.036232468	2.266200E+01	  0.036232468	1.720200E+01
83	  0.036432866	-7.280000E+00	  0.036432866	1.342440E+02	  0.036432866	2.269900E+01	  0.036432866	1.730300E+01
84	  0.036633268	-7.280000E+00	  0.036633268	1.340000E+02	  0.036633268	2.273400E+01	  0.036633268	1.740000E+01
85	  0.036833670	-7.277000E+00	  0.036833670	1.337640E+02	  0.036833670	2.275800E+01	  0.036833670	1.749700E+01
86	  0.037034072	-7.279000E+00	  0.037034072	1.335130E+02	  0.037034072	2.279800E+01	  0.037034072	1.759600E+01
87	  0.037234470	-7.279000E+00	  0.037234470	1.332670E+02	  0.037234470	2.283500E+01	  0.037234470	1.769300E+01
88	  0.037434869	-7.278000E+00	  0.037434869	1.330280E+02	  0.037434869	2.286400E+01	  0.037434869	1.779000E+01
89	  0.037635271	-7.280000E+00	  0.037635271	1.327720E+02	  0.037635271	2.290700E+01	  0.037635271	1.789100E+01
90	  0.037835669	-7.277000E+00	  0.037835669	1.325130E+02	  0.037835669	2.293500E+01	  0.037835669	1.799800E+01
91	  0.038036071	-7.280000E+00	  0.038036071	1.322930E+02	  0.038036071	2.297600E+01	  0.038036071	1.808300E+01
92	  0.038236473	-7.277000E+00	  0.038236473	1.320420E+02	  0.038236473	2.300500E+01	  0.038236473	1.818600E+01
93	  0.038436871	-7.275000E+00	  0.038436871	1.317980E+02	  0.038436871	2.303400E+01	  0.038436871	1.828700E+01
94	  0.038637273	-7.277000E+00	  0.038637273	1.315410E+02	  0.038637273	2.307800E+01	  0.038637273	1.838800E+01
95	  0.038837675	-7.277000E+00	  0.038837675	1.313100E+02	  0.038837675	2.311300E+01	  0.038837675	1.848100E+01
96	  0.039038073	-7.275000E+00	  0.039038073	1.310560E+02	  0.039038073	2.314400E+01	  0.039038073	1.858600E+01
97	  0.039238475	-7.276000E+00	  0.039238475	1.308200E+02	  0.039238475	2.318300E+01	  0.039238475	1.867900E+01
98	  0.039438877	-7.275000E+00	  0.039438877	1.305830E+02	  0.039438877	2.321600E+01	  0.039438877	1.877600E+01
99	  0.039639279	-7.276000E+00	  0.039639279	1.303310E+02	  0.039639279	2.325700E+01	  0.039639279	1.887700E+01
100	  0.039839678	-7.276000E+00	  0.039839678	1.300880E+02	  0.039839678	2.329600E+01	  0.039839678	1.897500E+01
101	  0.040040080	-7.273000E+00	  0.040040080	1.298300E+02	  0.040040080	2.332700E+01	  0.040040080	1.908200E+01
102	  0.040240481	-7.275000E+00	  0.040240481	1.295910E+02	  0.040240481	2.336900E+01	  0.040240481	1.917800E+01
103	  0.040440880	-7.275000E+00	  0.040440880	1.293490E+02	  0.040440880	2.340800E+01	  0.040440880	1.927500E+01
104	  0.040641282	-7.273000E+00	  0.040641282	1.291080E+02	  0.040641282	2.344200E+01	  0.040641282	1.937500E+01
105	  0.040841684	-7.271000E+00	  0.040841684	1.288530E+02	  0.040841684	2.347600E+01	  0.040841684	1.948100E+01
106	  0.041042086	-7.275000E+00	  0.041042086	1.286090E+02	  0.041042086	2.352500E+01	  0.041042086	1.957600E+01
107	  0.041242484	-7.275000E+00	  0.041242484	1.283720E+02	  0.041242484	2.356400E+01	  0.041242484	1.967200E+01
108	  0.041442886	-7.274000E+00	  0.041442886	1.281220E+02	  0.041442886	2.360200E+01	  0.041442886	1.977500E+01
109	  0.041643288	-7.272000E+00	  0.041643288	1.278830E+02	  0.041643288	2.363500E+01	  0.041643288	1.987500E+01
110	  0.041843686	-7.273000E+00	  0.041843686	1.276450E+02	  0.041843686	2.367800E+01	  0.041843686	1.997100E+01
111	  0.042044088	-7.274000E+00	  0.042044088	1.274030E+02	  0.042044088	2.372000E+01	  0.042044088	2.006800E+01
112	  0.042244490	-7.269000E+00	  0.042244490	1.271350E+02	  0.042244490	2.375100E+01	  0.042244490	2.018400E+01
113	  0.042444889	-7.275000E+00	  0.042444889	1.269090E+02	  0.042444889	2.380400E+01	  0.042444889	2.027000E+01
114	  0.042645290	-7.274000E+00	  0.042645290	1.266520E+02	  0.042645290	2.384600E+01	  0.042645290	2.037600E+01
115	  0.042845692	-7.274000E+00	  0.042845692	1.263990E+02	  0.042845692	2.388800E+01	  0.042845692	2.048000E+01
116	  0.043046094	-7.273000E+00	  0.043046094	1.261500E+02	  0.043046094	2.392800E+01	  0.043046094	2.058300E+01
117	  0.043246493	-7.275000E+00	  0.043246493	1.259020E+02	  0.043246493	2.397800E+01	  0.043246493	2.068200E+01
118	  0.043446895	-7.278000E+00	  0.043446895	1.256360E+02	  0.043446895	2.403200E+01	  0.043446895	2.078800E+01
119	  0.043647297	-7.281000E+00	  0.043647297	1.253680E+02	  0.043647297	2.408600E+01	  0.043647297	2.089500E+01
120	  0.043847695	-7.280000E+00	  0.043847695	1.251220E+02	  0.043847695	2.412700E+01	  0.043847695	2.099700E+01
121	  0.044048097	-7.276000E+00	  0.044048097	1.248930E+02	  0.044048097	2.415700E+01	  0.044048097	2.109600E+01
122	  0.044248499	-7.277000E+00	  0.044248499	1.246510E+02	  0.044248499	2.420400E+01	  0.044248499	2.119400E+01
123	  0.044448901	-7.274000E+00	  0.044448901	1.244250E+02	  0.044448901	2.423600E+01	  0.044448901	2.129100E+01
124	  0.044649299	-7.274000E+00	  0.044649299	1.241650E+02	  0.044649299	2.428400E+01	  0.044649299	2.139800E+01
125	  0.044849701	-7.274000E+00	  0.044849701	1.239280E+02	  0.044849701	2.432600E+01	  0.044849701	2.149700E+01
126	  0.045050103	-7.275000E+00	  0.045050103	1.236870E+02	  0.045050103	2.437300E+01	  0.045050103	2.159500E+01
127	  0.045250501	-7.274000E+00	  0.045250501	1.234460E+02	  0.045250501	2.441400E+01	  0.045250501	2.169700E+01
128	  0.045450903	-7.272000E+00	  0.045450903	1.231950E+02	  0.045450903	2.445600E+01	  0.045450903	2.180300E+01
129	  0.045651305	-7.273000E+00	  0.045651305	1.229320E+02	  0.045651305	2.450700E+01	  0.045651305	2.191100E+01
130	  0.045851704	-7.272000E+00	  0.045851704	1.227040E+02	  0.045851704	2.454700E+01	  0.045851704	2.200700E+01
131	  0.046052106	-7.272000E+00	  0.046052106	1.224500E+02	  0.046052106	2.459400E+01	  0.046052106	2.211300E+01
132	  0.046252504	-7.269000E+00	  0.046252504	1.221870E+02	  0.046252504	2.463700E+01	  0.046252504	2.222600E+01
133	  0.046452906	-7.269000E+00	  0.046452906	1.219570E+02	  0.046452906	2.468200E+01	  0.046452906	2.232100E+01
134	  0.046653304	-7.271000E+00	  0.046653304	1.216960E+02	  0.046653304	2.473700E+01	  0.046653304	2.242800E+01
135	  0.046853706	-7.269000E+00	  0.046853706	1.214520E+02	  0.046853706	2.478000E+01	  0.046853706	2.253200E+01
136	  0.047054108	-7.267000E+00	  0.047054108	1.212050E+02	  0.047054108	2.482100E+01	  0.047054108	2.263900E+01
137	  0.047254506	-7.268000E+00	  0.047254506	1.209590E+02	  0.047254506	2.487400E+01	  0.047254506	2.274000E+01
138	  0.047454908	-7.267000E+00	  0.047454908	1.207120E+02	  0.047454908	2.492000E+01	  0.047454908	2.284500E+01
139	  0.047655310	-7.270000E+00	  0.047655310	1.204660E+02	  0.047655310	2.497600E+01	  0.047655310	2.294400E+01
140	  0.047855709	-7.266000E+00	  0.047855709	1.202270E+02	  0.047855709	2.501500E+01	  0.047855709	2.304900E+01
141	  0.048056111	-7.268000E+00	  0.048056111	1.199700E+02	  0.048056111	2.507100E+01	  0.048056111	2.315400E+01
142	  0.048256513	-7.265000E+00	  0.048256513	1.197420E+02	  0.048256513	2.511000E+01	  0.048256513	2.325400E+01
143	  0.048456915	-7.265000E+00	  0.048456915	1.195060E+02	  0.048456915	2.515800E+01	  0.048456915	2.335400E+01
144	  0.048657313	-7.265000E+00	  0.048657313	1.192410E+02	  0.048657313	2.521000E+01	  0.048657313	2.346600E+01
145	  0.048857715	-7.266000E+00	  0.048857715	1.190020E+02	  0.048857715	2.526300E+01	  0.048857715	2.356500E+01
146	  0.049058117	-7.266000E+00	  0.049058117	1.187450E+02	  0.049058117	2.531800E+01	  0.049058117	2.367300E+01
147	  0.049258515	-7.264000E+00	  0.049258515	1.184940E+02	  0.049258515	2.536400E+01	  0.049258515	2.378300E+01
148	  0.049458917	-7.260000E+00	  0.049458917	1.182610E+02	  0.049458917	2.540100E+01	  0.049458917	2.388700E+01
149	  0.049659319	-7.263000E+00	  0.049659319	1.180170E+02	  0.049659319	2.546300E+01	  0.049659319	2.398500E+01
150	  0.049859721	-7.262000E+00	  0.049859721	1.177850E+02	  0.049859721	2.550900E+01	  0.049859721	2.408500E+01
151	  0.050060119	-7.261000E+00	  0.050060119	1.175310E+02	  0.050060119	2.556300E+01	  0.050060119	2.419400E+01
152	  0.050260521	-7.262000E+00	  0.050260521	1.172820E+02	  0.050260521	2.561900E+01	  0.050260521	2.429800E+01
153	  0.050460923	-7.258000E+00	  0.050460923	1.170340E+02	  0.050460923	2.566100E+01	  0.050460923	2.441000E+01
154	  0.050661322	-7.260000E+00	  0.050661322	1.167970E+02	  0.050661322	2.571900E+01	  0.050661322	2.450800E+01
155	  0.050861724	-7.259000E+00	  0.050861724	1.165490E+02	  0.050861724	2.577000E+01	  0.050861724	2.461500E+01
156	  0.051062126	-7.259000E+00	  0.051062126	1.163120E+02	  0.051062126	2.582400E+01	  0.051062126	2.471600E+01
157	  0.051262524	-7.261000E+00	  0.051262524	1.160580E+02	  0.051262524	2.588400E+01	  0.051262524	2.482200E+01
158	  0.051462926	-7.258000E+00	  0.051462926	1.158330E+02	  0.051462926	2.592800E+01	  0.051462926	2.492200E+01
159	  0.051663328	-7.257000E+00	  0.051663328	1.155810E+02	  0.051663328	2.598100E+01	  0.051663328	2.503200E+01
160	  0.051863730	-7.258000E+00	  0.051863730	1.153260E+02	  0.051863730	2.604200E+01	  0.051863730	2.514000E+01
161	  0.052064128	-7.256000E+00	  0.052064128	1.150910E+02	  0.052064128	2.609200E+01	  0.052064128	2.524200E+01
162	  0.052264530	-7.258000E+00	  0.052264530	1.148360E+02	  0.052264530	2.615500E+01	  0.052264530	2.535000E+01
163	  0.052464932	-7.258000E+00	  0.052464932	1.146050E+02	  0.052464932	2.620800E+01	  0.052464932	2.544800E+01
164	  0.052665330	-7.256000E+00	  0.052665330	1.143590E+02	  0.052665330	2.626000E+01	  0.052665330	2.555700E+01
165	  0.052865732	-7.256000E+00	  0.052865732	1.141210E+02	  0.052865732	2.631800E+01	  0.052865732	2.565900E+01
166	  0.053066134	-7.254000E+00	  0.053066134	1.138730E+02	  0.053066134	2.637000E+01	  0.053066134	2.576900E+01
167	  0.053266536	-7.253000E+00	  0.053266536	1.136270E+02	  0.053266536	2.642700E+01	  0.053266536	2.587600E+01
168	  0.053466935	-7.252000E+00	  0.053466935	1.133880E+02	  0.053466935	2.648000E+01	  0.053466935	2.598100E+01
169	  0.053667337	-7.249000E+00	  0.053667337	1.131490E+02	  0.053667337	2.653000E+01	  0.053667337	2.608900E+01
170	  0.053867739	-7.248000E+00	  0.053867739	1.128980E+02	  0.053867739	2.658800E+01	  0.053867739	2.619900E+01
171	  0.054068137	-7.247000E+00	  0.054068137	1.126680E+02	  0.054068137	2.664100E+01	  0.054068137	2.630000E+01
172	  0.054268539	-7.248000E+00	  0.054268539	1.124250E+02	  0.054268539	2.670200E+01	  0.054268539	2.640500E+01
173	  0.054468941	-7.246000E+00	  0.054468941	1.121810E+02	  0.054468941	2.675700E+01	  0.054468941	2.651400E+01
174	  0.054669339	-7.247000E+00	  0.054669339	1.119430E+02	  0.054669339	2.681800E+01	  0.054669339	2.661600E+01
175	  0.054869737	-7.247000E+00	  0.054869737	1.116910E+02	  0.054869737	2.688100E+01	  0.054869737	2.672500E+01
176	  0.055070139	-7.243000E+00	  0.055070139	1.114490E+02	  0.055070139	2.693300E+01	  0.055070139	2.683600E+01
177	  0.055270538	-7.247000E+00	  0.055270538	1.112030E+02	  0.055270538	2.700400E+01	  0.055270538	2.693800E+01
178	  0.055470940	-7.244000E+00	  0.055470940	1.109690E+02	  0.055470940	2.705600E+01	  0.055470940	2.704500E+01
179	  0.055671342	-7.241000E+00	  0.055671342	1.107170E+02	  0.055671342	2.711200E+01	  0.055671342	2.716000E+01
180	  0.055871744	-7.241000E+00	  0.055871744	1.104740E+02	  0.055871744	2.717500E+01	  0.055871744	2.726500E+01
181	  0.056072142	-7.243000E+00	  0.056072142	1.102280E+02	  0.056072142	2.724400E+01	  0.056072142	2.737000E+01
182	  0.056272544	-7.240000E+00	  0.056272544	1.099840E+02	  0.056272544	2.729900E+01	  0.056272544	2.748200E+01
183	  0.056472946	-7.240000E+00	  0.056472946	1.097490E+02	  0.056472946	2.736200E+01	  0.056472946	2.758400E+01
184	  0.056673344	-7.241000E+00	  0.056673344	1.095100E+02	  0.056673344	2.742700E+01	  0.056673344	2.768800E+01
185	  0.056873746	-7.239000E+00	  0.056873746	1.092610E+02	  0.056873746	2.748900E+01	  0.056873746	2.780000E+01
186	  0.057074148	-7.240000E+00	  0.057074148	1.090140E+02	  0.057074148	2.755600E+01	  0.057074148	2.790800E+01
187	  0.057274550	-7.238000E+00	  0.057274550	1.087730E+02	  0.057274550	2.761500E+01	  0.057274550	2.801700E+01
188	  0.057474948	-7.239000E+00	  0.057474948	1.085310E+02	  0.057474948	2.768300E+01	  0.057474948	2.812300E+01
189	  0.057675350	-7.237000E+00	  0.057675350	1.082830E+02	  0.057675350	2.774700E+01	  0.057675350	2.823500E+01
190	  0.057875752	-7.239000E+00	  0.057875752	1.080450E+02	  0.057875752	2.781600E+01	  0.057875752	2.833700E+01
191	  0.058076151	-7.236000E+00	  0.058076151	1.078090E+02	  0.058076151	2.787300E+01	  0.058076151	2.844600E+01
192	  0.058276553	-7.237000E+00	  0.058276553	1.075610E+02	  0.058276553	2.794500E+01	  0.058276553	2.855400E+01
193	  0.058476955	-7.235000E+00	  0.058476955	1.073270E+02	  0.058476955	2.800300E+01	  0.058476955	2.866200E+01
194	  0.058677353	-7.235000E+00	  0.058677353	1.070750E+02	  0.058677353	2.807600E+01	  0.058677353	2.877200E+01
195	  0.058877755	-7.233000E+00	  0.058877755	1.068480E+02	  0.058877755	2.813400E+01	  0.058877755	2.887700E+01
196	  0.059078157	-7.234000E+00	  0.059078157	1.065900E+02	  0.059078157	2.820900E+01	  0.059078157	2.899000E+01
197	  0.059278559	-7.234000E+00	  0.059278559	1.063440E+02	  0.059278559	2.828100E+01	  0.059278559	2.909900E+01
198	  0.059478957	-7.234000E+00	  0.059478957	1.060910E+02	  0.059478957	2.835300E+01	  0.059478957	2.921200E+01
199	  0.059679359	-7.231000E+00	  0.059679359	1.058650E+02	  0.059679359	2.841000E+01	  0.059679359	2.931800E+01
200	  0.059879761	-7.232000E+00	  0.059879761	1.056100E+02	  0.059879761	2.848700E+01	  0.059879761	2.943000E+01
201	  0.060080159	-7.227000E+00	  0.060080159	1.053800E+02	  0.060080159	2.854100E+01	  0.060080159	2.954100E+01
202	  0.060280561	-7.232000E+00	  0.060280561	1.051240E+02	  0.060280561	2.863100E+01	  0.060280561	2.964700E+01
203	  0.060480963	-7.228000E+00	  0.060480963	1.048850E+02	  0.060480963	2.869100E+01	  0.060480963	2.976100E+01
204	  0.060681365	-7.231000E+00	  0.060681365	1.046450E+02	  0.060681365	2.877000E+01	  0.060681365	2.986400E+01
205	  0.060881764	-7.226000E+00	  0.060881764	1.044060E+02	  0.060881764	2.882900E+01	  0.060881764	2.997900E+01
206	  0.061082166	-7.227000E+00	  0.061082166	1.041560E+02	  0.061082166	2.890700E+01	  0.061082166	3.008900E+01
207	  0.061282568	-7.227000E+00	  0.061282568	1.039270E+02	  0.061282568	2.897500E+01	  0.061282568	3.019300E+01
208	  0.061482966	-7.226000E+00	  0.061482966	1.036880E+02	  0.061482966	2.904600E+01	  0.061482966	3.030200E+01
209	  0.061683368	-7.226000E+00	  0.061683368	1.034480E+02	  0.061683368	2.912100E+01	  0.061683368	3.041000E+01
210	  0.061883770	-7.224000E+00	  0.061883770	1.031950E+02	  0.061883770	2.919300E+01	  0.061883770	3.052800E+01
211	  0.062084168	-7.225000E+00	  0.062084168	1.029670E+02	  0.062084168	2.926600E+01	  0.062084168	3.062900E+01
212	  0.062284570	-7.222000E+00	  0.062284570	1.027210E+02	  0.062284570	2.933600E+01	  0.062284570	3.074500E+01
213	  0.062484972	-7.207000E+00	  0.062484972	1.025850E+02	  0.062484972	2.933300E+01	  0.062484972	3.083800E+01
214	  0.062685370	-7.208000E+00	  0.062685370	1.023320E+02	  0.062685370	2.941700E+01	  0.062685370	3.095000E+01
215	  0.062885776	-7.206000E+00	  0.062885776	1.020870E+02	  0.062885776	2.948800E+01	  0.062885776	3.106700E+01
216	  0.063086174	-7.205000E+00	  0.063086174	1.018590E+02	  0.063086174	2.955900E+01	  0.063086174	3.117100E+01
217	  0.063286573	-7.205000E+00	  0.063286573	1.015920E+02	  0.063286573	2.964400E+01	  0.063286573	3.129300E+01
218	  0.063486971	-7.203000E+00	  0.063486971	1.013470E+02	  0.063486971	2.971700E+01	  0.063486971	3.140900E+01
219	  0.063687377	-7.198000E+00	  0.063687377	1.011320E+02	  0.063687377	2.977500E+01	  0.063687377	3.151500E+01
220	  0.063887775	-7.195000E+00	  0.063887775	1.008900E+02	  0.063887775	2.984500E+01	  0.063887775	3.163200E+01
221	  0.064088173	-7.196000E+00	  0.064088173	1.006310E+02	  0.064088173	2.993400E+01	  0.064088173	3.174800E+01
222	  0.064288579	-7.198000E+00	  0.064288579	1.004000E+02	  0.064288579	3.001500E+01	  0.064288579	3.185000E+01
223	  0.064488977	-7.193000E+00	  0.064488977	1.001620E+02	  0.064488977	3.008100E+01	  0.064488977	3.196900E+01
224	  0.064689375	-7.193000E+00	  0.064689375	9.990800E+01	  0.064689375	3.016500E+01	  0.064689375	3.208700E+01
225	  0.064889781	-7.192000E+00	  0.064889781	9.968600E+01	  0.064889781	3.023700E+01	  0.064889781	3.219000E+01
226	  0.065090179	-7.190000E+00	  0.065090179	9.943800E+01	  0.065090179	3.031700E+01	  0.065090179	3.230700E+01
227	  0.065290578	-7.191000E+00	  0.065290578	9.918700E+01	  0.065290578	3.040500E+01	  0.065290578	3.242100E+01
228	  0.065490983	-7.189000E+00	  0.065490983	9.895900E+01	  0.065490983	3.047700E+01	  0.065490983	3.253000E+01
229	  0.065691382	-7.187000E+00	  0.065691382	9.870600E+01	  0.065691382	3.056000E+01	  0.065691382	3.265000E+01
230	  0.065891780	-7.185000E+00	  0.065891780	9.847600E+01	  0.065891780	3.063500E+01	  0.065891780	3.275900E+01
231	  0.066092186	-7.186000E+00	  0.066092186	9.822800E+01	  0.066092186	3.072400E+01	  0.066092186	3.287200E+01
232	  0.066292584	-7.184000E+00	  0.066292584	9.799900E+01	  0.066292584	3.079800E+01	  0.066292584	3.298300E+01
233	  0.066492982	-7.186000E+00	  0.066492982	9.774500E+01	  0.066492982	3.089500E+01	  0.066492982	3.309400E+01
234	  0.066693388	-7.183000E+00	  0.066693388	9.751900E+01	  0.066693388	3.096800E+01	  0.066693388	3.320600E+01
235	  0.066893786	-7.181000E+00	  0.066893786	9.727600E+01	  0.066893786	3.104900E+01	  0.066893786	3.332200E+01
236	  0.067094192	-7.182000E+00	  0.067094192	9.702200E+01	  0.067094192	3.114300E+01	  0.067094192	3.343900E+01
237	  0.067294590	-7.180000E+00	  0.067294590	9.680800E+01	  0.067294590	3.121500E+01	  0.067294590	3.354200E+01
238	  0.067494988	-7.176000E+00	  0.067494988	9.656000E+01	  0.067494988	3.129500E+01	  0.067494988	3.366600E+01
239	  0.067695394	-7.176000E+00	  0.067695394	9.631300E+01	  0.067695394	3.138500E+01	  0.067695394	3.378100E+01
240	  0.067895792	-7.178000E+00	  0.067895792	9.605800E+01	  0.067895792	3.148500E+01	  0.067895792	3.389500E+01
241	  0.068096191	-7.173000E+00	  0.068096191	9.581700E+01	  0.068096191	3.156100E+01	  0.068096191	3.401800E+01
242	  0.068296596	-7.175000E+00	  0.068296596	9.559300E+01	  0.068296596	3.165300E+01	  0.068296596	3.411600E+01
243	  0.068496995	-7.178000E+00	  0.068496995	9.536300E+01	  0.068496995	3.174800E+01	  0.068496995	3.421700E+01
244	  0.068697393	-7.172000E+00	  0.068697393	9.511300E+01	  0.068697393	3.182400E+01	  0.068697393	3.434800E+01
245	  0.068897791	-7.172000E+00	  0.068897791	9.488200E+01	  0.068897791	3.191200E+01	  0.068897791	3.445600E+01
246	  0.069098189	-7.172000E+00	  0.069098189	9.463100E+01	  0.069098189	3.200900E+01	  0.069098189	3.457300E+01
247	  0.069298595	-7.171000E+00	  0.069298595	9.438400E+01	  0.069298595	3.210200E+01	  0.069298595	3.469000E+01
248	  0.069498993	-7.167000E+00	  0.069498993	9.414300E+01	  0.069498993	3.218500E+01	  0.069498993	3.481200E+01
249	  0.069699399	-7.168000E+00	  0.069699399	9.394000E+01	  0.069699399	3.226600E+01	  0.069699399	3.490500E+01
250	  0.069899797	-7.170000E+00	  0.069899797	9.369100E+01	  0.069899797	3.237100E+01	  0.069899797	3.501600E+01
251	  0.070100196	-7.166000E+00	  0.070100196	9.343100E+01	  0.070100196	3.246300E+01	  0.070100196	3.514700E+01
252	  0.070300601	-7.166000E+00	  0.070300601	9.320700E+01	  0.070300601	3.255200E+01	  0.070300601	3.525200E+01
253	  0.070501000	-7.166000E+00	  0.070501000	9.299700E+01	  0.070501000	3.263500E+01	  0.070501000	3.535300E+01
254	  0.070701398	-7.165000E+00	  0.070701398	9.273100E+01	  0.070701398	3.274100E+01	  0.070701398	3.547800E+01
255	  0.070901804	-7.162000E+00	  0.070901804	9.250200E+01	  0.070901804	3.282500E+01	  0.070901804	3.559300E+01
256	  0.071102202	-7.161000E+00	  0.071102202	9.227100E+01	  0.071102202	3.291500E+01	  0.071102202	3.570600E+01
257	  0.071302600	-7.160000E+00	  0.071302600	9.200700E+01	  0.071302600	3.302200E+01	  0.071302600	3.583100E+01
258	  0.071503006	-7.158000E+00	  0.071503006	9.179300E+01	  0.071503006	3.310400E+01	  0.071503006	3.593800E+01
259	  0.071703404	-7.158000E+00	  0.071703404	9.153200E+01	  0.071703404	3.321200E+01	  0.071703404	3.606100E+01
260	  0.071903802	-7.157000E+00	  0.071903802	9.129700E+01	  0.071903802	3.330700E+01	  0.071903802	3.617500E+01
261	  0.072104208	-7.156000E+00	  0.072104208	9.106800E+01	  0.072104208	3.339900E+01	  0.072104208	3.628600E+01
262	  0.072304606	-7.156000E+00	  0.072304606	9.081600E+01	  0.072304606	3.350900E+01	  0.072304606	3.640300E+01
263	  0.072505005	-7.155000E+00	  0.072505005	9.057400E+01	  0.072505005	3.360900E+01	  0.072505005	3.652000E+01
264	  0.072705410	-7.153000E+00	  0.072705410	9.034000E+01	  0.072705410	3.370300E+01	  0.072705410	3.663700E+01
265	  0.072905809	-7.156000E+00	  0.072905809	9.010300E+01	  0.072905809	3.381300E+01	  0.072905809	3.674200E+01
266	  0.073106214	-7.152000E+00	  0.073106214	8.987300E+01	  0.073106214	3.390200E+01	  0.073106214	3.686100E+01
267	  0.073306613	-7.149000E+00	  0.073306613	8.961600E+01	  0.073306613	3.400600E+01	  0.073306613	3.699100E+01
268	  0.073507011	-7.151000E+00	  0.073507011	8.939800E+01	  0.073507011	3.410600E+01	  0.073507011	3.708900E+01
269	  0.073707417	-7.147000E+00	  0.073707417	8.918700E+01	  0.073707417	3.418900E+01	  0.073707417	3.719900E+01
270	  0.073907815	-7.146000E+00	  0.073907815	8.894600E+01	  0.073907815	3.429300E+01	  0.073907815	3.731700E+01
271	  0.074108213	-7.146000E+00	  0.074108213	8.872000E+01	  0.074108213	3.439300E+01	  0.074108213	3.742500E+01
272	  0.074308619	-7.141000E+00	  0.074308619	8.847700E+01	  0.074308619	3.448800E+01	  0.074308619	3.755500E+01
273	  0.074509017	-7.141000E+00	  0.074509017	8.825000E+01	  0.074509017	3.459200E+01	  0.074509017	3.766200E+01
274	  0.074709415	-7.144000E+00	  0.074709415	8.800200E+01	  0.074709415	3.471200E+01	  0.074709415	3.777200E+01
275	  0.074909821	-7.142000E+00	  0.074909821	8.775900E+01	  0.074909821	3.481900E+01	  0.074909821	3.789300E+01
276	  0.075110219	-7.143000E+00	  0.075110219	8.752900E+01	  0.075110219	3.492800E+01	  0.075110219	3.799900E+01
277	  0.075310618	-7.137000E+00	  0.075310618	8.728100E+01	  0.075310618	3.502300E+01	  0.075310618	3.813600E+01
278	  0.075511023	-7.137000E+00	  0.075511023	8.706300E+01	  0.075511023	3.512700E+01	  0.075511023	3.823800E+01
279	  0.075711422	-7.135000E+00	  0.075711422	8.682000E+01	  0.075711422	3.523300E+01	  0.075711422	3.836200E+01
280	  0.075911827	-7.138000E+00	  0.075911827	8.656900E+01	  0.075911827	3.536100E+01	  0.075911827	3.847300E+01
281	  0.076112226	-7.135000E+00	  0.076112226	8.632900E+01	  0.076112226	3.546800E+01	  0.076112226	3.859400E+01
282	  0.076312624	-7.137000E+00	  0.076312624	8.608700E+01	  0.076312624	3.559100E+01	  0.076312624	3.870300E+01
283	  0.076513030	-7.136000E+00	  0.076513030	8.585500E+01	  0.076513030	3.569800E+01	  0.076513030	3.881900E+01
284	  0.076713428	-7.136000E+00	  0.076713428	8.560200E+01	  0.076713428	3.582100E+01	  0.076713428	3.893900E+01
285	  0.076913826	-7.132000E+00	  0.076913826	8.536600E+01	  0.076913826	3.592400E+01	  0.076913826	3.906400E+01
286	  0.077114232	-7.131000E+00	  0.077114232	8.512900E+01	  0.077114232	3.603900E+01	  0.077114232	3.917900E+01
287	  0.077314630	-7.133000E+00	  0.077314630	8.488900E+01	  0.077314630	3.616100E+01	  0.077314630	3.928900E+01
288	  0.077515028	-7.133000E+00	  0.077515028	8.464700E+01	  0.077515028	3.628200E+01	  0.077515028	3.940500E+01
289	  0.077715434	-7.129000E+00	  0.077715434	8.440600E+01	  0.077715434	3.639000E+01	  0.077715434	3.953400E+01
290	  0.077915832	-7.126000E+00	  0.077915832	8.417700E+01	  0.077915832	3.649800E+01	  0.077915832	3.965100E+01
291	  0.078116231	-7.125000E+00	  0.078116231	8.394700E+01	  0.078116231	3.661100E+01	  0.078116231	3.976400E+01
292	  0.078316636	-7.129000E+00	  0.078316636	8.369600E+01	  0.078316636	3.675100E+01	  0.078316636	3.987200E+01
293	  0.078517035	-7.125000E+00	  0.078517035	8.347500E+01	  0.078517035	3.685300E+01	  0.078517035	3.999000E+01
294	  0.078717433	-7.126000E+00	  0.078717433	8.324400E+01	  0.078717433	3.697200E+01	  0.078717433	4.009900E+01
295	  0.078917839	-7.124000E+00	  0.078917839	8.299700E+01	  0.078917839	3.709700E+01	  0.078917839	4.022200E+01
296	  0.079118237	-7.123000E+00	  0.079118237	8.275900E+01	  0.079118237	3.721500E+01	  0.079118237	4.034200E+01
297	  0.079318643	-7.123000E+00	  0.079318643	8.251400E+01	  0.079318643	3.734600E+01	  0.079318643	4.045700E+01
298	  0.079519041	-7.121000E+00	  0.079519041	8.228800E+01	  0.079519041	3.745800E+01	  0.079519041	4.057400E+01
299	  0.079719439	-7.119000E+00	  0.079719439	8.205700E+01	  0.079719439	3.757500E+01	  0.079719439	4.069200E+01
300	  0.079919845	-7.119000E+00	  0.079919845	8.181400E+01	  0.079919845	3.770700E+01	  0.079919845	4.080500E+01
301	  0.080120243	-7.118000E+00	  0.080120243	8.159500E+01	  0.080120243	3.782000E+01	  0.080120243	4.091600E+01
302	  0.080320641	-7.117000E+00	  0.080320641	8.135400E+01	  0.080320641	3.794800E+01	  0.080320641	4.103500E+01
303	  0.080521047	-7.115000E+00	  0.080521047	8.110200E+01	  0.080521047	3.808000E+01	  0.080521047	4.116100E+01
304	  0.080721445	-7.113000E+00	  0.080721445	8.086300E+01	  0.080721445	3.820300E+01	  0.080721445	4.128400E+01
305	  0.080921844	-7.114000E+00	  0.080921844	8.061400E+01	  0.080921844	3.834300E+01	  0.080921844	4.140100E+01
306	  0.081122249	-7.114000E+00	  0.081122249	8.039200E+01	  0.081122249	3.846600E+01	  0.081122249	4.150800E+01
307	  0.081322648	-7.110000E+00	  0.081322648	8.015600E+01	  0.081322648	3.858700E+01	  0.081322648	4.163400E+01
308	  0.081523046	-7.111000E+00	  0.081523046	7.991200E+01	  0.081523046	3.872700E+01	  0.081523046	4.174700E+01
309	  0.081723452	-7.112000E+00	  0.081723452	7.968000E+01	  0.081723452	3.886200E+01	  0.081723452	4.185500E+01
310	  0.081923850	-7.109000E+00	  0.081923850	7.943400E+01	  0.081923850	3.899200E+01	  0.081923850	4.198400E+01
311	  0.082124248	-7.110000E+00	  0.082124248	7.919700E+01	  0.082124248	3.913200E+01	  0.082124248	4.209200E+01
312	  0.082324654	-7.107000E+00	  0.082324654	7.896300E+01	  0.082324654	3.925800E+01	  0.082324654	4.221500E+01
313	  0.082525052	-7.109000E+00	  0.082525052	7.871900E+01	  0.082525052	3.940400E+01	  0.082525052	4.232500E+01
314	  0.082725458	-7.105000E+00	  0.082725458	7.849700E+01	  0.082725458	3.952300E+01	  0.082725458	4.244500E+01
315	  0.082925856	-7.108000E+00	  0.082925856	7.824200E+01	  0.082925856	3.968000E+01	  0.082925856	4.255800E+01
316	  0.083126254	-7.107000E+00	  0.083126254	7.801100E+01	  0.083126254	3.981400E+01	  0.083126254	4.267200E+01
317	  0.083326660	-7.102000E+00	  0.083326660	7.777500E+01	  0.083326660	3.993900E+01	  0.083326660	4.280500E+01
318	  0.083527058	-7.104000E+00	  0.083527058	7.756000E+01	  0.083527058	4.007400E+01	  0.083527058	4.289900E+01
319	  0.083727457	-7.102000E+00	  0.083727457	7.730400E+01	  0.083727457	4.022200E+01	  0.083727457	4.302900E+01
320	  0.083927862	-7.102000E+00	  0.083927862	7.709000E+01	  0.083927862	4.035200E+01	  0.083927862	4.313000E+01
321	  0.084128261	-7.101000E+00	  0.084128261	7.684300E+01	  0.084128261	4.050000E+01	  0.084128261	4.325100E+01
322	  0.084328659	-7.100000E+00	  0.084328659	7.661300E+01	  0.084328659	4.063700E+01	  0.084328659	4.336600E+01
323	  0.084529065	-7.097000E+00	  0.084529065	7.637200E+01	  0.084529065	4.077700E+01	  0.084529065	4.349200E+01
324	  0.084729463	-7.098000E+00	  0.084729463	7.612300E+01	  0.084729463	4.093500E+01	  0.084729463	4.360700E+01
325	  0.084929861	-7.099000E+00	  0.084929861	7.589000E+01	  0.084929861	4.108200E+01	  0.084929861	4.371400E+01
326	  0.085130267	-7.096000E+00	  0.085130267	7.565500E+01	  0.085130267	4.122200E+01	  0.085130267	4.383800E+01
327	  0.085330658	-7.097000E+00	  0.085330658	7.541700E+01	  0.085330658	4.137400E+01	  0.085330658	4.394800E+01
328	  0.085531056	-7.096000E+00	  0.085531056	7.519100E+01	  0.085531056	4.151400E+01	  0.085531056	4.406000E+01
329	  0.085731462	-7.093000E+00	  0.085731462	7.495100E+01	  0.085731462	4.166000E+01	  0.085731462	4.418500E+01
330	  0.085931860	-7.093000E+00	  0.085931860	7.471500E+01	  0.085931860	4.181200E+01	  0.085931860	4.429600E+01
331	  0.086132258	-7.093000E+00	  0.086132258	7.448800E+01	  0.086132258	4.196000E+01	  0.086132258	4.440300E+01
332	  0.086332664	-7.093000E+00	  0.086332664	7.426300E+01	  0.086332664	4.210700E+01	  0.086332664	4.451100E+01
333	  0.086533062	-7.092000E+00	  0.086533062	7.401000E+01	  0.086533062	4.226900E+01	  0.086533062	4.463500E+01
334	  0.086733460	-7.094000E+00	  0.086733460	7.376800E+01	  0.086733460	4.243400E+01	  0.086733460	4.474100E+01
335	  0.086933866	-7.088000E+00	  0.086933866	7.355500E+01	  0.086933866	4.255900E+01	  0.086933866	4.486500E+01
336	  0.087134264	-7.090000E+00	  0.087134264	7.330600E+01	  0.087134264	4.273000E+01	  0.087134264	4.497700E+01
337	  0.087334670	-7.090000E+00	  0.087334670	7.306400E+01	  0.087334670	4.289300E+01	  0.087334670	4.509000E+01
338	  0.087535068	-7.089000E+00	  0.087535068	7.282600E+01	  0.087535068	4.305100E+01	  0.087535068	4.520600E+01
339	  0.087735467	-7.089000E+00	  0.087735467	7.261200E+01	  0.087735467	4.319700E+01	  0.087735467	4.530600E+01
340	  0.087935872	-7.090000E+00	  0.087935872	7.238500E+01	  0.087935872	4.335500E+01	  0.087935872	4.540900E+01
341	  0.088136271	-7.091000E+00	  0.088136271	7.213100E+01	  0.088136271	4.353300E+01	  0.088136271	4.552400E+01
342	  0.088336669	-7.089000E+00	  0.088336669	7.190100E+01	  0.088336669	4.368900E+01	  0.088336669	4.563600E+01
343	  0.088537075	-7.087000E+00	  0.088537075	7.167400E+01	  0.088537075	4.383900E+01	  0.088537075	4.575600E+01
344	  0.088737473	-7.088000E+00	  0.088737473	7.142800E+01	  0.088737473	4.401700E+01	  0.088737473	4.586200E+01
345	  0.088937871	-7.087000E+00	  0.088937871	7.120300E+01	  0.088937871	4.417200E+01	  0.088937871	4.597300E+01
346	  0.089138277	-7.088000E+00	  0.089138277	7.095800E+01	  0.089138277	4.434900E+01	  0.089138277	4.608100E+01
347	  0.089338675	-7.088000E+00	  0.089338675	7.071100E+01	  0.089338675	4.452500E+01	  0.089338675	4.619800E+01
348	  0.089539073	-7.088000E+00	  0.089539073	7.048800E+01	  0.089539073	4.468700E+01	  0.089539073	4.629800E+01
349	  0.089739479	-7.084000E+00	  0.089739479	7.024600E+01	  0.089739479	4.485100E+01	  0.089739479	4.642800E+01
350	  0.089939877	-7.087000E+00	  0.089939877	7.001500E+01	  0.089939877	4.502900E+01	  0.089939877	4.652000E+01
351	  0.090140276	-7.083000E+00	  0.090140276	6.978600E+01	  0.090140276	4.518400E+01	  0.090140276	4.664600E+01
352	  0.090340681	-7.086000E+00	  0.090340681	6.954800E+01	  0.090340681	4.536800E+01	  0.090340681	4.674100E+01
353	  0.090541080	-7.085000E+00	  0.090541080	6.932400E+01	  0.090541080	4.553200E+01	  0.090541080	4.684800E+01
354	  0.090741485	-7.086000E+00	  0.090741485	6.907000E+01	  0.090741485	4.572600E+01	  0.090741485	4.695800E+01
355	  0.090941884	-7.086000E+00	  0.090941884	6.884000E+01	  0.090941884	4.589600E+01	  0.090941884	4.706600E+01
356	  0.091142282	-7.083000E+00	  0.091142282	6.860000E+01	  0.091142282	4.606900E+01	  0.091142282	4.718900E+01
357	  0.091342688	-7.084000E+00	  0.091342688	6.837000E+01	  0.091342688	4.624900E+01	  0.091342688	4.728700E+01
358	  0.091543086	-7.081000E+00	  0.091543086	6.811900E+01	  0.091543086	4.643200E+01	  0.091543086	4.741500E+01
359	  0.091743484	-7.082000E+00	  0.091743484	6.788700E+01	  0.091743484	4.661300E+01	  0.091743484	4.751600E+01
360	  0.091943890	-7.081000E+00	  0.091943890	6.765900E+01	  0.091943890	4.678600E+01	  0.091943890	4.762600E+01
361	  0.092144288	-7.082000E+00	  0.092144288	6.743700E+01	  0.092144288	4.696200E+01	  0.092144288	4.772000E+01
362	  0.092344686	-7.081000E+00	  0.092344686	6.717800E+01	  0.092344686	4.716100E+01	  0.092344686	4.784300E+01
363	  0.092545092	-7.078000E+00	  0.092545092	6.694900E+01	  0.092545092	4.733500E+01	  0.092545092	4.795800E+01
364	  0.092745490	-7.077000E+00	  0.092745490	6.673600E+01	  0.092745490	4.750100E+01	  0.092745490	4.805800E+01
365	  0.092945889	-7.079000E+00	  0.092945889	6.648700E+01	  0.092945889	4.770700E+01	  0.092945889	4.815800E+01
366	  0.093146294	-7.074000E+00	  0.093146294	6.625100E+01	  0.093146294	4.788200E+01	  0.093146294	4.828900E+01
367	  0.093346693	-7.075000E+00	  0.093346693	6.600000E+01	  0.093346693	4.808700E+01	  0.093346693	4.839700E+01
368	  0.093547091	-7.073000E+00	  0.093547091	6.577400E+01	  0.093547091	4.826500E+01	  0.093547091	4.850800E+01
369	  0.093747497	-7.074000E+00	  0.093747497	6.553900E+01	  0.093747497	4.846200E+01	  0.093747497	4.860400E+01
370	  0.093947895	-7.074000E+00	  0.093947895	6.530400E+01	  0.093947895	4.865600E+01	  0.093947895	4.870800E+01
371	  0.094148301	-7.072000E+00	  0.094148301	6.507600E+01	  0.094148301	4.884000E+01	  0.094148301	4.881600E+01
372	  0.094348699	-7.071000E+00	  0.094348699	6.480700E+01	  0.094348699	4.906000E+01	  0.094348699	4.894200E+01
373	  0.094549097	-7.074000E+00	  0.094549097	6.459600E+01	  0.094549097	4.924500E+01	  0.094549097	4.901800E+01
374	  0.094749503	-7.068000E+00	  0.094749503	6.434700E+01	  0.094749503	4.944000E+01	  0.094749503	4.915600E+01
375	  0.094949901	-7.069000E+00	  0.094949901	6.410700E+01	  0.094949901	4.964700E+01	  0.094949901	4.925400E+01
376	  0.095150299	-7.068000E+00	  0.095150299	6.388700E+01	  0.095150299	4.983200E+01	  0.095150299	4.935600E+01
377	  0.095350705	-7.067000E+00	  0.095350705	6.364400E+01	  0.095350705	5.003800E+01	  0.095350705	4.946600E+01
378	  0.095551103	-7.067000E+00	  0.095551103	6.341200E+01	  0.095551103	5.023900E+01	  0.095551103	4.956300E+01
379	  0.095751502	-7.065000E+00	  0.095751502	6.317300E+01	  0.095751502	5.044200E+01	  0.095751502	4.967800E+01
380	  0.095951907	-7.062000E+00	  0.095951907	6.295100E+01	  0.095951907	5.062800E+01	  0.095951907	4.978800E+01
381	  0.096152306	-7.062000E+00	  0.096152306	6.270600E+01	  0.096152306	5.084500E+01	  0.096152306	4.988900E+01
382	  0.096352704	-7.060000E+00	  0.096352704	6.248700E+01	  0.096352704	5.103500E+01	  0.096352704	4.999100E+01
383	  0.096553110	-7.059000E+00	  0.096553110	6.222900E+01	  0.096553110	5.126200E+01	  0.096553110	5.010600E+01
384	  0.096753508	-7.060000E+00	  0.096753508	6.200700E+01	  0.096753508	5.146400E+01	  0.096753508	5.019400E+01
385	  0.096953906	-7.059000E+00	  0.096953906	6.177500E+01	  0.096953906	5.167100E+01	  0.096953906	5.029500E+01
386	  0.097154312	-7.057000E+00	  0.097154312	6.154000E+01	  0.097154312	5.188100E+01	  0.097154312	5.040000E+01
387	  0.097354710	-7.058000E+00	  0.097354710	6.129500E+01	  0.097354710	5.210600E+01	  0.097354710	5.049900E+01
388	  0.097555116	-7.057000E+00	  0.097555116	6.106300E+01	  0.097555116	5.231800E+01	  0.097555116	5.059700E+01
389	  0.097755514	-7.055000E+00	  0.097755514	6.081500E+01	  0.097755514	5.254200E+01	  0.097755514	5.071100E+01
390	  0.097955912	-7.053000E+00	  0.097955912	6.059400E+01	  0.097955912	5.274400E+01	  0.097955912	5.081100E+01
391	  0.098156318	-7.053000E+00	  0.098156318	6.036400E+01	  0.098156318	5.295900E+01	  0.098156318	5.090300E+01
392	  0.098356716	-7.051000E+00	  0.098356716	6.013600E+01	  0.098356716	5.316900E+01	  0.098356716	5.100600E+01
393	  0.098557115	-7.050000E+00	  0.098557115	5.990000E+01	  0.098557115	5.339000E+01	  0.098557115	5.110700E+01
394	  0.098757520	-7.050000E+00	  0.098757520	5.966300E+01	  0.098757520	5.361800E+01	  0.098757520	5.119900E+01
395	  0.098957919	-7.047000E+00	  0.098957919	5.943300E+01	  0.098957919	5.383200E+01	  0.098957919	5.130600E+01
396	  0.099158317	-7.048000E+00	  0.099158317	5.919700E+01	  0.099158317	5.406300E+01	  0.099158317	5.139000E+01
397	  0.099358723	-7.049000E+00	  0.099358723	5.898100E+01	  0.099358723	5.427300E+01	  0.099358723	5.147200E+01
398	  0.099559121	-7.044000E+00	  0.099559121	5.874200E+01	  0.099559121	5.449500E+01	  0.099559121	5.159400E+01
399	  0.099759519	-7.045000E+00	  0.099759519	5.849800E+01	  0.099759519	5.473700E+01	  0.099759519	5.168100E+01
400	  0.099959925	-7.035000E+00	  0.099959925	5.829500E+01	  0.099959925	5.491300E+01	  0.099959925	5.182500E+01
401	  0.100160323	-7.032000E+00	  0.100160323	5.806100E+01	  0.100160323	5.514000E+01	  0.100160323	5.193000E+01
402	  0.100360721	-7.031000E+00	  0.100360721	5.785300E+01	  0.100360721	5.534400E+01	  0.100360721	5.201900E+01
403	  0.100561127	-7.028000E+00	  0.100561127	5.761200E+01	  0.100561127	5.558100E+01	  0.100561127	5.212400E+01
404	  0.100761525	-7.029000E+00	  0.100761525	5.737200E+01	  0.100761525	5.582700E+01	  0.100761525	5.220800E+01
405	  0.100961931	-7.028000E+00	  0.100961931	5.714300E+01	  0.100961931	5.605900E+01	  0.100961931	5.229500E+01
406	  0.101162329	-7.028000E+00	  0.101162329	5.693500E+01	  0.101162329	5.627100E+01	  0.101162329	5.237700E+01
407	  0.101362728	-7.027000E+00	  0.101362728	5.668300E+01	  0.101362728	5.653000E+01	  0.101362728	5.247100E+01
408	  0.101563133	-7.028000E+00	  0.101563133	5.643400E+01	  0.101563133	5.679100E+01	  0.101563133	5.255400E+01
409	  0.101763532	-7.029000E+00	  0.101763532	5.622900E+01	  0.101763532	5.700700E+01	  0.101763532	5.261700E+01
410	  0.101963930	-7.028000E+00	  0.101963930	5.595500E+01	  0.101963930	5.729200E+01	  0.101963930	5.272400E+01
411	  0.102164336	-7.024000E+00	  0.102164336	5.575500E+01	  0.102164336	5.749500E+01	  0.102164336	5.281900E+01
412	  0.102364734	-7.025000E+00	  0.102364734	5.552000E+01	  0.102364734	5.774700E+01	  0.102364734	5.289100E+01
413	  0.102565132	-7.026000E+00	  0.102565132	5.526800E+01	  0.102565132	5.801800E+01	  0.102565132	5.297300E+01
414	  0.102765530	-7.030000E+00	  0.102765530	5.506700E+01	  0.102765530	5.824300E+01	  0.102765530	5.301200E+01
415	  0.102965929	-7.023000E+00	  0.102965929	5.482100E+01	  0.102965929	5.849400E+01	  0.102965929	5.314500E+01
416	  0.103166327	-7.019000E+00	  0.103166327	5.457600E+01	  0.103166327	5.875200E+01	  0.103166327	5.325400E+01
417	  0.103366733	-7.021000E+00	  0.103366733	5.436700E+01	  0.103366733	5.898500E+01	  0.103366733	5.330900E+01
418	  0.103567131	-7.024000E+00	  0.103567131	5.411600E+01	  0.103567131	5.926800E+01	  0.103567131	5.336400E+01
419	  0.103767529	-7.020000E+00	  0.103767529	5.389100E+01	  0.103767529	5.950900E+01	  0.103767529	5.346600E+01
420	  0.103967935	-7.019000E+00	  0.103967935	5.364900E+01	  0.103967935	5.977600E+01	  0.103967935	5.355300E+01
421	  0.104168333	-7.014000E+00	  0.104168333	5.342100E+01	  0.104168333	6.002300E+01	  0.104168333	5.365600E+01
422	  0.104368731	-7.018000E+00	  0.104368731	5.320900E+01	  0.104368731	6.026700E+01	  0.104368731	5.369700E+01
423	  0.104569137	-7.019000E+00	  0.104569137	5.298600E+01	  0.104569137	6.052200E+01	  0.104569137	5.375800E+01
424	  0.104769535	-7.015000E+00	  0.104769535	5.273500E+01	  0.104769535	6.080200E+01	  0.104769535	5.385700E+01
425	  0.104969934	-7.015000E+00	  0.104969934	5.250200E+01	  0.104969934	6.106900E+01	  0.104969934	5.392800E+01
426	  0.105170339	-7.011000E+00	  0.105170339	5.229800E+01	  0.105170339	6.129500E+01	  0.105170339	5.402000E+01
427	  0.105370738	-7.011000E+00	  0.105370738	5.202400E+01	  0.105370738	6.161400E+01	  0.105370738	5.409800E+01
428	  0.105571143	-7.011000E+00	  0.105571143	5.181100E+01	  0.105571143	6.186200E+01	  0.105571143	5.415800E+01
429	  0.105771542	-7.006000E+00	  0.105771542	5.158000E+01	  0.105771542	6.212400E+01	  0.105771542	5.425700E+01
430	  0.105971940	-7.005000E+00	  0.105971940	5.132800E+01	  0.105971940	6.241900E+01	  0.105971940	5.433700E+01
431	  0.106172346	-7.009000E+00	  0.106172346	5.109000E+01	  0.106172346	6.271000E+01	  0.106172346	5.436800E+01
432	  0.106372744	-7.009000E+00	  0.106372744	5.087500E+01	  0.106372744	6.296500E+01	  0.106372744	5.443000E+01
433	  0.106573142	-7.010000E+00	  0.106573142	5.063500E+01	  0.106573142	6.325500E+01	  0.106573142	5.448100E+01
434	  0.106773548	-7.010000E+00	  0.106773548	5.042800E+01	  0.106773548	6.350500E+01	  0.106773548	5.453300E+01
435	  0.106973946	-7.004000E+00	  0.106973946	5.019000E+01	  0.106973946	6.378400E+01	  0.106973946	5.463800E+01
436	  0.107174344	-6.998000E+00	  0.107174344	4.995000E+01	  0.107174344	6.406600E+01	  0.107174344	5.474700E+01
437	  0.107374750	-7.001000E+00	  0.107374750	4.971700E+01	  0.107374750	6.435800E+01	  0.107374750	5.477600E+01
438	  0.107575148	-6.997000E+00	  0.107575148	4.949400E+01	  0.107575148	6.462700E+01	  0.107575148	5.486100E+01
439	  0.107775547	-7.000000E+00	  0.107775547	4.926100E+01	  0.107775547	6.492000E+01	  0.107775547	5.489500E+01
440	  0.107975952	-6.999000E+00	  0.107975952	4.901900E+01	  0.107975952	6.522100E+01	  0.107975952	5.495200E+01
441	  0.108176351	-6.997000E+00	  0.108176351	4.878700E+01	  0.108176351	6.550800E+01	  0.108176351	5.502500E+01
442	  0.108376749	-6.997000E+00	  0.108376749	4.855700E+01	  0.108376749	6.579900E+01	  0.108376749	5.507200E+01
443	  0.108577155	-6.997000E+00	  0.108577155	4.831100E+01	  0.108577155	6.611100E+01	  0.108577155	5.512600E+01
444	  0.108777553	-6.997000E+00	  0.108777553	4.808800E+01	  0.108777553	6.639600E+01	  0.108777553	5.517000E+01
445	  0.108977959	-6.995000E+00	  0.108977959	4.784100E+01	  0.108977959	6.671000E+01	  0.108977959	5.523400E+01
446	  0.109178357	-6.998000E+00	  0.109178357	4.763600E+01	  0.109178357	6.697800E+01	  0.109178357	5.524600E+01
447	  0.109378755	-6.993000E+00	  0.109378755	4.741300E+01	  0.109378755	6.726100E+01	  0.109378755	5.532900E+01
448	  0.109579161	-6.992000E+00	  0.109579161	4.715300E+01	  0.109579161	6.759800E+01	  0.109579161	5.538700E+01
449	  0.109779559	-6.990000E+00	  0.109779559	4.691300E+01	  0.109779559	6.791000E+01	  0.109779559	5.544000E+01
450	  0.109979957	-6.990000E+00	  0.109979957	4.669700E+01	  0.109979957	6.819400E+01	  0.109979957	5.547700E+01
451	  0.110180363	-6.986000E+00	  0.110180363	4.647800E+01	  0.110180363	6.848100E+01	  0.110180363	5.554700E+01
452	  0.110380761	-6.986000E+00	  0.110380761	4.624300E+01	  0.110380761	6.879300E+01	  0.110380761	5.558800E+01
453	  0.110581160	-6.987000E+00	  0.110581160	4.599900E+01	  0.110581160	6.912100E+01	  0.110581160	5.561500E+01
454	  0.110781565	-6.986000E+00	  0.110781565	4.578900E+01	  0.110781565	6.940300E+01	  0.110781565	5.565000E+01
455	  0.110981964	-6.984000E+00	  0.110981964	4.555900E+01	  0.110981964	6.971300E+01	  0.110981964	5.569500E+01
456	  0.111182362	-6.982000E+00	  0.111182362	4.530700E+01	  0.111182362	7.005200E+01	  0.111182362	5.574700E+01
457	  0.111382768	-6.983000E+00	  0.111382768	4.508500E+01	  0.111382768	7.035800E+01	  0.111382768	5.576000E+01
458	  0.111583166	-6.981000E+00	  0.111583166	4.485500E+01	  0.111583166	7.067200E+01	  0.111583166	5.580900E+01
459	  0.111783572	-6.981000E+00	  0.111783572	4.462100E+01	  0.111783572	7.099400E+01	  0.111783572	5.583600E+01
460	  0.111983970	-6.978000E+00	  0.111983970	4.439200E+01	  0.111983970	7.130900E+01	  0.111983970	5.588300E+01
461	  0.112184368	-6.978000E+00	  0.112184368	4.417200E+01	  0.112184368	7.161600E+01	  0.112184368	5.590400E+01
462	  0.112384774	-6.975000E+00	  0.112384774	4.394500E+01	  0.112384774	7.193300E+01	  0.112384774	5.594800E+01
463	  0.112585172	-6.979000E+00	  0.112585172	4.372400E+01	  0.112585172	7.224700E+01	  0.112585172	5.592500E+01
464	  0.112785570	-6.975000E+00	  0.112785570	4.346700E+01	  0.112785570	7.260800E+01	  0.112785570	5.598000E+01
465	  0.112985976	-6.977000E+00	  0.112985976	4.324200E+01	  0.112985976	7.292800E+01	  0.112985976	5.598000E+01
466	  0.113186374	-6.973000E+00	  0.113186374	4.300200E+01	  0.113186374	7.327000E+01	  0.113186374	5.602500E+01
467	  0.113386773	-6.970000E+00	  0.113386773	4.278700E+01	  0.113386773	7.357800E+01	  0.113386773	5.606100E+01
468	  0.113587178	-6.973000E+00	  0.113587178	4.254500E+01	  0.113587178	7.392900E+01	  0.113587178	5.604700E+01
469	  0.113787577	-6.971000E+00	  0.113787577	4.232900E+01	  0.113787577	7.424200E+01	  0.113787577	5.606700E+01
470	  0.113987975	-6.976000E+00	  0.113987975	4.211300E+01	  0.113987975	7.455700E+01	  0.113987975	5.603000E+01
471	  0.114188381	-6.973000E+00	  0.114188381	4.186700E+01	  0.114188381	7.491600E+01	  0.114188381	5.605800E+01
472	  0.114388779	-6.971000E+00	  0.114388779	4.163900E+01	  0.114388779	7.525100E+01	  0.114388779	5.607900E+01
473	  0.114589177	-6.970000E+00	  0.114589177	4.141300E+01	  0.114589177	7.558500E+01	  0.114589177	5.608700E+01
474	  0.114789583	-6.970000E+00	  0.114789583	4.116900E+01	  0.114789583	7.594600E+01	  0.114789583	5.608500E+01
475	  0.114989981	-6.965000E+00	  0.114989981	4.094200E+01	  0.114989981	7.628500E+01	  0.114989981	5.612600E+01
476	  0.115190387	-6.969000E+00	  0.115190387	4.072400E+01	  0.115190387	7.661100E+01	  0.115190387	5.608100E+01
477	  0.115390785	-6.966000E+00	  0.115390785	4.047600E+01	  0.115390785	7.698500E+01	  0.115390785	5.609900E+01
478	  0.115591183	-6.966000E+00	  0.115591183	4.026200E+01	  0.115591183	7.730700E+01	  0.115591183	5.608600E+01
479	  0.115791589	-6.964000E+00	  0.115791589	4.004400E+01	  0.115791589	7.764000E+01	  0.115791589	5.609000E+01
480	  0.115991987	-6.961000E+00	  0.115991987	3.982000E+01	  0.115991987	7.798200E+01	  0.115991987	5.610600E+01
481	  0.116192386	-6.964000E+00	  0.116192386	3.957800E+01	  0.116192386	7.835100E+01	  0.116192386	5.605800E+01
482	  0.116392791	-6.964000E+00	  0.116392791	3.935400E+01	  0.116392791	7.869500E+01	  0.116392791	5.603100E+01
483	  0.116593190	-6.964000E+00	  0.116593190	3.910400E+01	  0.116593190	7.908000E+01	  0.116593190	5.600500E+01
484	  0.116793588	-6.959000E+00	  0.116793588	3.888800E+01	  0.116793588	7.941800E+01	  0.116793588	5.603200E+01
485	  0.116993994	-6.965000E+00	  0.116993994	3.866200E+01	  0.116993994	7.976600E+01	  0.116993994	5.594200E+01
486	  0.117194392	-6.960000E+00	  0.117194392	3.843200E+01	  0.117194392	8.012900E+01	  0.117194392	5.596400E+01
487	  0.117394790	-6.961000E+00	  0.117394790	3.819800E+01	  0.117394790	8.049400E+01	  0.117394790	5.592100E+01
488	  0.117595196	-6.960000E+00	  0.117595196	3.797000E+01	  0.117595196	8.085500E+01	  0.117595196	5.590400E+01
489	  0.117795594	-6.962000E+00	  0.117795594	3.773600E+01	  0.117795594	8.122300E+01	  0.117795594	5.584300E+01
490	  0.117995992	-6.960000E+00	  0.117995992	3.752600E+01	  0.117995992	8.155900E+01	  0.117995992	5.582600E+01
491	  0.118196398	-6.957000E+00	  0.118196398	3.728800E+01	  0.118196398	8.194100E+01	  0.118196398	5.580900E+01
492	  0.118396796	-6.956000E+00	  0.118396796	3.707200E+01	  0.118396796	8.228900E+01	  0.118396796	5.578400E+01
493	  0.118597202	-6.955000E+00	  0.118597202	3.682100E+01	  0.118597202	8.269100E+01	  0.118597202	5.573400E+01
494	  0.118797600	-6.954000E+00	  0.118797600	3.660700E+01	  0.118797600	8.303900E+01	  0.118797600	5.570300E+01
495	  0.118997999	-6.956000E+00	  0.118997999	3.638000E+01	  0.118997999	8.340300E+01	  0.118997999	5.562400E+01
496	  0.119198404	-6.954000E+00	  0.119198404	3.613300E+01	  0.119198404	8.380600E+01	  0.119198404	5.558700E+01
497	  0.119398803	-6.954000E+00	  0.119398803	3.589900E+01	  0.119398803	8.418800E+01	  0.119398803	5.553100E+01
498	  0.119599201	-6.952000E+00	  0.119599201	3.568600E+01	  0.119599201	8.454000E+01	  0.119599201	5.549000E+01
499	  0.119799607	-6.952000E+00	  0.119799607	3.546600E+01	  0.119799607	8.490000E+01	  0.119799607	5.542900E+01
500	  0.120000005	-6.953000E+00	  0.120000005	3.521900E+01	  0.120000005	8.530500E+01	  0.120000005	5.535000E+01
