! Anritsu VNA Master:             	Model: MS2036C/10/77
! SN:             	1601066
! /bd0/18may12.cable.cal/top.50.txt
! Existing Calibration Information:
! TYPE:             	Current Settings	Active Cal Settings
! TIME:             	05/12/2018 01:31:00 PM	05/12/2018 01:24:18 PM
! INTERNAL TEMP:    	49.3 C	49.3 C
! # POINTS:         	500	500
! START FREQ:       	20.000 MHz	20.000 MHz
! STOP FREQ:        	120.000 MHz	120.000 MHz
! SOURCE POWER:     	High	High
! IFBW:             	50 Hz	50 Hz
! AVG FACTOR:       	  1 	  1 
! REF PLANE 1:      	0 mm	0 mm
! REF PLANE 2:      	0 mm	0 mm
! CAL TYPE:         	Full S22	Full S22
! CAL METHOD:       	SOLT	SOLT
! CAL LINE TYPE:    	Coax	Coax
! DUT PORT 1:       	K-Conn(M)	K-Conn(M)
! DUT PORT 2:       	K-Conn(M)	K-Conn(M)
! CAL STATUS:       	OK: Accuracy High	--
! PROP-V:       	0.700
! CABLE LOSS:       	0.000 dB/m
! REF IMPEDANCE:       	50.0
! Trace Specific Parameters:	TR1	TR2	TR3	TR4
! TRACE.#.Y (GRAPH TYPE)	LOG MAG	PHASE	REAL IMPEDANCE	IMAGINARY IMPEDANCE
! TRACE.#.X 	FREQ.GHZ	FREQ.GHZ	FREQ.GHZ	FREQ.GHZ
! S-PARAMETER	S22	S22	S22	S22
! SMOOTH/APERTURE %	0	0	0	0
! WINDOW	NSL	NSL	NSL	NSL
! GATING	OFF	OFF	OFF	OFF
! FGTD	OFF	OFF	OFF	OFF
Marker Information per Trace:	TR1	TR2	TR3	TR4
!MK1	--	"MK1 TR2:  12.184 368 MHz,##.##"	--	--
!MK2	--	--	"MK2 TR3:  12.184 368 MHz,##.##"	--
!MK3	--	--	--	--
!MK4	--	--	--	--
!MK5	--	--	--	--
!MK6	--	--	--	--
!MK7	--	--	--	--
!MK8	--	--	--	--
PNT	TR1.FREQ.GHZ	TR1.LOG MAG.dB	TR2.FREQ.GHZ	TR2.PHASE.deg	TR3.FREQ.GHZ	TR3.REAL IMPEDANCE.ohm	TR4.FREQ.GHZ	TR4.IMAGINARY IMPEDANCE.ohm
1	  0.020000000	-3.910600E+01	  0.020000000	4.877200E+01	  0.020000000	5.072800E+01	  0.020000000	8.450000E-01
2	  0.020200402	-3.913500E+01	  0.020200402	4.846300E+01	  0.020200402	5.073000E+01	  0.020200402	8.390000E-01
3	  0.020400802	-3.909300E+01	  0.020400802	4.838200E+01	  0.020400802	5.073500E+01	  0.020400802	8.420000E-01
4	  0.020601204	-3.900400E+01	  0.020601204	4.878700E+01	  0.020601204	5.073700E+01	  0.020601204	8.560000E-01
5	  0.020801604	-3.890700E+01	  0.020801604	4.875200E+01	  0.020801604	5.074500E+01	  0.020801604	8.650000E-01
6	  0.021002004	-3.888900E+01	  0.021002004	4.814400E+01	  0.021002004	5.075600E+01	  0.021002004	8.590000E-01
7	  0.021202406	-3.882100E+01	  0.021202406	4.855700E+01	  0.021202406	5.075600E+01	  0.021202406	8.710000E-01
8	  0.021402806	-3.877500E+01	  0.021402806	4.818500E+01	  0.021402806	5.076600E+01	  0.021402806	8.710000E-01
9	  0.021603208	-3.868800E+01	  0.021603208	4.874500E+01	  0.021603208	5.076400E+01	  0.021603208	8.870000E-01
10	  0.021803608	-3.867100E+01	  0.021803608	4.813500E+01	  0.021803608	5.077600E+01	  0.021803608	8.810000E-01
11	  0.022004008	-3.864600E+01	  0.022004008	4.833300E+01	  0.022004008	5.077500E+01	  0.022004008	8.860000E-01
12	  0.022204408	-3.846300E+01	  0.022204408	4.809800E+01	  0.022204408	5.079500E+01	  0.022204408	9.020000E-01
13	  0.022404809	-3.852400E+01	  0.022404809	4.812100E+01	  0.022404809	5.078900E+01	  0.022404809	8.960000E-01
14	  0.022605211	-3.843000E+01	  0.022605211	4.793900E+01	  0.022605211	5.080000E+01	  0.022605211	9.030000E-01
15	  0.022805611	-3.838700E+01	  0.022805611	4.809200E+01	  0.022805611	5.080200E+01	  0.022805611	9.100000E-01
16	  0.023006011	-3.836800E+01	  0.023006011	4.754500E+01	  0.023006011	5.081300E+01	  0.023006011	9.040000E-01
17	  0.023206413	-3.832000E+01	  0.023206413	4.752500E+01	  0.023206413	5.081700E+01	  0.023206413	9.090000E-01
18	  0.023406813	-3.822200E+01	  0.023406813	4.796100E+01	  0.023406813	5.082000E+01	  0.023406813	9.260000E-01
19	  0.023607215	-3.818300E+01	  0.023607215	4.792500E+01	  0.023607215	5.082400E+01	  0.023607215	9.300000E-01
20	  0.023807615	-3.818700E+01	  0.023807615	4.743100E+01	  0.023807615	5.083200E+01	  0.023807615	9.220000E-01
21	  0.024008015	-3.809700E+01	  0.024008015	4.745700E+01	  0.024008015	5.084000E+01	  0.024008015	9.320000E-01
22	  0.024208417	-3.805600E+01	  0.024208417	4.741600E+01	  0.024208417	5.084400E+01	  0.024208417	9.360000E-01
23	  0.024408817	-3.802900E+01	  0.024408817	4.700000E+01	  0.024408817	5.085400E+01	  0.024408817	9.330000E-01
24	  0.024609219	-3.794100E+01	  0.024609219	4.707400E+01	  0.024609219	5.086100E+01	  0.024609219	9.440000E-01
25	  0.024809619	-3.791500E+01	  0.024809619	4.718000E+01	  0.024809619	5.086200E+01	  0.024809619	9.480000E-01
26	  0.025010020	-3.779400E+01	  0.025010020	4.660700E+01	  0.025010020	5.088400E+01	  0.025010020	9.530000E-01
27	  0.025210422	-3.777500E+01	  0.025210422	4.742300E+01	  0.025210422	5.087200E+01	  0.025210422	9.680000E-01
28	  0.025410822	-3.770300E+01	  0.025410822	4.670100E+01	  0.025410822	5.089200E+01	  0.025410822	9.650000E-01
29	  0.025611224	-3.769900E+01	  0.025611224	4.654100E+01	  0.025611224	5.089500E+01	  0.025611224	9.630000E-01
30	  0.025811624	-3.766500E+01	  0.025811624	4.684500E+01	  0.025811624	5.089300E+01	  0.025811624	9.710000E-01
31	  0.026012026	-3.761500E+01	  0.026012026	4.677200E+01	  0.026012026	5.089900E+01	  0.026012026	9.760000E-01
32	  0.026212426	-3.754000E+01	  0.026212426	4.675200E+01	  0.026212426	5.090800E+01	  0.026212426	9.840000E-01
33	  0.026412826	-3.745300E+01	  0.026412826	4.620800E+01	  0.026412826	5.092600E+01	  0.026412826	9.850000E-01
34	  0.026613226	-3.747200E+01	  0.026613226	4.641200E+01	  0.026613226	5.092100E+01	  0.026613226	9.870000E-01
35	  0.026813626	-3.738600E+01	  0.026813626	4.639700E+01	  0.026813626	5.093000E+01	  0.026813626	9.960000E-01
36	  0.027014028	-3.736100E+01	  0.027014028	4.632900E+01	  0.027014028	5.093400E+01	  0.027014028	9.980000E-01
37	  0.027214428	-3.731800E+01	  0.027214428	4.591700E+01	  0.027214428	5.094600E+01	  0.027214428	9.960000E-01
38	  0.027414829	-3.726200E+01	  0.027414829	4.612600E+01	  0.027414829	5.094800E+01	  0.027414829	1.006000E+00
39	  0.027615231	-3.722900E+01	  0.027615231	4.611600E+01	  0.027615231	5.095200E+01	  0.027615231	1.010000E+00
40	  0.027815631	-3.711500E+01	  0.027815631	4.593700E+01	  0.027815631	5.096800E+01	  0.027815631	1.021000E+00
41	  0.028016033	-3.713800E+01	  0.028016033	4.586800E+01	  0.028016033	5.096700E+01	  0.028016033	1.017000E+00
42	  0.028216433	-3.701600E+01	  0.028216433	4.587300E+01	  0.028216433	5.098000E+01	  0.028216433	1.032000E+00
43	  0.028416833	-3.705500E+01	  0.028416833	4.557100E+01	  0.028416833	5.098100E+01	  0.028416833	1.022000E+00
44	  0.028617235	-3.701900E+01	  0.028617235	4.551200E+01	  0.028617235	5.098700E+01	  0.028617235	1.025000E+00
45	  0.028817635	-3.695000E+01	  0.028817635	4.557500E+01	  0.028817635	5.099300E+01	  0.028817635	1.034000E+00
46	  0.029018037	-3.690200E+01	  0.029018037	4.524900E+01	  0.029018037	5.100500E+01	  0.029018037	1.035000E+00
47	  0.029218437	-3.687600E+01	  0.029218437	4.532900E+01	  0.029218437	5.100600E+01	  0.029218437	1.039000E+00
48	  0.029418837	-3.685400E+01	  0.029418837	4.512600E+01	  0.029418837	5.101300E+01	  0.029418837	1.038000E+00
49	  0.029619239	-3.679000E+01	  0.029619239	4.509000E+01	  0.029619239	5.102100E+01	  0.029619239	1.046000E+00
50	  0.029819639	-3.676100E+01	  0.029819639	4.470100E+01	  0.029819639	5.103100E+01	  0.029819639	1.042000E+00
51	  0.030020041	-3.672400E+01	  0.030020041	4.515800E+01	  0.030020041	5.102700E+01	  0.030020041	1.055000E+00
52	  0.030220442	-3.668800E+01	  0.030220442	4.479900E+01	  0.030220442	5.103800E+01	  0.030220442	1.053000E+00
53	  0.030420844	-3.667300E+01	  0.030420844	4.493200E+01	  0.030420844	5.103800E+01	  0.030420844	1.057000E+00
54	  0.030621244	-3.658200E+01	  0.030621244	4.472600E+01	  0.030621244	5.105300E+01	  0.030621244	1.065000E+00
55	  0.030821644	-3.648800E+01	  0.030821644	4.427400E+01	  0.030821644	5.107300E+01	  0.030821644	1.068000E+00
56	  0.031022044	-3.651600E+01	  0.031022044	4.430300E+01	  0.031022044	5.106900E+01	  0.031022044	1.065000E+00
57	  0.031222444	-3.640000E+01	  0.031222444	4.454500E+01	  0.031222444	5.107800E+01	  0.031222444	1.084000E+00
58	  0.031422846	-3.640400E+01	  0.031422846	4.450100E+01	  0.031422846	5.107900E+01	  0.031422846	1.083000E+00
59	  0.031623244	-3.638500E+01	  0.031623244	4.430000E+01	  0.031623244	5.108500E+01	  0.031623244	1.082000E+00
60	  0.031823646	-3.633600E+01	  0.031823646	4.399900E+01	  0.031823646	5.109700E+01	  0.031823646	1.082000E+00
61	  0.032024048	-3.624800E+01	  0.032024048	4.403700E+01	  0.032024048	5.110700E+01	  0.032024048	1.094000E+00
62	  0.032224450	-3.627600E+01	  0.032224450	4.411600E+01	  0.032224450	5.110200E+01	  0.032224450	1.092000E+00
63	  0.032424849	-3.623200E+01	  0.032424849	4.362000E+01	  0.032424849	5.111800E+01	  0.032424849	1.088000E+00
64	  0.032625251	-3.614100E+01	  0.032625251	4.397000E+01	  0.032625251	5.112200E+01	  0.032625251	1.107000E+00
65	  0.032825653	-3.613800E+01	  0.032825653	4.383300E+01	  0.032825653	5.112500E+01	  0.032825653	1.104000E+00
66	  0.033026051	-3.608600E+01	  0.033026051	4.342700E+01	  0.033026051	5.114000E+01	  0.033026051	1.103000E+00
67	  0.033226453	-3.604700E+01	  0.033226453	4.325400E+01	  0.033226453	5.114900E+01	  0.033226453	1.105000E+00
68	  0.033426855	-3.607300E+01	  0.033426855	4.358800E+01	  0.033426855	5.113900E+01	  0.033426855	1.108000E+00
69	  0.033627257	-3.600700E+01	  0.033627257	4.319300E+01	  0.033627257	5.115500E+01	  0.033627257	1.109000E+00
70	  0.033827655	-3.586400E+01	  0.033827655	4.306700E+01	  0.033827655	5.117700E+01	  0.033827655	1.125000E+00
71	  0.034028057	-3.591000E+01	  0.034028057	4.276500E+01	  0.034028057	5.117700E+01	  0.034028057	1.113000E+00
72	  0.034228459	-3.590100E+01	  0.034228459	4.301700E+01	  0.034228459	5.117300E+01	  0.034228459	1.119000E+00
73	  0.034428857	-3.583800E+01	  0.034428857	4.314900E+01	  0.034428857	5.117900E+01	  0.034428857	1.130000E+00
74	  0.034629259	-3.579600E+01	  0.034629259	4.260400E+01	  0.034629259	5.119600E+01	  0.034629259	1.124000E+00
75	  0.034829661	-3.578500E+01	  0.034829661	4.257700E+01	  0.034829661	5.119800E+01	  0.034829661	1.125000E+00
76	  0.035030060	-3.578700E+01	  0.035030060	4.299200E+01	  0.035030060	5.118900E+01	  0.035030060	1.134000E+00
77	  0.035230462	-3.570600E+01	  0.035230462	4.258400E+01	  0.035230462	5.120900E+01	  0.035230462	1.136000E+00
78	  0.035430863	-3.564900E+01	  0.035430863	4.249800E+01	  0.035430863	5.121800E+01	  0.035430863	1.142000E+00
79	  0.035631265	-3.558900E+01	  0.035631265	4.232200E+01	  0.035631265	5.123000E+01	  0.035631265	1.146000E+00
80	  0.035831664	-3.559300E+01	  0.035831664	4.220300E+01	  0.035831664	5.123200E+01	  0.035831664	1.143000E+00
81	  0.036032066	-3.554900E+01	  0.036032066	4.201600E+01	  0.036032066	5.124200E+01	  0.036032066	1.145000E+00
82	  0.036232468	-3.555200E+01	  0.036232468	4.245500E+01	  0.036232468	5.123300E+01	  0.036232468	1.154000E+00
83	  0.036432866	-3.550600E+01	  0.036432866	4.201700E+01	  0.036432866	5.124900E+01	  0.036432866	1.151000E+00
84	  0.036633268	-3.545600E+01	  0.036633268	4.188300E+01	  0.036633268	5.125800E+01	  0.036633268	1.155000E+00
85	  0.036833670	-3.543300E+01	  0.036833670	4.193800E+01	  0.036833670	5.126100E+01	  0.036833670	1.159000E+00
86	  0.037034072	-3.541300E+01	  0.037034072	4.177000E+01	  0.037034072	5.126700E+01	  0.037034072	1.158000E+00
87	  0.037234470	-3.533800E+01	  0.037234470	4.161600E+01	  0.037234470	5.128100E+01	  0.037234470	1.165000E+00
88	  0.037434869	-3.534100E+01	  0.037434869	4.141100E+01	  0.037434869	5.128500E+01	  0.037434869	1.160000E+00
89	  0.037635271	-3.530500E+01	  0.037635271	4.127500E+01	  0.037635271	5.129300E+01	  0.037635271	1.162000E+00
90	  0.037835669	-3.522900E+01	  0.037835669	4.157800E+01	  0.037835669	5.129800E+01	  0.037835669	1.179000E+00
91	  0.038036071	-3.524400E+01	  0.038036071	4.091900E+01	  0.038036071	5.131000E+01	  0.038036071	1.162000E+00
92	  0.038236473	-3.521800E+01	  0.038236473	4.138500E+01	  0.038236473	5.130400E+01	  0.038236473	1.176000E+00
93	  0.038436871	-3.518100E+01	  0.038436871	4.105600E+01	  0.038436871	5.131700E+01	  0.038436871	1.174000E+00
94	  0.038637273	-3.508500E+01	  0.038637273	4.098100E+01	  0.038637273	5.133300E+01	  0.038637273	1.185000E+00
95	  0.038837675	-3.508600E+01	  0.038837675	4.086600E+01	  0.038837675	5.133500E+01	  0.038837675	1.183000E+00
96	  0.039038073	-3.506200E+01	  0.039038073	4.071900E+01	  0.039038073	5.134200E+01	  0.039038073	1.183000E+00
97	  0.039238475	-3.501000E+01	  0.039238475	4.068100E+01	  0.039238475	5.135100E+01	  0.039238475	1.189000E+00
98	  0.039438877	-3.502100E+01	  0.039438877	4.054700E+01	  0.039438877	5.135200E+01	  0.039438877	1.184000E+00
99	  0.039639279	-3.497000E+01	  0.039639279	4.025700E+01	  0.039639279	5.136600E+01	  0.039639279	1.184000E+00
100	  0.039839678	-3.496900E+01	  0.039839678	4.018200E+01	  0.039839678	5.136800E+01	  0.039839678	1.183000E+00
101	  0.040040080	-3.491900E+01	  0.040040080	4.037400E+01	  0.040040080	5.137200E+01	  0.040040080	1.194000E+00
102	  0.040240481	-3.486600E+01	  0.040240481	3.999500E+01	  0.040240481	5.138800E+01	  0.040240481	1.193000E+00
103	  0.040440880	-3.489200E+01	  0.040440880	4.021500E+01	  0.040440880	5.137900E+01	  0.040440880	1.194000E+00
104	  0.040641282	-3.481000E+01	  0.040641282	4.013700E+01	  0.040641282	5.139400E+01	  0.040641282	1.204000E+00
105	  0.040841684	-3.480800E+01	  0.040841684	4.006700E+01	  0.040841684	5.139600E+01	  0.040841684	1.203000E+00
106	  0.041042086	-3.472800E+01	  0.041042086	3.970500E+01	  0.041042086	5.141700E+01	  0.041042086	1.205000E+00
107	  0.041242484	-3.469300E+01	  0.041242484	3.923400E+01	  0.041242484	5.143300E+01	  0.041242484	1.198000E+00
108	  0.041442886	-3.472300E+01	  0.041442886	3.947900E+01	  0.041442886	5.142300E+01	  0.041442886	1.200000E+00
109	  0.041643288	-3.466600E+01	  0.041643288	3.945800E+01	  0.041643288	5.143200E+01	  0.041643288	1.208000E+00
110	  0.041843686	-3.465000E+01	  0.041843686	3.932100E+01	  0.041843686	5.143800E+01	  0.041843686	1.207000E+00
111	  0.042044088	-3.463500E+01	  0.042044088	3.909000E+01	  0.042044088	5.144600E+01	  0.042044088	1.203000E+00
112	  0.042244490	-3.458400E+01	  0.042244490	3.936400E+01	  0.042244490	5.144800E+01	  0.042244490	1.217000E+00
113	  0.042444889	-3.460300E+01	  0.042444889	3.911500E+01	  0.042444889	5.145000E+01	  0.042444889	1.208000E+00
114	  0.042645290	-3.453000E+01	  0.042645290	3.885000E+01	  0.042645290	5.146900E+01	  0.042645290	1.212000E+00
115	  0.042845692	-3.452400E+01	  0.042845692	3.882100E+01	  0.042845692	5.147000E+01	  0.042845692	1.212000E+00
116	  0.043046094	-3.443200E+01	  0.043046094	3.890300E+01	  0.043046094	5.148400E+01	  0.043046094	1.228000E+00
117	  0.043246493	-3.443100E+01	  0.043246493	3.861300E+01	  0.043246493	5.149100E+01	  0.043246493	1.220000E+00
118	  0.043446895	-3.439800E+01	  0.043446895	3.847200E+01	  0.043446895	5.150000E+01	  0.043446895	1.221000E+00
119	  0.043647297	-3.438100E+01	  0.043647297	3.806400E+01	  0.043647297	5.151100E+01	  0.043647297	1.213000E+00
120	  0.043847695	-3.436700E+01	  0.043847695	3.818700E+01	  0.043847695	5.151100E+01	  0.043847695	1.218000E+00
121	  0.044048097	-3.431500E+01	  0.044048097	3.825800E+01	  0.044048097	5.151900E+01	  0.044048097	1.228000E+00
122	  0.044248499	-3.426400E+01	  0.044248499	3.800700E+01	  0.044248499	5.153300E+01	  0.044248499	1.228000E+00
123	  0.044448901	-3.432200E+01	  0.044448901	3.800000E+01	  0.044448901	5.152300E+01	  0.044448901	1.220000E+00
124	  0.044649299	-3.424700E+01	  0.044649299	3.753900E+01	  0.044649299	5.154700E+01	  0.044649299	1.218000E+00
125	  0.044849701	-3.424900E+01	  0.044849701	3.757400E+01	  0.044849701	5.154500E+01	  0.044849701	1.219000E+00
126	  0.045050103	-3.423700E+01	  0.045050103	3.721100E+01	  0.045050103	5.155600E+01	  0.045050103	1.211000E+00
127	  0.045250501	-3.414200E+01	  0.045250501	3.772900E+01	  0.045250501	5.156100E+01	  0.045250501	1.239000E+00
128	  0.045450903	-3.413000E+01	  0.045450903	3.770300E+01	  0.045450903	5.156400E+01	  0.045450903	1.240000E+00
129	  0.045651305	-3.410400E+01	  0.045651305	3.733200E+01	  0.045651305	5.157700E+01	  0.045651305	1.233000E+00
130	  0.045851704	-3.412000E+01	  0.045851704	3.700600E+01	  0.045851704	5.158100E+01	  0.045851704	1.222000E+00
131	  0.046052106	-3.408400E+01	  0.046052106	3.702200E+01	  0.046052106	5.158800E+01	  0.046052106	1.228000E+00
132	  0.046252504	-3.403800E+01	  0.046252504	3.680500E+01	  0.046252504	5.160100E+01	  0.046252504	1.228000E+00
133	  0.046452906	-3.407900E+01	  0.046452906	3.680300E+01	  0.046452906	5.159300E+01	  0.046452906	1.222000E+00
134	  0.046653304	-3.399800E+01	  0.046653304	3.664300E+01	  0.046653304	5.161200E+01	  0.046653304	1.229000E+00
135	  0.046853706	-3.398500E+01	  0.046853706	3.646800E+01	  0.046853706	5.161800E+01	  0.046853706	1.226000E+00
136	  0.047054108	-3.397000E+01	  0.047054108	3.664500E+01	  0.047054108	5.161700E+01	  0.047054108	1.234000E+00
137	  0.047254506	-3.395200E+01	  0.047254506	3.636800E+01	  0.047254506	5.162700E+01	  0.047254506	1.228000E+00
138	  0.047454908	-3.388900E+01	  0.047454908	3.648400E+01	  0.047454908	5.163600E+01	  0.047454908	1.241000E+00
139	  0.047655310	-3.388000E+01	  0.047655310	3.633100E+01	  0.047655310	5.164100E+01	  0.047655310	1.238000E+00
140	  0.047855709	-3.386800E+01	  0.047855709	3.611700E+01	  0.047855709	5.164800E+01	  0.047855709	1.233000E+00
141	  0.048056111	-3.382500E+01	  0.048056111	3.590500E+01	  0.048056111	5.166100E+01	  0.048056111	1.234000E+00
142	  0.048256513	-3.384900E+01	  0.048256513	3.580200E+01	  0.048256513	5.165900E+01	  0.048256513	1.227000E+00
143	  0.048456915	-3.381400E+01	  0.048456915	3.573700E+01	  0.048456915	5.166700E+01	  0.048456915	1.230000E+00
144	  0.048657313	-3.378000E+01	  0.048657313	3.571000E+01	  0.048657313	5.167400E+01	  0.048657313	1.234000E+00
145	  0.048857715	-3.371500E+01	  0.048857715	3.556200E+01	  0.048857715	5.169000E+01	  0.048857715	1.240000E+00
146	  0.049058117	-3.372200E+01	  0.049058117	3.510600E+01	  0.049058117	5.169900E+01	  0.049058117	1.225000E+00
147	  0.049258515	-3.369800E+01	  0.049258515	3.531300E+01	  0.049258515	5.169900E+01	  0.049258515	1.235000E+00
148	  0.049458917	-3.366200E+01	  0.049458917	3.561500E+01	  0.049458917	5.169900E+01	  0.049458917	1.249000E+00
149	  0.049659319	-3.364400E+01	  0.049659319	3.499400E+01	  0.049659319	5.171700E+01	  0.049659319	1.233000E+00
150	  0.049859721	-3.361100E+01	  0.049859721	3.505000E+01	  0.049859721	5.172200E+01	  0.049859721	1.240000E+00
151	  0.050060119	-3.362100E+01	  0.050060119	3.500000E+01	  0.050060119	5.172100E+01	  0.050060119	1.237000E+00
152	  0.050260521	-3.358500E+01	  0.050260521	3.463500E+01	  0.050260521	5.173700E+01	  0.050260521	1.231000E+00
153	  0.050460923	-3.354100E+01	  0.050460923	3.441300E+01	  0.050460923	5.175100E+01	  0.050460923	1.231000E+00
154	  0.050661322	-3.357400E+01	  0.050661322	3.466600E+01	  0.050661322	5.173800E+01	  0.050661322	1.233000E+00
155	  0.050861724	-3.351900E+01	  0.050861724	3.435600E+01	  0.050861724	5.175600E+01	  0.050861724	1.232000E+00
156	  0.051062126	-3.351300E+01	  0.051062126	3.431000E+01	  0.051062126	5.175800E+01	  0.051062126	1.231000E+00
157	  0.051262524	-3.342900E+01	  0.051262524	3.393700E+01	  0.051262524	5.178400E+01	  0.051262524	1.232000E+00
158	  0.051462926	-3.348500E+01	  0.051462926	3.425100E+01	  0.051462926	5.176500E+01	  0.051462926	1.234000E+00
159	  0.051663328	-3.341800E+01	  0.051663328	3.395200E+01	  0.051663328	5.178600E+01	  0.051663328	1.234000E+00
160	  0.051863730	-3.338200E+01	  0.051863730	3.395700E+01	  0.051863730	5.179400E+01	  0.051863730	1.240000E+00
161	  0.052064128	-3.336800E+01	  0.052064128	3.383000E+01	  0.052064128	5.179900E+01	  0.052064128	1.238000E+00
162	  0.052264530	-3.334600E+01	  0.052264530	3.330500E+01	  0.052264530	5.181600E+01	  0.052264530	1.224000E+00
163	  0.052464932	-3.334400E+01	  0.052464932	3.326000E+01	  0.052464932	5.181700E+01	  0.052464932	1.223000E+00
164	  0.052665330	-3.330500E+01	  0.052665330	3.317900E+01	  0.052665330	5.182700E+01	  0.052665330	1.226000E+00
165	  0.052865732	-3.331300E+01	  0.052865732	3.319900E+01	  0.052865732	5.182500E+01	  0.052865732	1.226000E+00
166	  0.053066134	-3.326400E+01	  0.053066134	3.297400E+01	  0.053066134	5.184000E+01	  0.053066134	1.225000E+00
167	  0.053266536	-3.323500E+01	  0.053266536	3.291000E+01	  0.053266536	5.184800E+01	  0.053266536	1.228000E+00
168	  0.053466935	-3.324400E+01	  0.053466935	3.285800E+01	  0.053466935	5.184700E+01	  0.053466935	1.225000E+00
169	  0.053667337	-3.318000E+01	  0.053667337	3.260400E+01	  0.053667337	5.186700E+01	  0.053667337	1.226000E+00
170	  0.053867739	-3.311700E+01	  0.053867739	3.264600E+01	  0.053867739	5.187900E+01	  0.053867739	1.236000E+00
171	  0.054068137	-3.315900E+01	  0.054068137	3.265000E+01	  0.054068137	5.187000E+01	  0.054068137	1.230000E+00
172	  0.054268539	-3.314100E+01	  0.054268539	3.245400E+01	  0.054268539	5.187900E+01	  0.054268539	1.227000E+00
173	  0.054468941	-3.309300E+01	  0.054468941	3.222800E+01	  0.054468941	5.189400E+01	  0.054468941	1.226000E+00
174	  0.054669339	-3.311400E+01	  0.054669339	3.218000E+01	  0.054669339	5.189100E+01	  0.054669339	1.221000E+00
175	  0.054869737	-3.306600E+01	  0.054869737	3.185100E+01	  0.054869737	5.190800E+01	  0.054869737	1.217000E+00
176	  0.055070139	-3.303400E+01	  0.055070139	3.194100E+01	  0.055070139	5.191300E+01	  0.055070139	1.225000E+00
177	  0.055270538	-3.301400E+01	  0.055270538	3.152200E+01	  0.055270538	5.192700E+01	  0.055270538	1.214000E+00
178	  0.055470940	-3.302700E+01	  0.055470940	3.160600E+01	  0.055470940	5.192200E+01	  0.055470940	1.215000E+00
179	  0.055671342	-3.299200E+01	  0.055671342	3.164700E+01	  0.055671342	5.192900E+01	  0.055671342	1.221000E+00
180	  0.055871744	-3.293800E+01	  0.055871744	3.149100E+01	  0.055871744	5.194500E+01	  0.055871744	1.224000E+00
181	  0.056072142	-3.292900E+01	  0.056072142	3.108800E+01	  0.056072142	5.195600E+01	  0.056072142	1.211000E+00
182	  0.056272544	-3.291500E+01	  0.056272544	3.112600E+01	  0.056272544	5.195800E+01	  0.056272544	1.214000E+00
183	  0.056472946	-3.287800E+01	  0.056472946	3.105900E+01	  0.056472946	5.196800E+01	  0.056472946	1.217000E+00
184	  0.056673344	-3.289300E+01	  0.056673344	3.097100E+01	  0.056673344	5.196700E+01	  0.056673344	1.212000E+00
185	  0.056873746	-3.287000E+01	  0.056873746	3.080200E+01	  0.056873746	5.197600E+01	  0.056873746	1.210000E+00
186	  0.057074148	-3.285700E+01	  0.057074148	3.058800E+01	  0.057074148	5.198300E+01	  0.057074148	1.204000E+00
187	  0.057274550	-3.279700E+01	  0.057274550	3.045300E+01	  0.057274550	5.200000E+01	  0.057274550	1.208000E+00
188	  0.057474948	-3.278400E+01	  0.057474948	3.033600E+01	  0.057474948	5.200600E+01	  0.057474948	1.206000E+00
189	  0.057675350	-3.273600E+01	  0.057675350	3.029400E+01	  0.057675350	5.201800E+01	  0.057675350	1.211000E+00
190	  0.057875752	-3.277100E+01	  0.057875752	3.008600E+01	  0.057875752	5.201500E+01	  0.057875752	1.199000E+00
191	  0.058076151	-3.276200E+01	  0.058076151	3.008900E+01	  0.058076151	5.201700E+01	  0.058076151	1.200000E+00
192	  0.058276553	-3.272800E+01	  0.058276553	2.981500E+01	  0.058276553	5.203100E+01	  0.058276553	1.195000E+00
193	  0.058476955	-3.269900E+01	  0.058476955	3.003900E+01	  0.058476955	5.203200E+01	  0.058476955	1.207000E+00
194	  0.058677353	-3.270700E+01	  0.058677353	2.975400E+01	  0.058677353	5.203700E+01	  0.058677353	1.196000E+00
195	  0.058877755	-3.269000E+01	  0.058877755	2.981700E+01	  0.058877755	5.203900E+01	  0.058877755	1.201000E+00
196	  0.059078157	-3.263900E+01	  0.059078157	2.954600E+01	  0.059078157	5.205800E+01	  0.059078157	1.198000E+00
197	  0.059278559	-3.260600E+01	  0.059278559	2.922900E+01	  0.059278559	5.207200E+01	  0.059278559	1.191000E+00
198	  0.059478957	-3.259500E+01	  0.059478957	2.946400E+01	  0.059478957	5.207000E+01	  0.059478957	1.202000E+00
199	  0.059679359	-3.255900E+01	  0.059679359	2.912100E+01	  0.059679359	5.208600E+01	  0.059679359	1.194000E+00
200	  0.059879761	-3.257800E+01	  0.059879761	2.889700E+01	  0.059879761	5.208600E+01	  0.059879761	1.183000E+00
201	  0.060080159	-3.254500E+01	  0.060080159	2.906100E+01	  0.060080159	5.209100E+01	  0.060080159	1.194000E+00
202	  0.060280561	-3.253700E+01	  0.060280561	2.866800E+01	  0.060280561	5.210100E+01	  0.060280561	1.180000E+00
203	  0.060480963	-3.255800E+01	  0.060480963	2.861500E+01	  0.060480963	5.209700E+01	  0.060480963	1.176000E+00
204	  0.060681365	-3.250900E+01	  0.060681365	2.832600E+01	  0.060681365	5.211500E+01	  0.060681365	1.172000E+00
205	  0.060881764	-3.248100E+01	  0.060881764	2.840700E+01	  0.060881764	5.212100E+01	  0.060881764	1.179000E+00
206	  0.061082166	-3.245700E+01	  0.061082166	2.828400E+01	  0.061082166	5.212900E+01	  0.061082166	1.177000E+00
207	  0.061282568	-3.245200E+01	  0.061282568	2.822900E+01	  0.061282568	5.213200E+01	  0.061282568	1.176000E+00
208	  0.061482966	-3.245600E+01	  0.061482966	2.818200E+01	  0.061482966	5.213200E+01	  0.061482966	1.174000E+00
209	  0.061683368	-3.241300E+01	  0.061683368	2.797300E+01	  0.061683368	5.214700E+01	  0.061683368	1.172000E+00
210	  0.061883770	-3.237500E+01	  0.061883770	2.776200E+01	  0.061883770	5.216100E+01	  0.061883770	1.169000E+00
211	  0.062084168	-3.238400E+01	  0.062084168	2.760200E+01	  0.062084168	5.216200E+01	  0.062084168	1.162000E+00
212	  0.062284570	-3.234300E+01	  0.062284570	2.775400E+01	  0.062284570	5.216900E+01	  0.062284570	1.173000E+00
213	  0.062484972	-3.235300E+01	  0.062484972	2.770900E+01	  0.062484972	5.216800E+01	  0.062484972	1.170000E+00
214	  0.062685370	-3.228500E+01	  0.062685370	2.753900E+01	  0.062685370	5.218900E+01	  0.062685370	1.173000E+00
215	  0.062885776	-3.226300E+01	  0.062885776	2.727700E+01	  0.062885776	5.220000E+01	  0.062885776	1.166000E+00
216	  0.063086174	-3.225400E+01	  0.063086174	2.713500E+01	  0.063086174	5.220500E+01	  0.063086174	1.162000E+00
217	  0.063286573	-3.224200E+01	  0.063286573	2.724600E+01	  0.063286573	5.220600E+01	  0.063286573	1.168000E+00
218	  0.063486971	-3.219900E+01	  0.063486971	2.711100E+01	  0.063486971	5.222000E+01	  0.063486971	1.169000E+00
219	  0.063687377	-3.219800E+01	  0.063687377	2.703600E+01	  0.063687377	5.222200E+01	  0.063687377	1.166000E+00
220	  0.063887775	-3.219200E+01	  0.063887775	2.674900E+01	  0.063887775	5.222900E+01	  0.063887775	1.155000E+00
221	  0.064088173	-3.217600E+01	  0.064088173	2.649600E+01	  0.064088173	5.223900E+01	  0.064088173	1.148000E+00
222	  0.064288579	-3.218900E+01	  0.064288579	2.635100E+01	  0.064288579	5.223900E+01	  0.064288579	1.140000E+00
223	  0.064488977	-3.214300E+01	  0.064488977	2.633200E+01	  0.064488977	5.225100E+01	  0.064488977	1.146000E+00
224	  0.064689375	-3.210900E+01	  0.064689375	2.637500E+01	  0.064689375	5.225900E+01	  0.064689375	1.152000E+00
225	  0.064889781	-3.212100E+01	  0.064889781	2.622500E+01	  0.064889781	5.225900E+01	  0.064889781	1.144000E+00
226	  0.065090179	-3.210200E+01	  0.065090179	2.598400E+01	  0.065090179	5.226900E+01	  0.065090179	1.137000E+00
227	  0.065290578	-3.204200E+01	  0.065290578	2.597800E+01	  0.065290578	5.228500E+01	  0.065290578	1.145000E+00
228	  0.065490983	-3.205700E+01	  0.065490983	2.563500E+01	  0.065490983	5.228900E+01	  0.065490983	1.129000E+00
229	  0.065691382	-3.206200E+01	  0.065691382	2.565100E+01	  0.065691382	5.228700E+01	  0.065691382	1.129000E+00
230	  0.065891780	-3.204100E+01	  0.065891780	2.577100E+01	  0.065891780	5.229000E+01	  0.065891780	1.137000E+00
231	  0.066092186	-3.202100E+01	  0.066092186	2.543400E+01	  0.066092186	5.230200E+01	  0.066092186	1.126000E+00
232	  0.066292584	-3.201500E+01	  0.066292584	2.536000E+01	  0.066292584	5.230600E+01	  0.066292584	1.124000E+00
233	  0.066492982	-3.197900E+01	  0.066492982	2.500100E+01	  0.066492982	5.232300E+01	  0.066492982	1.114000E+00
234	  0.066693388	-3.193900E+01	  0.066693388	2.494100E+01	  0.066693388	5.233500E+01	  0.066693388	1.117000E+00
235	  0.066893786	-3.196100E+01	  0.066893786	2.490100E+01	  0.066893786	5.233000E+01	  0.066893786	1.112000E+00
236	  0.067094192	-3.189900E+01	  0.067094192	2.462700E+01	  0.067094192	5.235200E+01	  0.067094192	1.109000E+00
237	  0.067294590	-3.194000E+01	  0.067294590	2.458200E+01	  0.067294590	5.234200E+01	  0.067294590	1.102000E+00
238	  0.067494988	-3.192100E+01	  0.067494988	2.452800E+01	  0.067494988	5.234800E+01	  0.067494988	1.102000E+00
239	  0.067695394	-3.186600E+01	  0.067695394	2.438900E+01	  0.067695394	5.236600E+01	  0.067695394	1.103000E+00
240	  0.067895792	-3.184500E+01	  0.067895792	2.441100E+01	  0.067895792	5.237100E+01	  0.067895792	1.107000E+00
241	  0.068096191	-3.184900E+01	  0.068096191	2.433600E+01	  0.068096191	5.237200E+01	  0.068096191	1.103000E+00
242	  0.068296596	-3.186300E+01	  0.068296596	2.392800E+01	  0.068296596	5.237600E+01	  0.068296596	1.084000E+00
243	  0.068496995	-3.184900E+01	  0.068496995	2.387100E+01	  0.068496995	5.238100E+01	  0.068496995	1.084000E+00
244	  0.068697393	-3.183800E+01	  0.068697393	2.390900E+01	  0.068697393	5.238300E+01	  0.068697393	1.087000E+00
245	  0.068897791	-3.181300E+01	  0.068897791	2.372600E+01	  0.068897791	5.239400E+01	  0.068897791	1.082000E+00
246	  0.069098189	-3.178400E+01	  0.069098189	2.336300E+01	  0.069098189	5.240900E+01	  0.069098189	1.071000E+00
247	  0.069298595	-3.175000E+01	  0.069298595	2.338100E+01	  0.069298595	5.241900E+01	  0.069298595	1.076000E+00
248	  0.069498993	-3.168600E+01	  0.069498993	2.332500E+01	  0.069498993	5.243800E+01	  0.069498993	1.082000E+00
249	  0.069699399	-3.175600E+01	  0.069699399	2.315800E+01	  0.069699399	5.242100E+01	  0.069699399	1.065000E+00
250	  0.069899797	-3.170700E+01	  0.069899797	2.294100E+01	  0.069899797	5.244000E+01	  0.069899797	1.062000E+00
251	  0.070100196	-3.171800E+01	  0.070100196	2.288000E+01	  0.070100196	5.243700E+01	  0.070100196	1.058000E+00
252	  0.070300601	-3.166700E+01	  0.070300601	2.274400E+01	  0.070300601	5.245500E+01	  0.070300601	1.059000E+00
253	  0.070501000	-3.168200E+01	  0.070501000	2.260500E+01	  0.070501000	5.245300E+01	  0.070501000	1.051000E+00
254	  0.070701398	-3.164200E+01	  0.070701398	2.258700E+01	  0.070701398	5.246500E+01	  0.070701398	1.055000E+00
255	  0.070901804	-3.168200E+01	  0.070901804	2.259300E+01	  0.070901804	5.245300E+01	  0.070901804	1.050000E+00
256	  0.071102202	-3.162800E+01	  0.071102202	2.277500E+01	  0.071102202	5.246600E+01	  0.071102202	1.065000E+00
257	  0.071302600	-3.164300E+01	  0.071302600	2.241400E+01	  0.071302600	5.246800E+01	  0.071302600	1.047000E+00
258	  0.071503006	-3.161700E+01	  0.071503006	2.215000E+01	  0.071503006	5.248100E+01	  0.071503006	1.039000E+00
259	  0.071703404	-3.156100E+01	  0.071703404	2.220900E+01	  0.071703404	5.249600E+01	  0.071703404	1.049000E+00
260	  0.071903802	-3.155100E+01	  0.071903802	2.181400E+01	  0.071903802	5.250600E+01	  0.071903802	1.032000E+00
261	  0.072104208	-3.159100E+01	  0.072104208	2.180000E+01	  0.072104208	5.249500E+01	  0.072104208	1.027000E+00
262	  0.072304606	-3.152600E+01	  0.072304606	2.158400E+01	  0.072304606	5.251800E+01	  0.072304606	1.025000E+00
263	  0.072505005	-3.151900E+01	  0.072505005	2.157800E+01	  0.072505005	5.252000E+01	  0.072505005	1.026000E+00
264	  0.072705410	-3.152700E+01	  0.072705410	2.154500E+01	  0.072705410	5.251900E+01	  0.072705410	1.023000E+00
265	  0.072905809	-3.149900E+01	  0.072905809	2.120300E+01	  0.072905809	5.253300E+01	  0.072905809	1.011000E+00
266	  0.073106214	-3.151700E+01	  0.073106214	2.119300E+01	  0.073106214	5.252800E+01	  0.073106214	1.009000E+00
267	  0.073306613	-3.147900E+01	  0.073306613	2.088900E+01	  0.073306613	5.254500E+01	  0.073306613	1.000000E+00
268	  0.073507011	-3.149000E+01	  0.073507011	2.085000E+01	  0.073507011	5.254300E+01	  0.073507011	9.970000E-01
269	  0.073707417	-3.143300E+01	  0.073707417	2.082700E+01	  0.073707417	5.256000E+01	  0.073707417	1.002000E+00
270	  0.073907815	-3.142300E+01	  0.073907815	2.056500E+01	  0.073907815	5.256800E+01	  0.073907815	9.920000E-01
271	  0.074108213	-3.141200E+01	  0.074108213	2.036300E+01	  0.074108213	5.257500E+01	  0.074108213	9.840000E-01
272	  0.074308619	-3.140700E+01	  0.074308619	2.035400E+01	  0.074308619	5.257700E+01	  0.074308619	9.840000E-01
273	  0.074509017	-3.138600E+01	  0.074509017	2.039100E+01	  0.074509017	5.258200E+01	  0.074509017	9.880000E-01
274	  0.074709415	-3.136700E+01	  0.074709415	2.001700E+01	  0.074709415	5.259500E+01	  0.074709415	9.730000E-01
275	  0.074909821	-3.136400E+01	  0.074909821	1.999200E+01	  0.074909821	5.259600E+01	  0.074909821	9.720000E-01
276	  0.075110219	-3.134300E+01	  0.075110219	1.967100E+01	  0.075110219	5.260800E+01	  0.075110219	9.600000E-01
277	  0.075310618	-3.127900E+01	  0.075310618	2.010200E+01	  0.075310618	5.262000E+01	  0.075310618	9.870000E-01
278	  0.075511023	-3.132100E+01	  0.075511023	1.981700E+01	  0.075511023	5.261200E+01	  0.075511023	9.690000E-01
279	  0.075711422	-3.126200E+01	  0.075711422	1.965900E+01	  0.075711422	5.263400E+01	  0.075711422	9.690000E-01
280	  0.075911827	-3.129000E+01	  0.075911827	1.936800E+01	  0.075911827	5.263000E+01	  0.075911827	9.520000E-01
281	  0.076112226	-3.122000E+01	  0.076112226	1.901700E+01	  0.076112226	5.265800E+01	  0.076112226	9.430000E-01
282	  0.076312624	-3.121700E+01	  0.076312624	1.900100E+01	  0.076312624	5.265900E+01	  0.076312624	9.430000E-01
283	  0.076513030	-3.125000E+01	  0.076513030	1.886900E+01	  0.076513030	5.265100E+01	  0.076513030	9.330000E-01
284	  0.076713428	-3.118900E+01	  0.076713428	1.883200E+01	  0.076713428	5.267100E+01	  0.076713428	9.380000E-01
285	  0.076913826	-3.119900E+01	  0.076913826	1.876500E+01	  0.076913826	5.266900E+01	  0.076913826	9.340000E-01
286	  0.077114232	-3.117000E+01	  0.077114232	1.878700E+01	  0.077114232	5.267800E+01	  0.077114232	9.380000E-01
287	  0.077314630	-3.121400E+01	  0.077314630	1.859200E+01	  0.077314630	5.266700E+01	  0.077314630	9.240000E-01
288	  0.077515028	-3.118700E+01	  0.077515028	1.812500E+01	  0.077515028	5.268300E+01	  0.077515028	9.040000E-01
289	  0.077715434	-3.113400E+01	  0.077715434	1.844600E+01	  0.077715434	5.269500E+01	  0.077715434	9.260000E-01
290	  0.077915832	-3.115900E+01	  0.077915832	1.826500E+01	  0.077915832	5.269000E+01	  0.077915832	9.140000E-01
291	  0.078116231	-3.112100E+01	  0.078116231	1.810900E+01	  0.078116231	5.270400E+01	  0.078116231	9.110000E-01
292	  0.078316636	-3.111600E+01	  0.078316636	1.782200E+01	  0.078316636	5.271100E+01	  0.078316636	8.980000E-01
293	  0.078517035	-3.114000E+01	  0.078517035	1.803800E+01	  0.078517035	5.270000E+01	  0.078517035	9.050000E-01
294	  0.078717433	-3.109300E+01	  0.078717433	1.764200E+01	  0.078717433	5.272100E+01	  0.078717433	8.910000E-01
295	  0.078917839	-3.108400E+01	  0.078917839	1.772300E+01	  0.078917839	5.272300E+01	  0.078917839	8.960000E-01
296	  0.079118237	-3.108200E+01	  0.079118237	1.738500E+01	  0.079118237	5.272900E+01	  0.079118237	8.800000E-01
297	  0.079318643	-3.105500E+01	  0.079318643	1.709200E+01	  0.079318643	5.274200E+01	  0.079318643	8.680000E-01
298	  0.079519041	-3.105000E+01	  0.079519041	1.726800E+01	  0.079519041	5.274100E+01	  0.079519041	8.780000E-01
299	  0.079719439	-3.106200E+01	  0.079719439	1.702200E+01	  0.079719439	5.274100E+01	  0.079719439	8.640000E-01
300	  0.079919845	-3.102400E+01	  0.079919845	1.667400E+01	  0.079919845	5.275900E+01	  0.079919845	8.510000E-01
301	  0.080120243	-3.103500E+01	  0.080120243	1.673300E+01	  0.080120243	5.275500E+01	  0.080120243	8.530000E-01
302	  0.080320641	-3.102900E+01	  0.080320641	1.670600E+01	  0.080320641	5.275700E+01	  0.080320641	8.520000E-01
303	  0.080521047	-3.099200E+01	  0.080521047	1.640600E+01	  0.080521047	5.277400E+01	  0.080521047	8.410000E-01
304	  0.080721445	-3.099600E+01	  0.080721445	1.668900E+01	  0.080721445	5.276800E+01	  0.080721445	8.550000E-01
305	  0.080921844	-3.095000E+01	  0.080921844	1.633800E+01	  0.080921844	5.278900E+01	  0.080921844	8.420000E-01
306	  0.081122249	-3.098800E+01	  0.081122249	1.603100E+01	  0.081122249	5.278100E+01	  0.081122249	8.230000E-01
307	  0.081322648	-3.095700E+01	  0.081322648	1.620500E+01	  0.081322648	5.278800E+01	  0.081322648	8.350000E-01
308	  0.081523046	-3.093600E+01	  0.081523046	1.602900E+01	  0.081523046	5.279800E+01	  0.081523046	8.280000E-01
309	  0.081723452	-3.091600E+01	  0.081723452	1.561400E+01	  0.081723452	5.281100E+01	  0.081723452	8.090000E-01
310	  0.081923850	-3.091900E+01	  0.081923850	1.563200E+01	  0.081923850	5.281000E+01	  0.081923850	8.100000E-01
311	  0.082124248	-3.093400E+01	  0.082124248	1.549000E+01	  0.082124248	5.280700E+01	  0.082124248	8.010000E-01
312	  0.082324654	-3.088200E+01	  0.082324654	1.516000E+01	  0.082324654	5.282900E+01	  0.082324654	7.900000E-01
313	  0.082525052	-3.088200E+01	  0.082525052	1.503600E+01	  0.082525052	5.283100E+01	  0.082525052	7.830000E-01
314	  0.082725458	-3.085500E+01	  0.082725458	1.518800E+01	  0.082725458	5.283800E+01	  0.082725458	7.940000E-01
315	  0.082925856	-3.083700E+01	  0.082925856	1.485000E+01	  0.082925856	5.284800E+01	  0.082925856	7.780000E-01
316	  0.083126254	-3.083500E+01	  0.083126254	1.471900E+01	  0.083126254	5.285100E+01	  0.083126254	7.720000E-01
317	  0.083326660	-3.080500E+01	  0.083326660	1.475700E+01	  0.083326660	5.286100E+01	  0.083326660	7.760000E-01
318	  0.083527058	-3.085400E+01	  0.083527058	1.467400E+01	  0.083527058	5.284500E+01	  0.083527058	7.680000E-01
319	  0.083727457	-3.081300E+01	  0.083727457	1.444600E+01	  0.083727457	5.286200E+01	  0.083727457	7.600000E-01
320	  0.083927862	-3.082000E+01	  0.083927862	1.432100E+01	  0.083927862	5.286200E+01	  0.083927862	7.530000E-01
321	  0.084128261	-3.077900E+01	  0.084128261	1.430800E+01	  0.084128261	5.287600E+01	  0.084128261	7.560000E-01
322	  0.084328659	-3.077200E+01	  0.084328659	1.410200E+01	  0.084328659	5.288100E+01	  0.084328659	7.460000E-01
323	  0.084529065	-3.076300E+01	  0.084529065	1.411900E+01	  0.084529065	5.288400E+01	  0.084529065	7.470000E-01
324	  0.084729463	-3.074900E+01	  0.084729463	1.384500E+01	  0.084729463	5.289300E+01	  0.084729463	7.340000E-01
325	  0.084929861	-3.076800E+01	  0.084929861	1.380400E+01	  0.084929861	5.288600E+01	  0.084929861	7.310000E-01
326	  0.085130267	-3.072000E+01	  0.085130267	1.348400E+01	  0.085130267	5.290700E+01	  0.085130267	7.180000E-01
327	  0.085330658	-3.073200E+01	  0.085330658	1.339200E+01	  0.085330658	5.290400E+01	  0.085330658	7.120000E-01
328	  0.085531056	-3.069400E+01	  0.085531056	1.333300E+01	  0.085531056	5.291800E+01	  0.085531056	7.130000E-01
329	  0.085731462	-3.069300E+01	  0.085731462	1.338100E+01	  0.085731462	5.291800E+01	  0.085731462	7.150000E-01
330	  0.085931860	-3.069000E+01	  0.085931860	1.322100E+01	  0.085931860	5.292100E+01	  0.085931860	7.070000E-01
331	  0.086132258	-3.068300E+01	  0.086132258	1.317100E+01	  0.086132258	5.292400E+01	  0.086132258	7.050000E-01
332	  0.086332664	-3.069400E+01	  0.086332664	1.295000E+01	  0.086332664	5.292300E+01	  0.086332664	6.930000E-01
333	  0.086533062	-3.067400E+01	  0.086533062	1.281700E+01	  0.086533062	5.293200E+01	  0.086533062	6.870000E-01
334	  0.086733460	-3.068900E+01	  0.086733460	1.253400E+01	  0.086733460	5.293000E+01	  0.086733460	6.710000E-01
335	  0.086933866	-3.065800E+01	  0.086933866	1.272800E+01	  0.086933866	5.293900E+01	  0.086933866	6.840000E-01
336	  0.087134264	-3.062300E+01	  0.087134264	1.255200E+01	  0.087134264	5.295300E+01	  0.087134264	6.780000E-01
337	  0.087334670	-3.066200E+01	  0.087334670	1.229700E+01	  0.087334670	5.294200E+01	  0.087334670	6.610000E-01
338	  0.087535068	-3.062400E+01	  0.087535068	1.217600E+01	  0.087535068	5.295700E+01	  0.087535068	6.580000E-01
339	  0.087735467	-3.062400E+01	  0.087735467	1.206300E+01	  0.087735467	5.295800E+01	  0.087735467	6.520000E-01
340	  0.087935872	-3.063300E+01	  0.087935872	1.185100E+01	  0.087935872	5.295800E+01	  0.087935872	6.400000E-01
341	  0.088136271	-3.059400E+01	  0.088136271	1.171100E+01	  0.088136271	5.297300E+01	  0.088136271	6.350000E-01
342	  0.088336669	-3.062700E+01	  0.088336669	1.153100E+01	  0.088336669	5.296400E+01	  0.088336669	6.230000E-01
343	  0.088537075	-3.057700E+01	  0.088537075	1.153400E+01	  0.088537075	5.298100E+01	  0.088537075	6.270000E-01
344	  0.088737473	-3.058200E+01	  0.088737473	1.123000E+01	  0.088737473	5.298300E+01	  0.088737473	6.100000E-01
345	  0.088937871	-3.057900E+01	  0.088937871	1.143700E+01	  0.088937871	5.298200E+01	  0.088937871	6.220000E-01
346	  0.089138277	-3.056600E+01	  0.089138277	1.112600E+01	  0.089138277	5.299000E+01	  0.089138277	6.060000E-01
347	  0.089338675	-3.054400E+01	  0.089338675	1.080800E+01	  0.089338675	5.300100E+01	  0.089338675	5.900000E-01
348	  0.089539073	-3.055200E+01	  0.089539073	1.059900E+01	  0.089539073	5.300100E+01	  0.089539073	5.790000E-01
349	  0.089739479	-3.051200E+01	  0.089739479	1.079500E+01	  0.089739479	5.301300E+01	  0.089739479	5.920000E-01
350	  0.089939877	-3.052600E+01	  0.089939877	1.066700E+01	  0.089939877	5.300900E+01	  0.089939877	5.840000E-01
351	  0.090140276	-3.051500E+01	  0.090140276	1.066700E+01	  0.090140276	5.301300E+01	  0.090140276	5.850000E-01
352	  0.090340681	-3.048300E+01	  0.090340681	1.053200E+01	  0.090340681	5.302600E+01	  0.090340681	5.800000E-01
353	  0.090541080	-3.052300E+01	  0.090541080	1.018900E+01	  0.090541080	5.301500E+01	  0.090541080	5.580000E-01
354	  0.090741485	-3.048900E+01	  0.090741485	1.018600E+01	  0.090741485	5.302700E+01	  0.090741485	5.610000E-01
355	  0.090941884	-3.048600E+01	  0.090941884	9.803000E+00	  0.090941884	5.303200E+01	  0.090941884	5.400000E-01
356	  0.091142282	-3.045200E+01	  0.091142282	9.667000E+00	  0.091142282	5.304600E+01	  0.091142282	5.350000E-01
357	  0.091342688	-3.047600E+01	  0.091342688	9.562000E+00	  0.091342688	5.303800E+01	  0.091342688	5.280000E-01
358	  0.091543086	-3.046900E+01	  0.091543086	9.543000E+00	  0.091543086	5.304100E+01	  0.091543086	5.270000E-01
359	  0.091743484	-3.043300E+01	  0.091743484	9.448000E+00	  0.091743484	5.305500E+01	  0.091743484	5.240000E-01
360	  0.091943890	-3.044800E+01	  0.091943890	9.317000E+00	  0.091943890	5.305100E+01	  0.091943890	5.160000E-01
361	  0.092144288	-3.043800E+01	  0.092144288	9.271000E+00	  0.092144288	5.305500E+01	  0.092144288	5.140000E-01
362	  0.092344686	-3.040100E+01	  0.092344686	9.080000E+00	  0.092344686	5.307000E+01	  0.092344686	5.060000E-01
363	  0.092545092	-3.042300E+01	  0.092545092	8.922000E+00	  0.092545092	5.306400E+01	  0.092545092	4.960000E-01
364	  0.092745490	-3.041300E+01	  0.092745490	8.922000E+00	  0.092745490	5.306700E+01	  0.092745490	4.960000E-01
365	  0.092945889	-3.041200E+01	  0.092945889	8.591000E+00	  0.092945889	5.307100E+01	  0.092945889	4.780000E-01
366	  0.093146294	-3.041800E+01	  0.093146294	8.555000E+00	  0.093146294	5.306900E+01	  0.093146294	4.760000E-01
367	  0.093346693	-3.037900E+01	  0.093346693	8.227000E+00	  0.093346693	5.308600E+01	  0.093346693	4.600000E-01
368	  0.093547091	-3.038500E+01	  0.093547091	8.408000E+00	  0.093547091	5.308200E+01	  0.093547091	4.700000E-01
369	  0.093747497	-3.038600E+01	  0.093747497	8.217000E+00	  0.093747497	5.308300E+01	  0.093747497	4.590000E-01
370	  0.093947895	-3.037800E+01	  0.093947895	7.945000E+00	  0.093947895	5.308900E+01	  0.093947895	4.440000E-01
371	  0.094148301	-3.036300E+01	  0.094148301	7.906000E+00	  0.094148301	5.309500E+01	  0.094148301	4.430000E-01
372	  0.094348699	-3.032200E+01	  0.094348699	7.800000E+00	  0.094348699	5.311000E+01	  0.094348699	4.390000E-01
373	  0.094549097	-3.036000E+01	  0.094549097	7.416000E+00	  0.094549097	5.309900E+01	  0.094549097	4.160000E-01
374	  0.094749503	-3.033300E+01	  0.094749503	7.645000E+00	  0.094749503	5.310800E+01	  0.094749503	4.300000E-01
375	  0.094949901	-3.030800E+01	  0.094949901	7.445000E+00	  0.094949901	5.311800E+01	  0.094949901	4.200000E-01
376	  0.095150299	-3.032400E+01	  0.095150299	7.281000E+00	  0.095150299	5.311400E+01	  0.095150299	4.100000E-01
377	  0.095350705	-3.031200E+01	  0.095350705	7.168000E+00	  0.095350705	5.311900E+01	  0.095350705	4.040000E-01
378	  0.095551103	-3.032700E+01	  0.095551103	6.875000E+00	  0.095551103	5.311600E+01	  0.095551103	3.870000E-01
379	  0.095751502	-3.027800E+01	  0.095751502	7.029000E+00	  0.095751502	5.313300E+01	  0.095751502	3.980000E-01
380	  0.095951907	-3.028600E+01	  0.095951907	6.865000E+00	  0.095951907	5.313100E+01	  0.095951907	3.890000E-01
381	  0.096152306	-3.026900E+01	  0.096152306	6.690000E+00	  0.096152306	5.313800E+01	  0.096152306	3.790000E-01
382	  0.096352704	-3.025000E+01	  0.096352704	6.613000E+00	  0.096352704	5.314600E+01	  0.096352704	3.760000E-01
383	  0.096553110	-3.024800E+01	  0.096553110	6.432000E+00	  0.096553110	5.314800E+01	  0.096553110	3.660000E-01
384	  0.096753508	-3.027500E+01	  0.096753508	6.050000E+00	  0.096753508	5.314000E+01	  0.096753508	3.430000E-01
385	  0.096953906	-3.025500E+01	  0.096953906	6.155000E+00	  0.096953906	5.314700E+01	  0.096953906	3.500000E-01
386	  0.097154312	-3.025300E+01	  0.097154312	5.993000E+00	  0.097154312	5.314900E+01	  0.097154312	3.410000E-01
387	  0.097354710	-3.023200E+01	  0.097354710	5.589000E+00	  0.097354710	5.315900E+01	  0.097354710	3.190000E-01
388	  0.097555116	-3.023100E+01	  0.097555116	5.540000E+00	  0.097555116	5.316000E+01	  0.097555116	3.160000E-01
389	  0.097755514	-3.023100E+01	  0.097755514	5.493000E+00	  0.097755514	5.316100E+01	  0.097755514	3.130000E-01
390	  0.097955912	-3.023600E+01	  0.097955912	5.363000E+00	  0.097955912	5.315900E+01	  0.097955912	3.060000E-01
391	  0.098156318	-3.019100E+01	  0.098156318	5.324000E+00	  0.098156318	5.317700E+01	  0.098156318	3.050000E-01
392	  0.098356716	-3.023900E+01	  0.098356716	5.121000E+00	  0.098356716	5.315900E+01	  0.098356716	2.920000E-01
393	  0.098557115	-3.021500E+01	  0.098557115	5.024000E+00	  0.098557115	5.316900E+01	  0.098557115	2.870000E-01
394	  0.098757520	-3.020900E+01	  0.098757520	4.942000E+00	  0.098757520	5.317200E+01	  0.098757520	2.830000E-01
395	  0.098957919	-3.018700E+01	  0.098957919	4.732000E+00	  0.098957919	5.318100E+01	  0.098957919	2.710000E-01
396	  0.099158317	-3.019200E+01	  0.099158317	4.437000E+00	  0.099158317	5.318100E+01	  0.099158317	2.540000E-01
397	  0.099358723	-3.018100E+01	  0.099358723	4.415000E+00	  0.099358723	5.318500E+01	  0.099358723	2.530000E-01
398	  0.099559121	-3.013800E+01	  0.099559121	4.505000E+00	  0.099559121	5.320100E+01	  0.099559121	2.600000E-01
399	  0.099759519	-3.015400E+01	  0.099759519	4.239000E+00	  0.099759519	5.319600E+01	  0.099759519	2.440000E-01
400	  0.099959925	-3.012400E+01	  0.099959925	3.912000E+00	  0.099959925	5.320900E+01	  0.099959925	2.260000E-01
401	  0.100160323	-3.016300E+01	  0.100160323	3.817000E+00	  0.100160323	5.319400E+01	  0.100160323	2.200000E-01
402	  0.100360721	-3.015700E+01	  0.100360721	3.886000E+00	  0.100360721	5.319600E+01	  0.100360721	2.240000E-01
403	  0.100561127	-3.010100E+01	  0.100561127	3.542000E+00	  0.100561127	5.321900E+01	  0.100561127	2.050000E-01
404	  0.100761525	-3.010600E+01	  0.100761525	3.488000E+00	  0.100761525	5.321700E+01	  0.100761525	2.020000E-01
405	  0.100961931	-3.010400E+01	  0.100961931	3.303000E+00	  0.100961931	5.321900E+01	  0.100961931	1.910000E-01
406	  0.101162329	-3.013800E+01	  0.101162329	3.318000E+00	  0.101162329	5.320600E+01	  0.101162329	1.910000E-01
407	  0.101362728	-3.010800E+01	  0.101362728	3.082000E+00	  0.101362728	5.321800E+01	  0.101362728	1.780000E-01
408	  0.101563133	-3.011000E+01	  0.101563133	2.964000E+00	  0.101563133	5.321800E+01	  0.101563133	1.720000E-01
409	  0.101763532	-3.012000E+01	  0.101763532	2.733000E+00	  0.101763532	5.321400E+01	  0.101763532	1.580000E-01
410	  0.101963930	-3.006100E+01	  0.101963930	2.555000E+00	  0.101963930	5.323800E+01	  0.101963930	1.490000E-01
411	  0.102164336	-3.002000E+01	  0.102164336	2.924000E+00	  0.102164336	5.325300E+01	  0.102164336	1.710000E-01
412	  0.102364734	-3.010300E+01	  0.102364734	2.437000E+00	  0.102364734	5.322200E+01	  0.102364734	1.410000E-01
413	  0.102565132	-3.006000E+01	  0.102565132	2.309000E+00	  0.102565132	5.323900E+01	  0.102565132	1.340000E-01
414	  0.102765530	-3.008000E+01	  0.102765530	2.013000E+00	  0.102765530	5.323200E+01	  0.102765530	1.170000E-01
415	  0.102965929	-3.007900E+01	  0.102965929	1.917000E+00	  0.102965929	5.323200E+01	  0.102965929	1.110000E-01
416	  0.103166327	-3.004700E+01	  0.103166327	2.074000E+00	  0.103166327	5.324400E+01	  0.103166327	1.210000E-01
417	  0.103366733	-3.004700E+01	  0.103366733	1.686000E+00	  0.103366733	5.324500E+01	  0.103366733	9.800000E-02
418	  0.103567131	-3.003800E+01	  0.103567131	1.616000E+00	  0.103567131	5.324900E+01	  0.103567131	9.400000E-02
419	  0.103767529	-3.000000E+01	  0.103767529	1.614000E+00	  0.103767529	5.326300E+01	  0.103767529	9.400000E-02
420	  0.103967935	-2.997300E+01	  0.103967935	1.430000E+00	  0.103967935	5.327400E+01	  0.103967935	8.400000E-02
421	  0.104168333	-3.001700E+01	  0.104168333	1.414000E+00	  0.104168333	5.325700E+01	  0.104168333	8.300000E-02
422	  0.104368731	-3.003600E+01	  0.104368731	1.393000E+00	  0.104368731	5.325000E+01	  0.104368731	8.100000E-02
423	  0.104569137	-3.002300E+01	  0.104569137	1.241000E+00	  0.104569137	5.325500E+01	  0.104569137	7.200000E-02
424	  0.104769535	-3.001600E+01	  0.104769535	1.009000E+00	  0.104769535	5.325800E+01	  0.104769535	5.900000E-02
425	  0.104969934	-3.001900E+01	  0.104969934	7.600000E-01	  0.104969934	5.325700E+01	  0.104969934	4.400000E-02
426	  0.105170339	-3.002400E+01	  0.105170339	8.870000E-01	  0.105170339	5.325500E+01	  0.105170339	5.200000E-02
427	  0.105370738	-2.999200E+01	  0.105370738	3.320000E-01	  0.105370738	5.326800E+01	  0.105370738	1.900000E-02
428	  0.105571143	-2.999200E+01	  0.105571143	6.880000E-01	  0.105571143	5.326800E+01	  0.105571143	4.000000E-02
429	  0.105771542	-2.995100E+01	  0.105771542	4.200000E-01	  0.105771542	5.328400E+01	  0.105771542	2.400000E-02
430	  0.105971940	-2.995000E+01	  0.105971940	2.950000E-01	  0.105971940	5.328400E+01	  0.105971940	1.700000E-02
431	  0.106172346	-2.994200E+01	  0.106172346	-4.140000E-01	  0.106172346	5.328700E+01	  0.106172346	-2.400000E-02
432	  0.106372744	-2.996400E+01	  0.106372744	-2.170000E-01	  0.106372744	5.327900E+01	  0.106372744	-1.200000E-02
433	  0.106573142	-2.997200E+01	  0.106573142	-3.160000E-01	  0.106573142	5.327600E+01	  0.106573142	-1.800000E-02
434	  0.106773548	-2.996800E+01	  0.106773548	-4.710000E-01	  0.106773548	5.327700E+01	  0.106773548	-2.700000E-02
435	  0.106973946	-2.997400E+01	  0.106973946	-4.940000E-01	  0.106973946	5.327500E+01	  0.106973946	-2.900000E-02
436	  0.107174344	-2.992900E+01	  0.107174344	-3.360000E-01	  0.107174344	5.329300E+01	  0.107174344	-1.900000E-02
437	  0.107374750	-2.996200E+01	  0.107374750	-5.010000E-01	  0.107374750	5.327900E+01	  0.107374750	-2.900000E-02
438	  0.107575148	-2.998900E+01	  0.107575148	-6.290000E-01	  0.107575148	5.326900E+01	  0.107575148	-3.700000E-02
439	  0.107775547	-2.995800E+01	  0.107775547	-1.026000E+00	  0.107775547	5.328000E+01	  0.107775547	-6.000000E-02
440	  0.107975952	-2.994200E+01	  0.107975952	-1.149000E+00	  0.107975952	5.328700E+01	  0.107975952	-6.800000E-02
441	  0.108176351	-2.996100E+01	  0.108176351	-1.117000E+00	  0.108176351	5.327900E+01	  0.108176351	-6.600000E-02
442	  0.108376749	-2.992800E+01	  0.108376749	-1.353000E+00	  0.108376749	5.329200E+01	  0.108376749	-8.000000E-02
443	  0.108577155	-2.994800E+01	  0.108577155	-1.559000E+00	  0.108577155	5.328400E+01	  0.108577155	-9.200000E-02
444	  0.108777553	-2.996300E+01	  0.108777553	-1.739000E+00	  0.108777553	5.327800E+01	  0.108777553	-1.020000E-01
445	  0.108977959	-2.986400E+01	  0.108977959	-1.948000E+00	  0.108977959	5.331600E+01	  0.108977959	-1.160000E-01
446	  0.109178357	-2.996300E+01	  0.109178357	-2.150000E+00	  0.109178357	5.327700E+01	  0.109178357	-1.270000E-01
447	  0.109378755	-2.993400E+01	  0.109378755	-2.016000E+00	  0.109378755	5.328800E+01	  0.109378755	-1.190000E-01
448	  0.109579161	-2.990500E+01	  0.109579161	-2.414000E+00	  0.109579161	5.329900E+01	  0.109579161	-1.430000E-01
449	  0.109779559	-2.989800E+01	  0.109779559	-2.268000E+00	  0.109779559	5.330200E+01	  0.109779559	-1.350000E-01
450	  0.109979957	-2.986600E+01	  0.109979957	-2.619000E+00	  0.109979957	5.331300E+01	  0.109979957	-1.560000E-01
451	  0.110180363	-2.991200E+01	  0.110180363	-2.598000E+00	  0.110180363	5.329600E+01	  0.110180363	-1.540000E-01
452	  0.110380761	-2.992300E+01	  0.110380761	-2.611000E+00	  0.110380761	5.329100E+01	  0.110380761	-1.550000E-01
453	  0.110581160	-2.989500E+01	  0.110581160	-2.938000E+00	  0.110581160	5.330100E+01	  0.110581160	-1.750000E-01
454	  0.110781565	-2.990600E+01	  0.110781565	-3.136000E+00	  0.110781565	5.329600E+01	  0.110781565	-1.860000E-01
455	  0.110981964	-2.992800E+01	  0.110981964	-3.146000E+00	  0.110981964	5.328700E+01	  0.110981964	-1.860000E-01
456	  0.111182362	-2.987800E+01	  0.111182362	-3.321000E+00	  0.111182362	5.330700E+01	  0.111182362	-1.980000E-01
457	  0.111382768	-2.988500E+01	  0.111382768	-3.529000E+00	  0.111382768	5.330300E+01	  0.111382768	-2.100000E-01
458	  0.111583166	-2.987100E+01	  0.111583166	-3.596000E+00	  0.111583166	5.330800E+01	  0.111583166	-2.140000E-01
459	  0.111783572	-2.987000E+01	  0.111783572	-4.019000E+00	  0.111783572	5.330700E+01	  0.111783572	-2.400000E-01
460	  0.111983970	-2.989900E+01	  0.111983970	-4.012000E+00	  0.111983970	5.329500E+01	  0.111983970	-2.380000E-01
461	  0.112184368	-2.986800E+01	  0.112184368	-4.035000E+00	  0.112184368	5.330800E+01	  0.112184368	-2.410000E-01
462	  0.112384774	-2.988700E+01	  0.112384774	-4.169000E+00	  0.112384774	5.329900E+01	  0.112384774	-2.480000E-01
463	  0.112585172	-2.988100E+01	  0.112585172	-4.157000E+00	  0.112585172	5.330200E+01	  0.112585172	-2.480000E-01
464	  0.112785570	-2.985400E+01	  0.112785570	-4.433000E+00	  0.112785570	5.331100E+01	  0.112785570	-2.650000E-01
465	  0.112985976	-2.989500E+01	  0.112985976	-4.613000E+00	  0.112985976	5.329400E+01	  0.112985976	-2.740000E-01
466	  0.113186374	-2.984700E+01	  0.113186374	-4.900000E+00	  0.113186374	5.331100E+01	  0.113186374	-2.930000E-01
467	  0.113386773	-2.984100E+01	  0.113386773	-4.656000E+00	  0.113386773	5.331500E+01	  0.113386773	-2.790000E-01
468	  0.113587178	-2.983000E+01	  0.113587178	-4.891000E+00	  0.113587178	5.331800E+01	  0.113587178	-2.930000E-01
469	  0.113787577	-2.984900E+01	  0.113787577	-5.071000E+00	  0.113787577	5.331000E+01	  0.113787577	-3.030000E-01
470	  0.113987975	-2.983800E+01	  0.113987975	-5.669000E+00	  0.113987975	5.331100E+01	  0.113987975	-3.390000E-01
471	  0.114188381	-2.986800E+01	  0.114188381	-5.412000E+00	  0.114188381	5.330000E+01	  0.114188381	-3.230000E-01
472	  0.114388779	-2.982800E+01	  0.114388779	-5.462000E+00	  0.114388779	5.331600E+01	  0.114388779	-3.270000E-01
473	  0.114589177	-2.985000E+01	  0.114589177	-5.727000E+00	  0.114589177	5.330500E+01	  0.114589177	-3.420000E-01
474	  0.114789583	-2.984900E+01	  0.114789583	-5.713000E+00	  0.114789583	5.330600E+01	  0.114789583	-3.410000E-01
475	  0.114989981	-2.983200E+01	  0.114989981	-5.849000E+00	  0.114989981	5.331200E+01	  0.114989981	-3.500000E-01
476	  0.115190387	-2.986700E+01	  0.115190387	-6.177000E+00	  0.115190387	5.329600E+01	  0.115190387	-3.680000E-01
477	  0.115390785	-2.986500E+01	  0.115390785	-6.146000E+00	  0.115390785	5.329700E+01	  0.115390785	-3.660000E-01
478	  0.115591183	-2.982800E+01	  0.115591183	-6.445000E+00	  0.115591183	5.330900E+01	  0.115591183	-3.860000E-01
479	  0.115791589	-2.981300E+01	  0.115791589	-6.416000E+00	  0.115791589	5.331500E+01	  0.115791589	-3.850000E-01
480	  0.115991987	-2.986400E+01	  0.115991987	-6.222000E+00	  0.115991987	5.329700E+01	  0.115991987	-3.710000E-01
481	  0.116192386	-2.982000E+01	  0.116192386	-6.612000E+00	  0.116192386	5.331100E+01	  0.116192386	-3.960000E-01
482	  0.116392791	-2.984700E+01	  0.116392791	-6.873000E+00	  0.116392791	5.329900E+01	  0.116392791	-4.110000E-01
483	  0.116593190	-2.983200E+01	  0.116593190	-7.070000E+00	  0.116593190	5.330300E+01	  0.116593190	-4.230000E-01
484	  0.116793588	-2.981900E+01	  0.116793588	-7.099000E+00	  0.116793588	5.330800E+01	  0.116793588	-4.250000E-01
485	  0.116993994	-2.978900E+01	  0.116993994	-7.230000E+00	  0.116993994	5.331900E+01	  0.116993994	-4.350000E-01
486	  0.117194392	-2.985800E+01	  0.117194392	-7.341000E+00	  0.117194392	5.329100E+01	  0.117194392	-4.380000E-01
487	  0.117394790	-2.979400E+01	  0.117394790	-7.542000E+00	  0.117394790	5.331400E+01	  0.117394790	-4.530000E-01
488	  0.117595196	-2.982400E+01	  0.117595196	-7.827000E+00	  0.117595196	5.330000E+01	  0.117595196	-4.680000E-01
489	  0.117795594	-2.976500E+01	  0.117795594	-7.930000E+00	  0.117795594	5.332200E+01	  0.117795594	-4.780000E-01
490	  0.117995992	-2.980000E+01	  0.117995992	-7.996000E+00	  0.117995992	5.330800E+01	  0.117995992	-4.800000E-01
491	  0.118196398	-2.977600E+01	  0.118196398	-8.305000E+00	  0.118196398	5.331400E+01	  0.118196398	-5.000000E-01
492	  0.118396796	-2.983000E+01	  0.118396796	-8.159000E+00	  0.118396796	5.329500E+01	  0.118396796	-4.880000E-01
493	  0.118597202	-2.979100E+01	  0.118597202	-8.296000E+00	  0.118597202	5.330800E+01	  0.118597202	-4.980000E-01
494	  0.118797600	-2.979300E+01	  0.118797600	-8.267000E+00	  0.118797600	5.330800E+01	  0.118797600	-4.960000E-01
495	  0.118997999	-2.978200E+01	  0.118997999	-8.696000E+00	  0.118997999	5.330800E+01	  0.118997999	-5.230000E-01
496	  0.119198404	-2.978400E+01	  0.119198404	-8.517000E+00	  0.119198404	5.330900E+01	  0.119198404	-5.120000E-01
497	  0.119398803	-2.979300E+01	  0.119398803	-8.874000E+00	  0.119398803	5.330200E+01	  0.119398803	-5.330000E-01
498	  0.119599201	-2.976700E+01	  0.119599201	-8.994000E+00	  0.119599201	5.331100E+01	  0.119599201	-5.420000E-01
499	  0.119799607	-2.981800E+01	  0.119799607	-9.086000E+00	  0.119799607	5.329000E+01	  0.119799607	-5.440000E-01
500	  0.120000005	-2.980700E+01	  0.120000005	-9.394000E+00	  0.120000005	5.329100E+01	  0.120000005	-5.630000E-01
