! Anritsu VNA Master:             	Model: MS2036C/10/77
! SN:             	1601066
! /bd0/18may12.cable.cal/uu.200.txt
! Existing Calibration Information:
! TYPE:             	Current Settings	Active Cal Settings
! TIME:             	05/12/2018 01:55:45 PM	05/12/2018 01:41:40 PM
! INTERNAL TEMP:    	49.0 C	49.0 C
! # POINTS:         	500	500
! START FREQ:       	20.000 MHz	20.000 MHz
! STOP FREQ:        	120.000 MHz	120.000 MHz
! SOURCE POWER:     	High	High
! IFBW:             	50 Hz	50 Hz
! AVG FACTOR:       	  1 	  1 
! REF PLANE 1:      	0 mm	0 mm
! REF PLANE 2:      	0 mm	0 mm
! CAL TYPE:         	Full S22	Full S22
! CAL METHOD:       	SOLT	SOLT
! CAL LINE TYPE:    	Coax	Coax
! DUT PORT 1:       	K-Conn(M)	K-Conn(M)
! DUT PORT 2:       	K-Conn(M)	K-Conn(M)
! CAL STATUS:       	OK: Accuracy High	--
! PROP-V:       	0.700
! CABLE LOSS:       	0.000 dB/m
! REF IMPEDANCE:       	50.0
! Trace Specific Parameters:	TR1	TR2	TR3	TR4
! TRACE.#.Y (GRAPH TYPE)	LOG MAG	PHASE	REAL IMPEDANCE	IMAGINARY IMPEDANCE
! TRACE.#.X 	FREQ.GHZ	FREQ.GHZ	FREQ.GHZ	FREQ.GHZ
! S-PARAMETER	S22	S22	S22	S22
! SMOOTH/APERTURE %	0	0	0	0
! WINDOW	NSL	NSL	NSL	NSL
! GATING	OFF	OFF	OFF	OFF
! FGTD	OFF	OFF	OFF	OFF
Marker Information per Trace:	TR1	TR2	TR3	TR4
!MK1	--	"MK1 TR2:  12.184 368 MHz,##.##"	--	--
!MK2	--	--	"MK2 TR3:  12.184 368 MHz,##.##"	--
!MK3	--	--	--	--
!MK4	--	--	--	--
!MK5	--	--	--	--
!MK6	--	--	--	--
!MK7	--	--	--	--
!MK8	--	--	--	--
PNT	TR1.FREQ.GHZ	TR1.LOG MAG.dB	TR2.FREQ.GHZ	TR2.PHASE.deg	TR3.FREQ.GHZ	TR3.REAL IMPEDANCE.ohm	TR4.FREQ.GHZ	TR4.IMAGINARY IMPEDANCE.ohm
1	  0.020000000	-4.538000E+00	  0.020000000	-2.226400E+01	  0.020000000	1.275940E+02	  0.020000000	-8.844900E+01
2	  0.020200402	-4.539000E+00	  0.020200402	-2.249800E+01	  0.020200402	1.266650E+02	  0.020200402	-8.864200E+01
3	  0.020400802	-4.539000E+00	  0.020400802	-2.271800E+01	  0.020400802	1.258070E+02	  0.020400802	-8.886100E+01
4	  0.020601204	-4.540000E+00	  0.020601204	-2.294000E+01	  0.020601204	1.249350E+02	  0.020601204	-8.903900E+01
5	  0.020801604	-4.540000E+00	  0.020801604	-2.317400E+01	  0.020801604	1.240300E+02	  0.020801604	-8.924000E+01
6	  0.021002004	-4.541000E+00	  0.021002004	-2.339200E+01	  0.021002004	1.231850E+02	  0.021002004	-8.940500E+01
7	  0.021202406	-4.541000E+00	  0.021202406	-2.362200E+01	  0.021202406	1.223020E+02	  0.021202406	-8.958000E+01
8	  0.021402806	-4.542000E+00	  0.021402806	-2.385300E+01	  0.021402806	1.214150E+02	  0.021402806	-8.973900E+01
9	  0.021603208	-4.542000E+00	  0.021603208	-2.407300E+01	  0.021603208	1.205820E+02	  0.021603208	-8.989900E+01
10	  0.021803608	-4.543000E+00	  0.021803608	-2.430100E+01	  0.021803608	1.197180E+02	  0.021803608	-9.001800E+01
11	  0.022004008	-4.543000E+00	  0.022004008	-2.451900E+01	  0.022004008	1.188960E+02	  0.022004008	-9.015400E+01
12	  0.022204408	-4.544000E+00	  0.022204408	-2.474300E+01	  0.022204408	1.180580E+02	  0.022204408	-9.026400E+01
13	  0.022404809	-4.545000E+00	  0.022404809	-2.497800E+01	  0.022404809	1.171830E+02	  0.022404809	-9.037900E+01
14	  0.022605211	-4.545000E+00	  0.022605211	-2.519900E+01	  0.022605211	1.163700E+02	  0.022605211	-9.048000E+01
15	  0.022805611	-4.546000E+00	  0.022805611	-2.541200E+01	  0.022805611	1.155860E+02	  0.022805611	-9.055900E+01
16	  0.023006011	-4.547000E+00	  0.023006011	-2.564400E+01	  0.023006011	1.147380E+02	  0.023006011	-9.064000E+01
17	  0.023206413	-4.549000E+00	  0.023206413	-2.586900E+01	  0.023206413	1.139180E+02	  0.023206413	-9.069100E+01
18	  0.023406813	-4.546000E+00	  0.023406813	-2.609500E+01	  0.023406813	1.131120E+02	  0.023406813	-9.085100E+01
19	  0.023607215	-4.548000E+00	  0.023607215	-2.632300E+01	  0.023607215	1.122940E+02	  0.023607215	-9.087800E+01
20	  0.023807615	-4.548000E+00	  0.023807615	-2.654800E+01	  0.023807615	1.114960E+02	  0.023807615	-9.094300E+01
21	  0.024008015	-4.551000E+00	  0.024008015	-2.675700E+01	  0.024008015	1.107540E+02	  0.024008015	-9.093800E+01
22	  0.024208417	-4.550000E+00	  0.024208417	-2.699300E+01	  0.024208417	1.099250E+02	  0.024208417	-9.101000E+01
23	  0.024408817	-4.550000E+00	  0.024408817	-2.720600E+01	  0.024408817	1.091840E+02	  0.024408817	-9.105900E+01
24	  0.024609219	-4.551000E+00	  0.024609219	-2.743800E+01	  0.024609219	1.083830E+02	  0.024609219	-9.108200E+01
25	  0.024809619	-4.553000E+00	  0.024809619	-2.765300E+01	  0.024809619	1.076410E+02	  0.024809619	-9.107700E+01
26	  0.025010020	-4.554000E+00	  0.025010020	-2.788500E+01	  0.025010020	1.068480E+02	  0.025010020	-9.107800E+01
27	  0.025210422	-4.553000E+00	  0.025210422	-2.810500E+01	  0.025210422	1.061060E+02	  0.025210422	-9.111400E+01
28	  0.025410822	-4.555000E+00	  0.025410822	-2.833300E+01	  0.025410822	1.053370E+02	  0.025410822	-9.107800E+01
29	  0.025611224	-4.556000E+00	  0.025611224	-2.855300E+01	  0.025611224	1.046050E+02	  0.025611224	-9.108000E+01
30	  0.025811624	-4.557000E+00	  0.025811624	-2.877600E+01	  0.025811624	1.038650E+02	  0.025811624	-9.105100E+01
31	  0.026012026	-4.559000E+00	  0.026012026	-2.900100E+01	  0.026012026	1.031240E+02	  0.026012026	-9.101200E+01
32	  0.026212426	-4.559000E+00	  0.026212426	-2.923000E+01	  0.026212426	1.023770E+02	  0.026212426	-9.099800E+01
33	  0.026412826	-4.559000E+00	  0.026412826	-2.945600E+01	  0.026412826	1.016450E+02	  0.026412826	-9.098800E+01
34	  0.026613226	-4.560000E+00	  0.026613226	-2.968000E+01	  0.026613226	1.009260E+02	  0.026613226	-9.093900E+01
35	  0.026813626	-4.560000E+00	  0.026813626	-2.990600E+01	  0.026813626	1.002030E+02	  0.026813626	-9.091300E+01
36	  0.027014028	-4.561000E+00	  0.027014028	-3.012900E+01	  0.027014028	9.949900E+01	  0.027014028	-9.086400E+01
37	  0.027214428	-4.562000E+00	  0.027214428	-3.035700E+01	  0.027214428	9.878100E+01	  0.027214428	-9.080700E+01
38	  0.027414829	-4.562000E+00	  0.027414829	-3.057300E+01	  0.027414829	9.810800E+01	  0.027414829	-9.077000E+01
39	  0.027615231	-4.562000E+00	  0.027615231	-3.080900E+01	  0.027615231	9.737800E+01	  0.027615231	-9.073100E+01
40	  0.027815631	-4.562000E+00	  0.027815631	-3.103700E+01	  0.027815631	9.667700E+01	  0.027815631	-9.065900E+01
41	  0.028016033	-4.564000E+00	  0.028016033	-3.127300E+01	  0.028016033	9.596300E+01	  0.028016033	-9.056500E+01
42	  0.028216433	-4.565000E+00	  0.028216433	-3.148800E+01	  0.028216433	9.531400E+01	  0.028216433	-9.050100E+01
43	  0.028416833	-4.565000E+00	  0.028416833	-3.172200E+01	  0.028416833	9.461200E+01	  0.028416833	-9.041900E+01
44	  0.028617235	-4.563000E+00	  0.028617235	-3.194600E+01	  0.028617235	9.394200E+01	  0.028617235	-9.039300E+01
45	  0.028817635	-4.566000E+00	  0.028817635	-3.216500E+01	  0.028817635	9.330000E+01	  0.028817635	-9.027100E+01
46	  0.029018037	-4.567000E+00	  0.029018037	-3.239400E+01	  0.029018037	9.263300E+01	  0.029018037	-9.017100E+01
47	  0.029218437	-4.566000E+00	  0.029218437	-3.262100E+01	  0.029218437	9.197200E+01	  0.029218437	-9.009300E+01
48	  0.029418837	-4.567000E+00	  0.029418837	-3.284300E+01	  0.029418837	9.133400E+01	  0.029418837	-8.998800E+01
49	  0.029619239	-4.567000E+00	  0.029619239	-3.307600E+01	  0.029619239	9.066900E+01	  0.029619239	-8.989700E+01
50	  0.029819639	-4.568000E+00	  0.029819639	-3.330500E+01	  0.029819639	9.002200E+01	  0.029819639	-8.978700E+01
51	  0.030020041	-4.567000E+00	  0.030020041	-3.353700E+01	  0.030020041	8.936800E+01	  0.030020041	-8.969400E+01
52	  0.030220442	-4.569000E+00	  0.030220442	-3.375500E+01	  0.030220442	8.876900E+01	  0.030220442	-8.955900E+01
53	  0.030420844	-4.570000E+00	  0.030420844	-3.398900E+01	  0.030420844	8.812500E+01	  0.030420844	-8.943200E+01
54	  0.030621244	-4.570000E+00	  0.030621244	-3.422200E+01	  0.030621244	8.748500E+01	  0.030621244	-8.932700E+01
55	  0.030821644	-4.572000E+00	  0.030821644	-3.444700E+01	  0.030821644	8.687800E+01	  0.030821644	-8.918400E+01
56	  0.031022044	-4.572000E+00	  0.031022044	-3.467200E+01	  0.031022044	8.627400E+01	  0.031022044	-8.906800E+01
57	  0.031222444	-4.560000E+00	  0.031222444	-3.483400E+01	  0.031222444	8.579800E+01	  0.031222444	-8.918800E+01
58	  0.031422846	-4.558000E+00	  0.031422846	-3.506300E+01	  0.031422846	8.518300E+01	  0.031422846	-8.909400E+01
59	  0.031623244	-4.559000E+00	  0.031623244	-3.529900E+01	  0.031623244	8.456400E+01	  0.031623244	-8.894000E+01
60	  0.031823646	-4.563000E+00	  0.031823646	-3.552900E+01	  0.031823646	8.397800E+01	  0.031823646	-8.874600E+01
61	  0.032024048	-4.563000E+00	  0.032024048	-3.575400E+01	  0.032024048	8.339300E+01	  0.032024048	-8.861900E+01
62	  0.032224450	-4.563000E+00	  0.032224450	-3.598300E+01	  0.032224450	8.280800E+01	  0.032224450	-8.846900E+01
63	  0.032424849	-4.564000E+00	  0.032424849	-3.621600E+01	  0.032424849	8.221600E+01	  0.032424849	-8.832200E+01
64	  0.032625251	-4.565000E+00	  0.032625251	-3.643500E+01	  0.032625251	8.166800E+01	  0.032625251	-8.816800E+01
65	  0.032825653	-4.566000E+00	  0.032825653	-3.665900E+01	  0.032825653	8.111300E+01	  0.032825653	-8.800000E+01
66	  0.033026051	-4.567000E+00	  0.033026051	-3.689800E+01	  0.033026051	8.052300E+01	  0.033026051	-8.784000E+01
67	  0.033226453	-4.568000E+00	  0.033226453	-3.712100E+01	  0.033226453	7.997900E+01	  0.033226453	-8.767600E+01
68	  0.033426855	-4.568000E+00	  0.033426855	-3.735400E+01	  0.033426855	7.941100E+01	  0.033426855	-8.752400E+01
69	  0.033627257	-4.569000E+00	  0.033627257	-3.757400E+01	  0.033627257	7.888500E+01	  0.033627257	-8.735400E+01
70	  0.033827655	-4.569000E+00	  0.033827655	-3.781000E+01	  0.033827655	7.831800E+01	  0.033827655	-8.719700E+01
71	  0.034028057	-4.569000E+00	  0.034028057	-3.803200E+01	  0.034028057	7.779500E+01	  0.034028057	-8.702800E+01
72	  0.034228459	-4.569000E+00	  0.034228459	-3.826400E+01	  0.034228459	7.724700E+01	  0.034228459	-8.687200E+01
73	  0.034428857	-4.569000E+00	  0.034428857	-3.848500E+01	  0.034428857	7.673100E+01	  0.034428857	-8.672000E+01
74	  0.034629259	-4.569000E+00	  0.034629259	-3.871000E+01	  0.034629259	7.621200E+01	  0.034629259	-8.654700E+01
75	  0.034829661	-4.571000E+00	  0.034829661	-3.894300E+01	  0.034829661	7.568500E+01	  0.034829661	-8.635300E+01
76	  0.035030060	-4.570000E+00	  0.035030060	-3.916300E+01	  0.035030060	7.518500E+01	  0.035030060	-8.619300E+01
77	  0.035230462	-4.571000E+00	  0.035230462	-3.938500E+01	  0.035230462	7.468600E+01	  0.035230462	-8.601800E+01
78	  0.035430863	-4.572000E+00	  0.035430863	-3.962300E+01	  0.035430863	7.416400E+01	  0.035430863	-8.581700E+01
79	  0.035631265	-4.572000E+00	  0.035631265	-3.984000E+01	  0.035631265	7.367800E+01	  0.035631265	-8.566300E+01
80	  0.035831664	-4.572000E+00	  0.035831664	-4.006800E+01	  0.035831664	7.318000E+01	  0.035831664	-8.548500E+01
81	  0.036032066	-4.572000E+00	  0.036032066	-4.029100E+01	  0.036032066	7.269800E+01	  0.036032066	-8.530300E+01
82	  0.036232468	-4.574000E+00	  0.036232468	-4.051500E+01	  0.036232468	7.222200E+01	  0.036232468	-8.510700E+01
83	  0.036432866	-4.574000E+00	  0.036432866	-4.074600E+01	  0.036432866	7.173200E+01	  0.036432866	-8.491400E+01
84	  0.036633268	-4.573000E+00	  0.036633268	-4.097000E+01	  0.036633268	7.125100E+01	  0.036633268	-8.475200E+01
85	  0.036833670	-4.576000E+00	  0.036833670	-4.118900E+01	  0.036833670	7.080800E+01	  0.036833670	-8.453400E+01
86	  0.037034072	-4.573000E+00	  0.037034072	-4.141600E+01	  0.037034072	7.031900E+01	  0.037034072	-8.439000E+01
87	  0.037234470	-4.575000E+00	  0.037234470	-4.164600E+01	  0.037234470	6.985800E+01	  0.037234470	-8.417200E+01
88	  0.037434869	-4.574000E+00	  0.037434869	-4.186500E+01	  0.037434869	6.940200E+01	  0.037434869	-8.400900E+01
89	  0.037635271	-4.576000E+00	  0.037635271	-4.209800E+01	  0.037635271	6.894100E+01	  0.037635271	-8.379300E+01
90	  0.037835669	-4.575000E+00	  0.037835669	-4.232000E+01	  0.037835669	6.849000E+01	  0.037835669	-8.361800E+01
91	  0.038036071	-4.575000E+00	  0.038036071	-4.253400E+01	  0.038036071	6.806500E+01	  0.038036071	-8.343800E+01
92	  0.038236473	-4.576000E+00	  0.038236473	-4.276200E+01	  0.038236473	6.762300E+01	  0.038236473	-8.322700E+01
93	  0.038436871	-4.576000E+00	  0.038436871	-4.299100E+01	  0.038436871	6.717000E+01	  0.038436871	-8.304300E+01
94	  0.038637273	-4.578000E+00	  0.038637273	-4.319900E+01	  0.038637273	6.677800E+01	  0.038637273	-8.283600E+01
95	  0.038837675	-4.578000E+00	  0.038837675	-4.344000E+01	  0.038837675	6.631800E+01	  0.038837675	-8.262400E+01
96	  0.039038073	-4.578000E+00	  0.039038073	-4.366300E+01	  0.039038073	6.589100E+01	  0.039038073	-8.243600E+01
97	  0.039238475	-4.579000E+00	  0.039238475	-4.388700E+01	  0.039238475	6.547600E+01	  0.039238475	-8.222500E+01
98	  0.039438877	-4.579000E+00	  0.039438877	-4.411100E+01	  0.039438877	6.505600E+01	  0.039438877	-8.203300E+01
99	  0.039639279	-4.579000E+00	  0.039639279	-4.433300E+01	  0.039639279	6.464400E+01	  0.039639279	-8.184000E+01
100	  0.039839678	-4.580000E+00	  0.039839678	-4.456300E+01	  0.039839678	6.422900E+01	  0.039839678	-8.162100E+01
101	  0.040040080	-4.580000E+00	  0.040040080	-4.478400E+01	  0.040040080	6.382200E+01	  0.040040080	-8.143300E+01
102	  0.040240481	-4.581000E+00	  0.040240481	-4.500000E+01	  0.040240481	6.343800E+01	  0.040240481	-8.123000E+01
103	  0.040440880	-4.584000E+00	  0.040440880	-4.523700E+01	  0.040440880	6.303100E+01	  0.040440880	-8.098600E+01
104	  0.040641282	-4.583000E+00	  0.040641282	-4.545900E+01	  0.040641282	6.263100E+01	  0.040641282	-8.080100E+01
105	  0.040841684	-4.583000E+00	  0.040841684	-4.568600E+01	  0.040841684	6.223200E+01	  0.040841684	-8.059900E+01
106	  0.041042086	-4.584000E+00	  0.041042086	-4.591300E+01	  0.041042086	6.184300E+01	  0.041042086	-8.038000E+01
107	  0.041242484	-4.584000E+00	  0.041242484	-4.612300E+01	  0.041242484	6.148100E+01	  0.041242484	-8.019200E+01
108	  0.041442886	-4.586000E+00	  0.041442886	-4.636100E+01	  0.041442886	6.108700E+01	  0.041442886	-7.995100E+01
109	  0.041643288	-4.585000E+00	  0.041643288	-4.657700E+01	  0.041643288	6.071200E+01	  0.041643288	-7.977200E+01
110	  0.041843686	-4.586000E+00	  0.041843686	-4.680900E+01	  0.041843686	6.033100E+01	  0.041843686	-7.954600E+01
111	  0.042044088	-4.587000E+00	  0.042044088	-4.703800E+01	  0.042044088	5.995200E+01	  0.042044088	-7.933300E+01
112	  0.042244490	-4.589000E+00	  0.042244490	-4.726000E+01	  0.042244490	5.959700E+01	  0.042244490	-7.910900E+01
113	  0.042444889	-4.591000E+00	  0.042444889	-4.748800E+01	  0.042444889	5.923400E+01	  0.042444889	-7.888100E+01
114	  0.042645290	-4.588000E+00	  0.042645290	-4.771700E+01	  0.042645290	5.884400E+01	  0.042645290	-7.870400E+01
115	  0.042845692	-4.590000E+00	  0.042845692	-4.794900E+01	  0.042845692	5.848400E+01	  0.042845692	-7.847000E+01
116	  0.043046094	-4.590000E+00	  0.043046094	-4.816100E+01	  0.043046094	5.815000E+01	  0.043046094	-7.826900E+01
117	  0.043246493	-4.591000E+00	  0.043246493	-4.838600E+01	  0.043246493	5.779400E+01	  0.043246493	-7.806200E+01
118	  0.043446895	-4.594000E+00	  0.043446895	-4.862800E+01	  0.043446895	5.743400E+01	  0.043446895	-7.780800E+01
119	  0.043647297	-4.593000E+00	  0.043647297	-4.885900E+01	  0.043647297	5.706800E+01	  0.043647297	-7.760800E+01
120	  0.043847695	-4.594000E+00	  0.043847695	-4.907700E+01	  0.043847695	5.674300E+01	  0.043847695	-7.738800E+01
121	  0.044048097	-4.594000E+00	  0.044048097	-4.930400E+01	  0.044048097	5.639700E+01	  0.044048097	-7.717900E+01
122	  0.044248499	-4.595000E+00	  0.044248499	-4.953500E+01	  0.044248499	5.605000E+01	  0.044248499	-7.696500E+01
123	  0.044448901	-4.596000E+00	  0.044448901	-4.975200E+01	  0.044448901	5.573000E+01	  0.044448901	-7.675300E+01
124	  0.044649299	-4.597000E+00	  0.044649299	-4.999600E+01	  0.044649299	5.537700E+01	  0.044649299	-7.651400E+01
125	  0.044849701	-4.598000E+00	  0.044849701	-5.022100E+01	  0.044849701	5.504900E+01	  0.044849701	-7.629800E+01
126	  0.045050103	-4.599000E+00	  0.045050103	-5.044400E+01	  0.045050103	5.473200E+01	  0.045050103	-7.608000E+01
127	  0.045250501	-4.602000E+00	  0.045250501	-5.068000E+01	  0.045250501	5.440700E+01	  0.045250501	-7.584000E+01
128	  0.045450903	-4.602000E+00	  0.045450903	-5.090000E+01	  0.045450903	5.409000E+01	  0.045450903	-7.563500E+01
129	  0.045651305	-4.603000E+00	  0.045651305	-5.111700E+01	  0.045651305	5.378700E+01	  0.045651305	-7.542700E+01
130	  0.045851704	-4.602000E+00	  0.045851704	-5.136000E+01	  0.045851704	5.344400E+01	  0.045851704	-7.520300E+01
131	  0.046052106	-4.601000E+00	  0.046052106	-5.159200E+01	  0.046052106	5.311300E+01	  0.046052106	-7.499900E+01
132	  0.046252504	-4.602000E+00	  0.046252504	-5.182400E+01	  0.046252504	5.279900E+01	  0.046252504	-7.477400E+01
133	  0.046452906	-4.603000E+00	  0.046452906	-5.205100E+01	  0.046452906	5.249100E+01	  0.046452906	-7.455800E+01
134	  0.046653304	-4.605000E+00	  0.046653304	-5.228900E+01	  0.046653304	5.217800E+01	  0.046653304	-7.432100E+01
135	  0.046853706	-4.605000E+00	  0.046853706	-5.251800E+01	  0.046853706	5.187300E+01	  0.046853706	-7.410500E+01
136	  0.047054108	-4.606000E+00	  0.047054108	-5.273800E+01	  0.047054108	5.158100E+01	  0.047054108	-7.389800E+01
137	  0.047254506	-4.608000E+00	  0.047254506	-5.297700E+01	  0.047254506	5.127700E+01	  0.047254506	-7.366000E+01
138	  0.047454908	-4.608000E+00	  0.047454908	-5.320800E+01	  0.047454908	5.097500E+01	  0.047454908	-7.344500E+01
139	  0.047655310	-4.609000E+00	  0.047655310	-5.343100E+01	  0.047655310	5.069300E+01	  0.047655310	-7.322800E+01
140	  0.047855709	-4.609000E+00	  0.047855709	-5.366100E+01	  0.047855709	5.039600E+01	  0.047855709	-7.301400E+01
141	  0.048056111	-4.610000E+00	  0.048056111	-5.389300E+01	  0.048056111	5.010400E+01	  0.048056111	-7.279400E+01
142	  0.048256513	-4.610000E+00	  0.048256513	-5.412000E+01	  0.048256513	4.981600E+01	  0.048256513	-7.258600E+01
143	  0.048456915	-4.613000E+00	  0.048456915	-5.435000E+01	  0.048456915	4.954200E+01	  0.048456915	-7.235200E+01
144	  0.048657313	-4.613000E+00	  0.048657313	-5.458100E+01	  0.048657313	4.925400E+01	  0.048657313	-7.214000E+01
145	  0.048857715	-4.613000E+00	  0.048857715	-5.480200E+01	  0.048857715	4.898400E+01	  0.048857715	-7.193300E+01
146	  0.049058117	-4.615000E+00	  0.049058117	-5.503800E+01	  0.049058117	4.870900E+01	  0.049058117	-7.169700E+01
147	  0.049258515	-4.613000E+00	  0.049258515	-5.527400E+01	  0.049258515	4.840900E+01	  0.049258515	-7.149600E+01
148	  0.049458917	-4.616000E+00	  0.049458917	-5.549600E+01	  0.049458917	4.815800E+01	  0.049458917	-7.127300E+01
149	  0.049659319	-4.617000E+00	  0.049659319	-5.572000E+01	  0.049659319	4.789800E+01	  0.049659319	-7.105900E+01
150	  0.049859721	-4.616000E+00	  0.049859721	-5.595000E+01	  0.049859721	4.762300E+01	  0.049859721	-7.085000E+01
151	  0.050060119	-4.619000E+00	  0.050060119	-5.618400E+01	  0.050060119	4.736200E+01	  0.050060119	-7.061900E+01
152	  0.050260521	-4.620000E+00	  0.050260521	-5.641500E+01	  0.050260521	4.710000E+01	  0.050260521	-7.040100E+01
153	  0.050460923	-4.618000E+00	  0.050460923	-5.664400E+01	  0.050460923	4.682400E+01	  0.050460923	-7.020600E+01
154	  0.050661322	-4.621000E+00	  0.050661322	-5.686700E+01	  0.050661322	4.659200E+01	  0.050661322	-6.997400E+01
155	  0.050861724	-4.621000E+00	  0.050861724	-5.709200E+01	  0.050861724	4.633700E+01	  0.050861724	-6.976800E+01
156	  0.051062126	-4.623000E+00	  0.051062126	-5.733300E+01	  0.051062126	4.607500E+01	  0.051062126	-6.953900E+01
157	  0.051262524	-4.623000E+00	  0.051262524	-5.755400E+01	  0.051262524	4.582700E+01	  0.051262524	-6.933900E+01
158	  0.051462926	-4.623000E+00	  0.051462926	-5.778000E+01	  0.051462926	4.557900E+01	  0.051462926	-6.913200E+01
159	  0.051663328	-4.625000E+00	  0.051663328	-5.800200E+01	  0.051663328	4.534900E+01	  0.051663328	-6.891400E+01
160	  0.051863730	-4.625000E+00	  0.051863730	-5.824500E+01	  0.051863730	4.508200E+01	  0.051863730	-6.869800E+01
161	  0.052064128	-4.625000E+00	  0.052064128	-5.847500E+01	  0.052064128	4.483600E+01	  0.052064128	-6.848800E+01
162	  0.052264530	-4.626000E+00	  0.052264530	-5.868800E+01	  0.052264530	4.461400E+01	  0.052264530	-6.829000E+01
163	  0.052464932	-4.627000E+00	  0.052464932	-5.892200E+01	  0.052464932	4.437400E+01	  0.052464932	-6.806900E+01
164	  0.052665330	-4.628000E+00	  0.052665330	-5.915800E+01	  0.052665330	4.413000E+01	  0.052665330	-6.785300E+01
165	  0.052865732	-4.629000E+00	  0.052865732	-5.938300E+01	  0.052865732	4.390200E+01	  0.052865732	-6.764300E+01
166	  0.053066134	-4.629000E+00	  0.053066134	-5.961300E+01	  0.053066134	4.366800E+01	  0.053066134	-6.743200E+01
167	  0.053266536	-4.630000E+00	  0.053266536	-5.983500E+01	  0.053266536	4.344500E+01	  0.053266536	-6.722800E+01
168	  0.053466935	-4.630000E+00	  0.053466935	-6.006700E+01	  0.053466935	4.321000E+01	  0.053466935	-6.702000E+01
169	  0.053667337	-4.631000E+00	  0.053667337	-6.028700E+01	  0.053667337	4.299200E+01	  0.053667337	-6.681900E+01
170	  0.053867739	-4.632000E+00	  0.053867739	-6.053100E+01	  0.053867739	4.275400E+01	  0.053867739	-6.659500E+01
171	  0.054068137	-4.632000E+00	  0.054068137	-6.073800E+01	  0.054068137	4.255000E+01	  0.054068137	-6.641000E+01
172	  0.054268539	-4.635000E+00	  0.054268539	-6.095900E+01	  0.054268539	4.235200E+01	  0.054268539	-6.619100E+01
173	  0.054468941	-4.633000E+00	  0.054468941	-6.121300E+01	  0.054468941	4.209000E+01	  0.054468941	-6.598200E+01
174	  0.054669339	-4.636000E+00	  0.054669339	-6.143400E+01	  0.054669339	4.189600E+01	  0.054669339	-6.576700E+01
175	  0.054869737	-4.635000E+00	  0.054869737	-6.164600E+01	  0.054869737	4.168700E+01	  0.054869737	-6.558400E+01
176	  0.055070139	-4.635000E+00	  0.055070139	-6.188000E+01	  0.055070139	4.146700E+01	  0.055070139	-6.537700E+01
177	  0.055270538	-4.637000E+00	  0.055270538	-6.210600E+01	  0.055270538	4.126100E+01	  0.055270538	-6.517000E+01
178	  0.055470940	-4.637000E+00	  0.055470940	-6.234000E+01	  0.055470940	4.104300E+01	  0.055470940	-6.496300E+01
179	  0.055671342	-4.638000E+00	  0.055671342	-6.257000E+01	  0.055671342	4.083500E+01	  0.055671342	-6.475500E+01
180	  0.055871744	-4.640000E+00	  0.055871744	-6.279700E+01	  0.055871744	4.064000E+01	  0.055871744	-6.454200E+01
181	  0.056072142	-4.642000E+00	  0.056072142	-6.302400E+01	  0.056072142	4.044300E+01	  0.056072142	-6.433400E+01
182	  0.056272544	-4.639000E+00	  0.056272544	-6.325000E+01	  0.056272544	4.022300E+01	  0.056272544	-6.415300E+01
183	  0.056472946	-4.641000E+00	  0.056472946	-6.347900E+01	  0.056472946	4.003100E+01	  0.056472946	-6.394000E+01
184	  0.056673344	-4.644000E+00	  0.056673344	-6.371000E+01	  0.056673344	3.983900E+01	  0.056673344	-6.372400E+01
185	  0.056873746	-4.645000E+00	  0.056873746	-6.392300E+01	  0.056873746	3.965600E+01	  0.056873746	-6.353500E+01
186	  0.057074148	-4.645000E+00	  0.057074148	-6.416600E+01	  0.057074148	3.944400E+01	  0.057074148	-6.332300E+01
187	  0.057274550	-4.645000E+00	  0.057274550	-6.439700E+01	  0.057274550	3.924600E+01	  0.057274550	-6.312200E+01
188	  0.057474948	-4.648000E+00	  0.057474948	-6.461800E+01	  0.057474948	3.907100E+01	  0.057474948	-6.291500E+01
189	  0.057675350	-4.649000E+00	  0.057675350	-6.485000E+01	  0.057675350	3.888000E+01	  0.057675350	-6.270800E+01
190	  0.057875752	-4.649000E+00	  0.057875752	-6.508000E+01	  0.057875752	3.868300E+01	  0.057875752	-6.251300E+01
191	  0.058076151	-4.651000E+00	  0.058076151	-6.531500E+01	  0.058076151	3.849800E+01	  0.058076151	-6.229900E+01
192	  0.058276553	-4.650000E+00	  0.058276553	-6.553800E+01	  0.058276553	3.830600E+01	  0.058276553	-6.211500E+01
193	  0.058476955	-4.652000E+00	  0.058476955	-6.577100E+01	  0.058476955	3.812600E+01	  0.058476955	-6.190500E+01
194	  0.058677353	-4.654000E+00	  0.058677353	-6.599800E+01	  0.058677353	3.794900E+01	  0.058677353	-6.170200E+01
195	  0.058877755	-4.655000E+00	  0.058877755	-6.623800E+01	  0.058877755	3.775900E+01	  0.058877755	-6.149300E+01
196	  0.059078157	-4.654000E+00	  0.059078157	-6.646400E+01	  0.059078157	3.757000E+01	  0.059078157	-6.130700E+01
197	  0.059278559	-4.656000E+00	  0.059278559	-6.669600E+01	  0.059278559	3.740000E+01	  0.059278559	-6.109800E+01
198	  0.059478957	-4.659000E+00	  0.059478957	-6.693400E+01	  0.059478957	3.722300E+01	  0.059478957	-6.088400E+01
199	  0.059679359	-4.658000E+00	  0.059679359	-6.715300E+01	  0.059679359	3.704800E+01	  0.059679359	-6.070300E+01
200	  0.059879761	-4.660000E+00	  0.059879761	-6.738300E+01	  0.059879761	3.687800E+01	  0.059879761	-6.050100E+01
201	  0.060080159	-4.658000E+00	  0.060080159	-6.762600E+01	  0.060080159	3.668100E+01	  0.060080159	-6.030500E+01
202	  0.060280561	-4.660000E+00	  0.060280561	-6.784500E+01	  0.060280561	3.652300E+01	  0.060280561	-6.011300E+01
203	  0.060480963	-4.661000E+00	  0.060480963	-6.807400E+01	  0.060480963	3.635000E+01	  0.060480963	-5.992100E+01
204	  0.060681365	-4.660000E+00	  0.060681365	-6.830900E+01	  0.060681365	3.616900E+01	  0.060681365	-5.972900E+01
205	  0.060881764	-4.664000E+00	  0.060881764	-6.854500E+01	  0.060881764	3.601300E+01	  0.060881764	-5.951300E+01
206	  0.061082166	-4.661000E+00	  0.061082166	-6.877800E+01	  0.061082166	3.582100E+01	  0.061082166	-5.933700E+01
207	  0.061282568	-4.664000E+00	  0.061282568	-6.900600E+01	  0.061282568	3.566900E+01	  0.061282568	-5.913400E+01
208	  0.061482966	-4.664000E+00	  0.061482966	-6.924900E+01	  0.061482966	3.549500E+01	  0.061482966	-5.893000E+01
209	  0.061683368	-4.666000E+00	  0.061683368	-6.947200E+01	  0.061683368	3.534200E+01	  0.061683368	-5.873900E+01
210	  0.061883770	-4.667000E+00	  0.061883770	-6.969100E+01	  0.061883770	3.519200E+01	  0.061883770	-5.855300E+01
211	  0.062084168	-4.668000E+00	  0.062084168	-6.991300E+01	  0.062084168	3.503400E+01	  0.062084168	-5.837000E+01
212	  0.062284570	-4.670000E+00	  0.062284570	-7.015800E+01	  0.062284570	3.487400E+01	  0.062284570	-5.815800E+01
213	  0.062484972	-4.656000E+00	  0.062484972	-7.031200E+01	  0.062484972	3.468700E+01	  0.062484972	-5.809900E+01
214	  0.062685370	-4.660000E+00	  0.062685370	-7.054200E+01	  0.062685370	3.455000E+01	  0.062685370	-5.789100E+01
215	  0.062885776	-4.658000E+00	  0.062885776	-7.076100E+01	  0.062885776	3.438300E+01	  0.062885776	-5.772600E+01
216	  0.063086174	-4.662000E+00	  0.063086174	-7.098700E+01	  0.063086174	3.425000E+01	  0.063086174	-5.752300E+01
217	  0.063286573	-4.662000E+00	  0.063286573	-7.122900E+01	  0.063286573	3.408400E+01	  0.063286573	-5.732800E+01
218	  0.063486971	-4.665000E+00	  0.063486971	-7.145300E+01	  0.063486971	3.394600E+01	  0.063486971	-5.713500E+01
219	  0.063687377	-4.659000E+00	  0.063687377	-7.166900E+01	  0.063687377	3.377300E+01	  0.063687377	-5.698500E+01
220	  0.063887775	-4.662000E+00	  0.063887775	-7.191500E+01	  0.063887775	3.362200E+01	  0.063887775	-5.677600E+01
221	  0.064088173	-4.662000E+00	  0.064088173	-7.216000E+01	  0.064088173	3.345900E+01	  0.064088173	-5.658100E+01
222	  0.064288579	-4.659000E+00	  0.064288579	-7.237700E+01	  0.064288579	3.330300E+01	  0.064288579	-5.641700E+01
223	  0.064488977	-4.662000E+00	  0.064488977	-7.258900E+01	  0.064488977	3.317900E+01	  0.064488977	-5.623600E+01
224	  0.064689375	-4.663000E+00	  0.064689375	-7.281800E+01	  0.064689375	3.303700E+01	  0.064689375	-5.605000E+01
225	  0.064889781	-4.662000E+00	  0.064889781	-7.305600E+01	  0.064889781	3.287500E+01	  0.064889781	-5.586700E+01
226	  0.065090179	-4.664000E+00	  0.065090179	-7.329800E+01	  0.065090179	3.273200E+01	  0.065090179	-5.566700E+01
227	  0.065290578	-4.668000E+00	  0.065290578	-7.353100E+01	  0.065290578	3.260300E+01	  0.065290578	-5.546800E+01
228	  0.065490983	-4.668000E+00	  0.065490983	-7.375000E+01	  0.065490983	3.246700E+01	  0.065490983	-5.529400E+01
229	  0.065691382	-4.668000E+00	  0.065691382	-7.399100E+01	  0.065691382	3.231500E+01	  0.065691382	-5.510600E+01
230	  0.065891780	-4.669000E+00	  0.065891780	-7.423900E+01	  0.065891780	3.216900E+01	  0.065891780	-5.490700E+01
231	  0.066092186	-4.669000E+00	  0.066092186	-7.446700E+01	  0.066092186	3.202600E+01	  0.066092186	-5.473000E+01
232	  0.066292584	-4.670000E+00	  0.066292584	-7.468500E+01	  0.066292584	3.190400E+01	  0.066292584	-5.455300E+01
233	  0.066492982	-4.672000E+00	  0.066492982	-7.492300E+01	  0.066492982	3.176600E+01	  0.066492982	-5.436200E+01
234	  0.066693388	-4.670000E+00	  0.066693388	-7.514100E+01	  0.066693388	3.162700E+01	  0.066693388	-5.419900E+01
235	  0.066893786	-4.669000E+00	  0.066893786	-7.539000E+01	  0.066893786	3.147300E+01	  0.066893786	-5.401100E+01
236	  0.067094192	-4.671000E+00	  0.067094192	-7.562400E+01	  0.067094192	3.134300E+01	  0.067094192	-5.382500E+01
237	  0.067294590	-4.673000E+00	  0.067294590	-7.582800E+01	  0.067294590	3.123300E+01	  0.067294590	-5.365900E+01
238	  0.067494988	-4.672000E+00	  0.067494988	-7.606000E+01	  0.067494988	3.109500E+01	  0.067494988	-5.348400E+01
239	  0.067695394	-4.675000E+00	  0.067695394	-7.630300E+01	  0.067695394	3.096700E+01	  0.067695394	-5.328800E+01
240	  0.067895792	-4.674000E+00	  0.067895792	-7.655500E+01	  0.067895792	3.082000E+01	  0.067895792	-5.309800E+01
241	  0.068096191	-4.676000E+00	  0.068096191	-7.675300E+01	  0.068096191	3.071500E+01	  0.068096191	-5.294100E+01
242	  0.068296596	-4.676000E+00	  0.068296596	-7.700900E+01	  0.068296596	3.057500E+01	  0.068296596	-5.274300E+01
243	  0.068496995	-4.678000E+00	  0.068496995	-7.721700E+01	  0.068496995	3.046600E+01	  0.068496995	-5.258000E+01
244	  0.068697393	-4.676000E+00	  0.068697393	-7.745900E+01	  0.068697393	3.032200E+01	  0.068697393	-5.240300E+01
245	  0.068897791	-4.678000E+00	  0.068897791	-7.769900E+01	  0.068897791	3.019900E+01	  0.068897791	-5.221500E+01
246	  0.069098189	-4.677000E+00	  0.069098189	-7.790800E+01	  0.069098189	3.008000E+01	  0.069098189	-5.206100E+01
247	  0.069298595	-4.681000E+00	  0.069298595	-7.815600E+01	  0.069298595	2.996200E+01	  0.069298595	-5.186300E+01
248	  0.069498993	-4.680000E+00	  0.069498993	-7.837500E+01	  0.069498993	2.984100E+01	  0.069498993	-5.170100E+01
249	  0.069699399	-4.684000E+00	  0.069699399	-7.861800E+01	  0.069699399	2.972700E+01	  0.069699399	-5.150800E+01
250	  0.069899797	-4.683000E+00	  0.069899797	-7.884700E+01	  0.069899797	2.960100E+01	  0.069899797	-5.134100E+01
251	  0.070100196	-4.683000E+00	  0.070100196	-7.905600E+01	  0.070100196	2.949300E+01	  0.070100196	-5.118400E+01
252	  0.070300601	-4.685000E+00	  0.070300601	-7.929600E+01	  0.070300601	2.937500E+01	  0.070300601	-5.100000E+01
253	  0.070501000	-4.687000E+00	  0.070501000	-7.953600E+01	  0.070501000	2.925900E+01	  0.070501000	-5.081600E+01
254	  0.070701398	-4.686000E+00	  0.070701398	-7.977300E+01	  0.070701398	2.913300E+01	  0.070701398	-5.064400E+01
255	  0.070901804	-4.688000E+00	  0.070901804	-7.999900E+01	  0.070901804	2.902500E+01	  0.070901804	-5.047200E+01
256	  0.071102202	-4.689000E+00	  0.071102202	-8.023700E+01	  0.071102202	2.891100E+01	  0.071102202	-5.029400E+01
257	  0.071302600	-4.689000E+00	  0.071302600	-8.046100E+01	  0.071302600	2.879800E+01	  0.071302600	-5.013000E+01
258	  0.071503006	-4.689000E+00	  0.071503006	-8.070000E+01	  0.071503006	2.867900E+01	  0.071503006	-4.995400E+01
259	  0.071703404	-4.691000E+00	  0.071703404	-8.093000E+01	  0.071703404	2.857500E+01	  0.071703404	-4.978000E+01
260	  0.071903802	-4.691000E+00	  0.071903802	-8.116600E+01	  0.071903802	2.845500E+01	  0.071903802	-4.961100E+01
261	  0.072104208	-4.692000E+00	  0.072104208	-8.137400E+01	  0.072104208	2.835800E+01	  0.072104208	-4.945700E+01
262	  0.072304606	-4.693000E+00	  0.072304606	-8.160900E+01	  0.072304606	2.824900E+01	  0.072304606	-4.928300E+01
263	  0.072505005	-4.693000E+00	  0.072505005	-8.183700E+01	  0.072505005	2.813700E+01	  0.072505005	-4.912000E+01
264	  0.072705410	-4.694000E+00	  0.072705410	-8.207900E+01	  0.072705410	2.802600E+01	  0.072705410	-4.894300E+01
265	  0.072905809	-4.697000E+00	  0.072905809	-8.229500E+01	  0.072905809	2.793700E+01	  0.072905809	-4.877900E+01
266	  0.073106214	-4.697000E+00	  0.073106214	-8.253600E+01	  0.073106214	2.782200E+01	  0.073106214	-4.860600E+01
267	  0.073306613	-4.695000E+00	  0.073306613	-8.278300E+01	  0.073306613	2.769700E+01	  0.073306613	-4.843600E+01
268	  0.073507011	-4.697000E+00	  0.073507011	-8.300300E+01	  0.073507011	2.760400E+01	  0.073507011	-4.827400E+01
269	  0.073707417	-4.698000E+00	  0.073707417	-8.323600E+01	  0.073707417	2.750200E+01	  0.073707417	-4.810500E+01
270	  0.073907815	-4.698000E+00	  0.073907815	-8.346200E+01	  0.073907815	2.739800E+01	  0.073907815	-4.794500E+01
271	  0.074108213	-4.698000E+00	  0.074108213	-8.371400E+01	  0.074108213	2.728200E+01	  0.074108213	-4.776800E+01
272	  0.074308619	-4.700000E+00	  0.074308619	-8.393600E+01	  0.074308619	2.719200E+01	  0.074308619	-4.760400E+01
273	  0.074509017	-4.702000E+00	  0.074509017	-8.414800E+01	  0.074509017	2.710200E+01	  0.074509017	-4.745300E+01
274	  0.074709415	-4.701000E+00	  0.074709415	-8.439000E+01	  0.074709415	2.699200E+01	  0.074709415	-4.728400E+01
275	  0.074909821	-4.701000E+00	  0.074909821	-8.461600E+01	  0.074909821	2.689200E+01	  0.074909821	-4.712500E+01
276	  0.075110219	-4.707000E+00	  0.075110219	-8.485900E+01	  0.075110219	2.681100E+01	  0.075110219	-4.694100E+01
277	  0.075310618	-4.702000E+00	  0.075310618	-8.507500E+01	  0.075310618	2.669400E+01	  0.075310618	-4.680400E+01
278	  0.075511023	-4.705000E+00	  0.075511023	-8.533200E+01	  0.075511023	2.659500E+01	  0.075511023	-4.661800E+01
279	  0.075711422	-4.704000E+00	  0.075711422	-8.556400E+01	  0.075711422	2.649100E+01	  0.075711422	-4.646100E+01
280	  0.075911827	-4.704000E+00	  0.075911827	-8.579300E+01	  0.075911827	2.639300E+01	  0.075911827	-4.630200E+01
281	  0.076112226	-4.706000E+00	  0.076112226	-8.600600E+01	  0.076112226	2.631400E+01	  0.076112226	-4.614900E+01
282	  0.076312624	-4.706000E+00	  0.076312624	-8.624100E+01	  0.076312624	2.621300E+01	  0.076312624	-4.598900E+01
283	  0.076513030	-4.707000E+00	  0.076513030	-8.648000E+01	  0.076513030	2.611800E+01	  0.076513030	-4.582100E+01
284	  0.076713428	-4.711000E+00	  0.076713428	-8.670500E+01	  0.076713428	2.604000E+01	  0.076713428	-4.565900E+01
285	  0.076913826	-4.708000E+00	  0.076913826	-8.694600E+01	  0.076913826	2.592800E+01	  0.076913826	-4.550100E+01
286	  0.077114232	-4.708000E+00	  0.077114232	-8.715800E+01	  0.077114232	2.583900E+01	  0.077114232	-4.535900E+01
287	  0.077314630	-4.708000E+00	  0.077314630	-8.740400E+01	  0.077314630	2.573900E+01	  0.077314630	-4.519100E+01
288	  0.077515028	-4.710000E+00	  0.077515028	-8.762600E+01	  0.077515028	2.566000E+01	  0.077515028	-4.503600E+01
289	  0.077715434	-4.710000E+00	  0.077715434	-8.784900E+01	  0.077715434	2.557000E+01	  0.077715434	-4.488500E+01
290	  0.077915832	-4.711000E+00	  0.077915832	-8.810600E+01	  0.077915832	2.547000E+01	  0.077915832	-4.471000E+01
291	  0.078116231	-4.712000E+00	  0.078116231	-8.833000E+01	  0.078116231	2.538900E+01	  0.078116231	-4.455500E+01
292	  0.078316636	-4.711000E+00	  0.078316636	-8.855300E+01	  0.078316636	2.529700E+01	  0.078316636	-4.440900E+01
293	  0.078517035	-4.712000E+00	  0.078517035	-8.878300E+01	  0.078517035	2.521000E+01	  0.078517035	-4.425300E+01
294	  0.078717433	-4.714000E+00	  0.078717433	-8.901300E+01	  0.078717433	2.512800E+01	  0.078717433	-4.409600E+01
295	  0.078917839	-4.713000E+00	  0.078917839	-8.925700E+01	  0.078917839	2.503000E+01	  0.078917839	-4.393600E+01
296	  0.079118237	-4.713000E+00	  0.079118237	-8.949300E+01	  0.079118237	2.494200E+01	  0.079118237	-4.377800E+01
297	  0.079318643	-4.715000E+00	  0.079318643	-8.972700E+01	  0.079318643	2.486300E+01	  0.079318643	-4.361800E+01
298	  0.079519041	-4.716000E+00	  0.079519041	-8.994800E+01	  0.079519041	2.478200E+01	  0.079519041	-4.347100E+01
299	  0.079719439	-4.717000E+00	  0.079719439	-9.017900E+01	  0.079719439	2.469800E+01	  0.079719439	-4.331700E+01
300	  0.079919845	-4.719000E+00	  0.079919845	-9.039500E+01	  0.079919845	2.462800E+01	  0.079919845	-4.316900E+01
301	  0.080120243	-4.717000E+00	  0.080120243	-9.066200E+01	  0.080120243	2.452200E+01	  0.080120243	-4.299900E+01
302	  0.080320641	-4.716000E+00	  0.080320641	-9.086700E+01	  0.080320641	2.443900E+01	  0.080320641	-4.286900E+01
303	  0.080521047	-4.717000E+00	  0.080521047	-9.108700E+01	  0.080521047	2.436600E+01	  0.080521047	-4.272200E+01
304	  0.080721445	-4.719000E+00	  0.080721445	-9.133500E+01	  0.080721445	2.428400E+01	  0.080721445	-4.255600E+01
305	  0.080921844	-4.720000E+00	  0.080921844	-9.157800E+01	  0.080921844	2.420300E+01	  0.080921844	-4.239500E+01
306	  0.081122249	-4.721000E+00	  0.081122249	-9.179300E+01	  0.081122249	2.412900E+01	  0.081122249	-4.225400E+01
307	  0.081322648	-4.722000E+00	  0.081322648	-9.203100E+01	  0.081322648	2.404700E+01	  0.081322648	-4.209900E+01
308	  0.081523046	-4.722000E+00	  0.081523046	-9.225300E+01	  0.081523046	2.396800E+01	  0.081523046	-4.195600E+01
309	  0.081723452	-4.721000E+00	  0.081723452	-9.249100E+01	  0.081723452	2.388300E+01	  0.081723452	-4.180500E+01
310	  0.081923850	-4.723000E+00	  0.081923850	-9.273600E+01	  0.081923850	2.380700E+01	  0.081923850	-4.164300E+01
311	  0.082124248	-4.724000E+00	  0.082124248	-9.296700E+01	  0.082124248	2.372900E+01	  0.082124248	-4.149400E+01
312	  0.082324654	-4.721000E+00	  0.082324654	-9.319500E+01	  0.082324654	2.363900E+01	  0.082324654	-4.135500E+01
313	  0.082525052	-4.724000E+00	  0.082525052	-9.342500E+01	  0.082525052	2.357500E+01	  0.082525052	-4.120100E+01
314	  0.082725458	-4.724000E+00	  0.082725458	-9.364800E+01	  0.082725458	2.349900E+01	  0.082725458	-4.106000E+01
315	  0.082925856	-4.725000E+00	  0.082925856	-9.387200E+01	  0.082925856	2.342600E+01	  0.082925856	-4.091600E+01
316	  0.083126254	-4.728000E+00	  0.083126254	-9.410600E+01	  0.083126254	2.336200E+01	  0.083126254	-4.076200E+01
317	  0.083326660	-4.727000E+00	  0.083326660	-9.434200E+01	  0.083326660	2.328100E+01	  0.083326660	-4.061500E+01
318	  0.083527058	-4.727000E+00	  0.083527058	-9.456600E+01	  0.083527058	2.320500E+01	  0.083527058	-4.047500E+01
319	  0.083727457	-4.730000E+00	  0.083727457	-9.479900E+01	  0.083727457	2.314200E+01	  0.083727457	-4.032100E+01
320	  0.083927862	-4.731000E+00	  0.083927862	-9.503500E+01	  0.083927862	2.306900E+01	  0.083927862	-4.017200E+01
321	  0.084128261	-4.733000E+00	  0.084128261	-9.525600E+01	  0.084128261	2.300500E+01	  0.084128261	-4.003000E+01
322	  0.084328659	-4.731000E+00	  0.084328659	-9.551000E+01	  0.084328659	2.291800E+01	  0.084328659	-3.987500E+01
323	  0.084529065	-4.735000E+00	  0.084529065	-9.573600E+01	  0.084529065	2.286000E+01	  0.084529065	-3.972700E+01
324	  0.084729463	-4.735000E+00	  0.084729463	-9.596300E+01	  0.084729463	2.279200E+01	  0.084729463	-3.958500E+01
325	  0.084929861	-4.733000E+00	  0.084929861	-9.619600E+01	  0.084929861	2.271000E+01	  0.084929861	-3.944500E+01
326	  0.085130267	-4.736000E+00	  0.085130267	-9.641900E+01	  0.085130267	2.265400E+01	  0.085130267	-3.930100E+01
327	  0.085330658	-4.737000E+00	  0.085330658	-9.666100E+01	  0.085330658	2.258100E+01	  0.085330658	-3.915100E+01
328	  0.085531056	-4.737000E+00	  0.085531056	-9.689000E+01	  0.085531056	2.250900E+01	  0.085531056	-3.901100E+01
329	  0.085731462	-4.739000E+00	  0.085731462	-9.711900E+01	  0.085731462	2.244700E+01	  0.085731462	-3.886700E+01
330	  0.085931860	-4.740000E+00	  0.085931860	-9.734100E+01	  0.085931860	2.238500E+01	  0.085931860	-3.872800E+01
331	  0.086132258	-4.742000E+00	  0.086132258	-9.758800E+01	  0.086132258	2.232000E+01	  0.086132258	-3.857300E+01
332	  0.086332664	-4.741000E+00	  0.086332664	-9.782800E+01	  0.086332664	2.224300E+01	  0.086332664	-3.843000E+01
333	  0.086533062	-4.742000E+00	  0.086533062	-9.805300E+01	  0.086533062	2.217800E+01	  0.086533062	-3.829200E+01
334	  0.086733460	-4.746000E+00	  0.086733460	-9.828000E+01	  0.086733460	2.213000E+01	  0.086733460	-3.814500E+01
335	  0.086933866	-4.747000E+00	  0.086933866	-9.852400E+01	  0.086933866	2.206100E+01	  0.086933866	-3.799600E+01
336	  0.087134264	-4.748000E+00	  0.087134264	-9.874700E+01	  0.087134264	2.200100E+01	  0.087134264	-3.786000E+01
337	  0.087334670	-4.748000E+00	  0.087334670	-9.899300E+01	  0.087334670	2.192700E+01	  0.087334670	-3.771300E+01
338	  0.087535068	-4.748000E+00	  0.087535068	-9.920000E+01	  0.087535068	2.186900E+01	  0.087535068	-3.758800E+01
339	  0.087735467	-4.749000E+00	  0.087735467	-9.944500E+01	  0.087735467	2.180500E+01	  0.087735467	-3.743800E+01
340	  0.087935872	-4.753000E+00	  0.087935872	-9.968000E+01	  0.087935872	2.175100E+01	  0.087935872	-3.729200E+01
341	  0.088136271	-4.752000E+00	  0.088136271	-9.991100E+01	  0.088136271	2.168300E+01	  0.088136271	-3.715600E+01
342	  0.088336669	-4.754000E+00	  0.088336669	-1.001250E+02	  0.088336669	2.163200E+01	  0.088336669	-3.702400E+01
343	  0.088537075	-4.756000E+00	  0.088537075	-1.003540E+02	  0.088537075	2.157400E+01	  0.088537075	-3.688600E+01
344	  0.088737473	-4.759000E+00	  0.088737473	-1.005930E+02	  0.088737473	2.152000E+01	  0.088737473	-3.673900E+01
345	  0.088937871	-4.760000E+00	  0.088937871	-1.008280E+02	  0.088937871	2.145800E+01	  0.088937871	-3.659900E+01
346	  0.089138277	-4.760000E+00	  0.089138277	-1.010520E+02	  0.089138277	2.139900E+01	  0.089138277	-3.646600E+01
347	  0.089338675	-4.763000E+00	  0.089338675	-1.012920E+02	  0.089338675	2.134300E+01	  0.089338675	-3.632000E+01
348	  0.089539073	-4.764000E+00	  0.089539073	-1.015260E+02	  0.089539073	2.128600E+01	  0.089539073	-3.618000E+01
349	  0.089739479	-4.765000E+00	  0.089739479	-1.017650E+02	  0.089739479	2.122600E+01	  0.089739479	-3.603800E+01
350	  0.089939877	-4.766000E+00	  0.089939877	-1.019950E+02	  0.089939877	2.116800E+01	  0.089939877	-3.590200E+01
351	  0.090140276	-4.767000E+00	  0.090140276	-1.022150E+02	  0.090140276	2.111500E+01	  0.090140276	-3.577200E+01
352	  0.090340681	-4.772000E+00	  0.090340681	-1.024690E+02	  0.090340681	2.106500E+01	  0.090340681	-3.561700E+01
353	  0.090541080	-4.771000E+00	  0.090541080	-1.026890E+02	  0.090541080	2.100500E+01	  0.090541080	-3.549100E+01
354	  0.090741485	-4.773000E+00	  0.090741485	-1.029260E+02	  0.090741485	2.095100E+01	  0.090741485	-3.535000E+01
355	  0.090941884	-4.772000E+00	  0.090941884	-1.031740E+02	  0.090941884	2.088400E+01	  0.090941884	-3.520900E+01
356	  0.091142282	-4.777000E+00	  0.091142282	-1.034070E+02	  0.091142282	2.084300E+01	  0.091142282	-3.506600E+01
357	  0.091342688	-4.777000E+00	  0.091342688	-1.036240E+02	  0.091342688	2.078700E+01	  0.091342688	-3.494100E+01
358	  0.091543086	-4.775000E+00	  0.091543086	-1.038530E+02	  0.091543086	2.072400E+01	  0.091543086	-3.481300E+01
359	  0.091743484	-4.779000E+00	  0.091743484	-1.040810E+02	  0.091743484	2.067800E+01	  0.091743484	-3.467700E+01
360	  0.091943890	-4.779000E+00	  0.091943890	-1.043190E+02	  0.091943890	2.062200E+01	  0.091943890	-3.454000E+01
361	  0.092144288	-4.779000E+00	  0.092144288	-1.045650E+02	  0.092144288	2.055900E+01	  0.092144288	-3.440100E+01
362	  0.092344686	-4.781000E+00	  0.092344686	-1.047980E+02	  0.092344686	2.050800E+01	  0.092344686	-3.426600E+01
363	  0.092545092	-4.783000E+00	  0.092545092	-1.050230E+02	  0.092545092	2.046000E+01	  0.092545092	-3.413500E+01
364	  0.092745490	-4.783000E+00	  0.092745490	-1.052610E+02	  0.092745490	2.040400E+01	  0.092745490	-3.399900E+01
365	  0.092945889	-4.785000E+00	  0.092945889	-1.054790E+02	  0.092945889	2.036100E+01	  0.092945889	-3.387200E+01
366	  0.093146294	-4.784000E+00	  0.093146294	-1.057390E+02	  0.093146294	2.029400E+01	  0.093146294	-3.372800E+01
367	  0.093346693	-4.786000E+00	  0.093346693	-1.059590E+02	  0.093346693	2.024900E+01	  0.093346693	-3.360100E+01
368	  0.093547091	-4.785000E+00	  0.093547091	-1.061980E+02	  0.093547091	2.018800E+01	  0.093547091	-3.346800E+01
369	  0.093747497	-4.788000E+00	  0.093747497	-1.064260E+02	  0.093747497	2.014600E+01	  0.093747497	-3.333600E+01
370	  0.093947895	-4.787000E+00	  0.093947895	-1.066630E+02	  0.093947895	2.008700E+01	  0.093947895	-3.320500E+01
371	  0.094148301	-4.789000E+00	  0.094148301	-1.069010E+02	  0.094148301	2.003900E+01	  0.094148301	-3.306900E+01
372	  0.094348699	-4.790000E+00	  0.094348699	-1.071380E+02	  0.094348699	1.998800E+01	  0.094348699	-3.293600E+01
373	  0.094549097	-4.792000E+00	  0.094549097	-1.073700E+02	  0.094549097	1.994100E+01	  0.094549097	-3.280400E+01
374	  0.094749503	-4.791000E+00	  0.094749503	-1.076050E+02	  0.094749503	1.988300E+01	  0.094749503	-3.267600E+01
375	  0.094949901	-4.792000E+00	  0.094949901	-1.078320E+02	  0.094949901	1.983500E+01	  0.094949901	-3.254900E+01
376	  0.095150299	-4.794000E+00	  0.095150299	-1.080750E+02	  0.095150299	1.979000E+01	  0.095150299	-3.241100E+01
377	  0.095350705	-4.793000E+00	  0.095350705	-1.083200E+02	  0.095350705	1.973100E+01	  0.095350705	-3.227700E+01
378	  0.095551103	-4.796000E+00	  0.095551103	-1.085420E+02	  0.095551103	1.969300E+01	  0.095551103	-3.215100E+01
379	  0.095751502	-4.796000E+00	  0.095751502	-1.087810E+02	  0.095751502	1.964200E+01	  0.095751502	-3.202000E+01
380	  0.095951907	-4.797000E+00	  0.095951907	-1.090080E+02	  0.095951907	1.959500E+01	  0.095951907	-3.189400E+01
381	  0.096152306	-4.798000E+00	  0.096152306	-1.092480E+02	  0.096152306	1.954600E+01	  0.096152306	-3.176200E+01
382	  0.096352704	-4.800000E+00	  0.096352704	-1.094790E+02	  0.096352704	1.950300E+01	  0.096352704	-3.163300E+01
383	  0.096553110	-4.800000E+00	  0.096553110	-1.097150E+02	  0.096553110	1.945300E+01	  0.096553110	-3.150400E+01
384	  0.096753508	-4.801000E+00	  0.096753508	-1.099610E+02	  0.096753508	1.940400E+01	  0.096753508	-3.136900E+01
385	  0.096953906	-4.801000E+00	  0.096953906	-1.101830E+02	  0.096953906	1.935800E+01	  0.096953906	-3.124900E+01
386	  0.097154312	-4.802000E+00	  0.097154312	-1.104110E+02	  0.097154312	1.931100E+01	  0.097154312	-3.112500E+01
387	  0.097354710	-4.804000E+00	  0.097354710	-1.106590E+02	  0.097354710	1.926600E+01	  0.097354710	-3.098900E+01
388	  0.097555116	-4.804000E+00	  0.097555116	-1.108820E+02	  0.097555116	1.922100E+01	  0.097555116	-3.086800E+01
389	  0.097755514	-4.804000E+00	  0.097755514	-1.111160E+02	  0.097755514	1.917300E+01	  0.097755514	-3.074200E+01
390	  0.097955912	-4.805000E+00	  0.097955912	-1.113650E+02	  0.097955912	1.912600E+01	  0.097955912	-3.060700E+01
391	  0.098156318	-4.806000E+00	  0.098156318	-1.115890E+02	  0.098156318	1.908400E+01	  0.098156318	-3.048500E+01
392	  0.098356716	-4.807000E+00	  0.098356716	-1.118270E+02	  0.098356716	1.903900E+01	  0.098356716	-3.035700E+01
393	  0.098557115	-4.807000E+00	  0.098557115	-1.120550E+02	  0.098557115	1.899300E+01	  0.098557115	-3.023600E+01
394	  0.098757520	-4.808000E+00	  0.098757520	-1.122960E+02	  0.098757520	1.894700E+01	  0.098757520	-3.010600E+01
395	  0.098957919	-4.811000E+00	  0.098957919	-1.125290E+02	  0.098957919	1.891100E+01	  0.098957919	-2.997900E+01
396	  0.099158317	-4.808000E+00	  0.099158317	-1.127660E+02	  0.099158317	1.885500E+01	  0.099158317	-2.985700E+01
397	  0.099358723	-4.810000E+00	  0.099358723	-1.129910E+02	  0.099358723	1.881900E+01	  0.099358723	-2.973400E+01
398	  0.099559121	-4.812000E+00	  0.099559121	-1.132210E+02	  0.099559121	1.878000E+01	  0.099559121	-2.961100E+01
399	  0.099759519	-4.813000E+00	  0.099759519	-1.134580E+02	  0.099759519	1.873800E+01	  0.099759519	-2.948400E+01
400	  0.099959925	-4.803000E+00	  0.099959925	-1.136550E+02	  0.099959925	1.866400E+01	  0.099959925	-2.939400E+01
401	  0.100160323	-4.802000E+00	  0.100160323	-1.139100E+02	  0.100160323	1.861300E+01	  0.100160323	-2.926100E+01
402	  0.100360721	-4.801000E+00	  0.100360721	-1.141220E+02	  0.100360721	1.857100E+01	  0.100360721	-2.915000E+01
403	  0.100561127	-4.808000E+00	  0.100561127	-1.143320E+02	  0.100561127	1.855300E+01	  0.100561127	-2.903200E+01
404	  0.100761525	-4.807000E+00	  0.100761525	-1.146010E+02	  0.100761525	1.849900E+01	  0.100761525	-2.889300E+01
405	  0.100961931	-4.805000E+00	  0.100961931	-1.148370E+02	  0.100961931	1.844900E+01	  0.100961931	-2.877200E+01
406	  0.101162329	-4.810000E+00	  0.101162329	-1.150750E+02	  0.101162329	1.842200E+01	  0.101162329	-2.864200E+01
407	  0.101362728	-4.810000E+00	  0.101362728	-1.153100E+02	  0.101362728	1.837800E+01	  0.101362728	-2.852000E+01
408	  0.101563133	-4.809000E+00	  0.101563133	-1.155250E+02	  0.101563133	1.833700E+01	  0.101563133	-2.840900E+01
409	  0.101763532	-4.811000E+00	  0.101763532	-1.157740E+02	  0.101763532	1.829800E+01	  0.101763532	-2.827800E+01
410	  0.101963930	-4.811000E+00	  0.101963930	-1.160050E+02	  0.101963930	1.825700E+01	  0.101963930	-2.815800E+01
411	  0.102164336	-4.814000E+00	  0.102164336	-1.162530E+02	  0.102164336	1.822200E+01	  0.102164336	-2.802700E+01
412	  0.102364734	-4.814000E+00	  0.102364734	-1.164770E+02	  0.102364734	1.818200E+01	  0.102364734	-2.791200E+01
413	  0.102565132	-4.817000E+00	  0.102565132	-1.166820E+02	  0.102565132	1.815600E+01	  0.102565132	-2.780300E+01
414	  0.102765530	-4.820000E+00	  0.102765530	-1.169350E+02	  0.102765530	1.812100E+01	  0.102765530	-2.767000E+01
415	  0.102965929	-4.820000E+00	  0.102965929	-1.171780E+02	  0.102965929	1.807900E+01	  0.102965929	-2.754500E+01
416	  0.103166327	-4.822000E+00	  0.103166327	-1.174230E+02	  0.103166327	1.804300E+01	  0.103166327	-2.741800E+01
417	  0.103366733	-4.819000E+00	  0.103366733	-1.176360E+02	  0.103366733	1.799900E+01	  0.103366733	-2.731200E+01
418	  0.103567131	-4.821000E+00	  0.103567131	-1.178900E+02	  0.103567131	1.795900E+01	  0.103567131	-2.718100E+01
419	  0.103767529	-4.822000E+00	  0.103767529	-1.181220E+02	  0.103767529	1.792400E+01	  0.103767529	-2.706200E+01
420	  0.103967935	-4.826000E+00	  0.103967935	-1.183730E+02	  0.103967935	1.789700E+01	  0.103967935	-2.692900E+01
421	  0.104168333	-4.829000E+00	  0.104168333	-1.185980E+02	  0.104168333	1.786700E+01	  0.104168333	-2.681300E+01
422	  0.104368731	-4.826000E+00	  0.104368731	-1.188170E+02	  0.104368731	1.782200E+01	  0.104368731	-2.670500E+01
423	  0.104569137	-4.829000E+00	  0.104569137	-1.190680E+02	  0.104569137	1.778900E+01	  0.104569137	-2.657500E+01
424	  0.104769535	-4.829000E+00	  0.104769535	-1.192960E+02	  0.104769535	1.775200E+01	  0.104769535	-2.646000E+01
425	  0.104969934	-4.828000E+00	  0.104969934	-1.195310E+02	  0.104969934	1.770900E+01	  0.104969934	-2.634300E+01
426	  0.105170339	-4.837000E+00	  0.105170339	-1.197860E+02	  0.105170339	1.770000E+01	  0.105170339	-2.620500E+01
427	  0.105370738	-4.830000E+00	  0.105370738	-1.200200E+02	  0.105370738	1.763800E+01	  0.105370738	-2.609500E+01
428	  0.105571143	-4.829000E+00	  0.105571143	-1.202410E+02	  0.105571143	1.760100E+01	  0.105571143	-2.598500E+01
429	  0.105771542	-4.836000E+00	  0.105771542	-1.204740E+02	  0.105771542	1.758600E+01	  0.105771542	-2.586200E+01
430	  0.105971940	-4.838000E+00	  0.105971940	-1.207390E+02	  0.105971940	1.755000E+01	  0.105971940	-2.572800E+01
431	  0.106172346	-4.836000E+00	  0.106172346	-1.209510E+02	  0.106172346	1.751000E+01	  0.106172346	-2.562400E+01
432	  0.106372744	-4.840000E+00	  0.106372744	-1.212100E+02	  0.106372744	1.748500E+01	  0.106372744	-2.549100E+01
433	  0.106573142	-4.841000E+00	  0.106573142	-1.214320E+02	  0.106573142	1.745200E+01	  0.106573142	-2.538000E+01
434	  0.106773548	-4.842000E+00	  0.106773548	-1.216640E+02	  0.106773548	1.741800E+01	  0.106773548	-2.526500E+01
435	  0.106973946	-4.841000E+00	  0.106973946	-1.219050E+02	  0.106973946	1.737800E+01	  0.106973946	-2.514600E+01
436	  0.107174344	-4.842000E+00	  0.107174344	-1.221370E+02	  0.107174344	1.734700E+01	  0.107174344	-2.503100E+01
437	  0.107374750	-4.843000E+00	  0.107374750	-1.223700E+02	  0.107374750	1.731500E+01	  0.107374750	-2.491500E+01
438	  0.107575148	-4.844000E+00	  0.107575148	-1.226170E+02	  0.107575148	1.728100E+01	  0.107575148	-2.479200E+01
439	  0.107775547	-4.845000E+00	  0.107775547	-1.228490E+02	  0.107775547	1.725000E+01	  0.107775547	-2.467800E+01
440	  0.107975952	-4.848000E+00	  0.107975952	-1.230940E+02	  0.107975952	1.722400E+01	  0.107975952	-2.455400E+01
441	  0.108176351	-4.845000E+00	  0.108176351	-1.233390E+02	  0.108176351	1.717600E+01	  0.108176351	-2.443800E+01
442	  0.108376749	-4.847000E+00	  0.108376749	-1.235600E+02	  0.108376749	1.715100E+01	  0.108376749	-2.432800E+01
443	  0.108577155	-4.847000E+00	  0.108577155	-1.238150E+02	  0.108577155	1.711300E+01	  0.108577155	-2.420400E+01
444	  0.108777553	-4.848000E+00	  0.108777553	-1.240480E+02	  0.108777553	1.708600E+01	  0.108777553	-2.408800E+01
445	  0.108977959	-4.848000E+00	  0.108977959	-1.242700E+02	  0.108977959	1.705300E+01	  0.108977959	-2.398100E+01
446	  0.109178357	-4.851000E+00	  0.109178357	-1.245160E+02	  0.109178357	1.702600E+01	  0.109178357	-2.385900E+01
447	  0.109378755	-4.853000E+00	  0.109378755	-1.247450E+02	  0.109378755	1.700100E+01	  0.109378755	-2.374600E+01
448	  0.109579161	-4.851000E+00	  0.109579161	-1.250040E+02	  0.109579161	1.695800E+01	  0.109579161	-2.362300E+01
449	  0.109779559	-4.853000E+00	  0.109779559	-1.252320E+02	  0.109779559	1.693400E+01	  0.109779559	-2.351000E+01
450	  0.109979957	-4.855000E+00	  0.109979957	-1.254650E+02	  0.109979957	1.690600E+01	  0.109979957	-2.339600E+01
451	  0.110180363	-4.852000E+00	  0.110180363	-1.257100E+02	  0.110180363	1.686300E+01	  0.110180363	-2.328100E+01
452	  0.110380761	-4.854000E+00	  0.110380761	-1.259330E+02	  0.110380761	1.684000E+01	  0.110380761	-2.317200E+01
453	  0.110581160	-4.857000E+00	  0.110581160	-1.261430E+02	  0.110581160	1.681900E+01	  0.110581160	-2.306900E+01
454	  0.110781565	-4.857000E+00	  0.110781565	-1.264240E+02	  0.110781565	1.678200E+01	  0.110781565	-2.293400E+01
455	  0.110981964	-4.859000E+00	  0.110981964	-1.266400E+02	  0.110981964	1.675900E+01	  0.110981964	-2.282900E+01
456	  0.111182362	-4.859000E+00	  0.111182362	-1.268760E+02	  0.111182362	1.672800E+01	  0.111182362	-2.271600E+01
457	  0.111382768	-4.857000E+00	  0.111382768	-1.271120E+02	  0.111382768	1.669200E+01	  0.111382768	-2.260500E+01
458	  0.111583166	-4.860000E+00	  0.111583166	-1.273630E+02	  0.111583166	1.666800E+01	  0.111583166	-2.248200E+01
459	  0.111783572	-4.862000E+00	  0.111783572	-1.275920E+02	  0.111783572	1.664500E+01	  0.111783572	-2.237200E+01
460	  0.111983970	-4.862000E+00	  0.111983970	-1.278370E+02	  0.111983970	1.661100E+01	  0.111983970	-2.225600E+01
461	  0.112184368	-4.865000E+00	  0.112184368	-1.280600E+02	  0.112184368	1.659200E+01	  0.112184368	-2.214800E+01
462	  0.112384774	-4.864000E+00	  0.112384774	-1.283030E+02	  0.112384774	1.655900E+01	  0.112384774	-2.203300E+01
463	  0.112585172	-4.865000E+00	  0.112585172	-1.285300E+02	  0.112585172	1.653300E+01	  0.112585172	-2.192500E+01
464	  0.112785570	-4.866000E+00	  0.112785570	-1.287700E+02	  0.112785570	1.650600E+01	  0.112785570	-2.181000E+01
465	  0.112985976	-4.865000E+00	  0.112985976	-1.290140E+02	  0.112985976	1.647300E+01	  0.112985976	-2.169600E+01
466	  0.113186374	-4.869000E+00	  0.113186374	-1.292440E+02	  0.113186374	1.645500E+01	  0.113186374	-2.158500E+01
467	  0.113386773	-4.868000E+00	  0.113386773	-1.295000E+02	  0.113386773	1.642000E+01	  0.113386773	-2.146500E+01
468	  0.113587178	-4.868000E+00	  0.113587178	-1.297000E+02	  0.113587178	1.639800E+01	  0.113587178	-2.137100E+01
469	  0.113787577	-4.868000E+00	  0.113787577	-1.299460E+02	  0.113787577	1.636800E+01	  0.113787577	-2.125600E+01
470	  0.113987975	-4.867000E+00	  0.113987975	-1.302030E+02	  0.113987975	1.633200E+01	  0.113987975	-2.113700E+01
471	  0.114188381	-4.870000E+00	  0.114188381	-1.304320E+02	  0.114188381	1.631500E+01	  0.114188381	-2.102700E+01
472	  0.114388779	-4.873000E+00	  0.114388779	-1.306640E+02	  0.114388779	1.629700E+01	  0.114388779	-2.091600E+01
473	  0.114589177	-4.872000E+00	  0.114589177	-1.308930E+02	  0.114589177	1.626600E+01	  0.114589177	-2.081000E+01
474	  0.114789583	-4.875000E+00	  0.114789583	-1.311260E+02	  0.114789583	1.624700E+01	  0.114789583	-2.070000E+01
475	  0.114989981	-4.874000E+00	  0.114989981	-1.313590E+02	  0.114989981	1.621900E+01	  0.114989981	-2.059200E+01
476	  0.115190387	-4.875000E+00	  0.115190387	-1.316010E+02	  0.115190387	1.619200E+01	  0.115190387	-2.047900E+01
477	  0.115390785	-4.874000E+00	  0.115390785	-1.318430E+02	  0.115390785	1.616000E+01	  0.115390785	-2.036800E+01
478	  0.115591183	-4.880000E+00	  0.115591183	-1.320770E+02	  0.115591183	1.615200E+01	  0.115591183	-2.025500E+01
479	  0.115791589	-4.880000E+00	  0.115791589	-1.322960E+02	  0.115791589	1.613000E+01	  0.115791589	-2.015300E+01
480	  0.115991987	-4.878000E+00	  0.115991987	-1.325350E+02	  0.115991987	1.609500E+01	  0.115991987	-2.004500E+01
481	  0.116192386	-4.880000E+00	  0.116192386	-1.327740E+02	  0.116192386	1.607600E+01	  0.116192386	-1.993300E+01
482	  0.116392791	-4.879000E+00	  0.116392791	-1.330190E+02	  0.116392791	1.604500E+01	  0.116392791	-1.982100E+01
483	  0.116593190	-4.882000E+00	  0.116593190	-1.332480E+02	  0.116593190	1.602900E+01	  0.116593190	-1.971300E+01
484	  0.116793588	-4.882000E+00	  0.116793588	-1.334890E+02	  0.116793588	1.600300E+01	  0.116793588	-1.960300E+01
485	  0.116993994	-4.883000E+00	  0.116993994	-1.337280E+02	  0.116993994	1.597700E+01	  0.116993994	-1.949300E+01
486	  0.117194392	-4.886000E+00	  0.117194392	-1.339490E+02	  0.117194392	1.596300E+01	  0.117194392	-1.938900E+01
487	  0.117394790	-4.884000E+00	  0.117394790	-1.342140E+02	  0.117394790	1.593000E+01	  0.117394790	-1.927000E+01
488	  0.117595196	-4.886000E+00	  0.117595196	-1.344420E+02	  0.117595196	1.591100E+01	  0.117595196	-1.916400E+01
489	  0.117795594	-4.887000E+00	  0.117795594	-1.346720E+02	  0.117795594	1.588900E+01	  0.117795594	-1.905900E+01
490	  0.117995992	-4.890000E+00	  0.117995992	-1.348920E+02	  0.117995992	1.587400E+01	  0.117995992	-1.895700E+01
491	  0.118196398	-4.889000E+00	  0.118196398	-1.351250E+02	  0.118196398	1.584700E+01	  0.118196398	-1.885200E+01
492	  0.118396796	-4.888000E+00	  0.118396796	-1.353630E+02	  0.118396796	1.582100E+01	  0.118396796	-1.874300E+01
493	  0.118597202	-4.891000E+00	  0.118597202	-1.356160E+02	  0.118597202	1.580200E+01	  0.118597202	-1.862700E+01
494	  0.118797600	-4.893000E+00	  0.118797600	-1.358510E+02	  0.118797600	1.578400E+01	  0.118797600	-1.851900E+01
495	  0.118997999	-4.895000E+00	  0.118997999	-1.360860E+02	  0.118997999	1.576600E+01	  0.118997999	-1.841200E+01
496	  0.119198404	-4.892000E+00	  0.119198404	-1.363280E+02	  0.119198404	1.573400E+01	  0.119198404	-1.830400E+01
497	  0.119398803	-4.892000E+00	  0.119398803	-1.365670E+02	  0.119398803	1.570900E+01	  0.119398803	-1.819600E+01
498	  0.119599201	-4.894000E+00	  0.119599201	-1.368000E+02	  0.119599201	1.569100E+01	  0.119599201	-1.809100E+01
499	  0.119799607	-4.893000E+00	  0.119799607	-1.370490E+02	  0.119799607	1.566400E+01	  0.119799607	-1.797900E+01
500	  0.120000005	-4.894000E+00	  0.120000005	-1.372720E+02	  0.120000005	1.564700E+01	  0.120000005	-1.787800E+01
