! Anritsu VNA Master:             	Model: MS2036C/10/77
! SN:             	1601066
! /bd0/18may09/254.ns.m4.txt
! Existing Calibration Information:
! TYPE:             	Current Settings	Active Cal Settings
! TIME:             	05/09/2018 12:46:16 PM	05/09/2018 12:35:56 PM
! INTERNAL TEMP:    	57.8 C	56.8 C
! # POINTS:         	494	494
! START FREQ:       	20.000 MHz	20.000 MHz
! STOP FREQ:        	118.797 594 MHz	118.797 594 MHz
! SOURCE POWER:     	High	High
! IFBW:             	50 Hz	50 Hz
! AVG FACTOR:       	  1 	  1 
! REF PLANE 1:      	0 mm	0 mm
! REF PLANE 2:      	0 mm	0 mm
! CAL TYPE:         	Full S22	Full S22
! CAL METHOD:       	SOLT	SOLT
! CAL LINE TYPE:    	Coax	Coax
! DUT PORT 1:       	K-Conn(M)	K-Conn(M)
! DUT PORT 2:       	K-Conn(M)	K-Conn(M)
! CAL STATUS:       	OK: Accuracy High	--
! PROP-V:       	0.700
! CABLE LOSS:       	0.000 dB/m
! REF IMPEDANCE:       	50.0
! Trace Specific Parameters:	TR1	TR2	TR3	TR4
! TRACE.#.Y (GRAPH TYPE)	LOG MAG	PHASE	REAL IMPEDANCE	IMAGINARY IMPEDANCE
! TRACE.#.X 	FREQ.GHZ	FREQ.GHZ	FREQ.GHZ	FREQ.GHZ
! S-PARAMETER	S22	S22	S22	S22
! SMOOTH/APERTURE %	0	0	0	0
! WINDOW	NSL	NSL	NSL	NSL
! GATING	OFF	OFF	OFF	OFF
! FGTD	OFF	OFF	OFF	OFF
Marker Information per Trace:	TR1	TR2	TR3	TR4
!MK1	--	"MK1 TR2:  20.000 MHz,PH:-126.46°"	--	--
!MK2	--	--	"MK2 TR3:  70.100 200 MHz,Z:(16.544 ohm, -1.801 ohm)"	--
!MK3	--	--	--	--
!MK4	--	--	--	--
!MK5	--	--	--	--
!MK6	--	--	--	--
!MK7	--	--	--	--
!MK8	--	--	--	--
PNT	TR1.FREQ.GHZ	TR1.LOG MAG.dB	TR2.FREQ.GHZ	TR2.PHASE.deg	TR3.FREQ.GHZ	TR3.REAL IMPEDANCE.ohm	TR4.FREQ.GHZ	TR4.IMAGINARY IMPEDANCE.ohm
1	  0.020000000	-6.360000E-01	  0.020000000	-1.264570E+02	  0.020000000	2.296000E+00	  0.020000000	-2.518300E+01
2	  0.020200402	-6.410000E-01	  0.020200402	-1.279070E+02	  0.020200402	2.285000E+00	  0.020200402	-2.439500E+01
3	  0.020400802	-6.440000E-01	  0.020400802	-1.293680E+02	  0.020400802	2.266000E+00	  0.020400802	-2.361100E+01
4	  0.020601204	-6.490000E-01	  0.020601204	-1.308870E+02	  0.020601204	2.256000E+00	  0.020601204	-2.280700E+01
5	  0.020801604	-6.510000E-01	  0.020801604	-1.323840E+02	  0.020801604	2.238000E+00	  0.020801604	-2.202300E+01
6	  0.021002004	-6.530000E-01	  0.021002004	-1.339390E+02	  0.021002004	2.218000E+00	  0.021002004	-2.121900E+01
7	  0.021202406	-6.560000E-01	  0.021202406	-1.354780E+02	  0.021202406	2.206000E+00	  0.021202406	-2.043200E+01
8	  0.021402806	-6.590000E-01	  0.021402806	-1.370230E+02	  0.021402806	2.191000E+00	  0.021402806	-1.965100E+01
9	  0.021603208	-6.630000E-01	  0.021603208	-1.385680E+02	  0.021603208	2.179000E+00	  0.021603208	-1.887700E+01
10	  0.021803608	-6.680000E-01	  0.021803608	-1.401220E+02	  0.021803608	2.174000E+00	  0.021803608	-1.810700E+01
11	  0.022004008	-6.760000E-01	  0.022004008	-1.416910E+02	  0.022004008	2.179000E+00	  0.022004008	-1.733700E+01
12	  0.022204408	-6.790000E-01	  0.022204408	-1.432780E+02	  0.022204408	2.169000E+00	  0.022204408	-1.656600E+01
13	  0.022404809	-6.830000E-01	  0.022404809	-1.449040E+02	  0.022404809	2.163000E+00	  0.022404809	-1.578300E+01
14	  0.022605211	-6.880000E-01	  0.022605211	-1.465220E+02	  0.022605211	2.157000E+00	  0.022605211	-1.501100E+01
15	  0.022805611	-6.930000E-01	  0.022805611	-1.481440E+02	  0.022805611	2.158000E+00	  0.022805611	-1.424400E+01
16	  0.023006011	-7.000000E-01	  0.023006011	-1.497630E+02	  0.023006011	2.163000E+00	  0.023006011	-1.348400E+01
17	  0.023206413	-7.070000E-01	  0.023206413	-1.513710E+02	  0.023206413	2.166000E+00	  0.023206413	-1.273500E+01
18	  0.023406813	-7.110000E-01	  0.023406813	-1.530020E+02	  0.023406813	2.164000E+00	  0.023406813	-1.198100E+01
19	  0.023607215	-7.180000E-01	  0.023607215	-1.546270E+02	  0.023607215	2.170000E+00	  0.023607215	-1.123500E+01
20	  0.023807615	-7.270000E-01	  0.023807615	-1.562570E+02	  0.023807615	2.185000E+00	  0.023807615	-1.049100E+01
21	  0.024008015	-7.370000E-01	  0.024008015	-1.579130E+02	  0.024008015	2.203000E+00	  0.024008015	-9.740000E+00
22	  0.024208417	-7.450000E-01	  0.024208417	-1.595880E+02	  0.024208417	2.214000E+00	  0.024208417	-8.984000E+00
23	  0.024408817	-7.500000E-01	  0.024408817	-1.612550E+02	  0.024408817	2.218000E+00	  0.024408817	-8.236000E+00
24	  0.024609219	-7.580000E-01	  0.024609219	-1.629280E+02	  0.024609219	2.229000E+00	  0.024609219	-7.489000E+00
25	  0.024809619	-7.660000E-01	  0.024809619	-1.645880E+02	  0.024809619	2.244000E+00	  0.024809619	-6.751000E+00
26	  0.025010020	-7.760000E-01	  0.025010020	-1.662750E+02	  0.025010020	2.266000E+00	  0.025010020	-6.004000E+00
27	  0.025210422	-7.850000E-01	  0.025210422	-1.679650E+02	  0.025210422	2.285000E+00	  0.025210422	-5.259000E+00
28	  0.025410822	-7.950000E-01	  0.025410822	-1.696600E+02	  0.025410822	2.306000E+00	  0.025410822	-4.514000E+00
29	  0.025611224	-8.070000E-01	  0.025611224	-1.713630E+02	  0.025611224	2.335000E+00	  0.025611224	-3.767000E+00
30	  0.025811624	-8.170000E-01	  0.025811624	-1.730840E+02	  0.025811624	2.360000E+00	  0.025811624	-3.014000E+00
31	  0.026012026	-8.290000E-01	  0.026012026	-1.748200E+02	  0.026012026	2.389000E+00	  0.026012026	-2.256000E+00
32	  0.026212426	-8.390000E-01	  0.026212426	-1.765670E+02	  0.026212426	2.415000E+00	  0.026212426	-1.494000E+00
33	  0.026412826	-8.520000E-01	  0.026412826	-1.783170E+02	  0.026412826	2.451000E+00	  0.026412826	-7.320000E-01
34	  0.026613226	-8.650000E-01	  0.026613226	1.799250E+02	  0.026613226	2.489000E+00	  0.026613226	3.200000E-02
35	  0.026813626	-8.810000E-01	  0.026813626	1.781510E+02	  0.026813626	2.535000E+00	  0.026813626	8.040000E-01
36	  0.027014028	-8.970000E-01	  0.027014028	1.763690E+02	  0.027014028	2.582000E+00	  0.027014028	1.580000E+00
37	  0.027214428	-9.120000E-01	  0.027214428	1.745860E+02	  0.027214428	2.629000E+00	  0.027214428	2.357000E+00
38	  0.027414829	-9.290000E-01	  0.027414829	1.727790E+02	  0.027414829	2.684000E+00	  0.027414829	3.145000E+00
39	  0.027615231	-9.460000E-01	  0.027615231	1.709690E+02	  0.027615231	2.738000E+00	  0.027615231	3.936000E+00
40	  0.027815631	-9.640000E-01	  0.027815631	1.691470E+02	  0.027815631	2.798000E+00	  0.027815631	4.734000E+00
41	  0.028016033	-9.820000E-01	  0.028016033	1.673100E+02	  0.028016033	2.860000E+00	  0.028016033	5.541000E+00
42	  0.028216433	-1.003000E+00	  0.028216433	1.654630E+02	  0.028216433	2.930000E+00	  0.028216433	6.355000E+00
43	  0.028416833	-1.022000E+00	  0.028416833	1.635980E+02	  0.028416833	3.001000E+00	  0.028416833	7.180000E+00
44	  0.028617235	-1.043000E+00	  0.028617235	1.617380E+02	  0.028617235	3.076000E+00	  0.028617235	8.006000E+00
45	  0.028817635	-1.065000E+00	  0.028817635	1.598690E+02	  0.028817635	3.158000E+00	  0.028817635	8.840000E+00
46	  0.029018037	-1.087000E+00	  0.029018037	1.580120E+02	  0.029018037	3.242000E+00	  0.029018037	9.673000E+00
47	  0.029218437	-1.111000E+00	  0.029218437	1.561240E+02	  0.029218437	3.335000E+00	  0.029218437	1.052600E+01
48	  0.029418837	-1.135000E+00	  0.029418837	1.542270E+02	  0.029418837	3.434000E+00	  0.029418837	1.138700E+01
49	  0.029619239	-1.161000E+00	  0.029619239	1.523210E+02	  0.029619239	3.539000E+00	  0.029619239	1.225900E+01
50	  0.029819639	-1.186000E+00	  0.029819639	1.504180E+02	  0.029819639	3.645000E+00	  0.029819639	1.313600E+01
51	  0.030020041	-1.213000E+00	  0.030020041	1.484980E+02	  0.030020041	3.763000E+00	  0.030020041	1.402800E+01
52	  0.030220442	-1.238000E+00	  0.030220442	1.465880E+02	  0.030220442	3.877000E+00	  0.030220442	1.492300E+01
53	  0.030420844	-1.265000E+00	  0.030420844	1.446810E+02	  0.030420844	4.003000E+00	  0.030420844	1.582500E+01
54	  0.030621244	-1.294000E+00	  0.030621244	1.427710E+02	  0.030621244	4.138000E+00	  0.030621244	1.673700E+01
55	  0.030821642	-1.324000E+00	  0.030821642	1.408650E+02	  0.030821642	4.281000E+00	  0.030821642	1.765600E+01
56	  0.031022044	-1.354000E+00	  0.031022044	1.389290E+02	  0.031022044	4.432000E+00	  0.031022044	1.859900E+01
57	  0.031222444	-1.380000E+00	  0.031222444	1.370120E+02	  0.031222444	4.574000E+00	  0.031222444	1.954600E+01
58	  0.031422846	-1.414000E+00	  0.031422846	1.350390E+02	  0.031422846	4.751000E+00	  0.031422846	2.053000E+01
59	  0.031623244	-1.446000E+00	  0.031623244	1.330660E+02	  0.031623244	4.930000E+00	  0.031623244	2.152800E+01
60	  0.031823646	-1.479000E+00	  0.031823646	1.310990E+02	  0.031823646	5.119000E+00	  0.031823646	2.253500E+01
61	  0.032024048	-1.513000E+00	  0.032024048	1.291280E+02	  0.032024048	5.320000E+00	  0.032024048	2.356000E+01
62	  0.032224450	-1.550000E+00	  0.032224450	1.271550E+02	  0.032224450	5.539000E+00	  0.032224450	2.459900E+01
63	  0.032424849	-1.585000E+00	  0.032424849	1.251630E+02	  0.032424849	5.764000E+00	  0.032424849	2.566500E+01
64	  0.032625251	-1.621000E+00	  0.032625251	1.231680E+02	  0.032625251	5.999000E+00	  0.032625251	2.675000E+01
65	  0.032825653	-1.659000E+00	  0.032825653	1.211350E+02	  0.032825653	6.260000E+00	  0.032825653	2.787400E+01
66	  0.033026051	-1.697000E+00	  0.033026051	1.190970E+02	  0.033026051	6.530000E+00	  0.033026051	2.902000E+01
67	  0.033226453	-1.733000E+00	  0.033226453	1.170450E+02	  0.033226453	6.810000E+00	  0.033226453	3.019800E+01
68	  0.033426855	-1.767000E+00	  0.033426855	1.150270E+02	  0.033426855	7.097000E+00	  0.033426855	3.137800E+01
69	  0.033627257	-1.812000E+00	  0.033627257	1.129800E+02	  0.033627257	7.441000E+00	  0.033627257	3.259400E+01
70	  0.033827655	-1.848000E+00	  0.033827655	1.109270E+02	  0.033827655	7.770000E+00	  0.033827655	3.384300E+01
71	  0.034028057	-1.889000E+00	  0.034028057	1.088800E+02	  0.034028057	8.137000E+00	  0.034028057	3.511300E+01
72	  0.034228459	-1.933000E+00	  0.034228459	1.068050E+02	  0.034228459	8.539000E+00	  0.034228459	3.642600E+01
73	  0.034428857	-1.972000E+00	  0.034428857	1.047280E+02	  0.034428857	8.947000E+00	  0.034428857	3.777400E+01
74	  0.034629259	-2.016000E+00	  0.034629259	1.026270E+02	  0.034629259	9.404000E+00	  0.034629259	3.916700E+01
75	  0.034829661	-2.058000E+00	  0.034829661	1.005380E+02	  0.034829661	9.877000E+00	  0.034829661	4.058700E+01
76	  0.035030060	-2.105000E+00	  0.035030060	9.844000E+01	  0.035030060	1.040200E+01	  0.035030060	4.204500E+01
77	  0.035230462	-2.152000E+00	  0.035230462	9.634400E+01	  0.035230462	1.096600E+01	  0.035230462	4.353900E+01
78	  0.035430863	-2.198000E+00	  0.035430863	9.424900E+01	  0.035430863	1.155900E+01	  0.035430863	4.507200E+01
79	  0.035631265	-2.244000E+00	  0.035631265	9.213900E+01	  0.035631265	1.219900E+01	  0.035631265	4.665700E+01
80	  0.035831664	-2.292000E+00	  0.035831664	9.004300E+01	  0.035831664	1.289000E+01	  0.035831664	4.827100E+01
81	  0.036032066	-2.339000E+00	  0.036032066	8.792600E+01	  0.036032066	1.362800E+01	  0.036032066	4.995100E+01
82	  0.036232468	-2.385000E+00	  0.036232468	8.584700E+01	  0.036232468	1.440300E+01	  0.036232468	5.164700E+01
83	  0.036432866	-2.436000E+00	  0.036432866	8.373800E+01	  0.036432866	1.527100E+01	  0.036432866	5.341100E+01
84	  0.036633268	-2.485000E+00	  0.036633268	8.164600E+01	  0.036633268	1.618700E+01	  0.036633268	5.521500E+01
85	  0.036833670	-2.535000E+00	  0.036833670	7.955400E+01	  0.036833670	1.718100E+01	  0.036833670	5.706900E+01
86	  0.037034072	-2.587000E+00	  0.037034072	7.746300E+01	  0.037034072	1.826600E+01	  0.037034072	5.897100E+01
87	  0.037234470	-2.637000E+00	  0.037234470	7.535300E+01	  0.037234470	1.942800E+01	  0.037234470	6.095500E+01
88	  0.037434869	-2.690000E+00	  0.037434869	7.327600E+01	  0.037434869	2.069100E+01	  0.037434869	6.295600E+01
89	  0.037635271	-2.742000E+00	  0.037635271	7.117300E+01	  0.037635271	2.206000E+01	  0.037635271	6.504600E+01
90	  0.037835669	-2.806000E+00	  0.037835669	6.907200E+01	  0.037835669	2.363400E+01	  0.037835669	6.715200E+01
91	  0.038036071	-2.865000E+00	  0.038036071	6.703000E+01	  0.038036071	2.527000E+01	  0.038036071	6.925900E+01
92	  0.038236473	-2.921000E+00	  0.038236473	6.498000E+01	  0.038236473	2.702500E+01	  0.038236473	7.144200E+01
93	  0.038436871	-2.975000E+00	  0.038436871	6.290900E+01	  0.038436871	2.892500E+01	  0.038436871	7.371600E+01
94	  0.038637273	-3.030000E+00	  0.038637273	6.085300E+01	  0.038637273	3.099000E+01	  0.038637273	7.601800E+01
95	  0.038837675	-3.081000E+00	  0.038837675	5.878500E+01	  0.038837675	3.321400E+01	  0.038837675	7.841100E+01
96	  0.039038073	-3.134000E+00	  0.039038073	5.672300E+01	  0.039038073	3.565000E+01	  0.039038073	8.083300E+01
97	  0.039238475	-3.186000E+00	  0.039238475	5.467500E+01	  0.039238475	3.829000E+01	  0.039238475	8.328100E+01
98	  0.039438877	-3.240000E+00	  0.039438877	5.260700E+01	  0.039438877	4.122200E+01	  0.039438877	8.577100E+01
99	  0.039639279	-3.294000E+00	  0.039639279	5.055500E+01	  0.039639279	4.439500E+01	  0.039639279	8.826300E+01
100	  0.039839678	-3.349000E+00	  0.039839678	4.849600E+01	  0.039839678	4.789800E+01	  0.039839678	9.074900E+01
101	  0.040040080	-3.399000E+00	  0.040040080	4.640700E+01	  0.040040080	5.172400E+01	  0.040040080	9.332200E+01
102	  0.040240481	-3.452000E+00	  0.040240481	4.435500E+01	  0.040240481	5.589100E+01	  0.040240481	9.575900E+01
103	  0.040440880	-3.503000E+00	  0.040440880	4.229700E+01	  0.040440880	6.043900E+01	  0.040440880	9.816200E+01
104	  0.040641282	-3.555000E+00	  0.040641282	4.025300E+01	  0.040641282	6.540000E+01	  0.040641282	1.004080E+02
105	  0.040841684	-3.606000E+00	  0.040841684	3.822200E+01	  0.040841684	7.077400E+01	  0.040841684	1.024960E+02
106	  0.041042086	-3.657000E+00	  0.041042086	3.619000E+01	  0.041042086	7.663600E+01	  0.041042086	1.043560E+02
107	  0.041242484	-3.708000E+00	  0.041242484	3.416100E+01	  0.041242484	8.300100E+01	  0.041242484	1.059130E+02
108	  0.041442886	-3.758000E+00	  0.041442886	3.213100E+01	  0.041442886	8.989100E+01	  0.041442886	1.071290E+02
109	  0.041643288	-3.809000E+00	  0.041643288	3.009100E+01	  0.041643288	9.737100E+01	  0.041643288	1.078180E+02
110	  0.041843686	-3.855000E+00	  0.041843686	2.804900E+01	  0.041843686	1.053750E+02	  0.041843686	1.080610E+02
111	  0.042044088	-3.903000E+00	  0.042044088	2.604300E+01	  0.042044088	1.137630E+02	  0.042044088	1.074740E+02
112	  0.042244490	-3.949000E+00	  0.042244490	2.403200E+01	  0.042244490	1.226260E+02	  0.042244490	1.061340E+02
113	  0.042444889	-3.994000E+00	  0.042444889	2.204300E+01	  0.042444889	1.317680E+02	  0.042444889	1.038460E+02
114	  0.042645290	-4.043000E+00	  0.042645290	2.005100E+01	  0.042645290	1.411320E+02	  0.042645290	1.002840E+02
115	  0.042845692	-4.088000E+00	  0.042845692	1.807700E+01	  0.042845692	1.505140E+02	  0.042845692	9.565900E+01
116	  0.043046094	-4.134000E+00	  0.043046094	1.609700E+01	  0.043046094	1.597800E+02	  0.043046094	8.965900E+01
117	  0.043246493	-4.178000E+00	  0.043246493	1.413000E+01	  0.043246493	1.686070E+02	  0.043246493	8.234500E+01
118	  0.043446895	-4.221000E+00	  0.043446895	1.217800E+01	  0.043446895	1.767700E+02	  0.043446895	7.379800E+01
119	  0.043647297	-4.261000E+00	  0.043647297	1.022000E+01	  0.043647297	1.841130E+02	  0.043647297	6.399400E+01
120	  0.043847695	-4.304000E+00	  0.043847695	8.305000E+00	  0.043847695	1.900080E+02	  0.043847695	5.318400E+01
121	  0.044048097	-4.348000E+00	  0.044048097	6.397000E+00	  0.044048097	1.944540E+02	  0.044048097	4.152400E+01
122	  0.044248499	-4.389000E+00	  0.044248499	4.497000E+00	  0.044248499	1.974150E+02	  0.044248499	2.936300E+01
123	  0.044448901	-4.428000E+00	  0.044448901	2.618000E+00	  0.044448901	1.987820E+02	  0.044448901	1.706200E+01
124	  0.044649299	-4.469000E+00	  0.044649299	7.210000E-01	  0.044649299	1.984970E+02	  0.044649299	4.646000E+00
125	  0.044849701	-4.509000E+00	  0.044849701	-1.142000E+00	  0.044849701	1.966460E+02	  0.044849701	-7.222000E+00
126	  0.045050103	-4.550000E+00	  0.045050103	-3.023000E+00	  0.045050103	1.933140E+02	  0.045050103	-1.860300E+01
127	  0.045250501	-4.587000E+00	  0.045250501	-4.881000E+00	  0.045250501	1.889130E+02	  0.045250501	-2.906600E+01
128	  0.045450903	-4.628000E+00	  0.045450903	-6.740000E+00	  0.045450903	1.833500E+02	  0.045450903	-3.853100E+01
129	  0.045651305	-4.669000E+00	  0.045651305	-8.591000E+00	  0.045651305	1.770570E+02	  0.045651305	-4.691200E+01
130	  0.045851704	-4.705000E+00	  0.045851704	-1.043400E+01	  0.045851704	1.703580E+02	  0.045851704	-5.426100E+01
131	  0.046052102	-4.742000E+00	  0.046052102	-1.226800E+01	  0.046052102	1.632630E+02	  0.046052102	-6.048300E+01
132	  0.046252504	-4.778000E+00	  0.046252504	-1.410200E+01	  0.046252504	1.560240E+02	  0.046252504	-6.573000E+01
133	  0.046452906	-4.812000E+00	  0.046452906	-1.592300E+01	  0.046452906	1.488090E+02	  0.046452906	-7.003900E+01
134	  0.046653304	-4.849000E+00	  0.046653304	-1.775100E+01	  0.046653304	1.415890E+02	  0.046653304	-7.344200E+01
135	  0.046853706	-4.884000E+00	  0.046853706	-1.957500E+01	  0.046853706	1.345680E+02	  0.046853706	-7.609500E+01
136	  0.047054108	-4.918000E+00	  0.047054108	-2.140400E+01	  0.047054108	1.277680E+02	  0.047054108	-7.809800E+01
137	  0.047254506	-4.952000E+00	  0.047254506	-2.324100E+01	  0.047254506	1.212120E+02	  0.047254506	-7.951500E+01
138	  0.047454908	-4.984000E+00	  0.047454908	-2.505200E+01	  0.047454908	1.150540E+02	  0.047454908	-8.041700E+01
139	  0.047655310	-5.017000E+00	  0.047655310	-2.685500E+01	  0.047655310	1.092270E+02	  0.047655310	-8.085200E+01
140	  0.047855709	-5.050000E+00	  0.047855709	-2.865900E+01	  0.047855709	1.037160E+02	  0.047855709	-8.091200E+01
141	  0.048056111	-5.080000E+00	  0.048056111	-3.045500E+01	  0.048056111	9.855000E+01	  0.048056111	-8.071700E+01
142	  0.048256513	-5.107000E+00	  0.048256513	-3.223100E+01	  0.048256513	9.374200E+01	  0.048256513	-8.032100E+01
143	  0.048456915	-5.136000E+00	  0.048456915	-3.400300E+01	  0.048456915	8.923500E+01	  0.048456915	-7.966400E+01
144	  0.048657313	-5.162000E+00	  0.048657313	-3.577400E+01	  0.048657313	8.500200E+01	  0.048657313	-7.887900E+01
145	  0.048857715	-5.183000E+00	  0.048857715	-3.754100E+01	  0.048857715	8.102700E+01	  0.048857715	-7.802300E+01
146	  0.049058117	-5.207000E+00	  0.049058117	-3.931700E+01	  0.049058117	7.728400E+01	  0.049058117	-7.698800E+01
147	  0.049258515	-5.229000E+00	  0.049258515	-4.107100E+01	  0.049258515	7.381600E+01	  0.049258515	-7.588800E+01
148	  0.049458917	-5.253000E+00	  0.049458917	-4.279200E+01	  0.049458917	7.063500E+01	  0.049458917	-7.469100E+01
149	  0.049659319	-5.274000E+00	  0.049659319	-4.451600E+01	  0.049659319	6.762700E+01	  0.049659319	-7.348500E+01
150	  0.049859721	-5.292000E+00	  0.049859721	-4.620300E+01	  0.049859721	6.485700E+01	  0.049859721	-7.227000E+01
151	  0.050060119	-5.314000E+00	  0.050060119	-4.786300E+01	  0.050060119	6.230800E+01	  0.050060119	-7.100600E+01
152	  0.050260521	-5.329000E+00	  0.050260521	-4.956600E+01	  0.050260521	5.981900E+01	  0.050260521	-6.974400E+01
153	  0.050460923	-5.343000E+00	  0.050460923	-5.123000E+01	  0.050460923	5.752700E+01	  0.050460923	-6.849700E+01
154	  0.050661322	-5.359000E+00	  0.050661322	-5.287900E+01	  0.050661322	5.539000E+01	  0.050661322	-6.723600E+01
155	  0.050861724	-5.371000E+00	  0.050861724	-5.451300E+01	  0.050861724	5.338000E+01	  0.050861724	-6.599800E+01
156	  0.051062126	-5.386000E+00	  0.051062126	-5.612500E+01	  0.051062126	5.151900E+01	  0.051062126	-6.474800E+01
157	  0.051262524	-5.401000E+00	  0.051262524	-5.769300E+01	  0.051262524	4.981200E+01	  0.051262524	-6.352700E+01
158	  0.051462926	-5.417000E+00	  0.051462926	-5.926800E+01	  0.051462926	4.819100E+01	  0.051462926	-6.230000E+01
159	  0.051663328	-5.429000E+00	  0.051663328	-6.082500E+01	  0.051663328	4.665800E+01	  0.051663328	-6.111400E+01
160	  0.051863730	-5.443000E+00	  0.051863730	-6.235800E+01	  0.051863730	4.523400E+01	  0.051863730	-5.994200E+01
161	  0.052064128	-5.451000E+00	  0.052064128	-6.391400E+01	  0.052064128	4.383600E+01	  0.052064128	-5.879300E+01
162	  0.052264530	-5.462000E+00	  0.052264530	-6.544500E+01	  0.052264530	4.254300E+01	  0.052264530	-5.765600E+01
163	  0.052464932	-5.475000E+00	  0.052464932	-6.693600E+01	  0.052464932	4.135800E+01	  0.052464932	-5.654000E+01
164	  0.052665330	-5.488000E+00	  0.052665330	-6.844900E+01	  0.052665330	4.020900E+01	  0.052665330	-5.542600E+01
165	  0.052865732	-5.497000E+00	  0.052865732	-6.992000E+01	  0.052865732	3.913400E+01	  0.052865732	-5.436700E+01
166	  0.053066134	-5.513000E+00	  0.053066134	-7.140700E+01	  0.053066134	3.812600E+01	  0.053066134	-5.327800E+01
167	  0.053266536	-5.526000E+00	  0.053266536	-7.287600E+01	  0.053266536	3.716600E+01	  0.053266536	-5.222600E+01
168	  0.053466935	-5.542000E+00	  0.053466935	-7.433000E+01	  0.053466935	3.627200E+01	  0.053466935	-5.118700E+01
169	  0.053667337	-5.556000E+00	  0.053667337	-7.582200E+01	  0.053667337	3.538900E+01	  0.053667337	-5.014200E+01
170	  0.053867739	-5.568000E+00	  0.053867739	-7.727600E+01	  0.053867739	3.455900E+01	  0.053867739	-4.914500E+01
171	  0.054068137	-5.580000E+00	  0.054068137	-7.875000E+01	  0.054068137	3.375500E+01	  0.054068137	-4.814700E+01
172	  0.054268539	-5.596000E+00	  0.054268539	-8.020600E+01	  0.054268539	3.301300E+01	  0.054268539	-4.716000E+01
173	  0.054468941	-5.608000E+00	  0.054468941	-8.164400E+01	  0.054468941	3.230000E+01	  0.054468941	-4.621000E+01
174	  0.054669335	-5.625000E+00	  0.054669335	-8.309100E+01	  0.054669335	3.163000E+01	  0.054669335	-4.525200E+01
175	  0.054869737	-5.638000E+00	  0.054869737	-8.454200E+01	  0.054869737	3.097400E+01	  0.054869737	-4.431600E+01
176	  0.055070139	-5.653000E+00	  0.055070139	-8.600600E+01	  0.055070139	3.034700E+01	  0.055070139	-4.338000E+01
177	  0.055270538	-5.667000E+00	  0.055270538	-8.743300E+01	  0.055270538	2.975800E+01	  0.055270538	-4.248300E+01
178	  0.055470940	-5.681000E+00	  0.055470940	-8.887300E+01	  0.055470940	2.918900E+01	  0.055470940	-4.159000E+01
179	  0.055671342	-5.690000E+00	  0.055671342	-9.032700E+01	  0.055671342	2.862000E+01	  0.055671342	-4.071300E+01
180	  0.055871744	-5.699000E+00	  0.055871744	-9.178700E+01	  0.055871744	2.807400E+01	  0.055871744	-3.984200E+01
181	  0.056072142	-5.712000E+00	  0.056072142	-9.321600E+01	  0.056072142	2.757500E+01	  0.056072142	-3.899300E+01
182	  0.056272544	-5.720000E+00	  0.056272544	-9.462300E+01	  0.056272544	2.708800E+01	  0.056272544	-3.817700E+01
183	  0.056472946	-5.730000E+00	  0.056472946	-9.606400E+01	  0.056472946	2.661500E+01	  0.056472946	-3.734700E+01
184	  0.056673344	-5.735000E+00	  0.056673344	-9.747200E+01	  0.056673344	2.615500E+01	  0.056673344	-3.655600E+01
185	  0.056873746	-5.746000E+00	  0.056873746	-9.887900E+01	  0.056873746	2.573100E+01	  0.056873746	-3.576400E+01
186	  0.057074148	-5.753000E+00	  0.057074148	-1.002670E+02	  0.057074148	2.532000E+01	  0.057074148	-3.499800E+01
187	  0.057274550	-5.760000E+00	  0.057274550	-1.016500E+02	  0.057274550	2.492500E+01	  0.057274550	-3.424400E+01
188	  0.057474948	-5.761000E+00	  0.057474948	-1.030340E+02	  0.057474948	2.452300E+01	  0.057474948	-3.350900E+01
189	  0.057675350	-5.765000E+00	  0.057675350	-1.044220E+02	  0.057675350	2.414700E+01	  0.057675350	-3.277200E+01
190	  0.057875752	-5.771000E+00	  0.057875752	-1.057740E+02	  0.057875752	2.380100E+01	  0.057875752	-3.205900E+01
191	  0.058076151	-5.774000E+00	  0.058076151	-1.071290E+02	  0.058076151	2.345600E+01	  0.058076151	-3.135800E+01
192	  0.058276553	-5.779000E+00	  0.058276553	-1.084490E+02	  0.058276553	2.313900E+01	  0.058276553	-3.067700E+01
193	  0.058476955	-5.779000E+00	  0.058476955	-1.097540E+02	  0.058476955	2.282300E+01	  0.058476955	-3.001700E+01
194	  0.058677353	-5.783000E+00	  0.058677353	-1.110780E+02	  0.058677353	2.252500E+01	  0.058677353	-2.934900E+01
195	  0.058877755	-5.786000E+00	  0.058877755	-1.123720E+02	  0.058877755	2.224300E+01	  0.058877755	-2.870200E+01
196	  0.059078157	-5.787000E+00	  0.059078157	-1.136680E+02	  0.059078157	2.196200E+01	  0.059078157	-2.806300E+01
197	  0.059278559	-5.785000E+00	  0.059278559	-1.149510E+02	  0.059278559	2.168300E+01	  0.059278559	-2.744100E+01
198	  0.059478957	-5.786000E+00	  0.059478957	-1.161960E+02	  0.059478957	2.143200E+01	  0.059478957	-2.683700E+01
199	  0.059679359	-5.793000E+00	  0.059679359	-1.174670E+02	  0.059679359	2.120400E+01	  0.059679359	-2.621800E+01
200	  0.059879761	-5.795000E+00	  0.059879761	-1.186830E+02	  0.059879761	2.097700E+01	  0.059879761	-2.563700E+01
201	  0.060080159	-5.796000E+00	  0.060080159	-1.199320E+02	  0.060080159	2.075100E+01	  0.060080159	-2.504500E+01
202	  0.060280561	-5.802000E+00	  0.060280561	-1.211450E+02	  0.060280561	2.055100E+01	  0.060280561	-2.447000E+01
203	  0.060480963	-5.806000E+00	  0.060480963	-1.223380E+02	  0.060480963	2.035800E+01	  0.060480963	-2.391000E+01
204	  0.060681365	-5.810000E+00	  0.060681365	-1.235550E+02	  0.060681365	2.016600E+01	  0.060681365	-2.334300E+01
205	  0.060881764	-5.812000E+00	  0.060881764	-1.247260E+02	  0.060881764	1.998600E+01	  0.060881764	-2.280300E+01
206	  0.061082166	-5.818000E+00	  0.061082166	-1.259520E+02	  0.061082166	1.980900E+01	  0.061082166	-2.223900E+01
207	  0.061282568	-5.820000E+00	  0.061282568	-1.271310E+02	  0.061282568	1.963900E+01	  0.061282568	-2.170300E+01
208	  0.061482966	-5.830000E+00	  0.061482966	-1.283190E+02	  0.061482966	1.949400E+01	  0.061482966	-2.115900E+01
209	  0.061683368	-5.833000E+00	  0.061683368	-1.294850E+02	  0.061683368	1.933800E+01	  0.061683368	-2.063500E+01
210	  0.061883770	-5.839000E+00	  0.061883770	-1.306540E+02	  0.061883770	1.919500E+01	  0.061883770	-2.011100E+01
211	  0.062084168	-5.844000E+00	  0.062084168	-1.318360E+02	  0.062084168	1.905300E+01	  0.062084168	-1.958500E+01
212	  0.062284570	-5.850000E+00	  0.062284570	-1.329890E+02	  0.062284570	1.892200E+01	  0.062284570	-1.907500E+01
213	  0.062484972	-5.847000E+00	  0.062484972	-1.341170E+02	  0.062484972	1.877400E+01	  0.062484972	-1.858500E+01
214	  0.062685370	-5.853000E+00	  0.062685370	-1.353160E+02	  0.062685370	1.864600E+01	  0.062685370	-1.806000E+01
215	  0.062885776	-5.857000E+00	  0.062885776	-1.364710E+02	  0.062885776	1.852500E+01	  0.062885776	-1.755800E+01
216	  0.063086174	-5.864000E+00	  0.063086174	-1.375940E+02	  0.063086174	1.842000E+01	  0.063086174	-1.707100E+01
217	  0.063286573	-5.865000E+00	  0.063286573	-1.387710E+02	  0.063286573	1.829600E+01	  0.063286573	-1.656800E+01
218	  0.063486971	-5.873000E+00	  0.063486971	-1.399220E+02	  0.063486971	1.819900E+01	  0.063486971	-1.607400E+01
219	  0.063687377	-5.869000E+00	  0.063687377	-1.410390E+02	  0.063687377	1.807700E+01	  0.063687377	-1.560400E+01
220	  0.063887775	-5.875000E+00	  0.063887775	-1.421860E+02	  0.063887775	1.798100E+01	  0.063887775	-1.511800E+01
221	  0.064088173	-5.875000E+00	  0.064088173	-1.433290E+02	  0.064088173	1.787500E+01	  0.064088173	-1.463900E+01
222	  0.064288579	-5.879000E+00	  0.064288579	-1.444760E+02	  0.064288579	1.778400E+01	  0.064288579	-1.415800E+01
223	  0.064488977	-5.881000E+00	  0.064488977	-1.456340E+02	  0.064488977	1.769000E+01	  0.064488977	-1.367600E+01
224	  0.064689375	-5.885000E+00	  0.064689375	-1.467500E+02	  0.064689375	1.760800E+01	  0.064689375	-1.321200E+01
225	  0.064889781	-5.889000E+00	  0.064889781	-1.478940E+02	  0.064889781	1.752600E+01	  0.064889781	-1.274000E+01
226	  0.065090179	-5.890000E+00	  0.065090179	-1.489860E+02	  0.065090179	1.744500E+01	  0.065090179	-1.229100E+01
227	  0.065290578	-5.895000E+00	  0.065290578	-1.500950E+02	  0.065290578	1.737800E+01	  0.065290578	-1.183500E+01
228	  0.065490983	-5.895000E+00	  0.065490983	-1.511880E+02	  0.065490983	1.730200E+01	  0.065490983	-1.139000E+01
229	  0.065691382	-5.895000E+00	  0.065691382	-1.523120E+02	  0.065691382	1.722600E+01	  0.065691382	-1.093300E+01
230	  0.065891780	-5.895000E+00	  0.065891780	-1.534170E+02	  0.065891780	1.715500E+01	  0.065891780	-1.048600E+01
231	  0.066092186	-5.898000E+00	  0.066092186	-1.545060E+02	  0.066092186	1.709500E+01	  0.066092186	-1.004500E+01
232	  0.066292584	-5.899000E+00	  0.066292584	-1.555860E+02	  0.066292584	1.703600E+01	  0.066292584	-9.610000E+00
233	  0.066492982	-5.903000E+00	  0.066492982	-1.566620E+02	  0.066492982	1.698500E+01	  0.066492982	-9.178000E+00
234	  0.066693388	-5.906000E+00	  0.066693388	-1.577540E+02	  0.066693388	1.693600E+01	  0.066693388	-8.739000E+00
235	  0.066893786	-5.909000E+00	  0.066893786	-1.588060E+02	  0.066893786	1.689200E+01	  0.066893786	-8.318000E+00
236	  0.067094192	-5.914000E+00	  0.067094192	-1.598650E+02	  0.067094192	1.685300E+01	  0.067094192	-7.895000E+00
237	  0.067294590	-5.914000E+00	  0.067294590	-1.609130E+02	  0.067294590	1.680700E+01	  0.067294590	-7.479000E+00
238	  0.067494988	-5.919000E+00	  0.067494988	-1.619790E+02	  0.067494988	1.677500E+01	  0.067494988	-7.055000E+00
239	  0.067695394	-5.920000E+00	  0.067695394	-1.630270E+02	  0.067695394	1.673500E+01	  0.067695394	-6.640000E+00
240	  0.067895792	-5.921000E+00	  0.067895792	-1.640690E+02	  0.067895792	1.669700E+01	  0.067895792	-6.229000E+00
241	  0.068096191	-5.927000E+00	  0.068096191	-1.651200E+02	  0.068096191	1.667800E+01	  0.068096191	-5.813000E+00
242	  0.068296596	-5.930000E+00	  0.068296596	-1.661640E+02	  0.068296596	1.665200E+01	  0.068296596	-5.402000E+00
243	  0.068496995	-5.936000E+00	  0.068496995	-1.671940E+02	  0.068496995	1.663400E+01	  0.068496995	-4.996000E+00
244	  0.068697393	-5.938000E+00	  0.068697393	-1.682250E+02	  0.068697393	1.661100E+01	  0.068697393	-4.591000E+00
245	  0.068897791	-5.945000E+00	  0.068897791	-1.692490E+02	  0.068897791	1.660300E+01	  0.068897791	-4.189000E+00
246	  0.069098189	-5.940000E+00	  0.069098189	-1.702750E+02	  0.069098189	1.656600E+01	  0.069098189	-3.789000E+00
247	  0.069298595	-5.942000E+00	  0.069298595	-1.712790E+02	  0.069298595	1.655100E+01	  0.069298595	-3.396000E+00
248	  0.069498993	-5.955000E+00	  0.069498993	-1.723250E+02	  0.069498993	1.656500E+01	  0.069498993	-2.987000E+00
249	  0.069699399	-5.954000E+00	  0.069699399	-1.733740E+02	  0.069699399	1.654600E+01	  0.069699399	-2.578000E+00
250	  0.069899797	-5.958000E+00	  0.069899797	-1.743650E+02	  0.069899797	1.654300E+01	  0.069899797	-2.191000E+00
251	  0.070100196	-5.963000E+00	  0.070100196	-1.753680E+02	  0.070100196	1.654300E+01	  0.070100196	-1.800000E+00
252	  0.070300601	-5.965000E+00	  0.070300601	-1.763710E+02	  0.070300601	1.654100E+01	  0.070300601	-1.410000E+00
253	  0.070501000	-5.968000E+00	  0.070501000	-1.773780E+02	  0.070501000	1.654000E+01	  0.070501000	-1.018000E+00
254	  0.070701398	-5.971000E+00	  0.070701398	-1.783400E+02	  0.070701398	1.654300E+01	  0.070701398	-6.440000E-01
255	  0.070901804	-5.976000E+00	  0.070901804	-1.793190E+02	  0.070901804	1.655400E+01	  0.070901804	-2.640000E-01
256	  0.071102202	-5.981000E+00	  0.071102202	1.796910E+02	  0.071102202	1.656600E+01	  0.071102202	1.200000E-01
257	  0.071302600	-5.982000E+00	  0.071302600	1.786910E+02	  0.071302600	1.656900E+01	  0.071302600	5.080000E-01
258	  0.071503006	-5.986000E+00	  0.071503006	1.777100E+02	  0.071503006	1.658600E+01	  0.071503006	8.890000E-01
259	  0.071703404	-5.998000E+00	  0.071703404	1.767250E+02	  0.071703404	1.662200E+01	  0.071703404	1.271000E+00
260	  0.071903802	-6.006000E+00	  0.071903802	1.757550E+02	  0.071903802	1.665200E+01	  0.071903802	1.647000E+00
261	  0.072104208	-6.006000E+00	  0.072104208	1.747820E+02	  0.072104208	1.666100E+01	  0.072104208	2.025000E+00
262	  0.072304606	-6.013000E+00	  0.072304606	1.737920E+02	  0.072304606	1.669200E+01	  0.072304606	2.409000E+00
263	  0.072505005	-6.021000E+00	  0.072505005	1.728590E+02	  0.072505005	1.672700E+01	  0.072505005	2.771000E+00
264	  0.072705410	-6.027000E+00	  0.072705410	1.718970E+02	  0.072705410	1.675900E+01	  0.072705410	3.145000E+00
265	  0.072905809	-6.031000E+00	  0.072905809	1.709070E+02	  0.072905809	1.678700E+01	  0.072905809	3.529000E+00
266	  0.073106214	-6.041000E+00	  0.073106214	1.699570E+02	  0.073106214	1.683400E+01	  0.073106214	3.898000E+00
267	  0.073306613	-6.047000E+00	  0.073306613	1.690030E+02	  0.073306613	1.687200E+01	  0.073306613	4.269000E+00
268	  0.073507011	-6.059000E+00	  0.073507011	1.680680E+02	  0.073507011	1.692700E+01	  0.073507011	4.631000E+00
269	  0.073707417	-6.066000E+00	  0.073707417	1.671030E+02	  0.073707417	1.697300E+01	  0.073707417	5.007000E+00
270	  0.073907815	-6.074000E+00	  0.073907815	1.661680E+02	  0.073907815	1.702300E+01	  0.073907815	5.370000E+00
271	  0.074108213	-6.080000E+00	  0.074108213	1.652020E+02	  0.074108213	1.707100E+01	  0.074108213	5.747000E+00
272	  0.074308619	-6.090000E+00	  0.074308619	1.642850E+02	  0.074308619	1.712800E+01	  0.074308619	6.103000E+00
273	  0.074509017	-6.094000E+00	  0.074509017	1.633160E+02	  0.074509017	1.717500E+01	  0.074509017	6.482000E+00
274	  0.074709415	-6.104000E+00	  0.074709415	1.623810E+02	  0.074709415	1.723800E+01	  0.074709415	6.846000E+00
275	  0.074909821	-6.110000E+00	  0.074909821	1.614550E+02	  0.074909821	1.729300E+01	  0.074909821	7.208000E+00
276	  0.075110219	-6.120000E+00	  0.075110219	1.605080E+02	  0.075110219	1.736200E+01	  0.075110219	7.578000E+00
277	  0.075310618	-6.128000E+00	  0.075310618	1.595900E+02	  0.075310618	1.742600E+01	  0.075310618	7.937000E+00
278	  0.075511023	-6.133000E+00	  0.075511023	1.587110E+02	  0.075511023	1.748200E+01	  0.075511023	8.283000E+00
279	  0.075711422	-6.140000E+00	  0.075711422	1.577810E+02	  0.075711422	1.754700E+01	  0.075711422	8.648000E+00
280	  0.075911827	-6.147000E+00	  0.075911827	1.568700E+02	  0.075911827	1.761600E+01	  0.075911827	9.006000E+00
281	  0.076112226	-6.157000E+00	  0.076112226	1.559710E+02	  0.076112226	1.769200E+01	  0.076112226	9.359000E+00
282	  0.076312624	-6.162000E+00	  0.076312624	1.550390E+02	  0.076312624	1.776200E+01	  0.076312624	9.727000E+00
283	  0.076513030	-6.172000E+00	  0.076513030	1.541520E+02	  0.076513030	1.784200E+01	  0.076513030	1.007700E+01
284	  0.076713428	-6.177000E+00	  0.076713428	1.532370E+02	  0.076713428	1.791500E+01	  0.076713428	1.043900E+01
285	  0.076913826	-6.185000E+00	  0.076913826	1.523420E+02	  0.076913826	1.799400E+01	  0.076913826	1.079300E+01
286	  0.077114232	-6.193000E+00	  0.077114232	1.514760E+02	  0.077114232	1.807600E+01	  0.077114232	1.113700E+01
287	  0.077314630	-6.197000E+00	  0.077314630	1.506050E+02	  0.077314630	1.814800E+01	  0.077314630	1.148500E+01
288	  0.077515028	-6.210000E+00	  0.077515028	1.497270E+02	  0.077515028	1.824900E+01	  0.077515028	1.183100E+01
289	  0.077715434	-6.217000E+00	  0.077715434	1.488500E+02	  0.077715434	1.833400E+01	  0.077715434	1.218100E+01
290	  0.077915832	-6.226000E+00	  0.077915832	1.480250E+02	  0.077915832	1.842300E+01	  0.077915832	1.251000E+01
291	  0.078116231	-6.235000E+00	  0.078116231	1.471330E+02	  0.078116231	1.852100E+01	  0.078116231	1.286600E+01
292	  0.078316636	-6.244000E+00	  0.078316636	1.462830E+02	  0.078316636	1.861600E+01	  0.078316636	1.320600E+01
293	  0.078517035	-6.256000E+00	  0.078517035	1.454170E+02	  0.078517035	1.872500E+01	  0.078517035	1.355100E+01
294	  0.078717433	-6.267000E+00	  0.078717433	1.445650E+02	  0.078717433	1.883100E+01	  0.078717433	1.389200E+01
295	  0.078917839	-6.280000E+00	  0.078917839	1.437190E+02	  0.078917839	1.894400E+01	  0.078917839	1.423000E+01
296	  0.079118237	-6.291000E+00	  0.079118237	1.428840E+02	  0.079118237	1.905400E+01	  0.079118237	1.456500E+01
297	  0.079318643	-6.302000E+00	  0.079318643	1.420510E+02	  0.079318643	1.916300E+01	  0.079318643	1.490000E+01
298	  0.079519041	-6.318000E+00	  0.079519041	1.412160E+02	  0.079519041	1.929300E+01	  0.079519041	1.523200E+01
299	  0.079719439	-6.330000E+00	  0.079719439	1.403670E+02	  0.079719439	1.941400E+01	  0.079719439	1.557400E+01
300	  0.079919845	-6.346000E+00	  0.079919845	1.395470E+02	  0.079919845	1.954400E+01	  0.079919845	1.590300E+01
301	  0.080120243	-6.363000E+00	  0.080120243	1.387030E+02	  0.080120243	1.968400E+01	  0.080120243	1.624000E+01
302	  0.080320641	-6.378000E+00	  0.080320641	1.378570E+02	  0.080320641	1.982200E+01	  0.080320641	1.657900E+01
303	  0.080521047	-6.397000E+00	  0.080521047	1.370110E+02	  0.080521047	1.997200E+01	  0.080521047	1.691700E+01
304	  0.080721445	-6.412000E+00	  0.080721445	1.361950E+02	  0.080721445	2.011100E+01	  0.080721445	1.724600E+01
305	  0.080921844	-6.432000E+00	  0.080921844	1.353550E+02	  0.080921844	2.027000E+01	  0.080921844	1.758000E+01
306	  0.081122249	-6.447000E+00	  0.081122249	1.345120E+02	  0.081122249	2.041600E+01	  0.081122249	1.792100E+01
307	  0.081322648	-6.463000E+00	  0.081322648	1.337080E+02	  0.081322648	2.056400E+01	  0.081322648	1.824600E+01
308	  0.081523046	-6.481000E+00	  0.081523046	1.328400E+02	  0.081523046	2.073100E+01	  0.081523046	1.859500E+01
309	  0.081723452	-6.502000E+00	  0.081723452	1.319940E+02	  0.081723452	2.090400E+01	  0.081723452	1.893400E+01
310	  0.081923850	-6.515000E+00	  0.081923850	1.311590E+02	  0.081923850	2.105600E+01	  0.081923850	1.927500E+01
311	  0.082124248	-6.533000E+00	  0.082124248	1.303320E+02	  0.082124248	2.122500E+01	  0.082124248	1.960900E+01
312	  0.082324654	-6.547000E+00	  0.082324654	1.295070E+02	  0.082324654	2.138700E+01	  0.082324654	1.994600E+01
313	  0.082525052	-6.566000E+00	  0.082525052	1.286740E+02	  0.082525052	2.156600E+01	  0.082525052	2.028300E+01
314	  0.082725458	-6.587000E+00	  0.082725458	1.278620E+02	  0.082725458	2.175000E+01	  0.082725458	2.060800E+01
315	  0.082925856	-6.603000E+00	  0.082925856	1.270310E+02	  0.082925856	2.192600E+01	  0.082925856	2.094800E+01
316	  0.083126254	-6.628000E+00	  0.083126254	1.262030E+02	  0.083126254	2.213300E+01	  0.083126254	2.127600E+01
317	  0.083326660	-6.644000E+00	  0.083326660	1.253650E+02	  0.083326660	2.231700E+01	  0.083326660	2.162000E+01
318	  0.083527058	-6.658000E+00	  0.083527058	1.245670E+02	  0.083527058	2.249400E+01	  0.083527058	2.194700E+01
319	  0.083727457	-6.679000E+00	  0.083727457	1.237670E+02	  0.083727457	2.269300E+01	  0.083727457	2.227000E+01
320	  0.083927862	-6.702000E+00	  0.083927862	1.229590E+02	  0.083927862	2.290100E+01	  0.083927862	2.259400E+01
321	  0.084128261	-6.719000E+00	  0.084128261	1.221500E+02	  0.084128261	2.309900E+01	  0.084128261	2.292400E+01
322	  0.084328659	-6.740000E+00	  0.084328659	1.213500E+02	  0.084328659	2.331000E+01	  0.084328659	2.324600E+01
323	  0.084529065	-6.760000E+00	  0.084529065	1.205670E+02	  0.084529065	2.351600E+01	  0.084529065	2.356300E+01
324	  0.084729463	-6.781000E+00	  0.084729463	1.197970E+02	  0.084729463	2.372800E+01	  0.084729463	2.387200E+01
325	  0.084929854	-6.801000E+00	  0.084929854	1.189780E+02	  0.084929854	2.394900E+01	  0.084929854	2.420500E+01
326	  0.085130259	-6.820000E+00	  0.085130259	1.181470E+02	  0.085130259	2.417300E+01	  0.085130259	2.454400E+01
327	  0.085330658	-6.844000E+00	  0.085330658	1.173560E+02	  0.085330658	2.441100E+01	  0.085330658	2.485800E+01
328	  0.085531056	-6.859000E+00	  0.085531056	1.165880E+02	  0.085531056	2.461800E+01	  0.085531056	2.517600E+01
329	  0.085731462	-6.884000E+00	  0.085731462	1.158010E+02	  0.085731462	2.486200E+01	  0.085731462	2.548800E+01
330	  0.085931860	-6.909000E+00	  0.085931860	1.150240E+02	  0.085931860	2.510800E+01	  0.085931860	2.579400E+01
331	  0.086132258	-6.929000E+00	  0.086132258	1.142860E+02	  0.086132258	2.533800E+01	  0.086132258	2.609000E+01
332	  0.086332664	-6.954000E+00	  0.086332664	1.135250E+02	  0.086332664	2.558700E+01	  0.086332664	2.639000E+01
333	  0.086533062	-6.974000E+00	  0.086533062	1.127710E+02	  0.086533062	2.582500E+01	  0.086533062	2.669300E+01
334	  0.086733460	-6.999000E+00	  0.086733460	1.120210E+02	  0.086733460	2.608000E+01	  0.086733460	2.698600E+01
335	  0.086933866	-7.022000E+00	  0.086933866	1.112560E+02	  0.086933866	2.633800E+01	  0.086933866	2.728900E+01
336	  0.087134264	-7.042000E+00	  0.087134264	1.105130E+02	  0.087134264	2.658500E+01	  0.087134264	2.758700E+01
337	  0.087334670	-7.072000E+00	  0.087334670	1.097710E+02	  0.087334670	2.686500E+01	  0.087334670	2.786600E+01
338	  0.087535068	-7.093000E+00	  0.087535068	1.090250E+02	  0.087535068	2.712500E+01	  0.087535068	2.816100E+01
339	  0.087735467	-7.121000E+00	  0.087735467	1.083290E+02	  0.087735467	2.739400E+01	  0.087735467	2.842300E+01
340	  0.087935872	-7.140000E+00	  0.087935872	1.075870E+02	  0.087935872	2.765400E+01	  0.087935872	2.872000E+01
341	  0.088136271	-7.170000E+00	  0.088136271	1.068580E+02	  0.088136271	2.794700E+01	  0.088136271	2.899000E+01
342	  0.088336669	-7.190000E+00	  0.088336669	1.061480E+02	  0.088336669	2.820900E+01	  0.088336669	2.926900E+01
343	  0.088537075	-7.214000E+00	  0.088537075	1.054490E+02	  0.088537075	2.848100E+01	  0.088537075	2.953700E+01
344	  0.088737473	-7.234000E+00	  0.088737473	1.047440E+02	  0.088737473	2.875000E+01	  0.088737473	2.981200E+01
345	  0.088937871	-7.259000E+00	  0.088937871	1.040240E+02	  0.088937871	2.904200E+01	  0.088937871	3.008500E+01
346	  0.089138277	-7.281000E+00	  0.089138277	1.033280E+02	  0.089138277	2.932000E+01	  0.089138277	3.035100E+01
347	  0.089338675	-7.307000E+00	  0.089338675	1.026610E+02	  0.089338675	2.960700E+01	  0.089338675	3.059500E+01
348	  0.089539073	-7.332000E+00	  0.089539073	1.019760E+02	  0.089539073	2.990000E+01	  0.089539073	3.084800E+01
349	  0.089739479	-7.365000E+00	  0.089739479	1.013270E+02	  0.089739479	3.020600E+01	  0.089739479	3.106700E+01
350	  0.089939877	-7.384000E+00	  0.089939877	1.006330E+02	  0.089939877	3.049100E+01	  0.089939877	3.133500E+01
351	  0.090140276	-7.410000E+00	  0.090140276	9.996200E+01	  0.090140276	3.079400E+01	  0.090140276	3.157600E+01
352	  0.090340681	-7.438000E+00	  0.090340681	9.932200E+01	  0.090340681	3.109500E+01	  0.090340681	3.179700E+01
353	  0.090541080	-7.459000E+00	  0.090541080	9.862100E+01	  0.090541080	3.140000E+01	  0.090541080	3.206100E+01
354	  0.090741485	-7.487000E+00	  0.090741485	9.799300E+01	  0.090741485	3.170500E+01	  0.090741485	3.227300E+01
355	  0.090941884	-7.508000E+00	  0.090941884	9.733500E+01	  0.090941884	3.200300E+01	  0.090941884	3.251400E+01
356	  0.091142282	-7.542000E+00	  0.091142282	9.668900E+01	  0.091142282	3.234000E+01	  0.091142282	3.271600E+01
357	  0.091342688	-7.571000E+00	  0.091342688	9.604600E+01	  0.091342688	3.266100E+01	  0.091342688	3.293000E+01
358	  0.091543086	-7.600000E+00	  0.091543086	9.541200E+01	  0.091543086	3.298500E+01	  0.091543086	3.313600E+01
359	  0.091743484	-7.625000E+00	  0.091743484	9.474500E+01	  0.091743484	3.331400E+01	  0.091743484	3.336400E+01
360	  0.091943890	-7.654000E+00	  0.091943890	9.411600E+01	  0.091943890	3.364500E+01	  0.091943890	3.356200E+01
361	  0.092144288	-7.679000E+00	  0.092144288	9.343400E+01	  0.092144288	3.398800E+01	  0.092144288	3.379300E+01
362	  0.092344686	-7.709000E+00	  0.092344686	9.279400E+01	  0.092344686	3.433300E+01	  0.092344686	3.399000E+01
363	  0.092545092	-7.736000E+00	  0.092545092	9.214900E+01	  0.092545092	3.467200E+01	  0.092545092	3.419700E+01
364	  0.092745490	-7.766000E+00	  0.092745490	9.153600E+01	  0.092745490	3.501300E+01	  0.092745490	3.437700E+01
365	  0.092945889	-7.799000E+00	  0.092945889	9.088500E+01	  0.092945889	3.538200E+01	  0.092945889	3.456300E+01
366	  0.093146294	-7.831000E+00	  0.093146294	9.027000E+01	  0.093146294	3.573600E+01	  0.093146294	3.473500E+01
367	  0.093346693	-7.857000E+00	  0.093346693	8.961500E+01	  0.093346693	3.609500E+01	  0.093346693	3.493600E+01
368	  0.093547091	-7.886000E+00	  0.093547091	8.901900E+01	  0.093547091	3.643900E+01	  0.093547091	3.510300E+01
369	  0.093747497	-7.923000E+00	  0.093747497	8.839100E+01	  0.093747497	3.682400E+01	  0.093747497	3.525500E+01
370	  0.093947895	-7.946000E+00	  0.093947895	8.771700E+01	  0.093947895	3.719600E+01	  0.093947895	3.546400E+01
371	  0.094148301	-7.982000E+00	  0.094148301	8.714300E+01	  0.094148301	3.755900E+01	  0.094148301	3.559200E+01
372	  0.094348699	-8.012000E+00	  0.094348699	8.650900E+01	  0.094348699	3.794000E+01	  0.094348699	3.575800E+01
373	  0.094549097	-8.042000E+00	  0.094549097	8.593600E+01	  0.094549097	3.829300E+01	  0.094549097	3.589600E+01
374	  0.094749503	-8.074000E+00	  0.094749503	8.532000E+01	  0.094749503	3.867500E+01	  0.094749503	3.604500E+01
375	  0.094949901	-8.108000E+00	  0.094949901	8.472300E+01	  0.094949901	3.905600E+01	  0.094949901	3.617500E+01
376	  0.095150299	-8.136000E+00	  0.095150299	8.416200E+01	  0.095150299	3.940900E+01	  0.095150299	3.630400E+01
377	  0.095350705	-8.168000E+00	  0.095350705	8.353200E+01	  0.095350705	3.980900E+01	  0.095350705	3.644700E+01
378	  0.095551103	-8.197000E+00	  0.095551103	8.294200E+01	  0.095551103	4.018500E+01	  0.095551103	3.657800E+01
379	  0.095751502	-8.231000E+00	  0.095751502	8.235800E+01	  0.095751502	4.057400E+01	  0.095751502	3.668700E+01
380	  0.095951907	-8.259000E+00	  0.095951907	8.178600E+01	  0.095951907	4.094300E+01	  0.095951907	3.681000E+01
381	  0.096152306	-8.289000E+00	  0.096152306	8.123300E+01	  0.096152306	4.130900E+01	  0.096152306	3.691600E+01
382	  0.096352704	-8.321000E+00	  0.096352704	8.069800E+01	  0.096352704	4.167400E+01	  0.096352704	3.700300E+01
383	  0.096553110	-8.352000E+00	  0.096553110	8.013900E+01	  0.096553110	4.205300E+01	  0.096553110	3.709900E+01
384	  0.096753508	-8.378000E+00	  0.096753508	7.958700E+01	  0.096753508	4.241900E+01	  0.096753508	3.720600E+01
385	  0.096953906	-8.412000E+00	  0.096953906	7.907600E+01	  0.096953906	4.278300E+01	  0.096953906	3.726500E+01
386	  0.097154312	-8.445000E+00	  0.097154312	7.853800E+01	  0.097154312	4.316000E+01	  0.097154312	3.733800E+01
387	  0.097354710	-8.470000E+00	  0.097354710	7.799500E+01	  0.097354710	4.352700E+01	  0.097354710	3.743400E+01
388	  0.097555116	-8.504000E+00	  0.097555116	7.749300E+01	  0.097555116	4.389100E+01	  0.097555116	3.748300E+01
389	  0.097755514	-8.538000E+00	  0.097755514	7.698200E+01	  0.097755514	4.426300E+01	  0.097755514	3.752700E+01
390	  0.097955912	-8.568000E+00	  0.097955912	7.648600E+01	  0.097955912	4.461800E+01	  0.097955912	3.758100E+01
391	  0.098156318	-8.597000E+00	  0.098156318	7.597000E+01	  0.098156318	4.498600E+01	  0.098156318	3.763900E+01
392	  0.098356716	-8.631000E+00	  0.098356716	7.549000E+01	  0.098356716	4.534500E+01	  0.098356716	3.766300E+01
393	  0.098557115	-8.663000E+00	  0.098557115	7.498600E+01	  0.098557115	4.571400E+01	  0.098557115	3.769900E+01
394	  0.098757520	-8.691000E+00	  0.098757520	7.448100E+01	  0.098757520	4.607800E+01	  0.098757520	3.774700E+01
395	  0.098957919	-8.723000E+00	  0.098957919	7.398300E+01	  0.098957919	4.644700E+01	  0.098957919	3.777500E+01
396	  0.099158317	-8.754000E+00	  0.099158317	7.347300E+01	  0.099158317	4.682300E+01	  0.099158317	3.780500E+01
397	  0.099358723	-8.784000E+00	  0.099358723	7.302200E+01	  0.099358723	4.716300E+01	  0.099358723	3.781800E+01
398	  0.099559121	-8.812000E+00	  0.099559121	7.251700E+01	  0.099559121	4.753400E+01	  0.099559121	3.784900E+01
399	  0.099759519	-8.845000E+00	  0.099759519	7.204100E+01	  0.099759519	4.789700E+01	  0.099759519	3.784900E+01
400	  0.099959925	-8.864000E+00	  0.099959925	7.156500E+01	  0.099959925	4.823500E+01	  0.099959925	3.790600E+01
401	  0.100160323	-8.895000E+00	  0.100160323	7.108700E+01	  0.100160323	4.859700E+01	  0.100160323	3.790900E+01
402	  0.100360721	-8.909000E+00	  0.100360721	7.057000E+01	  0.100360721	4.895700E+01	  0.100360721	3.798900E+01
403	  0.100561127	-8.941000E+00	  0.100561127	7.013800E+01	  0.100561127	4.929400E+01	  0.100561127	3.796800E+01
404	  0.100761525	-8.964000E+00	  0.100761525	6.964100E+01	  0.100761525	4.966000E+01	  0.100761525	3.799600E+01
405	  0.100961931	-8.992000E+00	  0.100961931	6.918800E+01	  0.100961931	5.000700E+01	  0.100961931	3.799000E+01
406	  0.101162329	-9.007000E+00	  0.101162329	6.876400E+01	  0.101162329	5.031300E+01	  0.101162329	3.803100E+01
407	  0.101362728	-9.026000E+00	  0.101362728	6.834000E+01	  0.101362728	5.062800E+01	  0.101362728	3.805100E+01
408	  0.101563133	-9.031000E+00	  0.101563133	6.790000E+01	  0.101563133	5.093300E+01	  0.101563133	3.813400E+01
409	  0.101763532	-9.067000E+00	  0.101763532	6.749600E+01	  0.101763532	5.126400E+01	  0.101763532	3.806400E+01
410	  0.101963930	-9.073000E+00	  0.101963930	6.707600E+01	  0.101963930	5.155900E+01	  0.101963930	3.813600E+01
411	  0.102164328	-9.100000E+00	  0.102164328	6.664500E+01	  0.102164328	5.189600E+01	  0.102164328	3.810900E+01
412	  0.102364726	-9.108000E+00	  0.102364726	6.620000E+01	  0.102364726	5.221600E+01	  0.102364726	3.816700E+01
413	  0.102565125	-9.117000E+00	  0.102565125	6.582200E+01	  0.102565125	5.249200E+01	  0.102565125	3.820700E+01
414	  0.102765530	-9.120000E+00	  0.102765530	6.540300E+01	  0.102765530	5.279100E+01	  0.102765530	3.828300E+01
415	  0.102965929	-9.137000E+00	  0.102965929	6.501800E+01	  0.102965929	5.308600E+01	  0.102965929	3.827900E+01
416	  0.103166327	-9.143000E+00	  0.103166327	6.464900E+01	  0.103166327	5.335700E+01	  0.103166327	3.832200E+01
417	  0.103366733	-9.150000E+00	  0.103366733	6.432000E+01	  0.103366733	5.360100E+01	  0.103366733	3.835700E+01
418	  0.103567131	-9.155000E+00	  0.103567131	6.389600E+01	  0.103567131	5.391200E+01	  0.103567131	3.841300E+01
419	  0.103767529	-9.166000E+00	  0.103767529	6.356400E+01	  0.103767529	5.416600E+01	  0.103767529	3.842200E+01
420	  0.103967935	-9.177000E+00	  0.103967935	6.322700E+01	  0.103967935	5.442500E+01	  0.103967935	3.842900E+01
421	  0.104168333	-9.171000E+00	  0.104168333	6.286300E+01	  0.104168333	5.468400E+01	  0.104168333	3.852200E+01
422	  0.104368731	-9.179000E+00	  0.104368731	6.247400E+01	  0.104368731	5.498100E+01	  0.104368731	3.854600E+01
423	  0.104569137	-9.180000E+00	  0.104569137	6.215300E+01	  0.104569137	5.522000E+01	  0.104569137	3.859600E+01
424	  0.104769535	-9.190000E+00	  0.104769535	6.181300E+01	  0.104769535	5.548400E+01	  0.104769535	3.860200E+01
425	  0.104969934	-9.191000E+00	  0.104969934	6.146400E+01	  0.104969934	5.574600E+01	  0.104969934	3.865200E+01
426	  0.105170339	-9.201000E+00	  0.105170339	6.103100E+01	  0.105170339	5.608300E+01	  0.105170339	3.866900E+01
427	  0.105370738	-9.207000E+00	  0.105370738	6.071100E+01	  0.105370738	5.633200E+01	  0.105370738	3.868200E+01
428	  0.105571143	-9.211000E+00	  0.105571143	6.031900E+01	  0.105571143	5.663500E+01	  0.105571143	3.872000E+01
429	  0.105771542	-9.221000E+00	  0.105771542	5.990100E+01	  0.105771542	5.696500E+01	  0.105771542	3.872600E+01
430	  0.105971940	-9.226000E+00	  0.105971940	5.954200E+01	  0.105971940	5.724700E+01	  0.105971940	3.874400E+01
431	  0.106172346	-9.229000E+00	  0.106172346	5.912600E+01	  0.106172346	5.757200E+01	  0.106172346	3.878000E+01
432	  0.106372744	-9.233000E+00	  0.106372744	5.864400E+01	  0.106372744	5.795200E+01	  0.106372744	3.881500E+01
433	  0.106573142	-9.233000E+00	  0.106573142	5.824000E+01	  0.106573142	5.827000E+01	  0.106573142	3.886200E+01
434	  0.106773548	-9.236000E+00	  0.106773548	5.774500E+01	  0.106773548	5.866500E+01	  0.106773548	3.889600E+01
435	  0.106973946	-9.238000E+00	  0.106973946	5.725700E+01	  0.106973946	5.905600E+01	  0.106973946	3.893400E+01
436	  0.107174344	-9.249000E+00	  0.107174344	5.676300E+01	  0.107174344	5.946100E+01	  0.107174344	3.891700E+01
437	  0.107374750	-9.248000E+00	  0.107374750	5.627400E+01	  0.107374750	5.985700E+01	  0.107374750	3.896400E+01
438	  0.107575148	-9.250000E+00	  0.107575148	5.570400E+01	  0.107575148	6.032400E+01	  0.107575148	3.899100E+01
439	  0.107775547	-9.246000E+00	  0.107775547	5.514200E+01	  0.107775547	6.078600E+01	  0.107775547	3.904900E+01
440	  0.107975952	-9.243000E+00	  0.107975952	5.459400E+01	  0.107975952	6.124100E+01	  0.107975952	3.909700E+01
441	  0.108176351	-9.247000E+00	  0.108176351	5.407000E+01	  0.108176351	6.168100E+01	  0.108176351	3.909400E+01
442	  0.108376749	-9.237000E+00	  0.108376749	5.349800E+01	  0.108376749	6.216300E+01	  0.108376749	3.917000E+01
443	  0.108577155	-9.226000E+00	  0.108577155	5.286100E+01	  0.108577155	6.270500E+01	  0.108577155	3.924700E+01
444	  0.108777553	-9.224000E+00	  0.108777553	5.230000E+01	  0.108777553	6.318900E+01	  0.108777553	3.926600E+01
445	  0.108977959	-9.214000E+00	  0.108977959	5.168500E+01	  0.108977959	6.372400E+01	  0.108977959	3.932600E+01
446	  0.109178357	-9.201000E+00	  0.109178357	5.104400E+01	  0.109178357	6.428900E+01	  0.109178357	3.939500E+01
447	  0.109378755	-9.195000E+00	  0.109378755	5.045100E+01	  0.109378755	6.481600E+01	  0.109378755	3.942200E+01
448	  0.109579161	-9.186000E+00	  0.109579161	4.981900E+01	  0.109579161	6.538500E+01	  0.109579161	3.945600E+01
449	  0.109779559	-9.166000E+00	  0.109779559	4.920700E+01	  0.109779559	6.594400E+01	  0.109779559	3.954600E+01
450	  0.109979957	-9.157000E+00	  0.109979957	4.863000E+01	  0.109979957	6.647500E+01	  0.109979957	3.957200E+01
451	  0.110180363	-9.135000E+00	  0.110180363	4.795000E+01	  0.110180363	6.711300E+01	  0.110180363	3.965500E+01
452	  0.110380761	-9.131000E+00	  0.110380761	4.734400E+01	  0.110380761	6.768100E+01	  0.110380761	3.963200E+01
453	  0.110581160	-9.111000E+00	  0.110581160	4.675800E+01	  0.110581160	6.824500E+01	  0.110581160	3.970100E+01
454	  0.110781565	-9.093000E+00	  0.110781565	4.609400E+01	  0.110781565	6.888800E+01	  0.110781565	3.973700E+01
455	  0.110981964	-9.074000E+00	  0.110981964	4.546200E+01	  0.110981964	6.951200E+01	  0.110981964	3.978500E+01
456	  0.111182362	-9.065000E+00	  0.111182362	4.492000E+01	  0.111182362	7.004500E+01	  0.111182362	3.976600E+01
457	  0.111382768	-9.055000E+00	  0.111382768	4.428700E+01	  0.111382768	7.067200E+01	  0.111382768	3.973300E+01
458	  0.111583166	-9.039000E+00	  0.111583166	4.365200E+01	  0.111583166	7.131600E+01	  0.111583166	3.973400E+01
459	  0.111783572	-9.031000E+00	  0.111783572	4.305100E+01	  0.111783572	7.192200E+01	  0.111783572	3.967400E+01
460	  0.111983970	-9.029000E+00	  0.111983970	4.242400E+01	  0.111983970	7.255200E+01	  0.111983970	3.956400E+01
461	  0.112184368	-9.021000E+00	  0.112184368	4.174600E+01	  0.112184368	7.324400E+01	  0.112184368	3.946300E+01
462	  0.112384774	-9.020000E+00	  0.112384774	4.112900E+01	  0.112384774	7.387000E+01	  0.112384774	3.932600E+01
463	  0.112585172	-9.022000E+00	  0.112585172	4.047000E+01	  0.112585172	7.453600E+01	  0.112585172	3.914300E+01
464	  0.112785570	-9.016000E+00	  0.112785570	3.979100E+01	  0.112785570	7.524000E+01	  0.112785570	3.899500E+01
465	  0.112985976	-9.012000E+00	  0.112985976	3.912700E+01	  0.112985976	7.593000E+01	  0.112985976	3.882400E+01
466	  0.113186374	-9.020000E+00	  0.113186374	3.843400E+01	  0.113186374	7.662700E+01	  0.113186374	3.855200E+01
467	  0.113386773	-9.024000E+00	  0.113386773	3.771600E+01	  0.113386773	7.736100E+01	  0.113386773	3.828200E+01
468	  0.113587178	-9.026000E+00	  0.113587178	3.698900E+01	  0.113587178	7.810700E+01	  0.113587178	3.800200E+01
469	  0.113787577	-9.038000E+00	  0.113787577	3.619100E+01	  0.113787577	7.890400E+01	  0.113787577	3.761200E+01
470	  0.113987975	-9.045000E+00	  0.113987975	3.542200E+01	  0.113987975	7.968000E+01	  0.113987975	3.724000E+01
471	  0.114188381	-9.061000E+00	  0.114188381	3.460900E+01	  0.114188381	8.047600E+01	  0.114188381	3.677300E+01
472	  0.114388779	-9.064000E+00	  0.114388779	3.379200E+01	  0.114388779	8.130800E+01	  0.114388779	3.636200E+01
473	  0.114589177	-9.073000E+00	  0.114589177	3.295500E+01	  0.114589177	8.214200E+01	  0.114589177	3.588400E+01
474	  0.114789583	-9.092000E+00	  0.114789583	3.210600E+01	  0.114789583	8.294500E+01	  0.114789583	3.530100E+01
475	  0.114989981	-9.104000E+00	  0.114989981	3.124600E+01	  0.114989981	8.377700E+01	  0.114989981	3.473700E+01
476	  0.115190387	-9.111000E+00	  0.115190387	3.032900E+01	  0.115190387	8.467800E+01	  0.115190387	3.414600E+01
477	  0.115390785	-9.129000E+00	  0.115390785	2.938600E+01	  0.115390785	8.555300E+01	  0.115390785	3.343600E+01
478	  0.115591183	-9.137000E+00	  0.115591183	2.847900E+01	  0.115591183	8.641800E+01	  0.115591183	3.278000E+01
479	  0.115791589	-9.159000E+00	  0.115791589	2.752000E+01	  0.115791589	8.725900E+01	  0.115791589	3.197100E+01
480	  0.115991987	-9.172000E+00	  0.115991987	2.652500E+01	  0.115991987	8.815900E+01	  0.115991987	3.116100E+01
481	  0.116192386	-9.181000E+00	  0.116192386	2.560300E+01	  0.116192386	8.898900E+01	  0.116192386	3.039500E+01
482	  0.116392791	-9.199000E+00	  0.116392791	2.460100E+01	  0.116392791	8.983100E+01	  0.116392791	2.948000E+01
483	  0.116593190	-9.213000E+00	  0.116593190	2.361700E+01	  0.116593190	9.065300E+01	  0.116593190	2.857200E+01
484	  0.116793588	-9.223000E+00	  0.116793588	2.260200E+01	  0.116793588	9.150100E+01	  0.116793588	2.762600E+01
485	  0.116993994	-9.241000E+00	  0.116993994	2.161800E+01	  0.116993994	9.224700E+01	  0.116993994	2.662500E+01
486	  0.117194392	-9.259000E+00	  0.117194392	2.060200E+01	  0.117194392	9.299800E+01	  0.117194392	2.557200E+01
487	  0.117394790	-9.273000E+00	  0.117394790	1.957700E+01	  0.117394790	9.374500E+01	  0.117394790	2.449700E+01
488	  0.117595196	-9.297000E+00	  0.117595196	1.859100E+01	  0.117595196	9.435700E+01	  0.117595196	2.337700E+01
489	  0.117795594	-9.318000E+00	  0.117795594	1.761700E+01	  0.117795594	9.494500E+01	  0.117795594	2.226100E+01
490	  0.117995992	-9.344000E+00	  0.117995992	1.657900E+01	  0.117995992	9.551300E+01	  0.117995992	2.103500E+01
491	  0.118196398	-9.373000E+00	  0.118196398	1.555500E+01	  0.118196398	9.599900E+01	  0.118196398	1.978400E+01
492	  0.118396796	-9.408000E+00	  0.118396796	1.452500E+01	  0.118396796	9.640600E+01	  0.118396796	1.848800E+01
493	  0.118597202	-9.434000E+00	  0.118597202	1.345000E+01	  0.118597202	9.685700E+01	  0.118597202	1.716200E+01
494	  0.118797600	-9.478000E+00	  0.118797600	1.244200E+01	  0.118797600	9.708500E+01	  0.118797600	1.583400E+01
