! Anritsu VNA Master:             	Model: MS2036C/10/77
! SN:             	1601066
! /bd0/18may09/254.ns.m.txt
! Existing Calibration Information:
! TYPE:             	Current Settings	Active Cal Settings
! TIME:             	05/09/2018 12:57:45 PM	05/09/2018 12:54:36 PM
! INTERNAL TEMP:    	58.5 C	58.3 C
! # POINTS:         	494	494
! START FREQ:       	20.000 MHz	20.000 MHz
! STOP FREQ:        	118.797 594 MHz	118.797 594 MHz
! SOURCE POWER:     	High	High
! IFBW:             	50 Hz	50 Hz
! AVG FACTOR:       	  1 	  1 
! REF PLANE 1:      	0 mm	0 mm
! REF PLANE 2:      	0 mm	0 mm
! CAL TYPE:         	Full S22	Full S22
! CAL METHOD:       	SOLT	SOLT
! CAL LINE TYPE:    	Coax	Coax
! DUT PORT 1:       	K-Conn(M)	K-Conn(M)
! DUT PORT 2:       	K-Conn(M)	K-Conn(M)
! CAL STATUS:       	OK: Accuracy High	--
! PROP-V:       	0.700
! CABLE LOSS:       	0.000 dB/m
! REF IMPEDANCE:       	50.0
! Trace Specific Parameters:	TR1	TR2	TR3	TR4
! TRACE.#.Y (GRAPH TYPE)	LOG MAG	PHASE	REAL IMPEDANCE	IMAGINARY IMPEDANCE
! TRACE.#.X 	FREQ.GHZ	FREQ.GHZ	FREQ.GHZ	FREQ.GHZ
! S-PARAMETER	S22	S22	S22	S22
! SMOOTH/APERTURE %	0	0	0	0
! WINDOW	NSL	NSL	NSL	NSL
! GATING	OFF	OFF	OFF	OFF
! FGTD	OFF	OFF	OFF	OFF
Marker Information per Trace:	TR1	TR2	TR3	TR4
!MK1	--	"MK1 TR2:  20.000 MHz,PH:-126.82°"	--	--
!MK2	--	--	"MK2 TR3:  70.100 200 MHz,Z:(16.506 ohm, -1.479 ohm)"	--
!MK3	--	--	--	--
!MK4	--	--	--	--
!MK5	--	--	--	--
!MK6	--	--	--	--
!MK7	--	--	--	--
!MK8	--	--	--	--
PNT	TR1.FREQ.GHZ	TR1.LOG MAG.dB	TR2.FREQ.GHZ	TR2.PHASE.deg	TR3.FREQ.GHZ	TR3.REAL IMPEDANCE.ohm	TR4.FREQ.GHZ	TR4.IMAGINARY IMPEDANCE.ohm
1	  0.020000000	-6.220000E-01	  0.020000000	-1.268180E+02	  0.020000000	2.237000E+00	  0.020000000	-2.498800E+01
2	  0.020200402	-6.250000E-01	  0.020200402	-1.282800E+02	  0.020200402	2.222000E+00	  0.020200402	-2.419600E+01
3	  0.020400802	-6.290000E-01	  0.020400802	-1.297600E+02	  0.020400802	2.209000E+00	  0.020400802	-2.340500E+01
4	  0.020601204	-6.340000E-01	  0.020601204	-1.312620E+02	  0.020601204	2.200000E+00	  0.020601204	-2.261100E+01
5	  0.020801604	-6.370000E-01	  0.020801604	-1.327870E+02	  0.020801604	2.185000E+00	  0.020801604	-2.181600E+01
6	  0.021002004	-6.390000E-01	  0.021002004	-1.343350E+02	  0.021002004	2.166000E+00	  0.021002004	-2.101700E+01
7	  0.021202406	-6.430000E-01	  0.021202406	-1.358760E+02	  0.021202406	2.155000E+00	  0.021202406	-2.023100E+01
8	  0.021402806	-6.460000E-01	  0.021402806	-1.374180E+02	  0.021402806	2.142000E+00	  0.021402806	-1.945300E+01
9	  0.021603208	-6.510000E-01	  0.021603208	-1.389520E+02	  0.021603208	2.135000E+00	  0.021603208	-1.868800E+01
10	  0.021803608	-6.540000E-01	  0.021803608	-1.405000E+02	  0.021803608	2.126000E+00	  0.021803608	-1.792200E+01
11	  0.022004008	-6.590000E-01	  0.022004008	-1.420350E+02	  0.022004008	2.121000E+00	  0.022004008	-1.717100E+01
12	  0.022204408	-6.680000E-01	  0.022204408	-1.436090E+02	  0.022204408	2.129000E+00	  0.022204408	-1.640700E+01
13	  0.022404809	-6.740000E-01	  0.022404809	-1.452030E+02	  0.022404809	2.130000E+00	  0.022404809	-1.564100E+01
14	  0.022605211	-6.790000E-01	  0.022605211	-1.468070E+02	  0.022605211	2.126000E+00	  0.022605211	-1.487700E+01
15	  0.022805611	-6.820000E-01	  0.022805611	-1.484250E+02	  0.022805611	2.119000E+00	  0.022805611	-1.411300E+01
16	  0.023006011	-6.880000E-01	  0.023006011	-1.500260E+02	  0.023006011	2.120000E+00	  0.023006011	-1.336200E+01
17	  0.023206413	-6.950000E-01	  0.023206413	-1.516270E+02	  0.023206413	2.129000E+00	  0.023206413	-1.261700E+01
18	  0.023406813	-7.000000E-01	  0.023406813	-1.532390E+02	  0.023406813	2.129000E+00	  0.023406813	-1.187300E+01
19	  0.023607215	-7.100000E-01	  0.023607215	-1.548380E+02	  0.023607215	2.145000E+00	  0.023607215	-1.113900E+01
20	  0.023807615	-7.190000E-01	  0.023807615	-1.564800E+02	  0.023807615	2.159000E+00	  0.023807615	-1.039000E+01
21	  0.024008015	-7.280000E-01	  0.024008015	-1.581330E+02	  0.024008015	2.174000E+00	  0.024008015	-9.641000E+00
22	  0.024208417	-7.370000E-01	  0.024208417	-1.597820E+02	  0.024208417	2.187000E+00	  0.024208417	-8.897000E+00
23	  0.024408817	-7.440000E-01	  0.024408817	-1.614600E+02	  0.024408817	2.198000E+00	  0.024408817	-8.145000E+00
24	  0.024609219	-7.510000E-01	  0.024609219	-1.631360E+02	  0.024609219	2.209000E+00	  0.024609219	-7.397000E+00
25	  0.024809619	-7.600000E-01	  0.024809619	-1.648070E+02	  0.024809619	2.227000E+00	  0.024809619	-6.655000E+00
26	  0.025010020	-7.700000E-01	  0.025010020	-1.664940E+02	  0.025010020	2.248000E+00	  0.025010020	-5.908000E+00
27	  0.025210422	-7.820000E-01	  0.025210422	-1.681860E+02	  0.025210422	2.274000E+00	  0.025210422	-5.162000E+00
28	  0.025410822	-7.900000E-01	  0.025410822	-1.698920E+02	  0.025410822	2.292000E+00	  0.025410822	-4.412000E+00
29	  0.025611224	-8.010000E-01	  0.025611224	-1.716030E+02	  0.025611224	2.318000E+00	  0.025611224	-3.662000E+00
30	  0.025811624	-8.110000E-01	  0.025811624	-1.733370E+02	  0.025811624	2.342000E+00	  0.025811624	-2.904000E+00
31	  0.026012026	-8.220000E-01	  0.026012026	-1.750830E+02	  0.026012026	2.369000E+00	  0.026012026	-2.141000E+00
32	  0.026212426	-8.330000E-01	  0.026212426	-1.768330E+02	  0.026212426	2.398000E+00	  0.026212426	-1.379000E+00
33	  0.026412826	-8.460000E-01	  0.026412826	-1.786040E+02	  0.026412826	2.434000E+00	  0.026412826	-6.070000E-01
34	  0.026613226	-8.580000E-01	  0.026613226	1.796280E+02	  0.026613226	2.469000E+00	  0.026613226	1.610000E-01
35	  0.026813626	-8.730000E-01	  0.026813626	1.778540E+02	  0.026813626	2.511000E+00	  0.026813626	9.340000E-01
36	  0.027014028	-8.890000E-01	  0.027014028	1.760650E+02	  0.027014028	2.560000E+00	  0.027014028	1.713000E+00
37	  0.027214428	-9.030000E-01	  0.027214428	1.742650E+02	  0.027214428	2.604000E+00	  0.027214428	2.497000E+00
38	  0.027414829	-9.190000E-01	  0.027414829	1.724660E+02	  0.027414829	2.654000E+00	  0.027414829	3.282000E+00
39	  0.027615231	-9.360000E-01	  0.027615231	1.706480E+02	  0.027615231	2.710000E+00	  0.027615231	4.077000E+00
40	  0.027815631	-9.530000E-01	  0.027815631	1.688360E+02	  0.027815631	2.769000E+00	  0.027815631	4.871000E+00
41	  0.028016033	-9.720000E-01	  0.028016033	1.669880E+02	  0.028016033	2.831000E+00	  0.028016033	5.683000E+00
42	  0.028216433	-9.900000E-01	  0.028216433	1.651340E+02	  0.028216433	2.895000E+00	  0.028216433	6.501000E+00
43	  0.028416833	-1.011000E+00	  0.028416833	1.632870E+02	  0.028416833	2.969000E+00	  0.028416833	7.319000E+00
44	  0.028617235	-1.030000E+00	  0.028617235	1.614220E+02	  0.028617235	3.041000E+00	  0.028617235	8.148000E+00
45	  0.028817635	-1.051000E+00	  0.028817635	1.595650E+02	  0.028817635	3.119000E+00	  0.028817635	8.977000E+00
46	  0.029018037	-1.073000E+00	  0.029018037	1.577000E+02	  0.029018037	3.206000E+00	  0.029018037	9.815000E+00
47	  0.029218437	-1.098000E+00	  0.029218437	1.558120E+02	  0.029218437	3.301000E+00	  0.029218437	1.066800E+01
48	  0.029418837	-1.123000E+00	  0.029418837	1.539130E+02	  0.029418837	3.401000E+00	  0.029418837	1.153200E+01
49	  0.029619239	-1.148000E+00	  0.029619239	1.520020E+02	  0.029619239	3.504000E+00	  0.029619239	1.240700E+01
50	  0.029819639	-1.173000E+00	  0.029819639	1.500870E+02	  0.029819639	3.613000E+00	  0.029819639	1.329100E+01
51	  0.030020041	-1.201000E+00	  0.030020041	1.481690E+02	  0.030020041	3.730000E+00	  0.030020041	1.418300E+01
52	  0.030220442	-1.227000E+00	  0.030220442	1.462290E+02	  0.030220442	3.851000E+00	  0.030220442	1.509400E+01
53	  0.030420844	-1.253000E+00	  0.030420844	1.443240E+02	  0.030420844	3.973000E+00	  0.030420844	1.599700E+01
54	  0.030621244	-1.283000E+00	  0.030621244	1.424010E+02	  0.030621244	4.111000E+00	  0.030621244	1.691700E+01
55	  0.030821642	-1.314000E+00	  0.030821642	1.404700E+02	  0.030821642	4.260000E+00	  0.030821642	1.785000E+01
56	  0.031022044	-1.345000E+00	  0.031022044	1.385180E+02	  0.031022044	4.415000E+00	  0.031022044	1.880500E+01
57	  0.031222444	-1.367000E+00	  0.031222444	1.365790E+02	  0.031222444	4.546000E+00	  0.031222444	1.976500E+01
58	  0.031422846	-1.401000E+00	  0.031422846	1.345880E+02	  0.031422846	4.724000E+00	  0.031422846	2.076100E+01
59	  0.031623244	-1.433000E+00	  0.031623244	1.326030E+02	  0.031623244	4.904000E+00	  0.031623244	2.176900E+01
60	  0.031823646	-1.467000E+00	  0.031823646	1.306210E+02	  0.031823646	5.095000E+00	  0.031823646	2.278800E+01
61	  0.032024048	-1.500000E+00	  0.032024048	1.286320E+02	  0.032024048	5.295000E+00	  0.032024048	2.382600E+01
62	  0.032224450	-1.537000E+00	  0.032224450	1.266360E+02	  0.032224450	5.518000E+00	  0.032224450	2.488200E+01
63	  0.032424849	-1.571000E+00	  0.032424849	1.246360E+02	  0.032424849	5.741000E+00	  0.032424849	2.595800E+01
64	  0.032625251	-1.606000E+00	  0.032625251	1.226180E+02	  0.032625251	5.977000E+00	  0.032625251	2.706100E+01
65	  0.032825653	-1.645000E+00	  0.032825653	1.205850E+02	  0.032825653	6.239000E+00	  0.032825653	2.819200E+01
66	  0.033026051	-1.677000E+00	  0.033026051	1.185510E+02	  0.033026051	6.492000E+00	  0.033026051	2.934400E+01
67	  0.033226453	-1.714000E+00	  0.033226453	1.165050E+02	  0.033226453	6.777000E+00	  0.033226453	3.052400E+01
68	  0.033426855	-1.752000E+00	  0.033426855	1.144650E+02	  0.033426855	7.078000E+00	  0.033426855	3.172400E+01
69	  0.033627257	-1.790000E+00	  0.033627257	1.124150E+02	  0.033627257	7.401000E+00	  0.033627257	3.295300E+01
70	  0.033827655	-1.828000E+00	  0.033827655	1.103720E+02	  0.033827655	7.736000E+00	  0.033827655	3.420400E+01
71	  0.034028057	-1.867000E+00	  0.034028057	1.083300E+02	  0.034028057	8.097000E+00	  0.034028057	3.548000E+01
72	  0.034228459	-1.906000E+00	  0.034228459	1.062730E+02	  0.034228459	8.483000E+00	  0.034228459	3.679500E+01
73	  0.034428857	-1.949000E+00	  0.034428857	1.042100E+02	  0.034428857	8.904000E+00	  0.034428857	3.814200E+01
74	  0.034629259	-1.990000E+00	  0.034629259	1.021110E+02	  0.034629259	9.351000E+00	  0.034629259	3.954600E+01
75	  0.034829661	-2.031000E+00	  0.034829661	1.000370E+02	  0.034829661	9.820000E+00	  0.034829661	4.096800E+01
76	  0.035030060	-2.078000E+00	  0.035030060	9.793900E+01	  0.035030060	1.035300E+01	  0.035030060	4.243700E+01
77	  0.035230462	-2.123000E+00	  0.035230462	9.586300E+01	  0.035230462	1.090300E+01	  0.035230462	4.393100E+01
78	  0.035430863	-2.169000E+00	  0.035430863	9.377200E+01	  0.035430863	1.150300E+01	  0.035430863	4.547300E+01
79	  0.035631265	-2.217000E+00	  0.035631265	9.167500E+01	  0.035631265	1.214900E+01	  0.035631265	4.706100E+01
80	  0.035831664	-2.263000E+00	  0.035831664	8.957200E+01	  0.035831664	1.283700E+01	  0.035831664	4.869800E+01
81	  0.036032066	-2.310000E+00	  0.036032066	8.748900E+01	  0.036032066	1.357100E+01	  0.036032066	5.036400E+01
82	  0.036232468	-2.358000E+00	  0.036232468	8.539600E+01	  0.036232468	1.436300E+01	  0.036232468	5.208600E+01
83	  0.036432866	-2.407000E+00	  0.036432866	8.328200E+01	  0.036432866	1.522800E+01	  0.036432866	5.387600E+01
84	  0.036633268	-2.456000E+00	  0.036633268	8.119100E+01	  0.036633268	1.615600E+01	  0.036633268	5.569500E+01
85	  0.036833670	-2.507000E+00	  0.036833670	7.907400E+01	  0.036833670	1.716600E+01	  0.036833670	5.759300E+01
86	  0.037034072	-2.558000E+00	  0.037034072	7.697400E+01	  0.037034072	1.825800E+01	  0.037034072	5.952900E+01
87	  0.037234470	-2.610000E+00	  0.037234470	7.485700E+01	  0.037234470	1.944600E+01	  0.037234470	6.153900E+01
88	  0.037434869	-2.661000E+00	  0.037434869	7.275700E+01	  0.037434869	2.072100E+01	  0.037434869	6.359600E+01
89	  0.037635271	-2.716000E+00	  0.037635271	7.062100E+01	  0.037635271	2.214800E+01	  0.037635271	6.574000E+01
90	  0.037835669	-2.779000E+00	  0.037835669	6.851100E+01	  0.037835669	2.374700E+01	  0.037835669	6.788500E+01
91	  0.038036071	-2.842000E+00	  0.038036071	6.645600E+01	  0.038036071	2.544600E+01	  0.038036071	7.002500E+01
92	  0.038236473	-2.895000E+00	  0.038236473	6.438500E+01	  0.038236473	2.721700E+01	  0.038236473	7.228100E+01
93	  0.038436871	-2.949000E+00	  0.038436871	6.229900E+01	  0.038436871	2.916500E+01	  0.038436871	7.460800E+01
94	  0.038637273	-3.001000E+00	  0.038637273	6.022300E+01	  0.038637273	3.126700E+01	  0.038637273	7.698900E+01
95	  0.038837675	-3.053000E+00	  0.038837675	5.814300E+01	  0.038837675	3.356200E+01	  0.038837675	7.943100E+01
96	  0.039038073	-3.105000E+00	  0.039038073	5.607700E+01	  0.039038073	3.605100E+01	  0.039038073	8.190800E+01
97	  0.039238475	-3.156000E+00	  0.039238475	5.400400E+01	  0.039238475	3.876900E+01	  0.039238475	8.444600E+01
98	  0.039438877	-3.211000E+00	  0.039438877	5.195500E+01	  0.039438877	4.175800E+01	  0.039438877	8.695100E+01
99	  0.039639279	-3.264000E+00	  0.039639279	4.990000E+01	  0.039639279	4.501700E+01	  0.039639279	8.949600E+01
100	  0.039839678	-3.318000E+00	  0.039839678	4.782500E+01	  0.039839678	4.862500E+01	  0.039839678	9.206700E+01
101	  0.040040080	-3.368000E+00	  0.040040080	4.575600E+01	  0.040040080	5.253400E+01	  0.040040080	9.464900E+01
102	  0.040240481	-3.418000E+00	  0.040240481	4.369200E+01	  0.040240481	5.681400E+01	  0.040240481	9.718100E+01
103	  0.040440880	-3.471000E+00	  0.040440880	4.164800E+01	  0.040440880	6.149500E+01	  0.040440880	9.956700E+01
104	  0.040641282	-3.522000E+00	  0.040641282	3.961500E+01	  0.040641282	6.656500E+01	  0.040641282	1.018520E+02
105	  0.040841684	-3.570000E+00	  0.040841684	3.759000E+01	  0.040841684	7.206900E+01	  0.040841684	1.039900E+02
106	  0.041042086	-3.624000E+00	  0.041042086	3.557300E+01	  0.041042086	7.810000E+01	  0.041042086	1.057900E+02
107	  0.041242484	-3.674000E+00	  0.041242484	3.353200E+01	  0.041242484	8.470000E+01	  0.041242484	1.073570E+02
108	  0.041442886	-3.726000E+00	  0.041442886	3.150600E+01	  0.041442886	9.181100E+01	  0.041442886	1.084870E+02
109	  0.041643288	-3.774000E+00	  0.041643288	2.947200E+01	  0.041643288	9.949100E+01	  0.041643288	1.091880E+02
110	  0.041843686	-3.823000E+00	  0.041843686	2.745200E+01	  0.041843686	1.076780E+02	  0.041843686	1.091960E+02
111	  0.042044088	-3.870000E+00	  0.042044088	2.542400E+01	  0.042044088	1.164160E+02	  0.042044088	1.085460E+02
112	  0.042244490	-3.918000E+00	  0.042244490	2.341800E+01	  0.042244490	1.255150E+02	  0.042244490	1.069160E+02
113	  0.042444889	-3.966000E+00	  0.042444889	2.144500E+01	  0.042444889	1.348030E+02	  0.042444889	1.042600E+02
114	  0.042645290	-4.014000E+00	  0.042645290	1.944700E+01	  0.042645290	1.444180E+02	  0.042645290	1.004170E+02
115	  0.042845692	-4.063000E+00	  0.042845692	1.745900E+01	  0.042845692	1.539800E+02	  0.042845692	9.523600E+01
116	  0.043046094	-4.110000E+00	  0.043046094	1.546900E+01	  0.043046094	1.633710E+02	  0.043046094	8.873500E+01
117	  0.043246493	-4.156000E+00	  0.043246493	1.349100E+01	  0.043246493	1.722250E+02	  0.043246493	8.085300E+01
118	  0.043446895	-4.198000E+00	  0.043446895	1.152100E+01	  0.043446895	1.803720E+02	  0.043446895	7.169900E+01
119	  0.043647297	-4.243000E+00	  0.043647297	9.545000E+00	  0.043647297	1.874180E+02	  0.043647297	6.114800E+01
120	  0.043847695	-4.285000E+00	  0.043847695	7.607000E+00	  0.043847695	1.931050E+02	  0.043847695	4.977100E+01
121	  0.044048097	-4.327000E+00	  0.044048097	5.656000E+00	  0.044048097	1.972480E+02	  0.044048097	3.744700E+01
122	  0.044248499	-4.372000E+00	  0.044248499	3.719000E+00	  0.044248499	1.995940E+02	  0.044248499	2.467000E+01
123	  0.044448901	-4.414000E+00	  0.044448901	1.817000E+00	  0.044448901	2.002250E+02	  0.044448901	1.197600E+01
124	  0.044649299	-4.454000E+00	  0.044649299	-9.800000E-02	  0.044649299	1.992300E+02	  0.044649299	-6.390000E-01
125	  0.044849701	-4.496000E+00	  0.044849701	-1.984000E+00	  0.044849701	1.966210E+02	  0.044849701	-1.258600E+01
126	  0.045050103	-4.533000E+00	  0.045050103	-3.886000E+00	  0.045050103	1.927310E+02	  0.045050103	-2.392600E+01
127	  0.045250501	-4.574000E+00	  0.045250501	-5.773000E+00	  0.045250501	1.875590E+02	  0.045250501	-3.422300E+01
128	  0.045450903	-4.611000E+00	  0.045450903	-7.661000E+00	  0.045450903	1.815260E+02	  0.045450903	-4.351000E+01
129	  0.045651305	-4.646000E+00	  0.045651305	-9.542000E+00	  0.045651305	1.748660E+02	  0.045651305	-5.169000E+01
130	  0.045851704	-4.682000E+00	  0.045851704	-1.138900E+01	  0.045851704	1.677660E+02	  0.045851704	-5.857000E+01
131	  0.046052102	-4.717000E+00	  0.046052102	-1.324500E+01	  0.046052102	1.604000E+02	  0.046052102	-6.445300E+01
132	  0.046252504	-4.752000E+00	  0.046252504	-1.506100E+01	  0.046252504	1.530490E+02	  0.046252504	-6.918600E+01
133	  0.046452906	-4.788000E+00	  0.046452906	-1.688100E+01	  0.046452906	1.456860E+02	  0.046452906	-7.299300E+01
134	  0.046653304	-4.821000E+00	  0.046653304	-1.869900E+01	  0.046653304	1.384930E+02	  0.046653304	-7.601500E+01
135	  0.046853706	-4.855000E+00	  0.046853706	-2.052400E+01	  0.046853706	1.314810E+02	  0.046853706	-7.832700E+01
136	  0.047054108	-4.888000E+00	  0.047054108	-2.233600E+01	  0.047054108	1.247700E+02	  0.047054108	-7.996400E+01
137	  0.047254506	-4.921000E+00	  0.047254506	-2.413800E+01	  0.047254506	1.183910E+02	  0.047254506	-8.103900E+01
138	  0.047454908	-4.948000E+00	  0.047454908	-2.593200E+01	  0.047454908	1.123770E+02	  0.047454908	-8.176300E+01
139	  0.047655310	-4.979000E+00	  0.047655310	-2.771200E+01	  0.047655310	1.067060E+02	  0.047655310	-8.200100E+01
140	  0.047855709	-5.008000E+00	  0.047855709	-2.947000E+01	  0.047855709	1.014170E+02	  0.047855709	-8.191200E+01
141	  0.048056111	-5.038000E+00	  0.048056111	-3.123400E+01	  0.048056111	9.642000E+01	  0.048056111	-8.153300E+01
142	  0.048256513	-5.067000E+00	  0.048256513	-3.296100E+01	  0.048256513	9.181700E+01	  0.048256513	-8.094900E+01
143	  0.048456915	-5.097000E+00	  0.048456915	-3.471000E+01	  0.048456915	8.744300E+01	  0.048456915	-8.016600E+01
144	  0.048657313	-5.124000E+00	  0.048657313	-3.642100E+01	  0.048657313	8.342300E+01	  0.048657313	-7.927300E+01
145	  0.048857715	-5.149000E+00	  0.048857715	-3.817000E+01	  0.048857715	7.956500E+01	  0.048857715	-7.827600E+01
146	  0.049058117	-5.171000E+00	  0.049058117	-3.989000E+01	  0.049058117	7.599800E+01	  0.049058117	-7.721700E+01
147	  0.049258515	-5.195000E+00	  0.049258515	-4.161100E+01	  0.049258515	7.265300E+01	  0.049258515	-7.605000E+01
148	  0.049458917	-5.216000E+00	  0.049458917	-4.329300E+01	  0.049458917	6.958000E+01	  0.049458917	-7.486400E+01
149	  0.049659319	-5.243000E+00	  0.049659319	-4.497800E+01	  0.049659319	6.671200E+01	  0.049659319	-7.355500E+01
150	  0.049859721	-5.263000E+00	  0.049859721	-4.666900E+01	  0.049859721	6.398000E+01	  0.049859721	-7.229100E+01
151	  0.050060119	-5.287000E+00	  0.050060119	-4.829600E+01	  0.050060119	6.152900E+01	  0.050060119	-7.099600E+01
152	  0.050260521	-5.307000E+00	  0.050260521	-4.997300E+01	  0.050260521	5.913100E+01	  0.050260521	-6.968900E+01
153	  0.050460923	-5.326000E+00	  0.050460923	-5.163000E+01	  0.050460923	5.690100E+01	  0.050460923	-6.838300E+01
154	  0.050661322	-5.341000E+00	  0.050661322	-5.327400E+01	  0.050661322	5.479700E+01	  0.050661322	-6.711600E+01
155	  0.050861724	-5.357000E+00	  0.050861724	-5.490500E+01	  0.050861724	5.283800E+01	  0.050861724	-6.583100E+01
156	  0.051062126	-5.377000E+00	  0.051062126	-5.653100E+01	  0.051062126	5.100900E+01	  0.051062126	-6.452800E+01
157	  0.051262524	-5.395000E+00	  0.051262524	-5.812300E+01	  0.051262524	4.931400E+01	  0.051262524	-6.326400E+01
158	  0.051462926	-5.411000E+00	  0.051462926	-5.970500E+01	  0.051462926	4.771000E+01	  0.051462926	-6.202900E+01
159	  0.051663328	-5.429000E+00	  0.051663328	-6.130300E+01	  0.051663328	4.618400E+01	  0.051663328	-6.077700E+01
160	  0.051863730	-5.445000E+00	  0.051863730	-6.286000E+01	  0.051863730	4.477300E+01	  0.051863730	-5.957300E+01
161	  0.052064128	-5.456000E+00	  0.052064128	-6.444800E+01	  0.052064128	4.338400E+01	  0.052064128	-5.838800E+01
162	  0.052264530	-5.467000E+00	  0.052264530	-6.601400E+01	  0.052264530	4.208500E+01	  0.052264530	-5.722700E+01
163	  0.052464932	-5.484000E+00	  0.052464932	-6.756100E+01	  0.052464932	4.089300E+01	  0.052464932	-5.605900E+01
164	  0.052665330	-5.496000E+00	  0.052665330	-6.909200E+01	  0.052665330	3.975000E+01	  0.052665330	-5.494300E+01
165	  0.052865732	-5.510000E+00	  0.052865732	-7.061200E+01	  0.052865732	3.868500E+01	  0.052865732	-5.383100E+01
166	  0.053066134	-5.525000E+00	  0.053066134	-7.213600E+01	  0.053066134	3.767000E+01	  0.053066134	-5.272800E+01
167	  0.053266536	-5.538000E+00	  0.053266536	-7.364600E+01	  0.053266536	3.670300E+01	  0.053266536	-5.165800E+01
168	  0.053466935	-5.553000E+00	  0.053466935	-7.516000E+01	  0.053466935	3.578900E+01	  0.053466935	-5.059200E+01
169	  0.053667337	-5.566000E+00	  0.053667337	-7.664900E+01	  0.053667337	3.492600E+01	  0.053667337	-4.956100E+01
170	  0.053867739	-5.578000E+00	  0.053867739	-7.815600E+01	  0.053867739	3.408600E+01	  0.053867739	-4.853800E+01
171	  0.054068137	-5.590000E+00	  0.054068137	-7.965500E+01	  0.054068137	3.329000E+01	  0.054068137	-4.753200E+01
172	  0.054268539	-5.599000E+00	  0.054268539	-8.112300E+01	  0.054268539	3.253400E+01	  0.054268539	-4.657000E+01
173	  0.054468941	-5.611000E+00	  0.054468941	-8.260300E+01	  0.054468941	3.182000E+01	  0.054468941	-4.560100E+01
174	  0.054669335	-5.626000E+00	  0.054669335	-8.406100E+01	  0.054669335	3.115700E+01	  0.054669335	-4.465000E+01
175	  0.054869737	-5.638000E+00	  0.054869737	-8.551500E+01	  0.054869737	3.051200E+01	  0.054869737	-4.372500E+01
176	  0.055070139	-5.649000E+00	  0.055070139	-8.695700E+01	  0.055070139	2.990100E+01	  0.055070139	-4.281900E+01
177	  0.055270538	-5.658000E+00	  0.055270538	-8.838500E+01	  0.055270538	2.930900E+01	  0.055270538	-4.194200E+01
178	  0.055470940	-5.671000E+00	  0.055470940	-8.980300E+01	  0.055470940	2.876200E+01	  0.055470940	-4.107000E+01
179	  0.055671342	-5.677000E+00	  0.055671342	-9.125500E+01	  0.055671342	2.820100E+01	  0.055671342	-4.020600E+01
180	  0.055871744	-5.684000E+00	  0.055871744	-9.268400E+01	  0.055871744	2.767100E+01	  0.055871744	-3.936500E+01
181	  0.056072142	-5.692000E+00	  0.056072142	-9.408800E+01	  0.056072142	2.717900E+01	  0.056072142	-3.854500E+01
182	  0.056272544	-5.702000E+00	  0.056272544	-9.549100E+01	  0.056272544	2.671300E+01	  0.056272544	-3.773100E+01
183	  0.056472946	-5.711000E+00	  0.056472946	-9.687000E+01	  0.056472946	2.627000E+01	  0.056472946	-3.694200E+01
184	  0.056673344	-5.716000E+00	  0.056673344	-9.824300E+01	  0.056673344	2.582900E+01	  0.056673344	-3.617600E+01
185	  0.056873746	-5.726000E+00	  0.056873746	-9.960100E+01	  0.056873746	2.543300E+01	  0.056873746	-3.541200E+01
186	  0.057074148	-5.731000E+00	  0.057074148	-1.009590E+02	  0.057074148	2.503000E+01	  0.057074148	-3.467100E+01
187	  0.057274550	-5.736000E+00	  0.057274550	-1.023270E+02	  0.057274550	2.464200E+01	  0.057274550	-3.393000E+01
188	  0.057474948	-5.742000E+00	  0.057474948	-1.036870E+02	  0.057474948	2.427400E+01	  0.057474948	-3.319900E+01
189	  0.057675350	-5.748000E+00	  0.057675350	-1.050250E+02	  0.057675350	2.392300E+01	  0.057675350	-3.248900E+01
190	  0.057875752	-5.754000E+00	  0.057875752	-1.063570E+02	  0.057875752	2.358900E+01	  0.057875752	-3.178800E+01
191	  0.058076151	-5.762000E+00	  0.058076151	-1.076810E+02	  0.058076151	2.327600E+01	  0.058076151	-3.109500E+01
192	  0.058276553	-5.767000E+00	  0.058276553	-1.089680E+02	  0.058276553	2.297200E+01	  0.058276553	-3.043300E+01
193	  0.058476955	-5.769000E+00	  0.058476955	-1.102530E+02	  0.058476955	2.267200E+01	  0.058476955	-2.978200E+01
194	  0.058677353	-5.777000E+00	  0.058677353	-1.115690E+02	  0.058677353	2.239200E+01	  0.058677353	-2.911400E+01
195	  0.058877755	-5.782000E+00	  0.058877755	-1.128770E+02	  0.058877755	2.211600E+01	  0.058877755	-2.846000E+01
196	  0.059078157	-5.784000E+00	  0.059078157	-1.141540E+02	  0.059078157	2.184900E+01	  0.059078157	-2.783000E+01
197	  0.059278559	-5.789000E+00	  0.059278559	-1.154230E+02	  0.059278559	2.159700E+01	  0.059278559	-2.720700E+01
198	  0.059478957	-5.788000E+00	  0.059478957	-1.167000E+02	  0.059478957	2.133900E+01	  0.059478957	-2.659200E+01
199	  0.059679359	-5.794000E+00	  0.059679359	-1.179600E+02	  0.059679359	2.111300E+01	  0.059679359	-2.598100E+01
200	  0.059879761	-5.802000E+00	  0.059879761	-1.191900E+02	  0.059879761	2.090500E+01	  0.059879761	-2.538800E+01
201	  0.060080159	-5.808000E+00	  0.060080159	-1.204480E+02	  0.060080159	2.069500E+01	  0.060080159	-2.478900E+01
202	  0.060280561	-5.813000E+00	  0.060280561	-1.216850E+02	  0.060280561	2.049200E+01	  0.060280561	-2.420500E+01
203	  0.060480963	-5.819000E+00	  0.060480963	-1.229270E+02	  0.060480963	2.029800E+01	  0.060480963	-2.362300E+01
204	  0.060681365	-5.823000E+00	  0.060681365	-1.241600E+02	  0.060681365	2.010900E+01	  0.060681365	-2.305100E+01
205	  0.060881764	-5.825000E+00	  0.060881764	-1.253710E+02	  0.060881764	1.992100E+01	  0.060881764	-2.249600E+01
206	  0.061082166	-5.830000E+00	  0.061082166	-1.265920E+02	  0.061082166	1.975000E+01	  0.061082166	-2.193600E+01
207	  0.061282568	-5.834000E+00	  0.061282568	-1.278240E+02	  0.061282568	1.957900E+01	  0.061282568	-2.137700E+01
208	  0.061482966	-5.840000E+00	  0.061482966	-1.290240E+02	  0.061482966	1.942300E+01	  0.061482966	-2.083400E+01
209	  0.061683368	-5.844000E+00	  0.061683368	-1.302240E+02	  0.061683368	1.926700E+01	  0.061683368	-2.029700E+01
210	  0.061883770	-5.847000E+00	  0.061883770	-1.314220E+02	  0.061883770	1.911700E+01	  0.061883770	-1.976400E+01
211	  0.062084168	-5.854000E+00	  0.062084168	-1.326120E+02	  0.062084168	1.898200E+01	  0.062084168	-1.923600E+01
212	  0.062284570	-5.859000E+00	  0.062284570	-1.337900E+02	  0.062284570	1.885000E+01	  0.062284570	-1.871700E+01
213	  0.062484972	-5.854000E+00	  0.062484972	-1.349450E+02	  0.062484972	1.869600E+01	  0.062484972	-1.821900E+01
214	  0.062685370	-5.855000E+00	  0.062685370	-1.361220E+02	  0.062685370	1.856000E+01	  0.062685370	-1.771000E+01
215	  0.062885776	-5.856000E+00	  0.062885776	-1.372820E+02	  0.062885776	1.843100E+01	  0.062885776	-1.721100E+01
216	  0.063086174	-5.859000E+00	  0.063086174	-1.384520E+02	  0.063086174	1.831300E+01	  0.063086174	-1.670800E+01
217	  0.063286573	-5.862000E+00	  0.063286573	-1.396130E+02	  0.063286573	1.820100E+01	  0.063286573	-1.621200E+01
218	  0.063486971	-5.864000E+00	  0.063486971	-1.407410E+02	  0.063486971	1.809100E+01	  0.063486971	-1.573300E+01
219	  0.063687377	-5.863000E+00	  0.063687377	-1.418950E+02	  0.063687377	1.797700E+01	  0.063687377	-1.524800E+01
220	  0.063887775	-5.868000E+00	  0.063887775	-1.430310E+02	  0.063887775	1.788400E+01	  0.063887775	-1.476800E+01
221	  0.064088173	-5.868000E+00	  0.064088173	-1.441680E+02	  0.064088173	1.777900E+01	  0.064088173	-1.429300E+01
222	  0.064288579	-5.873000E+00	  0.064288579	-1.452840E+02	  0.064288579	1.769800E+01	  0.064288579	-1.382600E+01
223	  0.064488977	-5.872000E+00	  0.064488977	-1.464330E+02	  0.064488977	1.759700E+01	  0.064488977	-1.335100E+01
224	  0.064689375	-5.876000E+00	  0.064689375	-1.475440E+02	  0.064689375	1.751800E+01	  0.064689375	-1.289000E+01
225	  0.064889781	-5.880000E+00	  0.064889781	-1.486780E+02	  0.064889781	1.744300E+01	  0.064889781	-1.242200E+01
226	  0.065090179	-5.881000E+00	  0.065090179	-1.497530E+02	  0.065090179	1.736600E+01	  0.065090179	-1.198100E+01
227	  0.065290578	-5.883000E+00	  0.065290578	-1.508730E+02	  0.065290578	1.729100E+01	  0.065290578	-1.152300E+01
228	  0.065490983	-5.884000E+00	  0.065490983	-1.519880E+02	  0.065490983	1.721800E+01	  0.065490983	-1.107000E+01
229	  0.065691382	-5.885000E+00	  0.065691382	-1.530750E+02	  0.065691382	1.714900E+01	  0.065691382	-1.062900E+01
230	  0.065891780	-5.888000E+00	  0.065891780	-1.541630E+02	  0.065891780	1.708900E+01	  0.065891780	-1.018800E+01
231	  0.066092186	-5.889000E+00	  0.066092186	-1.552510E+02	  0.066092186	1.702900E+01	  0.066092186	-9.749000E+00
232	  0.066292584	-5.889000E+00	  0.066292584	-1.563320E+02	  0.066292584	1.696900E+01	  0.066292584	-9.315000E+00
233	  0.066492982	-5.893000E+00	  0.066492982	-1.574050E+02	  0.066492982	1.691900E+01	  0.066492982	-8.884000E+00
234	  0.066693388	-5.896000E+00	  0.066693388	-1.585020E+02	  0.066693388	1.687300E+01	  0.066693388	-8.444000E+00
235	  0.066893786	-5.900000E+00	  0.066893786	-1.595550E+02	  0.066893786	1.683100E+01	  0.066893786	-8.023000E+00
236	  0.067094192	-5.903000E+00	  0.067094192	-1.606210E+02	  0.067094192	1.679100E+01	  0.067094192	-7.598000E+00
237	  0.067294590	-5.907000E+00	  0.067294590	-1.616910E+02	  0.067294590	1.675400E+01	  0.067294590	-7.172000E+00
238	  0.067494988	-5.907000E+00	  0.067494988	-1.627490E+02	  0.067494988	1.671300E+01	  0.067494988	-6.754000E+00
239	  0.067695394	-5.912000E+00	  0.067695394	-1.638220E+02	  0.067695394	1.668300E+01	  0.067695394	-6.328000E+00
240	  0.067895792	-5.919000E+00	  0.067895792	-1.648450E+02	  0.067895792	1.666500E+01	  0.067895792	-5.923000E+00
241	  0.068096191	-5.921000E+00	  0.068096191	-1.659270E+02	  0.068096191	1.663500E+01	  0.068096191	-5.497000E+00
242	  0.068296596	-5.925000E+00	  0.068296596	-1.669640E+02	  0.068296596	1.661300E+01	  0.068296596	-5.089000E+00
243	  0.068496995	-5.929000E+00	  0.068496995	-1.679910E+02	  0.068496995	1.659400E+01	  0.068496995	-4.685000E+00
244	  0.068697393	-5.933000E+00	  0.068697393	-1.690450E+02	  0.068697393	1.657800E+01	  0.068697393	-4.271000E+00
245	  0.068897791	-5.934000E+00	  0.068897791	-1.700810E+02	  0.068897791	1.655500E+01	  0.068897791	-3.866000E+00
246	  0.069098189	-5.934000E+00	  0.069098189	-1.711040E+02	  0.069098189	1.653400E+01	  0.069098189	-3.466000E+00
247	  0.069298595	-5.938000E+00	  0.069298595	-1.721310E+02	  0.069298595	1.652600E+01	  0.069298595	-3.064000E+00
248	  0.069498993	-5.938000E+00	  0.069498993	-1.731520E+02	  0.069498993	1.650700E+01	  0.069498993	-2.666000E+00
249	  0.069699399	-5.945000E+00	  0.069699399	-1.741890E+02	  0.069699399	1.651100E+01	  0.069699399	-2.261000E+00
250	  0.069899797	-5.948000E+00	  0.069899797	-1.752000E+02	  0.069899797	1.650800E+01	  0.069899797	-1.867000E+00
251	  0.070100196	-5.951000E+00	  0.070100196	-1.761980E+02	  0.070100196	1.650600E+01	  0.070100196	-1.478000E+00
252	  0.070300601	-5.959000E+00	  0.070300601	-1.772030E+02	  0.070300601	1.651800E+01	  0.070300601	-1.087000E+00
253	  0.070501000	-5.959000E+00	  0.070501000	-1.782020E+02	  0.070501000	1.651200E+01	  0.070501000	-6.980000E-01
254	  0.070701398	-5.960000E+00	  0.070701398	-1.791930E+02	  0.070701398	1.651400E+01	  0.070701398	-3.130000E-01
255	  0.070901804	-5.962000E+00	  0.070901804	1.798210E+02	  0.070901804	1.651700E+01	  0.070901804	6.900000E-02
256	  0.071102202	-5.969000E+00	  0.071102202	1.788110E+02	  0.071102202	1.653600E+01	  0.071102202	4.610000E-01
257	  0.071302600	-5.970000E+00	  0.071302600	1.778310E+02	  0.071302600	1.654300E+01	  0.071302600	8.420000E-01
258	  0.071503006	-5.977000E+00	  0.071503006	1.768450E+02	  0.071503006	1.656600E+01	  0.071503006	1.225000E+00
259	  0.071703404	-5.982000E+00	  0.071703404	1.758610E+02	  0.071703404	1.658800E+01	  0.071703404	1.607000E+00
260	  0.071903802	-5.989000E+00	  0.071903802	1.748870E+02	  0.071903802	1.661500E+01	  0.071903802	1.986000E+00
261	  0.072104208	-5.997000E+00	  0.072104208	1.739070E+02	  0.072104208	1.664900E+01	  0.072104208	2.366000E+00
262	  0.072304606	-5.996000E+00	  0.072304606	1.729500E+02	  0.072304606	1.666000E+01	  0.072304606	2.738000E+00
263	  0.072505005	-6.004000E+00	  0.072505005	1.719990E+02	  0.072505005	1.669800E+01	  0.072505005	3.108000E+00
264	  0.072705410	-6.012000E+00	  0.072705410	1.710380E+02	  0.072705410	1.673800E+01	  0.072705410	3.481000E+00
265	  0.072905809	-6.015000E+00	  0.072905809	1.700630E+02	  0.072905809	1.676500E+01	  0.072905809	3.861000E+00
266	  0.073106214	-6.025000E+00	  0.073106214	1.690990E+02	  0.073106214	1.681300E+01	  0.073106214	4.235000E+00
267	  0.073306613	-6.031000E+00	  0.073306613	1.681690E+02	  0.073306613	1.685300E+01	  0.073306613	4.597000E+00
268	  0.073507011	-6.041000E+00	  0.073507011	1.672050E+02	  0.073507011	1.690500E+01	  0.073507011	4.972000E+00
269	  0.073707417	-6.052000E+00	  0.073707417	1.662380E+02	  0.073707417	1.696300E+01	  0.073707417	5.347000E+00
270	  0.073907815	-6.058000E+00	  0.073907815	1.652910E+02	  0.073907815	1.701200E+01	  0.073907815	5.717000E+00
271	  0.074108213	-6.063000E+00	  0.074108213	1.643780E+02	  0.074108213	1.705600E+01	  0.074108213	6.073000E+00
272	  0.074308619	-6.070000E+00	  0.074308619	1.634430E+02	  0.074308619	1.710900E+01	  0.074308619	6.438000E+00
273	  0.074509017	-6.077000E+00	  0.074509017	1.624720E+02	  0.074509017	1.716500E+01	  0.074509017	6.818000E+00
274	  0.074709415	-6.087000E+00	  0.074709415	1.615340E+02	  0.074709415	1.723100E+01	  0.074709415	7.184000E+00
275	  0.074909821	-6.097000E+00	  0.074909821	1.606110E+02	  0.074909821	1.729600E+01	  0.074909821	7.544000E+00
276	  0.075110219	-6.106000E+00	  0.075110219	1.596810E+02	  0.075110219	1.736500E+01	  0.075110219	7.908000E+00
277	  0.075310618	-6.114000E+00	  0.075310618	1.587570E+02	  0.075310618	1.743100E+01	  0.075310618	8.271000E+00
278	  0.075511023	-6.118000E+00	  0.075511023	1.578580E+02	  0.075511023	1.748600E+01	  0.075511023	8.625000E+00
279	  0.075711422	-6.126000E+00	  0.075711422	1.569280E+02	  0.075711422	1.755900E+01	  0.075711422	8.991000E+00
280	  0.075911827	-6.135000E+00	  0.075911827	1.560380E+02	  0.075911827	1.763300E+01	  0.075911827	9.340000E+00
281	  0.076112226	-6.141000E+00	  0.076112226	1.551250E+02	  0.076112226	1.770200E+01	  0.076112226	9.701000E+00
282	  0.076312624	-6.149000E+00	  0.076312624	1.542190E+02	  0.076312624	1.777800E+01	  0.076312624	1.005900E+01
283	  0.076513030	-6.163000E+00	  0.076513030	1.532970E+02	  0.076513030	1.787400E+01	  0.076513030	1.042100E+01
284	  0.076713428	-6.172000E+00	  0.076713428	1.524010E+02	  0.076713428	1.795700E+01	  0.076713428	1.077500E+01
285	  0.076913826	-6.180000E+00	  0.076913826	1.514970E+02	  0.076913826	1.803900E+01	  0.076913826	1.113400E+01
286	  0.077114232	-6.190000E+00	  0.077114232	1.506120E+02	  0.077114232	1.813100E+01	  0.077114232	1.148500E+01
287	  0.077314630	-6.203000E+00	  0.077314630	1.497140E+02	  0.077314630	1.823000E+01	  0.077314630	1.184000E+01
288	  0.077515028	-6.206000E+00	  0.077515028	1.488540E+02	  0.077515028	1.830300E+01	  0.077515028	1.218500E+01
289	  0.077715434	-6.220000E+00	  0.077715434	1.479600E+02	  0.077715434	1.841300E+01	  0.077715434	1.253900E+01
290	  0.077915832	-6.231000E+00	  0.077915832	1.470750E+02	  0.077915832	1.851400E+01	  0.077915832	1.289200E+01
291	  0.078116231	-6.237000E+00	  0.078116231	1.462060E+02	  0.078116231	1.860500E+01	  0.078116231	1.324100E+01
292	  0.078316636	-6.251000E+00	  0.078316636	1.453320E+02	  0.078316636	1.871700E+01	  0.078316636	1.358900E+01
293	  0.078517035	-6.260000E+00	  0.078517035	1.444370E+02	  0.078517035	1.882200E+01	  0.078517035	1.394900E+01
294	  0.078717433	-6.273000E+00	  0.078717433	1.435540E+02	  0.078717433	1.893900E+01	  0.078717433	1.430200E+01
295	  0.078917839	-6.287000E+00	  0.078917839	1.426730E+02	  0.078917839	1.906200E+01	  0.078917839	1.465400E+01
296	  0.079118237	-6.299000E+00	  0.079118237	1.418390E+02	  0.079118237	1.917800E+01	  0.079118237	1.498900E+01
297	  0.079318643	-6.308000E+00	  0.079318643	1.409550E+02	  0.079318643	1.929100E+01	  0.079318643	1.534700E+01
298	  0.079519041	-6.323000E+00	  0.079519041	1.401330E+02	  0.079519041	1.941800E+01	  0.079519041	1.567600E+01
299	  0.079719439	-6.334000E+00	  0.079719439	1.392700E+02	  0.079719439	1.954100E+01	  0.079719439	1.602600E+01
300	  0.079919845	-6.349000E+00	  0.079919845	1.383870E+02	  0.079919845	1.968000E+01	  0.079919845	1.638100E+01
301	  0.080120243	-6.362000E+00	  0.080120243	1.375370E+02	  0.080120243	1.981500E+01	  0.080120243	1.672500E+01
302	  0.080320641	-6.375000E+00	  0.080320641	1.366660E+02	  0.080320641	1.995200E+01	  0.080320641	1.707800E+01
303	  0.080521047	-6.389000E+00	  0.080521047	1.358570E+02	  0.080521047	2.008900E+01	  0.080521047	1.740500E+01
304	  0.080721445	-6.403000E+00	  0.080721445	1.349700E+02	  0.080721445	2.023600E+01	  0.080721445	1.776600E+01
305	  0.080921844	-6.415000E+00	  0.080921844	1.341420E+02	  0.080921844	2.037500E+01	  0.080921844	1.810400E+01
306	  0.081122249	-6.434000E+00	  0.081122249	1.332830E+02	  0.081122249	2.054100E+01	  0.081122249	1.845000E+01
307	  0.081322648	-6.447000E+00	  0.081322648	1.324540E+02	  0.081322648	2.068800E+01	  0.081322648	1.878900E+01
308	  0.081523046	-6.462000E+00	  0.081523046	1.316040E+02	  0.081523046	2.084600E+01	  0.081523046	1.913600E+01
309	  0.081723452	-6.481000E+00	  0.081723452	1.307390E+02	  0.081723452	2.102000E+01	  0.081723452	1.948600E+01
310	  0.081923850	-6.492000E+00	  0.081923850	1.299090E+02	  0.081923850	2.117100E+01	  0.081923850	1.982900E+01
311	  0.082124248	-6.506000E+00	  0.082124248	1.290920E+02	  0.082124248	2.133300E+01	  0.082124248	2.016400E+01
312	  0.082324654	-6.520000E+00	  0.082324654	1.282590E+02	  0.082324654	2.149900E+01	  0.082324654	2.050700E+01
313	  0.082525052	-6.539000E+00	  0.082525052	1.274420E+02	  0.082525052	2.168000E+01	  0.082525052	2.083800E+01
314	  0.082725458	-6.555000E+00	  0.082725458	1.266690E+02	  0.082725458	2.184800E+01	  0.082725458	2.115500E+01
315	  0.082925856	-6.568000E+00	  0.082925856	1.258340E+02	  0.082925856	2.202400E+01	  0.082925856	2.150000E+01
316	  0.083126254	-6.588000E+00	  0.083126254	1.250260E+02	  0.083126254	2.221500E+01	  0.083126254	2.182800E+01
317	  0.083326660	-6.605000E+00	  0.083326660	1.242270E+02	  0.083326660	2.240100E+01	  0.083326660	2.215500E+01
318	  0.083527058	-6.621000E+00	  0.083527058	1.234010E+02	  0.083527058	2.259200E+01	  0.083527058	2.249600E+01
319	  0.083727457	-6.641000E+00	  0.083727457	1.226260E+02	  0.083727457	2.278800E+01	  0.083727457	2.281100E+01
320	  0.083927862	-6.656000E+00	  0.083927862	1.218090E+02	  0.083927862	2.298100E+01	  0.083927862	2.315000E+01
321	  0.084128261	-6.678000E+00	  0.084128261	1.210030E+02	  0.084128261	2.319600E+01	  0.084128261	2.347600E+01
322	  0.084328659	-6.698000E+00	  0.084328659	1.202470E+02	  0.084328659	2.340000E+01	  0.084328659	2.378200E+01
323	  0.084529065	-6.720000E+00	  0.084529065	1.194750E+02	  0.084529065	2.361400E+01	  0.084529065	2.409400E+01
324	  0.084729463	-6.740000E+00	  0.084729463	1.186850E+02	  0.084729463	2.383100E+01	  0.084729463	2.441600E+01
325	  0.084929854	-6.759000E+00	  0.084929854	1.179000E+02	  0.084929854	2.404900E+01	  0.084929854	2.473600E+01
326	  0.085130259	-6.779000E+00	  0.085130259	1.170820E+02	  0.085130259	2.427900E+01	  0.085130259	2.507000E+01
327	  0.085330658	-6.804000E+00	  0.085330658	1.163070E+02	  0.085330658	2.451800E+01	  0.085330658	2.537800E+01
328	  0.085531056	-6.824000E+00	  0.085531056	1.155400E+02	  0.085531056	2.474600E+01	  0.085531056	2.569000E+01
329	  0.085731462	-6.845000E+00	  0.085731462	1.147590E+02	  0.085731462	2.498300E+01	  0.085731462	2.600600E+01
330	  0.085931860	-6.870000E+00	  0.085931860	1.139740E+02	  0.085931860	2.523600E+01	  0.085931860	2.631900E+01
331	  0.086132258	-6.888000E+00	  0.086132258	1.132440E+02	  0.086132258	2.546000E+01	  0.086132258	2.661700E+01
332	  0.086332664	-6.914000E+00	  0.086332664	1.124800E+02	  0.086332664	2.572000E+01	  0.086332664	2.691700E+01
333	  0.086533062	-6.938000E+00	  0.086533062	1.117110E+02	  0.086533062	2.597800E+01	  0.086533062	2.722300E+01
334	  0.086733460	-6.962000E+00	  0.086733460	1.109210E+02	  0.086733460	2.624600E+01	  0.086733460	2.753800E+01
335	  0.086933866	-6.986000E+00	  0.086933866	1.101990E+02	  0.086933866	2.650100E+01	  0.086933866	2.782200E+01
336	  0.087134264	-7.009000E+00	  0.087134264	1.094530E+02	  0.087134264	2.676300E+01	  0.087134264	2.811700E+01
337	  0.087334670	-7.036000E+00	  0.087334670	1.087090E+02	  0.087334670	2.704100E+01	  0.087334670	2.840300E+01
338	  0.087535068	-7.063000E+00	  0.087535068	1.079710E+02	  0.087535068	2.731900E+01	  0.087535068	2.868900E+01
339	  0.087735467	-7.085000E+00	  0.087735467	1.072480E+02	  0.087735467	2.758400E+01	  0.087735467	2.897400E+01
340	  0.087935872	-7.117000E+00	  0.087935872	1.064940E+02	  0.087935872	2.789300E+01	  0.087935872	2.925200E+01
341	  0.088136271	-7.143000E+00	  0.088136271	1.057810E+02	  0.088136271	2.817300E+01	  0.088136271	2.952500E+01
342	  0.088336669	-7.168000E+00	  0.088336669	1.050360E+02	  0.088336669	2.846700E+01	  0.088336669	2.981100E+01
343	  0.088537075	-7.192000E+00	  0.088537075	1.043390E+02	  0.088537075	2.874600E+01	  0.088537075	3.007800E+01
344	  0.088737473	-7.216000E+00	  0.088737473	1.036210E+02	  0.088737473	2.903600E+01	  0.088737473	3.035300E+01
345	  0.088937871	-7.236000E+00	  0.088937871	1.028830E+02	  0.088937871	2.932500E+01	  0.088937871	3.064400E+01
346	  0.089138277	-7.265000E+00	  0.089138277	1.021860E+02	  0.089138277	2.963400E+01	  0.089138277	3.089500E+01
347	  0.089338675	-7.289000E+00	  0.089338675	1.015060E+02	  0.089338675	2.992200E+01	  0.089338675	3.115200E+01
348	  0.089539073	-7.315000E+00	  0.089539073	1.008320E+02	  0.089539073	3.022000E+01	  0.089539073	3.139900E+01
349	  0.089739479	-7.344000E+00	  0.089739479	1.001350E+02	  0.089739479	3.054000E+01	  0.089739479	3.164700E+01
350	  0.089939877	-7.368000E+00	  0.089939877	9.946100E+01	  0.089939877	3.084100E+01	  0.089939877	3.189500E+01
351	  0.090140276	-7.392000E+00	  0.090140276	9.878800E+01	  0.090140276	3.114400E+01	  0.090140276	3.214200E+01
352	  0.090340681	-7.416000E+00	  0.090340681	9.812300E+01	  0.090340681	3.145100E+01	  0.090340681	3.238100E+01
353	  0.090541080	-7.443000E+00	  0.090541080	9.743500E+01	  0.090541080	3.177700E+01	  0.090541080	3.262500E+01
354	  0.090741485	-7.467000E+00	  0.090741485	9.678800E+01	  0.090741485	3.208400E+01	  0.090741485	3.285500E+01
355	  0.090941884	-7.494000E+00	  0.090941884	9.613200E+01	  0.090941884	3.240700E+01	  0.090941884	3.308100E+01
356	  0.091142282	-7.525000E+00	  0.091142282	9.547700E+01	  0.091142282	3.274400E+01	  0.091142282	3.329400E+01
357	  0.091342688	-7.554000E+00	  0.091342688	9.481900E+01	  0.091342688	3.308100E+01	  0.091342688	3.351200E+01
358	  0.091543086	-7.584000E+00	  0.091543086	9.414100E+01	  0.091543086	3.343300E+01	  0.091543086	3.373300E+01
359	  0.091743484	-7.611000E+00	  0.091743484	9.351000E+01	  0.091743484	3.376000E+01	  0.091743484	3.394100E+01
360	  0.091943890	-7.637000E+00	  0.091943890	9.284700E+01	  0.091943890	3.410400E+01	  0.091943890	3.416100E+01
361	  0.092144288	-7.666000E+00	  0.092144288	9.217700E+01	  0.092144288	3.446100E+01	  0.092144288	3.437500E+01
362	  0.092344686	-7.689000E+00	  0.092344686	9.151700E+01	  0.092344686	3.480300E+01	  0.092344686	3.459800E+01
363	  0.092545092	-7.724000E+00	  0.092545092	9.086400E+01	  0.092545092	3.517800E+01	  0.092545092	3.478400E+01
364	  0.092745490	-7.745000E+00	  0.092745490	9.023800E+01	  0.092745490	3.550800E+01	  0.092745490	3.499300E+01
365	  0.092945889	-7.779000E+00	  0.092945889	8.959700E+01	  0.092945889	3.588600E+01	  0.092945889	3.516900E+01
366	  0.093146294	-7.811000E+00	  0.093146294	8.896900E+01	  0.093146294	3.625400E+01	  0.093146294	3.534300E+01
367	  0.093346693	-7.835000E+00	  0.093346693	8.833700E+01	  0.093346693	3.660700E+01	  0.093346693	3.553900E+01
368	  0.093547091	-7.867000E+00	  0.093547091	8.773500E+01	  0.093547091	3.696900E+01	  0.093547091	3.569800E+01
369	  0.093747497	-7.893000E+00	  0.093747497	8.708900E+01	  0.093747497	3.734000E+01	  0.093747497	3.589000E+01
370	  0.093947895	-7.922000E+00	  0.093947895	8.646700E+01	  0.093947895	3.771300E+01	  0.093947895	3.605900E+01
371	  0.094148301	-7.955000E+00	  0.094148301	8.582700E+01	  0.094148301	3.810900E+01	  0.094148301	3.621900E+01
372	  0.094348699	-7.988000E+00	  0.094348699	8.524100E+01	  0.094348699	3.848300E+01	  0.094348699	3.635300E+01
373	  0.094549097	-8.018000E+00	  0.094549097	8.463300E+01	  0.094549097	3.886500E+01	  0.094549097	3.650200E+01
374	  0.094749503	-8.047000E+00	  0.094749503	8.402900E+01	  0.094749503	3.924300E+01	  0.094749503	3.665000E+01
375	  0.094949901	-8.080000E+00	  0.094949901	8.344400E+01	  0.094949901	3.962400E+01	  0.094949901	3.677600E+01
376	  0.095150299	-8.105000E+00	  0.095150299	8.285200E+01	  0.095150299	3.999300E+01	  0.095150299	3.692700E+01
377	  0.095350705	-8.140000E+00	  0.095350705	8.225100E+01	  0.095350705	4.039600E+01	  0.095350705	3.704200E+01
378	  0.095551103	-8.170000E+00	  0.095551103	8.164200E+01	  0.095551103	4.079300E+01	  0.095551103	3.717600E+01
379	  0.095751502	-8.199000E+00	  0.095751502	8.107700E+01	  0.095751502	4.116800E+01	  0.095751502	3.729000E+01
380	  0.095951907	-8.233000E+00	  0.095951907	8.049900E+01	  0.095951907	4.156400E+01	  0.095951907	3.739200E+01
381	  0.096152306	-8.262000E+00	  0.096152306	7.995000E+01	  0.096152306	4.193700E+01	  0.096152306	3.749200E+01
382	  0.096352704	-8.297000E+00	  0.096352704	7.937300E+01	  0.096352704	4.234000E+01	  0.096352704	3.758200E+01
383	  0.096553110	-8.326000E+00	  0.096553110	7.881400E+01	  0.096553110	4.272200E+01	  0.096553110	3.768100E+01
384	  0.096753508	-8.355000E+00	  0.096753508	7.826700E+01	  0.096753508	4.310100E+01	  0.096753508	3.777000E+01
385	  0.096953906	-8.391000E+00	  0.096953906	7.774100E+01	  0.096953906	4.348800E+01	  0.096953906	3.782300E+01
386	  0.097154312	-8.418000E+00	  0.097154312	7.716700E+01	  0.097154312	4.388300E+01	  0.097154312	3.792100E+01
387	  0.097354710	-8.447000E+00	  0.097354710	7.666200E+01	  0.097354710	4.424300E+01	  0.097354710	3.798900E+01
388	  0.097555116	-8.480000E+00	  0.097555116	7.613500E+01	  0.097555116	4.462900E+01	  0.097555116	3.804000E+01
389	  0.097755514	-8.510000E+00	  0.097755514	7.561000E+01	  0.097755514	4.500900E+01	  0.097755514	3.810000E+01
390	  0.097955912	-8.547000E+00	  0.097955912	7.510200E+01	  0.097955912	4.539600E+01	  0.097955912	3.812300E+01
391	  0.098156318	-8.575000E+00	  0.098156318	7.459600E+01	  0.098156318	4.576300E+01	  0.098156318	3.817700E+01
392	  0.098356716	-8.605000E+00	  0.098356716	7.411100E+01	  0.098356716	4.612400E+01	  0.098356716	3.821300E+01
393	  0.098557115	-8.633000E+00	  0.098557115	7.360800E+01	  0.098557115	4.649300E+01	  0.098557115	3.825800E+01
394	  0.098757520	-8.666000E+00	  0.098757520	7.314000E+01	  0.098757520	4.685400E+01	  0.098757520	3.826500E+01
395	  0.098957919	-8.696000E+00	  0.098957919	7.265800E+01	  0.098957919	4.721700E+01	  0.098957919	3.829100E+01
396	  0.099158317	-8.724000E+00	  0.099158317	7.216900E+01	  0.099158317	4.758200E+01	  0.099158317	3.832100E+01
397	  0.099358723	-8.752000E+00	  0.099358723	7.167800E+01	  0.099358723	4.795000E+01	  0.099358723	3.834700E+01
398	  0.099559121	-8.779000E+00	  0.099559121	7.122900E+01	  0.099559121	4.829200E+01	  0.099559121	3.836000E+01
399	  0.099759519	-8.810000E+00	  0.099759519	7.075900E+01	  0.099759519	4.865400E+01	  0.099759519	3.836200E+01
400	  0.099959925	-8.832000E+00	  0.099959925	7.032800E+01	  0.099959925	4.897700E+01	  0.099959925	3.838700E+01
401	  0.100160323	-8.859000E+00	  0.100160323	6.985000E+01	  0.100160323	4.933900E+01	  0.100160323	3.840000E+01
402	  0.100360721	-8.888000E+00	  0.100360721	6.947800E+01	  0.100360721	4.963700E+01	  0.100360721	3.837200E+01
403	  0.100561127	-8.911000E+00	  0.100561127	6.899600E+01	  0.100561127	4.999800E+01	  0.100561127	3.839500E+01
404	  0.100761525	-8.934000E+00	  0.100761525	6.855500E+01	  0.100761525	5.033400E+01	  0.100761525	3.840400E+01
405	  0.100961931	-8.955000E+00	  0.100961931	6.814400E+01	  0.100961931	5.064600E+01	  0.100961931	3.841600E+01
406	  0.101162329	-8.972000E+00	  0.101162329	6.771000E+01	  0.101162329	5.096900E+01	  0.101162329	3.844300E+01
407	  0.101362728	-8.995000E+00	  0.101362728	6.727500E+01	  0.101362728	5.130400E+01	  0.101362728	3.844300E+01
408	  0.101563133	-9.024000E+00	  0.101563133	6.681500E+01	  0.101563133	5.166600E+01	  0.101563133	3.841600E+01
409	  0.101763532	-9.040000E+00	  0.101763532	6.648800E+01	  0.101763532	5.191700E+01	  0.101763532	3.841800E+01
410	  0.101963930	-9.065000E+00	  0.101963930	6.608600E+01	  0.101963930	5.223400E+01	  0.101963930	3.839200E+01
411	  0.102164328	-9.082000E+00	  0.102164328	6.564400E+01	  0.102164328	5.256900E+01	  0.102164328	3.840600E+01
412	  0.102364726	-9.101000E+00	  0.102364726	6.516500E+01	  0.102364726	5.293400E+01	  0.102364726	3.841700E+01
413	  0.102565125	-9.118000E+00	  0.102565125	6.476300E+01	  0.102565125	5.324200E+01	  0.102565125	3.841800E+01
414	  0.102765530	-9.133000E+00	  0.102765530	6.437200E+01	  0.102765530	5.354200E+01	  0.102765530	3.842500E+01
415	  0.102965929	-9.151000E+00	  0.102965929	6.398400E+01	  0.102965929	5.384400E+01	  0.102965929	3.841300E+01
416	  0.103166327	-9.156000E+00	  0.103166327	6.353800E+01	  0.103166327	5.417300E+01	  0.103166327	3.847300E+01
417	  0.103366733	-9.170000E+00	  0.103366733	6.315500E+01	  0.103366733	5.446900E+01	  0.103366733	3.847600E+01
418	  0.103567131	-9.184000E+00	  0.103567131	6.274500E+01	  0.103567131	5.478600E+01	  0.103567131	3.847900E+01
419	  0.103767529	-9.188000E+00	  0.103767529	6.229800E+01	  0.103767529	5.512100E+01	  0.103767529	3.853400E+01
420	  0.103967935	-9.199000E+00	  0.103967935	6.189000E+01	  0.103967935	5.543600E+01	  0.103967935	3.854700E+01
421	  0.104168333	-9.208000E+00	  0.104168333	6.145300E+01	  0.104168333	5.577200E+01	  0.104168333	3.856900E+01
422	  0.104368731	-9.222000E+00	  0.104368731	6.108000E+01	  0.104368731	5.606700E+01	  0.104368731	3.855500E+01
423	  0.104569137	-9.226000E+00	  0.104569137	6.064000E+01	  0.104569137	5.640400E+01	  0.104569137	3.859700E+01
424	  0.104769535	-9.223000E+00	  0.104769535	6.024800E+01	  0.104769535	5.670000E+01	  0.104769535	3.867100E+01
425	  0.104969934	-9.230000E+00	  0.104969934	5.982500E+01	  0.104969934	5.703100E+01	  0.104969934	3.869100E+01
426	  0.105170339	-9.229000E+00	  0.105170339	5.935800E+01	  0.105170339	5.739100E+01	  0.105170339	3.875600E+01
427	  0.105370738	-9.238000E+00	  0.105370738	5.894800E+01	  0.105370738	5.771800E+01	  0.105370738	3.875700E+01
428	  0.105571143	-9.240000E+00	  0.105571143	5.850200E+01	  0.105571143	5.806900E+01	  0.105571143	3.879700E+01
429	  0.105771542	-9.239000E+00	  0.105771542	5.804300E+01	  0.105771542	5.843000E+01	  0.105771542	3.885100E+01
430	  0.105971940	-9.243000E+00	  0.105971940	5.762100E+01	  0.105971940	5.876900E+01	  0.105971940	3.887100E+01
431	  0.106172346	-9.235000E+00	  0.106172346	5.710500E+01	  0.106172346	5.917700E+01	  0.106172346	3.896100E+01
432	  0.106372744	-9.235000E+00	  0.106372744	5.670100E+01	  0.106372744	5.950300E+01	  0.106372744	3.900000E+01
433	  0.106573142	-9.236000E+00	  0.106573142	5.624200E+01	  0.106573142	5.987700E+01	  0.106573142	3.902900E+01
434	  0.106773548	-9.226000E+00	  0.106773548	5.575900E+01	  0.106773548	6.026800E+01	  0.106773548	3.912000E+01
435	  0.106973946	-9.213000E+00	  0.106973946	5.532100E+01	  0.106973946	6.062400E+01	  0.106973946	3.921700E+01
436	  0.107174344	-9.216000E+00	  0.107174344	5.484700E+01	  0.107174344	6.102000E+01	  0.107174344	3.923400E+01
437	  0.107374750	-9.209000E+00	  0.107374750	5.431700E+01	  0.107374750	6.146200E+01	  0.107374750	3.929800E+01
438	  0.107575148	-9.200000E+00	  0.107575148	5.392500E+01	  0.107575148	6.179200E+01	  0.107575148	3.936300E+01
439	  0.107775547	-9.190000E+00	  0.107775547	5.338200E+01	  0.107775547	6.225300E+01	  0.107775547	3.943800E+01
440	  0.107975952	-9.189000E+00	  0.107975952	5.289500E+01	  0.107975952	6.267100E+01	  0.107975952	3.946100E+01
441	  0.108176351	-9.176000E+00	  0.108176351	5.238000E+01	  0.108176351	6.311600E+01	  0.108176351	3.954300E+01
442	  0.108376749	-9.173000E+00	  0.108376749	5.182400E+01	  0.108376749	6.360200E+01	  0.108376749	3.956300E+01
443	  0.108577155	-9.166000E+00	  0.108577155	5.136400E+01	  0.108577155	6.400800E+01	  0.108577155	3.960700E+01
444	  0.108777553	-9.155000E+00	  0.108777553	5.078600E+01	  0.108777553	6.452300E+01	  0.108777553	3.966200E+01
445	  0.108977959	-9.144000E+00	  0.108977959	5.020700E+01	  0.108977959	6.504400E+01	  0.108977959	3.971600E+01
446	  0.109178357	-9.145000E+00	  0.109178357	4.966100E+01	  0.109178357	6.553800E+01	  0.109178357	3.969000E+01
447	  0.109378755	-9.139000E+00	  0.109378755	4.914300E+01	  0.109378755	6.601200E+01	  0.109378755	3.970400E+01
448	  0.109579161	-9.126000E+00	  0.109579161	4.857200E+01	  0.109579161	6.654100E+01	  0.109579161	3.975500E+01
449	  0.109779559	-9.117000E+00	  0.109779559	4.798700E+01	  0.109779559	6.708800E+01	  0.109779559	3.976800E+01
450	  0.109979957	-9.109000E+00	  0.109979957	4.739000E+01	  0.109979957	6.765100E+01	  0.109979957	3.977400E+01
451	  0.110180363	-9.102000E+00	  0.110180363	4.680700E+01	  0.110180363	6.820400E+01	  0.110180363	3.975900E+01
452	  0.110380761	-9.100000E+00	  0.110380761	4.617100E+01	  0.110380761	6.881100E+01	  0.110380761	3.970700E+01
453	  0.110581160	-9.084000E+00	  0.110581160	4.558500E+01	  0.110581160	6.938500E+01	  0.110581160	3.973700E+01
454	  0.110781565	-9.082000E+00	  0.110781565	4.492000E+01	  0.110781565	7.002800E+01	  0.110781565	3.965500E+01
455	  0.110981964	-9.074000E+00	  0.110981964	4.430700E+01	  0.110981964	7.063200E+01	  0.110981964	3.961300E+01
456	  0.111182362	-9.066000E+00	  0.111182362	4.366700E+01	  0.111182362	7.127000E+01	  0.111182362	3.955700E+01
457	  0.111382768	-9.060000E+00	  0.111382768	4.301500E+01	  0.111382768	7.192100E+01	  0.111382768	3.947800E+01
458	  0.111583166	-9.049000E+00	  0.111583166	4.235000E+01	  0.111583166	7.259700E+01	  0.111583166	3.941000E+01
459	  0.111783572	-9.054000E+00	  0.111783572	4.167600E+01	  0.111783572	7.326400E+01	  0.111783572	3.923000E+01
460	  0.111983970	-9.046000E+00	  0.111983970	4.098900E+01	  0.111983970	7.396800E+01	  0.111983970	3.911400E+01
461	  0.112184368	-9.047000E+00	  0.112184368	4.030200E+01	  0.112184368	7.466200E+01	  0.112184368	3.892900E+01
462	  0.112384774	-9.041000E+00	  0.112384774	3.959500E+01	  0.112384774	7.539200E+01	  0.112384774	3.877000E+01
463	  0.112585172	-9.039000E+00	  0.112585172	3.887800E+01	  0.112585172	7.613100E+01	  0.112585172	3.857000E+01
464	  0.112785570	-9.034000E+00	  0.112785570	3.816900E+01	  0.112785570	7.686900E+01	  0.112785570	3.836700E+01
465	  0.112985976	-9.028000E+00	  0.112985976	3.741600E+01	  0.112985976	7.765900E+01	  0.112985976	3.814300E+01
466	  0.113186374	-9.026000E+00	  0.113186374	3.672100E+01	  0.113186374	7.838500E+01	  0.113186374	3.790000E+01
467	  0.113386773	-9.036000E+00	  0.113386773	3.591500E+01	  0.113386773	7.919400E+01	  0.113386773	3.750900E+01
468	  0.113587178	-9.026000E+00	  0.113587178	3.519600E+01	  0.113587178	7.997000E+01	  0.113587178	3.727500E+01
469	  0.113787577	-9.032000E+00	  0.113787577	3.442200E+01	  0.113787577	8.075700E+01	  0.113787577	3.688100E+01
470	  0.113987975	-9.034000E+00	  0.113987975	3.359600E+01	  0.113987975	8.160900E+01	  0.113987975	3.647400E+01
471	  0.114188381	-9.031000E+00	  0.114188381	3.284000E+01	  0.114188381	8.240300E+01	  0.114188381	3.610800E+01
472	  0.114388779	-9.043000E+00	  0.114388779	3.203300E+01	  0.114388779	8.319800E+01	  0.114388779	3.559400E+01
473	  0.114589177	-9.046000E+00	  0.114589177	3.123300E+01	  0.114589177	8.401300E+01	  0.114589177	3.512200E+01
474	  0.114789583	-9.049000E+00	  0.114789583	3.042200E+01	  0.114789583	8.483600E+01	  0.114789583	3.462200E+01
475	  0.114989981	-9.061000E+00	  0.114989981	2.956400E+01	  0.114989981	8.566300E+01	  0.114989981	3.400400E+01
476	  0.115190387	-9.067000E+00	  0.115190387	2.874400E+01	  0.115190387	8.646600E+01	  0.115190387	3.342200E+01
477	  0.115390785	-9.082000E+00	  0.115390785	2.789000E+01	  0.115390785	8.725400E+01	  0.115390785	3.273400E+01
478	  0.115591183	-9.089000E+00	  0.115591183	2.701700E+01	  0.115591183	8.808600E+01	  0.115591183	3.205700E+01
479	  0.115791589	-9.105000E+00	  0.115791589	2.610300E+01	  0.115791589	8.890000E+01	  0.115791589	3.126300E+01
480	  0.115991987	-9.122000E+00	  0.115991987	2.521000E+01	  0.115991987	8.967100E+01	  0.115991987	3.045200E+01
481	  0.116192386	-9.143000E+00	  0.116192386	2.431200E+01	  0.116192386	9.040400E+01	  0.116192386	2.958200E+01
482	  0.116392791	-9.152000E+00	  0.116392791	2.338400E+01	  0.116392791	9.120900E+01	  0.116392791	2.873300E+01
483	  0.116593190	-9.172000E+00	  0.116593190	2.245000E+01	  0.116593190	9.193600E+01	  0.116593190	2.778500E+01
484	  0.116793588	-9.201000E+00	  0.116793588	2.149600E+01	  0.116793588	9.259700E+01	  0.116793588	2.673800E+01
485	  0.116993994	-9.224000E+00	  0.116993994	2.050000E+01	  0.116993994	9.330000E+01	  0.116993994	2.566200E+01
486	  0.117194392	-9.250000E+00	  0.117194392	1.953600E+01	  0.117194392	9.392300E+01	  0.117194392	2.457400E+01
487	  0.117394790	-9.277000E+00	  0.117394790	1.850000E+01	  0.117394790	9.456100E+01	  0.117394790	2.338500E+01
488	  0.117595196	-9.313000E+00	  0.117595196	1.750200E+01	  0.117595196	9.506700E+01	  0.117595196	2.216600E+01
489	  0.117795594	-9.337000E+00	  0.117795594	1.647500E+01	  0.117795594	9.563400E+01	  0.117795594	2.095300E+01
490	  0.117995992	-9.375000E+00	  0.117995992	1.541800E+01	  0.117995992	9.607700E+01	  0.117995992	1.962600E+01
491	  0.118196398	-9.414000E+00	  0.118196398	1.435700E+01	  0.118196398	9.646300E+01	  0.118196398	1.827300E+01
492	  0.118396796	-9.454000E+00	  0.118396796	1.322000E+01	  0.118396796	9.683500E+01	  0.118396796	1.682100E+01
493	  0.118597202	-9.490000E+00	  0.118597202	1.210000E+01	  0.118597202	9.717300E+01	  0.118597202	1.539200E+01
494	  0.118797600	-9.537000E+00	  0.118797600	1.096200E+01	  0.118797600	9.737700E+01	  0.118797600	1.389900E+01
