! Anritsu VNA Master:             	Model: MS2036C/10/77
! SN:             	1601066
! /bd0/18may09/254.ns.m3.txt
! Existing Calibration Information:
! TYPE:             	Current Settings	Active Cal Settings
! TIME:             	05/09/2018 12:44:52 PM	05/09/2018 12:35:56 PM
! INTERNAL TEMP:    	57.8 C	56.8 C
! # POINTS:         	494	494
! START FREQ:       	20.000 MHz	20.000 MHz
! STOP FREQ:        	118.797 594 MHz	118.797 594 MHz
! SOURCE POWER:     	High	High
! IFBW:             	50 Hz	50 Hz
! AVG FACTOR:       	  1 	  1 
! REF PLANE 1:      	0 mm	0 mm
! REF PLANE 2:      	0 mm	0 mm
! CAL TYPE:         	Full S22	Full S22
! CAL METHOD:       	SOLT	SOLT
! CAL LINE TYPE:    	Coax	Coax
! DUT PORT 1:       	K-Conn(M)	K-Conn(M)
! DUT PORT 2:       	K-Conn(M)	K-Conn(M)
! CAL STATUS:       	OK: Accuracy High	--
! PROP-V:       	0.700
! CABLE LOSS:       	0.000 dB/m
! REF IMPEDANCE:       	50.0
! Trace Specific Parameters:	TR1	TR2	TR3	TR4
! TRACE.#.Y (GRAPH TYPE)	LOG MAG	PHASE	REAL IMPEDANCE	IMAGINARY IMPEDANCE
! TRACE.#.X 	FREQ.GHZ	FREQ.GHZ	FREQ.GHZ	FREQ.GHZ
! S-PARAMETER	S22	S22	S22	S22
! SMOOTH/APERTURE %	0	0	0	0
! WINDOW	NSL	NSL	NSL	NSL
! GATING	OFF	OFF	OFF	OFF
! FGTD	OFF	OFF	OFF	OFF
Marker Information per Trace:	TR1	TR2	TR3	TR4
!MK1	--	"MK1 TR2:  20.000 MHz,PH:-126.49°"	--	--
!MK2	--	--	"MK2 TR3:  70.100 200 MHz,Z:(16.537 ohm, -1.759 ohm)"	--
!MK3	--	--	--	--
!MK4	--	--	--	--
!MK5	--	--	--	--
!MK6	--	--	--	--
!MK7	--	--	--	--
!MK8	--	--	--	--
PNT	TR1.FREQ.GHZ	TR1.LOG MAG.dB	TR2.FREQ.GHZ	TR2.PHASE.deg	TR3.FREQ.GHZ	TR3.REAL IMPEDANCE.ohm	TR4.FREQ.GHZ	TR4.IMAGINARY IMPEDANCE.ohm
1	  0.020000000	-6.380000E-01	  0.020000000	-1.264890E+02	  0.020000000	2.303000E+00	  0.020000000	-2.516500E+01
2	  0.020200402	-6.430000E-01	  0.020200402	-1.279390E+02	  0.020200402	2.292000E+00	  0.020200402	-2.437800E+01
3	  0.020400802	-6.450000E-01	  0.020400802	-1.294110E+02	  0.020400802	2.271000E+00	  0.020400802	-2.358900E+01
4	  0.020601204	-6.500000E-01	  0.020601204	-1.309250E+02	  0.020601204	2.261000E+00	  0.020601204	-2.278700E+01
5	  0.020801604	-6.530000E-01	  0.020801604	-1.324180E+02	  0.020801604	2.244000E+00	  0.020801604	-2.200500E+01
6	  0.021002004	-6.540000E-01	  0.021002004	-1.339760E+02	  0.021002004	2.222000E+00	  0.021002004	-2.120000E+01
7	  0.021202406	-6.570000E-01	  0.021202406	-1.355200E+02	  0.021202406	2.208000E+00	  0.021202406	-2.041000E+01
8	  0.021402806	-6.600000E-01	  0.021402806	-1.370690E+02	  0.021402806	2.194000E+00	  0.021402806	-1.962700E+01
9	  0.021603208	-6.630000E-01	  0.021603208	-1.386130E+02	  0.021603208	2.181000E+00	  0.021603208	-1.885500E+01
10	  0.021803608	-6.680000E-01	  0.021803608	-1.401700E+02	  0.021803608	2.175000E+00	  0.021803608	-1.808300E+01
11	  0.022004008	-6.760000E-01	  0.022004008	-1.417220E+02	  0.022004008	2.178000E+00	  0.022004008	-1.732200E+01
12	  0.022204408	-6.780000E-01	  0.022204408	-1.433180E+02	  0.022204408	2.167000E+00	  0.022204408	-1.654700E+01
13	  0.022404809	-6.840000E-01	  0.022404809	-1.449420E+02	  0.022404809	2.164000E+00	  0.022404809	-1.576500E+01
14	  0.022605211	-6.880000E-01	  0.022605211	-1.465550E+02	  0.022605211	2.157000E+00	  0.022605211	-1.499600E+01
15	  0.022805611	-6.940000E-01	  0.022805611	-1.481770E+02	  0.022805611	2.160000E+00	  0.022805611	-1.422800E+01
16	  0.023006011	-7.010000E-01	  0.023006011	-1.497910E+02	  0.023006011	2.163000E+00	  0.023006011	-1.347100E+01
17	  0.023206413	-7.060000E-01	  0.023206413	-1.514000E+02	  0.023206413	2.164000E+00	  0.023206413	-1.272200E+01
18	  0.023406813	-7.100000E-01	  0.023406813	-1.530350E+02	  0.023406813	2.162000E+00	  0.023406813	-1.196600E+01
19	  0.023607215	-7.180000E-01	  0.023607215	-1.546540E+02	  0.023607215	2.169000E+00	  0.023607215	-1.122200E+01
20	  0.023807615	-7.270000E-01	  0.023807615	-1.562900E+02	  0.023807615	2.184000E+00	  0.023807615	-1.047600E+01
21	  0.024008015	-7.370000E-01	  0.024008015	-1.579470E+02	  0.024008015	2.202000E+00	  0.024008015	-9.724000E+00
22	  0.024208417	-7.450000E-01	  0.024208417	-1.596110E+02	  0.024208417	2.214000E+00	  0.024208417	-8.974000E+00
23	  0.024408817	-7.510000E-01	  0.024408817	-1.612790E+02	  0.024408817	2.219000E+00	  0.024408817	-8.226000E+00
24	  0.024609219	-7.580000E-01	  0.024609219	-1.629470E+02	  0.024609219	2.230000E+00	  0.024609219	-7.481000E+00
25	  0.024809619	-7.660000E-01	  0.024809619	-1.646180E+02	  0.024809619	2.245000E+00	  0.024809619	-6.738000E+00
26	  0.025010020	-7.770000E-01	  0.025010020	-1.663020E+02	  0.025010020	2.268000E+00	  0.025010020	-5.993000E+00
27	  0.025210422	-7.860000E-01	  0.025210422	-1.679910E+02	  0.025210422	2.286000E+00	  0.025210422	-5.248000E+00
28	  0.025410822	-7.960000E-01	  0.025410822	-1.696820E+02	  0.025410822	2.308000E+00	  0.025410822	-4.504000E+00
29	  0.025611224	-8.060000E-01	  0.025611224	-1.713860E+02	  0.025611224	2.333000E+00	  0.025611224	-3.757000E+00
30	  0.025811624	-8.170000E-01	  0.025811624	-1.731110E+02	  0.025811624	2.360000E+00	  0.025811624	-3.002000E+00
31	  0.026012026	-8.280000E-01	  0.026012026	-1.748470E+02	  0.026012026	2.386000E+00	  0.026012026	-2.244000E+00
32	  0.026212426	-8.390000E-01	  0.026212426	-1.765840E+02	  0.026212426	2.416000E+00	  0.026212426	-1.487000E+00
33	  0.026412826	-8.520000E-01	  0.026412826	-1.783400E+02	  0.026412826	2.451000E+00	  0.026412826	-7.220000E-01
34	  0.026613226	-8.660000E-01	  0.026613226	1.798970E+02	  0.026613226	2.491000E+00	  0.026613226	4.400000E-02
35	  0.026813626	-8.800000E-01	  0.026813626	1.781150E+02	  0.026813626	2.533000E+00	  0.026813626	8.200000E-01
36	  0.027014028	-8.960000E-01	  0.027014028	1.763420E+02	  0.027014028	2.581000E+00	  0.027014028	1.592000E+00
37	  0.027214428	-9.130000E-01	  0.027214428	1.745560E+02	  0.027214428	2.632000E+00	  0.027214428	2.370000E+00
38	  0.027414829	-9.300000E-01	  0.027414829	1.727580E+02	  0.027414829	2.685000E+00	  0.027414829	3.154000E+00
39	  0.027615231	-9.470000E-01	  0.027615231	1.709350E+02	  0.027615231	2.740000E+00	  0.027615231	3.951000E+00
40	  0.027815631	-9.650000E-01	  0.027815631	1.691180E+02	  0.027815631	2.800000E+00	  0.027815631	4.747000E+00
41	  0.028016033	-9.830000E-01	  0.028016033	1.672810E+02	  0.028016033	2.862000E+00	  0.028016033	5.554000E+00
42	  0.028216433	-1.002000E+00	  0.028216433	1.654340E+02	  0.028216433	2.930000E+00	  0.028216433	6.368000E+00
43	  0.028416833	-1.022000E+00	  0.028416833	1.635700E+02	  0.028416833	3.001000E+00	  0.028416833	7.192000E+00
44	  0.028617235	-1.044000E+00	  0.028617235	1.617110E+02	  0.028617235	3.079000E+00	  0.028617235	8.018000E+00
45	  0.028817635	-1.064000E+00	  0.028817635	1.598340E+02	  0.028817635	3.157000E+00	  0.028817635	8.856000E+00
46	  0.029018037	-1.087000E+00	  0.029018037	1.579830E+02	  0.029018037	3.245000E+00	  0.029018037	9.687000E+00
47	  0.029218437	-1.111000E+00	  0.029218437	1.560940E+02	  0.029218437	3.337000E+00	  0.029218437	1.053900E+01
48	  0.029418837	-1.136000E+00	  0.029418837	1.541890E+02	  0.029418837	3.436000E+00	  0.029418837	1.140400E+01
49	  0.029619239	-1.162000E+00	  0.029619239	1.522920E+02	  0.029619239	3.543000E+00	  0.029619239	1.227200E+01
50	  0.029819639	-1.187000E+00	  0.029819639	1.503860E+02	  0.029819639	3.649000E+00	  0.029819639	1.315000E+01
51	  0.030020041	-1.215000E+00	  0.030020041	1.484640E+02	  0.030020041	3.768000E+00	  0.030020041	1.404400E+01
52	  0.030220442	-1.240000E+00	  0.030220442	1.465550E+02	  0.030220442	3.883000E+00	  0.030220442	1.493800E+01
53	  0.030420844	-1.267000E+00	  0.030420844	1.446380E+02	  0.030420844	4.008000E+00	  0.030420844	1.584500E+01
54	  0.030621244	-1.296000E+00	  0.030621244	1.427300E+02	  0.030621244	4.144000E+00	  0.030621244	1.675600E+01
55	  0.030821642	-1.326000E+00	  0.030821642	1.408180E+02	  0.030821642	4.290000E+00	  0.030821642	1.767800E+01
56	  0.031022044	-1.356000E+00	  0.031022044	1.388820E+02	  0.031022044	4.441000E+00	  0.031022044	1.862200E+01
57	  0.031222444	-1.383000E+00	  0.031222444	1.369580E+02	  0.031222444	4.587000E+00	  0.031222444	1.957200E+01
58	  0.031422846	-1.416000E+00	  0.031422846	1.349900E+02	  0.031422846	4.761000E+00	  0.031422846	2.055500E+01
59	  0.031623244	-1.449000E+00	  0.031623244	1.330170E+02	  0.031623244	4.943000E+00	  0.031623244	2.155200E+01
60	  0.031823646	-1.482000E+00	  0.031823646	1.310470E+02	  0.031823646	5.130000E+00	  0.031823646	2.256200E+01
61	  0.032024048	-1.516000E+00	  0.032024048	1.290720E+02	  0.032024048	5.333000E+00	  0.032024048	2.358800E+01
62	  0.032224450	-1.552000E+00	  0.032224450	1.270960E+02	  0.032224450	5.549000E+00	  0.032224450	2.463000E+01
63	  0.032424849	-1.589000E+00	  0.032424849	1.251110E+02	  0.032424849	5.778000E+00	  0.032424849	2.569200E+01
64	  0.032625251	-1.625000E+00	  0.032625251	1.231030E+02	  0.032625251	6.020000E+00	  0.032625251	2.678400E+01
65	  0.032825653	-1.663000E+00	  0.032825653	1.210690E+02	  0.032825653	6.278000E+00	  0.032825653	2.790900E+01
66	  0.033026051	-1.699000E+00	  0.033026051	1.190390E+02	  0.033026051	6.543000E+00	  0.033026051	2.905300E+01
67	  0.033226453	-1.736000E+00	  0.033226453	1.169830E+02	  0.033226453	6.828000E+00	  0.033226453	3.023300E+01
68	  0.033426855	-1.770000E+00	  0.033426855	1.149600E+02	  0.033426855	7.114000E+00	  0.033426855	3.141600E+01
69	  0.033627257	-1.814000E+00	  0.033627257	1.129230E+02	  0.033627257	7.455000E+00	  0.033627257	3.262800E+01
70	  0.033827655	-1.851000E+00	  0.033827655	1.108730E+02	  0.033827655	7.786000E+00	  0.033827655	3.387500E+01
71	  0.034028057	-1.893000E+00	  0.034028057	1.088230E+02	  0.034028057	8.158000E+00	  0.034028057	3.514600E+01
72	  0.034228459	-1.936000E+00	  0.034228459	1.067470E+02	  0.034228459	8.557000E+00	  0.034228459	3.646200E+01
73	  0.034428857	-1.975000E+00	  0.034428857	1.046720E+02	  0.034428857	8.968000E+00	  0.034428857	3.780900E+01
74	  0.034629259	-2.018000E+00	  0.034629259	1.025730E+02	  0.034629259	9.419000E+00	  0.034629259	3.920200E+01
75	  0.034829661	-2.061000E+00	  0.034829661	1.004850E+02	  0.034829661	9.897000E+00	  0.034829661	4.062200E+01
76	  0.035030060	-2.108000E+00	  0.035030060	9.838700E+01	  0.035030060	1.042500E+01	  0.035030060	4.208100E+01
77	  0.035230462	-2.154000E+00	  0.035230462	9.630100E+01	  0.035230462	1.098200E+01	  0.035230462	4.356900E+01
78	  0.035430863	-2.202000E+00	  0.035430863	9.419700E+01	  0.035430863	1.159000E+01	  0.035430863	4.510600E+01
79	  0.035631265	-2.246000E+00	  0.035631265	9.209200E+01	  0.035631265	1.222000E+01	  0.035631265	4.669100E+01
80	  0.035831664	-2.295000E+00	  0.035831664	8.999900E+01	  0.035831664	1.291300E+01	  0.035831664	4.830400E+01
81	  0.036032066	-2.343000E+00	  0.036032066	8.789600E+01	  0.036032066	1.365800E+01	  0.036032066	4.996900E+01
82	  0.036232468	-2.389000E+00	  0.036232468	8.581500E+01	  0.036232468	1.443200E+01	  0.036232468	5.166900E+01
83	  0.036432866	-2.439000E+00	  0.036432866	8.371000E+01	  0.036432866	1.529800E+01	  0.036432866	5.343100E+01
84	  0.036633268	-2.488000E+00	  0.036633268	8.161300E+01	  0.036633268	1.621400E+01	  0.036633268	5.523900E+01
85	  0.036833670	-2.538000E+00	  0.036833670	7.952600E+01	  0.036833670	1.721000E+01	  0.036833670	5.708900E+01
86	  0.037034072	-2.592000E+00	  0.037034072	7.742600E+01	  0.037034072	1.830900E+01	  0.037034072	5.899600E+01
87	  0.037234470	-2.641000E+00	  0.037234470	7.533300E+01	  0.037234470	1.946100E+01	  0.037234470	6.096500E+01
88	  0.037434869	-2.695000E+00	  0.037434869	7.325300E+01	  0.037434869	2.073300E+01	  0.037434869	6.296700E+01
89	  0.037635271	-2.748000E+00	  0.037635271	7.114600E+01	  0.037635271	2.211500E+01	  0.037635271	6.505600E+01
90	  0.037835669	-2.813000E+00	  0.037835669	6.904300E+01	  0.037835669	2.370200E+01	  0.037835669	6.715800E+01
91	  0.038036071	-2.873000E+00	  0.038036071	6.701100E+01	  0.038036071	2.534300E+01	  0.038036071	6.925000E+01
92	  0.038236473	-2.927000E+00	  0.038236473	6.495800E+01	  0.038236473	2.708300E+01	  0.038236473	7.144300E+01
93	  0.038436871	-2.982000E+00	  0.038436871	6.289400E+01	  0.038436871	2.898700E+01	  0.038436871	7.370300E+01
94	  0.038637273	-3.036000E+00	  0.038637273	6.081900E+01	  0.038637273	3.107000E+01	  0.038637273	7.602700E+01
95	  0.038837675	-3.087000E+00	  0.038837675	5.876800E+01	  0.038837675	3.328200E+01	  0.038837675	7.839700E+01
96	  0.039038073	-3.140000E+00	  0.039038073	5.669400E+01	  0.039038073	3.573400E+01	  0.039038073	8.083100E+01
97	  0.039238475	-3.191000E+00	  0.039238475	5.465100E+01	  0.039238475	3.836800E+01	  0.039238475	8.327400E+01
98	  0.039438877	-3.246000E+00	  0.039438877	5.258100E+01	  0.039438877	4.130300E+01	  0.039438877	8.576400E+01
99	  0.039639279	-3.300000E+00	  0.039639279	5.052900E+01	  0.039639279	4.448900E+01	  0.039639279	8.824700E+01
100	  0.039839678	-3.356000E+00	  0.039839678	4.846000E+01	  0.039839678	4.802100E+01	  0.039839678	9.073200E+01
101	  0.040040080	-3.405000E+00	  0.040040080	4.638300E+01	  0.040040080	5.182300E+01	  0.040040080	9.329400E+01
102	  0.040240481	-3.459000E+00	  0.040240481	4.432700E+01	  0.040240481	5.600900E+01	  0.040240481	9.572100E+01
103	  0.040440880	-3.508000E+00	  0.040440880	4.227300E+01	  0.040440880	6.054300E+01	  0.040440880	9.812200E+01
104	  0.040641282	-3.561000E+00	  0.040641282	4.021800E+01	  0.040641282	6.554300E+01	  0.040641282	1.003640E+02
105	  0.040841684	-3.611000E+00	  0.040841684	3.818600E+01	  0.040841684	7.091100E+01	  0.040841684	1.024600E+02
106	  0.041042086	-3.662000E+00	  0.041042086	3.616200E+01	  0.041042086	7.675900E+01	  0.041042086	1.042980E+02
107	  0.041242484	-3.714000E+00	  0.041242484	3.413300E+01	  0.041242484	8.313100E+01	  0.041242484	1.058370E+02
108	  0.041442886	-3.763000E+00	  0.041442886	3.209800E+01	  0.041442886	9.004000E+01	  0.041442886	1.070390E+02
109	  0.041643288	-3.811000E+00	  0.041643288	3.004900E+01	  0.041643288	9.753600E+01	  0.041643288	1.078050E+02
110	  0.041843686	-3.858000E+00	  0.041843686	2.801500E+01	  0.041843686	1.055220E+02	  0.041843686	1.079760E+02
111	  0.042044088	-3.907000E+00	  0.042044088	2.600900E+01	  0.042044088	1.139150E+02	  0.042044088	1.073710E+02
112	  0.042244490	-3.951000E+00	  0.042244490	2.399100E+01	  0.042244490	1.228120E+02	  0.042244490	1.060720E+02
113	  0.042444889	-3.998000E+00	  0.042444889	2.200600E+01	  0.042444889	1.319210E+02	  0.042444889	1.036800E+02
114	  0.042645290	-4.047000E+00	  0.042645290	2.001900E+01	  0.042645290	1.412560E+02	  0.042645290	1.001010E+02
115	  0.042845692	-4.090000E+00	  0.042845692	1.803500E+01	  0.042845692	1.507000E+02	  0.042845692	9.551300E+01
116	  0.043046094	-4.137000E+00	  0.043046094	1.606800E+01	  0.043046094	1.598710E+02	  0.043046094	8.948100E+01
117	  0.043246493	-4.181000E+00	  0.043246493	1.409900E+01	  0.043246493	1.686890E+02	  0.043246493	8.213900E+01
118	  0.043446895	-4.223000E+00	  0.043446895	1.213900E+01	  0.043446895	1.768790E+02	  0.043446895	7.356300E+01
119	  0.043647297	-4.261000E+00	  0.043647297	1.016100E+01	  0.043647297	1.843290E+02	  0.043647297	6.369100E+01
120	  0.043847695	-4.304000E+00	  0.043847695	8.233000E+00	  0.043847695	1.902470E+02	  0.043847695	5.278800E+01
121	  0.044048097	-4.348000E+00	  0.044048097	6.335000E+00	  0.044048097	1.946270E+02	  0.044048097	4.116300E+01
122	  0.044248499	-4.387000E+00	  0.044248499	4.421000E+00	  0.044248499	1.976460E+02	  0.044248499	2.891800E+01
123	  0.044448901	-4.428000E+00	  0.044448901	2.537000E+00	  0.044448901	1.989160E+02	  0.044448901	1.654900E+01
124	  0.044649299	-4.469000E+00	  0.044649299	6.430000E-01	  0.044649299	1.985280E+02	  0.044649299	4.145000E+00
125	  0.044849701	-4.507000E+00	  0.044849701	-1.228000E+00	  0.044849701	1.966830E+02	  0.044849701	-7.772000E+00
126	  0.045050103	-4.547000E+00	  0.045050103	-3.110000E+00	  0.045050103	1.933120E+02	  0.045050103	-1.914700E+01
127	  0.045250501	-4.585000E+00	  0.045250501	-4.955000E+00	  0.045250501	1.888340E+02	  0.045250501	-2.950300E+01
128	  0.045450903	-4.626000E+00	  0.045450903	-6.825000E+00	  0.045450903	1.832280E+02	  0.045450903	-3.901100E+01
129	  0.045651305	-4.665000E+00	  0.045651305	-8.684000E+00	  0.045651305	1.769070E+02	  0.045651305	-4.742000E+01
130	  0.045851704	-4.702000E+00	  0.045851704	-1.052700E+01	  0.045851704	1.701160E+02	  0.045851704	-5.469000E+01
131	  0.046052102	-4.738000E+00	  0.046052102	-1.235000E+01	  0.046052102	1.630770E+02	  0.046052102	-6.086500E+01
132	  0.046252504	-4.775000E+00	  0.046252504	-1.418800E+01	  0.046252504	1.557780E+02	  0.046252504	-6.607100E+01
133	  0.046452906	-4.809000E+00	  0.046452906	-1.600300E+01	  0.046452906	1.485710E+02	  0.046452906	-7.032200E+01
134	  0.046653304	-4.846000E+00	  0.046653304	-1.783800E+01	  0.046653304	1.413190E+02	  0.046653304	-7.370900E+01
135	  0.046853706	-4.878000E+00	  0.046853706	-1.966000E+01	  0.046853706	1.343310E+02	  0.046853706	-7.638000E+01
136	  0.047054108	-4.913000E+00	  0.047054108	-2.149000E+01	  0.047054108	1.275130E+02	  0.047054108	-7.833100E+01
137	  0.047254506	-4.946000E+00	  0.047254506	-2.331100E+01	  0.047254506	1.210150E+02	  0.047254506	-7.971400E+01
138	  0.047454908	-4.978000E+00	  0.047454908	-2.512600E+01	  0.047454908	1.148400E+02	  0.047454908	-8.058500E+01
139	  0.047655310	-5.011000E+00	  0.047655310	-2.692100E+01	  0.047655310	1.090420E+02	  0.047655310	-8.099900E+01
140	  0.047855709	-5.044000E+00	  0.047855709	-2.871700E+01	  0.047855709	1.035550E+02	  0.047855709	-8.104400E+01
141	  0.048056111	-5.073000E+00	  0.048056111	-3.050800E+01	  0.048056111	9.840800E+01	  0.048056111	-8.084400E+01
142	  0.048256513	-5.102000E+00	  0.048256513	-3.228300E+01	  0.048256513	9.360500E+01	  0.048256513	-8.040100E+01
143	  0.048456915	-5.130000E+00	  0.048456915	-3.404600E+01	  0.048456915	8.912100E+01	  0.048456915	-7.975100E+01
144	  0.048657313	-5.158000E+00	  0.048657313	-3.581200E+01	  0.048657313	8.490400E+01	  0.048657313	-7.893700E+01
145	  0.048857715	-5.179000E+00	  0.048857715	-3.759100E+01	  0.048857715	8.090700E+01	  0.048857715	-7.805800E+01
146	  0.049058117	-5.203000E+00	  0.049058117	-3.935600E+01	  0.049058117	7.719300E+01	  0.049058117	-7.702400E+01
147	  0.049258515	-5.224000E+00	  0.049258515	-4.111000E+01	  0.049258515	7.372600E+01	  0.049258515	-7.592600E+01
148	  0.049458917	-5.246000E+00	  0.049458917	-4.282300E+01	  0.049458917	7.055000E+01	  0.049458917	-7.476700E+01
149	  0.049659319	-5.268000E+00	  0.049659319	-4.454700E+01	  0.049659319	6.755300E+01	  0.049659319	-7.352800E+01
150	  0.049859721	-5.287000E+00	  0.049859721	-4.623200E+01	  0.049859721	6.478900E+01	  0.049859721	-7.231000E+01
151	  0.050060119	-5.310000E+00	  0.050060119	-4.791200E+01	  0.050060119	6.221500E+01	  0.050060119	-7.101500E+01
152	  0.050260521	-5.324000E+00	  0.050260521	-4.960000E+01	  0.050260521	5.974800E+01	  0.050260521	-6.977100E+01
153	  0.050460923	-5.340000E+00	  0.050460923	-5.127600E+01	  0.050460923	5.744600E+01	  0.050460923	-6.850100E+01
154	  0.050661322	-5.354000E+00	  0.050661322	-5.292000E+01	  0.050661322	5.531700E+01	  0.050661322	-6.724500E+01
155	  0.050861724	-5.369000E+00	  0.050861724	-5.456400E+01	  0.050861724	5.330800E+01	  0.050861724	-6.597900E+01
156	  0.051062126	-5.384000E+00	  0.051062126	-5.618200E+01	  0.051062126	5.144700E+01	  0.051062126	-6.471900E+01
157	  0.051262524	-5.398000E+00	  0.051262524	-5.776100E+01	  0.051262524	4.972200E+01	  0.051262524	-6.350300E+01
158	  0.051462926	-5.414000E+00	  0.051462926	-5.933900E+01	  0.051462926	4.810200E+01	  0.051462926	-6.227200E+01
159	  0.051663328	-5.426000E+00	  0.051663328	-6.089900E+01	  0.051663328	4.657200E+01	  0.051663328	-6.108000E+01
160	  0.051863730	-5.440000E+00	  0.051863730	-6.244300E+01	  0.051863730	4.514200E+01	  0.051863730	-5.989700E+01
161	  0.052064128	-5.449000E+00	  0.052064128	-6.400700E+01	  0.052064128	4.374500E+01	  0.052064128	-5.873800E+01
162	  0.052264530	-5.460000E+00	  0.052264530	-6.555400E+01	  0.052264530	4.243900E+01	  0.052264530	-5.759100E+01
163	  0.052464932	-5.473000E+00	  0.052464932	-6.703500E+01	  0.052464932	4.126500E+01	  0.052464932	-5.648600E+01
164	  0.052665330	-5.484000E+00	  0.052665330	-6.856700E+01	  0.052665330	4.010100E+01	  0.052665330	-5.536400E+01
165	  0.052865732	-5.495000E+00	  0.052865732	-7.003900E+01	  0.052865732	3.903700E+01	  0.052865732	-5.429500E+01
166	  0.053066134	-5.509000E+00	  0.053066134	-7.154200E+01	  0.053066134	3.801400E+01	  0.053066134	-5.320400E+01
167	  0.053266536	-5.524000E+00	  0.053266536	-7.300300E+01	  0.053266536	3.707000E+01	  0.053266536	-5.215300E+01
168	  0.053466935	-5.539000E+00	  0.053466935	-7.447300E+01	  0.053466935	3.616600E+01	  0.053466935	-5.110500E+01
169	  0.053667337	-5.553000E+00	  0.053667337	-7.594800E+01	  0.053667337	3.529900E+01	  0.053667337	-5.007100E+01
170	  0.053867739	-5.564000E+00	  0.053867739	-7.742300E+01	  0.053867739	3.445200E+01	  0.053867739	-4.906700E+01
171	  0.054068137	-5.576000E+00	  0.054068137	-7.888600E+01	  0.054068137	3.366000E+01	  0.054068137	-4.807700E+01
172	  0.054268539	-5.589000E+00	  0.054268539	-8.034100E+01	  0.054268539	3.291300E+01	  0.054268539	-4.709800E+01
173	  0.054468941	-5.604000E+00	  0.054468941	-8.179700E+01	  0.054468941	3.220200E+01	  0.054468941	-4.612900E+01
174	  0.054669335	-5.620000E+00	  0.054669335	-8.324800E+01	  0.054669335	3.153000E+01	  0.054669335	-4.517300E+01
175	  0.054869737	-5.633000E+00	  0.054869737	-8.468900E+01	  0.054869737	3.088100E+01	  0.054869737	-4.424400E+01
176	  0.055070139	-5.648000E+00	  0.055070139	-8.615100E+01	  0.055070139	3.026000E+01	  0.055070139	-4.330800E+01
177	  0.055270538	-5.662000E+00	  0.055270538	-8.757200E+01	  0.055270538	2.967800E+01	  0.055270538	-4.241400E+01
178	  0.055470940	-5.673000E+00	  0.055470940	-8.901300E+01	  0.055470940	2.910100E+01	  0.055470940	-4.152800E+01
179	  0.055671342	-5.683000E+00	  0.055671342	-9.047600E+01	  0.055671342	2.853400E+01	  0.055671342	-4.064400E+01
180	  0.055871744	-5.693000E+00	  0.055871744	-9.192500E+01	  0.055871744	2.799900E+01	  0.055871744	-3.977800E+01
181	  0.056072142	-5.704000E+00	  0.056072142	-9.334300E+01	  0.056072142	2.749700E+01	  0.056072142	-3.894000E+01
182	  0.056272544	-5.713000E+00	  0.056272544	-9.475700E+01	  0.056272544	2.701200E+01	  0.056272544	-3.811900E+01
183	  0.056472946	-5.723000E+00	  0.056472946	-9.618600E+01	  0.056472946	2.654800E+01	  0.056472946	-3.729500E+01
184	  0.056673344	-5.729000E+00	  0.056673344	-9.759000E+01	  0.056673344	2.609300E+01	  0.056673344	-3.650500E+01
185	  0.056873746	-5.739000E+00	  0.056873746	-9.896800E+01	  0.056873746	2.567900E+01	  0.056873746	-3.573000E+01
186	  0.057074148	-5.746000E+00	  0.057074148	-1.003870E+02	  0.057074148	2.525900E+01	  0.057074148	-3.494800E+01
187	  0.057274550	-5.752000E+00	  0.057274550	-1.017560E+02	  0.057274550	2.486700E+01	  0.057274550	-3.420200E+01
188	  0.057474948	-5.753000E+00	  0.057474948	-1.031380E+02	  0.057474948	2.446800E+01	  0.057474948	-3.346800E+01
189	  0.057675350	-5.759000E+00	  0.057675350	-1.045230E+02	  0.057675350	2.409900E+01	  0.057675350	-3.273000E+01
190	  0.057875752	-5.763000E+00	  0.057875752	-1.058800E+02	  0.057875752	2.374700E+01	  0.057875752	-3.201800E+01
191	  0.058076151	-5.768000E+00	  0.058076151	-1.072180E+02	  0.058076151	2.341400E+01	  0.058076151	-3.132200E+01
192	  0.058276553	-5.771000E+00	  0.058276553	-1.085500E+02	  0.058276553	2.308900E+01	  0.058276553	-3.063800E+01
193	  0.058476955	-5.775000E+00	  0.058476955	-1.098560E+02	  0.058476955	2.278500E+01	  0.058476955	-2.997300E+01
194	  0.058677353	-5.777000E+00	  0.058677353	-1.111640E+02	  0.058677353	2.248400E+01	  0.058677353	-2.931500E+01
195	  0.058877755	-5.780000E+00	  0.058877755	-1.124720E+02	  0.058877755	2.219900E+01	  0.058877755	-2.866200E+01
196	  0.059078157	-5.780000E+00	  0.059078157	-1.137560E+02	  0.059078157	2.192100E+01	  0.059078157	-2.803000E+01
197	  0.059278559	-5.779000E+00	  0.059278559	-1.150300E+02	  0.059278559	2.164800E+01	  0.059278559	-2.741100E+01
198	  0.059478957	-5.782000E+00	  0.059478957	-1.162950E+02	  0.059478957	2.139800E+01	  0.059478957	-2.679500E+01
199	  0.059679359	-5.788000E+00	  0.059679359	-1.175700E+02	  0.059679359	2.116700E+01	  0.059679359	-2.617600E+01
200	  0.059879761	-5.790000E+00	  0.059879761	-1.187900E+02	  0.059879761	2.094300E+01	  0.059879761	-2.559200E+01
201	  0.060080159	-5.793000E+00	  0.060080159	-1.200240E+02	  0.060080159	2.072500E+01	  0.060080159	-2.500600E+01
202	  0.060280561	-5.798000E+00	  0.060280561	-1.212450E+02	  0.060280561	2.052100E+01	  0.060280561	-2.442800E+01
203	  0.060480963	-5.802000E+00	  0.060480963	-1.224400E+02	  0.060480963	2.033000E+01	  0.060480963	-2.386700E+01
204	  0.060681365	-5.807000E+00	  0.060681365	-1.236590E+02	  0.060681365	2.014200E+01	  0.060681365	-2.329800E+01
205	  0.060881764	-5.808000E+00	  0.060881764	-1.248340E+02	  0.060881764	1.995600E+01	  0.060881764	-2.275800E+01
206	  0.061082166	-5.818000E+00	  0.061082166	-1.260570E+02	  0.061082166	1.979300E+01	  0.061082166	-2.219100E+01
207	  0.061282568	-5.819000E+00	  0.061282568	-1.272530E+02	  0.061282568	1.961700E+01	  0.061282568	-2.164900E+01
208	  0.061482966	-5.826000E+00	  0.061482966	-1.284380E+02	  0.061482966	1.946500E+01	  0.061482966	-2.111000E+01
209	  0.061683368	-5.828000E+00	  0.061683368	-1.296080E+02	  0.061683368	1.930500E+01	  0.061683368	-2.058500E+01
210	  0.061883770	-5.836000E+00	  0.061883770	-1.307850E+02	  0.061883770	1.916800E+01	  0.061883770	-2.005600E+01
211	  0.062084168	-5.840000E+00	  0.062084168	-1.319610E+02	  0.062084168	1.902500E+01	  0.062084168	-1.953300E+01
212	  0.062284570	-5.846000E+00	  0.062284570	-1.331250E+02	  0.062284570	1.889300E+01	  0.062284570	-1.901800E+01
213	  0.062484972	-5.843000E+00	  0.062484972	-1.342410E+02	  0.062484972	1.874700E+01	  0.062484972	-1.853400E+01
214	  0.062685370	-5.853000E+00	  0.062685370	-1.354460E+02	  0.062685370	1.863100E+01	  0.062685370	-1.800400E+01
215	  0.062885776	-5.852000E+00	  0.062885776	-1.366120E+02	  0.062885776	1.849600E+01	  0.062885776	-1.750100E+01
216	  0.063086174	-5.861000E+00	  0.063086174	-1.377580E+02	  0.063086174	1.839500E+01	  0.063086174	-1.700300E+01
217	  0.063286573	-5.863000E+00	  0.063286573	-1.389120E+02	  0.063286573	1.827500E+01	  0.063286573	-1.651000E+01
218	  0.063486971	-5.866000E+00	  0.063486971	-1.400580E+02	  0.063486971	1.816600E+01	  0.063486971	-1.602000E+01
219	  0.063687377	-5.866000E+00	  0.063687377	-1.411750E+02	  0.063687377	1.805300E+01	  0.063687377	-1.554900E+01
220	  0.063887775	-5.868000E+00	  0.063887775	-1.423060E+02	  0.063887775	1.795100E+01	  0.063887775	-1.507200E+01
221	  0.064088173	-5.869000E+00	  0.064088173	-1.434730E+02	  0.064088173	1.784600E+01	  0.064088173	-1.458200E+01
222	  0.064288579	-5.873000E+00	  0.064288579	-1.446120E+02	  0.064288579	1.775600E+01	  0.064288579	-1.410500E+01
223	  0.064488977	-5.877000E+00	  0.064488977	-1.457620E+02	  0.064488977	1.766800E+01	  0.064488977	-1.362500E+01
224	  0.064689375	-5.879000E+00	  0.064689375	-1.468570E+02	  0.064689375	1.758400E+01	  0.064689375	-1.317200E+01
225	  0.064889781	-5.885000E+00	  0.064889781	-1.480150E+02	  0.064889781	1.750700E+01	  0.064889781	-1.269200E+01
226	  0.065090179	-5.883000E+00	  0.065090179	-1.491040E+02	  0.065090179	1.742000E+01	  0.065090179	-1.224600E+01
227	  0.065290578	-5.886000E+00	  0.065290578	-1.502130E+02	  0.065290578	1.734700E+01	  0.065290578	-1.179100E+01
228	  0.065490983	-5.888000E+00	  0.065490983	-1.513120E+02	  0.065490983	1.727400E+01	  0.065490983	-1.134300E+01
229	  0.065691382	-5.889000E+00	  0.065691382	-1.524120E+02	  0.065691382	1.720300E+01	  0.065691382	-1.089500E+01
230	  0.065891780	-5.890000E+00	  0.065891780	-1.535340E+02	  0.065891780	1.713400E+01	  0.065891780	-1.044100E+01
231	  0.066092186	-5.892000E+00	  0.066092186	-1.546180E+02	  0.066092186	1.707400E+01	  0.066092186	-1.000300E+01
232	  0.066292584	-5.897000E+00	  0.066292584	-1.556790E+02	  0.066292584	1.702600E+01	  0.066292584	-9.574000E+00
233	  0.066492982	-5.898000E+00	  0.066492982	-1.567650E+02	  0.066492982	1.696800E+01	  0.066492982	-9.138000E+00
234	  0.066693388	-5.901000E+00	  0.066693388	-1.578510E+02	  0.066693388	1.691700E+01	  0.066693388	-8.702000E+00
235	  0.066893786	-5.900000E+00	  0.066893786	-1.589020E+02	  0.066893786	1.686300E+01	  0.066893786	-8.283000E+00
236	  0.067094192	-5.905000E+00	  0.067094192	-1.599760E+02	  0.067094192	1.682600E+01	  0.067094192	-7.854000E+00
237	  0.067294590	-5.908000E+00	  0.067294590	-1.610270E+02	  0.067294590	1.678500E+01	  0.067294590	-7.435000E+00
238	  0.067494988	-5.914000E+00	  0.067494988	-1.620600E+02	  0.067494988	1.675900E+01	  0.067494988	-7.024000E+00
239	  0.067695394	-5.916000E+00	  0.067695394	-1.631480E+02	  0.067695394	1.671900E+01	  0.067695394	-6.593000E+00
240	  0.067895792	-5.916000E+00	  0.067895792	-1.641670E+02	  0.067895792	1.668100E+01	  0.067895792	-6.191000E+00
241	  0.068096191	-5.923000E+00	  0.068096191	-1.652210E+02	  0.068096191	1.666400E+01	  0.068096191	-5.774000E+00
242	  0.068296596	-5.929000E+00	  0.068296596	-1.662540E+02	  0.068296596	1.664500E+01	  0.068296596	-5.367000E+00
243	  0.068496995	-5.929000E+00	  0.068496995	-1.673070E+02	  0.068496995	1.661500E+01	  0.068496995	-4.953000E+00
244	  0.068697393	-5.935000E+00	  0.068697393	-1.683410E+02	  0.068697393	1.660200E+01	  0.068697393	-4.547000E+00
245	  0.068897791	-5.938000E+00	  0.068897791	-1.693570E+02	  0.068897791	1.658200E+01	  0.068897791	-4.148000E+00
246	  0.069098189	-5.938000E+00	  0.069098189	-1.704000E+02	  0.069098189	1.655800E+01	  0.069098189	-3.740000E+00
247	  0.069298595	-5.940000E+00	  0.069298595	-1.714120E+02	  0.069298595	1.654200E+01	  0.069298595	-3.345000E+00
248	  0.069498993	-5.949000E+00	  0.069498993	-1.724320E+02	  0.069498993	1.654800E+01	  0.069498993	-2.945000E+00
249	  0.069699399	-5.949000E+00	  0.069699399	-1.734930E+02	  0.069699399	1.653200E+01	  0.069699399	-2.532000E+00
250	  0.069899797	-5.955000E+00	  0.069899797	-1.744760E+02	  0.069899797	1.653200E+01	  0.069899797	-2.148000E+00
251	  0.070100196	-5.960000E+00	  0.070100196	-1.754770E+02	  0.070100196	1.653600E+01	  0.070100196	-1.758000E+00
252	  0.070300601	-5.961000E+00	  0.070300601	-1.764800E+02	  0.070300601	1.652900E+01	  0.070300601	-1.368000E+00
253	  0.070501000	-5.963000E+00	  0.070501000	-1.774870E+02	  0.070501000	1.652600E+01	  0.070501000	-9.760000E-01
254	  0.070701398	-5.967000E+00	  0.070701398	-1.784600E+02	  0.070701398	1.653400E+01	  0.070701398	-5.980000E-01
255	  0.070901804	-5.970000E+00	  0.070901804	-1.794590E+02	  0.070901804	1.653800E+01	  0.070901804	-2.100000E-01
256	  0.071102202	-5.976000E+00	  0.071102202	1.795690E+02	  0.071102202	1.655300E+01	  0.071102202	1.670000E-01
257	  0.071302600	-5.979000E+00	  0.071302600	1.785670E+02	  0.071302600	1.656400E+01	  0.071302600	5.560000E-01
258	  0.071503006	-5.982000E+00	  0.071503006	1.775550E+02	  0.071503006	1.657500E+01	  0.071503006	9.490000E-01
259	  0.071703404	-5.994000E+00	  0.071703404	1.766070E+02	  0.071703404	1.661300E+01	  0.071703404	1.317000E+00
260	  0.071903802	-5.997000E+00	  0.071903802	1.756310E+02	  0.071903802	1.662800E+01	  0.071903802	1.696000E+00
261	  0.072104208	-6.001000E+00	  0.072104208	1.746500E+02	  0.072104208	1.664900E+01	  0.072104208	2.077000E+00
262	  0.072304606	-6.007000E+00	  0.072304606	1.736790E+02	  0.072304606	1.667800E+01	  0.072304606	2.454000E+00
263	  0.072505005	-6.014000E+00	  0.072505005	1.727380E+02	  0.072505005	1.670900E+01	  0.072505005	2.819000E+00
264	  0.072705410	-6.022000E+00	  0.072705410	1.717700E+02	  0.072705410	1.674800E+01	  0.072705410	3.195000E+00
265	  0.072905809	-6.025000E+00	  0.072905809	1.708080E+02	  0.072905809	1.677400E+01	  0.072905809	3.569000E+00
266	  0.073106214	-6.035000E+00	  0.073106214	1.698530E+02	  0.073106214	1.682200E+01	  0.073106214	3.939000E+00
267	  0.073306613	-6.043000E+00	  0.073306613	1.688920E+02	  0.073306613	1.686600E+01	  0.073306613	4.313000E+00
268	  0.073507011	-6.052000E+00	  0.073507011	1.679480E+02	  0.073507011	1.691300E+01	  0.073507011	4.680000E+00
269	  0.073707417	-6.061000E+00	  0.073707417	1.670180E+02	  0.073707417	1.696400E+01	  0.073707417	5.041000E+00
270	  0.073907815	-6.069000E+00	  0.073907815	1.660780E+02	  0.073907815	1.701200E+01	  0.073907815	5.406000E+00
271	  0.074108213	-6.078000E+00	  0.074108213	1.651220E+02	  0.074108213	1.706700E+01	  0.074108213	5.778000E+00
272	  0.074308619	-6.084000E+00	  0.074308619	1.641950E+02	  0.074308619	1.711600E+01	  0.074308619	6.140000E+00
273	  0.074509017	-6.088000E+00	  0.074509017	1.632310E+02	  0.074509017	1.716300E+01	  0.074509017	6.517000E+00
274	  0.074709415	-6.101000E+00	  0.074709415	1.622890E+02	  0.074709415	1.723400E+01	  0.074709415	6.883000E+00
275	  0.074909821	-6.107000E+00	  0.074909821	1.613800E+02	  0.074909821	1.729000E+01	  0.074909821	7.238000E+00
276	  0.075110219	-6.118000E+00	  0.075110219	1.604200E+02	  0.075110219	1.736200E+01	  0.075110219	7.613000E+00
277	  0.075310618	-6.124000E+00	  0.075310618	1.594810E+02	  0.075310618	1.742200E+01	  0.075310618	7.982000E+00
278	  0.075511023	-6.130000E+00	  0.075511023	1.585780E+02	  0.075511023	1.748200E+01	  0.075511023	8.336000E+00
279	  0.075711422	-6.138000E+00	  0.075711422	1.576900E+02	  0.075711422	1.754900E+01	  0.075711422	8.684000E+00
280	  0.075911827	-6.144000E+00	  0.075911827	1.567730E+02	  0.075911827	1.761300E+01	  0.075911827	9.045000E+00
281	  0.076112226	-6.152000E+00	  0.076112226	1.558630E+02	  0.076112226	1.768700E+01	  0.076112226	9.404000E+00
282	  0.076312624	-6.163000E+00	  0.076312624	1.549250E+02	  0.076312624	1.777100E+01	  0.076312624	9.772000E+00
283	  0.076513030	-6.172000E+00	  0.076513030	1.540390E+02	  0.076513030	1.785000E+01	  0.076513030	1.012100E+01
284	  0.076713428	-6.179000E+00	  0.076713428	1.531140E+02	  0.076713428	1.792700E+01	  0.076713428	1.048800E+01
285	  0.076913826	-6.186000E+00	  0.076913826	1.522230E+02	  0.076913826	1.800500E+01	  0.076913826	1.084100E+01
286	  0.077114232	-6.196000E+00	  0.077114232	1.513480E+02	  0.077114232	1.809200E+01	  0.077114232	1.118700E+01
287	  0.077314630	-6.200000E+00	  0.077314630	1.504680E+02	  0.077314630	1.816600E+01	  0.077314630	1.153800E+01
288	  0.077515028	-6.210000E+00	  0.077515028	1.496050E+02	  0.077515028	1.825700E+01	  0.077515028	1.188100E+01
289	  0.077715434	-6.218000E+00	  0.077715434	1.487210E+02	  0.077715434	1.834700E+01	  0.077715434	1.223300E+01
290	  0.077915832	-6.225000E+00	  0.077915832	1.478690E+02	  0.077915832	1.843300E+01	  0.077915832	1.257400E+01
291	  0.078116231	-6.236000E+00	  0.078116231	1.469920E+02	  0.078116231	1.853400E+01	  0.078116231	1.292300E+01
292	  0.078316636	-6.245000E+00	  0.078316636	1.461430E+02	  0.078316636	1.863000E+01	  0.078316636	1.326300E+01
293	  0.078517035	-6.257000E+00	  0.078517035	1.452570E+02	  0.078517035	1.874100E+01	  0.078517035	1.361600E+01
294	  0.078717433	-6.267000E+00	  0.078717433	1.444090E+02	  0.078717433	1.884500E+01	  0.078717433	1.395500E+01
295	  0.078917839	-6.279000E+00	  0.078917839	1.435790E+02	  0.078917839	1.895500E+01	  0.078917839	1.428700E+01
296	  0.079118237	-6.290000E+00	  0.079118237	1.427290E+02	  0.079118237	1.906500E+01	  0.079118237	1.463000E+01
297	  0.079318643	-6.303000E+00	  0.079318643	1.418990E+02	  0.079318643	1.918200E+01	  0.079318643	1.496200E+01
298	  0.079519041	-6.314000E+00	  0.079519041	1.410510E+02	  0.079519041	1.929900E+01	  0.079519041	1.530300E+01
299	  0.079719439	-6.329000E+00	  0.079719439	1.402170E+02	  0.079719439	1.942700E+01	  0.079719439	1.563700E+01
300	  0.079919845	-6.345000E+00	  0.079919845	1.393800E+02	  0.079919845	1.955900E+01	  0.079919845	1.597200E+01
301	  0.080120243	-6.360000E+00	  0.080120243	1.385330E+02	  0.080120243	1.969600E+01	  0.080120243	1.631200E+01
302	  0.080320641	-6.374000E+00	  0.080320641	1.376910E+02	  0.080320641	1.982900E+01	  0.080320641	1.665200E+01
303	  0.080521047	-6.393000E+00	  0.080521047	1.368550E+02	  0.080521047	1.997800E+01	  0.080521047	1.698500E+01
304	  0.080721445	-6.408000E+00	  0.080721445	1.360190E+02	  0.080721445	2.012000E+01	  0.080721445	1.732200E+01
305	  0.080921844	-6.426000E+00	  0.080921844	1.351850E+02	  0.080921844	2.027200E+01	  0.080921844	1.765700E+01
306	  0.081122249	-6.443000E+00	  0.081122249	1.343460E+02	  0.081122249	2.042600E+01	  0.081122249	1.799500E+01
307	  0.081322648	-6.458000E+00	  0.081322648	1.335430E+02	  0.081322648	2.057100E+01	  0.081322648	1.832000E+01
308	  0.081523046	-6.478000E+00	  0.081523046	1.326880E+02	  0.081523046	2.074100E+01	  0.081523046	1.866200E+01
309	  0.081723452	-6.496000E+00	  0.081723452	1.318400E+02	  0.081723452	2.090700E+01	  0.081723452	1.900500E+01
310	  0.081923850	-6.509000E+00	  0.081923850	1.309990E+02	  0.081923850	2.106300E+01	  0.081923850	1.934900E+01
311	  0.082124248	-6.528000E+00	  0.082124248	1.301790E+02	  0.082124248	2.123500E+01	  0.082124248	1.967800E+01
312	  0.082324654	-6.544000E+00	  0.082324654	1.293590E+02	  0.082324654	2.140100E+01	  0.082324654	2.001200E+01
313	  0.082525052	-6.562000E+00	  0.082525052	1.285230E+02	  0.082525052	2.157700E+01	  0.082525052	2.035100E+01
314	  0.082725458	-6.583000E+00	  0.082725458	1.277070E+02	  0.082725458	2.176200E+01	  0.082725458	2.067900E+01
315	  0.082925856	-6.597000E+00	  0.082925856	1.268920E+02	  0.082925856	2.193300E+01	  0.082925856	2.101400E+01
316	  0.083126254	-6.620000E+00	  0.083126254	1.260620E+02	  0.083126254	2.213300E+01	  0.083126254	2.134600E+01
317	  0.083326660	-6.637000E+00	  0.083326660	1.252050E+02	  0.083326660	2.232300E+01	  0.083326660	2.169700E+01
318	  0.083527058	-6.652000E+00	  0.083527058	1.244150E+02	  0.083527058	2.250100E+01	  0.083527058	2.202100E+01
319	  0.083727457	-6.671000E+00	  0.083727457	1.236080E+02	  0.083727457	2.269800E+01	  0.083727457	2.234800E+01
320	  0.083927862	-6.692000E+00	  0.083927862	1.227950E+02	  0.083927862	2.290300E+01	  0.083927862	2.267600E+01
321	  0.084128261	-6.712000E+00	  0.084128261	1.220020E+02	  0.084128261	2.310700E+01	  0.084128261	2.299700E+01
322	  0.084328659	-6.729000E+00	  0.084328659	1.212030E+02	  0.084328659	2.330400E+01	  0.084328659	2.332400E+01
323	  0.084529065	-6.754000E+00	  0.084529065	1.204290E+02	  0.084529065	2.352500E+01	  0.084529065	2.363100E+01
324	  0.084729463	-6.773000E+00	  0.084729463	1.196460E+02	  0.084729463	2.373400E+01	  0.084729463	2.394900E+01
325	  0.084929854	-6.788000E+00	  0.084929854	1.188400E+02	  0.084929854	2.394000E+01	  0.084929854	2.428200E+01
326	  0.085130259	-6.808000E+00	  0.085130259	1.180190E+02	  0.085130259	2.416700E+01	  0.085130259	2.461600E+01
327	  0.085330658	-6.834000E+00	  0.085330658	1.172720E+02	  0.085330658	2.439900E+01	  0.085330658	2.490900E+01
328	  0.085531056	-6.850000E+00	  0.085531056	1.164710E+02	  0.085531056	2.461500E+01	  0.085531056	2.524100E+01
329	  0.085731462	-6.876000E+00	  0.085731462	1.157050E+02	  0.085731462	2.486000E+01	  0.085731462	2.554200E+01
330	  0.085931860	-6.899000E+00	  0.085931860	1.149400E+02	  0.085931860	2.510000E+01	  0.085931860	2.584600E+01
331	  0.086132258	-6.920000E+00	  0.086132258	1.141910E+02	  0.086132258	2.533300E+01	  0.086132258	2.614600E+01
332	  0.086332664	-6.946000E+00	  0.086332664	1.134470E+02	  0.086332664	2.558100E+01	  0.086332664	2.643700E+01
333	  0.086533062	-6.967000E+00	  0.086533062	1.127070E+02	  0.086533062	2.582100E+01	  0.086533062	2.673200E+01
334	  0.086733460	-6.991000E+00	  0.086733460	1.119300E+02	  0.086733460	2.608000E+01	  0.086733460	2.703900E+01
335	  0.086933866	-7.015000E+00	  0.086933866	1.111810E+02	  0.086933866	2.633700E+01	  0.086933866	2.733300E+01
336	  0.087134264	-7.035000E+00	  0.087134264	1.104460E+02	  0.087134264	2.658200E+01	  0.087134264	2.762800E+01
337	  0.087334670	-7.064000E+00	  0.087334670	1.096870E+02	  0.087334670	2.686400E+01	  0.087334670	2.791700E+01
338	  0.087535068	-7.088000E+00	  0.087535068	1.089730E+02	  0.087535068	2.712200E+01	  0.087535068	2.819500E+01
339	  0.087735467	-7.114000E+00	  0.087735467	1.082420E+02	  0.087735467	2.739800E+01	  0.087735467	2.847400E+01
340	  0.087935872	-7.136000E+00	  0.087935872	1.075340E+02	  0.087935872	2.765600E+01	  0.087935872	2.875100E+01
341	  0.088136271	-7.165000E+00	  0.088136271	1.067900E+02	  0.088136271	2.795100E+01	  0.088136271	2.903000E+01
342	  0.088336669	-7.189000E+00	  0.088336669	1.060730E+02	  0.088336669	2.822600E+01	  0.088336669	2.930600E+01
343	  0.088537075	-7.216000E+00	  0.088537075	1.053870E+02	  0.088537075	2.850600E+01	  0.088537075	2.956000E+01
344	  0.088737473	-7.238000E+00	  0.088737473	1.046570E+02	  0.088737473	2.878600E+01	  0.088737473	2.984400E+01
345	  0.088937871	-7.262000E+00	  0.088937871	1.039430E+02	  0.088937871	2.907600E+01	  0.088937871	3.011400E+01
346	  0.089138277	-7.285000E+00	  0.089138277	1.032360E+02	  0.089138277	2.935900E+01	  0.089138277	3.038500E+01
347	  0.089338675	-7.312000E+00	  0.089338675	1.025400E+02	  0.089338675	2.965800E+01	  0.089338675	3.064000E+01
348	  0.089539073	-7.334000E+00	  0.089539073	1.018720E+02	  0.089539073	2.993700E+01	  0.089539073	3.089100E+01
349	  0.089739479	-7.369000E+00	  0.089739479	1.012210E+02	  0.089739479	3.025100E+01	  0.089739479	3.110700E+01
350	  0.089939877	-7.386000E+00	  0.089939877	1.005030E+02	  0.089939877	3.054100E+01	  0.089939877	3.138800E+01
351	  0.090140276	-7.413000E+00	  0.090140276	9.984700E+01	  0.090140276	3.084300E+01	  0.090140276	3.162000E+01
352	  0.090340681	-7.439000E+00	  0.090340681	9.919700E+01	  0.090340681	3.114000E+01	  0.090340681	3.185100E+01
353	  0.090541080	-7.462000E+00	  0.090541080	9.849100E+01	  0.090541080	3.145400E+01	  0.090541080	3.211100E+01
354	  0.090741485	-7.489000E+00	  0.090741485	9.785600E+01	  0.090741485	3.176100E+01	  0.090741485	3.232800E+01
355	  0.090941884	-7.512000E+00	  0.090941884	9.718700E+01	  0.090941884	3.206800E+01	  0.090941884	3.257100E+01
356	  0.091142282	-7.542000E+00	  0.091142282	9.657000E+01	  0.091142282	3.238100E+01	  0.091142282	3.277100E+01
357	  0.091342688	-7.571000E+00	  0.091342688	9.588700E+01	  0.091342688	3.272100E+01	  0.091342688	3.300000E+01
358	  0.091543086	-7.603000E+00	  0.091543086	9.526000E+01	  0.091543086	3.305200E+01	  0.091543086	3.319500E+01
359	  0.091743484	-7.624000E+00	  0.091743484	9.458300E+01	  0.091743484	3.337600E+01	  0.091743484	3.343600E+01
360	  0.091943890	-7.656000E+00	  0.091943890	9.395800E+01	  0.091943890	3.371300E+01	  0.091943890	3.362600E+01
361	  0.092144288	-7.679000E+00	  0.092144288	9.329800E+01	  0.092144288	3.404000E+01	  0.092144288	3.385400E+01
362	  0.092344686	-7.711000E+00	  0.092344686	9.265400E+01	  0.092344686	3.439500E+01	  0.092344686	3.404500E+01
363	  0.092545092	-7.736000E+00	  0.092545092	9.200500E+01	  0.092545092	3.473300E+01	  0.092545092	3.425800E+01
364	  0.092745490	-7.766000E+00	  0.092745490	9.138400E+01	  0.092745490	3.507800E+01	  0.092745490	3.444200E+01
365	  0.092945889	-7.800000E+00	  0.092945889	9.074600E+01	  0.092945889	3.544500E+01	  0.092945889	3.461900E+01
366	  0.093146294	-7.828000E+00	  0.093146294	9.012400E+01	  0.093146294	3.579200E+01	  0.093146294	3.480400E+01
367	  0.093346693	-7.857000E+00	  0.093346693	8.948300E+01	  0.093346693	3.615400E+01	  0.093346693	3.499100E+01
368	  0.093547091	-7.884000E+00	  0.093547091	8.888000E+01	  0.093547091	3.649500E+01	  0.093547091	3.516700E+01
369	  0.093747497	-7.922000E+00	  0.093747497	8.825600E+01	  0.093747497	3.688300E+01	  0.093747497	3.531400E+01
370	  0.093947895	-7.944000E+00	  0.093947895	8.761000E+01	  0.093947895	3.723900E+01	  0.093947895	3.551600E+01
371	  0.094148301	-7.983000E+00	  0.094148301	8.700900E+01	  0.094148301	3.762500E+01	  0.094148301	3.564400E+01
372	  0.094348699	-8.010000E+00	  0.094348699	8.639700E+01	  0.094348699	3.798600E+01	  0.094348699	3.581100E+01
373	  0.094549097	-8.042000E+00	  0.094549097	8.582800E+01	  0.094549097	3.834600E+01	  0.094549097	3.594000E+01
374	  0.094749503	-8.073000E+00	  0.094749503	8.520600E+01	  0.094749503	3.872900E+01	  0.094749503	3.609200E+01
375	  0.094949901	-8.108000E+00	  0.094949901	8.460600E+01	  0.094949901	3.911400E+01	  0.094949901	3.622100E+01
376	  0.095150299	-8.138000E+00	  0.095150299	8.405300E+01	  0.095150299	3.946900E+01	  0.095150299	3.634100E+01
377	  0.095350705	-8.169000E+00	  0.095350705	8.341000E+01	  0.095350705	3.987200E+01	  0.095350705	3.649200E+01
378	  0.095551103	-8.200000E+00	  0.095551103	8.283000E+01	  0.095551103	4.025100E+01	  0.095551103	3.661000E+01
379	  0.095751502	-8.233000E+00	  0.095751502	8.224800E+01	  0.095751502	4.063400E+01	  0.095751502	3.672500E+01
380	  0.095951907	-8.260000E+00	  0.095951907	8.168100E+01	  0.095951907	4.099900E+01	  0.095951907	3.684700E+01
381	  0.096152306	-8.291000E+00	  0.096152306	8.110200E+01	  0.096152306	4.138300E+01	  0.096152306	3.695800E+01
382	  0.096352704	-8.325000E+00	  0.096352704	8.058100E+01	  0.096352704	4.174700E+01	  0.096352704	3.703200E+01
383	  0.096553110	-8.357000E+00	  0.096553110	8.001600E+01	  0.096553110	4.213300E+01	  0.096553110	3.712500E+01
384	  0.096753508	-8.384000E+00	  0.096753508	7.946800E+01	  0.096753508	4.249800E+01	  0.096753508	3.722900E+01
385	  0.096953906	-8.416000E+00	  0.096953906	7.896700E+01	  0.096953906	4.285300E+01	  0.096953906	3.729100E+01
386	  0.097154312	-8.445000E+00	  0.097154312	7.841300E+01	  0.097154312	4.323200E+01	  0.097154312	3.738100E+01
387	  0.097354710	-8.474000E+00	  0.097354710	7.786900E+01	  0.097354710	4.360800E+01	  0.097354710	3.746400E+01
388	  0.097555116	-8.508000E+00	  0.097555116	7.734100E+01	  0.097555116	4.398800E+01	  0.097555116	3.751900E+01
389	  0.097755514	-8.539000E+00	  0.097755514	7.684400E+01	  0.097755514	4.434600E+01	  0.097755514	3.756900E+01
390	  0.097955912	-8.572000E+00	  0.097955912	7.633500E+01	  0.097955912	4.471700E+01	  0.097955912	3.761400E+01
391	  0.098156318	-8.602000E+00	  0.098156318	7.584600E+01	  0.098156318	4.507000E+01	  0.098156318	3.766100E+01
392	  0.098356716	-8.631000E+00	  0.098356716	7.535800E+01	  0.098356716	4.542200E+01	  0.098356716	3.770700E+01
393	  0.098557115	-8.663000E+00	  0.098557115	7.485700E+01	  0.098557115	4.579200E+01	  0.098557115	3.773900E+01
394	  0.098757520	-8.691000E+00	  0.098757520	7.434600E+01	  0.098757520	4.616000E+01	  0.098757520	3.779000E+01
395	  0.098957919	-8.721000E+00	  0.098957919	7.384500E+01	  0.098957919	4.652900E+01	  0.098957919	3.782300E+01
396	  0.099158317	-8.754000E+00	  0.099158317	7.334200E+01	  0.099158317	4.690600E+01	  0.099158317	3.784300E+01
397	  0.099358723	-8.780000E+00	  0.099358723	7.289400E+01	  0.099358723	4.723500E+01	  0.099358723	3.787200E+01
398	  0.099559121	-8.813000E+00	  0.099559121	7.240900E+01	  0.099559121	4.760400E+01	  0.099559121	3.787700E+01
399	  0.099759519	-8.842000E+00	  0.099759519	7.192500E+01	  0.099759519	4.796400E+01	  0.099759519	3.789800E+01
400	  0.099959925	-8.856000E+00	  0.099959925	7.145900E+01	  0.099959925	4.828700E+01	  0.099959925	3.797000E+01
401	  0.100160323	-8.887000E+00	  0.100160323	7.098900E+01	  0.100160323	4.864600E+01	  0.100160323	3.797000E+01
402	  0.100360721	-8.912000E+00	  0.100360721	7.051200E+01	  0.100360721	4.899900E+01	  0.100360721	3.799400E+01
403	  0.100561127	-8.940000E+00	  0.100561127	7.006100E+01	  0.100561127	4.934300E+01	  0.100561127	3.799100E+01
404	  0.100761525	-8.962000E+00	  0.100761525	6.958900E+01	  0.100761525	4.969100E+01	  0.100761525	3.802000E+01
405	  0.100961931	-8.984000E+00	  0.100961931	6.908900E+01	  0.100961931	5.005900E+01	  0.100961931	3.805100E+01
406	  0.101162329	-8.998000E+00	  0.101162329	6.871200E+01	  0.101162329	5.033400E+01	  0.101162329	3.808100E+01
407	  0.101362728	-9.028000E+00	  0.101362728	6.830100E+01	  0.101362728	5.065700E+01	  0.101362728	3.805100E+01
408	  0.101563133	-9.028000E+00	  0.101563133	6.784100E+01	  0.101563133	5.096800E+01	  0.101563133	3.816100E+01
409	  0.101763532	-9.063000E+00	  0.101763532	6.744500E+01	  0.101763532	5.129300E+01	  0.101763532	3.809400E+01
410	  0.101963930	-9.076000E+00	  0.101963930	6.702600E+01	  0.101963930	5.159800E+01	  0.101963930	3.813500E+01
411	  0.102164328	-9.101000E+00	  0.102164328	6.657600E+01	  0.102164328	5.194500E+01	  0.102164328	3.812000E+01
412	  0.102364726	-9.107000E+00	  0.102364726	6.619400E+01	  0.102364726	5.221800E+01	  0.102364726	3.817600E+01
413	  0.102565125	-9.116000E+00	  0.102565125	6.577700E+01	  0.102565125	5.252300E+01	  0.102565125	3.822100E+01
414	  0.102765530	-9.122000E+00	  0.102765530	6.537100E+01	  0.102765530	5.281600E+01	  0.102765530	3.827900E+01
415	  0.102965929	-9.137000E+00	  0.102965929	6.498800E+01	  0.102965929	5.310700E+01	  0.102965929	3.828400E+01
416	  0.103166327	-9.145000E+00	  0.103166327	6.465600E+01	  0.103166327	5.335300E+01	  0.103166327	3.831500E+01
417	  0.103366733	-9.153000E+00	  0.103366733	6.424900E+01	  0.103366733	5.365600E+01	  0.103366733	3.835400E+01
418	  0.103567131	-9.162000E+00	  0.103567131	6.384700E+01	  0.103567131	5.395600E+01	  0.103567131	3.838900E+01
419	  0.103767529	-9.170000E+00	  0.103767529	6.352800E+01	  0.103767529	5.419700E+01	  0.103767529	3.840800E+01
420	  0.103967935	-9.184000E+00	  0.103967935	6.317600E+01	  0.103967935	5.447000E+01	  0.103967935	3.840500E+01
421	  0.104168333	-9.178000E+00	  0.104168333	6.280000E+01	  0.104168333	5.474000E+01	  0.104168333	3.849500E+01
422	  0.104368731	-9.185000E+00	  0.104368731	6.240800E+01	  0.104368731	5.503600E+01	  0.104368731	3.852900E+01
423	  0.104569137	-9.180000E+00	  0.104569137	6.208200E+01	  0.104569137	5.527200E+01	  0.104569137	3.860800E+01
424	  0.104769535	-9.201000E+00	  0.104769535	6.173400E+01	  0.104769535	5.555400E+01	  0.104769535	3.856200E+01
425	  0.104969934	-9.199000E+00	  0.104969934	6.134500E+01	  0.104969934	5.584400E+01	  0.104969934	3.863000E+01
426	  0.105170339	-9.201000E+00	  0.105170339	6.092800E+01	  0.105170339	5.616100E+01	  0.105170339	3.868500E+01
427	  0.105370738	-9.207000E+00	  0.105370738	6.057200E+01	  0.105370738	5.643800E+01	  0.105370738	3.870500E+01
428	  0.105571143	-9.208000E+00	  0.105571143	6.016700E+01	  0.105571143	5.674900E+01	  0.105571143	3.875400E+01
429	  0.105771542	-9.220000E+00	  0.105771542	5.979900E+01	  0.105771542	5.704300E+01	  0.105771542	3.874200E+01
430	  0.105971940	-9.222000E+00	  0.105971940	5.937500E+01	  0.105971940	5.737300E+01	  0.105971940	3.878700E+01
431	  0.106172346	-9.222000E+00	  0.106172346	5.899500E+01	  0.106172346	5.766800E+01	  0.106172346	3.883600E+01
432	  0.106372744	-9.228000E+00	  0.106372744	5.848400E+01	  0.106372744	5.807400E+01	  0.106372744	3.886400E+01
433	  0.106573142	-9.226000E+00	  0.106573142	5.807300E+01	  0.106573142	5.839700E+01	  0.106573142	3.891700E+01
434	  0.106773548	-9.228000E+00	  0.106773548	5.759000E+01	  0.106773548	5.878300E+01	  0.106773548	3.895700E+01
435	  0.106973946	-9.230000E+00	  0.106973946	5.709800E+01	  0.106973946	5.918000E+01	  0.106973946	3.899300E+01
436	  0.107174344	-9.236000E+00	  0.107174344	5.664400E+01	  0.107174344	5.955000E+01	  0.107174344	3.900000E+01
437	  0.107374750	-9.237000E+00	  0.107374750	5.612500E+01	  0.107374750	5.997300E+01	  0.107374750	3.903200E+01
438	  0.107575148	-9.240000E+00	  0.107575148	5.556500E+01	  0.107575148	6.043400E+01	  0.107575148	3.905400E+01
439	  0.107775547	-9.234000E+00	  0.107775547	5.507800E+01	  0.107775547	6.083400E+01	  0.107775547	3.911800E+01
440	  0.107975952	-9.225000E+00	  0.107975952	5.452900E+01	  0.107975952	6.128900E+01	  0.107975952	3.919900E+01
441	  0.108176351	-9.224000E+00	  0.108176351	5.396300E+01	  0.108176351	6.176500E+01	  0.108176351	3.922600E+01
442	  0.108376749	-9.214000E+00	  0.108376749	5.339900E+01	  0.108376749	6.224200E+01	  0.108376749	3.930500E+01
443	  0.108577155	-9.210000E+00	  0.108577155	5.282300E+01	  0.108577155	6.273600E+01	  0.108577155	3.933800E+01
444	  0.108777553	-9.214000E+00	  0.108777553	5.223900E+01	  0.108777553	6.324200E+01	  0.108777553	3.932500E+01
445	  0.108977959	-9.205000E+00	  0.108977959	5.163400E+01	  0.108977959	6.376900E+01	  0.108977959	3.938100E+01
446	  0.109178357	-9.187000E+00	  0.109178357	5.102000E+01	  0.109178357	6.431100E+01	  0.109178357	3.947800E+01
447	  0.109378755	-9.176000E+00	  0.109378755	5.041000E+01	  0.109378755	6.485600E+01	  0.109378755	3.953100E+01
448	  0.109579161	-9.171000E+00	  0.109579161	4.985700E+01	  0.109579161	6.535400E+01	  0.109579161	3.954500E+01
449	  0.109779559	-9.150000E+00	  0.109779559	4.919200E+01	  0.109779559	6.596300E+01	  0.109779559	3.964300E+01
450	  0.109979957	-9.141000E+00	  0.109979957	4.858900E+01	  0.109979957	6.652000E+01	  0.109979957	3.966400E+01
451	  0.110180363	-9.121000E+00	  0.110180363	4.794300E+01	  0.110180363	6.712700E+01	  0.110180363	3.974100E+01
452	  0.110380761	-9.114000E+00	  0.110380761	4.736400E+01	  0.110380761	6.767100E+01	  0.110380761	3.973800E+01
453	  0.110581160	-9.099000E+00	  0.110581160	4.676100E+01	  0.110581160	6.825000E+01	  0.110581160	3.977600E+01
454	  0.110781565	-9.081000E+00	  0.110781565	4.609200E+01	  0.110781565	6.890000E+01	  0.110781565	3.981600E+01
455	  0.110981964	-9.066000E+00	  0.110981964	4.549500E+01	  0.110981964	6.948600E+01	  0.110981964	3.983600E+01
456	  0.111182362	-9.055000E+00	  0.111182362	4.489700E+01	  0.111182362	7.007700E+01	  0.111182362	3.982700E+01
457	  0.111382768	-9.045000E+00	  0.111382768	4.424300E+01	  0.111382768	7.072700E+01	  0.111382768	3.979400E+01
458	  0.111583166	-9.029000E+00	  0.111583166	4.361400E+01	  0.111583166	7.136500E+01	  0.111583166	3.979200E+01
459	  0.111783572	-9.023000E+00	  0.111783572	4.299800E+01	  0.111783572	7.198500E+01	  0.111783572	3.971600E+01
460	  0.111983970	-9.015000E+00	  0.111983970	4.239900E+01	  0.111983970	7.259600E+01	  0.111983970	3.965100E+01
461	  0.112184368	-9.010000E+00	  0.112184368	4.170600E+01	  0.112184368	7.330100E+01	  0.112184368	3.952800E+01
462	  0.112384774	-9.009000E+00	  0.112384774	4.109800E+01	  0.112384774	7.392000E+01	  0.112384774	3.939500E+01
463	  0.112585172	-9.004000E+00	  0.112585172	4.041800E+01	  0.112585172	7.462100E+01	  0.112585172	3.924900E+01
464	  0.112785570	-9.001000E+00	  0.112785570	3.973900E+01	  0.112785570	7.532300E+01	  0.112785570	3.908600E+01
465	  0.112985976	-9.002000E+00	  0.112985976	3.910400E+01	  0.112985976	7.597400E+01	  0.112985976	3.888700E+01
466	  0.113186374	-9.002000E+00	  0.113186374	3.835400E+01	  0.113186374	7.674900E+01	  0.113186374	3.864900E+01
467	  0.113386773	-9.011000E+00	  0.113386773	3.768200E+01	  0.113386773	7.742400E+01	  0.113386773	3.835500E+01
468	  0.113587178	-9.011000E+00	  0.113587178	3.694400E+01	  0.113587178	7.819000E+01	  0.113587178	3.808600E+01
469	  0.113787577	-9.021000E+00	  0.113787577	3.616400E+01	  0.113787577	7.897600E+01	  0.113787577	3.771300E+01
470	  0.113987975	-9.031000E+00	  0.113987975	3.536800E+01	  0.113987975	7.977700E+01	  0.113987975	3.731600E+01
471	  0.114188381	-9.044000E+00	  0.114188381	3.460400E+01	  0.114188381	8.053200E+01	  0.114188381	3.688700E+01
472	  0.114388779	-9.045000E+00	  0.114388779	3.379700E+01	  0.114388779	8.136600E+01	  0.114388779	3.649700E+01
473	  0.114589177	-9.064000E+00	  0.114589177	3.294900E+01	  0.114589177	8.217800E+01	  0.114589177	3.594100E+01
474	  0.114789583	-9.073000E+00	  0.114789583	3.209100E+01	  0.114789583	8.303100E+01	  0.114789583	3.542500E+01
475	  0.114989981	-9.090000E+00	  0.114989981	3.120600E+01	  0.114989981	8.387200E+01	  0.114989981	3.480900E+01
476	  0.115190387	-9.095000E+00	  0.115190387	3.029700E+01	  0.115190387	8.477700E+01	  0.115190387	3.423500E+01
477	  0.115390785	-9.114000E+00	  0.115390785	2.935100E+01	  0.115390785	8.565200E+01	  0.115390785	3.351300E+01
478	  0.115591183	-9.120000E+00	  0.115591183	2.844100E+01	  0.115591183	8.653000E+01	  0.115591183	3.286300E+01
479	  0.115791589	-9.142000E+00	  0.115791589	2.746600E+01	  0.115791589	8.739100E+01	  0.115791589	3.204100E+01
480	  0.115991987	-9.157000E+00	  0.115991987	2.651200E+01	  0.115991987	8.824200E+01	  0.115991987	3.124200E+01
481	  0.116192386	-9.167000E+00	  0.116192386	2.555900E+01	  0.116192386	8.910400E+01	  0.116192386	3.044800E+01
482	  0.116392791	-9.181000E+00	  0.116392791	2.457800E+01	  0.116392791	8.994800E+01	  0.116392791	2.957000E+01
483	  0.116593190	-9.202000E+00	  0.116593190	2.358700E+01	  0.116593190	9.074000E+01	  0.116593190	2.860800E+01
484	  0.116793588	-9.211000E+00	  0.116793588	2.255300E+01	  0.116793588	9.161400E+01	  0.116793588	2.764900E+01
485	  0.116993994	-9.236000E+00	  0.116993994	2.152300E+01	  0.116993994	9.236000E+01	  0.116993994	2.656600E+01
486	  0.117194392	-9.248000E+00	  0.117194392	2.052000E+01	  0.117194392	9.313500E+01	  0.117194392	2.555400E+01
487	  0.117394790	-9.265000E+00	  0.117394790	1.948700E+01	  0.117394790	9.386800E+01	  0.117394790	2.444900E+01
488	  0.117595196	-9.288000E+00	  0.117595196	1.849300E+01	  0.117595196	9.449300E+01	  0.117595196	2.332100E+01
489	  0.117795594	-9.307000E+00	  0.117795594	1.749000E+01	  0.117795594	9.511900E+01	  0.117795594	2.218400E+01
490	  0.117995992	-9.335000E+00	  0.117995992	1.642400E+01	  0.117995992	9.568600E+01	  0.117995992	2.090800E+01
491	  0.118196398	-9.362000E+00	  0.118196398	1.537000E+01	  0.118196398	9.620300E+01	  0.118196398	1.962900E+01
492	  0.118396796	-9.398000E+00	  0.118396796	1.433600E+01	  0.118396796	9.659900E+01	  0.118396796	1.831700E+01
493	  0.118597202	-9.423000E+00	  0.118597202	1.325200E+01	  0.118597202	9.705600E+01	  0.118597202	1.697600E+01
494	  0.118797600	-9.471000E+00	  0.118797600	1.224100E+01	  0.118797600	9.724900E+01	  0.118797600	1.562400E+01
