! Anritsu VNA Master:             	Model: MS2036C/10/77
! SN:             	1601066
! /bd0/18may09/254.ns.m7.txt
! Existing Calibration Information:
! TYPE:             	Current Settings	Active Cal Settings
! TIME:             	05/09/2018 12:59:24 PM	05/09/2018 12:54:36 PM
! INTERNAL TEMP:    	58.5 C	58.3 C
! # POINTS:         	494	494
! START FREQ:       	20.000 MHz	20.000 MHz
! STOP FREQ:        	118.797 594 MHz	118.797 594 MHz
! SOURCE POWER:     	High	High
! IFBW:             	50 Hz	50 Hz
! AVG FACTOR:       	  1 	  1 
! REF PLANE 1:      	0 mm	0 mm
! REF PLANE 2:      	0 mm	0 mm
! CAL TYPE:         	Full S22	Full S22
! CAL METHOD:       	SOLT	SOLT
! CAL LINE TYPE:    	Coax	Coax
! DUT PORT 1:       	K-Conn(M)	K-Conn(M)
! DUT PORT 2:       	K-Conn(M)	K-Conn(M)
! CAL STATUS:       	OK: Accuracy High	--
! PROP-V:       	0.700
! CABLE LOSS:       	0.000 dB/m
! REF IMPEDANCE:       	50.0
! Trace Specific Parameters:	TR1	TR2	TR3	TR4
! TRACE.#.Y (GRAPH TYPE)	LOG MAG	PHASE	REAL IMPEDANCE	IMAGINARY IMPEDANCE
! TRACE.#.X 	FREQ.GHZ	FREQ.GHZ	FREQ.GHZ	FREQ.GHZ
! S-PARAMETER	S22	S22	S22	S22
! SMOOTH/APERTURE %	0	0	0	0
! WINDOW	NSL	NSL	NSL	NSL
! GATING	OFF	OFF	OFF	OFF
! FGTD	OFF	OFF	OFF	OFF
Marker Information per Trace:	TR1	TR2	TR3	TR4
!MK1	--	"MK1 TR2:  20.000 MHz,PH:-126.80°"	--	--
!MK2	--	--	"MK2 TR3:  70.100 200 MHz,Z:(16.502 ohm, -1.475 ohm)"	--
!MK3	--	--	--	--
!MK4	--	--	--	--
!MK5	--	--	--	--
!MK6	--	--	--	--
!MK7	--	--	--	--
!MK8	--	--	--	--
PNT	TR1.FREQ.GHZ	TR1.LOG MAG.dB	TR2.FREQ.GHZ	TR2.PHASE.deg	TR3.FREQ.GHZ	TR3.REAL IMPEDANCE.ohm	TR4.FREQ.GHZ	TR4.IMAGINARY IMPEDANCE.ohm
1	  0.020000000	-6.250000E-01	  0.020000000	-1.267950E+02	  0.020000000	2.250000E+00	  0.020000000	-2.500000E+01
2	  0.020200402	-6.280000E-01	  0.020200402	-1.282560E+02	  0.020200402	2.234000E+00	  0.020200402	-2.420900E+01
3	  0.020400802	-6.330000E-01	  0.020400802	-1.297370E+02	  0.020400802	2.224000E+00	  0.020400802	-2.341700E+01
4	  0.020601204	-6.380000E-01	  0.020601204	-1.312440E+02	  0.020601204	2.213000E+00	  0.020601204	-2.262000E+01
5	  0.020801604	-6.410000E-01	  0.020801604	-1.327720E+02	  0.020801604	2.196000E+00	  0.020801604	-2.182300E+01
6	  0.021002004	-6.420000E-01	  0.021002004	-1.343200E+02	  0.021002004	2.174000E+00	  0.021002004	-2.102500E+01
7	  0.021202406	-6.460000E-01	  0.021202406	-1.358560E+02	  0.021202406	2.164000E+00	  0.021202406	-2.024100E+01
8	  0.021402806	-6.480000E-01	  0.021402806	-1.374010E+02	  0.021402806	2.148000E+00	  0.021402806	-1.946200E+01
9	  0.021603208	-6.520000E-01	  0.021603208	-1.389320E+02	  0.021603208	2.140000E+00	  0.021603208	-1.869700E+01
10	  0.021803608	-6.550000E-01	  0.021803608	-1.404880E+02	  0.021803608	2.128000E+00	  0.021803608	-1.792800E+01
11	  0.022004008	-6.610000E-01	  0.022004008	-1.420270E+02	  0.022004008	2.127000E+00	  0.022004008	-1.717500E+01
12	  0.022204408	-6.670000E-01	  0.022204408	-1.436020E+02	  0.022204408	2.127000E+00	  0.022204408	-1.641100E+01
13	  0.022404809	-6.760000E-01	  0.022404809	-1.451900E+02	  0.022404809	2.137000E+00	  0.022404809	-1.564700E+01
14	  0.022605211	-6.790000E-01	  0.022605211	-1.468040E+02	  0.022605211	2.129000E+00	  0.022605211	-1.487800E+01
15	  0.022805611	-6.830000E-01	  0.022805611	-1.484140E+02	  0.022805611	2.124000E+00	  0.022805611	-1.411700E+01
16	  0.023006011	-6.880000E-01	  0.023006011	-1.500230E+02	  0.023006011	2.123000E+00	  0.023006011	-1.336300E+01
17	  0.023206413	-6.950000E-01	  0.023206413	-1.516230E+02	  0.023206413	2.128000E+00	  0.023206413	-1.261900E+01
18	  0.023406813	-7.010000E-01	  0.023406813	-1.532240E+02	  0.023406813	2.133000E+00	  0.023406813	-1.187900E+01
19	  0.023607215	-7.120000E-01	  0.023607215	-1.548370E+02	  0.023607215	2.152000E+00	  0.023607215	-1.113900E+01
20	  0.023807615	-7.220000E-01	  0.023807615	-1.564650E+02	  0.023807615	2.167000E+00	  0.023807615	-1.039700E+01
21	  0.024008015	-7.300000E-01	  0.024008015	-1.581230E+02	  0.024008015	2.179000E+00	  0.024008015	-9.645000E+00
22	  0.024208417	-7.390000E-01	  0.024208417	-1.597780E+02	  0.024208417	2.195000E+00	  0.024208417	-8.899000E+00
23	  0.024408817	-7.460000E-01	  0.024408817	-1.614580E+02	  0.024408817	2.205000E+00	  0.024408817	-8.146000E+00
24	  0.024609219	-7.530000E-01	  0.024609219	-1.631290E+02	  0.024609219	2.216000E+00	  0.024609219	-7.400000E+00
25	  0.024809619	-7.630000E-01	  0.024809619	-1.647980E+02	  0.024809619	2.236000E+00	  0.024809619	-6.658000E+00
26	  0.025010020	-7.720000E-01	  0.025010020	-1.664820E+02	  0.025010020	2.254000E+00	  0.025010020	-5.913000E+00
27	  0.025210422	-7.840000E-01	  0.025210422	-1.681740E+02	  0.025210422	2.279000E+00	  0.025210422	-5.167000E+00
28	  0.025410822	-7.930000E-01	  0.025410822	-1.698780E+02	  0.025410822	2.300000E+00	  0.025410822	-4.418000E+00
29	  0.025611224	-8.040000E-01	  0.025611224	-1.715940E+02	  0.025611224	2.326000E+00	  0.025611224	-3.666000E+00
30	  0.025811624	-8.150000E-01	  0.025811624	-1.733270E+02	  0.025811624	2.352000E+00	  0.025811624	-2.908000E+00
31	  0.026012026	-8.240000E-01	  0.026012026	-1.750760E+02	  0.026012026	2.376000E+00	  0.026012026	-2.144000E+00
32	  0.026212426	-8.340000E-01	  0.026212426	-1.768280E+02	  0.026212426	2.402000E+00	  0.026212426	-1.380000E+00
33	  0.026412826	-8.470000E-01	  0.026412826	-1.785900E+02	  0.026412826	2.438000E+00	  0.026412826	-6.130000E-01
34	  0.026613226	-8.610000E-01	  0.026613226	1.796380E+02	  0.026613226	2.478000E+00	  0.026613226	1.570000E-01
35	  0.026813626	-8.750000E-01	  0.026813626	1.778570E+02	  0.026813626	2.519000E+00	  0.026813626	9.320000E-01
36	  0.027014028	-8.910000E-01	  0.027014028	1.760730E+02	  0.027014028	2.566000E+00	  0.027014028	1.709000E+00
37	  0.027214428	-9.050000E-01	  0.027214428	1.742700E+02	  0.027214428	2.609000E+00	  0.027214428	2.495000E+00
38	  0.027414829	-9.210000E-01	  0.027414829	1.724740E+02	  0.027414829	2.661000E+00	  0.027414829	3.278000E+00
39	  0.027615231	-9.370000E-01	  0.027615231	1.706540E+02	  0.027615231	2.714000E+00	  0.027615231	4.074000E+00
40	  0.027815631	-9.550000E-01	  0.027815631	1.688370E+02	  0.027815631	2.773000E+00	  0.027815631	4.871000E+00
41	  0.028016033	-9.730000E-01	  0.028016033	1.669930E+02	  0.028016033	2.833000E+00	  0.028016033	5.681000E+00
42	  0.028216433	-9.910000E-01	  0.028216433	1.651390E+02	  0.028216433	2.900000E+00	  0.028216433	6.498000E+00
43	  0.028416833	-1.012000E+00	  0.028416833	1.632950E+02	  0.028416833	2.972000E+00	  0.028416833	7.315000E+00
44	  0.028617235	-1.032000E+00	  0.028617235	1.614280E+02	  0.028617235	3.047000E+00	  0.028617235	8.145000E+00
45	  0.028817635	-1.052000E+00	  0.028817635	1.595640E+02	  0.028817635	3.125000E+00	  0.028817635	8.978000E+00
46	  0.029018037	-1.076000E+00	  0.029018037	1.576970E+02	  0.029018037	3.213000E+00	  0.029018037	9.816000E+00
47	  0.029218437	-1.098000E+00	  0.029218437	1.558160E+02	  0.029218437	3.301000E+00	  0.029218437	1.066600E+01
48	  0.029418837	-1.124000E+00	  0.029418837	1.539190E+02	  0.029418837	3.405000E+00	  0.029418837	1.152900E+01
49	  0.029619239	-1.149000E+00	  0.029619239	1.520080E+02	  0.029619239	3.507000E+00	  0.029619239	1.240400E+01
50	  0.029819639	-1.175000E+00	  0.029819639	1.500900E+02	  0.029819639	3.617000E+00	  0.029819639	1.328900E+01
51	  0.030020041	-1.201000E+00	  0.030020041	1.481720E+02	  0.030020041	3.732000E+00	  0.030020041	1.418200E+01
52	  0.030220442	-1.228000E+00	  0.030220442	1.462390E+02	  0.030220442	3.851000E+00	  0.030220442	1.508900E+01
53	  0.030420844	-1.255000E+00	  0.030420844	1.443300E+02	  0.030420844	3.979000E+00	  0.030420844	1.599400E+01
54	  0.030621244	-1.284000E+00	  0.030621244	1.424110E+02	  0.030621244	4.113000E+00	  0.030621244	1.691200E+01
55	  0.030821642	-1.316000E+00	  0.030821642	1.404840E+02	  0.030821642	4.265000E+00	  0.030821642	1.784300E+01
56	  0.031022044	-1.346000E+00	  0.031022044	1.385300E+02	  0.031022044	4.418000E+00	  0.031022044	1.879800E+01
57	  0.031222444	-1.370000E+00	  0.031222444	1.365920E+02	  0.031222444	4.555000E+00	  0.031222444	1.975800E+01
58	  0.031422846	-1.402000E+00	  0.031422846	1.346040E+02	  0.031422846	4.728000E+00	  0.031422846	2.075300E+01
59	  0.031623244	-1.434000E+00	  0.031623244	1.326180E+02	  0.031623244	4.907000E+00	  0.031623244	2.176100E+01
60	  0.031823646	-1.468000E+00	  0.031823646	1.306320E+02	  0.031823646	5.100000E+00	  0.031823646	2.278200E+01
61	  0.032024048	-1.502000E+00	  0.032024048	1.286410E+02	  0.032024048	5.301000E+00	  0.032024048	2.382100E+01
62	  0.032224450	-1.540000E+00	  0.032224450	1.266560E+02	  0.032224450	5.527000E+00	  0.032224450	2.487000E+01
63	  0.032424849	-1.574000E+00	  0.032424849	1.246530E+02	  0.032424849	5.747000E+00	  0.032424849	2.594800E+01
64	  0.032625251	-1.609000E+00	  0.032625251	1.226240E+02	  0.032625251	5.987000E+00	  0.032625251	2.705700E+01
65	  0.032825653	-1.646000E+00	  0.032825653	1.205970E+02	  0.032825653	6.245000E+00	  0.032825653	2.818400E+01
66	  0.033026051	-1.681000E+00	  0.033026051	1.185580E+02	  0.033026051	6.505000E+00	  0.033026051	2.933900E+01
67	  0.033226453	-1.716000E+00	  0.033226453	1.165180E+02	  0.033226453	6.785000E+00	  0.033226453	3.051600E+01
68	  0.033426855	-1.754000E+00	  0.033426855	1.144750E+02	  0.033426855	7.088000E+00	  0.033426855	3.171600E+01
69	  0.033627257	-1.792000E+00	  0.033627257	1.124330E+02	  0.033627257	7.407000E+00	  0.033627257	3.294100E+01
70	  0.033827655	-1.831000E+00	  0.033827655	1.103810E+02	  0.033827655	7.750000E+00	  0.033827655	3.419600E+01
71	  0.034028057	-1.869000E+00	  0.034028057	1.083310E+02	  0.034028057	8.107000E+00	  0.034028057	3.547900E+01
72	  0.034228459	-1.909000E+00	  0.034228459	1.062700E+02	  0.034228459	8.492000E+00	  0.034228459	3.679600E+01
73	  0.034428857	-1.952000E+00	  0.034428857	1.042150E+02	  0.034428857	8.919000E+00	  0.034428857	3.813600E+01
74	  0.034629259	-1.993000E+00	  0.034629259	1.021220E+02	  0.034629259	9.363000E+00	  0.034629259	3.953600E+01
75	  0.034829661	-2.035000E+00	  0.034829661	1.000470E+02	  0.034829661	9.837000E+00	  0.034829661	4.095800E+01
76	  0.035030060	-2.081000E+00	  0.035030060	9.795700E+01	  0.035030060	1.036400E+01	  0.035030060	4.242100E+01
77	  0.035230462	-2.125000E+00	  0.035230462	9.587400E+01	  0.035230462	1.091300E+01	  0.035230462	4.392000E+01
78	  0.035430863	-2.174000E+00	  0.035430863	9.378700E+01	  0.035430863	1.152200E+01	  0.035430863	4.545700E+01
79	  0.035631265	-2.221000E+00	  0.035631265	9.169500E+01	  0.035631265	1.216500E+01	  0.035631265	4.703900E+01
80	  0.035831664	-2.267000E+00	  0.035831664	8.960200E+01	  0.035831664	1.284900E+01	  0.035831664	4.866900E+01
81	  0.036032066	-2.314000E+00	  0.036032066	8.750100E+01	  0.036032066	1.358700E+01	  0.036032066	5.035000E+01
82	  0.036232468	-2.359000E+00	  0.036232468	8.541900E+01	  0.036232468	1.436600E+01	  0.036232468	5.206400E+01
83	  0.036432866	-2.410000E+00	  0.036432866	8.329900E+01	  0.036432866	1.524400E+01	  0.036432866	5.385400E+01
84	  0.036633268	-2.459000E+00	  0.036633268	8.121200E+01	  0.036633268	1.616500E+01	  0.036633268	5.567000E+01
85	  0.036833670	-2.510000E+00	  0.036833670	7.909800E+01	  0.036833670	1.717900E+01	  0.036833670	5.756200E+01
86	  0.037034072	-2.561000E+00	  0.037034072	7.699800E+01	  0.037034072	1.827100E+01	  0.037034072	5.949600E+01
87	  0.037234470	-2.612000E+00	  0.037234470	7.489200E+01	  0.037234470	1.944900E+01	  0.037234470	6.149700E+01
88	  0.037434869	-2.664000E+00	  0.037434869	7.277700E+01	  0.037434869	2.073600E+01	  0.037434869	6.356300E+01
89	  0.037635271	-2.719000E+00	  0.037635271	7.065400E+01	  0.037635271	2.215700E+01	  0.037635271	6.569100E+01
90	  0.037835669	-2.782000E+00	  0.037835669	6.854200E+01	  0.037835669	2.375200E+01	  0.037835669	6.783900E+01
91	  0.038036071	-2.844000E+00	  0.038036071	6.648300E+01	  0.038036071	2.544700E+01	  0.038036071	6.998400E+01
92	  0.038236473	-2.898000E+00	  0.038236473	6.441600E+01	  0.038236473	2.722200E+01	  0.038236473	7.222900E+01
93	  0.038436871	-2.952000E+00	  0.038436871	6.232500E+01	  0.038436871	2.917200E+01	  0.038436871	7.455900E+01
94	  0.038637273	-3.004000E+00	  0.038637273	6.024400E+01	  0.038637273	3.127700E+01	  0.038637273	7.694400E+01
95	  0.038837675	-3.057000E+00	  0.038837675	5.816800E+01	  0.038837675	3.357000E+01	  0.038837675	7.937500E+01
96	  0.039038073	-3.110000E+00	  0.039038073	5.610300E+01	  0.039038073	3.606400E+01	  0.039038073	8.184200E+01
97	  0.039238475	-3.160000E+00	  0.039238475	5.401600E+01	  0.039238475	3.879100E+01	  0.039238475	8.440200E+01
98	  0.039438877	-3.215000E+00	  0.039438877	5.198100E+01	  0.039438877	4.176300E+01	  0.039438877	8.687900E+01
99	  0.039639279	-3.268000E+00	  0.039639279	4.991500E+01	  0.039639279	4.502900E+01	  0.039639279	8.944200E+01
100	  0.039839678	-3.322000E+00	  0.039839678	4.784300E+01	  0.039839678	4.863400E+01	  0.039839678	9.200100E+01
101	  0.040040080	-3.373000E+00	  0.040040080	4.576700E+01	  0.040040080	5.256500E+01	  0.040040080	9.457500E+01
102	  0.040240481	-3.423000E+00	  0.040240481	4.371100E+01	  0.040240481	5.682700E+01	  0.040240481	9.709000E+01
103	  0.040440880	-3.475000E+00	  0.040440880	4.166400E+01	  0.040440880	6.149500E+01	  0.040440880	9.949500E+01
104	  0.040641282	-3.524000E+00	  0.040641282	3.962400E+01	  0.040641282	6.656800E+01	  0.040641282	1.018000E+02
105	  0.040841684	-3.574000E+00	  0.040841684	3.760200E+01	  0.040841684	7.207600E+01	  0.040841684	1.039050E+02
106	  0.041042086	-3.628000E+00	  0.041042086	3.558400E+01	  0.041042086	7.810100E+01	  0.041042086	1.056980E+02
107	  0.041242484	-3.678000E+00	  0.041242484	3.355600E+01	  0.041242484	8.464900E+01	  0.041242484	1.072610E+02
108	  0.041442886	-3.728000E+00	  0.041442886	3.152600E+01	  0.041442886	9.176000E+01	  0.041442886	1.084030E+02
109	  0.041643288	-3.777000E+00	  0.041643288	2.949600E+01	  0.041643288	9.941800E+01	  0.041643288	1.090920E+02
110	  0.041843686	-3.827000E+00	  0.041843686	2.747200E+01	  0.041843686	1.076060E+02	  0.041843686	1.091040E+02
111	  0.042044088	-3.873000E+00	  0.042044088	2.545800E+01	  0.042044088	1.162660E+02	  0.042044088	1.084280E+02
112	  0.042244490	-3.921000E+00	  0.042244490	2.344800E+01	  0.042244490	1.253700E+02	  0.042244490	1.068420E+02
113	  0.042444889	-3.971000E+00	  0.042444889	2.146300E+01	  0.042444889	1.346870E+02	  0.042444889	1.041310E+02
114	  0.042645290	-4.018000E+00	  0.042645290	1.946600E+01	  0.042645290	1.442810E+02	  0.042645290	1.003070E+02
115	  0.042845692	-4.068000E+00	  0.042845692	1.748800E+01	  0.042845692	1.537660E+02	  0.042845692	9.513600E+01
116	  0.043046094	-4.113000E+00	  0.043046094	1.549900E+01	  0.043046094	1.631470E+02	  0.043046094	8.870300E+01
117	  0.043246493	-4.161000E+00	  0.043246493	1.351600E+01	  0.043246493	1.719800E+02	  0.043246493	8.076700E+01
118	  0.043446895	-4.204000E+00	  0.043446895	1.154900E+01	  0.043446895	1.800790E+02	  0.043446895	7.165300E+01
119	  0.043647297	-4.247000E+00	  0.043647297	9.572000E+00	  0.043647297	1.871910E+02	  0.043647297	6.119200E+01
120	  0.043847695	-4.291000E+00	  0.043847695	7.631000E+00	  0.043847695	1.927990E+02	  0.043847695	4.977900E+01
121	  0.044048097	-4.333000E+00	  0.044048097	5.683000E+00	  0.044048097	1.969480E+02	  0.044048097	3.751900E+01
122	  0.044248499	-4.377000E+00	  0.044248499	3.743000E+00	  0.044248499	1.993370E+02	  0.044248499	2.476300E+01
123	  0.044448901	-4.418000E+00	  0.044448901	1.838000E+00	  0.044448901	2.000210E+02	  0.044448901	1.208500E+01
124	  0.044649299	-4.459000E+00	  0.044649299	-7.500000E-02	  0.044649299	1.990120E+02	  0.044649299	-4.900000E-01
125	  0.044849701	-4.501000E+00	  0.044849701	-1.962000E+00	  0.044849701	1.964020E+02	  0.044849701	-1.241500E+01
126	  0.045050103	-4.540000E+00	  0.045050103	-3.871000E+00	  0.045050103	1.924840E+02	  0.045050103	-2.376300E+01
127	  0.045250501	-4.577000E+00	  0.045250501	-5.768000E+00	  0.045250501	1.874500E+02	  0.045250501	-3.415000E+01
128	  0.045450903	-4.615000E+00	  0.045450903	-7.653000E+00	  0.045450903	1.814100E+02	  0.045450903	-4.339700E+01
129	  0.045651305	-4.650000E+00	  0.045651305	-9.541000E+00	  0.045651305	1.747490E+02	  0.045651305	-5.160100E+01
130	  0.045851704	-4.686000E+00	  0.045851704	-1.140100E+01	  0.045851704	1.676400E+02	  0.045851704	-5.854400E+01
131	  0.046052102	-4.718000E+00	  0.046052102	-1.324700E+01	  0.046052102	1.603700E+02	  0.046052102	-6.443900E+01
132	  0.046252504	-4.757000E+00	  0.046252504	-1.505900E+01	  0.046252504	1.529620E+02	  0.046252504	-6.906000E+01
133	  0.046452906	-4.791000E+00	  0.046452906	-1.687100E+01	  0.046452906	1.456740E+02	  0.046452906	-7.288700E+01
134	  0.046653304	-4.827000E+00	  0.046653304	-1.869800E+01	  0.046653304	1.384300E+02	  0.046653304	-7.588500E+01
135	  0.046853706	-4.858000E+00	  0.046853706	-2.052400E+01	  0.046853706	1.314420E+02	  0.046853706	-7.823900E+01
136	  0.047054108	-4.891000E+00	  0.047054108	-2.231500E+01	  0.047054108	1.248210E+02	  0.047054108	-7.986800E+01
137	  0.047254506	-4.923000E+00	  0.047254506	-2.414000E+01	  0.047254506	1.183760E+02	  0.047254506	-8.100000E+01
138	  0.047454908	-4.949000E+00	  0.047454908	-2.593500E+01	  0.047454908	1.123630E+02	  0.047454908	-8.173600E+01
139	  0.047655310	-4.981000E+00	  0.047655310	-2.771200E+01	  0.047655310	1.067030E+02	  0.047655310	-8.195800E+01
140	  0.047855709	-5.010000E+00	  0.047855709	-2.945900E+01	  0.047855709	1.014460E+02	  0.047855709	-8.186700E+01
141	  0.048056111	-5.041000E+00	  0.048056111	-3.121600E+01	  0.048056111	9.646800E+01	  0.048056111	-8.148500E+01
142	  0.048256513	-5.068000E+00	  0.048256513	-3.296600E+01	  0.048256513	9.180700E+01	  0.048256513	-8.093400E+01
143	  0.048456915	-5.097000E+00	  0.048456915	-3.469400E+01	  0.048456915	8.748300E+01	  0.048456915	-8.016500E+01
144	  0.048657313	-5.123000E+00	  0.048657313	-3.641700E+01	  0.048657313	8.343000E+01	  0.048657313	-7.929800E+01
145	  0.048857715	-5.147000E+00	  0.048857715	-3.816200E+01	  0.048857715	7.957800E+01	  0.048857715	-7.830400E+01
146	  0.049058117	-5.171000E+00	  0.049058117	-3.988800E+01	  0.049058117	7.600100E+01	  0.049058117	-7.721700E+01
147	  0.049258515	-5.194000E+00	  0.049258515	-4.158800E+01	  0.049258515	7.269800E+01	  0.049258515	-7.606600E+01
148	  0.049458917	-5.216000E+00	  0.049458917	-4.327000E+01	  0.049458917	6.962400E+01	  0.049458917	-7.487200E+01
149	  0.049659319	-5.243000E+00	  0.049659319	-4.495000E+01	  0.049659319	6.675800E+01	  0.049659319	-7.358000E+01
150	  0.049859721	-5.264000E+00	  0.049859721	-4.664300E+01	  0.049859721	6.402500E+01	  0.049859721	-7.230100E+01
151	  0.050060119	-5.289000E+00	  0.050060119	-4.826900E+01	  0.050060119	6.157900E+01	  0.050060119	-7.099200E+01
152	  0.050260521	-5.309000E+00	  0.050260521	-4.994800E+01	  0.050260521	5.917500E+01	  0.050260521	-6.968700E+01
153	  0.050460923	-5.328000E+00	  0.050460923	-5.160400E+01	  0.050460923	5.694500E+01	  0.050460923	-6.838400E+01
154	  0.050661322	-5.343000E+00	  0.050661322	-5.325400E+01	  0.050661322	5.483300E+01	  0.050661322	-6.711100E+01
155	  0.050861724	-5.360000E+00	  0.050861724	-5.488600E+01	  0.050861724	5.287200E+01	  0.050861724	-6.582800E+01
156	  0.051062126	-5.378000E+00	  0.051062126	-5.651000E+01	  0.051062126	5.103600E+01	  0.051062126	-6.453900E+01
157	  0.051262524	-5.396000E+00	  0.051262524	-5.810600E+01	  0.051262524	4.933700E+01	  0.051262524	-6.326900E+01
158	  0.051462926	-5.413000E+00	  0.051462926	-5.970500E+01	  0.051462926	4.771800E+01	  0.051462926	-6.201700E+01
159	  0.051663328	-5.433000E+00	  0.051663328	-6.128400E+01	  0.051663328	4.622300E+01	  0.051663328	-6.076400E+01
160	  0.051863730	-5.448000E+00	  0.051863730	-6.284900E+01	  0.051863730	4.479700E+01	  0.051863730	-5.956300E+01
161	  0.052064128	-5.461000E+00	  0.052064128	-6.444700E+01	  0.052064128	4.340800E+01	  0.052064128	-5.836000E+01
162	  0.052264530	-5.472000E+00	  0.052264530	-6.601000E+01	  0.052264530	4.211000E+01	  0.052264530	-5.720300E+01
163	  0.052464932	-5.486000E+00	  0.052464932	-6.755100E+01	  0.052464932	4.090800E+01	  0.052464932	-5.605800E+01
164	  0.052665330	-5.495000E+00	  0.052665330	-6.909400E+01	  0.052665330	3.974700E+01	  0.052665330	-5.494300E+01
165	  0.052865732	-5.512000E+00	  0.052865732	-7.062200E+01	  0.052865732	3.868300E+01	  0.052865732	-5.381800E+01
166	  0.053066134	-5.527000E+00	  0.053066134	-7.214000E+01	  0.053066134	3.767400E+01	  0.053066134	-5.271900E+01
167	  0.053266536	-5.540000E+00	  0.053266536	-7.365500E+01	  0.053266536	3.670800E+01	  0.053266536	-5.164300E+01
168	  0.053466935	-5.556000E+00	  0.053466935	-7.516500E+01	  0.053466935	3.580100E+01	  0.053466935	-5.057400E+01
169	  0.053667337	-5.567000E+00	  0.053667337	-7.666500E+01	  0.053667337	3.492100E+01	  0.053667337	-4.954600E+01
170	  0.053867739	-5.580000E+00	  0.053867739	-7.815100E+01	  0.053867739	3.409800E+01	  0.053867739	-4.853400E+01
171	  0.054068137	-5.590000E+00	  0.054068137	-7.966800E+01	  0.054068137	3.328400E+01	  0.054068137	-4.752300E+01
172	  0.054268539	-5.600000E+00	  0.054268539	-8.112600E+01	  0.054268539	3.253700E+01	  0.054268539	-4.656500E+01
173	  0.054468941	-5.611000E+00	  0.054468941	-8.260500E+01	  0.054468941	3.181800E+01	  0.054468941	-4.559900E+01
174	  0.054669335	-5.626000E+00	  0.054669335	-8.406700E+01	  0.054669335	3.115300E+01	  0.054669335	-4.464700E+01
175	  0.054869737	-5.637000E+00	  0.054869737	-8.551700E+01	  0.054869737	3.051000E+01	  0.054869737	-4.372500E+01
176	  0.055070139	-5.650000E+00	  0.055070139	-8.696400E+01	  0.055070139	2.990100E+01	  0.055070139	-4.281200E+01
177	  0.055270538	-5.659000E+00	  0.055270538	-8.838500E+01	  0.055270538	2.931200E+01	  0.055270538	-4.193900E+01
178	  0.055470940	-5.669000E+00	  0.055470940	-8.980300E+01	  0.055470940	2.875400E+01	  0.055470940	-4.107500E+01
179	  0.055671342	-5.678000E+00	  0.055671342	-9.125600E+01	  0.055671342	2.820500E+01	  0.055671342	-4.020300E+01
180	  0.055871744	-5.685000E+00	  0.055871744	-9.267400E+01	  0.055871744	2.767800E+01	  0.055871744	-3.937000E+01
181	  0.056072142	-5.693000E+00	  0.056072142	-9.408700E+01	  0.056072142	2.718100E+01	  0.056072142	-3.854500E+01
182	  0.056272544	-5.703000E+00	  0.056272544	-9.549200E+01	  0.056272544	2.671600E+01	  0.056272544	-3.772800E+01
183	  0.056472946	-5.712000E+00	  0.056472946	-9.687500E+01	  0.056472946	2.627200E+01	  0.056472946	-3.693700E+01
184	  0.056673344	-5.716000E+00	  0.056673344	-9.824700E+01	  0.056673344	2.583100E+01	  0.056673344	-3.617100E+01
185	  0.056873746	-5.726000E+00	  0.056873746	-9.960200E+01	  0.056873746	2.543100E+01	  0.056873746	-3.541300E+01
186	  0.057074148	-5.734000E+00	  0.057074148	-1.009640E+02	  0.057074148	2.503900E+01	  0.057074148	-3.466200E+01
187	  0.057274550	-5.738000E+00	  0.057274550	-1.023300E+02	  0.057274550	2.464600E+01	  0.057274550	-3.392500E+01
188	  0.057474948	-5.744000E+00	  0.057474948	-1.036940E+02	  0.057474948	2.427700E+01	  0.057474948	-3.319300E+01
189	  0.057675350	-5.749000E+00	  0.057675350	-1.050330E+02	  0.057675350	2.392400E+01	  0.057675350	-3.248300E+01
190	  0.057875752	-5.754000E+00	  0.057875752	-1.063600E+02	  0.057875752	2.358800E+01	  0.057875752	-3.178700E+01
191	  0.058076151	-5.760000E+00	  0.058076151	-1.076940E+02	  0.058076151	2.326700E+01	  0.058076151	-3.109100E+01
192	  0.058276553	-5.769000E+00	  0.058276553	-1.089930E+02	  0.058276553	2.297200E+01	  0.058276553	-3.041700E+01
193	  0.058476955	-5.771000E+00	  0.058476955	-1.102790E+02	  0.058476955	2.267200E+01	  0.058476955	-2.976600E+01
194	  0.058677353	-5.776000E+00	  0.058677353	-1.115890E+02	  0.058677353	2.238400E+01	  0.058677353	-2.910600E+01
195	  0.058877755	-5.780000E+00	  0.058877755	-1.128790E+02	  0.058877755	2.211000E+01	  0.058877755	-2.846100E+01
196	  0.059078157	-5.785000E+00	  0.059078157	-1.141510E+02	  0.059078157	2.185200E+01	  0.059078157	-2.783000E+01
197	  0.059278559	-5.786000E+00	  0.059278559	-1.154340E+02	  0.059278559	2.158800E+01	  0.059278559	-2.720500E+01
198	  0.059478957	-5.789000E+00	  0.059478957	-1.167120E+02	  0.059478957	2.133900E+01	  0.059478957	-2.658500E+01
199	  0.059679359	-5.794000E+00	  0.059679359	-1.179810E+02	  0.059679359	2.110700E+01	  0.059679359	-2.597200E+01
200	  0.059879761	-5.801000E+00	  0.059879761	-1.192030E+02	  0.059879761	2.089900E+01	  0.059879761	-2.538300E+01
201	  0.060080159	-5.807000E+00	  0.060080159	-1.204500E+02	  0.060080159	2.069100E+01	  0.060080159	-2.478900E+01
202	  0.060280561	-5.810000E+00	  0.060280561	-1.216990E+02	  0.060280561	2.048000E+01	  0.060280561	-2.420300E+01
203	  0.060480963	-5.818000E+00	  0.060480963	-1.229300E+02	  0.060480963	2.029400E+01	  0.060480963	-2.362300E+01
204	  0.060681365	-5.822000E+00	  0.060681365	-1.241510E+02	  0.060681365	2.010600E+01	  0.060681365	-2.305600E+01
205	  0.060881764	-5.823000E+00	  0.060881764	-1.253660E+02	  0.060881764	1.991500E+01	  0.060881764	-2.250000E+01
206	  0.061082166	-5.828000E+00	  0.061082166	-1.265930E+02	  0.061082166	1.974200E+01	  0.061082166	-2.193800E+01
207	  0.061282568	-5.834000E+00	  0.061282568	-1.278070E+02	  0.061282568	1.957900E+01	  0.061282568	-2.138500E+01
208	  0.061482966	-5.838000E+00	  0.061482966	-1.290300E+02	  0.061482966	1.941600E+01	  0.061482966	-2.083300E+01
209	  0.061683368	-5.843000E+00	  0.061683368	-1.302100E+02	  0.061683368	1.926700E+01	  0.061683368	-2.030400E+01
210	  0.061883770	-5.846000E+00	  0.061883770	-1.314100E+02	  0.061883770	1.911500E+01	  0.061883770	-1.977100E+01
211	  0.062084168	-5.851000E+00	  0.062084168	-1.325950E+02	  0.062084168	1.897700E+01	  0.062084168	-1.924500E+01
212	  0.062284570	-5.859000E+00	  0.062284570	-1.337670E+02	  0.062284570	1.885200E+01	  0.062284570	-1.872700E+01
213	  0.062484972	-5.850000E+00	  0.062484972	-1.349230E+02	  0.062484972	1.868600E+01	  0.062484972	-1.823200E+01
214	  0.062685370	-5.854000E+00	  0.062685370	-1.360940E+02	  0.062685370	1.856100E+01	  0.062685370	-1.772300E+01
215	  0.062885776	-5.857000E+00	  0.062885776	-1.372490E+02	  0.062885776	1.843900E+01	  0.062885776	-1.722400E+01
216	  0.063086174	-5.861000E+00	  0.063086174	-1.384480E+02	  0.063086174	1.832000E+01	  0.063086174	-1.670800E+01
217	  0.063286573	-5.864000E+00	  0.063286573	-1.396060E+02	  0.063286573	1.820600E+01	  0.063286573	-1.621400E+01
218	  0.063486971	-5.867000E+00	  0.063486971	-1.407400E+02	  0.063486971	1.810000E+01	  0.063486971	-1.573200E+01
219	  0.063687377	-5.867000E+00	  0.063687377	-1.418970E+02	  0.063687377	1.798700E+01	  0.063687377	-1.524400E+01
220	  0.063887775	-5.869000E+00	  0.063887775	-1.430230E+02	  0.063887775	1.788600E+01	  0.063887775	-1.477100E+01
221	  0.064088173	-5.870000E+00	  0.064088173	-1.441800E+02	  0.064088173	1.778500E+01	  0.064088173	-1.428700E+01
222	  0.064288579	-5.877000E+00	  0.064288579	-1.453020E+02	  0.064288579	1.770700E+01	  0.064288579	-1.381600E+01
223	  0.064488977	-5.873000E+00	  0.064488977	-1.464140E+02	  0.064488977	1.760300E+01	  0.064488977	-1.335800E+01
224	  0.064689375	-5.878000E+00	  0.064689375	-1.475580E+02	  0.064689375	1.752300E+01	  0.064689375	-1.288300E+01
225	  0.064889781	-5.882000E+00	  0.064889781	-1.486780E+02	  0.064889781	1.744700E+01	  0.064889781	-1.242100E+01
226	  0.065090179	-5.884000E+00	  0.065090179	-1.497900E+02	  0.065090179	1.737000E+01	  0.065090179	-1.196500E+01
227	  0.065290578	-5.884000E+00	  0.065290578	-1.508860E+02	  0.065290578	1.729300E+01	  0.065290578	-1.151800E+01
228	  0.065490983	-5.884000E+00	  0.065490983	-1.520130E+02	  0.065490983	1.721700E+01	  0.065490983	-1.106000E+01
229	  0.065691382	-5.886000E+00	  0.065691382	-1.530930E+02	  0.065691382	1.715100E+01	  0.065691382	-1.062100E+01
230	  0.065891780	-5.891000E+00	  0.065891780	-1.541960E+02	  0.065891780	1.709700E+01	  0.065891780	-1.017300E+01
231	  0.066092186	-5.890000E+00	  0.066092186	-1.552600E+02	  0.066092186	1.703000E+01	  0.066092186	-9.745000E+00
232	  0.066292584	-5.889000E+00	  0.066292584	-1.563600E+02	  0.066292584	1.696500E+01	  0.066292584	-9.304000E+00
233	  0.066492982	-5.892000E+00	  0.066492982	-1.574280E+02	  0.066492982	1.691500E+01	  0.066492982	-8.875000E+00
234	  0.066693388	-5.896000E+00	  0.066693388	-1.585220E+02	  0.066693388	1.687200E+01	  0.066693388	-8.436000E+00
235	  0.066893786	-5.899000E+00	  0.066893786	-1.595760E+02	  0.066893786	1.682800E+01	  0.066893786	-8.015000E+00
236	  0.067094192	-5.902000E+00	  0.067094192	-1.606290E+02	  0.067094192	1.678900E+01	  0.067094192	-7.595000E+00
237	  0.067294590	-5.907000E+00	  0.067294590	-1.616760E+02	  0.067294590	1.675500E+01	  0.067294590	-7.178000E+00
238	  0.067494988	-5.908000E+00	  0.067494988	-1.627780E+02	  0.067494988	1.671400E+01	  0.067494988	-6.742000E+00
239	  0.067695394	-5.910000E+00	  0.067695394	-1.638080E+02	  0.067695394	1.668000E+01	  0.067695394	-6.334000E+00
240	  0.067895792	-5.917000E+00	  0.067895792	-1.648480E+02	  0.067895792	1.666000E+01	  0.067895792	-5.922000E+00
241	  0.068096191	-5.916000E+00	  0.068096191	-1.659090E+02	  0.068096191	1.662300E+01	  0.068096191	-5.505000E+00
242	  0.068296596	-5.921000E+00	  0.068296596	-1.669540E+02	  0.068296596	1.660300E+01	  0.068296596	-5.093000E+00
243	  0.068496995	-5.927000E+00	  0.068496995	-1.679980E+02	  0.068496995	1.659000E+01	  0.068496995	-4.682000E+00
244	  0.068697393	-5.929000E+00	  0.068697393	-1.690320E+02	  0.068697393	1.656800E+01	  0.068697393	-4.277000E+00
245	  0.068897791	-5.930000E+00	  0.068897791	-1.700630E+02	  0.068897791	1.654600E+01	  0.068897791	-3.873000E+00
246	  0.069098189	-5.934000E+00	  0.069098189	-1.710920E+02	  0.069098189	1.653400E+01	  0.069098189	-3.470000E+00
247	  0.069298595	-5.938000E+00	  0.069298595	-1.721370E+02	  0.069298595	1.652600E+01	  0.069298595	-3.062000E+00
248	  0.069498993	-5.939000E+00	  0.069498993	-1.731490E+02	  0.069498993	1.651000E+01	  0.069498993	-2.667000E+00
249	  0.069699399	-5.943000E+00	  0.069699399	-1.742130E+02	  0.069699399	1.650500E+01	  0.069699399	-2.252000E+00
250	  0.069899797	-5.946000E+00	  0.069899797	-1.752080E+02	  0.069899797	1.650100E+01	  0.069899797	-1.864000E+00
251	  0.070100196	-5.949000E+00	  0.070100196	-1.762080E+02	  0.070100196	1.650100E+01	  0.070100196	-1.474000E+00
252	  0.070300601	-5.957000E+00	  0.070300601	-1.772150E+02	  0.070300601	1.651400E+01	  0.070300601	-1.082000E+00
253	  0.070501000	-5.960000E+00	  0.070501000	-1.782290E+02	  0.070501000	1.651600E+01	  0.070501000	-6.880000E-01
254	  0.070701398	-5.963000E+00	  0.070701398	-1.792200E+02	  0.070701398	1.652000E+01	  0.070701398	-3.020000E-01
255	  0.070901804	-5.964000E+00	  0.070901804	1.798060E+02	  0.070901804	1.652300E+01	  0.070901804	7.500000E-02
256	  0.071102202	-5.967000E+00	  0.071102202	1.787910E+02	  0.071102202	1.653300E+01	  0.071102202	4.690000E-01
257	  0.071302600	-5.972000E+00	  0.071302600	1.778050E+02	  0.071302600	1.654800E+01	  0.071302600	8.520000E-01
258	  0.071503006	-5.976000E+00	  0.071503006	1.768090E+02	  0.071503006	1.656600E+01	  0.071503006	1.239000E+00
259	  0.071703404	-5.983000E+00	  0.071703404	1.758370E+02	  0.071703404	1.659000E+01	  0.071703404	1.617000E+00
260	  0.071903802	-5.988000E+00	  0.071903802	1.748670E+02	  0.071903802	1.661300E+01	  0.071903802	1.994000E+00
261	  0.072104208	-5.994000E+00	  0.072104208	1.738820E+02	  0.072104208	1.664300E+01	  0.072104208	2.376000E+00
262	  0.072304606	-5.997000E+00	  0.072304606	1.729320E+02	  0.072304606	1.666500E+01	  0.072304606	2.745000E+00
263	  0.072505005	-6.001000E+00	  0.072505005	1.719560E+02	  0.072505005	1.669100E+01	  0.072505005	3.125000E+00
264	  0.072705410	-6.011000E+00	  0.072705410	1.710120E+02	  0.072705410	1.673300E+01	  0.072705410	3.492000E+00
265	  0.072905809	-6.017000E+00	  0.072905809	1.700470E+02	  0.072905809	1.676900E+01	  0.072905809	3.867000E+00
266	  0.073106214	-6.023000E+00	  0.073106214	1.690920E+02	  0.073106214	1.680800E+01	  0.073106214	4.238000E+00
267	  0.073306613	-6.027000E+00	  0.073306613	1.681410E+02	  0.073306613	1.684300E+01	  0.073306613	4.609000E+00
268	  0.073507011	-6.037000E+00	  0.073507011	1.671960E+02	  0.073507011	1.689700E+01	  0.073507011	4.976000E+00
269	  0.073707417	-6.049000E+00	  0.073707417	1.662430E+02	  0.073707417	1.695600E+01	  0.073707417	5.346000E+00
270	  0.073907815	-6.055000E+00	  0.073907815	1.653000E+02	  0.073907815	1.700300E+01	  0.073907815	5.714000E+00
271	  0.074108213	-6.059000E+00	  0.074108213	1.643620E+02	  0.074108213	1.704600E+01	  0.074108213	6.080000E+00
272	  0.074308619	-6.067000E+00	  0.074308619	1.634510E+02	  0.074308619	1.710100E+01	  0.074308619	6.436000E+00
273	  0.074509017	-6.074000E+00	  0.074509017	1.624960E+02	  0.074509017	1.715600E+01	  0.074509017	6.809000E+00
274	  0.074709415	-6.083000E+00	  0.074709415	1.615510E+02	  0.074709415	1.721800E+01	  0.074709415	7.178000E+00
275	  0.074909821	-6.091000E+00	  0.074909821	1.606430E+02	  0.074909821	1.728000E+01	  0.074909821	7.534000E+00
276	  0.075110219	-6.103000E+00	  0.075110219	1.597140E+02	  0.075110219	1.735500E+01	  0.075110219	7.896000E+00
277	  0.075310618	-6.111000E+00	  0.075310618	1.587790E+02	  0.075310618	1.742200E+01	  0.075310618	8.263000E+00
278	  0.075511023	-6.118000E+00	  0.075511023	1.578870E+02	  0.075511023	1.748500E+01	  0.075511023	8.614000E+00
279	  0.075711422	-6.124000E+00	  0.075711422	1.569860E+02	  0.075711422	1.754900E+01	  0.075711422	8.969000E+00
280	  0.075911827	-6.133000E+00	  0.075911827	1.560750E+02	  0.075911827	1.762300E+01	  0.075911827	9.327000E+00
281	  0.076112226	-6.139000E+00	  0.076112226	1.551540E+02	  0.076112226	1.769500E+01	  0.076112226	9.690000E+00
282	  0.076312624	-6.148000E+00	  0.076312624	1.542430E+02	  0.076312624	1.777500E+01	  0.076312624	1.005000E+01
283	  0.076513030	-6.164000E+00	  0.076513030	1.533270E+02	  0.076513030	1.787500E+01	  0.076513030	1.040900E+01
284	  0.076713428	-6.170000E+00	  0.076713428	1.524420E+02	  0.076713428	1.794800E+01	  0.076713428	1.076000E+01
285	  0.076913826	-6.179000E+00	  0.076913826	1.515330E+02	  0.076913826	1.803400E+01	  0.076913826	1.112000E+01
286	  0.077114232	-6.190000E+00	  0.077114232	1.506300E+02	  0.077114232	1.812800E+01	  0.077114232	1.147800E+01
287	  0.077314630	-6.203000E+00	  0.077314630	1.497450E+02	  0.077314630	1.822800E+01	  0.077314630	1.182800E+01
288	  0.077515028	-6.209000E+00	  0.077515028	1.488730E+02	  0.077515028	1.831000E+01	  0.077515028	1.217600E+01
289	  0.077715434	-6.220000E+00	  0.077715434	1.479740E+02	  0.077715434	1.841100E+01	  0.077715434	1.253400E+01
290	  0.077915832	-6.230000E+00	  0.077915832	1.470690E+02	  0.077915832	1.851300E+01	  0.077915832	1.289400E+01
291	  0.078116231	-6.241000E+00	  0.078116231	1.461980E+02	  0.078116231	1.861500E+01	  0.078116231	1.324200E+01
292	  0.078316636	-6.253000E+00	  0.078316636	1.453130E+02	  0.078316636	1.872500E+01	  0.078316636	1.359500E+01
293	  0.078517035	-6.260000E+00	  0.078517035	1.444430E+02	  0.078517035	1.882300E+01	  0.078517035	1.394600E+01
294	  0.078717433	-6.275000E+00	  0.078717433	1.435500E+02	  0.078717433	1.894500E+01	  0.078717433	1.430200E+01
295	  0.078917839	-6.287000E+00	  0.078917839	1.426720E+02	  0.078917839	1.906300E+01	  0.078917839	1.465400E+01
296	  0.079118237	-6.298000E+00	  0.079118237	1.418360E+02	  0.079118237	1.917600E+01	  0.079118237	1.499100E+01
297	  0.079318643	-6.310000E+00	  0.079318643	1.409520E+02	  0.079318643	1.929800E+01	  0.079318643	1.534700E+01
298	  0.079519041	-6.327000E+00	  0.079519041	1.401150E+02	  0.079519041	1.943200E+01	  0.079519041	1.568100E+01
299	  0.079719439	-6.334000E+00	  0.079719439	1.392550E+02	  0.079719439	1.954400E+01	  0.079719439	1.603100E+01
300	  0.079919845	-6.349000E+00	  0.079919845	1.383860E+02	  0.079919845	1.968100E+01	  0.079919845	1.638100E+01
301	  0.080120243	-6.363000E+00	  0.080120243	1.375340E+02	  0.080120243	1.981600E+01	  0.080120243	1.672600E+01
302	  0.080320641	-6.376000E+00	  0.080320641	1.366590E+02	  0.080320641	1.995400E+01	  0.080320641	1.708100E+01
303	  0.080521047	-6.391000E+00	  0.080521047	1.358270E+02	  0.080521047	2.009800E+01	  0.080521047	1.741600E+01
304	  0.080721445	-6.401000E+00	  0.080721445	1.349730E+02	  0.080721445	2.023200E+01	  0.080721445	1.776600E+01
305	  0.080921844	-6.415000E+00	  0.080921844	1.341370E+02	  0.080921844	2.037500E+01	  0.080921844	1.810600E+01
306	  0.081122249	-6.434000E+00	  0.081122249	1.332890E+02	  0.081122249	2.054000E+01	  0.081122249	1.844700E+01
307	  0.081322648	-6.446000E+00	  0.081322648	1.324740E+02	  0.081322648	2.068100E+01	  0.081322648	1.878100E+01
308	  0.081523046	-6.460000E+00	  0.081523046	1.316150E+02	  0.081523046	2.083800E+01	  0.081523046	1.913300E+01
309	  0.081723452	-6.474000E+00	  0.081723452	1.307580E+02	  0.081723452	2.099900E+01	  0.081723452	1.948400E+01
310	  0.081923850	-6.489000E+00	  0.081923850	1.299400E+02	  0.081923850	2.115800E+01	  0.081923850	1.981800E+01
311	  0.082124248	-6.503000E+00	  0.082124248	1.291170E+02	  0.082124248	2.132100E+01	  0.082124248	2.015600E+01
312	  0.082324654	-6.517000E+00	  0.082324654	1.282660E+02	  0.082324654	2.148900E+01	  0.082324654	2.050700E+01
313	  0.082525052	-6.537000E+00	  0.082525052	1.274550E+02	  0.082525052	2.167200E+01	  0.082525052	2.083500E+01
314	  0.082725458	-6.553000E+00	  0.082725458	1.266750E+02	  0.082725458	2.184100E+01	  0.082725458	2.115400E+01
315	  0.082925856	-6.566000E+00	  0.082925856	1.258700E+02	  0.082925856	2.201200E+01	  0.082925856	2.148700E+01
316	  0.083126254	-6.586000E+00	  0.083126254	1.250490E+02	  0.083126254	2.220500E+01	  0.083126254	2.182100E+01
317	  0.083326660	-6.602000E+00	  0.083326660	1.242320E+02	  0.083326660	2.239200E+01	  0.083326660	2.215600E+01
318	  0.083527058	-6.619000E+00	  0.083527058	1.234020E+02	  0.083527058	2.258400E+01	  0.083527058	2.249900E+01
319	  0.083727457	-6.641000E+00	  0.083727457	1.226490E+02	  0.083727457	2.278300E+01	  0.083727457	2.280100E+01
320	  0.083927862	-6.655000E+00	  0.083927862	1.218440E+02	  0.083927862	2.297300E+01	  0.083927862	2.313500E+01
321	  0.084128261	-6.677000E+00	  0.084128261	1.210260E+02	  0.084128261	2.318900E+01	  0.084128261	2.346700E+01
322	  0.084328659	-6.699000E+00	  0.084328659	1.202840E+02	  0.084328659	2.339600E+01	  0.084328659	2.376400E+01
323	  0.084529065	-6.723000E+00	  0.084529065	1.194860E+02	  0.084529065	2.362000E+01	  0.084529065	2.408500E+01
324	  0.084729463	-6.742000E+00	  0.084729463	1.187070E+02	  0.084729463	2.383200E+01	  0.084729463	2.440300E+01
325	  0.084929854	-6.760000E+00	  0.084929854	1.179210E+02	  0.084929854	2.404700E+01	  0.084929854	2.472500E+01
326	  0.085130259	-6.778000E+00	  0.085130259	1.171020E+02	  0.085130259	2.427200E+01	  0.085130259	2.506300E+01
327	  0.085330658	-6.804000E+00	  0.085330658	1.163010E+02	  0.085330658	2.451900E+01	  0.085330658	2.538200E+01
328	  0.085531056	-6.825000E+00	  0.085531056	1.155280E+02	  0.085531056	2.475100E+01	  0.085531056	2.569400E+01
329	  0.085731462	-6.846000E+00	  0.085731462	1.147530E+02	  0.085731462	2.498700E+01	  0.085731462	2.600800E+01
330	  0.085931860	-6.866000E+00	  0.085931860	1.139940E+02	  0.085931860	2.522000E+01	  0.085931860	2.631600E+01
331	  0.086132258	-6.890000E+00	  0.086132258	1.132590E+02	  0.086132258	2.546300E+01	  0.086132258	2.660700E+01
332	  0.086332664	-6.913000E+00	  0.086332664	1.124950E+02	  0.086332664	2.571300E+01	  0.086332664	2.691200E+01
333	  0.086533062	-6.939000E+00	  0.086533062	1.117330E+02	  0.086533062	2.597500E+01	  0.086533062	2.721200E+01
334	  0.086733460	-6.962000E+00	  0.086733460	1.109630E+02	  0.086733460	2.623400E+01	  0.086733460	2.752000E+01
335	  0.086933866	-6.984000E+00	  0.086933866	1.102350E+02	  0.086933866	2.648600E+01	  0.086933866	2.780900E+01
336	  0.087134264	-7.009000E+00	  0.087134264	1.094640E+02	  0.087134264	2.676100E+01	  0.087134264	2.811200E+01
337	  0.087334670	-7.032000E+00	  0.087334670	1.087070E+02	  0.087334670	2.702900E+01	  0.087334670	2.841200E+01
338	  0.087535068	-7.062000E+00	  0.087535068	1.079910E+02	  0.087535068	2.731100E+01	  0.087535068	2.868100E+01
339	  0.087735467	-7.083000E+00	  0.087735467	1.072430E+02	  0.087735467	2.758100E+01	  0.087735467	2.897900E+01
340	  0.087935872	-7.116000E+00	  0.087935872	1.065220E+02	  0.087935872	2.788000E+01	  0.087935872	2.924300E+01
341	  0.088136271	-7.141000E+00	  0.088136271	1.057970E+02	  0.088136271	2.816300E+01	  0.088136271	2.952200E+01
342	  0.088336669	-7.164000E+00	  0.088336669	1.050710E+02	  0.088336669	2.844700E+01	  0.088336669	2.980200E+01
343	  0.088537075	-7.189000E+00	  0.088537075	1.043400E+02	  0.088537075	2.873900E+01	  0.088537075	3.008200E+01
344	  0.088737473	-7.212000E+00	  0.088737473	1.036290E+02	  0.088737473	2.902300E+01	  0.088737473	3.035700E+01
345	  0.088937871	-7.232000E+00	  0.088937871	1.029260E+02	  0.088937871	2.930200E+01	  0.088937871	3.063200E+01
346	  0.089138277	-7.262000E+00	  0.089138277	1.022190E+02	  0.089138277	2.961300E+01	  0.089138277	3.088800E+01
347	  0.089338675	-7.284000E+00	  0.089338675	1.015330E+02	  0.089338675	2.989900E+01	  0.089338675	3.115000E+01
348	  0.089539073	-7.314000E+00	  0.089539073	1.008580E+02	  0.089539073	3.021100E+01	  0.089539073	3.138700E+01
349	  0.089739479	-7.339000E+00	  0.089739479	1.001690E+02	  0.089739479	3.051400E+01	  0.089739479	3.164200E+01
350	  0.089939877	-7.364000E+00	  0.089939877	9.948100E+01	  0.089939877	3.082300E+01	  0.089939877	3.189400E+01
351	  0.090140276	-7.389000E+00	  0.090140276	9.881000E+01	  0.090140276	3.112700E+01	  0.090140276	3.213900E+01
352	  0.090340681	-7.412000E+00	  0.090340681	9.814300E+01	  0.090340681	3.143200E+01	  0.090340681	3.238200E+01
353	  0.090541080	-7.441000E+00	  0.090541080	9.745100E+01	  0.090541080	3.176400E+01	  0.090541080	3.262400E+01
354	  0.090741485	-7.466000E+00	  0.090741485	9.680400E+01	  0.090741485	3.207300E+01	  0.090741485	3.285200E+01
355	  0.090941884	-7.494000E+00	  0.090941884	9.612600E+01	  0.090941884	3.240900E+01	  0.090941884	3.308300E+01
356	  0.091142282	-7.524000E+00	  0.091142282	9.549200E+01	  0.091142282	3.273300E+01	  0.091142282	3.329200E+01
357	  0.091342688	-7.550000E+00	  0.091342688	9.483300E+01	  0.091342688	3.306400E+01	  0.091342688	3.351600E+01
358	  0.091543086	-7.578000E+00	  0.091543086	9.415300E+01	  0.091543086	3.341100E+01	  0.091543086	3.374300E+01
359	  0.091743484	-7.607000E+00	  0.091743484	9.354100E+01	  0.091743484	3.373800E+01	  0.091743484	3.393600E+01
360	  0.091943890	-7.635000E+00	  0.091943890	9.285300E+01	  0.091943890	3.409400E+01	  0.091943890	3.416500E+01
361	  0.092144288	-7.663000E+00	  0.092144288	9.220100E+01	  0.092144288	3.444100E+01	  0.092144288	3.437400E+01
362	  0.092344686	-7.685000E+00	  0.092344686	9.152000E+01	  0.092344686	3.478900E+01	  0.092344686	3.460900E+01
363	  0.092545092	-7.721000E+00	  0.092545092	9.089100E+01	  0.092545092	3.515800E+01	  0.092545092	3.478100E+01
364	  0.092745490	-7.744000E+00	  0.092745490	9.024800E+01	  0.092745490	3.550200E+01	  0.092745490	3.499100E+01
365	  0.092945889	-7.778000E+00	  0.092945889	8.962400E+01	  0.092945889	3.587100E+01	  0.092945889	3.516100E+01
366	  0.093146294	-7.807000E+00	  0.093146294	8.900200E+01	  0.093146294	3.622800E+01	  0.093146294	3.534100E+01
367	  0.093346693	-7.831000E+00	  0.093346693	8.835500E+01	  0.093346693	3.658700E+01	  0.093346693	3.554400E+01
368	  0.093547091	-7.866000E+00	  0.093547091	8.775200E+01	  0.093547091	3.695800E+01	  0.093547091	3.569500E+01
369	  0.093747497	-7.890000E+00	  0.093747497	8.710400E+01	  0.093747497	3.732600E+01	  0.093747497	3.589200E+01
370	  0.093947895	-7.920000E+00	  0.093947895	8.648900E+01	  0.093947895	3.769900E+01	  0.093947895	3.605500E+01
371	  0.094148301	-7.953000E+00	  0.094148301	8.586400E+01	  0.094148301	3.808700E+01	  0.094148301	3.620900E+01
372	  0.094348699	-7.984000E+00	  0.094348699	8.525700E+01	  0.094348699	3.846500E+01	  0.094348699	3.635900E+01
373	  0.094549097	-8.016000E+00	  0.094549097	8.466100E+01	  0.094549097	3.884300E+01	  0.094549097	3.649900E+01
374	  0.094749503	-8.043000E+00	  0.094749503	8.406300E+01	  0.094749503	3.921500E+01	  0.094749503	3.665000E+01
375	  0.094949901	-8.075000E+00	  0.094949901	8.346100E+01	  0.094949901	3.960200E+01	  0.094949901	3.678700E+01
376	  0.095150299	-8.100000E+00	  0.095150299	8.286800E+01	  0.095150299	3.997200E+01	  0.095150299	3.693700E+01
377	  0.095350705	-8.137000E+00	  0.095350705	8.228700E+01	  0.095350705	4.036900E+01	  0.095350705	3.703900E+01
378	  0.095551103	-8.165000E+00	  0.095551103	8.166900E+01	  0.095551103	4.076600E+01	  0.095551103	3.718200E+01
379	  0.095751502	-8.193000E+00	  0.095751502	8.109700E+01	  0.095751502	4.114100E+01	  0.095751502	3.730600E+01
380	  0.095951907	-8.226000E+00	  0.095951907	8.053700E+01	  0.095951907	4.152800E+01	  0.095951907	3.740000E+01
381	  0.096152306	-8.258000E+00	  0.096152306	7.997500E+01	  0.096152306	4.191300E+01	  0.096152306	3.749700E+01
382	  0.096352704	-8.288000E+00	  0.096352704	7.937700E+01	  0.096352704	4.231800E+01	  0.096352704	3.761100E+01
383	  0.096553110	-8.319000E+00	  0.096553110	7.882900E+01	  0.096553110	4.269800E+01	  0.096553110	3.770000E+01
384	  0.096753508	-8.347000E+00	  0.096753508	7.826900E+01	  0.096753508	4.308300E+01	  0.096753508	3.779700E+01
385	  0.096953906	-8.381000E+00	  0.096953906	7.774700E+01	  0.096953906	4.346100E+01	  0.096953906	3.785800E+01
386	  0.097154312	-8.411000E+00	  0.097154312	7.719800E+01	  0.097154312	4.384800E+01	  0.097154312	3.793900E+01
387	  0.097354710	-8.439000E+00	  0.097354710	7.668200E+01	  0.097354710	4.421300E+01	  0.097354710	3.801200E+01
388	  0.097555116	-8.474000E+00	  0.097555116	7.616700E+01	  0.097555116	4.459700E+01	  0.097555116	3.805200E+01
389	  0.097755514	-8.503000E+00	  0.097755514	7.564000E+01	  0.097755514	4.497600E+01	  0.097755514	3.811800E+01
390	  0.097955912	-8.536000E+00	  0.097955912	7.513300E+01	  0.097955912	4.535400E+01	  0.097955912	3.815500E+01
391	  0.098156318	-8.568000E+00	  0.098156318	7.463700E+01	  0.098156318	4.572300E+01	  0.098156318	3.819300E+01
392	  0.098356716	-8.601000E+00	  0.098356716	7.414200E+01	  0.098356716	4.609700E+01	  0.098356716	3.821800E+01
393	  0.098557115	-8.626000E+00	  0.098557115	7.365800E+01	  0.098557115	4.644900E+01	  0.098557115	3.827000E+01
394	  0.098757520	-8.658000E+00	  0.098757520	7.316700E+01	  0.098757520	4.682100E+01	  0.098757520	3.829000E+01
395	  0.098957919	-8.689000E+00	  0.098957919	7.267300E+01	  0.098957919	4.719400E+01	  0.098957919	3.831300E+01
396	  0.099158317	-8.715000E+00	  0.099158317	7.219700E+01	  0.099158317	4.754700E+01	  0.099158317	3.834800E+01
397	  0.099358723	-8.743000E+00	  0.099358723	7.172600E+01	  0.099358723	4.790300E+01	  0.099358723	3.836900E+01
398	  0.099559121	-8.772000E+00	  0.099559121	7.126600E+01	  0.099559121	4.825400E+01	  0.099559121	3.838000E+01
399	  0.099759519	-8.803000E+00	  0.099759519	7.081700E+01	  0.099759519	4.860300E+01	  0.099759519	3.837600E+01
400	  0.099959925	-8.826000E+00	  0.099959925	7.037900E+01	  0.099959925	4.893200E+01	  0.099959925	3.839900E+01
401	  0.100160323	-8.855000E+00	  0.100160323	6.989500E+01	  0.100160323	4.930200E+01	  0.100160323	3.840500E+01
402	  0.100360721	-8.875000E+00	  0.100360721	6.951100E+01	  0.100360721	4.959400E+01	  0.100360721	3.841800E+01
403	  0.100561127	-8.899000E+00	  0.100561127	6.903000E+01	  0.100561127	4.995500E+01	  0.100561127	3.844000E+01
404	  0.100761525	-8.930000E+00	  0.100761525	6.860300E+01	  0.100761525	5.029400E+01	  0.100761525	3.841300E+01
405	  0.100961931	-8.944000E+00	  0.100961931	6.818400E+01	  0.100961931	5.060100E+01	  0.100961931	3.845400E+01
406	  0.101162329	-8.967000E+00	  0.101162329	6.773500E+01	  0.101162329	5.094500E+01	  0.101162329	3.845800E+01
407	  0.101362728	-8.990000E+00	  0.101362728	6.730000E+01	  0.101362728	5.128000E+01	  0.101362728	3.845800E+01
408	  0.101563133	-9.021000E+00	  0.101563133	6.685900E+01	  0.101563133	5.163100E+01	  0.101563133	3.842100E+01
409	  0.101763532	-9.035000E+00	  0.101763532	6.647100E+01	  0.101763532	5.192100E+01	  0.101763532	3.844500E+01
410	  0.101963930	-9.058000E+00	  0.101963930	6.610400E+01	  0.101963930	5.221200E+01	  0.101963930	3.841800E+01
411	  0.102164328	-9.074000E+00	  0.102164328	6.565000E+01	  0.102164328	5.255300E+01	  0.102164328	3.844400E+01
412	  0.102364726	-9.094000E+00	  0.102364726	6.519700E+01	  0.102364726	5.290100E+01	  0.102364726	3.844700E+01
413	  0.102565125	-9.108000E+00	  0.102565125	6.480700E+01	  0.102565125	5.319800E+01	  0.102565125	3.845600E+01
414	  0.102765530	-9.129000E+00	  0.102765530	6.439300E+01	  0.102765530	5.352200E+01	  0.102765530	3.844100E+01
415	  0.102965929	-9.140000E+00	  0.102965929	6.401300E+01	  0.102965929	5.381000E+01	  0.102965929	3.846000E+01
416	  0.103166327	-9.152000E+00	  0.103166327	6.359400E+01	  0.103166327	5.412800E+01	  0.103166327	3.848200E+01
417	  0.103366733	-9.162000E+00	  0.103366733	6.318400E+01	  0.103366733	5.443800E+01	  0.103366733	3.851000E+01
418	  0.103567131	-9.177000E+00	  0.103567131	6.276300E+01	  0.103567131	5.476400E+01	  0.103567131	3.851000E+01
419	  0.103767529	-9.185000E+00	  0.103767529	6.232700E+01	  0.103767529	5.509600E+01	  0.103767529	3.854300E+01
420	  0.103967935	-9.191000E+00	  0.103967935	6.189600E+01	  0.103967935	5.542300E+01	  0.103967935	3.858500E+01
421	  0.104168333	-9.198000E+00	  0.104168333	6.152400E+01	  0.104168333	5.570900E+01	  0.104168333	3.860900E+01
422	  0.104368731	-9.208000E+00	  0.104368731	6.113300E+01	  0.104368731	5.601400E+01	  0.104368731	3.861500E+01
423	  0.104569137	-9.214000E+00	  0.104569137	6.068400E+01	  0.104569137	5.636000E+01	  0.104569137	3.865100E+01
424	  0.104769535	-9.215000E+00	  0.104769535	6.031400E+01	  0.104769535	5.664200E+01	  0.104769535	3.870100E+01
425	  0.104969934	-9.225000E+00	  0.104969934	5.982600E+01	  0.104969934	5.702600E+01	  0.104969934	3.871300E+01
426	  0.105170339	-9.223000E+00	  0.105170339	5.937000E+01	  0.105170339	5.737700E+01	  0.105170339	3.878200E+01
427	  0.105370738	-9.234000E+00	  0.105370738	5.899000E+01	  0.105370738	5.768200E+01	  0.105370738	3.877000E+01
428	  0.105571143	-9.229000E+00	  0.105571143	5.852000E+01	  0.105571143	5.804700E+01	  0.105571143	3.885000E+01
429	  0.105771542	-9.230000E+00	  0.105771542	5.806600E+01	  0.105771542	5.840600E+01	  0.105771542	3.889600E+01
430	  0.105971940	-9.237000E+00	  0.105971940	5.760000E+01	  0.105971940	5.878100E+01	  0.105971940	3.890800E+01
431	  0.106172346	-9.230000E+00	  0.106172346	5.717200E+01	  0.106172346	5.912000E+01	  0.106172346	3.898600E+01
432	  0.106372744	-9.230000E+00	  0.106372744	5.673200E+01	  0.106372744	5.947600E+01	  0.106372744	3.902100E+01
433	  0.106573142	-9.226000E+00	  0.106573142	5.628500E+01	  0.106573142	5.983700E+01	  0.106573142	3.908100E+01
434	  0.106773548	-9.218000E+00	  0.106773548	5.579500E+01	  0.106773548	6.023400E+01	  0.106773548	3.916000E+01
435	  0.106973946	-9.212000E+00	  0.106973946	5.533800E+01	  0.106973946	6.061000E+01	  0.106973946	3.922200E+01
436	  0.107174344	-9.206000E+00	  0.107174344	5.485100E+01	  0.107174344	6.101300E+01	  0.107174344	3.928500E+01
437	  0.107374750	-9.203000E+00	  0.107374750	5.434400E+01	  0.107374750	6.143800E+01	  0.107374750	3.932600E+01
438	  0.107575148	-9.194000E+00	  0.107575148	5.388300E+01	  0.107575148	6.182600E+01	  0.107575148	3.940100E+01
439	  0.107775547	-9.182000E+00	  0.107775547	5.336700E+01	  0.107775547	6.226400E+01	  0.107775547	3.948700E+01
440	  0.107975952	-9.178000E+00	  0.107975952	5.289800E+01	  0.107975952	6.266700E+01	  0.107975952	3.952000E+01
441	  0.108176351	-9.174000E+00	  0.108176351	5.237900E+01	  0.108176351	6.311700E+01	  0.108176351	3.955600E+01
442	  0.108376749	-9.165000E+00	  0.108376749	5.179600E+01	  0.108376749	6.362700E+01	  0.108376749	3.961000E+01
443	  0.108577155	-9.158000E+00	  0.108577155	5.134900E+01	  0.108577155	6.402200E+01	  0.108577155	3.964900E+01
444	  0.108777553	-9.153000E+00	  0.108777553	5.082500E+01	  0.108777553	6.448800E+01	  0.108777553	3.967700E+01
445	  0.108977959	-9.139000E+00	  0.108977959	5.022900E+01	  0.108977959	6.502500E+01	  0.108977959	3.974400E+01
446	  0.109178357	-9.141000E+00	  0.109178357	4.967300E+01	  0.109178357	6.552800E+01	  0.109178357	3.971700E+01
447	  0.109378755	-9.130000E+00	  0.109378755	4.914500E+01	  0.109378755	6.601300E+01	  0.109378755	3.976000E+01
448	  0.109579161	-9.114000E+00	  0.109579161	4.856600E+01	  0.109579161	6.655100E+01	  0.109579161	3.982400E+01
449	  0.109779559	-9.108000E+00	  0.109779559	4.796600E+01	  0.109779559	6.711200E+01	  0.109779559	3.982400E+01
450	  0.109979957	-9.097000E+00	  0.109979957	4.738900E+01	  0.109979957	6.765800E+01	  0.109979957	3.984600E+01
451	  0.110180363	-9.095000E+00	  0.110180363	4.681500E+01	  0.110180363	6.820100E+01	  0.110180363	3.980600E+01
452	  0.110380761	-9.091000E+00	  0.110380761	4.616100E+01	  0.110380761	6.882700E+01	  0.110380761	3.976300E+01
453	  0.110581160	-9.080000E+00	  0.110581160	4.554600E+01	  0.110581160	6.942500E+01	  0.110581160	3.975400E+01
454	  0.110781565	-9.076000E+00	  0.110781565	4.494000E+01	  0.110781565	7.001500E+01	  0.110781565	3.969600E+01
455	  0.110981964	-9.061000E+00	  0.110981964	4.433200E+01	  0.110981964	7.062100E+01	  0.110981964	3.970100E+01
456	  0.111182362	-9.057000E+00	  0.111182362	4.367000E+01	  0.111182362	7.127600E+01	  0.111182362	3.961500E+01
457	  0.111382768	-9.047000E+00	  0.111382768	4.305000E+01	  0.111382768	7.190200E+01	  0.111382768	3.956700E+01
458	  0.111583166	-9.047000E+00	  0.111583166	4.237800E+01	  0.111583166	7.257200E+01	  0.111583166	3.943500E+01
459	  0.111783572	-9.047000E+00	  0.111783572	4.172000E+01	  0.111783572	7.323000E+01	  0.111783572	3.928600E+01
460	  0.111983970	-9.036000E+00	  0.111983970	4.099400E+01	  0.111983970	7.398000E+01	  0.111983970	3.918700E+01
461	  0.112184368	-9.039000E+00	  0.112184368	4.032600E+01	  0.112184368	7.465300E+01	  0.112184368	3.899100E+01
462	  0.112384774	-9.033000E+00	  0.112384774	3.961000E+01	  0.112384774	7.539400E+01	  0.112384774	3.883300E+01
463	  0.112585172	-9.030000E+00	  0.112585172	3.894500E+01	  0.112585172	7.608100E+01	  0.112585172	3.865000E+01
464	  0.112785570	-9.024000E+00	  0.112785570	3.822400E+01	  0.112785570	7.683500E+01	  0.112785570	3.845400E+01
465	  0.112985976	-9.022000E+00	  0.112985976	3.749400E+01	  0.112985976	7.759500E+01	  0.112985976	3.821800E+01
466	  0.113186374	-9.021000E+00	  0.113186374	3.676800E+01	  0.113186374	7.834900E+01	  0.113186374	3.794900E+01
467	  0.113386773	-9.023000E+00	  0.113386773	3.599300E+01	  0.113386773	7.914900E+01	  0.113386773	3.763100E+01
468	  0.113587178	-9.019000E+00	  0.113587178	3.524700E+01	  0.113587178	7.993500E+01	  0.113587178	3.734000E+01
469	  0.113787577	-9.030000E+00	  0.113787577	3.445800E+01	  0.113787577	8.072700E+01	  0.113787577	3.691600E+01
470	  0.113987975	-9.030000E+00	  0.113987975	3.363900E+01	  0.113987975	8.157700E+01	  0.113987975	3.652200E+01
471	  0.114188381	-9.027000E+00	  0.114188381	3.289000E+01	  0.114188381	8.236600E+01	  0.114188381	3.616200E+01
472	  0.114388779	-9.034000E+00	  0.114388779	3.208500E+01	  0.114388779	8.317700E+01	  0.114388779	3.568500E+01
473	  0.114589177	-9.039000E+00	  0.114589177	3.125400E+01	  0.114589177	8.401800E+01	  0.114589177	3.518300E+01
474	  0.114789583	-9.045000E+00	  0.114789583	3.049300E+01	  0.114789583	8.477800E+01	  0.114789583	3.469200E+01
475	  0.114989981	-9.051000E+00	  0.114989981	2.960700E+01	  0.114989981	8.565700E+01	  0.114989981	3.409300E+01
476	  0.115190387	-9.060000E+00	  0.115190387	2.878200E+01	  0.115190387	8.645800E+01	  0.115190387	3.349300E+01
477	  0.115390785	-9.074000E+00	  0.115390785	2.790900E+01	  0.115390785	8.727000E+01	  0.115390785	3.279700E+01
478	  0.115591183	-9.081000E+00	  0.115591183	2.703500E+01	  0.115591183	8.810500E+01	  0.115591183	3.211900E+01
479	  0.115791589	-9.099000E+00	  0.115791589	2.617100E+01	  0.115791589	8.886600E+01	  0.115791589	3.135700E+01
480	  0.115991987	-9.110000E+00	  0.115991987	2.527500E+01	  0.115991987	8.967500E+01	  0.115991987	3.058200E+01
481	  0.116192386	-9.134000E+00	  0.116192386	2.435000E+01	  0.116192386	9.041800E+01	  0.116192386	2.967000E+01
482	  0.116392791	-9.145000E+00	  0.116392791	2.344600E+01	  0.116392791	9.119400E+01	  0.116392791	2.883100E+01
483	  0.116593190	-9.164000E+00	  0.116593190	2.248600E+01	  0.116593190	9.195300E+01	  0.116593190	2.786600E+01
484	  0.116793588	-9.192000E+00	  0.116793588	2.155900E+01	  0.116793588	9.259900E+01	  0.116793588	2.684900E+01
485	  0.116993994	-9.214000E+00	  0.116993994	2.052600E+01	  0.116993994	9.334500E+01	  0.116993994	2.574500E+01
486	  0.117194392	-9.240000E+00	  0.117194392	1.955000E+01	  0.117194392	9.398100E+01	  0.117194392	2.464500E+01
487	  0.117394790	-9.268000E+00	  0.117394790	1.855400E+01	  0.117394790	9.458100E+01	  0.117394790	2.348500E+01
488	  0.117595196	-9.301000E+00	  0.117595196	1.754900E+01	  0.117595196	9.511600E+01	  0.117595196	2.227300E+01
489	  0.117795594	-9.331000E+00	  0.117795594	1.651000E+01	  0.117795594	9.565600E+01	  0.117795594	2.102100E+01
490	  0.117995992	-9.361000E+00	  0.117995992	1.545700E+01	  0.117995992	9.615200E+01	  0.117995992	1.972900E+01
491	  0.118196398	-9.406000E+00	  0.118196398	1.440400E+01	  0.118196398	9.649700E+01	  0.118196398	1.836100E+01
492	  0.118396796	-9.442000E+00	  0.118396796	1.332100E+01	  0.118396796	9.686800E+01	  0.118396796	1.698200E+01
493	  0.118597202	-9.482000E+00	  0.118597202	1.219400E+01	  0.118597202	9.718200E+01	  0.118597202	1.552900E+01
494	  0.118797600	-9.527000E+00	  0.118797600	1.102300E+01	  0.118797600	9.742100E+01	  0.118797600	1.400000E+01
