! Anritsu VNA Master:             	Model: MS2036C/10/77
! SN:             	1601066
! /bd0/18may09/254.ew.m2.txt
! Existing Calibration Information:
! TYPE:             	Current Settings	Active Cal Settings
! TIME:             	05/09/2018 10:13:03 AM	05/09/2018 10:08:40 AM
! INTERNAL TEMP:    	48.5 C	48.0 C
! # POINTS:         	500	500
! START FREQ:       	20.000 MHz	20.000 MHz
! STOP FREQ:        	120.000 MHz	120.000 MHz
! SOURCE POWER:     	High	High
! IFBW:             	50 Hz	50 Hz
! AVG FACTOR:       	  1 	  1 
! REF PLANE 1:      	0 mm	0 mm
! REF PLANE 2:      	0 mm	0 mm
! CAL TYPE:         	Full S11	Full S11
! CAL METHOD:       	SOLT	SOLT
! CAL LINE TYPE:    	Coax	Coax
! DUT PORT 1:       	K-Conn(F)	K-Conn(F)
! DUT PORT 2:       	K-Conn(F)	K-Conn(F)
! CAL STATUS:       	OK: Accuracy High	--
! PROP-V:       	0.700
! CABLE LOSS:       	0.000 dB/m
! REF IMPEDANCE:       	50.0
! Trace Specific Parameters:	TR1	TR2	TR3	TR4
! TRACE.#.Y (GRAPH TYPE)	LOG MAG	PHASE	REAL IMPEDANCE	IMAGINARY IMPEDANCE
! TRACE.#.X 	FREQ.GHZ	FREQ.GHZ	FREQ.GHZ	FREQ.GHZ
! S-PARAMETER	S11	S11	S11	S11
! SMOOTH/APERTURE %	0	0	0	0
! WINDOW	NSL	NSL	NSL	NSL
! GATING	OFF	OFF	OFF	OFF
! FGTD	OFF	OFF	OFF	OFF
Marker Information per Trace:	TR1	TR2	TR3	TR4
!MK1	--	"MK1 TR2:  20.000 MHz,PH:-125.08°"	--	--
!MK2	--	--	"MK2 TR3:  70.100 200 MHz,Z:(15.975 ohm, -3.346 ohm)"	--
!MK3	--	--	--	--
!MK4	--	--	--	--
!MK5	--	--	--	--
!MK6	--	--	--	--
!MK7	--	--	--	--
!MK8	--	--	--	--
PNT	TR1.FREQ.GHZ	TR1.LOG MAG.dB	TR2.FREQ.GHZ	TR2.PHASE.deg	TR3.FREQ.GHZ	TR3.REAL IMPEDANCE.ohm	TR4.FREQ.GHZ	TR4.IMAGINARY IMPEDANCE.ohm
1	  0.020000000	-6.120000E-01	  0.020000000	-1.250820E+02	  0.020000000	2.237000E+00	  0.020000000	-2.594100E+01
2	  0.020200402	-6.090000E-01	  0.020200402	-1.265240E+02	  0.020200402	2.198000E+00	  0.020200402	-2.515000E+01
3	  0.020400802	-6.100000E-01	  0.020400802	-1.279750E+02	  0.020400802	2.174000E+00	  0.020400802	-2.436200E+01
4	  0.020601204	-6.090000E-01	  0.020601204	-1.294400E+02	  0.020601204	2.144000E+00	  0.020601204	-2.357700E+01
5	  0.020801604	-6.130000E-01	  0.020801604	-1.309250E+02	  0.020801604	2.130000E+00	  0.020801604	-2.279100E+01
6	  0.021002004	-6.180000E-01	  0.021002004	-1.324330E+02	  0.021002004	2.124000E+00	  0.021002004	-2.200200E+01
7	  0.021202406	-6.230000E-01	  0.021202406	-1.339700E+02	  0.021202406	2.118000E+00	  0.021202406	-2.120600E+01
8	  0.021402806	-6.290000E-01	  0.021402806	-1.354980E+02	  0.021402806	2.114000E+00	  0.021402806	-2.042400E+01
9	  0.021603208	-6.300000E-01	  0.021603208	-1.370270E+02	  0.021603208	2.093000E+00	  0.021603208	-1.965100E+01
10	  0.021803608	-6.370000E-01	  0.021803608	-1.385600E+02	  0.021803608	2.096000E+00	  0.021803608	-1.888300E+01
11	  0.022004008	-6.410000E-01	  0.022004008	-1.400970E+02	  0.022004008	2.089000E+00	  0.022004008	-1.812200E+01
12	  0.022204408	-6.500000E-01	  0.022204408	-1.416450E+02	  0.022204408	2.098000E+00	  0.022204408	-1.736200E+01
13	  0.022404809	-6.530000E-01	  0.022404809	-1.432160E+02	  0.022404809	2.088000E+00	  0.022404809	-1.659800E+01
14	  0.022605211	-6.550000E-01	  0.022605211	-1.448240E+02	  0.022605211	2.073000E+00	  0.022605211	-1.582400E+01
15	  0.022805611	-6.580000E-01	  0.022805611	-1.464160E+02	  0.022805611	2.065000E+00	  0.022805611	-1.506400E+01
16	  0.023006011	-6.620000E-01	  0.023006011	-1.479980E+02	  0.023006011	2.061000E+00	  0.023006011	-1.431500E+01
17	  0.023206413	-6.630000E-01	  0.023206413	-1.495780E+02	  0.023206413	2.050000E+00	  0.023206413	-1.357300E+01
18	  0.023406813	-6.660000E-01	  0.023406813	-1.511630E+02	  0.023406813	2.044000E+00	  0.023406813	-1.283400E+01
19	  0.023607215	-6.700000E-01	  0.023607215	-1.527620E+02	  0.023607215	2.041000E+00	  0.023607215	-1.209400E+01
20	  0.023807615	-6.760000E-01	  0.023807615	-1.543700E+02	  0.023807615	2.045000E+00	  0.023807615	-1.135500E+01
21	  0.024008015	-6.820000E-01	  0.024008015	-1.559860E+02	  0.024008015	2.052000E+00	  0.024008015	-1.061600E+01
22	  0.024208417	-6.910000E-01	  0.024208417	-1.576300E+02	  0.024208417	2.067000E+00	  0.024208417	-9.870000E+00
23	  0.024408817	-7.000000E-01	  0.024408817	-1.592710E+02	  0.024408817	2.082000E+00	  0.024408817	-9.129000E+00
24	  0.024609219	-7.050000E-01	  0.024609219	-1.609080E+02	  0.024609219	2.087000E+00	  0.024609219	-8.394000E+00
25	  0.024809619	-7.150000E-01	  0.024809619	-1.625690E+02	  0.024809619	2.106000E+00	  0.024809619	-7.651000E+00
26	  0.025010020	-7.210000E-01	  0.025010020	-1.642230E+02	  0.025010020	2.116000E+00	  0.025010020	-6.915000E+00
27	  0.025210422	-7.320000E-01	  0.025210422	-1.658800E+02	  0.025210422	2.140000E+00	  0.025210422	-6.180000E+00
28	  0.025410822	-7.430000E-01	  0.025410822	-1.675500E+02	  0.025410822	2.163000E+00	  0.025410822	-5.443000E+00
29	  0.025611224	-7.560000E-01	  0.025611224	-1.692470E+02	  0.025611224	2.194000E+00	  0.025611224	-4.696000E+00
30	  0.025811624	-7.660000E-01	  0.025811624	-1.709530E+02	  0.025811624	2.218000E+00	  0.025811624	-3.947000E+00
31	  0.026012026	-7.750000E-01	  0.026012026	-1.726860E+02	  0.026012026	2.238000E+00	  0.026012026	-3.189000E+00
32	  0.026212426	-7.830000E-01	  0.026212426	-1.743940E+02	  0.026212426	2.260000E+00	  0.026212426	-2.442000E+00
33	  0.026412826	-7.960000E-01	  0.026412826	-1.761160E+02	  0.026412826	2.292000E+00	  0.026412826	-1.691000E+00
34	  0.026613226	-8.100000E-01	  0.026613226	-1.778520E+02	  0.026613226	2.331000E+00	  0.026613226	-9.340000E-01
35	  0.026813626	-8.220000E-01	  0.026813626	-1.796080E+02	  0.026813626	2.365000E+00	  0.026813626	-1.700000E-01
36	  0.027014028	-8.370000E-01	  0.027014028	1.786370E+02	  0.027014028	2.408000E+00	  0.027014028	5.930000E-01
37	  0.027214428	-8.530000E-01	  0.027214428	1.768690E+02	  0.027214428	2.455000E+00	  0.027214428	1.363000E+00
38	  0.027414829	-8.670000E-01	  0.027414829	1.750790E+02	  0.027414829	2.498000E+00	  0.027414829	2.142000E+00
39	  0.027615231	-8.820000E-01	  0.027615231	1.732830E+02	  0.027615231	2.545000E+00	  0.027615231	2.926000E+00
40	  0.027815631	-8.990000E-01	  0.027815631	1.714930E+02	  0.027815631	2.602000E+00	  0.027815631	3.708000E+00
41	  0.028016033	-9.190000E-01	  0.028016033	1.696650E+02	  0.028016033	2.664000E+00	  0.028016033	4.508000E+00
42	  0.028216433	-9.400000E-01	  0.028216433	1.678410E+02	  0.028216433	2.733000E+00	  0.028216433	5.309000E+00
43	  0.028416833	-9.590000E-01	  0.028416833	1.660050E+02	  0.028416833	2.799000E+00	  0.028416833	6.117000E+00
44	  0.028617235	-9.760000E-01	  0.028617235	1.641690E+02	  0.028617235	2.861000E+00	  0.028617235	6.929000E+00
45	  0.028817635	-9.940000E-01	  0.028817635	1.623370E+02	  0.028817635	2.927000E+00	  0.028817635	7.742000E+00
46	  0.029018037	-1.012000E+00	  0.029018037	1.605120E+02	  0.029018037	2.997000E+00	  0.029018037	8.556000E+00
47	  0.029218437	-1.031000E+00	  0.029218437	1.586810E+02	  0.029218437	3.070000E+00	  0.029218437	9.376000E+00
48	  0.029418837	-1.052000E+00	  0.029418837	1.568510E+02	  0.029418837	3.153000E+00	  0.029418837	1.020100E+01
49	  0.029619239	-1.077000E+00	  0.029619239	1.550010E+02	  0.029619239	3.250000E+00	  0.029619239	1.103900E+01
50	  0.029819639	-1.104000E+00	  0.029819639	1.531230E+02	  0.029819639	3.354000E+00	  0.029819639	1.189600E+01
51	  0.030020041	-1.133000E+00	  0.030020041	1.512210E+02	  0.030020041	3.471000E+00	  0.030020041	1.276900E+01
52	  0.030220442	-1.161000E+00	  0.030220442	1.493050E+02	  0.030220442	3.589000E+00	  0.030220442	1.365600E+01
53	  0.030420844	-1.186000E+00	  0.030420844	1.473730E+02	  0.030420844	3.700000E+00	  0.030420844	1.455900E+01
54	  0.030621244	-1.215000E+00	  0.030621244	1.454570E+02	  0.030621244	3.829000E+00	  0.030621244	1.546200E+01
55	  0.030821644	-1.245000E+00	  0.030821644	1.435470E+02	  0.030821644	3.965000E+00	  0.030821644	1.637000E+01
56	  0.031022044	-1.277000E+00	  0.031022044	1.416230E+02	  0.031022044	4.111000E+00	  0.031022044	1.729500E+01
57	  0.031222444	-1.306000E+00	  0.031222444	1.396910E+02	  0.031222444	4.256000E+00	  0.031222444	1.823300E+01
58	  0.031422846	-1.341000E+00	  0.031422846	1.377170E+02	  0.031422846	4.426000E+00	  0.031422846	1.920200E+01
59	  0.031623244	-1.375000E+00	  0.031623244	1.357330E+02	  0.031623244	4.598000E+00	  0.031623244	2.018800E+01
60	  0.031823646	-1.408000E+00	  0.031823646	1.337400E+02	  0.031823646	4.776000E+00	  0.031823646	2.119200E+01
61	  0.032024048	-1.439000E+00	  0.032024048	1.317390E+02	  0.032024048	4.955000E+00	  0.032024048	2.221400E+01
62	  0.032224450	-1.471000E+00	  0.032224450	1.297520E+02	  0.032224450	5.146000E+00	  0.032224450	2.324200E+01
63	  0.032424849	-1.501000E+00	  0.032424849	1.277800E+02	  0.032424849	5.335000E+00	  0.032424849	2.427900E+01
64	  0.032625251	-1.532000E+00	  0.032625251	1.258180E+02	  0.032625251	5.538000E+00	  0.032625251	2.532600E+01
65	  0.032825653	-1.566000E+00	  0.032825653	1.238420E+02	  0.032825653	5.763000E+00	  0.032825653	2.639700E+01
66	  0.033026051	-1.606000E+00	  0.033026051	1.218600E+02	  0.033026051	6.020000E+00	  0.033026051	2.748600E+01
67	  0.033226453	-1.645000E+00	  0.033226453	1.198810E+02	  0.033226453	6.286000E+00	  0.033226453	2.859200E+01
68	  0.033426855	-1.693000E+00	  0.033426855	1.179070E+02	  0.033426855	6.596000E+00	  0.033426855	2.971200E+01
69	  0.033627257	-1.742000E+00	  0.033627257	1.158930E+02	  0.033627257	6.931000E+00	  0.033627257	3.087400E+01
70	  0.033827655	-1.789000E+00	  0.033827655	1.138560E+02	  0.033827655	7.277000E+00	  0.033827655	3.207300E+01
71	  0.034028057	-1.838000E+00	  0.034028057	1.117720E+02	  0.034028057	7.654000E+00	  0.034028057	3.332300E+01
72	  0.034228459	-1.881000E+00	  0.034228459	1.096710E+02	  0.034228459	8.023000E+00	  0.034228459	3.461500E+01
73	  0.034428857	-1.929000E+00	  0.034428857	1.075470E+02	  0.034428857	8.443000E+00	  0.034428857	3.594500E+01
74	  0.034629259	-1.974000E+00	  0.034629259	1.054090E+02	  0.034629259	8.875000E+00	  0.034629259	3.731700E+01
75	  0.034829661	-2.014000E+00	  0.034829661	1.032980E+02	  0.034829661	9.309000E+00	  0.034829661	3.870900E+01
76	  0.035030060	-2.054000E+00	  0.035030060	1.011810E+02	  0.035030060	9.768000E+00	  0.035030060	4.013800E+01
77	  0.035230462	-2.096000E+00	  0.035230462	9.907000E+01	  0.035230462	1.026800E+01	  0.035230462	4.159800E+01
78	  0.035430863	-2.137000E+00	  0.035430863	9.698700E+01	  0.035430863	1.078500E+01	  0.035430863	4.307700E+01
79	  0.035631265	-2.176000E+00	  0.035631265	9.489000E+01	  0.035631265	1.133500E+01	  0.035631265	4.460700E+01
80	  0.035831664	-2.215000E+00	  0.035831664	9.282800E+01	  0.035831664	1.191400E+01	  0.035831664	4.615200E+01
81	  0.036032066	-2.258000E+00	  0.036032066	9.076800E+01	  0.036032066	1.255100E+01	  0.036032066	4.773200E+01
82	  0.036232468	-2.300000E+00	  0.036232468	8.871300E+01	  0.036232468	1.322500E+01	  0.036232468	4.935500E+01
83	  0.036432866	-2.349000E+00	  0.036432866	8.668200E+01	  0.036432866	1.398700E+01	  0.036432866	5.098900E+01
84	  0.036633268	-2.398000E+00	  0.036633268	8.463700E+01	  0.036633268	1.479700E+01	  0.036633268	5.268300E+01
85	  0.036833670	-2.452000E+00	  0.036833670	8.261100E+01	  0.036833670	1.569400E+01	  0.036833670	5.439700E+01
86	  0.037034072	-2.507000E+00	  0.037034072	8.055000E+01	  0.037034072	1.667100E+01	  0.037034072	5.618900E+01
87	  0.037234470	-2.566000E+00	  0.037234470	7.849000E+01	  0.037234470	1.774900E+01	  0.037234470	5.802100E+01
88	  0.037434869	-2.623000E+00	  0.037434869	7.638600E+01	  0.037434869	1.891500E+01	  0.037434869	5.995000E+01
89	  0.037635271	-2.679000E+00	  0.037635271	7.427700E+01	  0.037635271	2.016700E+01	  0.037635271	6.194400E+01
90	  0.037835669	-2.734000E+00	  0.037835669	7.212500E+01	  0.037835669	2.153800E+01	  0.037835669	6.404300E+01
91	  0.038036071	-2.794000E+00	  0.038036071	6.997500E+01	  0.038036071	2.305400E+01	  0.038036071	6.618600E+01
92	  0.038236473	-2.856000E+00	  0.038236473	6.783600E+01	  0.038236473	2.471300E+01	  0.038236473	6.836800E+01
93	  0.038436871	-2.905000E+00	  0.038436871	6.569100E+01	  0.038436871	2.642300E+01	  0.038436871	7.066600E+01
94	  0.038637273	-2.957000E+00	  0.038637273	6.357800E+01	  0.038637273	2.828700E+01	  0.038637273	7.297800E+01
95	  0.038837675	-3.000000E+00	  0.038837675	6.148700E+01	  0.038837675	3.022200E+01	  0.038837675	7.537400E+01
96	  0.039038073	-3.045000E+00	  0.039038073	5.943000E+01	  0.039038073	3.232200E+01	  0.039038073	7.777700E+01
97	  0.039238475	-3.090000E+00	  0.039238475	5.738400E+01	  0.039238475	3.460400E+01	  0.039238475	8.022600E+01
98	  0.039438877	-3.138000E+00	  0.039438877	5.536600E+01	  0.039438877	3.709500E+01	  0.039438877	8.266700E+01
99	  0.039639279	-3.189000E+00	  0.039639279	5.337800E+01	  0.039639279	3.980400E+01	  0.039639279	8.508600E+01
100	  0.039839678	-3.246000E+00	  0.039839678	5.135800E+01	  0.039839678	4.286100E+01	  0.039839678	8.752200E+01
101	  0.040040080	-3.302000E+00	  0.040040080	4.932100E+01	  0.040040080	4.621800E+01	  0.040040080	8.999000E+01
102	  0.040240481	-3.360000E+00	  0.040240481	4.729100E+01	  0.040240481	4.988600E+01	  0.040240481	9.242700E+01
103	  0.040440880	-3.421000E+00	  0.040440880	4.522900E+01	  0.040440880	5.398700E+01	  0.040440880	9.483000E+01
104	  0.040641282	-3.477000E+00	  0.040641282	4.317300E+01	  0.040641282	5.841400E+01	  0.040641282	9.720200E+01
105	  0.040841684	-3.534000E+00	  0.040841684	4.110100E+01	  0.040841684	6.329700E+01	  0.040841684	9.948100E+01
106	  0.041042086	-3.590000E+00	  0.041042086	3.906900E+01	  0.041042086	6.852500E+01	  0.041042086	1.015670E+02
107	  0.041242484	-3.644000E+00	  0.041242484	3.699700E+01	  0.041242484	7.431200E+01	  0.041242484	1.035210E+02
108	  0.041442886	-3.696000E+00	  0.041442886	3.494400E+01	  0.041442886	8.054400E+01	  0.041442886	1.052100E+02
109	  0.041643288	-3.747000E+00	  0.041643288	3.285700E+01	  0.041643288	8.741400E+01	  0.041643288	1.065940E+02
110	  0.041843686	-3.797000E+00	  0.041843686	3.081700E+01	  0.041843686	9.468200E+01	  0.041843686	1.074890E+02
111	  0.042044088	-3.845000E+00	  0.042044088	2.876200E+01	  0.042044088	1.025420E+02	  0.042044088	1.078940E+02
112	  0.042244490	-3.894000E+00	  0.042244490	2.674400E+01	  0.042244490	1.107940E+02	  0.042244490	1.075540E+02
113	  0.042444889	-3.941000E+00	  0.042444889	2.472600E+01	  0.042444889	1.195160E+02	  0.042444889	1.064790E+02
114	  0.042645290	-3.987000E+00	  0.042645290	2.271600E+01	  0.042645290	1.286110E+02	  0.042645290	1.044880E+02
115	  0.042845692	-4.034000E+00	  0.042845692	2.072300E+01	  0.042845692	1.379090E+02	  0.042845692	1.013900E+02
116	  0.043046094	-4.079000E+00	  0.043046094	1.872300E+01	  0.043046094	1.473880E+02	  0.043046094	9.712700E+01
117	  0.043246493	-4.127000E+00	  0.043246493	1.673100E+01	  0.043246493	1.567180E+02	  0.043246493	9.146800E+01
118	  0.043446895	-4.173000E+00	  0.043446895	1.472900E+01	  0.043446895	1.658080E+02	  0.043446895	8.445300E+01
119	  0.043647297	-4.217000E+00	  0.043647297	1.275100E+01	  0.043647297	1.742370E+02	  0.043647297	7.617700E+01
120	  0.043847695	-4.264000E+00	  0.043847695	1.077600E+01	  0.043847695	1.817050E+02	  0.043847695	6.650300E+01
121	  0.044048097	-4.310000E+00	  0.044048097	8.813000E+00	  0.044048097	1.879670E+02	  0.044048097	5.572200E+01
122	  0.044248499	-4.354000E+00	  0.044248499	6.853000E+00	  0.044248499	1.928740E+02	  0.044248499	4.403800E+01
123	  0.044448901	-4.399000E+00	  0.044448901	4.915000E+00	  0.044448901	1.961140E+02	  0.044448901	3.179900E+01
124	  0.044649299	-4.444000E+00	  0.044649299	2.977000E+00	  0.044649299	1.976810E+02	  0.044649299	1.921500E+01
125	  0.044849701	-4.484000E+00	  0.044849701	1.035000E+00	  0.044849701	1.977510E+02	  0.044849701	6.626000E+00
126	  0.045050103	-4.522000E+00	  0.045050103	-8.820000E-01	  0.045050103	1.962140E+02	  0.045050103	-5.549000E+00
127	  0.045250501	-4.561000E+00	  0.045250501	-2.799000E+00	  0.045250501	1.931540E+02	  0.045250501	-1.716300E+01
128	  0.045450903	-4.598000E+00	  0.045450903	-4.679000E+00	  0.045450903	1.888870E+02	  0.045450903	-2.779100E+01
129	  0.045651305	-4.639000E+00	  0.045651305	-6.564000E+00	  0.045651305	1.834080E+02	  0.045651305	-3.744400E+01
130	  0.045851704	-4.680000E+00	  0.045851704	-8.408000E+00	  0.045851704	1.772490E+02	  0.045851704	-4.585100E+01
131	  0.046052106	-4.716000E+00	  0.046052106	-1.027600E+01	  0.046052106	1.705510E+02	  0.046052106	-5.337100E+01
132	  0.046252504	-4.754000E+00	  0.046252504	-1.213000E+01	  0.046252504	1.634580E+02	  0.046252504	-5.972200E+01
133	  0.046452906	-4.791000E+00	  0.046452906	-1.396200E+01	  0.046452906	1.562550E+02	  0.046452906	-6.498900E+01
134	  0.046653304	-4.826000E+00	  0.046653304	-1.580900E+01	  0.046653304	1.489850E+02	  0.046653304	-6.941400E+01
135	  0.046853706	-4.858000E+00	  0.046853706	-1.763300E+01	  0.046853706	1.418890E+02	  0.046853706	-7.297300E+01
136	  0.047054108	-4.891000E+00	  0.047054108	-1.943400E+01	  0.047054108	1.349920E+02	  0.047054108	-7.568600E+01
137	  0.047254506	-4.921000E+00	  0.047254506	-2.123800E+01	  0.047254506	1.283220E+02	  0.047254506	-7.781600E+01
138	  0.047454908	-4.952000E+00	  0.047454908	-2.303500E+01	  0.047454908	1.219030E+02	  0.047454908	-7.928700E+01
139	  0.047655310	-4.981000E+00	  0.047655310	-2.482200E+01	  0.047655310	1.158090E+02	  0.047655310	-8.029400E+01
140	  0.047855709	-5.009000E+00	  0.047855709	-2.655000E+01	  0.047855709	1.101960E+02	  0.047855709	-8.084300E+01
141	  0.048056111	-5.040000E+00	  0.048056111	-2.828500E+01	  0.048056111	1.048390E+02	  0.048056111	-8.098800E+01
142	  0.048256513	-5.073000E+00	  0.048256513	-3.002500E+01	  0.048256513	9.975800E+01	  0.048256513	-8.079400E+01
143	  0.048456915	-5.101000E+00	  0.048456915	-3.175200E+01	  0.048456915	9.501000E+01	  0.048456915	-8.041700E+01
144	  0.048657313	-5.130000E+00	  0.048657313	-3.347200E+01	  0.048657313	9.055700E+01	  0.048657313	-7.982600E+01
145	  0.048857715	-5.154000E+00	  0.048857715	-3.521700E+01	  0.048857715	8.630300E+01	  0.048857715	-7.913900E+01
146	  0.049058117	-5.181000E+00	  0.049058117	-3.692900E+01	  0.049058117	8.238500E+01	  0.049058117	-7.826100E+01
147	  0.049258515	-5.205000E+00	  0.049258515	-3.861800E+01	  0.049258515	7.874800E+01	  0.049258515	-7.730100E+01
148	  0.049458917	-5.229000E+00	  0.049458917	-4.031600E+01	  0.049458917	7.531100E+01	  0.049458917	-7.624800E+01
149	  0.049659319	-5.251000E+00	  0.049659319	-4.199300E+01	  0.049659319	7.211600E+01	  0.049659319	-7.514100E+01
150	  0.049859721	-5.275000E+00	  0.049859721	-4.367100E+01	  0.049859721	6.912000E+01	  0.049859721	-7.394700E+01
151	  0.050060119	-5.298000E+00	  0.050060119	-4.533200E+01	  0.050060119	6.632500E+01	  0.050060119	-7.273800E+01
152	  0.050260521	-5.317000E+00	  0.050260521	-4.703600E+01	  0.050260521	6.361600E+01	  0.050260521	-7.149200E+01
153	  0.050460923	-5.335000E+00	  0.050460923	-4.869600E+01	  0.050460923	6.113100E+01	  0.050460923	-7.025300E+01
154	  0.050661322	-5.351000E+00	  0.050661322	-5.035600E+01	  0.050661322	5.878000E+01	  0.050661322	-6.901400E+01
155	  0.050861724	-5.366000E+00	  0.050861724	-5.198900E+01	  0.050861724	5.659600E+01	  0.050861724	-6.778300E+01
156	  0.051062126	-5.379000E+00	  0.051062126	-5.360900E+01	  0.051062126	5.454500E+01	  0.051062126	-6.656200E+01
157	  0.051262524	-5.391000E+00	  0.051262524	-5.519200E+01	  0.051262524	5.264700E+01	  0.051262524	-6.536200E+01
158	  0.051462926	-5.405000E+00	  0.051462926	-5.672600E+01	  0.051462926	5.091400E+01	  0.051462926	-6.418300E+01
159	  0.051663328	-5.415000E+00	  0.051663328	-5.827800E+01	  0.051663328	4.923700E+01	  0.051663328	-6.301400E+01
160	  0.051863730	-5.429000E+00	  0.051863730	-5.980300E+01	  0.051863730	4.769400E+01	  0.051863730	-6.183600E+01
161	  0.052064128	-5.445000E+00	  0.052064128	-6.135100E+01	  0.052064128	4.621300E+01	  0.052064128	-6.063900E+01
162	  0.052264530	-5.460000E+00	  0.052264530	-6.285600E+01	  0.052264530	4.484700E+01	  0.052264530	-5.948300E+01
163	  0.052464932	-5.475000E+00	  0.052464932	-6.437700E+01	  0.052464932	4.353500E+01	  0.052464932	-5.832700E+01
164	  0.052665330	-5.492000E+00	  0.052665330	-6.590800E+01	  0.052665330	4.229100E+01	  0.052665330	-5.716100E+01
165	  0.052865732	-5.505000E+00	  0.052865732	-6.743100E+01	  0.052865732	4.109100E+01	  0.052865732	-5.604000E+01
166	  0.053066134	-5.519000E+00	  0.053066134	-6.895300E+01	  0.053066134	3.996100E+01	  0.053066134	-5.492100E+01
167	  0.053266536	-5.531000E+00	  0.053266536	-7.046200E+01	  0.053266536	3.888600E+01	  0.053266536	-5.383600E+01
168	  0.053466935	-5.539000E+00	  0.053466935	-7.194600E+01	  0.053466935	3.786300E+01	  0.053466935	-5.279300E+01
169	  0.053667337	-5.547000E+00	  0.053667337	-7.346500E+01	  0.053667337	3.686100E+01	  0.053667337	-5.174300E+01
170	  0.053867739	-5.553000E+00	  0.053867739	-7.494900E+01	  0.053867739	3.592100E+01	  0.053867739	-5.073200E+01
171	  0.054068137	-5.558000E+00	  0.054068137	-7.642100E+01	  0.054068137	3.503100E+01	  0.054068137	-4.974100E+01
172	  0.054268539	-5.562000E+00	  0.054268539	-7.788200E+01	  0.054268539	3.417700E+01	  0.054268539	-4.877600E+01
173	  0.054468941	-5.566000E+00	  0.054468941	-7.930000E+01	  0.054468941	3.338700E+01	  0.054468941	-4.784600E+01
174	  0.054669339	-5.571000E+00	  0.054669339	-8.074500E+01	  0.054669339	3.261800E+01	  0.054669339	-4.690700E+01
175	  0.054869737	-5.578000E+00	  0.054869737	-8.214200E+01	  0.054869737	3.191500E+01	  0.054869737	-4.600200E+01
176	  0.055070139	-5.583000E+00	  0.055070139	-8.353700E+01	  0.055070139	3.123800E+01	  0.055070139	-4.511200E+01
177	  0.055270538	-5.592000E+00	  0.055270538	-8.492700E+01	  0.055270538	3.060400E+01	  0.055270538	-4.422500E+01
178	  0.055470940	-5.598000E+00	  0.055470940	-8.631200E+01	  0.055470940	2.998600E+01	  0.055470940	-4.336200E+01
179	  0.055671342	-5.604000E+00	  0.055671342	-8.772100E+01	  0.055671342	2.938400E+01	  0.055671342	-4.249200E+01
180	  0.055871744	-5.611000E+00	  0.055871744	-8.912400E+01	  0.055871744	2.881200E+01	  0.055871744	-4.163400E+01
181	  0.056072142	-5.619000E+00	  0.056072142	-9.050000E+01	  0.056072142	2.827900E+01	  0.056072142	-4.080000E+01
182	  0.056272544	-5.623000E+00	  0.056272544	-9.190100E+01	  0.056272544	2.774100E+01	  0.056272544	-3.997100E+01
183	  0.056472946	-5.632000E+00	  0.056472946	-9.328200E+01	  0.056472946	2.724900E+01	  0.056472946	-3.915200E+01
184	  0.056673344	-5.632000E+00	  0.056673344	-9.465900E+01	  0.056673344	2.674800E+01	  0.056673344	-3.836400E+01
185	  0.056873746	-5.637000E+00	  0.056873746	-9.605400E+01	  0.056873746	2.627500E+01	  0.056873746	-3.756500E+01
186	  0.057074148	-5.636000E+00	  0.057074148	-9.741400E+01	  0.057074148	2.581300E+01	  0.057074148	-3.680500E+01
187	  0.057274550	-5.640000E+00	  0.057274550	-9.879700E+01	  0.057274550	2.537500E+01	  0.057274550	-3.603300E+01
188	  0.057474948	-5.637000E+00	  0.057474948	-1.001500E+02	  0.057474948	2.494100E+01	  0.057474948	-3.529800E+01
189	  0.057675350	-5.635000E+00	  0.057675350	-1.014900E+02	  0.057675350	2.453000E+01	  0.057675350	-3.457400E+01
190	  0.057875752	-5.633000E+00	  0.057875752	-1.028010E+02	  0.057875752	2.414100E+01	  0.057875752	-3.387400E+01
191	  0.058076151	-5.635000E+00	  0.058076151	-1.040830E+02	  0.058076151	2.378900E+01	  0.058076151	-3.318800E+01
192	  0.058276553	-5.638000E+00	  0.058276553	-1.053730E+02	  0.058276553	2.344900E+01	  0.058276553	-3.250200E+01
193	  0.058476955	-5.633000E+00	  0.058476955	-1.066220E+02	  0.058476955	2.310900E+01	  0.058476955	-3.185700E+01
194	  0.058677353	-5.638000E+00	  0.058677353	-1.079000E+02	  0.058677353	2.280200E+01	  0.058677353	-3.118700E+01
195	  0.058877755	-5.639000E+00	  0.058877755	-1.091650E+02	  0.058877755	2.249700E+01	  0.058877755	-3.053700E+01
196	  0.059078157	-5.644000E+00	  0.059078157	-1.104050E+02	  0.059078157	2.222000E+01	  0.059078157	-2.989900E+01
197	  0.059278559	-5.646000E+00	  0.059278559	-1.116710E+02	  0.059278559	2.193800E+01	  0.059278559	-2.925800E+01
198	  0.059478957	-5.649000E+00	  0.059478957	-1.129190E+02	  0.059478957	2.167500E+01	  0.059478957	-2.862900E+01
199	  0.059679359	-5.657000E+00	  0.059679359	-1.141690E+02	  0.059679359	2.143200E+01	  0.059679359	-2.800000E+01
200	  0.059879761	-5.658000E+00	  0.059879761	-1.154190E+02	  0.059879761	2.118000E+01	  0.059879761	-2.738400E+01
201	  0.060080159	-5.661000E+00	  0.060080159	-1.166400E+02	  0.060080159	2.094400E+01	  0.060080159	-2.678700E+01
202	  0.060280561	-5.662000E+00	  0.060280561	-1.178910E+02	  0.060280561	2.070800E+01	  0.060280561	-2.618000E+01
203	  0.060480963	-5.667000E+00	  0.060480963	-1.191010E+02	  0.060480963	2.049800E+01	  0.060480963	-2.559500E+01
204	  0.060681365	-5.665000E+00	  0.060681365	-1.203310E+02	  0.060681365	2.027100E+01	  0.060681365	-2.501200E+01
205	  0.060881764	-5.667000E+00	  0.060881764	-1.215570E+02	  0.060881764	2.006400E+01	  0.060881764	-2.443100E+01
206	  0.061082166	-5.669000E+00	  0.061082166	-1.227540E+02	  0.061082166	1.987000E+01	  0.061082166	-2.386700E+01
207	  0.061282568	-5.669000E+00	  0.061282568	-1.239800E+02	  0.061282568	1.966800E+01	  0.061282568	-2.329800E+01
208	  0.061482966	-5.667000E+00	  0.061482966	-1.251550E+02	  0.061482966	1.947900E+01	  0.061482966	-2.275600E+01
209	  0.061683368	-5.670000E+00	  0.061683368	-1.263160E+02	  0.061683368	1.930900E+01	  0.061683368	-2.222100E+01
210	  0.061883770	-5.669000E+00	  0.061883770	-1.274940E+02	  0.061883770	1.913500E+01	  0.061883770	-2.168400E+01
211	  0.062084168	-5.670000E+00	  0.062084168	-1.286470E+02	  0.062084168	1.897100E+01	  0.062084168	-2.116200E+01
212	  0.062284570	-5.673000E+00	  0.062284570	-1.298010E+02	  0.062284570	1.882200E+01	  0.062284570	-2.063900E+01
213	  0.062484972	-5.663000E+00	  0.062484972	-1.309110E+02	  0.062484972	1.864600E+01	  0.062484972	-2.015100E+01
214	  0.062685370	-5.672000E+00	  0.062685370	-1.320790E+02	  0.062685370	1.851900E+01	  0.062685370	-1.962400E+01
215	  0.062885776	-5.673000E+00	  0.062885776	-1.332380E+02	  0.062885776	1.837800E+01	  0.062885776	-1.911000E+01
216	  0.063086174	-5.677000E+00	  0.063086174	-1.343870E+02	  0.063086174	1.825200E+01	  0.063086174	-1.860100E+01
217	  0.063286573	-5.677000E+00	  0.063286573	-1.355540E+02	  0.063286573	1.811600E+01	  0.063286573	-1.809100E+01
218	  0.063486971	-5.677000E+00	  0.063486971	-1.367080E+02	  0.063486971	1.798700E+01	  0.063486971	-1.758800E+01
219	  0.063687377	-5.676000E+00	  0.063687377	-1.378530E+02	  0.063687377	1.786000E+01	  0.063687377	-1.709400E+01
220	  0.063887775	-5.676000E+00	  0.063887775	-1.389900E+02	  0.063887775	1.774000E+01	  0.063887775	-1.660400E+01
221	  0.064088173	-5.675000E+00	  0.064088173	-1.401320E+02	  0.064088173	1.762300E+01	  0.064088173	-1.611600E+01
222	  0.064288579	-5.672000E+00	  0.064288579	-1.412810E+02	  0.064288579	1.750100E+01	  0.064288579	-1.562800E+01
223	  0.064488977	-5.668000E+00	  0.064488977	-1.424010E+02	  0.064488977	1.738500E+01	  0.064488977	-1.515500E+01
224	  0.064689375	-5.670000E+00	  0.064689375	-1.434930E+02	  0.064689375	1.729300E+01	  0.064689375	-1.469200E+01
225	  0.064889781	-5.666000E+00	  0.064889781	-1.445790E+02	  0.064889781	1.718500E+01	  0.064889781	-1.423700E+01
226	  0.065090179	-5.666000E+00	  0.065090179	-1.456560E+02	  0.065090179	1.709700E+01	  0.065090179	-1.378500E+01
227	  0.065290578	-5.664000E+00	  0.065290578	-1.467460E+02	  0.065290578	1.700400E+01	  0.065290578	-1.333100E+01
228	  0.065490983	-5.667000E+00	  0.065490983	-1.477980E+02	  0.065490983	1.693000E+01	  0.065490983	-1.289200E+01
229	  0.065691382	-5.664000E+00	  0.065691382	-1.488760E+02	  0.065691382	1.684200E+01	  0.065691382	-1.244600E+01
230	  0.065891780	-5.667000E+00	  0.065891780	-1.499550E+02	  0.065891780	1.677200E+01	  0.065891780	-1.199900E+01
231	  0.066092186	-5.668000E+00	  0.066092186	-1.510180E+02	  0.066092186	1.670200E+01	  0.066092186	-1.156100E+01
232	  0.066292584	-5.669000E+00	  0.066292584	-1.520750E+02	  0.066292584	1.663500E+01	  0.066292584	-1.112700E+01
233	  0.066492982	-5.673000E+00	  0.066492982	-1.531190E+02	  0.066492982	1.657800E+01	  0.066492982	-1.069800E+01
234	  0.066693388	-5.671000E+00	  0.066693388	-1.541560E+02	  0.066693388	1.651100E+01	  0.066693388	-1.027600E+01
235	  0.066893786	-5.673000E+00	  0.066893786	-1.552200E+02	  0.066893786	1.645400E+01	  0.066893786	-9.843000E+00
236	  0.067094192	-5.675000E+00	  0.067094192	-1.562470E+02	  0.067094192	1.640400E+01	  0.067094192	-9.426000E+00
237	  0.067294590	-5.677000E+00	  0.067294590	-1.572730E+02	  0.067294590	1.635500E+01	  0.067294590	-9.010000E+00
238	  0.067494988	-5.678000E+00	  0.067494988	-1.583510E+02	  0.067494988	1.630400E+01	  0.067494988	-8.575000E+00
239	  0.067695394	-5.681000E+00	  0.067695394	-1.593620E+02	  0.067695394	1.626300E+01	  0.067695394	-8.168000E+00
240	  0.067895792	-5.682000E+00	  0.067895792	-1.604130E+02	  0.067895792	1.621700E+01	  0.067895792	-7.746000E+00
241	  0.068096191	-5.689000E+00	  0.068096191	-1.614460E+02	  0.068096191	1.619300E+01	  0.068096191	-7.330000E+00
242	  0.068296596	-5.691000E+00	  0.068296596	-1.624610E+02	  0.068296596	1.615700E+01	  0.068296596	-6.924000E+00
243	  0.068496995	-5.691000E+00	  0.068496995	-1.634920E+02	  0.068496995	1.611700E+01	  0.068496995	-6.513000E+00
244	  0.068697393	-5.695000E+00	  0.068697393	-1.644790E+02	  0.068697393	1.609300E+01	  0.068697393	-6.119000E+00
245	  0.068897791	-5.698000E+00	  0.068897791	-1.655230E+02	  0.068897791	1.606500E+01	  0.068897791	-5.704000E+00
246	  0.069098189	-5.697000E+00	  0.069098189	-1.665050E+02	  0.069098189	1.603500E+01	  0.069098189	-5.314000E+00
247	  0.069298595	-5.699000E+00	  0.069298595	-1.675170E+02	  0.069298595	1.601100E+01	  0.069298595	-4.913000E+00
248	  0.069498993	-5.700000E+00	  0.069498993	-1.685040E+02	  0.069498993	1.598700E+01	  0.069498993	-4.522000E+00
249	  0.069699399	-5.707000E+00	  0.069699399	-1.695230E+02	  0.069699399	1.598000E+01	  0.069699399	-4.119000E+00
250	  0.069899797	-5.713000E+00	  0.069899797	-1.705150E+02	  0.069899797	1.597500E+01	  0.069899797	-3.727000E+00
251	  0.070100196	-5.720000E+00	  0.070100196	-1.714800E+02	  0.070100196	1.597400E+01	  0.070100196	-3.346000E+00
252	  0.070300601	-5.718000E+00	  0.070300601	-1.724910E+02	  0.070300601	1.595000E+01	  0.070300601	-2.948000E+00
253	  0.070501000	-5.720000E+00	  0.070501000	-1.734680E+02	  0.070501000	1.594100E+01	  0.070501000	-2.563000E+00
254	  0.070701398	-5.723000E+00	  0.070701398	-1.744420E+02	  0.070701398	1.593600E+01	  0.070701398	-2.180000E+00
255	  0.070901804	-5.724000E+00	  0.070901804	-1.754490E+02	  0.070901804	1.592700E+01	  0.070901804	-1.785000E+00
256	  0.071102202	-5.728000E+00	  0.071102202	-1.763980E+02	  0.071102202	1.592900E+01	  0.071102202	-1.412000E+00
257	  0.071302600	-5.735000E+00	  0.071302600	-1.773830E+02	  0.071302600	1.594000E+01	  0.071302600	-1.025000E+00
258	  0.071503006	-5.734000E+00	  0.071503006	-1.783130E+02	  0.071503006	1.593400E+01	  0.071503006	-6.610000E-01
259	  0.071703404	-5.740000E+00	  0.071703404	-1.792600E+02	  0.071703404	1.594600E+01	  0.071703404	-2.890000E-01
260	  0.071903802	-5.744000E+00	  0.071903802	1.797850E+02	  0.071903802	1.595500E+01	  0.071903802	8.400000E-02
261	  0.072104208	-5.749000E+00	  0.072104208	1.788530E+02	  0.072104208	1.597000E+01	  0.072104208	4.490000E-01
262	  0.072304606	-5.754000E+00	  0.072304606	1.779160E+02	  0.072304606	1.598800E+01	  0.072304606	8.160000E-01
263	  0.072505005	-5.760000E+00	  0.072505005	1.769870E+02	  0.072505005	1.600600E+01	  0.072505005	1.180000E+00
264	  0.072705410	-5.765000E+00	  0.072705410	1.760920E+02	  0.072705410	1.602800E+01	  0.072705410	1.530000E+00
265	  0.072905809	-5.769000E+00	  0.072905809	1.751430E+02	  0.072905809	1.604600E+01	  0.072905809	1.902000E+00
266	  0.073106214	-5.777000E+00	  0.073106214	1.742290E+02	  0.073106214	1.607800E+01	  0.073106214	2.259000E+00
267	  0.073306613	-5.782000E+00	  0.073306613	1.733030E+02	  0.073306613	1.610400E+01	  0.073306613	2.622000E+00
268	  0.073507011	-5.791000E+00	  0.073507011	1.723980E+02	  0.073507011	1.614100E+01	  0.073507011	2.976000E+00
269	  0.073707417	-5.792000E+00	  0.073707417	1.714660E+02	  0.073707417	1.616000E+01	  0.073707417	3.342000E+00
270	  0.073907815	-5.800000E+00	  0.073907815	1.705850E+02	  0.073907815	1.619800E+01	  0.073907815	3.687000E+00
271	  0.074108213	-5.806000E+00	  0.074108213	1.696770E+02	  0.074108213	1.623400E+01	  0.074108213	4.043000E+00
272	  0.074308619	-5.811000E+00	  0.074308619	1.687870E+02	  0.074308619	1.626700E+01	  0.074308619	4.393000E+00
273	  0.074509017	-5.819000E+00	  0.074509017	1.678400E+02	  0.074509017	1.631400E+01	  0.074509017	4.764000E+00
274	  0.074709415	-5.825000E+00	  0.074709415	1.669670E+02	  0.074709415	1.635500E+01	  0.074709415	5.106000E+00
275	  0.074909821	-5.832000E+00	  0.074909821	1.660750E+02	  0.074909821	1.640000E+01	  0.074909821	5.457000E+00
276	  0.075110219	-5.842000E+00	  0.075110219	1.651700E+02	  0.075110219	1.645500E+01	  0.075110219	5.812000E+00
277	  0.075310618	-5.850000E+00	  0.075310618	1.642610E+02	  0.075310618	1.650600E+01	  0.075310618	6.170000E+00
278	  0.075511023	-5.858000E+00	  0.075511023	1.633980E+02	  0.075511023	1.655900E+01	  0.075511023	6.509000E+00
279	  0.075711422	-5.861000E+00	  0.075711422	1.625060E+02	  0.075711422	1.660000E+01	  0.075711422	6.862000E+00
280	  0.075911827	-5.873000E+00	  0.075911827	1.616340E+02	  0.075911827	1.666700E+01	  0.075911827	7.205000E+00
281	  0.076112226	-5.881000E+00	  0.076112226	1.607150E+02	  0.076112226	1.672900E+01	  0.076112226	7.567000E+00
282	  0.076312624	-5.889000E+00	  0.076312624	1.598580E+02	  0.076312624	1.678900E+01	  0.076312624	7.905000E+00
283	  0.076513030	-5.897000E+00	  0.076513030	1.589380E+02	  0.076513030	1.685300E+01	  0.076513030	8.270000E+00
284	  0.076713428	-5.905000E+00	  0.076713428	1.580610E+02	  0.076713428	1.691700E+01	  0.076713428	8.617000E+00
285	  0.076913826	-5.909000E+00	  0.076913826	1.571520E+02	  0.076913826	1.697600E+01	  0.076913826	8.979000E+00
286	  0.077114232	-5.914000E+00	  0.077114232	1.562850E+02	  0.077114232	1.703500E+01	  0.077114232	9.324000E+00
287	  0.077314630	-5.918000E+00	  0.077314630	1.554010E+02	  0.077314630	1.709700E+01	  0.077314630	9.678000E+00
288	  0.077515028	-5.925000E+00	  0.077515028	1.545740E+02	  0.077515028	1.716500E+01	  0.077515028	1.000700E+01
289	  0.077715434	-5.927000E+00	  0.077715434	1.536800E+02	  0.077715434	1.722500E+01	  0.077715434	1.036600E+01
290	  0.077915832	-5.941000E+00	  0.077915832	1.528340E+02	  0.077915832	1.731600E+01	  0.077915832	1.070200E+01
291	  0.078116231	-5.948000E+00	  0.078116231	1.519810E+02	  0.078116231	1.739100E+01	  0.078116231	1.104400E+01
292	  0.078316636	-5.953000E+00	  0.078316636	1.511400E+02	  0.078316636	1.746100E+01	  0.078316636	1.138300E+01
293	  0.078517035	-5.967000E+00	  0.078517035	1.502750E+02	  0.078517035	1.755800E+01	  0.078517035	1.172800E+01
294	  0.078717433	-5.974000E+00	  0.078717433	1.494290E+02	  0.078717433	1.764000E+01	  0.078717433	1.206800E+01
295	  0.078917839	-5.985000E+00	  0.078917839	1.485700E+02	  0.078917839	1.773400E+01	  0.078917839	1.241300E+01
296	  0.079118237	-5.994000E+00	  0.079118237	1.477520E+02	  0.079118237	1.782200E+01	  0.079118237	1.274300E+01
297	  0.079318643	-6.006000E+00	  0.079318643	1.469030E+02	  0.079318643	1.792200E+01	  0.079318643	1.308500E+01
298	  0.079519041	-6.015000E+00	  0.079519041	1.460690E+02	  0.079519041	1.801700E+01	  0.079519041	1.342200E+01
299	  0.079719439	-6.027000E+00	  0.079719439	1.452460E+02	  0.079719439	1.812000E+01	  0.079719439	1.375400E+01
300	  0.079919845	-6.041000E+00	  0.079919845	1.444090E+02	  0.079919845	1.823100E+01	  0.079919845	1.409100E+01
301	  0.080120243	-6.051000E+00	  0.080120243	1.435580E+02	  0.080120243	1.833800E+01	  0.080120243	1.443700E+01
302	  0.080320641	-6.059000E+00	  0.080320641	1.427020E+02	  0.080320641	1.843900E+01	  0.080320641	1.478700E+01
303	  0.080521047	-6.074000E+00	  0.080521047	1.418780E+02	  0.080521047	1.855900E+01	  0.080521047	1.512000E+01
304	  0.080721445	-6.083000E+00	  0.080721445	1.410290E+02	  0.080721445	1.867000E+01	  0.080721445	1.546800E+01
305	  0.080921844	-6.099000E+00	  0.080921844	1.401930E+02	  0.080921844	1.879800E+01	  0.080921844	1.580600E+01
306	  0.081122249	-6.109000E+00	  0.081122249	1.393750E+02	  0.081122249	1.891100E+01	  0.081122249	1.614200E+01
307	  0.081322648	-6.122000E+00	  0.081322648	1.385610E+02	  0.081322648	1.903600E+01	  0.081322648	1.647400E+01
308	  0.081523046	-6.137000E+00	  0.081523046	1.377140E+02	  0.081523046	1.917200E+01	  0.081523046	1.682000E+01
309	  0.081723452	-6.147000E+00	  0.081723452	1.369040E+02	  0.081723452	1.929200E+01	  0.081723452	1.715400E+01
310	  0.081923850	-6.160000E+00	  0.081923850	1.360480E+02	  0.081923850	1.943000E+01	  0.081923850	1.750700E+01
311	  0.082124248	-6.178000E+00	  0.082124248	1.352610E+02	  0.082124248	1.957200E+01	  0.082124248	1.782700E+01
312	  0.082324654	-6.187000E+00	  0.082324654	1.344470E+02	  0.082324654	1.969800E+01	  0.082324654	1.816600E+01
313	  0.082525052	-6.206000E+00	  0.082525052	1.336430E+02	  0.082525052	1.985500E+01	  0.082525052	1.849300E+01
314	  0.082725458	-6.217000E+00	  0.082725458	1.328520E+02	  0.082725458	1.998700E+01	  0.082725458	1.882200E+01
315	  0.082925856	-6.238000E+00	  0.082925856	1.320500E+02	  0.082925856	2.015400E+01	  0.082925856	1.914800E+01
316	  0.083126254	-6.255000E+00	  0.083126254	1.311950E+02	  0.083126254	2.031900E+01	  0.083126254	1.950000E+01
317	  0.083326660	-6.268000E+00	  0.083326660	1.303770E+02	  0.083326660	2.047200E+01	  0.083326660	1.984000E+01
318	  0.083527058	-6.286000E+00	  0.083527058	1.295500E+02	  0.083527058	2.064200E+01	  0.083527058	2.018100E+01
319	  0.083727457	-6.303000E+00	  0.083727457	1.287110E+02	  0.083727457	2.081200E+01	  0.083727457	2.052900E+01
320	  0.083927862	-6.317000E+00	  0.083927862	1.279180E+02	  0.083927862	2.097300E+01	  0.083927862	2.085900E+01
321	  0.084128261	-6.330000E+00	  0.084128261	1.270990E+02	  0.084128261	2.113700E+01	  0.084128261	2.120400E+01
322	  0.084328659	-6.348000E+00	  0.084328659	1.262970E+02	  0.084328659	2.131600E+01	  0.084328659	2.153500E+01
323	  0.084529065	-6.361000E+00	  0.084529065	1.254980E+02	  0.084529065	2.148400E+01	  0.084529065	2.187200E+01
324	  0.084729463	-6.381000E+00	  0.084729463	1.247340E+02	  0.084729463	2.166600E+01	  0.084729463	2.218600E+01
325	  0.084929861	-6.397000E+00	  0.084929861	1.239250E+02	  0.084929861	2.185100E+01	  0.084929861	2.252500E+01
326	  0.085130267	-6.414000E+00	  0.085130267	1.231280E+02	  0.085130267	2.204000E+01	  0.085130267	2.285800E+01
327	  0.085330658	-6.430000E+00	  0.085330658	1.223480E+02	  0.085330658	2.222400E+01	  0.085330658	2.318500E+01
328	  0.085531056	-6.453000E+00	  0.085531056	1.216000E+02	  0.085531056	2.242800E+01	  0.085531056	2.349000E+01
329	  0.085731462	-6.472000E+00	  0.085731462	1.208180E+02	  0.085731462	2.263000E+01	  0.085731462	2.381500E+01
330	  0.085931860	-6.491000E+00	  0.085931860	1.200530E+02	  0.085931860	2.283200E+01	  0.085931860	2.413200E+01
331	  0.086132258	-6.517000E+00	  0.086132258	1.192850E+02	  0.086132258	2.305600E+01	  0.086132258	2.444300E+01
332	  0.086332664	-6.537000E+00	  0.086332664	1.185160E+02	  0.086332664	2.327100E+01	  0.086332664	2.476100E+01
333	  0.086533062	-6.563000E+00	  0.086533062	1.177570E+02	  0.086533062	2.350200E+01	  0.086533062	2.506700E+01
334	  0.086733460	-6.583000E+00	  0.086733460	1.169660E+02	  0.086733460	2.372500E+01	  0.086733460	2.539600E+01
335	  0.086933866	-6.600000E+00	  0.086933866	1.161900E+02	  0.086933866	2.394200E+01	  0.086933866	2.572200E+01
336	  0.087134264	-6.629000E+00	  0.087134264	1.154240E+02	  0.087134264	2.419400E+01	  0.087134264	2.602700E+01
337	  0.087334670	-6.651000E+00	  0.087334670	1.146360E+02	  0.087334670	2.443300E+01	  0.087334670	2.635200E+01
338	  0.087535068	-6.673000E+00	  0.087535068	1.138730E+02	  0.087535068	2.467300E+01	  0.087535068	2.666500E+01
339	  0.087735467	-6.694000E+00	  0.087735467	1.131070E+02	  0.087735467	2.491300E+01	  0.087735467	2.698200E+01
340	  0.087935872	-6.718000E+00	  0.087935872	1.123550E+02	  0.087935872	2.516500E+01	  0.087935872	2.728600E+01
341	  0.088136271	-6.746000E+00	  0.088136271	1.116030E+02	  0.088136271	2.543200E+01	  0.088136271	2.758300E+01
342	  0.088336669	-6.765000E+00	  0.088336669	1.108480E+02	  0.088336669	2.567700E+01	  0.088336669	2.789700E+01
343	  0.088537075	-6.792000E+00	  0.088537075	1.101060E+02	  0.088537075	2.594300E+01	  0.088537075	2.819300E+01
344	  0.088737473	-6.811000E+00	  0.088737473	1.093560E+02	  0.088737473	2.619600E+01	  0.088737473	2.850300E+01
345	  0.088937871	-6.834000E+00	  0.088937871	1.086100E+02	  0.088937871	2.646300E+01	  0.088937871	2.880400E+01
346	  0.089138277	-6.861000E+00	  0.089138277	1.078920E+02	  0.089138277	2.673600E+01	  0.089138277	2.908700E+01
347	  0.089338675	-6.888000E+00	  0.089338675	1.071610E+02	  0.089338675	2.701800E+01	  0.089338675	2.937400E+01
348	  0.089539073	-6.917000E+00	  0.089539073	1.064430E+02	  0.089539073	2.730900E+01	  0.089539073	2.964900E+01
349	  0.089739479	-6.950000E+00	  0.089739479	1.056980E+02	  0.089739479	2.762100E+01	  0.089739479	2.993000E+01
350	  0.089939877	-6.979000E+00	  0.089939877	1.049450E+02	  0.089939877	2.792800E+01	  0.089939877	3.022000E+01
351	  0.090140276	-7.011000E+00	  0.090140276	1.041880E+02	  0.090140276	2.825100E+01	  0.090140276	3.050500E+01
352	  0.090340681	-7.041000E+00	  0.090340681	1.034880E+02	  0.090340681	2.855200E+01	  0.090340681	3.076800E+01
353	  0.090541080	-7.069000E+00	  0.090541080	1.027140E+02	  0.090541080	2.887800E+01	  0.090541080	3.106600E+01
354	  0.090741485	-7.105000E+00	  0.090741485	1.019660E+02	  0.090741485	2.922200E+01	  0.090741485	3.133500E+01
355	  0.090941884	-7.133000E+00	  0.090941884	1.012740E+02	  0.090941884	2.953300E+01	  0.090941884	3.159000E+01
356	  0.091142282	-7.167000E+00	  0.091142282	1.005380E+02	  0.091142282	2.987700E+01	  0.091142282	3.185500E+01
357	  0.091342688	-7.201000E+00	  0.091342688	9.980000E+01	  0.091342688	3.022600E+01	  0.091342688	3.211700E+01
358	  0.091543086	-7.239000E+00	  0.091543086	9.910200E+01	  0.091543086	3.058100E+01	  0.091543086	3.234900E+01
359	  0.091743484	-7.265000E+00	  0.091743484	9.838800E+01	  0.091743484	3.090800E+01	  0.091743484	3.261400E+01
360	  0.091943890	-7.304000E+00	  0.091943890	9.769600E+01	  0.091943890	3.126900E+01	  0.091943890	3.283900E+01
361	  0.092144288	-7.340000E+00	  0.092144288	9.699800E+01	  0.092144288	3.162900E+01	  0.092144288	3.306900E+01
362	  0.092344686	-7.376000E+00	  0.092344686	9.631500E+01	  0.092344686	3.198900E+01	  0.092344686	3.329000E+01
363	  0.092545092	-7.411000E+00	  0.092545092	9.563900E+01	  0.092545092	3.234500E+01	  0.092545092	3.350900E+01
364	  0.092745490	-7.446000E+00	  0.092745490	9.497500E+01	  0.092745490	3.270200E+01	  0.092745490	3.371800E+01
365	  0.092945889	-7.491000E+00	  0.092945889	9.434900E+01	  0.092945889	3.307900E+01	  0.092945889	3.388200E+01
366	  0.093146294	-7.532000E+00	  0.093146294	9.367700E+01	  0.093146294	3.346400E+01	  0.093146294	3.407400E+01
367	  0.093346693	-7.570000E+00	  0.093346693	9.302000E+01	  0.093346693	3.383900E+01	  0.093346693	3.426500E+01
368	  0.093547091	-7.609000E+00	  0.093547091	9.231700E+01	  0.093547091	3.424000E+01	  0.093547091	3.446800E+01
369	  0.093747497	-7.650000E+00	  0.093747497	9.168000E+01	  0.093747497	3.462300E+01	  0.093747497	3.463500E+01
370	  0.093947895	-7.692000E+00	  0.093947895	9.100600E+01	  0.093947895	3.502800E+01	  0.093947895	3.481100E+01
371	  0.094148301	-7.737000E+00	  0.094148301	9.038200E+01	  0.094148301	3.542300E+01	  0.094148301	3.495500E+01
372	  0.094348699	-7.776000E+00	  0.094348699	8.974600E+01	  0.094348699	3.581100E+01	  0.094348699	3.511400E+01
373	  0.094549097	-7.821000E+00	  0.094549097	8.912400E+01	  0.094549097	3.621100E+01	  0.094549097	3.525000E+01
374	  0.094749503	-7.859000E+00	  0.094749503	8.848700E+01	  0.094749503	3.660500E+01	  0.094749503	3.540500E+01
375	  0.094949901	-7.900000E+00	  0.094949901	8.786600E+01	  0.094949901	3.699900E+01	  0.094949901	3.554400E+01
376	  0.095150299	-7.936000E+00	  0.095150299	8.728000E+01	  0.095150299	3.737100E+01	  0.095150299	3.567600E+01
377	  0.095350705	-7.982000E+00	  0.095350705	8.668900E+01	  0.095350705	3.777400E+01	  0.095350705	3.577700E+01
378	  0.095551103	-8.024000E+00	  0.095551103	8.606800E+01	  0.095551103	3.818000E+01	  0.095551103	3.590200E+01
379	  0.095751502	-8.062000E+00	  0.095751502	8.550000E+01	  0.095751502	3.855700E+01	  0.095751502	3.601000E+01
380	  0.095951907	-8.104000E+00	  0.095951907	8.495800E+01	  0.095951907	3.893100E+01	  0.095951907	3.609300E+01
381	  0.096152306	-8.151000E+00	  0.096152306	8.441100E+01	  0.096152306	3.932400E+01	  0.096152306	3.615700E+01
382	  0.096352704	-8.195000E+00	  0.096352704	8.387400E+01	  0.096352704	3.970600E+01	  0.096352704	3.622200E+01
383	  0.096553110	-8.239000E+00	  0.096553110	8.332400E+01	  0.096553110	4.009700E+01	  0.096553110	3.628900E+01
384	  0.096753508	-8.278000E+00	  0.096753508	8.280300E+01	  0.096753508	4.046100E+01	  0.096753508	3.635900E+01
385	  0.096953906	-8.325000E+00	  0.096953906	8.228500E+01	  0.096953906	4.084700E+01	  0.096953906	3.639300E+01
386	  0.097154312	-8.372000E+00	  0.097154312	8.176000E+01	  0.097154312	4.123700E+01	  0.097154312	3.642700E+01
387	  0.097354710	-8.414000E+00	  0.097354710	8.121100E+01	  0.097354710	4.162800E+01	  0.097354710	3.648500E+01
388	  0.097555116	-8.463000E+00	  0.097555116	8.071400E+01	  0.097555116	4.201000E+01	  0.097555116	3.649300E+01
389	  0.097755514	-8.507000E+00	  0.097755514	8.019300E+01	  0.097755514	4.239500E+01	  0.097755514	3.652300E+01
390	  0.097955912	-8.554000E+00	  0.097955912	7.970400E+01	  0.097955912	4.276900E+01	  0.097955912	3.652800E+01
391	  0.098156318	-8.600000E+00	  0.098156318	7.921700E+01	  0.098156318	4.314200E+01	  0.098156318	3.653000E+01
392	  0.098356716	-8.639000E+00	  0.098356716	7.873300E+01	  0.098356716	4.349700E+01	  0.098356716	3.655300E+01
393	  0.098557115	-8.678000E+00	  0.098557115	7.825300E+01	  0.098557115	4.385100E+01	  0.098557115	3.657200E+01
394	  0.098757520	-8.727000E+00	  0.098757520	7.777100E+01	  0.098757520	4.422800E+01	  0.098757520	3.655100E+01
395	  0.098957919	-8.769000E+00	  0.098957919	7.731100E+01	  0.098957919	4.457900E+01	  0.098957919	3.654300E+01
396	  0.099158317	-8.816000E+00	  0.099158317	7.687300E+01	  0.099158317	4.492800E+01	  0.099158317	3.650600E+01
397	  0.099358723	-8.857000E+00	  0.099358723	7.646600E+01	  0.099358723	4.524800E+01	  0.099358723	3.647700E+01
398	  0.099559121	-8.902000E+00	  0.099559121	7.602200E+01	  0.099559121	4.559600E+01	  0.099559121	3.644300E+01
399	  0.099759519	-8.947000E+00	  0.099759519	7.557300E+01	  0.099759519	4.594500E+01	  0.099759519	3.640800E+01
400	  0.099959925	-8.980000E+00	  0.099959925	7.518300E+01	  0.099959925	4.623900E+01	  0.099959925	3.639500E+01
401	  0.100160323	-9.042000E+00	  0.100160323	7.474400E+01	  0.100160323	4.661700E+01	  0.100160323	3.628000E+01
402	  0.100360721	-9.074000E+00	  0.100360721	7.433300E+01	  0.100360721	4.692000E+01	  0.100360721	3.627300E+01
403	  0.100561127	-9.118000E+00	  0.100561127	7.392700E+01	  0.100561127	4.724300E+01	  0.100561127	3.621300E+01
404	  0.100761525	-9.154000E+00	  0.100761525	7.352800E+01	  0.100761525	4.754700E+01	  0.100761525	3.617900E+01
405	  0.100961931	-9.196000E+00	  0.100961931	7.312200E+01	  0.100961931	4.786500E+01	  0.100961931	3.612300E+01
406	  0.101162329	-9.228000E+00	  0.101162329	7.280600E+01	  0.101162329	4.811200E+01	  0.101162329	3.607600E+01
407	  0.101362728	-9.269000E+00	  0.101362728	7.242900E+01	  0.101362728	4.841000E+01	  0.101362728	3.601000E+01
408	  0.101563133	-9.302000E+00	  0.101563133	7.200900E+01	  0.101563133	4.872000E+01	  0.101563133	3.598400E+01
409	  0.101763532	-9.343000E+00	  0.101763532	7.169400E+01	  0.101763532	4.898000E+01	  0.101763532	3.589300E+01
410	  0.101963930	-9.376000E+00	  0.101963930	7.131700E+01	  0.101963930	4.926300E+01	  0.101963930	3.585200E+01
411	  0.102164336	-9.411000E+00	  0.102164336	7.089500E+01	  0.102164336	4.957900E+01	  0.102164336	3.580600E+01
412	  0.102364734	-9.439000E+00	  0.102364734	7.060800E+01	  0.102364734	4.979900E+01	  0.102364734	3.575800E+01
413	  0.102565132	-9.474000E+00	  0.102565132	7.021500E+01	  0.102565132	5.009500E+01	  0.102565132	3.570200E+01
414	  0.102765530	-9.490000E+00	  0.102765530	6.997800E+01	  0.102765530	5.026700E+01	  0.102765530	3.568700E+01
415	  0.102965929	-9.528000E+00	  0.102965929	6.960300E+01	  0.102965929	5.055600E+01	  0.102965929	3.561100E+01
416	  0.103166327	-9.552000E+00	  0.103166327	6.928700E+01	  0.103166327	5.078800E+01	  0.103166327	3.557600E+01
417	  0.103366733	-9.573000E+00	  0.103366733	6.897900E+01	  0.103366733	5.101000E+01	  0.103366733	3.555400E+01
418	  0.103567131	-9.593000E+00	  0.103567131	6.868500E+01	  0.103567131	5.122400E+01	  0.103567131	3.552700E+01
419	  0.103767529	-9.628000E+00	  0.103767529	6.837000E+01	  0.103767529	5.147000E+01	  0.103767529	3.544200E+01
420	  0.103967935	-9.647000E+00	  0.103967935	6.808000E+01	  0.103967935	5.167900E+01	  0.103967935	3.541800E+01
421	  0.104168333	-9.667000E+00	  0.104168333	6.778100E+01	  0.104168333	5.189500E+01	  0.104168333	3.538900E+01
422	  0.104368731	-9.695000E+00	  0.104368731	6.752800E+01	  0.104368731	5.209100E+01	  0.104368731	3.531700E+01
423	  0.104569137	-9.712000E+00	  0.104569137	6.723400E+01	  0.104569137	5.229900E+01	  0.104569137	3.530000E+01
424	  0.104769535	-9.723000E+00	  0.104769535	6.693500E+01	  0.104769535	5.250600E+01	  0.104769535	3.530200E+01
425	  0.104969934	-9.738000E+00	  0.104969934	6.665700E+01	  0.104969934	5.270300E+01	  0.104969934	3.528500E+01
426	  0.105170339	-9.752000E+00	  0.105170339	6.636000E+01	  0.105170339	5.291100E+01	  0.105170339	3.527700E+01
427	  0.105370738	-9.766000E+00	  0.105370738	6.609900E+01	  0.105370738	5.309600E+01	  0.105370738	3.526000E+01
428	  0.105571143	-9.769000E+00	  0.105571143	6.573800E+01	  0.105571143	5.333600E+01	  0.105571143	3.530500E+01
429	  0.105771542	-9.787000E+00	  0.105771542	6.544600E+01	  0.105771542	5.354700E+01	  0.105771542	3.527100E+01
430	  0.105971940	-9.796000E+00	  0.105971940	6.519800E+01	  0.105971940	5.372000E+01	  0.105971940	3.527000E+01
431	  0.106172346	-9.805000E+00	  0.106172346	6.486400E+01	  0.106172346	5.395000E+01	  0.106172346	3.527900E+01
432	  0.106372744	-9.813000E+00	  0.106372744	6.459000E+01	  0.106372744	5.414000E+01	  0.106372744	3.528300E+01
433	  0.106573142	-9.818000E+00	  0.106573142	6.424300E+01	  0.106573142	5.437600E+01	  0.106573142	3.531000E+01
434	  0.106773548	-9.827000E+00	  0.106773548	6.396200E+01	  0.106773548	5.457400E+01	  0.106773548	3.530600E+01
435	  0.106973946	-9.825000E+00	  0.106973946	6.362700E+01	  0.106973946	5.479700E+01	  0.106973946	3.536300E+01
436	  0.107174344	-9.822000E+00	  0.107174344	6.330200E+01	  0.107174344	5.501500E+01	  0.107174344	3.541800E+01
437	  0.107374750	-9.826000E+00	  0.107374750	6.296000E+01	  0.107374750	5.525100E+01	  0.107374750	3.544300E+01
438	  0.107575148	-9.819000E+00	  0.107575148	6.262000E+01	  0.107575148	5.548000E+01	  0.107575148	3.551300E+01
439	  0.107775547	-9.812000E+00	  0.107775547	6.232400E+01	  0.107775547	5.567800E+01	  0.107775547	3.557900E+01
440	  0.107975952	-9.806000E+00	  0.107975952	6.192800E+01	  0.107975952	5.594800E+01	  0.107975952	3.565500E+01
441	  0.108176351	-9.801000E+00	  0.108176351	6.154600E+01	  0.108176351	5.621100E+01	  0.108176351	3.572000E+01
442	  0.108376749	-9.793000E+00	  0.108376749	6.118200E+01	  0.108376749	5.646200E+01	  0.108376749	3.579200E+01
443	  0.108577155	-9.789000E+00	  0.108577155	6.081800E+01	  0.108577155	5.671700E+01	  0.108577155	3.584800E+01
444	  0.108777553	-9.777000E+00	  0.108777553	6.039600E+01	  0.108777553	5.701000E+01	  0.108777553	3.594400E+01
445	  0.108977959	-9.764000E+00	  0.108977959	6.002800E+01	  0.108977959	5.726600E+01	  0.108977959	3.604400E+01
446	  0.109178357	-9.752000E+00	  0.109178357	5.959600E+01	  0.109178357	5.757100E+01	  0.109178357	3.613900E+01
447	  0.109378755	-9.730000E+00	  0.109378755	5.914500E+01	  0.109378755	5.788900E+01	  0.109378755	3.628000E+01
448	  0.109579161	-9.724000E+00	  0.109579161	5.871300E+01	  0.109579161	5.820300E+01	  0.109579161	3.634400E+01
449	  0.109779559	-9.709000E+00	  0.109779559	5.834200E+01	  0.109779559	5.847100E+01	  0.109779559	3.644700E+01
450	  0.109979957	-9.689000E+00	  0.109979957	5.787500E+01	  0.109979957	5.881100E+01	  0.109979957	3.657500E+01
451	  0.110180363	-9.670000E+00	  0.110180363	5.741100E+01	  0.110180363	5.915300E+01	  0.110180363	3.669900E+01
452	  0.110380761	-9.651000E+00	  0.110380761	5.691800E+01	  0.110380761	5.952100E+01	  0.110380761	3.682200E+01
453	  0.110581160	-9.638000E+00	  0.110581160	5.648000E+01	  0.110581160	5.985300E+01	  0.110581160	3.691200E+01
454	  0.110781565	-9.614000E+00	  0.110781565	5.599100E+01	  0.110781565	6.022500E+01	  0.110781565	3.705700E+01
455	  0.110981964	-9.598000E+00	  0.110981964	5.546500E+01	  0.110981964	6.063300E+01	  0.110981964	3.716200E+01
456	  0.111182362	-9.578000E+00	  0.111182362	5.496300E+01	  0.111182362	6.102500E+01	  0.111182362	3.727800E+01
457	  0.111382768	-9.562000E+00	  0.111382768	5.441100E+01	  0.111382768	6.146300E+01	  0.111382768	3.737800E+01
458	  0.111583166	-9.536000E+00	  0.111583166	5.388200E+01	  0.111583166	6.188700E+01	  0.111583166	3.752700E+01
459	  0.111783572	-9.524000E+00	  0.111783572	5.336400E+01	  0.111783572	6.230800E+01	  0.111783572	3.759600E+01
460	  0.111983970	-9.501000E+00	  0.111983970	5.282000E+01	  0.111983970	6.275400E+01	  0.111983970	3.772000E+01
461	  0.112184368	-9.479000E+00	  0.112184368	5.222200E+01	  0.112184368	6.325200E+01	  0.112184368	3.783600E+01
462	  0.112384774	-9.464000E+00	  0.112384774	5.163900E+01	  0.112384774	6.374400E+01	  0.112384774	3.791000E+01
463	  0.112585172	-9.443000E+00	  0.112585172	5.098000E+01	  0.112585172	6.430700E+01	  0.112585172	3.801200E+01
464	  0.112785570	-9.426000E+00	  0.112785570	5.034000E+01	  0.112785570	6.485900E+01	  0.112785570	3.807800E+01
465	  0.112985976	-9.411000E+00	  0.112985976	4.967100E+01	  0.112985976	6.544500E+01	  0.112985976	3.813500E+01
466	  0.113186374	-9.395000E+00	  0.113186374	4.903900E+01	  0.113186374	6.600500E+01	  0.113186374	3.818700E+01
467	  0.113386773	-9.377000E+00	  0.113386773	4.840700E+01	  0.113386773	6.657200E+01	  0.113386773	3.824000E+01
468	  0.113587178	-9.366000E+00	  0.113587178	4.771500E+01	  0.113587178	6.719700E+01	  0.113587178	3.824500E+01
469	  0.113787577	-9.356000E+00	  0.113787577	4.698000E+01	  0.113787577	6.786600E+01	  0.113787577	3.822700E+01
470	  0.113987975	-9.341000E+00	  0.113987975	4.620700E+01	  0.113987975	6.858200E+01	  0.113987975	3.822600E+01
471	  0.114188381	-9.319000E+00	  0.114188381	4.547500E+01	  0.114188381	6.927600E+01	  0.114188381	3.825600E+01
472	  0.114388779	-9.305000E+00	  0.114388779	4.470000E+01	  0.114388779	7.001000E+01	  0.114388779	3.822100E+01
473	  0.114589177	-9.288000E+00	  0.114589177	4.396900E+01	  0.114589177	7.071600E+01	  0.114589177	3.820200E+01
474	  0.114789583	-9.285000E+00	  0.114789583	4.317700E+01	  0.114789583	7.146900E+01	  0.114789583	3.807200E+01
475	  0.114989981	-9.272000E+00	  0.114989981	4.237100E+01	  0.114989981	7.225600E+01	  0.114989981	3.798000E+01
476	  0.115190387	-9.270000E+00	  0.115190387	4.154800E+01	  0.115190387	7.305000E+01	  0.115190387	3.779600E+01
477	  0.115390785	-9.266000E+00	  0.115390785	4.066500E+01	  0.115390785	7.391000E+01	  0.115390785	3.759600E+01
478	  0.115591183	-9.254000E+00	  0.115591183	3.982100E+01	  0.115591183	7.475400E+01	  0.115591183	3.743500E+01
479	  0.115791589	-9.249000E+00	  0.115791589	3.890200E+01	  0.115791589	7.566500E+01	  0.115791589	3.718200E+01
480	  0.115991987	-9.249000E+00	  0.115991987	3.803900E+01	  0.115991987	7.651500E+01	  0.115991987	3.689800E+01
481	  0.116192386	-9.244000E+00	  0.116192386	3.711700E+01	  0.116192386	7.743600E+01	  0.116192386	3.659400E+01
482	  0.116392791	-9.248000E+00	  0.116392791	3.616100E+01	  0.116392791	7.837100E+01	  0.116392791	3.619200E+01
483	  0.116593190	-9.246000E+00	  0.116593190	3.524000E+01	  0.116593190	7.929000E+01	  0.116593190	3.581800E+01
484	  0.116793588	-9.251000E+00	  0.116793588	3.422500E+01	  0.116793588	8.027900E+01	  0.116793588	3.532200E+01
485	  0.116993994	-9.255000E+00	  0.116993994	3.328200E+01	  0.116993994	8.120100E+01	  0.116993994	3.484000E+01
486	  0.117194392	-9.266000E+00	  0.117194392	3.226200E+01	  0.117194392	8.216700E+01	  0.117194392	3.423800E+01
487	  0.117394790	-9.275000E+00	  0.117394790	3.122200E+01	  0.117394790	8.315400E+01	  0.117394790	3.360500E+01
488	  0.117595196	-9.289000E+00	  0.117595196	3.024700E+01	  0.117595196	8.404300E+01	  0.117595196	3.293400E+01
489	  0.117795594	-9.295000E+00	  0.117795594	2.915600E+01	  0.117795594	8.506800E+01	  0.117795594	3.221500E+01
490	  0.117995992	-9.320000E+00	  0.117995992	2.807500E+01	  0.117995992	8.598500E+01	  0.117995992	3.134100E+01
491	  0.118196398	-9.341000E+00	  0.118196398	2.701300E+01	  0.118196398	8.687800E+01	  0.118196398	3.046600E+01
492	  0.118396796	-9.365000E+00	  0.118396796	2.590500E+01	  0.118396796	8.777600E+01	  0.118396796	2.950700E+01
493	  0.118597202	-9.390000E+00	  0.118597202	2.471600E+01	  0.118597202	8.870800E+01	  0.118597202	2.843600E+01
494	  0.118797600	-9.417000E+00	  0.118797600	2.354700E+01	  0.118797600	8.957500E+01	  0.118797600	2.732600E+01
495	  0.118997999	-9.451000E+00	  0.118997999	2.239400E+01	  0.118997999	9.035500E+01	  0.118997999	2.615900E+01
496	  0.119198404	-9.486000E+00	  0.119198404	2.118900E+01	  0.119198404	9.112200E+01	  0.119198404	2.490100E+01
497	  0.119398803	-9.525000E+00	  0.119398803	2.000800E+01	  0.119398803	9.180300E+01	  0.119398803	2.361600E+01
498	  0.119599201	-9.563000E+00	  0.119599201	1.875100E+01	  0.119599201	9.248800E+01	  0.119599201	2.222900E+01
499	  0.119799607	-9.609000E+00	  0.119799607	1.747800E+01	  0.119799607	9.307800E+01	  0.119799607	2.076500E+01
500	  0.120000005	-9.661000E+00	  0.120000005	1.617500E+01	  0.120000005	9.357600E+01	  0.120000005	1.921800E+01
