! Anritsu VNA Master:             	Model: MS2036C/10/77
! SN:             	1601066
! /bd0/18may09/254.ew.m16.txt
! Existing Calibration Information:
! TYPE:             	Current Settings	Active Cal Settings
! TIME:             	05/09/2018 12:19:19 PM	05/09/2018 12:08:51 PM
! INTERNAL TEMP:    	55.5 C	54.8 C
! # POINTS:         	494	494
! START FREQ:       	20.000 MHz	20.000 MHz
! STOP FREQ:        	118.797 594 MHz	118.797 594 MHz
! SOURCE POWER:     	High	High
! IFBW:             	50 Hz	50 Hz
! AVG FACTOR:       	  1 	  1 
! REF PLANE 1:      	0 mm	0 mm
! REF PLANE 2:      	0 mm	0 mm
! CAL TYPE:         	Full S22	Full S22
! CAL METHOD:       	SOLT	SOLT
! CAL LINE TYPE:    	Coax	Coax
! DUT PORT 1:       	K-Conn(M)	K-Conn(M)
! DUT PORT 2:       	K-Conn(M)	K-Conn(M)
! CAL STATUS:       	OK: Accuracy High	--
! PROP-V:       	0.700
! CABLE LOSS:       	0.000 dB/m
! REF IMPEDANCE:       	50.0
! Trace Specific Parameters:	TR1	TR2	TR3	TR4
! TRACE.#.Y (GRAPH TYPE)	LOG MAG	PHASE	REAL IMPEDANCE	IMAGINARY IMPEDANCE
! TRACE.#.X 	FREQ.GHZ	FREQ.GHZ	FREQ.GHZ	FREQ.GHZ
! S-PARAMETER	S22	S22	S22	S22
! SMOOTH/APERTURE %	0	0	0	0
! WINDOW	NSL	NSL	NSL	NSL
! GATING	OFF	OFF	OFF	OFF
! FGTD	OFF	OFF	OFF	OFF
Marker Information per Trace:	TR1	TR2	TR3	TR4
!MK1	--	"MK1 TR2:  20.000 MHz,PH:-126.77°"	--	--
!MK2	--	--	"MK2 TR3:  70.100 200 MHz,Z:(16.154 ohm, -0.808 ohm)"	--
!MK3	--	--	--	--
!MK4	--	--	--	--
!MK5	--	--	--	--
!MK6	--	--	--	--
!MK7	--	--	--	--
!MK8	--	--	--	--
PNT	TR1.FREQ.GHZ	TR1.LOG MAG.dB	TR2.FREQ.GHZ	TR2.PHASE.deg	TR3.FREQ.GHZ	TR3.REAL IMPEDANCE.ohm	TR4.FREQ.GHZ	TR4.IMAGINARY IMPEDANCE.ohm
1	  0.020000000	-6.430000E-01	  0.020000000	-1.267720E+02	  0.020000000	2.316000E+00	  0.020000000	-2.501000E+01
2	  0.020200402	-6.450000E-01	  0.020200402	-1.282460E+02	  0.020200402	2.294000E+00	  0.020200402	-2.421200E+01
3	  0.020400802	-6.470000E-01	  0.020400802	-1.297210E+02	  0.020400802	2.270000E+00	  0.020400802	-2.342300E+01
4	  0.020601204	-6.490000E-01	  0.020601204	-1.312340E+02	  0.020601204	2.252000E+00	  0.020601204	-2.262400E+01
5	  0.020801604	-6.510000E-01	  0.020801604	-1.327580E+02	  0.020801604	2.232000E+00	  0.020801604	-2.182900E+01
6	  0.021002004	-6.530000E-01	  0.021002004	-1.343010E+02	  0.021002004	2.214000E+00	  0.021002004	-2.103300E+01
7	  0.021202406	-6.570000E-01	  0.021202406	-1.358380E+02	  0.021202406	2.202000E+00	  0.021202406	-2.024900E+01
8	  0.021402806	-6.580000E-01	  0.021402806	-1.373830E+02	  0.021402806	2.182000E+00	  0.021402806	-1.947000E+01
9	  0.021603208	-6.630000E-01	  0.021603208	-1.389170E+02	  0.021603208	2.175000E+00	  0.021603208	-1.870300E+01
10	  0.021803608	-6.660000E-01	  0.021803608	-1.404470E+02	  0.021803608	2.163000E+00	  0.021803608	-1.794700E+01
11	  0.022004008	-6.710000E-01	  0.022004008	-1.419790E+02	  0.022004008	2.161000E+00	  0.022004008	-1.719700E+01
12	  0.022204408	-6.770000E-01	  0.022204408	-1.435540E+02	  0.022204408	2.160000E+00	  0.022204408	-1.643300E+01
13	  0.022404809	-6.810000E-01	  0.022404809	-1.451430E+02	  0.022404809	2.153000E+00	  0.022404809	-1.566900E+01
14	  0.022605211	-6.840000E-01	  0.022605211	-1.467290E+02	  0.022605211	2.146000E+00	  0.022605211	-1.491400E+01
15	  0.022805611	-6.900000E-01	  0.022805611	-1.483190E+02	  0.022805611	2.147000E+00	  0.022805611	-1.416200E+01
16	  0.023006011	-6.980000E-01	  0.023006011	-1.499050E+02	  0.023006011	2.153000E+00	  0.023006011	-1.341800E+01
17	  0.023206413	-7.010000E-01	  0.023206413	-1.514900E+02	  0.023206413	2.148000E+00	  0.023206413	-1.268000E+01
18	  0.023406813	-7.040000E-01	  0.023406813	-1.530780E+02	  0.023406813	2.141000E+00	  0.023406813	-1.194700E+01
19	  0.023607215	-7.100000E-01	  0.023607215	-1.546880E+02	  0.023607215	2.147000E+00	  0.023607215	-1.120700E+01
20	  0.023807615	-7.200000E-01	  0.023807615	-1.563030E+02	  0.023807615	2.162000E+00	  0.023807615	-1.047000E+01
21	  0.024008015	-7.270000E-01	  0.024008015	-1.579320E+02	  0.024008015	2.170000E+00	  0.024008015	-9.731000E+00
22	  0.024208417	-7.330000E-01	  0.024208417	-1.595820E+02	  0.024208417	2.178000E+00	  0.024208417	-8.987000E+00
23	  0.024408817	-7.390000E-01	  0.024408817	-1.612470E+02	  0.024408817	2.186000E+00	  0.024408817	-8.240000E+00
24	  0.024609219	-7.450000E-01	  0.024609219	-1.628980E+02	  0.024609219	2.194000E+00	  0.024609219	-7.503000E+00
25	  0.024809619	-7.540000E-01	  0.024809619	-1.645780E+02	  0.024809619	2.208000E+00	  0.024809619	-6.756000E+00
26	  0.025010020	-7.620000E-01	  0.025010020	-1.662330E+02	  0.025010020	2.226000E+00	  0.025010020	-6.023000E+00
27	  0.025210422	-7.710000E-01	  0.025210422	-1.679180E+02	  0.025210422	2.245000E+00	  0.025210422	-5.280000E+00
28	  0.025410822	-7.830000E-01	  0.025410822	-1.696060E+02	  0.025410822	2.270000E+00	  0.025410822	-4.538000E+00
29	  0.025611224	-7.930000E-01	  0.025611224	-1.713110E+02	  0.025611224	2.296000E+00	  0.025611224	-3.790000E+00
30	  0.025811624	-8.040000E-01	  0.025811624	-1.730220E+02	  0.025811624	2.321000E+00	  0.025811624	-3.041000E+00
31	  0.026012026	-8.140000E-01	  0.026012026	-1.747580E+02	  0.026012026	2.346000E+00	  0.026012026	-2.283000E+00
32	  0.026212426	-8.240000E-01	  0.026212426	-1.764950E+02	  0.026212426	2.374000E+00	  0.026212426	-1.526000E+00
33	  0.026412826	-8.380000E-01	  0.026412826	-1.782430E+02	  0.026412826	2.411000E+00	  0.026412826	-7.640000E-01
34	  0.026613226	-8.520000E-01	  0.026613226	-1.799970E+02	  0.026613226	2.451000E+00	  0.026613226	-1.000000E-03
35	  0.026813626	-8.650000E-01	  0.026813626	1.782380E+02	  0.026813626	2.490000E+00	  0.026813626	7.660000E-01
36	  0.027014028	-8.810000E-01	  0.027014028	1.764710E+02	  0.027014028	2.537000E+00	  0.027014028	1.536000E+00
37	  0.027214428	-8.960000E-01	  0.027214428	1.746920E+02	  0.027214428	2.583000E+00	  0.027214428	2.311000E+00
38	  0.027414829	-9.120000E-01	  0.027414829	1.729080E+02	  0.027414829	2.633000E+00	  0.027414829	3.089000E+00
39	  0.027615231	-9.280000E-01	  0.027615231	1.711100E+02	  0.027615231	2.686000E+00	  0.027615231	3.875000E+00
40	  0.027815631	-9.450000E-01	  0.027815631	1.693080E+02	  0.027815631	2.743000E+00	  0.027815631	4.664000E+00
41	  0.028016033	-9.630000E-01	  0.028016033	1.674870E+02	  0.028016033	2.802000E+00	  0.028016033	5.464000E+00
42	  0.028216433	-9.820000E-01	  0.028216433	1.656460E+02	  0.028216433	2.869000E+00	  0.028216433	6.275000E+00
43	  0.028416833	-1.001000E+00	  0.028416833	1.638030E+02	  0.028416833	2.936000E+00	  0.028416833	7.090000E+00
44	  0.028617235	-1.021000E+00	  0.028617235	1.619510E+02	  0.028617235	3.011000E+00	  0.028617235	7.912000E+00
45	  0.028817635	-1.041000E+00	  0.028817635	1.601100E+02	  0.028817635	3.086000E+00	  0.028817635	8.734000E+00
46	  0.029018037	-1.062000E+00	  0.029018037	1.582600E+02	  0.029018037	3.165000E+00	  0.029018037	9.564000E+00
47	  0.029218437	-1.086000E+00	  0.029218437	1.563970E+02	  0.029218437	3.259000E+00	  0.029218437	1.040400E+01
48	  0.029418837	-1.110000E+00	  0.029418837	1.545000E+02	  0.029418837	3.354000E+00	  0.029418837	1.126500E+01
49	  0.029619239	-1.135000E+00	  0.029619239	1.526080E+02	  0.029619239	3.455000E+00	  0.029619239	1.212900E+01
50	  0.029819639	-1.159000E+00	  0.029819639	1.507060E+02	  0.029819639	3.559000E+00	  0.029819639	1.300500E+01
51	  0.030020041	-1.184000E+00	  0.030020041	1.487980E+02	  0.030020041	3.667000E+00	  0.030020041	1.389100E+01
52	  0.030220442	-1.209000E+00	  0.030220442	1.468890E+02	  0.030220442	3.779000E+00	  0.030220442	1.478500E+01
53	  0.030420844	-1.234000E+00	  0.030420844	1.449800E+02	  0.030420844	3.898000E+00	  0.030420844	1.568600E+01
54	  0.030621244	-1.263000E+00	  0.030621244	1.430780E+02	  0.030621244	4.031000E+00	  0.030621244	1.659400E+01
55	  0.030821642	-1.292000E+00	  0.030821642	1.411650E+02	  0.030821642	4.170000E+00	  0.030821642	1.751500E+01
56	  0.031022044	-1.322000E+00	  0.031022044	1.392300E+02	  0.031022044	4.319000E+00	  0.031022044	1.845700E+01
57	  0.031222444	-1.349000E+00	  0.031222444	1.372950E+02	  0.031222444	4.465000E+00	  0.031222444	1.941100E+01
58	  0.031422846	-1.378000E+00	  0.031422846	1.353330E+02	  0.031422846	4.622000E+00	  0.031422846	2.038900E+01
59	  0.031623244	-1.411000E+00	  0.031623244	1.333590E+02	  0.031623244	4.800000E+00	  0.031623244	2.138600E+01
60	  0.031823646	-1.442000E+00	  0.031823646	1.313880E+02	  0.031823646	4.981000E+00	  0.031823646	2.239500E+01
61	  0.032024048	-1.475000E+00	  0.032024048	1.294190E+02	  0.032024048	5.175000E+00	  0.032024048	2.341700E+01
62	  0.032224450	-1.510000E+00	  0.032224450	1.274450E+02	  0.032224450	5.385000E+00	  0.032224450	2.445600E+01
63	  0.032424849	-1.546000E+00	  0.032424849	1.254670E+02	  0.032424849	5.607000E+00	  0.032424849	2.551200E+01
64	  0.032625251	-1.583000E+00	  0.032625251	1.234640E+02	  0.032625251	5.844000E+00	  0.032625251	2.660000E+01
65	  0.032825653	-1.616000E+00	  0.032825653	1.214350E+02	  0.032825653	6.081000E+00	  0.032825653	2.772200E+01
66	  0.033026051	-1.655000E+00	  0.033026051	1.194290E+02	  0.033026051	6.350000E+00	  0.033026051	2.884800E+01
67	  0.033226453	-1.689000E+00	  0.033226453	1.173910E+02	  0.033226453	6.616000E+00	  0.033226453	3.001500E+01
68	  0.033426855	-1.728000E+00	  0.033426855	1.153690E+02	  0.033426855	6.916000E+00	  0.033426855	3.119300E+01
69	  0.033627257	-1.768000E+00	  0.033627257	1.133630E+02	  0.033627257	7.231000E+00	  0.033627257	3.238400E+01
70	  0.033827655	-1.805000E+00	  0.033827655	1.113170E+02	  0.033827655	7.555000E+00	  0.033827655	3.362600E+01
71	  0.034028057	-1.845000E+00	  0.034028057	1.092950E+02	  0.034028057	7.910000E+00	  0.034028057	3.487600E+01
72	  0.034228459	-1.889000E+00	  0.034228459	1.072450E+02	  0.034228459	8.303000E+00	  0.034228459	3.617000E+01
73	  0.034428857	-1.928000E+00	  0.034428857	1.051770E+02	  0.034428857	8.697000E+00	  0.034428857	3.750800E+01
74	  0.034629259	-1.972000E+00	  0.034629259	1.031130E+02	  0.034629259	9.142000E+00	  0.034629259	3.887000E+01
75	  0.034829661	-2.016000E+00	  0.034829661	1.010510E+02	  0.034829661	9.609000E+00	  0.034829661	4.026400E+01
76	  0.035030060	-2.062000E+00	  0.035030060	9.896600E+01	  0.035030060	1.012000E+01	  0.035030060	4.170700E+01
77	  0.035230462	-2.109000E+00	  0.035230462	9.688400E+01	  0.035230462	1.066700E+01	  0.035230462	4.318300E+01
78	  0.035430863	-2.156000E+00	  0.035430863	9.480400E+01	  0.035430863	1.125300E+01	  0.035430863	4.469500E+01
79	  0.035631265	-2.205000E+00	  0.035631265	9.271900E+01	  0.035631265	1.188400E+01	  0.035631265	4.625000E+01
80	  0.035831664	-2.253000E+00	  0.035831664	9.062900E+01	  0.035831664	1.255500E+01	  0.035831664	4.785100E+01
81	  0.036032066	-2.302000E+00	  0.036032066	8.854200E+01	  0.036032066	1.327900E+01	  0.036032066	4.949300E+01
82	  0.036232468	-2.352000E+00	  0.036232468	8.644200E+01	  0.036232468	1.406400E+01	  0.036232468	5.119000E+01
83	  0.036432866	-2.403000E+00	  0.036432866	8.432700E+01	  0.036432866	1.491100E+01	  0.036432866	5.294900E+01
84	  0.036633268	-2.453000E+00	  0.036633268	8.224200E+01	  0.036633268	1.581100E+01	  0.036633268	5.473100E+01
85	  0.036833670	-2.504000E+00	  0.036833670	8.014100E+01	  0.036833670	1.679000E+01	  0.036833670	5.657900E+01
86	  0.037034072	-2.560000E+00	  0.037034072	7.803000E+01	  0.037034072	1.787800E+01	  0.037034072	5.848100E+01
87	  0.037234470	-2.611000E+00	  0.037234470	7.594600E+01	  0.037234470	1.900900E+01	  0.037234470	6.042500E+01
88	  0.037434869	-2.662000E+00	  0.037434869	7.384800E+01	  0.037434869	2.023900E+01	  0.037434869	6.243900E+01
89	  0.037635271	-2.713000E+00	  0.037635271	7.175500E+01	  0.037635271	2.156800E+01	  0.037635271	6.450800E+01
90	  0.037835669	-2.769000E+00	  0.037835669	6.966000E+01	  0.037835669	2.304000E+01	  0.037835669	6.662400E+01
91	  0.038036071	-2.822000E+00	  0.038036071	6.752300E+01	  0.038036071	2.464100E+01	  0.038036071	6.886000E+01
92	  0.038236473	-2.878000E+00	  0.038236473	6.540900E+01	  0.038236473	2.639600E+01	  0.038236473	7.111800E+01
93	  0.038436871	-2.934000E+00	  0.038436871	6.327900E+01	  0.038436871	2.831900E+01	  0.038436871	7.345500E+01
94	  0.038637273	-2.992000E+00	  0.038637273	6.118600E+01	  0.038637273	3.040000E+01	  0.038637273	7.579600E+01
95	  0.038837675	-3.046000E+00	  0.038837675	5.907300E+01	  0.038837675	3.264800E+01	  0.038837675	7.823900E+01
96	  0.039038073	-3.097000E+00	  0.039038073	5.698500E+01	  0.039038073	3.506200E+01	  0.039038073	8.071800E+01
97	  0.039238475	-3.150000E+00	  0.039238475	5.491100E+01	  0.039238475	3.770400E+01	  0.039238475	8.321100E+01
98	  0.039438877	-3.205000E+00	  0.039438877	5.283500E+01	  0.039438877	4.061200E+01	  0.039438877	8.572900E+01
99	  0.039639279	-3.256000E+00	  0.039639279	5.073100E+01	  0.039639279	4.378900E+01	  0.039639279	8.835100E+01
100	  0.039839678	-3.311000E+00	  0.039839678	4.863900E+01	  0.039839678	4.730800E+01	  0.039839678	9.092000E+01
101	  0.040040080	-3.364000E+00	  0.040040080	4.655400E+01	  0.040040080	5.113000E+01	  0.040040080	9.349300E+01
102	  0.040240481	-3.414000E+00	  0.040240481	4.445700E+01	  0.040240481	5.532400E+01	  0.040240481	9.607500E+01
103	  0.040440880	-3.466000E+00	  0.040440880	4.238300E+01	  0.040440880	5.989500E+01	  0.040440880	9.854300E+01
104	  0.040641282	-3.519000E+00	  0.040641282	4.031900E+01	  0.040641282	6.489800E+01	  0.040641282	1.008640E+02
105	  0.040841684	-3.568000E+00	  0.040841684	3.825800E+01	  0.040841684	7.033100E+01	  0.040841684	1.030750E+02
106	  0.041042086	-3.621000E+00	  0.041042086	3.622300E+01	  0.041042086	7.623200E+01	  0.041042086	1.049690E+02
107	  0.041242484	-3.676000E+00	  0.041242484	3.414900E+01	  0.041242484	8.278800E+01	  0.041242484	1.065700E+02
108	  0.041442886	-3.726000E+00	  0.041442886	3.210100E+01	  0.041442886	8.977600E+01	  0.041442886	1.078570E+02
109	  0.041643288	-3.779000E+00	  0.041643288	3.002600E+01	  0.041643288	9.744700E+01	  0.041643288	1.085990E+02
110	  0.041843686	-3.829000E+00	  0.041843686	2.797200E+01	  0.041843686	1.055880E+02	  0.041843686	1.087740E+02
111	  0.042044088	-3.877000E+00	  0.042044088	2.593200E+01	  0.042044088	1.142060E+02	  0.042044088	1.082320E+02
112	  0.042244490	-3.930000E+00	  0.042244490	2.388500E+01	  0.042244490	1.233240E+02	  0.042244490	1.066700E+02
113	  0.042444889	-3.979000E+00	  0.042444889	2.185600E+01	  0.042444889	1.327330E+02	  0.042444889	1.041670E+02
114	  0.042645290	-4.033000E+00	  0.042645290	1.982300E+01	  0.042645290	1.423530E+02	  0.042645290	1.003030E+02
115	  0.042845692	-4.082000E+00	  0.042845692	1.781100E+01	  0.042845692	1.519310E+02	  0.042845692	9.532300E+01
116	  0.043046094	-4.134000E+00	  0.043046094	1.578500E+01	  0.043046094	1.613330E+02	  0.043046094	8.881100E+01
117	  0.043246493	-4.184000E+00	  0.043246493	1.376700E+01	  0.043246493	1.702320E+02	  0.043246493	8.092800E+01
118	  0.043446895	-4.229000E+00	  0.043446895	1.175700E+01	  0.043446895	1.784370E+02	  0.043446895	7.179800E+01
119	  0.043647297	-4.278000E+00	  0.043647297	9.757000E+00	  0.043647297	1.854480E+02	  0.043647297	6.130300E+01
120	  0.043847695	-4.324000E+00	  0.043847695	7.759000E+00	  0.043847695	1.911330E+02	  0.043847695	4.974800E+01
121	  0.044048097	-4.372000E+00	  0.044048097	5.771000E+00	  0.044048097	1.951870E+02	  0.044048097	3.739600E+01
122	  0.044248499	-4.418000E+00	  0.044248499	3.789000E+00	  0.044248499	1.975490E+02	  0.044248499	2.459100E+01
123	  0.044448901	-4.462000E+00	  0.044448901	1.829000E+00	  0.044448901	1.981350E+02	  0.044448901	1.178700E+01
124	  0.044649299	-4.509000E+00	  0.044649299	-1.310000E-01	  0.044649299	1.969130E+02	  0.044649299	-8.290000E-01
125	  0.044849701	-4.554000E+00	  0.044849701	-2.060000E+00	  0.044849701	1.941580E+02	  0.044849701	-1.272100E+01
126	  0.045050103	-4.599000E+00	  0.045050103	-4.010000E+00	  0.045050103	1.899900E+02	  0.045050103	-2.395700E+01
127	  0.045250501	-4.645000E+00	  0.045250501	-5.945000E+00	  0.045250501	1.846400E+02	  0.045250501	-3.411200E+01
128	  0.045450903	-4.689000E+00	  0.045450903	-7.865000E+00	  0.045450903	1.784400E+02	  0.045450903	-4.310300E+01
129	  0.045651305	-4.730000E+00	  0.045651305	-9.799000E+00	  0.045651305	1.716530E+02	  0.045651305	-5.108300E+01
130	  0.045851704	-4.770000E+00	  0.045851704	-1.170800E+01	  0.045851704	1.644860E+02	  0.045851704	-5.781600E+01
131	  0.046052102	-4.810000E+00	  0.046052102	-1.359600E+01	  0.046052102	1.571550E+02	  0.046052102	-6.341400E+01
132	  0.046252504	-4.849000E+00	  0.046252504	-1.548600E+01	  0.046252504	1.497420E+02	  0.046252504	-6.801700E+01
133	  0.046452906	-4.887000E+00	  0.046452906	-1.734900E+01	  0.046452906	1.424930E+02	  0.046452906	-7.167500E+01
134	  0.046653304	-4.925000E+00	  0.046653304	-1.923000E+01	  0.046653304	1.353150E+02	  0.046653304	-7.452700E+01
135	  0.046853706	-4.961000E+00	  0.046853706	-2.109000E+01	  0.046853706	1.284610E+02	  0.046853706	-7.667900E+01
136	  0.047054108	-4.997000E+00	  0.047054108	-2.294900E+01	  0.047054108	1.218730E+02	  0.047054108	-7.820100E+01
137	  0.047254506	-5.035000E+00	  0.047254506	-2.480300E+01	  0.047254506	1.155910E+02	  0.047254506	-7.914200E+01
138	  0.047454908	-5.067000E+00	  0.047454908	-2.663500E+01	  0.047454908	1.097230E+02	  0.047454908	-7.970700E+01
139	  0.047655310	-5.101000E+00	  0.047655310	-2.844400E+01	  0.047655310	1.042360E+02	  0.047655310	-7.986700E+01
140	  0.047855709	-5.132000E+00	  0.047855709	-3.025500E+01	  0.047855709	9.905300E+01	  0.047855709	-7.973200E+01
141	  0.048056111	-5.168000E+00	  0.048056111	-3.203300E+01	  0.048056111	9.426300E+01	  0.048056111	-7.927000E+01
142	  0.048256513	-5.198000E+00	  0.048256513	-3.381000E+01	  0.048256513	8.976400E+01	  0.048256513	-7.868200E+01
143	  0.048456915	-5.229000E+00	  0.048456915	-3.557400E+01	  0.048456915	8.557300E+01	  0.048456915	-7.790200E+01
144	  0.048657313	-5.257000E+00	  0.048657313	-3.736100E+01	  0.048657313	8.158500E+01	  0.048657313	-7.699900E+01
145	  0.048857715	-5.285000E+00	  0.048857715	-3.909900E+01	  0.048857715	7.794800E+01	  0.048857715	-7.600500E+01
146	  0.049058117	-5.308000E+00	  0.049058117	-4.086800E+01	  0.049058117	7.446000E+01	  0.049058117	-7.495700E+01
147	  0.049258515	-5.335000E+00	  0.049258515	-4.259100E+01	  0.049258515	7.128400E+01	  0.049258515	-7.380300E+01
148	  0.049458917	-5.358000E+00	  0.049458917	-4.430300E+01	  0.049458917	6.830700E+01	  0.049458917	-7.264600E+01
149	  0.049659319	-5.388000E+00	  0.049659319	-4.599800E+01	  0.049659319	6.556900E+01	  0.049659319	-7.135700E+01
150	  0.049859721	-5.410000E+00	  0.049859721	-4.769200E+01	  0.049859721	6.296400E+01	  0.049859721	-7.013600E+01
151	  0.050060119	-5.434000E+00	  0.050060119	-4.935800E+01	  0.050060119	6.056500E+01	  0.050060119	-6.887600E+01
152	  0.050260521	-5.454000E+00	  0.050260521	-5.104700E+01	  0.050260521	5.826100E+01	  0.050260521	-6.761100E+01
153	  0.050460923	-5.477000E+00	  0.050460923	-5.271100E+01	  0.050460923	5.613500E+01	  0.050460923	-6.633100E+01
154	  0.050661322	-5.496000E+00	  0.050661322	-5.434400E+01	  0.050661322	5.414800E+01	  0.050661322	-6.510100E+01
155	  0.050861724	-5.516000E+00	  0.050861724	-5.598600E+01	  0.050861724	5.227400E+01	  0.050861724	-6.384200E+01
156	  0.051062126	-5.541000E+00	  0.051062126	-5.761800E+01	  0.051062126	5.053200E+01	  0.051062126	-6.256000E+01
157	  0.051262524	-5.561000E+00	  0.051262524	-5.921600E+01	  0.051262524	4.890500E+01	  0.051262524	-6.133800E+01
158	  0.051462926	-5.580000E+00	  0.051462926	-6.080400E+01	  0.051462926	4.736700E+01	  0.051462926	-6.013900E+01
159	  0.051663328	-5.601000E+00	  0.051663328	-6.239200E+01	  0.051663328	4.592500E+01	  0.051663328	-5.892800E+01
160	  0.051863730	-5.616000E+00	  0.051863730	-6.398400E+01	  0.051863730	4.452200E+01	  0.051863730	-5.776900E+01
161	  0.052064128	-5.636000E+00	  0.052064128	-6.556600E+01	  0.052064128	4.322400E+01	  0.052064128	-5.659200E+01
162	  0.052264530	-5.648000E+00	  0.052264530	-6.713600E+01	  0.052264530	4.197100E+01	  0.052264530	-5.547700E+01
163	  0.052464932	-5.661000E+00	  0.052464932	-6.867400E+01	  0.052464932	4.080600E+01	  0.052464932	-5.438800E+01
164	  0.052665330	-5.677000E+00	  0.052665330	-7.022200E+01	  0.052665330	3.970800E+01	  0.052665330	-5.328400E+01
165	  0.052865732	-5.692000E+00	  0.052865732	-7.174500E+01	  0.052865732	3.867300E+01	  0.052865732	-5.221700E+01
166	  0.053066134	-5.707000E+00	  0.053066134	-7.328100E+01	  0.053066134	3.768000E+01	  0.053066134	-5.115300E+01
167	  0.053266536	-5.717000E+00	  0.053266536	-7.477100E+01	  0.053266536	3.674000E+01	  0.053266536	-5.015500E+01
168	  0.053466935	-5.729000E+00	  0.053466935	-7.629900E+01	  0.053466935	3.583000E+01	  0.053466935	-4.913100E+01
169	  0.053667337	-5.742000E+00	  0.053667337	-7.780300E+01	  0.053667337	3.498000E+01	  0.053667337	-4.813200E+01
170	  0.053867739	-5.750000E+00	  0.053867739	-7.928900E+01	  0.053867739	3.415700E+01	  0.053867739	-4.717600E+01
171	  0.054068137	-5.757000E+00	  0.054068137	-8.079000E+01	  0.054068137	3.336000E+01	  0.054068137	-4.622200E+01
172	  0.054268539	-5.762000E+00	  0.054268539	-8.226600E+01	  0.054268539	3.260300E+01	  0.054268539	-4.530100E+01
173	  0.054468941	-5.771000E+00	  0.054468941	-8.374000E+01	  0.054468941	3.189500E+01	  0.054468941	-4.437700E+01
174	  0.054669335	-5.781000E+00	  0.054669335	-8.522600E+01	  0.054669335	3.121500E+01	  0.054669335	-4.345700E+01
175	  0.054869737	-5.788000E+00	  0.054869737	-8.666200E+01	  0.054869737	3.057900E+01	  0.054869737	-4.258100E+01
176	  0.055070139	-5.794000E+00	  0.055070139	-8.810400E+01	  0.055070139	2.995800E+01	  0.055070139	-4.171900E+01
177	  0.055270538	-5.796000E+00	  0.055270538	-8.955300E+01	  0.055270538	2.934600E+01	  0.055270538	-4.087300E+01
178	  0.055470940	-5.804000E+00	  0.055470940	-9.097200E+01	  0.055470940	2.879500E+01	  0.055470940	-4.003500E+01
179	  0.055671342	-5.801000E+00	  0.055671342	-9.241600E+01	  0.055671342	2.821500E+01	  0.055671342	-3.922100E+01
180	  0.055871744	-5.803000E+00	  0.055871744	-9.385300E+01	  0.055871744	2.767800E+01	  0.055871744	-3.840800E+01
181	  0.056072142	-5.804000E+00	  0.056072142	-9.525300E+01	  0.056072142	2.717200E+01	  0.056072142	-3.762500E+01
182	  0.056272544	-5.807000E+00	  0.056272544	-9.663900E+01	  0.056272544	2.669800E+01	  0.056272544	-3.685300E+01
183	  0.056472946	-5.811000E+00	  0.056472946	-9.802900E+01	  0.056472946	2.624300E+01	  0.056472946	-3.608500E+01
184	  0.056673344	-5.815000E+00	  0.056673344	-9.939400E+01	  0.056673344	2.581500E+01	  0.056673344	-3.533900E+01
185	  0.056873746	-5.816000E+00	  0.056873746	-1.007550E+02	  0.056873746	2.539300E+01	  0.056873746	-3.460800E+01
186	  0.057074148	-5.816000E+00	  0.057074148	-1.021210E+02	  0.057074148	2.498100E+01	  0.057074148	-3.388500E+01
187	  0.057274550	-5.819000E+00	  0.057274550	-1.034900E+02	  0.057274550	2.459400E+01	  0.057274550	-3.316000E+01
188	  0.057474948	-5.818000E+00	  0.057474948	-1.048200E+02	  0.057474948	2.422100E+01	  0.057474948	-3.246800E+01
189	  0.057675350	-5.820000E+00	  0.057675350	-1.061720E+02	  0.057675350	2.386200E+01	  0.057675350	-3.176800E+01
190	  0.057875752	-5.823000E+00	  0.057875752	-1.075150E+02	  0.057875752	2.352200E+01	  0.057875752	-3.107800E+01
191	  0.058076151	-5.827000E+00	  0.058076151	-1.088450E+02	  0.058076151	2.320200E+01	  0.058076151	-3.039800E+01
192	  0.058276553	-5.827000E+00	  0.058276553	-1.101370E+02	  0.058276553	2.288900E+01	  0.058276553	-2.975000E+01
193	  0.058476955	-5.826000E+00	  0.058476955	-1.114380E+02	  0.058476955	2.258300E+01	  0.058476955	-2.910500E+01
194	  0.058677353	-5.830000E+00	  0.058677353	-1.127710E+02	  0.058677353	2.229600E+01	  0.058677353	-2.844200E+01
195	  0.058877755	-5.831000E+00	  0.058877755	-1.140540E+02	  0.058877755	2.202000E+01	  0.058877755	-2.781300E+01
196	  0.059078157	-5.830000E+00	  0.059078157	-1.153450E+02	  0.059078157	2.174400E+01	  0.059078157	-2.718900E+01
197	  0.059278559	-5.834000E+00	  0.059278559	-1.166420E+02	  0.059278559	2.149500E+01	  0.059278559	-2.656000E+01
198	  0.059478957	-5.833000E+00	  0.059478957	-1.179200E+02	  0.059478957	2.124200E+01	  0.059478957	-2.595100E+01
199	  0.059679359	-5.833000E+00	  0.059679359	-1.192040E+02	  0.059679359	2.100000E+01	  0.059679359	-2.534300E+01
200	  0.059879761	-5.835000E+00	  0.059879761	-1.204860E+02	  0.059879761	2.077100E+01	  0.059879761	-2.473900E+01
201	  0.060080159	-5.838000E+00	  0.060080159	-1.217120E+02	  0.060080159	2.056300E+01	  0.060080159	-2.416400E+01
202	  0.060280561	-5.838000E+00	  0.060280561	-1.229910E+02	  0.060280561	2.034600E+01	  0.060280561	-2.357300E+01
203	  0.060480963	-5.838000E+00	  0.060480963	-1.242530E+02	  0.060480963	2.013800E+01	  0.060480963	-2.299300E+01
204	  0.060681365	-5.843000E+00	  0.060681365	-1.254920E+02	  0.060681365	1.995500E+01	  0.060681365	-2.242300E+01
205	  0.060881764	-5.839000E+00	  0.060881764	-1.267250E+02	  0.060881764	1.975600E+01	  0.060881764	-2.186700E+01
206	  0.061082166	-5.839000E+00	  0.061082166	-1.279750E+02	  0.061082166	1.957000E+01	  0.061082166	-2.130500E+01
207	  0.061282568	-5.837000E+00	  0.061282568	-1.292110E+02	  0.061282568	1.938800E+01	  0.061282568	-2.075300E+01
208	  0.061482966	-5.836000E+00	  0.061482966	-1.304260E+02	  0.061482966	1.921800E+01	  0.061482966	-2.021400E+01
209	  0.061683368	-5.836000E+00	  0.061683368	-1.316610E+02	  0.061683368	1.905100E+01	  0.061683368	-1.966900E+01
210	  0.061883770	-5.836000E+00	  0.061883770	-1.328670E+02	  0.061883770	1.889800E+01	  0.061883770	-1.913900E+01
211	  0.062084168	-5.836000E+00	  0.062084168	-1.340590E+02	  0.062084168	1.875000E+01	  0.062084168	-1.861800E+01
212	  0.062284570	-5.833000E+00	  0.062284570	-1.352470E+02	  0.062284570	1.859800E+01	  0.062284570	-1.810500E+01
213	  0.062484972	-5.824000E+00	  0.062484972	-1.363900E+02	  0.062484972	1.844000E+01	  0.062484972	-1.761800E+01
214	  0.062685370	-5.823000E+00	  0.062685370	-1.375890E+02	  0.062685370	1.830500E+01	  0.062685370	-1.710300E+01
215	  0.062885776	-5.821000E+00	  0.062885776	-1.387800E+02	  0.062885776	1.817200E+01	  0.062885776	-1.659500E+01
216	  0.063086174	-5.815000E+00	  0.063086174	-1.399460E+02	  0.063086174	1.803300E+01	  0.063086174	-1.610300E+01
217	  0.063286573	-5.815000E+00	  0.063286573	-1.411210E+02	  0.063286573	1.791600E+01	  0.063286573	-1.560500E+01
218	  0.063486971	-5.814000E+00	  0.063486971	-1.422640E+02	  0.063486971	1.780400E+01	  0.063486971	-1.512300E+01
219	  0.063687377	-5.808000E+00	  0.063687377	-1.434010E+02	  0.063687377	1.768400E+01	  0.063687377	-1.464900E+01
220	  0.063887775	-5.806000E+00	  0.063887775	-1.445020E+02	  0.063887775	1.758000E+01	  0.063887775	-1.419000E+01
221	  0.064088173	-5.806000E+00	  0.064088173	-1.456820E+02	  0.064088173	1.747900E+01	  0.064088173	-1.369800E+01
222	  0.064288579	-5.806000E+00	  0.064288579	-1.468310E+02	  0.064288579	1.738600E+01	  0.064288579	-1.322100E+01
223	  0.064488977	-5.803000E+00	  0.064488977	-1.479540E+02	  0.064488977	1.729000E+01	  0.064488977	-1.275800E+01
224	  0.064689375	-5.802000E+00	  0.064689375	-1.491060E+02	  0.064689375	1.720000E+01	  0.064689375	-1.228500E+01
225	  0.064889781	-5.803000E+00	  0.064889781	-1.502300E+02	  0.064889781	1.712100E+01	  0.064889781	-1.182300E+01
226	  0.065090179	-5.802000E+00	  0.065090179	-1.513190E+02	  0.065090179	1.704200E+01	  0.065090179	-1.137800E+01
227	  0.065290578	-5.799000E+00	  0.065290578	-1.524220E+02	  0.065290578	1.696300E+01	  0.065290578	-1.093000E+01
228	  0.065490983	-5.801000E+00	  0.065490983	-1.535350E+02	  0.065490983	1.689600E+01	  0.065490983	-1.047700E+01
229	  0.065691382	-5.806000E+00	  0.065691382	-1.546530E+02	  0.065691382	1.684400E+01	  0.065691382	-1.002200E+01
230	  0.065891780	-5.804000E+00	  0.065891780	-1.557660E+02	  0.065891780	1.677400E+01	  0.065891780	-9.573000E+00
231	  0.066092186	-5.801000E+00	  0.066092186	-1.568710E+02	  0.066092186	1.670600E+01	  0.066092186	-9.129000E+00
232	  0.066292584	-5.804000E+00	  0.066292584	-1.579680E+02	  0.066292584	1.665500E+01	  0.066292584	-8.688000E+00
233	  0.066492982	-5.804000E+00	  0.066492982	-1.590520E+02	  0.066492982	1.660400E+01	  0.066492982	-8.254000E+00
234	  0.066693388	-5.805000E+00	  0.066693388	-1.601650E+02	  0.066693388	1.655300E+01	  0.066693388	-7.809000E+00
235	  0.066893786	-5.805000E+00	  0.066893786	-1.612370E+02	  0.066893786	1.650500E+01	  0.066893786	-7.381000E+00
236	  0.067094192	-5.805000E+00	  0.067094192	-1.623250E+02	  0.067094192	1.646100E+01	  0.067094192	-6.949000E+00
237	  0.067294590	-5.803000E+00	  0.067294590	-1.634010E+02	  0.067294590	1.641500E+01	  0.067294590	-6.522000E+00
238	  0.067494988	-5.808000E+00	  0.067494988	-1.644550E+02	  0.067494988	1.639100E+01	  0.067494988	-6.103000E+00
239	  0.067695394	-5.808000E+00	  0.067695394	-1.655420E+02	  0.067695394	1.635300E+01	  0.067695394	-5.673000E+00
240	  0.067895792	-5.804000E+00	  0.067895792	-1.666000E+02	  0.067895792	1.631000E+01	  0.067895792	-5.255000E+00
241	  0.068096191	-5.811000E+00	  0.068096191	-1.676880E+02	  0.068096191	1.629800E+01	  0.068096191	-4.825000E+00
242	  0.068296596	-5.813000E+00	  0.068296596	-1.687180E+02	  0.068296596	1.627500E+01	  0.068296596	-4.419000E+00
243	  0.068496995	-5.812000E+00	  0.068496995	-1.697610E+02	  0.068496995	1.624700E+01	  0.068496995	-4.009000E+00
244	  0.068697393	-5.809000E+00	  0.068697393	-1.708130E+02	  0.068697393	1.621600E+01	  0.068697393	-3.596000E+00
245	  0.068897791	-5.812000E+00	  0.068897791	-1.718430E+02	  0.068897791	1.620400E+01	  0.068897791	-3.192000E+00
246	  0.069098189	-5.809000E+00	  0.069098189	-1.728700E+02	  0.069098189	1.618100E+01	  0.069098189	-2.789000E+00
247	  0.069298595	-5.807000E+00	  0.069298595	-1.738950E+02	  0.069298595	1.616000E+01	  0.069298595	-2.388000E+00
248	  0.069498993	-5.809000E+00	  0.069498993	-1.749010E+02	  0.069498993	1.615300E+01	  0.069498993	-1.994000E+00
249	  0.069699399	-5.812000E+00	  0.069699399	-1.759270E+02	  0.069699399	1.615000E+01	  0.069699399	-1.592000E+00
250	  0.069899797	-5.813000E+00	  0.069899797	-1.769570E+02	  0.069899797	1.614500E+01	  0.069899797	-1.189000E+00
251	  0.070100196	-5.819000E+00	  0.070100196	-1.779330E+02	  0.070100196	1.615400E+01	  0.070100196	-8.070000E-01
252	  0.070300601	-5.820000E+00	  0.070300601	-1.789190E+02	  0.070300601	1.615300E+01	  0.070300601	-4.220000E-01
253	  0.070501000	-5.818000E+00	  0.070501000	-1.799060E+02	  0.070501000	1.614700E+01	  0.070501000	-3.600000E-02
254	  0.070701398	-5.823000E+00	  0.070701398	1.790900E+02	  0.070701398	1.616200E+01	  0.070701398	3.550000E-01
255	  0.070901804	-5.826000E+00	  0.070901804	1.781240E+02	  0.070901804	1.617200E+01	  0.070901804	7.320000E-01
256	  0.071102202	-5.832000E+00	  0.071102202	1.771130E+02	  0.071102202	1.619200E+01	  0.071102202	1.127000E+00
257	  0.071302600	-5.837000E+00	  0.071302600	1.761280E+02	  0.071302600	1.621200E+01	  0.071302600	1.512000E+00
258	  0.071503006	-5.835000E+00	  0.071503006	1.751670E+02	  0.071503006	1.621600E+01	  0.071503006	1.888000E+00
259	  0.071703404	-5.846000E+00	  0.071703404	1.742030E+02	  0.071703404	1.625700E+01	  0.071703404	2.264000E+00
260	  0.071903802	-5.850000E+00	  0.071903802	1.732240E+02	  0.071903802	1.628000E+01	  0.071903802	2.647000E+00
261	  0.072104208	-5.856000E+00	  0.072104208	1.722320E+02	  0.072104208	1.631200E+01	  0.072104208	3.034000E+00
262	  0.072304606	-5.864000E+00	  0.072304606	1.712760E+02	  0.072304606	1.634900E+01	  0.072304606	3.408000E+00
263	  0.072505005	-5.866000E+00	  0.072505005	1.703140E+02	  0.072505005	1.637600E+01	  0.072505005	3.784000E+00
264	  0.072705410	-5.873000E+00	  0.072705410	1.693520E+02	  0.072705410	1.641500E+01	  0.072705410	4.161000E+00
265	  0.072905809	-5.879000E+00	  0.072905809	1.683660E+02	  0.072905809	1.645600E+01	  0.072905809	4.546000E+00
266	  0.073106214	-5.886000E+00	  0.073106214	1.674110E+02	  0.073106214	1.649900E+01	  0.073106214	4.920000E+00
267	  0.073306613	-5.893000E+00	  0.073306613	1.664540E+02	  0.073306613	1.654600E+01	  0.073306613	5.295000E+00
268	  0.073507011	-5.900000E+00	  0.073507011	1.654920E+02	  0.073507011	1.659400E+01	  0.073507011	5.673000E+00
269	  0.073707417	-5.905000E+00	  0.073707417	1.645380E+02	  0.073707417	1.664100E+01	  0.073707417	6.047000E+00
270	  0.073907815	-5.910000E+00	  0.073907815	1.635770E+02	  0.073907815	1.668700E+01	  0.073907815	6.426000E+00
271	  0.074108213	-5.913000E+00	  0.074108213	1.626690E+02	  0.074108213	1.673100E+01	  0.074108213	6.783000E+00
272	  0.074308619	-5.916000E+00	  0.074308619	1.617130E+02	  0.074308619	1.677800E+01	  0.074308619	7.161000E+00
273	  0.074509017	-5.922000E+00	  0.074509017	1.607650E+02	  0.074509017	1.683300E+01	  0.074509017	7.536000E+00
274	  0.074709415	-5.925000E+00	  0.074709415	1.598630E+02	  0.074709415	1.688300E+01	  0.074709415	7.893000E+00
275	  0.074909821	-5.929000E+00	  0.074909821	1.588950E+02	  0.074909821	1.694000E+01	  0.074909821	8.277000E+00
276	  0.075110219	-5.937000E+00	  0.075110219	1.579680E+02	  0.075110219	1.700800E+01	  0.075110219	8.643000E+00
277	  0.075310618	-5.936000E+00	  0.075310618	1.570480E+02	  0.075310618	1.705200E+01	  0.075310618	9.011000E+00
278	  0.075511023	-5.940000E+00	  0.075511023	1.561540E+02	  0.075511023	1.711300E+01	  0.075511023	9.367000E+00
279	  0.075711422	-5.938000E+00	  0.075711422	1.552850E+02	  0.075711422	1.715600E+01	  0.075711422	9.717000E+00
280	  0.075911827	-5.943000E+00	  0.075911827	1.543790E+02	  0.075911827	1.722500E+01	  0.075911827	1.007800E+01
281	  0.076112226	-5.950000E+00	  0.076112226	1.534810E+02	  0.076112226	1.729700E+01	  0.076112226	1.043800E+01
282	  0.076312624	-5.951000E+00	  0.076312624	1.526070E+02	  0.076312624	1.735700E+01	  0.076312624	1.078900E+01
283	  0.076513030	-5.954000E+00	  0.076513030	1.517150E+02	  0.076513030	1.742400E+01	  0.076513030	1.114900E+01
284	  0.076713428	-5.961000E+00	  0.076713428	1.508430E+02	  0.076713428	1.750400E+01	  0.076713428	1.150000E+01
285	  0.076913826	-5.963000E+00	  0.076913826	1.499410E+02	  0.076913826	1.757200E+01	  0.076913826	1.186600E+01
286	  0.077114232	-5.970000E+00	  0.077114232	1.491040E+02	  0.077114232	1.765400E+01	  0.077114232	1.220300E+01
287	  0.077314630	-5.979000E+00	  0.077314630	1.482630E+02	  0.077314630	1.774200E+01	  0.077314630	1.254200E+01
288	  0.077515028	-5.984000E+00	  0.077515028	1.474170E+02	  0.077515028	1.782100E+01	  0.077515028	1.288600E+01
289	  0.077715434	-5.991000E+00	  0.077715434	1.465320E+02	  0.077715434	1.791200E+01	  0.077715434	1.324600E+01
290	  0.077915832	-5.997000E+00	  0.077915832	1.456590E+02	  0.077915832	1.800200E+01	  0.077915832	1.360100E+01
291	  0.078116231	-6.006000E+00	  0.078116231	1.448040E+02	  0.078116231	1.810300E+01	  0.078116231	1.394800E+01
292	  0.078316636	-6.014000E+00	  0.078316636	1.439310E+02	  0.078316636	1.820200E+01	  0.078316636	1.430500E+01
293	  0.078517035	-6.023000E+00	  0.078517035	1.430620E+02	  0.078517035	1.830500E+01	  0.078517035	1.466000E+01
294	  0.078717433	-6.032000E+00	  0.078717433	1.422160E+02	  0.078717433	1.841100E+01	  0.078717433	1.500600E+01
295	  0.078917839	-6.043000E+00	  0.078917839	1.413430E+02	  0.078917839	1.852600E+01	  0.078917839	1.536300E+01
296	  0.079118237	-6.052000E+00	  0.079118237	1.404980E+02	  0.079118237	1.863700E+01	  0.079118237	1.571100E+01
297	  0.079318643	-6.064000E+00	  0.079318643	1.396400E+02	  0.079318643	1.876000E+01	  0.079318643	1.606200E+01
298	  0.079519041	-6.075000E+00	  0.079519041	1.387610E+02	  0.079519041	1.888500E+01	  0.079519041	1.642400E+01
299	  0.079719439	-6.083000E+00	  0.079719439	1.379040E+02	  0.079719439	1.900000E+01	  0.079719439	1.678000E+01
300	  0.079919845	-6.098000E+00	  0.079919845	1.370390E+02	  0.079919845	1.914000E+01	  0.079919845	1.713400E+01
301	  0.080120243	-6.107000E+00	  0.080120243	1.361400E+02	  0.080120243	1.926900E+01	  0.080120243	1.750900E+01
302	  0.080320641	-6.120000E+00	  0.080320641	1.352680E+02	  0.080320641	1.941100E+01	  0.080320641	1.787000E+01
303	  0.080521047	-6.133000E+00	  0.080521047	1.344270E+02	  0.080521047	1.955000E+01	  0.080521047	1.821900E+01
304	  0.080721445	-6.143000E+00	  0.080721445	1.335440E+02	  0.080721445	1.968800E+01	  0.080721445	1.858900E+01
305	  0.080921844	-6.153000E+00	  0.080921844	1.326840E+02	  0.080921844	1.982900E+01	  0.080921844	1.894900E+01
306	  0.081122249	-6.162000E+00	  0.081122249	1.318260E+02	  0.081122249	1.996800E+01	  0.081122249	1.931200E+01
307	  0.081322648	-6.173000E+00	  0.081322648	1.309720E+02	  0.081322648	2.011700E+01	  0.081322648	1.967100E+01
308	  0.081523046	-6.182000E+00	  0.081523046	1.301000E+02	  0.081523046	2.026500E+01	  0.081523046	2.004100E+01
309	  0.081723452	-6.192000E+00	  0.081723452	1.292530E+02	  0.081723452	2.041400E+01	  0.081723452	2.040100E+01
310	  0.081923850	-6.196000E+00	  0.081923850	1.283840E+02	  0.081923850	2.055400E+01	  0.081923850	2.077600E+01
311	  0.082124248	-6.206000E+00	  0.082124248	1.275690E+02	  0.082124248	2.070600E+01	  0.082124248	2.112400E+01
312	  0.082324654	-6.218000E+00	  0.082324654	1.267390E+02	  0.082324654	2.087000E+01	  0.082324654	2.147600E+01
313	  0.082525052	-6.229000E+00	  0.082525052	1.257660E+02	  0.082525052	2.105600E+01	  0.082525052	2.189500E+01
314	  0.082725458	-6.243000E+00	  0.082725458	1.249720E+02	  0.082725458	2.122500E+01	  0.082725458	2.223200E+01
315	  0.082925856	-6.259000E+00	  0.082925856	1.241600E+02	  0.082925856	2.140900E+01	  0.082925856	2.257500E+01
316	  0.083126254	-6.270000E+00	  0.083126254	1.233690E+02	  0.083126254	2.157700E+01	  0.083126254	2.291600E+01
317	  0.083326660	-6.281000E+00	  0.083326660	1.225650E+02	  0.083326660	2.174700E+01	  0.083326660	2.326300E+01
318	  0.083527058	-6.295000E+00	  0.083527058	1.217980E+02	  0.083527058	2.192800E+01	  0.083527058	2.359100E+01
319	  0.083727457	-6.312000E+00	  0.083727457	1.209950E+02	  0.083727457	2.212200E+01	  0.083727457	2.393200E+01
320	  0.083927862	-6.324000E+00	  0.083927862	1.202040E+02	  0.083927862	2.230600E+01	  0.083927862	2.427500E+01
321	  0.084128261	-6.336000E+00	  0.084128261	1.194390E+02	  0.084128261	2.248900E+01	  0.084128261	2.460600E+01
322	  0.084328659	-6.353000E+00	  0.084328659	1.186900E+02	  0.084328659	2.268600E+01	  0.084328659	2.492400E+01
323	  0.084529065	-6.371000E+00	  0.084529065	1.179030E+02	  0.084529065	2.289900E+01	  0.084529065	2.525900E+01
324	  0.084729463	-6.387000E+00	  0.084729463	1.171360E+02	  0.084729463	2.310400E+01	  0.084729463	2.558800E+01
325	  0.084929854	-6.404000E+00	  0.084929854	1.163570E+02	  0.084929854	2.331600E+01	  0.084929854	2.592200E+01
326	  0.085130259	-6.417000E+00	  0.085130259	1.155520E+02	  0.085130259	2.352600E+01	  0.085130259	2.627400E+01
327	  0.085330658	-6.432000E+00	  0.085330658	1.147720E+02	  0.085330658	2.374300E+01	  0.085330658	2.661100E+01
328	  0.085531056	-6.453000E+00	  0.085531056	1.139960E+02	  0.085531056	2.397900E+01	  0.085531056	2.693900E+01
329	  0.085731462	-6.470000E+00	  0.085731462	1.131960E+02	  0.085731462	2.421600E+01	  0.085731462	2.728300E+01
330	  0.085931860	-6.487000E+00	  0.085931860	1.124040E+02	  0.085931860	2.445200E+01	  0.085931860	2.762500E+01
331	  0.086132258	-6.507000E+00	  0.086132258	1.116320E+02	  0.086132258	2.469600E+01	  0.086132258	2.795300E+01
332	  0.086332664	-6.523000E+00	  0.086332664	1.108670E+02	  0.086332664	2.493200E+01	  0.086332664	2.828500E+01
333	  0.086533062	-6.543000E+00	  0.086533062	1.100540E+02	  0.086533062	2.519600E+01	  0.086533062	2.863300E+01
334	  0.086733460	-6.561000E+00	  0.086733460	1.092440E+02	  0.086733460	2.545800E+01	  0.086733460	2.898300E+01
335	  0.086933866	-6.580000E+00	  0.086933866	1.084350E+02	  0.086933866	2.572800E+01	  0.086933866	2.933100E+01
336	  0.087134264	-6.598000E+00	  0.087134264	1.076390E+02	  0.087134264	2.599700E+01	  0.087134264	2.967400E+01
337	  0.087334670	-6.619000E+00	  0.087334670	1.068290E+02	  0.087334670	2.628300E+01	  0.087334670	3.001900E+01
338	  0.087535068	-6.636000E+00	  0.087535068	1.060210E+02	  0.087535068	2.656000E+01	  0.087535068	3.037100E+01
339	  0.087735467	-6.659000E+00	  0.087735467	1.052270E+02	  0.087735467	2.685700E+01	  0.087735467	3.070500E+01
340	  0.087935872	-6.677000E+00	  0.087935872	1.044120E+02	  0.087935872	2.715200E+01	  0.087935872	3.105700E+01
341	  0.088136271	-6.700000E+00	  0.088136271	1.036170E+02	  0.088136271	2.746300E+01	  0.088136271	3.139000E+01
342	  0.088336669	-6.717000E+00	  0.088336669	1.028000E+02	  0.088336669	2.776400E+01	  0.088336669	3.174600E+01
343	  0.088537075	-6.738000E+00	  0.088537075	1.020140E+02	  0.088537075	2.807400E+01	  0.088537075	3.207900E+01
344	  0.088737473	-6.758000E+00	  0.088737473	1.012310E+02	  0.088737473	2.838800E+01	  0.088737473	3.241100E+01
345	  0.088937871	-6.779000E+00	  0.088937871	1.004480E+02	  0.088937871	2.870500E+01	  0.088937871	3.274300E+01
346	  0.089138277	-6.797000E+00	  0.089138277	9.963500E+01	  0.089138277	2.903400E+01	  0.089138277	3.309300E+01
347	  0.089338675	-6.821000E+00	  0.089338675	9.892300E+01	  0.089338675	2.935000E+01	  0.089338675	3.338200E+01
348	  0.089539073	-6.838000E+00	  0.089539073	9.814200E+01	  0.089539073	2.967300E+01	  0.089539073	3.371900E+01
349	  0.089739479	-6.869000E+00	  0.089739479	9.742200E+01	  0.089739479	3.002700E+01	  0.089739479	3.399200E+01
350	  0.089939877	-6.890000E+00	  0.089939877	9.666300E+01	  0.089939877	3.036800E+01	  0.089939877	3.430600E+01
351	  0.090140276	-6.919000E+00	  0.090140276	9.592800E+01	  0.090140276	3.072900E+01	  0.090140276	3.459000E+01
352	  0.090340681	-6.947000E+00	  0.090340681	9.519300E+01	  0.090340681	3.109200E+01	  0.090340681	3.487500E+01
353	  0.090541080	-6.973000E+00	  0.090541080	9.446400E+01	  0.090541080	3.145400E+01	  0.090541080	3.515800E+01
354	  0.090741485	-7.003000E+00	  0.090741485	9.373900E+01	  0.090741485	3.183100E+01	  0.090741485	3.542800E+01
355	  0.090941884	-7.033000E+00	  0.090941884	9.306000E+01	  0.090941884	3.219600E+01	  0.090941884	3.567400E+01
356	  0.091142282	-7.070000E+00	  0.091142282	9.233800E+01	  0.091142282	3.260300E+01	  0.091142282	3.592000E+01
357	  0.091342688	-7.102000E+00	  0.091342688	9.164700E+01	  0.091342688	3.298800E+01	  0.091342688	3.616200E+01
358	  0.091543086	-7.134000E+00	  0.091543086	9.093600E+01	  0.091543086	3.339000E+01	  0.091543086	3.640800E+01
359	  0.091743484	-7.171000E+00	  0.091743484	9.025900E+01	  0.091743484	3.379500E+01	  0.091743484	3.662300E+01
360	  0.091943890	-7.208000E+00	  0.091943890	8.955900E+01	  0.091943890	3.421300E+01	  0.091943890	3.684800E+01
361	  0.092144288	-7.244000E+00	  0.092144288	8.883100E+01	  0.092144288	3.464900E+01	  0.092144288	3.708200E+01
362	  0.092344686	-7.279000E+00	  0.092344686	8.816800E+01	  0.092344686	3.505500E+01	  0.092344686	3.728700E+01
363	  0.092545092	-7.314000E+00	  0.092545092	8.748000E+01	  0.092545092	3.547800E+01	  0.092545092	3.750000E+01
364	  0.092745490	-7.355000E+00	  0.092745490	8.679500E+01	  0.092745490	3.592600E+01	  0.092745490	3.768600E+01
365	  0.092945889	-7.398000E+00	  0.092945889	8.613200E+01	  0.092945889	3.636900E+01	  0.092945889	3.785700E+01
366	  0.093146294	-7.435000E+00	  0.093146294	8.541400E+01	  0.093146294	3.682800E+01	  0.093146294	3.806400E+01
367	  0.093346693	-7.473000E+00	  0.093346693	8.477700E+01	  0.093346693	3.725800E+01	  0.093346693	3.822600E+01
368	  0.093547091	-7.511000E+00	  0.093547091	8.407000E+01	  0.093547091	3.772300E+01	  0.093547091	3.841700E+01
369	  0.093747497	-7.551000E+00	  0.093747497	8.338900E+01	  0.093747497	3.818600E+01	  0.093747497	3.858600E+01
370	  0.093947895	-7.588000E+00	  0.093947895	8.268300E+01	  0.093947895	3.866000E+01	  0.093947895	3.877000E+01
371	  0.094148301	-7.634000E+00	  0.094148301	8.204400E+01	  0.094148301	3.912900E+01	  0.094148301	3.888800E+01
372	  0.094348699	-7.673000E+00	  0.094348699	8.131600E+01	  0.094348699	3.963000E+01	  0.094348699	3.906300E+01
373	  0.094549097	-7.715000E+00	  0.094549097	8.068500E+01	  0.094549097	4.009300E+01	  0.094549097	3.918100E+01
374	  0.094749503	-7.756000E+00	  0.094749503	8.002200E+01	  0.094749503	4.057300E+01	  0.094749503	3.931000E+01
375	  0.094949901	-7.792000E+00	  0.094949901	7.935700E+01	  0.094949901	4.104500E+01	  0.094949901	3.945400E+01
376	  0.095150299	-7.839000E+00	  0.095150299	7.869500E+01	  0.095150299	4.154900E+01	  0.095150299	3.955100E+01
377	  0.095350705	-7.871000E+00	  0.095350705	7.804200E+01	  0.095350705	4.201300E+01	  0.095350705	3.969200E+01
378	  0.095551103	-7.918000E+00	  0.095551103	7.740900E+01	  0.095551103	4.250700E+01	  0.095551103	3.976400E+01
379	  0.095751502	-7.952000E+00	  0.095751502	7.676600E+01	  0.095751502	4.297900E+01	  0.095751502	3.988300E+01
380	  0.095951907	-7.993000E+00	  0.095951907	7.617000E+01	  0.095951907	4.344200E+01	  0.095951907	3.995400E+01
381	  0.096152306	-8.038000E+00	  0.096152306	7.555300E+01	  0.096152306	4.393100E+01	  0.096152306	4.000900E+01
382	  0.096352704	-8.077000E+00	  0.096352704	7.495200E+01	  0.096352704	4.439800E+01	  0.096352704	4.007700E+01
383	  0.096553110	-8.113000E+00	  0.096553110	7.440000E+01	  0.096553110	4.483200E+01	  0.096553110	4.013100E+01
384	  0.096753508	-8.156000E+00	  0.096753508	7.384100E+01	  0.096753508	4.528800E+01	  0.096753508	4.015500E+01
385	  0.096953906	-8.197000E+00	  0.096953906	7.326200E+01	  0.096953906	4.575400E+01	  0.096953906	4.018800E+01
386	  0.097154312	-8.237000E+00	  0.097154312	7.274300E+01	  0.097154312	4.618100E+01	  0.097154312	4.019900E+01
387	  0.097354710	-8.282000E+00	  0.097354710	7.220700E+01	  0.097354710	4.663000E+01	  0.097354710	4.019100E+01
388	  0.097555116	-8.323000E+00	  0.097555116	7.170400E+01	  0.097555116	4.705200E+01	  0.097555116	4.018200E+01
389	  0.097755514	-8.369000E+00	  0.097755514	7.119100E+01	  0.097755514	4.749200E+01	  0.097755514	4.014800E+01
390	  0.097955912	-8.409000E+00	  0.097955912	7.071700E+01	  0.097955912	4.789400E+01	  0.097955912	4.012200E+01
391	  0.098156318	-8.456000E+00	  0.098156318	7.022500E+01	  0.098156318	4.832100E+01	  0.098156318	4.007000E+01
392	  0.098356716	-8.497000E+00	  0.098356716	6.977100E+01	  0.098356716	4.871200E+01	  0.098356716	4.002400E+01
393	  0.098557115	-8.542000E+00	  0.098557115	6.931000E+01	  0.098557115	4.911500E+01	  0.098557115	3.995900E+01
394	  0.098757520	-8.587000E+00	  0.098757520	6.884000E+01	  0.098757520	4.952500E+01	  0.098757520	3.989000E+01
395	  0.098957919	-8.633000E+00	  0.098957919	6.836900E+01	  0.098957919	4.993700E+01	  0.098957919	3.981200E+01
396	  0.099158317	-8.671000E+00	  0.099158317	6.792600E+01	  0.099158317	5.031300E+01	  0.099158317	3.975900E+01
397	  0.099358723	-8.718000E+00	  0.099358723	6.748200E+01	  0.099358723	5.070600E+01	  0.099358723	3.966200E+01
398	  0.099559121	-8.764000E+00	  0.099559121	6.703100E+01	  0.099559121	5.110200E+01	  0.099559121	3.956500E+01
399	  0.099759519	-8.807000E+00	  0.099759519	6.658600E+01	  0.099759519	5.148900E+01	  0.099759519	3.947300E+01
400	  0.099959925	-8.846000E+00	  0.099959925	6.616100E+01	  0.099959925	5.185300E+01	  0.099959925	3.939300E+01
401	  0.100160323	-8.890000E+00	  0.100160323	6.573500E+01	  0.100160323	5.222500E+01	  0.100160323	3.928600E+01
402	  0.100360721	-8.933000E+00	  0.100360721	6.533400E+01	  0.100360721	5.257600E+01	  0.100360721	3.917400E+01
403	  0.100561127	-8.976000E+00	  0.100561127	6.489800E+01	  0.100561127	5.295100E+01	  0.100561127	3.906600E+01
404	  0.100761525	-9.013000E+00	  0.100761525	6.445100E+01	  0.100761525	5.332600E+01	  0.100761525	3.898300E+01
405	  0.100961931	-9.064000E+00	  0.100961931	6.407300E+01	  0.100961931	5.367000E+01	  0.100961931	3.881000E+01
406	  0.101162329	-9.104000E+00	  0.101162329	6.365900E+01	  0.101162329	5.402200E+01	  0.101162329	3.869800E+01
407	  0.101362728	-9.140000E+00	  0.101362728	6.322900E+01	  0.101362728	5.437900E+01	  0.101362728	3.860800E+01
408	  0.101563133	-9.175000E+00	  0.101563133	6.286500E+01	  0.101563133	5.468700E+01	  0.101563133	3.850300E+01
409	  0.101763532	-9.211000E+00	  0.101763532	6.244400E+01	  0.101763532	5.503800E+01	  0.101763532	3.839500E+01
410	  0.101963930	-9.256000E+00	  0.101963930	6.206500E+01	  0.101963930	5.536500E+01	  0.101963930	3.824100E+01
411	  0.102164328	-9.293000E+00	  0.102164328	6.166200E+01	  0.102164328	5.570100E+01	  0.102164328	3.812000E+01
412	  0.102364726	-9.320000E+00	  0.102364726	6.125800E+01	  0.102364726	5.602600E+01	  0.102364726	3.804500E+01
413	  0.102565125	-9.350000E+00	  0.102565125	6.092300E+01	  0.102565125	5.630300E+01	  0.102565125	3.794600E+01
414	  0.102765530	-9.379000E+00	  0.102765530	6.052700E+01	  0.102765530	5.662400E+01	  0.102765530	3.785300E+01
415	  0.102965929	-9.415000E+00	  0.102965929	6.017200E+01	  0.102965929	5.692000E+01	  0.102965929	3.771800E+01
416	  0.103166327	-9.438000E+00	  0.103166327	5.990500E+01	  0.103166327	5.713700E+01	  0.103166327	3.763700E+01
417	  0.103366733	-9.460000E+00	  0.103366733	5.954400E+01	  0.103366733	5.742500E+01	  0.103366733	3.756500E+01
418	  0.103567131	-9.482000E+00	  0.103567131	5.917100E+01	  0.103567131	5.772100E+01	  0.103567131	3.749800E+01
419	  0.103767529	-9.509000E+00	  0.103767529	5.878900E+01	  0.103767529	5.802700E+01	  0.103767529	3.740000E+01
420	  0.103967935	-9.535000E+00	  0.103967935	5.849500E+01	  0.103967935	5.826500E+01	  0.103967935	3.729600E+01
421	  0.104168333	-9.548000E+00	  0.104168333	5.818400E+01	  0.104168333	5.850900E+01	  0.104168333	3.725700E+01
422	  0.104368731	-9.573000E+00	  0.104368731	5.784100E+01	  0.104368731	5.878300E+01	  0.104368731	3.715500E+01
423	  0.104569137	-9.578000E+00	  0.104569137	5.751400E+01	  0.104569137	5.903500E+01	  0.104569137	3.715400E+01
424	  0.104769535	-9.596000E+00	  0.104769535	5.727700E+01	  0.104769535	5.922500E+01	  0.104769535	3.708200E+01
425	  0.104969934	-9.608000E+00	  0.104969934	5.691600E+01	  0.104969934	5.950700E+01	  0.104969934	3.703900E+01
426	  0.105170339	-9.618000E+00	  0.105170339	5.666000E+01	  0.105170339	5.970800E+01	  0.105170339	3.700300E+01
427	  0.105370738	-9.626000E+00	  0.105370738	5.637300E+01	  0.105370738	5.993200E+01	  0.105370738	3.697800E+01
428	  0.105571143	-9.644000E+00	  0.105571143	5.602700E+01	  0.105571143	6.020600E+01	  0.105571143	3.689900E+01
429	  0.105771542	-9.656000E+00	  0.105771542	5.570500E+01	  0.105771542	6.045900E+01	  0.105771542	3.685200E+01
430	  0.105971940	-9.663000E+00	  0.105971940	5.542500E+01	  0.105971940	6.067800E+01	  0.105971940	3.682500E+01
431	  0.106172346	-9.664000E+00	  0.106172346	5.511000E+01	  0.106172346	6.092400E+01	  0.106172346	3.683100E+01
432	  0.106372744	-9.676000E+00	  0.106372744	5.479000E+01	  0.106372744	6.117700E+01	  0.106372744	3.677700E+01
433	  0.106573142	-9.667000E+00	  0.106573142	5.445500E+01	  0.106573142	6.144000E+01	  0.106573142	3.682600E+01
434	  0.106773548	-9.672000E+00	  0.106773548	5.417600E+01	  0.106773548	6.166100E+01	  0.106773548	3.680500E+01
435	  0.106973946	-9.672000E+00	  0.106973946	5.381600E+01	  0.106973946	6.194700E+01	  0.106973946	3.680600E+01
436	  0.107174344	-9.680000E+00	  0.107174344	5.353600E+01	  0.107174344	6.217000E+01	  0.107174344	3.676300E+01
437	  0.107374750	-9.668000E+00	  0.107374750	5.318700E+01	  0.107374750	6.245000E+01	  0.107374750	3.682600E+01
438	  0.107575148	-9.667000E+00	  0.107575148	5.282800E+01	  0.107575148	6.273900E+01	  0.107575148	3.682500E+01
439	  0.107775547	-9.659000E+00	  0.107775547	5.243900E+01	  0.107775547	6.305400E+01	  0.107775547	3.686200E+01
440	  0.107975952	-9.654000E+00	  0.107975952	5.205300E+01	  0.107975952	6.336900E+01	  0.107975952	3.688200E+01
441	  0.108176351	-9.650000E+00	  0.108176351	5.178200E+01	  0.108176351	6.359200E+01	  0.108176351	3.689300E+01
442	  0.108376749	-9.645000E+00	  0.108376749	5.136700E+01	  0.108376749	6.393300E+01	  0.108376749	3.690600E+01
443	  0.108577155	-9.629000E+00	  0.108577155	5.092700E+01	  0.108577155	6.430200E+01	  0.108577155	3.697300E+01
444	  0.108777553	-9.622000E+00	  0.108777553	5.054600E+01	  0.108777553	6.462100E+01	  0.108777553	3.699600E+01
445	  0.108977959	-9.616000E+00	  0.108977959	5.019600E+01	  0.108977959	6.491600E+01	  0.108977959	3.700700E+01
446	  0.109178357	-9.602000E+00	  0.109178357	4.975600E+01	  0.109178357	6.529200E+01	  0.109178357	3.705500E+01
447	  0.109378755	-9.588000E+00	  0.109378755	4.927500E+01	  0.109378755	6.570700E+01	  0.109378755	3.710100E+01
448	  0.109579161	-9.567000E+00	  0.109579161	4.883300E+01	  0.109579161	6.609600E+01	  0.109579161	3.718100E+01
449	  0.109779559	-9.558000E+00	  0.109779559	4.844400E+01	  0.109779559	6.643600E+01	  0.109779559	3.719900E+01
450	  0.109979957	-9.545000E+00	  0.109979957	4.796900E+01	  0.109979957	6.685600E+01	  0.109979957	3.722700E+01
451	  0.110180363	-9.527000E+00	  0.110180363	4.750500E+01	  0.110180363	6.727300E+01	  0.110180363	3.728300E+01
452	  0.110380761	-9.509000E+00	  0.110380761	4.698200E+01	  0.110380761	6.774600E+01	  0.110380761	3.732400E+01
453	  0.110581160	-9.494000E+00	  0.110581160	4.648500E+01	  0.110581160	6.819900E+01	  0.110581160	3.735000E+01
454	  0.110781565	-9.476000E+00	  0.110781565	4.592200E+01	  0.110781565	6.871800E+01	  0.110781565	3.737800E+01
455	  0.110981964	-9.455000E+00	  0.110981964	4.546300E+01	  0.110981964	6.915100E+01	  0.110981964	3.743500E+01
456	  0.111182362	-9.436000E+00	  0.111182362	4.493900E+01	  0.111182362	6.964600E+01	  0.111182362	3.746200E+01
457	  0.111382768	-9.421000E+00	  0.111382768	4.440900E+01	  0.111382768	7.014900E+01	  0.111382768	3.746600E+01
458	  0.111583166	-9.402000E+00	  0.111583166	4.382000E+01	  0.111583166	7.071400E+01	  0.111583166	3.747100E+01
459	  0.111783572	-9.381000E+00	  0.111783572	4.326100E+01	  0.111783572	7.126100E+01	  0.111783572	3.748900E+01
460	  0.111983970	-9.364000E+00	  0.111983970	4.266200E+01	  0.111983970	7.184500E+01	  0.111983970	3.746600E+01
461	  0.112184368	-9.346000E+00	  0.112184368	4.205800E+01	  0.112184368	7.244200E+01	  0.112184368	3.744100E+01
462	  0.112384774	-9.325000E+00	  0.112384774	4.138100E+01	  0.112384774	7.311900E+01	  0.112384774	3.740900E+01
463	  0.112585172	-9.306000E+00	  0.112585172	4.077800E+01	  0.112585172	7.373000E+01	  0.112585172	3.737000E+01
464	  0.112785570	-9.288000E+00	  0.112785570	4.012500E+01	  0.112785570	7.439400E+01	  0.112785570	3.730700E+01
465	  0.112985976	-9.268000E+00	  0.112985976	3.948100E+01	  0.112985976	7.505800E+01	  0.112985976	3.724200E+01
466	  0.113186374	-9.254000E+00	  0.113186374	3.882300E+01	  0.113186374	7.573100E+01	  0.113186374	3.712400E+01
467	  0.113386773	-9.238000E+00	  0.113386773	3.815800E+01	  0.113386773	7.642200E+01	  0.113386773	3.701000E+01
468	  0.113587178	-9.216000E+00	  0.113587178	3.743200E+01	  0.113587178	7.719200E+01	  0.113587178	3.689300E+01
469	  0.113787577	-9.204000E+00	  0.113787577	3.667200E+01	  0.113787577	7.797900E+01	  0.113787577	3.668600E+01
470	  0.113987975	-9.178000E+00	  0.113987975	3.594500E+01	  0.113987975	7.877800E+01	  0.113987975	3.656900E+01
471	  0.114188381	-9.171000E+00	  0.114188381	3.517100E+01	  0.114188381	7.957500E+01	  0.114188381	3.628100E+01
472	  0.114388779	-9.156000E+00	  0.114388779	3.441100E+01	  0.114388779	8.038800E+01	  0.114388779	3.603700E+01
473	  0.114589177	-9.149000E+00	  0.114589177	3.358300E+01	  0.114589177	8.124800E+01	  0.114589177	3.568800E+01
474	  0.114789583	-9.133000E+00	  0.114789583	3.277800E+01	  0.114789583	8.211600E+01	  0.114789583	3.538400E+01
475	  0.114989981	-9.124000E+00	  0.114989981	3.199800E+01	  0.114989981	8.294100E+01	  0.114989981	3.503100E+01
476	  0.115190387	-9.112000E+00	  0.115190387	3.110500E+01	  0.115190387	8.389100E+01	  0.115190387	3.460500E+01
477	  0.115390785	-9.104000E+00	  0.115390785	3.028700E+01	  0.115390785	8.475100E+01	  0.115390785	3.416900E+01
478	  0.115591183	-9.099000E+00	  0.115591183	2.937300E+01	  0.115591183	8.569300E+01	  0.115591183	3.362500E+01
479	  0.115791589	-9.084000E+00	  0.115791589	2.849000E+01	  0.115791589	8.664600E+01	  0.115791589	3.313700E+01
480	  0.115991987	-9.087000E+00	  0.115991987	2.759900E+01	  0.115991987	8.751800E+01	  0.115991987	3.249100E+01
481	  0.116192386	-9.079000E+00	  0.116192386	2.672500E+01	  0.116192386	8.842200E+01	  0.116192386	3.190300E+01
482	  0.116392791	-9.077000E+00	  0.116392791	2.578400E+01	  0.116392791	8.935500E+01	  0.116392791	3.119600E+01
483	  0.116593190	-9.081000E+00	  0.116593190	2.482700E+01	  0.116593190	9.025800E+01	  0.116593190	3.039900E+01
484	  0.116793588	-9.079000E+00	  0.116793588	2.385900E+01	  0.116793588	9.118600E+01	  0.116793588	2.959200E+01
485	  0.116993994	-9.086000E+00	  0.116993994	2.286700E+01	  0.116993994	9.207300E+01	  0.116993994	2.867800E+01
486	  0.117194392	-9.099000E+00	  0.117194392	2.187900E+01	  0.117194392	9.289100E+01	  0.117194392	2.769100E+01
487	  0.117394790	-9.100000E+00	  0.117394790	2.084500E+01	  0.117394790	9.380200E+01	  0.117394790	2.669800E+01
488	  0.117595196	-9.117000E+00	  0.117595196	1.983700E+01	  0.117595196	9.455800E+01	  0.117595196	2.560200E+01
489	  0.117795594	-9.126000E+00	  0.117795594	1.877800E+01	  0.117795594	9.537300E+01	  0.117795594	2.446100E+01
490	  0.117995992	-9.143000E+00	  0.117995992	1.773900E+01	  0.117995992	9.608600E+01	  0.117995992	2.326900E+01
491	  0.118196398	-9.166000E+00	  0.118196398	1.663500E+01	  0.118196398	9.675600E+01	  0.118196398	2.193900E+01
492	  0.118396796	-9.192000E+00	  0.118396796	1.554700E+01	  0.118396796	9.734600E+01	  0.118396796	2.058800E+01
493	  0.118597202	-9.210000E+00	  0.118597202	1.440600E+01	  0.118597202	9.798300E+01	  0.118597202	1.918500E+01
494	  0.118797600	-9.243000E+00	  0.118797600	1.323300E+01	  0.118797600	9.846700E+01	  0.118797600	1.765400E+01
