! Anritsu VNA Master:             	Model: MS2036C/10/77
! SN:             	1601066
! /bd0/18may09/252.ew.m10.txt
! Existing Calibration Information:
! TYPE:             	Current Settings	Active Cal Settings
! TIME:             	05/09/2018 08:27:45 AM	05/09/2018 08:17:55 AM
! INTERNAL TEMP:    	40.8 C	41.3 C
! # POINTS:         	500	500
! START FREQ:       	20.000 MHz	20.000 MHz
! STOP FREQ:        	120.000 MHz	120.000 MHz
! SOURCE POWER:     	High	High
! IFBW:             	50 Hz	50 Hz
! AVG FACTOR:       	  1 	  1 
! REF PLANE 1:      	0 mm	0 mm
! REF PLANE 2:      	0 mm	0 mm
! CAL TYPE:         	Full S11	Full S11
! CAL METHOD:       	SOLT	SOLT
! CAL LINE TYPE:    	Coax	Coax
! DUT PORT 1:       	K-Conn(F)	K-Conn(F)
! DUT PORT 2:       	K-Conn(F)	K-Conn(F)
! CAL STATUS:       	OK: Accuracy High	--
! PROP-V:       	0.700
! CABLE LOSS:       	0.000 dB/m
! REF IMPEDANCE:       	50.0
! Trace Specific Parameters:	TR1	TR2	TR3	TR4
! TRACE.#.Y (GRAPH TYPE)	LOG MAG	PHASE	REAL IMPEDANCE	IMAGINARY IMPEDANCE
! TRACE.#.X 	FREQ.GHZ	FREQ.GHZ	FREQ.GHZ	FREQ.GHZ
! S-PARAMETER	S11	S11	S11	S11
! SMOOTH/APERTURE %	0	0	0	0
! WINDOW	NSL	NSL	NSL	NSL
! GATING	OFF	OFF	OFF	OFF
! FGTD	OFF	OFF	OFF	OFF
Marker Information per Trace:	TR1	TR2	TR3	TR4
!MK1	--	"MK1 TR2:  20.000 MHz,PH:-124.35°"	--	--
!MK2	--	--	"MK2 TR3:  70.100 200 MHz,Z:(17.270 ohm, -3.007 ohm)"	--
!MK3	--	--	--	--
!MK4	--	--	--	--
!MK5	--	--	--	--
!MK6	--	--	--	--
!MK7	--	--	--	--
!MK8	--	--	--	--
PNT	TR1.FREQ.GHZ	TR1.LOG MAG.dB	TR2.FREQ.GHZ	TR2.PHASE.deg	TR3.FREQ.GHZ	TR3.REAL IMPEDANCE.ohm	TR4.FREQ.GHZ	TR4.IMAGINARY IMPEDANCE.ohm
1	  0.020000000	-5.860000E-01	  0.020000000	-1.243460E+02	  0.020000000	2.155000E+00	  0.020000000	-2.635300E+01
2	  0.020200402	-5.860000E-01	  0.020200402	-1.257820E+02	  0.020200402	2.129000E+00	  0.020200402	-2.555900E+01
3	  0.020400802	-5.880000E-01	  0.020400802	-1.272290E+02	  0.020400802	2.107000E+00	  0.020400802	-2.476800E+01
4	  0.020601204	-5.890000E-01	  0.020601204	-1.286660E+02	  0.020601204	2.086000E+00	  0.020601204	-2.399300E+01
5	  0.020801604	-5.940000E-01	  0.020801604	-1.301570E+02	  0.020801604	2.080000E+00	  0.020801604	-2.319800E+01
6	  0.021002004	-6.010000E-01	  0.021002004	-1.316670E+02	  0.021002004	2.076000E+00	  0.021002004	-2.240300E+01
7	  0.021202406	-6.070000E-01	  0.021202406	-1.331730E+02	  0.021202406	2.074000E+00	  0.021202406	-2.161900E+01
8	  0.021402806	-6.110000E-01	  0.021402806	-1.346890E+02	  0.021402806	2.066000E+00	  0.021402806	-2.083900E+01
9	  0.021603208	-6.140000E-01	  0.021603208	-1.362060E+02	  0.021603208	2.053000E+00	  0.021603208	-2.006700E+01
10	  0.021803608	-6.180000E-01	  0.021803608	-1.377270E+02	  0.021803608	2.045000E+00	  0.021803608	-1.930100E+01
11	  0.022004008	-6.270000E-01	  0.022004008	-1.392360E+02	  0.022004008	2.052000E+00	  0.022004008	-1.854800E+01
12	  0.022204408	-6.280000E-01	  0.022204408	-1.407760E+02	  0.022204408	2.038000E+00	  0.022204408	-1.778900E+01
13	  0.022404809	-6.320000E-01	  0.022404809	-1.423450E+02	  0.022404809	2.032000E+00	  0.022404809	-1.702200E+01
14	  0.022605211	-6.380000E-01	  0.022605211	-1.439040E+02	  0.022605211	2.032000E+00	  0.022605211	-1.626700E+01
15	  0.022805611	-6.370000E-01	  0.022805611	-1.454910E+02	  0.022805611	2.010000E+00	  0.022805611	-1.550600E+01
16	  0.023006011	-6.390000E-01	  0.023006011	-1.470740E+02	  0.023006011	2.000000E+00	  0.023006011	-1.475300E+01
17	  0.023206413	-6.400000E-01	  0.023206413	-1.486430E+02	  0.023206413	1.987000E+00	  0.023206413	-1.401300E+01
18	  0.023406813	-6.460000E-01	  0.023406813	-1.502170E+02	  0.023406813	1.991000E+00	  0.023406813	-1.327600E+01
19	  0.023607215	-6.520000E-01	  0.023607215	-1.517810E+02	  0.023607215	1.995000E+00	  0.023607215	-1.254900E+01
20	  0.023807615	-6.620000E-01	  0.023807615	-1.533740E+02	  0.023807615	2.011000E+00	  0.023807615	-1.181300E+01
21	  0.024008015	-6.700000E-01	  0.024008015	-1.549980E+02	  0.024008015	2.023000E+00	  0.024008015	-1.106800E+01
22	  0.024208417	-6.790000E-01	  0.024208417	-1.566390E+02	  0.024208417	2.039000E+00	  0.024208417	-1.032000E+01
23	  0.024408817	-6.890000E-01	  0.024408817	-1.582660E+02	  0.024408817	2.055000E+00	  0.024408817	-9.582000E+00
24	  0.024609219	-6.970000E-01	  0.024609219	-1.598990E+02	  0.024609219	2.068000E+00	  0.024609219	-8.846000E+00
25	  0.024809619	-7.080000E-01	  0.024809619	-1.615370E+02	  0.024809619	2.090000E+00	  0.024809619	-8.112000E+00
26	  0.025010020	-7.180000E-01	  0.025010020	-1.631800E+02	  0.025010020	2.110000E+00	  0.025010020	-7.378000E+00
27	  0.025210422	-7.310000E-01	  0.025210422	-1.648430E+02	  0.025210422	2.142000E+00	  0.025210422	-6.640000E+00
28	  0.025410822	-7.460000E-01	  0.025410822	-1.665110E+02	  0.025410822	2.176000E+00	  0.025410822	-5.901000E+00
29	  0.025611224	-7.580000E-01	  0.025611224	-1.682070E+02	  0.025611224	2.206000E+00	  0.025611224	-5.153000E+00
30	  0.025811624	-7.710000E-01	  0.025811624	-1.699110E+02	  0.025811624	2.236000E+00	  0.025811624	-4.404000E+00
31	  0.026012026	-7.780000E-01	  0.026012026	-1.716200E+02	  0.026012026	2.252000E+00	  0.026012026	-3.655000E+00
32	  0.026212426	-7.900000E-01	  0.026212426	-1.733390E+02	  0.026212426	2.282000E+00	  0.026212426	-2.903000E+00
33	  0.026412826	-8.050000E-01	  0.026412826	-1.750620E+02	  0.026412826	2.321000E+00	  0.026412826	-2.150000E+00
34	  0.026613226	-8.190000E-01	  0.026613226	-1.767860E+02	  0.026613226	2.359000E+00	  0.026613226	-1.399000E+00
35	  0.026813626	-8.360000E-01	  0.026813626	-1.785330E+02	  0.026813626	2.405000E+00	  0.026813626	-6.380000E-01
36	  0.027014028	-8.520000E-01	  0.027014028	1.797080E+02	  0.027014028	2.452000E+00	  0.027014028	1.260000E-01
37	  0.027214428	-8.680000E-01	  0.027214428	1.779420E+02	  0.027214428	2.498000E+00	  0.027214428	8.950000E-01
38	  0.027414829	-8.840000E-01	  0.027414829	1.761570E+02	  0.027414829	2.545000E+00	  0.027414829	1.672000E+00
39	  0.027615231	-9.010000E-01	  0.027615231	1.743570E+02	  0.027615231	2.597000E+00	  0.027615231	2.457000E+00
40	  0.027815631	-9.220000E-01	  0.027815631	1.725690E+02	  0.027815631	2.663000E+00	  0.027815631	3.237000E+00
41	  0.028016033	-9.430000E-01	  0.028016033	1.707450E+02	  0.028016033	2.730000E+00	  0.028016033	4.034000E+00
42	  0.028216433	-9.650000E-01	  0.028216433	1.689430E+02	  0.028216433	2.800000E+00	  0.028216433	4.824000E+00
43	  0.028416833	-9.860000E-01	  0.028416833	1.671170E+02	  0.028416833	2.873000E+00	  0.028416833	5.626000E+00
44	  0.028617235	-1.006000E+00	  0.028617235	1.652970E+02	  0.028617235	2.940000E+00	  0.028617235	6.428000E+00
45	  0.028817635	-1.026000E+00	  0.028817635	1.634760E+02	  0.028817635	3.011000E+00	  0.028817635	7.234000E+00
46	  0.029018037	-1.047000E+00	  0.029018037	1.616680E+02	  0.029018037	3.089000E+00	  0.029018037	8.037000E+00
47	  0.029218437	-1.069000E+00	  0.029218437	1.598510E+02	  0.029218437	3.171000E+00	  0.029218437	8.848000E+00
48	  0.029418837	-1.094000E+00	  0.029418837	1.580140E+02	  0.029418837	3.263000E+00	  0.029418837	9.672000E+00
49	  0.029619239	-1.123000E+00	  0.029619239	1.561600E+02	  0.029619239	3.371000E+00	  0.029619239	1.050800E+01
50	  0.029819639	-1.152000E+00	  0.029819639	1.542880E+02	  0.029819639	3.483000E+00	  0.029819639	1.135800E+01
51	  0.030020041	-1.183000E+00	  0.030020041	1.523870E+02	  0.030020041	3.604000E+00	  0.030020041	1.222600E+01
52	  0.030220442	-1.212000E+00	  0.030220442	1.504600E+02	  0.030220442	3.726000E+00	  0.030220442	1.311300E+01
53	  0.030420844	-1.243000E+00	  0.030420844	1.485440E+02	  0.030420844	3.856000E+00	  0.030420844	1.400300E+01
54	  0.030621244	-1.276000E+00	  0.030621244	1.466390E+02	  0.030621244	3.993000E+00	  0.030621244	1.489400E+01
55	  0.030821644	-1.310000E+00	  0.030821644	1.447240E+02	  0.030821644	4.142000E+00	  0.030821644	1.579700E+01
56	  0.031022044	-1.345000E+00	  0.031022044	1.427840E+02	  0.031022044	4.301000E+00	  0.031022044	1.672200E+01
57	  0.031222444	-1.380000E+00	  0.031222444	1.408650E+02	  0.031222444	4.461000E+00	  0.031222444	1.764600E+01
58	  0.031422846	-1.417000E+00	  0.031422846	1.388690E+02	  0.031422846	4.641000E+00	  0.031422846	1.861700E+01
59	  0.031623244	-1.453000E+00	  0.031623244	1.368700E+02	  0.031623244	4.820000E+00	  0.031623244	1.960100E+01
60	  0.031823646	-1.488000E+00	  0.031823646	1.348750E+02	  0.031823646	5.006000E+00	  0.031823646	2.059600E+01
61	  0.032024048	-1.524000E+00	  0.032024048	1.328810E+02	  0.032024048	5.202000E+00	  0.032024048	2.160300E+01
62	  0.032224450	-1.560000E+00	  0.032224450	1.309010E+02	  0.032224450	5.405000E+00	  0.032224450	2.261700E+01
63	  0.032424849	-1.597000E+00	  0.032424849	1.289390E+02	  0.032424849	5.619000E+00	  0.032424849	2.363500E+01
64	  0.032625251	-1.636000E+00	  0.032625251	1.269620E+02	  0.032625251	5.852000E+00	  0.032625251	2.467400E+01
65	  0.032825653	-1.678000E+00	  0.032825653	1.249820E+02	  0.032825653	6.107000E+00	  0.032825653	2.573100E+01
66	  0.033026051	-1.724000E+00	  0.033026051	1.230090E+02	  0.033026051	6.386000E+00	  0.033026051	2.679900E+01
67	  0.033226453	-1.775000E+00	  0.033226453	1.210020E+02	  0.033226453	6.700000E+00	  0.033226453	2.790000E+01
68	  0.033426855	-1.832000E+00	  0.033426855	1.190050E+02	  0.033426855	7.050000E+00	  0.033426855	2.901200E+01
69	  0.033627257	-1.888000E+00	  0.033627257	1.169840E+02	  0.033627257	7.416000E+00	  0.033627257	3.015600E+01
70	  0.033827655	-1.940000E+00	  0.033827655	1.149010E+02	  0.033827655	7.788000E+00	  0.033827655	3.136100E+01
71	  0.034028057	-1.993000E+00	  0.034028057	1.127980E+02	  0.034028057	8.186000E+00	  0.034028057	3.259900E+01
72	  0.034228459	-2.045000E+00	  0.034228459	1.106800E+02	  0.034228459	8.604000E+00	  0.034228459	3.387200E+01
73	  0.034428857	-2.094000E+00	  0.034428857	1.085440E+02	  0.034428857	9.036000E+00	  0.034428857	3.518500E+01
74	  0.034629259	-2.141000E+00	  0.034629259	1.064340E+02	  0.034629259	9.481000E+00	  0.034629259	3.651200E+01
75	  0.034829661	-2.189000E+00	  0.034829661	1.043270E+02	  0.034829661	9.955000E+00	  0.034829661	3.786500E+01
76	  0.035030060	-2.230000E+00	  0.035030060	1.022340E+02	  0.035030060	1.042700E+01	  0.035030060	3.924600E+01
77	  0.035230462	-2.277000E+00	  0.035230462	1.001350E+02	  0.035230462	1.095300E+01	  0.035230462	4.065800E+01
78	  0.035430863	-2.325000E+00	  0.035430863	9.806900E+01	  0.035430863	1.151300E+01	  0.035430863	4.208100E+01
79	  0.035631265	-2.369000E+00	  0.035631265	9.599200E+01	  0.035631265	1.209300E+01	  0.035631265	4.354900E+01
80	  0.035831664	-2.418000E+00	  0.035831664	9.392600E+01	  0.035831664	1.273100E+01	  0.035831664	4.504100E+01
81	  0.036032066	-2.467000E+00	  0.036032066	9.189200E+01	  0.036032066	1.340900E+01	  0.036032066	4.654400E+01
82	  0.036232468	-2.518000E+00	  0.036232468	8.986700E+01	  0.036232468	1.413300E+01	  0.036232468	4.807600E+01
83	  0.036432866	-2.571000E+00	  0.036432866	8.784800E+01	  0.036432866	1.492300E+01	  0.036432866	4.963500E+01
84	  0.036633268	-2.630000E+00	  0.036633268	8.582600E+01	  0.036633268	1.579400E+01	  0.036633268	5.122800E+01
85	  0.036833670	-2.694000E+00	  0.036833670	8.379400E+01	  0.036833670	1.676200E+01	  0.036833670	5.285500E+01
86	  0.037034072	-2.758000E+00	  0.037034072	8.172100E+01	  0.037034072	1.780800E+01	  0.037034072	5.455900E+01
87	  0.037234470	-2.823000E+00	  0.037234470	7.961700E+01	  0.037234470	1.894500E+01	  0.037234470	5.633000E+01
88	  0.037434869	-2.888000E+00	  0.037434869	7.753300E+01	  0.037434869	2.016000E+01	  0.037434869	5.812600E+01
89	  0.037635271	-2.949000E+00	  0.037635271	7.544000E+01	  0.037635271	2.145100E+01	  0.037635271	5.998000E+01
90	  0.037835669	-3.011000E+00	  0.037835669	7.331800E+01	  0.037835669	2.285700E+01	  0.037835669	6.190800E+01
91	  0.038036071	-3.068000E+00	  0.038036071	7.114800E+01	  0.038036071	2.437500E+01	  0.038036071	6.394700E+01
92	  0.038236473	-3.126000E+00	  0.038236473	6.894800E+01	  0.038236473	2.603700E+01	  0.038236473	6.606800E+01
93	  0.038436871	-3.186000E+00	  0.038436871	6.678400E+01	  0.038436871	2.783500E+01	  0.038436871	6.819000E+01
94	  0.038637273	-3.243000E+00	  0.038637273	6.466900E+01	  0.038637273	2.973400E+01	  0.038637273	7.031500E+01
95	  0.038837675	-3.297000E+00	  0.038837675	6.257800E+01	  0.038837675	3.174200E+01	  0.038837675	7.247500E+01
96	  0.039038073	-3.352000E+00	  0.039038073	6.052000E+01	  0.039038073	3.390900E+01	  0.039038073	7.462200E+01
97	  0.039238475	-3.406000E+00	  0.039238475	5.849400E+01	  0.039238475	3.622500E+01	  0.039238475	7.676400E+01
98	  0.039438877	-3.468000E+00	  0.039438877	5.646500E+01	  0.039438877	3.880000E+01	  0.039438877	7.888200E+01
99	  0.039639279	-3.533000E+00	  0.039639279	5.443700E+01	  0.039639279	4.162400E+01	  0.039639279	8.097100E+01
100	  0.039839678	-3.596000E+00	  0.039839678	5.239000E+01	  0.039839678	4.468200E+01	  0.039839678	8.309500E+01
101	  0.040040080	-3.665000E+00	  0.040040080	5.033000E+01	  0.040040080	4.808200E+01	  0.040040080	8.514100E+01
102	  0.040240481	-3.731000E+00	  0.040240481	4.824600E+01	  0.040240481	5.176800E+01	  0.040240481	8.720100E+01
103	  0.040440880	-3.800000E+00	  0.040440880	4.618600E+01	  0.040440880	5.576700E+01	  0.040440880	8.909400E+01
104	  0.040641282	-3.867000E+00	  0.040641282	4.410600E+01	  0.040641282	6.011100E+01	  0.040641282	9.092400E+01
105	  0.040841684	-3.929000E+00	  0.040841684	4.203600E+01	  0.040841684	6.475400E+01	  0.040841684	9.264200E+01
106	  0.041042086	-3.992000E+00	  0.041042086	3.996200E+01	  0.041042086	6.978400E+01	  0.041042086	9.416600E+01
107	  0.041242484	-4.054000E+00	  0.041242484	3.788100E+01	  0.041242484	7.522500E+01	  0.041242484	9.544700E+01
108	  0.041442886	-4.114000E+00	  0.041442886	3.580700E+01	  0.041442886	8.103600E+01	  0.041442886	9.645100E+01
109	  0.041643288	-4.172000E+00	  0.041643288	3.373300E+01	  0.041643288	8.725400E+01	  0.041643288	9.708000E+01
110	  0.041843686	-4.226000E+00	  0.041843686	3.165800E+01	  0.041843686	9.386600E+01	  0.041843686	9.734900E+01
111	  0.042044088	-4.279000E+00	  0.042044088	2.963100E+01	  0.042044088	1.007110E+02	  0.042044088	9.708100E+01
112	  0.042244490	-4.333000E+00	  0.042244490	2.760000E+01	  0.042244490	1.079190E+02	  0.042244490	9.617400E+01
113	  0.042444889	-4.386000E+00	  0.042444889	2.559200E+01	  0.042444889	1.153340E+02	  0.042444889	9.457600E+01
114	  0.042645290	-4.439000E+00	  0.042645290	2.359000E+01	  0.042645290	1.229300E+02	  0.042645290	9.219400E+01
115	  0.042845692	-4.493000E+00	  0.042845692	2.157900E+01	  0.042845692	1.306610E+02	  0.042845692	8.887700E+01
116	  0.043046094	-4.543000E+00	  0.043046094	1.958100E+01	  0.043046094	1.383500E+02	  0.043046094	8.473400E+01
117	  0.043246493	-4.594000E+00	  0.043246493	1.760600E+01	  0.043246493	1.457510E+02	  0.043246493	7.957800E+01
118	  0.043446895	-4.644000E+00	  0.043446895	1.561100E+01	  0.043446895	1.529170E+02	  0.043446895	7.341100E+01
119	  0.043647297	-4.697000E+00	  0.043647297	1.364400E+01	  0.043647297	1.593780E+02	  0.043647297	6.624600E+01
120	  0.043847695	-4.749000E+00	  0.043847695	1.167200E+01	  0.043847695	1.651350E+02	  0.043847695	5.815700E+01
121	  0.044048097	-4.800000E+00	  0.044048097	9.699000E+00	  0.044048097	1.700150E+02	  0.044048097	4.928700E+01
122	  0.044248499	-4.849000E+00	  0.044248499	7.759000E+00	  0.044248499	1.737850E+02	  0.044248499	3.992000E+01
123	  0.044448901	-4.900000E+00	  0.044448901	5.824000E+00	  0.044448901	1.763390E+02	  0.044448901	3.009300E+01
124	  0.044649299	-4.948000E+00	  0.044649299	3.874000E+00	  0.044649299	1.778220E+02	  0.044649299	1.999200E+01
125	  0.044849701	-4.995000E+00	  0.044849701	1.934000E+00	  0.044849701	1.780590E+02	  0.044849701	9.897000E+00
126	  0.045050103	-5.035000E+00	  0.045050103	-3.000000E-03	  0.045050103	1.772890E+02	  0.045050103	-1.700000E-02
127	  0.045250501	-5.077000E+00	  0.045250501	-1.907000E+00	  0.045250501	1.753510E+02	  0.045250501	-9.437000E+00
128	  0.045450903	-5.119000E+00	  0.045450903	-3.790000E+00	  0.045450903	1.724330E+02	  0.045450903	-1.826300E+01
129	  0.045651305	-5.163000E+00	  0.045651305	-5.678000E+00	  0.045651305	1.686010E+02	  0.045651305	-2.647500E+01
130	  0.045851704	-5.206000E+00	  0.045851704	-7.564000E+00	  0.045851704	1.640920E+02	  0.045851704	-3.396800E+01
131	  0.046052106	-5.248000E+00	  0.046052106	-9.429000E+00	  0.046052106	1.590650E+02	  0.046052106	-4.060500E+01
132	  0.046252504	-5.292000E+00	  0.046252504	-1.131000E+01	  0.046252504	1.535910E+02	  0.046252504	-4.650600E+01
133	  0.046452906	-5.329000E+00	  0.046452906	-1.314500E+01	  0.046452906	1.480810E+02	  0.046452906	-5.159000E+01
134	  0.046653304	-5.365000E+00	  0.046653304	-1.502200E+01	  0.046653304	1.422960E+02	  0.046653304	-5.606800E+01
135	  0.046853706	-5.401000E+00	  0.046853706	-1.686900E+01	  0.046853706	1.365260E+02	  0.046853706	-5.978000E+01
136	  0.047054108	-5.435000E+00	  0.047054108	-1.872100E+01	  0.047054108	1.307690E+02	  0.047054108	-6.288300E+01
137	  0.047254506	-5.466000E+00	  0.047254506	-2.055700E+01	  0.047254506	1.251590E+02	  0.047254506	-6.542600E+01
138	  0.047454908	-5.498000E+00	  0.047454908	-2.236100E+01	  0.047454908	1.197380E+02	  0.047454908	-6.736600E+01
139	  0.047655310	-5.529000E+00	  0.047655310	-2.414200E+01	  0.047655310	1.145430E+02	  0.047655310	-6.884400E+01
140	  0.047855709	-5.558000E+00	  0.047855709	-2.589700E+01	  0.047855709	1.096020E+02	  0.047855709	-6.992600E+01
141	  0.048056111	-5.590000E+00	  0.048056111	-2.766400E+01	  0.048056111	1.048050E+02	  0.048056111	-7.061800E+01
142	  0.048256513	-5.621000E+00	  0.048256513	-2.941900E+01	  0.048256513	1.002520E+02	  0.048256513	-7.103000E+01
143	  0.048456915	-5.651000E+00	  0.048456915	-3.116900E+01	  0.048456915	9.591900E+01	  0.048456915	-7.116400E+01
144	  0.048657313	-5.676000E+00	  0.048657313	-3.291600E+01	  0.048657313	9.180800E+01	  0.048657313	-7.116400E+01
145	  0.048857715	-5.701000E+00	  0.048857715	-3.465600E+01	  0.048857715	8.791600E+01	  0.048857715	-7.095100E+01
146	  0.049058117	-5.726000E+00	  0.049058117	-3.637900E+01	  0.049058117	8.425400E+01	  0.049058117	-7.058100E+01
147	  0.049258515	-5.748000E+00	  0.049258515	-3.808400E+01	  0.049258515	8.081600E+01	  0.049258515	-7.008500E+01
148	  0.049458917	-5.774000E+00	  0.049458917	-3.981300E+01	  0.049458917	7.751600E+01	  0.049458917	-6.942900E+01
149	  0.049659319	-5.797000E+00	  0.049659319	-4.148600E+01	  0.049659319	7.449100E+01	  0.049659319	-6.871000E+01
150	  0.049859721	-5.819000E+00	  0.049859721	-4.316500E+01	  0.049859721	7.161200E+01	  0.049859721	-6.792000E+01
151	  0.050060119	-5.841000E+00	  0.050060119	-4.488200E+01	  0.050060119	6.882500E+01	  0.050060119	-6.705100E+01
152	  0.050260521	-5.858000E+00	  0.050260521	-4.654500E+01	  0.050260521	6.626000E+01	  0.050260521	-6.618300E+01
153	  0.050460923	-5.871000E+00	  0.050460923	-4.823500E+01	  0.050460923	6.378000E+01	  0.050460923	-6.528300E+01
154	  0.050661322	-5.886000E+00	  0.050661322	-4.988200E+01	  0.050661322	6.149200E+01	  0.050661322	-6.434500E+01
155	  0.050861724	-5.902000E+00	  0.050861724	-5.152500E+01	  0.050861724	5.933200E+01	  0.050861724	-6.336800E+01
156	  0.051062126	-5.913000E+00	  0.051062126	-5.314200E+01	  0.051062126	5.730100E+01	  0.051062126	-6.241400E+01
157	  0.051262524	-5.924000E+00	  0.051262524	-5.469600E+01	  0.051262524	5.544800E+01	  0.051262524	-6.146400E+01
158	  0.051462926	-5.939000E+00	  0.051462926	-5.627400E+01	  0.051462926	5.367100E+01	  0.051462926	-6.045900E+01
159	  0.051663328	-5.951000E+00	  0.051663328	-5.783700E+01	  0.051663328	5.199100E+01	  0.051663328	-5.946500E+01
160	  0.051863730	-5.968000E+00	  0.051863730	-5.938500E+01	  0.051863730	5.042500E+01	  0.051863730	-5.844300E+01
161	  0.052064128	-5.982000E+00	  0.052064128	-6.095100E+01	  0.052064128	4.890700E+01	  0.052064128	-5.742300E+01
162	  0.052264530	-5.995000E+00	  0.052264530	-6.249600E+01	  0.052264530	4.747900E+01	  0.052264530	-5.642000E+01
163	  0.052464932	-6.011000E+00	  0.052464932	-6.407800E+01	  0.052464932	4.609600E+01	  0.052464932	-5.537600E+01
164	  0.052665330	-6.027000E+00	  0.052665330	-6.563000E+01	  0.052665330	4.481100E+01	  0.052665330	-5.434900E+01
165	  0.052865732	-6.040000E+00	  0.052865732	-6.717800E+01	  0.052865732	4.357400E+01	  0.052865732	-5.334900E+01
166	  0.053066134	-6.050000E+00	  0.053066134	-6.872600E+01	  0.053066134	4.238800E+01	  0.053066134	-5.236500E+01
167	  0.053266536	-6.058000E+00	  0.053266536	-7.027400E+01	  0.053266536	4.124600E+01	  0.053266536	-5.139500E+01
168	  0.053466935	-6.068000E+00	  0.053466935	-7.181400E+01	  0.053466935	4.017100E+01	  0.053466935	-5.042400E+01
169	  0.053667337	-6.069000E+00	  0.053667337	-7.336300E+01	  0.053667337	3.910500E+01	  0.053667337	-4.949300E+01
170	  0.053867739	-6.073000E+00	  0.053867739	-7.489000E+01	  0.053867739	3.811100E+01	  0.053867739	-4.856700E+01
171	  0.054068137	-6.076000E+00	  0.054068137	-7.640000E+01	  0.054068137	3.716900E+01	  0.054068137	-4.765800E+01
172	  0.054268539	-6.080000E+00	  0.054268539	-7.786200E+01	  0.054268539	3.630100E+01	  0.054268539	-4.677800E+01
173	  0.054468941	-6.080000E+00	  0.054468941	-7.933600E+01	  0.054468941	3.544500E+01	  0.054468941	-4.591500E+01
174	  0.054669339	-6.084000E+00	  0.054669339	-8.076400E+01	  0.054669339	3.466700E+01	  0.054669339	-4.506600E+01
175	  0.054869737	-6.092000E+00	  0.054869737	-8.219600E+01	  0.054869737	3.392900E+01	  0.054869737	-4.421200E+01
176	  0.055070139	-6.094000E+00	  0.055070139	-8.359600E+01	  0.055070139	3.321900E+01	  0.055070139	-4.339800E+01
177	  0.055270538	-6.100000E+00	  0.055270538	-8.503900E+01	  0.055270538	3.253100E+01	  0.055270538	-4.255600E+01
178	  0.055470940	-6.105000E+00	  0.055470940	-8.645200E+01	  0.055470940	3.187800E+01	  0.055470940	-4.174300E+01
179	  0.055671342	-6.110000E+00	  0.055671342	-8.786900E+01	  0.055671342	3.125100E+01	  0.055671342	-4.093400E+01
180	  0.055871744	-6.114000E+00	  0.055871744	-8.929100E+01	  0.055871744	3.064500E+01	  0.055871744	-4.013000E+01
181	  0.056072142	-6.122000E+00	  0.056072142	-9.069400E+01	  0.056072142	3.008300E+01	  0.056072142	-3.933500E+01
182	  0.056272544	-6.126000E+00	  0.056272544	-9.209200E+01	  0.056272544	2.953000E+01	  0.056272544	-3.856200E+01
183	  0.056472946	-6.129000E+00	  0.056472946	-9.351100E+01	  0.056472946	2.898800E+01	  0.056472946	-3.778500E+01
184	  0.056673344	-6.127000E+00	  0.056673344	-9.488100E+01	  0.056673344	2.846800E+01	  0.056673344	-3.705500E+01
185	  0.056873746	-6.134000E+00	  0.056873746	-9.627400E+01	  0.056873746	2.798700E+01	  0.056873746	-3.629800E+01
186	  0.057074148	-6.131000E+00	  0.057074148	-9.768000E+01	  0.057074148	2.748900E+01	  0.057074148	-3.556300E+01
187	  0.057274550	-6.129000E+00	  0.057274550	-9.903500E+01	  0.057274550	2.702900E+01	  0.057274550	-3.485800E+01
188	  0.057474948	-6.130000E+00	  0.057474948	-1.003950E+02	  0.057474948	2.659200E+01	  0.057474948	-3.415100E+01
189	  0.057675350	-6.129000E+00	  0.057675350	-1.017220E+02	  0.057675350	2.617400E+01	  0.057675350	-3.347100E+01
190	  0.057875752	-6.130000E+00	  0.057875752	-1.030420E+02	  0.057875752	2.578200E+01	  0.057875752	-3.279500E+01
191	  0.058076151	-6.129000E+00	  0.058076151	-1.043470E+02	  0.058076151	2.539900E+01	  0.058076151	-3.213700E+01
192	  0.058276553	-6.131000E+00	  0.058276553	-1.056290E+02	  0.058276553	2.504600E+01	  0.058276553	-3.149100E+01
193	  0.058476955	-6.131000E+00	  0.058476955	-1.069290E+02	  0.058476955	2.469600E+01	  0.058476955	-3.084200E+01
194	  0.058677353	-6.135000E+00	  0.058677353	-1.082070E+02	  0.058677353	2.437400E+01	  0.058677353	-3.020500E+01
195	  0.058877755	-6.135000E+00	  0.058877755	-1.094960E+02	  0.058877755	2.404900E+01	  0.058877755	-2.957300E+01
196	  0.059078157	-6.139000E+00	  0.059078157	-1.107840E+02	  0.059078157	2.374700E+01	  0.059078157	-2.894000E+01
197	  0.059278559	-6.146000E+00	  0.059278559	-1.120590E+02	  0.059278559	2.346800E+01	  0.059278559	-2.831500E+01
198	  0.059478957	-6.149000E+00	  0.059478957	-1.133630E+02	  0.059478957	2.318200E+01	  0.059478957	-2.768600E+01
199	  0.059679359	-6.149000E+00	  0.059679359	-1.146340E+02	  0.059679359	2.290200E+01	  0.059679359	-2.708300E+01
200	  0.059879761	-6.149000E+00	  0.059879761	-1.159110E+02	  0.059879761	2.263000E+01	  0.059879761	-2.648100E+01
201	  0.060080159	-6.152000E+00	  0.060080159	-1.171780E+02	  0.060080159	2.237800E+01	  0.060080159	-2.588600E+01
202	  0.060280561	-6.154000E+00	  0.060280561	-1.184340E+02	  0.060280561	2.213500E+01	  0.060280561	-2.529900E+01
203	  0.060480963	-6.154000E+00	  0.060480963	-1.196920E+02	  0.060480963	2.189300E+01	  0.060480963	-2.472000E+01
204	  0.060681365	-6.152000E+00	  0.060681365	-1.209190E+02	  0.060681365	2.165800E+01	  0.060681365	-2.416100E+01
205	  0.060881764	-6.150000E+00	  0.060881764	-1.221550E+02	  0.060881764	2.143200E+01	  0.060881764	-2.360000E+01
206	  0.061082166	-6.148000E+00	  0.061082166	-1.233960E+02	  0.061082166	2.121000E+01	  0.061082166	-2.304200E+01
207	  0.061282568	-6.149000E+00	  0.061282568	-1.245930E+02	  0.061282568	2.101200E+01	  0.061282568	-2.250300E+01
208	  0.061482966	-6.145000E+00	  0.061482966	-1.257780E+02	  0.061482966	2.080700E+01	  0.061482966	-2.197900E+01
209	  0.061683368	-6.144000E+00	  0.061683368	-1.269500E+02	  0.061683368	2.062200E+01	  0.061683368	-2.145900E+01
210	  0.061883770	-6.145000E+00	  0.061883770	-1.281140E+02	  0.061883770	2.044800E+01	  0.061883770	-2.094400E+01
211	  0.062084168	-6.146000E+00	  0.062084168	-1.292690E+02	  0.062084168	2.027900E+01	  0.062084168	-2.043700E+01
212	  0.062284570	-6.149000E+00	  0.062284570	-1.304500E+02	  0.062284570	2.012100E+01	  0.062284570	-1.991900E+01
213	  0.062484972	-6.146000E+00	  0.062484972	-1.315600E+02	  0.062484972	1.995800E+01	  0.062484972	-1.944100E+01
214	  0.062685370	-6.151000E+00	  0.062685370	-1.327300E+02	  0.062685370	1.981600E+01	  0.062685370	-1.893200E+01
215	  0.062885776	-6.151000E+00	  0.062885776	-1.339040E+02	  0.062885776	1.966500E+01	  0.062885776	-1.842800E+01
216	  0.063086174	-6.157000E+00	  0.063086174	-1.350470E+02	  0.063086174	1.954100E+01	  0.063086174	-1.793400E+01
217	  0.063286573	-6.158000E+00	  0.063286573	-1.362310E+02	  0.063286573	1.940100E+01	  0.063286573	-1.743100E+01
218	  0.063486971	-6.157000E+00	  0.063486971	-1.373580E+02	  0.063486971	1.926800E+01	  0.063486971	-1.695500E+01
219	  0.063687377	-6.155000E+00	  0.063687377	-1.385240E+02	  0.063687377	1.913000E+01	  0.063687377	-1.646600E+01
220	  0.063887775	-6.154000E+00	  0.063887775	-1.396880E+02	  0.063887775	1.900300E+01	  0.063887775	-1.597900E+01
221	  0.064088173	-6.155000E+00	  0.064088173	-1.408210E+02	  0.064088173	1.888900E+01	  0.064088173	-1.550600E+01
222	  0.064288579	-6.156000E+00	  0.064288579	-1.419480E+02	  0.064288579	1.877700E+01	  0.064288579	-1.503800E+01
223	  0.064488977	-6.151000E+00	  0.064488977	-1.430710E+02	  0.064488977	1.865600E+01	  0.064488977	-1.457700E+01
224	  0.064689375	-6.157000E+00	  0.064689375	-1.441490E+02	  0.064689375	1.857100E+01	  0.064689375	-1.412900E+01
225	  0.064889781	-6.152000E+00	  0.064889781	-1.452480E+02	  0.064889781	1.845900E+01	  0.064889781	-1.368100E+01
226	  0.065090179	-6.153000E+00	  0.065090179	-1.463480E+02	  0.065090179	1.836700E+01	  0.065090179	-1.323100E+01
227	  0.065290578	-6.161000E+00	  0.065290578	-1.474170E+02	  0.065290578	1.829800E+01	  0.065290578	-1.279100E+01
228	  0.065490983	-6.159000E+00	  0.065490983	-1.485130E+02	  0.065490983	1.820700E+01	  0.065490983	-1.234700E+01
229	  0.065691382	-6.160000E+00	  0.065691382	-1.495840E+02	  0.065691382	1.812500E+01	  0.065691382	-1.191400E+01
230	  0.065891780	-6.166000E+00	  0.065891780	-1.506570E+02	  0.065891780	1.806200E+01	  0.065891780	-1.147800E+01
231	  0.066092186	-6.168000E+00	  0.066092186	-1.517450E+02	  0.066092186	1.799000E+01	  0.066092186	-1.104100E+01
232	  0.066292584	-6.172000E+00	  0.066292584	-1.528140E+02	  0.066292584	1.792800E+01	  0.066292584	-1.061100E+01
233	  0.066492982	-6.173000E+00	  0.066492982	-1.538800E+02	  0.066492982	1.786300E+01	  0.066492982	-1.018400E+01
234	  0.066693388	-6.170000E+00	  0.066693388	-1.549420E+02	  0.066693388	1.778800E+01	  0.066693388	-9.763000E+00
235	  0.066893786	-6.174000E+00	  0.066893786	-1.559760E+02	  0.066893786	1.773800E+01	  0.066893786	-9.350000E+00
236	  0.067094192	-6.176000E+00	  0.067094192	-1.570450E+02	  0.067094192	1.768300E+01	  0.067094192	-8.926000E+00
237	  0.067294590	-6.180000E+00	  0.067294590	-1.580980E+02	  0.067294590	1.763600E+01	  0.067294590	-8.509000E+00
238	  0.067494988	-6.177000E+00	  0.067494988	-1.591480E+02	  0.067494988	1.757600E+01	  0.067494988	-8.095000E+00
239	  0.067695394	-6.185000E+00	  0.067695394	-1.601670E+02	  0.067695394	1.754500E+01	  0.067695394	-7.692000E+00
240	  0.067895792	-6.186000E+00	  0.067895792	-1.612050E+02	  0.067895792	1.750000E+01	  0.067895792	-7.285000E+00
241	  0.068096191	-6.189000E+00	  0.068096191	-1.622230E+02	  0.068096191	1.746600E+01	  0.068096191	-6.885000E+00
242	  0.068296596	-6.191000E+00	  0.068296596	-1.632190E+02	  0.068296596	1.743000E+01	  0.068296596	-6.495000E+00
243	  0.068496995	-6.195000E+00	  0.068496995	-1.642470E+02	  0.068496995	1.740000E+01	  0.068496995	-6.092000E+00
244	  0.068697393	-6.198000E+00	  0.068697393	-1.652560E+02	  0.068697393	1.737200E+01	  0.068697393	-5.699000E+00
245	  0.068897791	-6.201000E+00	  0.068897791	-1.662500E+02	  0.068897791	1.734700E+01	  0.068897791	-5.311000E+00
246	  0.069098189	-6.202000E+00	  0.069098189	-1.672660E+02	  0.069098189	1.731900E+01	  0.069098189	-4.917000E+00
247	  0.069298595	-6.204000E+00	  0.069298595	-1.682380E+02	  0.069298595	1.729600E+01	  0.069298595	-4.539000E+00
248	  0.069498993	-6.211000E+00	  0.069498993	-1.692150E+02	  0.069498993	1.728900E+01	  0.069498993	-4.159000E+00
249	  0.069699399	-6.220000E+00	  0.069699399	-1.702040E+02	  0.069699399	1.728600E+01	  0.069699399	-3.775000E+00
250	  0.069899797	-6.225000E+00	  0.069899797	-1.712240E+02	  0.069899797	1.727800E+01	  0.069899797	-3.380000E+00
251	  0.070100196	-6.229000E+00	  0.070100196	-1.721900E+02	  0.070100196	1.727000E+01	  0.070100196	-3.007000E+00
252	  0.070300601	-6.236000E+00	  0.070300601	-1.731610E+02	  0.070300601	1.727100E+01	  0.070300601	-2.632000E+00
253	  0.070501000	-6.238000E+00	  0.070501000	-1.741320E+02	  0.070501000	1.726100E+01	  0.070501000	-2.257000E+00
254	  0.070701398	-6.239000E+00	  0.070701398	-1.751110E+02	  0.070701398	1.725200E+01	  0.070701398	-1.880000E+00
255	  0.070901804	-6.247000E+00	  0.070901804	-1.760910E+02	  0.070901804	1.726200E+01	  0.070901804	-1.502000E+00
256	  0.071102202	-6.256000E+00	  0.071102202	-1.770790E+02	  0.071102202	1.727700E+01	  0.071102202	-1.122000E+00
257	  0.071302600	-6.262000E+00	  0.071302600	-1.780310E+02	  0.071302600	1.728700E+01	  0.071302600	-7.560000E-01
258	  0.071503006	-6.267000E+00	  0.071503006	-1.790030E+02	  0.071503006	1.729500E+01	  0.071503006	-3.820000E-01
259	  0.071703404	-6.277000E+00	  0.071703404	-1.799090E+02	  0.071703404	1.732000E+01	  0.071703404	-3.400000E-02
260	  0.071903802	-6.281000E+00	  0.071903802	1.791070E+02	  0.071903802	1.733200E+01	  0.071903802	3.420000E-01
261	  0.072104208	-6.289000E+00	  0.072104208	1.781430E+02	  0.072104208	1.735400E+01	  0.072104208	7.120000E-01
262	  0.072304606	-6.299000E+00	  0.072304606	1.772390E+02	  0.072304606	1.738500E+01	  0.072304606	1.059000E+00
263	  0.072505005	-6.301000E+00	  0.072505005	1.762890E+02	  0.072505005	1.739600E+01	  0.072505005	1.423000E+00
264	  0.072705410	-6.310000E+00	  0.072705410	1.753400E+02	  0.072705410	1.742900E+01	  0.072705410	1.787000E+00
265	  0.072905809	-6.320000E+00	  0.072905809	1.744110E+02	  0.072905809	1.746500E+01	  0.072905809	2.143000E+00
266	  0.073106214	-6.324000E+00	  0.073106214	1.734720E+02	  0.073106214	1.748800E+01	  0.073106214	2.503000E+00
267	  0.073306613	-6.331000E+00	  0.073306613	1.725590E+02	  0.073306613	1.752300E+01	  0.073306613	2.853000E+00
268	  0.073507011	-6.339000E+00	  0.073507011	1.716220E+02	  0.073507011	1.755900E+01	  0.073507011	3.212000E+00
269	  0.073707417	-6.342000E+00	  0.073707417	1.707280E+02	  0.073707417	1.758500E+01	  0.073707417	3.555000E+00
270	  0.073907815	-6.351000E+00	  0.073907815	1.698340E+02	  0.073907815	1.763000E+01	  0.073907815	3.898000E+00
271	  0.074108213	-6.358000E+00	  0.074108213	1.688920E+02	  0.074108213	1.767000E+01	  0.074108213	4.259000E+00
272	  0.074308619	-6.367000E+00	  0.074308619	1.680010E+02	  0.074308619	1.771800E+01	  0.074308619	4.601000E+00
273	  0.074509017	-6.376000E+00	  0.074509017	1.671140E+02	  0.074509017	1.776600E+01	  0.074509017	4.941000E+00
274	  0.074709415	-6.385000E+00	  0.074709415	1.662050E+02	  0.074709415	1.781700E+01	  0.074709415	5.289000E+00
275	  0.074909821	-6.394000E+00	  0.074909821	1.653330E+02	  0.074909821	1.787200E+01	  0.074909821	5.624000E+00
276	  0.075110219	-6.407000E+00	  0.075110219	1.644580E+02	  0.075110219	1.793500E+01	  0.075110219	5.959000E+00
277	  0.075310618	-6.412000E+00	  0.075310618	1.635660E+02	  0.075310618	1.798300E+01	  0.075310618	6.302000E+00
278	  0.075511023	-6.425000E+00	  0.075511023	1.627080E+02	  0.075511023	1.805100E+01	  0.075511023	6.631000E+00
279	  0.075711422	-6.437000E+00	  0.075711422	1.618280E+02	  0.075711422	1.811900E+01	  0.075711422	6.968000E+00
280	  0.075911827	-6.448000E+00	  0.075911827	1.609680E+02	  0.075911827	1.818500E+01	  0.075911827	7.298000E+00
281	  0.076112226	-6.457000E+00	  0.076112226	1.600950E+02	  0.076112226	1.825100E+01	  0.076112226	7.634000E+00
282	  0.076312624	-6.469000E+00	  0.076312624	1.592160E+02	  0.076312624	1.832500E+01	  0.076312624	7.972000E+00
283	  0.076513030	-6.481000E+00	  0.076513030	1.583430E+02	  0.076513030	1.840100E+01	  0.076513030	8.308000E+00
284	  0.076713428	-6.489000E+00	  0.076713428	1.574630E+02	  0.076713428	1.847100E+01	  0.076713428	8.648000E+00
285	  0.076913826	-6.503000E+00	  0.076913826	1.566040E+02	  0.076913826	1.855500E+01	  0.076913826	8.977000E+00
286	  0.077114232	-6.509000E+00	  0.077114232	1.557610E+02	  0.077114232	1.862100E+01	  0.077114232	9.304000E+00
287	  0.077314630	-6.521000E+00	  0.077314630	1.549270E+02	  0.077314630	1.870300E+01	  0.077314630	9.626000E+00
288	  0.077515028	-6.536000E+00	  0.077515028	1.540630E+02	  0.077515028	1.879800E+01	  0.077515028	9.958000E+00
289	  0.077715434	-6.549000E+00	  0.077715434	1.532110E+02	  0.077715434	1.888800E+01	  0.077715434	1.028600E+01
290	  0.077915832	-6.560000E+00	  0.077915832	1.523730E+02	  0.077915832	1.897400E+01	  0.077915832	1.061100E+01
291	  0.078116231	-6.575000E+00	  0.078116231	1.515260E+02	  0.078116231	1.907300E+01	  0.078116231	1.093600E+01
292	  0.078316636	-6.588000E+00	  0.078316636	1.506650E+02	  0.078316636	1.917200E+01	  0.078316636	1.126900E+01
293	  0.078517035	-6.603000E+00	  0.078517035	1.498430E+02	  0.078517035	1.927400E+01	  0.078517035	1.158600E+01
294	  0.078717433	-6.618000E+00	  0.078717433	1.489980E+02	  0.078717433	1.937900E+01	  0.078717433	1.191200E+01
295	  0.078917839	-6.632000E+00	  0.078917839	1.481710E+02	  0.078917839	1.948300E+01	  0.078917839	1.223200E+01
296	  0.079118237	-6.650000E+00	  0.079118237	1.473250E+02	  0.079118237	1.960200E+01	  0.079118237	1.255800E+01
297	  0.079318643	-6.664000E+00	  0.079318643	1.465030E+02	  0.079318643	1.971100E+01	  0.079318643	1.287600E+01
298	  0.079519041	-6.678000E+00	  0.079519041	1.456840E+02	  0.079519041	1.982100E+01	  0.079519041	1.319300E+01
299	  0.079719439	-6.692000E+00	  0.079719439	1.448290E+02	  0.079719439	1.993800E+01	  0.079719439	1.352500E+01
300	  0.079919845	-6.705000E+00	  0.079919845	1.440160E+02	  0.079919845	2.004800E+01	  0.079919845	1.384200E+01
301	  0.080120243	-6.722000E+00	  0.080120243	1.431730E+02	  0.080120243	2.017600E+01	  0.080120243	1.416800E+01
302	  0.080320641	-6.737000E+00	  0.080320641	1.423620E+02	  0.080320641	2.029900E+01	  0.080320641	1.448300E+01
303	  0.080521047	-6.753000E+00	  0.080521047	1.415570E+02	  0.080521047	2.042400E+01	  0.080521047	1.479500E+01
304	  0.080721445	-6.774000E+00	  0.080721445	1.407640E+02	  0.080721445	2.056500E+01	  0.080721445	1.509900E+01
305	  0.080921844	-6.788000E+00	  0.080921844	1.399880E+02	  0.080921844	2.068800E+01	  0.080921844	1.540100E+01
306	  0.081122249	-6.806000E+00	  0.081122249	1.391860E+02	  0.081122249	2.082600E+01	  0.081122249	1.571100E+01
307	  0.081322648	-6.825000E+00	  0.081322648	1.384140E+02	  0.081322648	2.096700E+01	  0.081322648	1.600900E+01
308	  0.081523046	-6.840000E+00	  0.081523046	1.376140E+02	  0.081523046	2.110000E+01	  0.081523046	1.632100E+01
309	  0.081723452	-6.863000E+00	  0.081723452	1.368370E+02	  0.081723452	2.125600E+01	  0.081723452	1.661800E+01
310	  0.081923850	-6.881000E+00	  0.081923850	1.360790E+02	  0.081923850	2.139900E+01	  0.081923850	1.691100E+01
311	  0.082124248	-6.905000E+00	  0.082124248	1.353360E+02	  0.082124248	2.155900E+01	  0.082124248	1.719200E+01
312	  0.082324654	-6.922000E+00	  0.082324654	1.345730E+02	  0.082324654	2.170500E+01	  0.082324654	1.748800E+01
313	  0.082525052	-6.944000E+00	  0.082525052	1.338540E+02	  0.082525052	2.186000E+01	  0.082525052	1.776200E+01
314	  0.082725458	-6.973000E+00	  0.082725458	1.331110E+02	  0.082725458	2.203900E+01	  0.082725458	1.803900E+01
315	  0.082925856	-6.996000E+00	  0.082925856	1.323140E+02	  0.082925856	2.221500E+01	  0.082925856	1.834300E+01
316	  0.083126254	-7.018000E+00	  0.083126254	1.315540E+02	  0.083126254	2.238300E+01	  0.083126254	1.863300E+01
317	  0.083326660	-7.041000E+00	  0.083326660	1.308010E+02	  0.083326660	2.255500E+01	  0.083326660	1.892000E+01
318	  0.083527058	-7.062000E+00	  0.083527058	1.300620E+02	  0.083527058	2.272300E+01	  0.083527058	1.920200E+01
319	  0.083727457	-7.082000E+00	  0.083727457	1.292990E+02	  0.083727457	2.289600E+01	  0.083727457	1.949500E+01
320	  0.083927862	-7.104000E+00	  0.083927862	1.285900E+02	  0.083927862	2.306700E+01	  0.083927862	1.976400E+01
321	  0.084128261	-7.126000E+00	  0.084128261	1.278660E+02	  0.084128261	2.324200E+01	  0.084128261	2.003900E+01
322	  0.084328659	-7.148000E+00	  0.084328659	1.271530E+02	  0.084328659	2.342100E+01	  0.084328659	2.030900E+01
323	  0.084529065	-7.174000E+00	  0.084529065	1.264230E+02	  0.084529065	2.361200E+01	  0.084529065	2.058200E+01
324	  0.084729463	-7.193000E+00	  0.084729463	1.257010E+02	  0.084729463	2.378800E+01	  0.084729463	2.085900E+01
325	  0.084929861	-7.218000E+00	  0.084929861	1.249930E+02	  0.084929861	2.398200E+01	  0.084929861	2.112200E+01
326	  0.085130267	-7.242000E+00	  0.085130267	1.243030E+02	  0.085130267	2.417100E+01	  0.085130267	2.138000E+01
327	  0.085330658	-7.264000E+00	  0.085330658	1.236060E+02	  0.085330658	2.435600E+01	  0.085330658	2.164300E+01
328	  0.085531056	-7.290000E+00	  0.085531056	1.229060E+02	  0.085531056	2.455700E+01	  0.085531056	2.190100E+01
329	  0.085731462	-7.311000E+00	  0.085731462	1.222250E+02	  0.085731462	2.474600E+01	  0.085731462	2.215700E+01
330	  0.085931860	-7.339000E+00	  0.085931860	1.215370E+02	  0.085931860	2.495400E+01	  0.085931860	2.240700E+01
331	  0.086132258	-7.365000E+00	  0.086132258	1.208550E+02	  0.086132258	2.516100E+01	  0.086132258	2.265600E+01
332	  0.086332664	-7.391000E+00	  0.086332664	1.201450E+02	  0.086332664	2.537400E+01	  0.086332664	2.291700E+01
333	  0.086533062	-7.409000E+00	  0.086533062	1.194520E+02	  0.086533062	2.556700E+01	  0.086533062	2.318000E+01
334	  0.086733460	-7.435000E+00	  0.086733460	1.187480E+02	  0.086733460	2.578300E+01	  0.086733460	2.343800E+01
335	  0.086933866	-7.454000E+00	  0.086933866	1.180890E+02	  0.086933866	2.597800E+01	  0.086933866	2.368500E+01
336	  0.087134264	-7.481000E+00	  0.087134264	1.173860E+02	  0.087134264	2.620200E+01	  0.087134264	2.394000E+01
337	  0.087334670	-7.503000E+00	  0.087334670	1.167170E+02	  0.087334670	2.641000E+01	  0.087334670	2.418700E+01
338	  0.087535068	-7.528000E+00	  0.087535068	1.160810E+02	  0.087535068	2.662300E+01	  0.087535068	2.441500E+01
339	  0.087735467	-7.552000E+00	  0.087735467	1.154260E+02	  0.087735467	2.683900E+01	  0.087735467	2.465100E+01
340	  0.087935872	-7.575000E+00	  0.087935872	1.147980E+02	  0.087935872	2.704900E+01	  0.087935872	2.487700E+01
341	  0.088136271	-7.597000E+00	  0.088136271	1.141210E+02	  0.088136271	2.726800E+01	  0.088136271	2.512600E+01
342	  0.088336669	-7.621000E+00	  0.088336669	1.134690E+02	  0.088336669	2.749200E+01	  0.088336669	2.535900E+01
343	  0.088537075	-7.648000E+00	  0.088537075	1.128640E+02	  0.088537075	2.771700E+01	  0.088537075	2.556600E+01
344	  0.088737473	-7.666000E+00	  0.088737473	1.122330E+02	  0.088737473	2.792400E+01	  0.088737473	2.579900E+01
345	  0.088937871	-7.698000E+00	  0.088937871	1.116350E+02	  0.088937871	2.816100E+01	  0.088937871	2.599600E+01
346	  0.089138277	-7.720000E+00	  0.089138277	1.110510E+02	  0.089138277	2.837200E+01	  0.089138277	2.620100E+01
347	  0.089338675	-7.759000E+00	  0.089338675	1.104610E+02	  0.089338675	2.863300E+01	  0.089338675	2.637900E+01
348	  0.089539073	-7.779000E+00	  0.089539073	1.098380E+02	  0.089539073	2.885500E+01	  0.089539073	2.660100E+01
349	  0.089739479	-7.810000E+00	  0.089739479	1.092350E+02	  0.089739479	2.910100E+01	  0.089739479	2.679700E+01
350	  0.089939877	-7.835000E+00	  0.089939877	1.086110E+02	  0.089939877	2.934000E+01	  0.089939877	2.701000E+01
351	  0.090140276	-7.866000E+00	  0.090140276	1.080200E+02	  0.090140276	2.959100E+01	  0.090140276	2.719600E+01
352	  0.090340681	-7.888000E+00	  0.090340681	1.073820E+02	  0.090340681	2.983100E+01	  0.090340681	2.741800E+01
353	  0.090541080	-7.923000E+00	  0.090541080	1.067960E+02	  0.090541080	3.009300E+01	  0.090541080	2.759400E+01
354	  0.090741485	-7.946000E+00	  0.090741485	1.062030E+02	  0.090741485	3.032900E+01	  0.090741485	2.779300E+01
355	  0.090941884	-7.977000E+00	  0.090941884	1.056380E+02	  0.090941884	3.058100E+01	  0.090941884	2.796300E+01
356	  0.091142282	-8.002000E+00	  0.091142282	1.050750E+02	  0.091142282	3.081900E+01	  0.091142282	2.814300E+01
357	  0.091342688	-8.029000E+00	  0.091342688	1.044770E+02	  0.091342688	3.107400E+01	  0.091342688	2.833300E+01
358	  0.091543086	-8.053000E+00	  0.091543086	1.038910E+02	  0.091543086	3.131800E+01	  0.091543086	2.852500E+01
359	  0.091743484	-8.080000E+00	  0.091743484	1.033560E+02	  0.091743484	3.156000E+01	  0.091743484	2.868500E+01
360	  0.091943890	-8.106000E+00	  0.091943890	1.028040E+02	  0.091943890	3.180500E+01	  0.091943890	2.885400E+01
361	  0.092144288	-8.130000E+00	  0.092144288	1.022630E+02	  0.092144288	3.204200E+01	  0.092144288	2.902300E+01
362	  0.092344686	-8.157000E+00	  0.092344686	1.017370E+02	  0.092344686	3.228800E+01	  0.092344686	2.917600E+01
363	  0.092545092	-8.184000E+00	  0.092545092	1.012080E+02	  0.092545092	3.253300E+01	  0.092545092	2.933100E+01
364	  0.092745490	-8.216000E+00	  0.092745490	1.007110E+02	  0.092745490	3.278400E+01	  0.092745490	2.945900E+01
365	  0.092945889	-8.241000E+00	  0.092945889	1.001600E+02	  0.092945889	3.303900E+01	  0.092945889	2.962300E+01
366	  0.093146294	-8.271000E+00	  0.093146294	9.965800E+01	  0.093146294	3.329000E+01	  0.093146294	2.975500E+01
367	  0.093346693	-8.295000E+00	  0.093346693	9.913800E+01	  0.093346693	3.353300E+01	  0.093346693	2.990600E+01
368	  0.093547091	-8.316000E+00	  0.093547091	9.862000E+01	  0.093547091	3.377100E+01	  0.093547091	3.006200E+01
369	  0.093747497	-8.339000E+00	  0.093747497	9.808900E+01	  0.093747497	3.401900E+01	  0.093747497	3.021800E+01
370	  0.093947895	-8.372000E+00	  0.093947895	9.758600E+01	  0.093947895	3.428500E+01	  0.093947895	3.033800E+01
371	  0.094148301	-8.394000E+00	  0.094148301	9.706400E+01	  0.094148301	3.453300E+01	  0.094148301	3.048900E+01
372	  0.094348699	-8.422000E+00	  0.094348699	9.661700E+01	  0.094348699	3.477100E+01	  0.094348699	3.059400E+01
373	  0.094549097	-8.440000E+00	  0.094549097	9.613000E+01	  0.094549097	3.500000E+01	  0.094549097	3.073800E+01
374	  0.094749503	-8.463000E+00	  0.094749503	9.569100E+01	  0.094749503	3.522200E+01	  0.094749503	3.085200E+01
375	  0.094949901	-8.484000E+00	  0.094949901	9.519000E+01	  0.094949901	3.546800E+01	  0.094949901	3.099100E+01
376	  0.095150299	-8.505000E+00	  0.095150299	9.475900E+01	  0.095150299	3.568700E+01	  0.095150299	3.110300E+01
377	  0.095350705	-8.522000E+00	  0.095350705	9.429400E+01	  0.095350705	3.591200E+01	  0.095350705	3.123600E+01
378	  0.095551103	-8.541000E+00	  0.095551103	9.384700E+01	  0.095551103	3.613400E+01	  0.095551103	3.135900E+01
379	  0.095751502	-8.569000E+00	  0.095751502	9.343700E+01	  0.095751502	3.636700E+01	  0.095751502	3.144000E+01
380	  0.095951907	-8.583000E+00	  0.095951907	9.299800E+01	  0.095951907	3.657900E+01	  0.095951907	3.156800E+01
381	  0.096152306	-8.605000E+00	  0.096152306	9.256200E+01	  0.096152306	3.680800E+01	  0.096152306	3.167500E+01
382	  0.096352704	-8.624000E+00	  0.096352704	9.214800E+01	  0.096352704	3.702500E+01	  0.096352704	3.177800E+01
383	  0.096553110	-8.639000E+00	  0.096553110	9.173100E+01	  0.096553110	3.723500E+01	  0.096553110	3.189100E+01
384	  0.096753508	-8.655000E+00	  0.096753508	9.128000E+01	  0.096753508	3.746100E+01	  0.096753508	3.201600E+01
385	  0.096953906	-8.674000E+00	  0.096953906	9.084500E+01	  0.096953906	3.769000E+01	  0.096953906	3.212400E+01
386	  0.097154312	-8.693000E+00	  0.097154312	9.043200E+01	  0.097154312	3.791200E+01	  0.097154312	3.222300E+01
387	  0.097354710	-8.702000E+00	  0.097354710	9.002400E+01	  0.097354710	3.810900E+01	  0.097354710	3.234600E+01
388	  0.097555116	-8.723000E+00	  0.097555116	8.961200E+01	  0.097555116	3.833700E+01	  0.097555116	3.243600E+01
389	  0.097755514	-8.731000E+00	  0.097755514	8.919300E+01	  0.097755514	3.854000E+01	  0.097755514	3.256500E+01
390	  0.097955912	-8.743000E+00	  0.097955912	8.877900E+01	  0.097955912	3.875000E+01	  0.097955912	3.268000E+01
391	  0.098156318	-8.755000E+00	  0.098156318	8.837700E+01	  0.098156318	3.895600E+01	  0.098156318	3.279100E+01
392	  0.098356716	-8.757000E+00	  0.098356716	8.795500E+01	  0.098356716	3.915200E+01	  0.098356716	3.293400E+01
393	  0.098557115	-8.763000E+00	  0.098557115	8.753100E+01	  0.098557115	3.935800E+01	  0.098557115	3.306700E+01
394	  0.098757520	-8.765000E+00	  0.098757520	8.711700E+01	  0.098757520	3.955100E+01	  0.098757520	3.320900E+01
395	  0.098957919	-8.775000E+00	  0.098957919	8.672900E+01	  0.098957919	3.975300E+01	  0.098957919	3.331700E+01
396	  0.099158317	-8.780000E+00	  0.099158317	8.631800E+01	  0.099158317	3.995500E+01	  0.099158317	3.344700E+01
397	  0.099358723	-8.780000E+00	  0.099358723	8.594800E+01	  0.099358723	4.012900E+01	  0.099358723	3.357800E+01
398	  0.099559121	-8.785000E+00	  0.099559121	8.554600E+01	  0.099559121	4.032900E+01	  0.099559121	3.370500E+01
399	  0.099759519	-8.781000E+00	  0.099759519	8.515100E+01	  0.099759519	4.050900E+01	  0.099759519	3.385400E+01
400	  0.099959925	-8.771000E+00	  0.099959925	8.480200E+01	  0.099959925	4.065400E+01	  0.099959925	3.400700E+01
401	  0.100160323	-8.779000E+00	  0.100160323	8.437300E+01	  0.100160323	4.088100E+01	  0.100160323	3.413100E+01
402	  0.100360721	-8.769000E+00	  0.100360721	8.398900E+01	  0.100360721	4.104500E+01	  0.100360721	3.429800E+01
403	  0.100561127	-8.771000E+00	  0.100561127	8.356500E+01	  0.100561127	4.126000E+01	  0.100561127	3.443800E+01
404	  0.100761525	-8.765000E+00	  0.100761525	8.317500E+01	  0.100761525	4.143900E+01	  0.100761525	3.459400E+01
405	  0.100961931	-8.767000E+00	  0.100961931	8.273100E+01	  0.100961931	4.166700E+01	  0.100961931	3.473900E+01
406	  0.101162329	-8.756000E+00	  0.101162329	8.236300E+01	  0.101162329	4.182800E+01	  0.101162329	3.490500E+01
407	  0.101362728	-8.752000E+00	  0.101362728	8.192800E+01	  0.101362728	4.204300E+01	  0.101362728	3.506500E+01
408	  0.101563133	-8.746000E+00	  0.101563133	8.152700E+01	  0.101563133	4.223700E+01	  0.101563133	3.522200E+01
409	  0.101763532	-8.740000E+00	  0.101763532	8.105500E+01	  0.101763532	4.246900E+01	  0.101763532	3.540600E+01
410	  0.101963930	-8.728000E+00	  0.101963930	8.062300E+01	  0.101963930	4.267000E+01	  0.101963930	3.559400E+01
411	  0.102164336	-8.724000E+00	  0.102164336	8.021500E+01	  0.102164336	4.287800E+01	  0.102164336	3.574700E+01
412	  0.102364734	-8.716000E+00	  0.102364734	7.978800E+01	  0.102364734	4.309100E+01	  0.102364734	3.591800E+01
413	  0.102565132	-8.708000E+00	  0.102565132	7.933200E+01	  0.102565132	4.332000E+01	  0.102565132	3.610200E+01
414	  0.102765530	-8.687000E+00	  0.102765530	7.894300E+01	  0.102765530	4.348700E+01	  0.102765530	3.630900E+01
415	  0.102965929	-8.682000E+00	  0.102965929	7.845900E+01	  0.102965929	4.374500E+01	  0.102965929	3.648700E+01
416	  0.103166327	-8.669000E+00	  0.103166327	7.801400E+01	  0.103166327	4.396400E+01	  0.103166327	3.668700E+01
417	  0.103366733	-8.651000E+00	  0.103366733	7.752800E+01	  0.103366733	4.420100E+01	  0.103366733	3.691500E+01
418	  0.103567131	-8.636000E+00	  0.103567131	7.707100E+01	  0.103567131	4.443000E+01	  0.103567131	3.712300E+01
419	  0.103767529	-8.632000E+00	  0.103767529	7.654400E+01	  0.103767529	4.472600E+01	  0.103767529	3.731300E+01
420	  0.103967935	-8.613000E+00	  0.103967935	7.607600E+01	  0.103967935	4.495700E+01	  0.103967935	3.754300E+01
421	  0.104168333	-8.596000E+00	  0.104168333	7.560500E+01	  0.104168333	4.520100E+01	  0.104168333	3.776100E+01
422	  0.104368731	-8.596000E+00	  0.104368731	7.507000E+01	  0.104368731	4.552200E+01	  0.104368731	3.793700E+01
423	  0.104569137	-8.571000E+00	  0.104569137	7.456600E+01	  0.104569137	4.577200E+01	  0.104569137	3.820300E+01
424	  0.104769535	-8.562000E+00	  0.104769535	7.408300E+01	  0.104769535	4.605000E+01	  0.104769535	3.839600E+01
425	  0.104969934	-8.540000E+00	  0.104969934	7.353800E+01	  0.104969934	4.634200E+01	  0.104969934	3.866200E+01
426	  0.105170339	-8.526000E+00	  0.105170339	7.301400E+01	  0.105170339	4.664200E+01	  0.105170339	3.888900E+01
427	  0.105370738	-8.503000E+00	  0.105370738	7.246700E+01	  0.105370738	4.694300E+01	  0.105370738	3.915900E+01
428	  0.105571143	-8.484000E+00	  0.105571143	7.191800E+01	  0.105571143	4.725800E+01	  0.105571143	3.941400E+01
429	  0.105771542	-8.470000E+00	  0.105771542	7.133600E+01	  0.105771542	4.761000E+01	  0.105771542	3.965900E+01
430	  0.105971940	-8.453000E+00	  0.105971940	7.077700E+01	  0.105971940	4.794500E+01	  0.105971940	3.991100E+01
431	  0.106172346	-8.434000E+00	  0.106172346	7.025200E+01	  0.106172346	4.825900E+01	  0.106172346	4.015700E+01
432	  0.106372744	-8.413000E+00	  0.106372744	6.966700E+01	  0.106372744	4.861400E+01	  0.106372744	4.043400E+01
433	  0.106573142	-8.393000E+00	  0.106573142	6.912600E+01	  0.106573142	4.894700E+01	  0.106573142	4.069200E+01
434	  0.106773548	-8.385000E+00	  0.106773548	6.855200E+01	  0.106773548	4.933200E+01	  0.106773548	4.090500E+01
435	  0.106973946	-8.358000E+00	  0.106973946	6.790900E+01	  0.106973946	4.973500E+01	  0.106973946	4.122500E+01
436	  0.107174344	-8.346000E+00	  0.107174344	6.733800E+01	  0.107174344	5.012300E+01	  0.107174344	4.145400E+01
437	  0.107374750	-8.322000E+00	  0.107374750	6.675800E+01	  0.107374750	5.049900E+01	  0.107374750	4.174300E+01
438	  0.107575148	-8.310000E+00	  0.107575148	6.613700E+01	  0.107575148	5.093600E+01	  0.107575148	4.198300E+01
439	  0.107775547	-8.289000E+00	  0.107775547	6.552800E+01	  0.107775547	5.135500E+01	  0.107775547	4.226100E+01
440	  0.107975952	-8.278000E+00	  0.107975952	6.493100E+01	  0.107975952	5.178900E+01	  0.107975952	4.248800E+01
441	  0.108176351	-8.258000E+00	  0.108176351	6.428200E+01	  0.108176351	5.225500E+01	  0.108176351	4.277300E+01
442	  0.108376749	-8.240000E+00	  0.108376749	6.366900E+01	  0.108376749	5.270400E+01	  0.108376749	4.303400E+01
443	  0.108577155	-8.227000E+00	  0.108577155	6.297500E+01	  0.108577155	5.323500E+01	  0.108577155	4.329000E+01
444	  0.108777553	-8.207000E+00	  0.108777553	6.231900E+01	  0.108777553	5.373100E+01	  0.108777553	4.357300E+01
445	  0.108977959	-8.191000E+00	  0.108977959	6.166100E+01	  0.108977959	5.424400E+01	  0.108977959	4.383500E+01
446	  0.109178357	-8.173000E+00	  0.109178357	6.099700E+01	  0.109178357	5.477100E+01	  0.109178357	4.410300E+01
447	  0.109378755	-8.160000E+00	  0.109378755	6.032500E+01	  0.109378755	5.532000E+01	  0.109378755	4.434100E+01
448	  0.109579161	-8.158000E+00	  0.109579161	5.968000E+01	  0.109579161	5.587300E+01	  0.109579161	4.451100E+01
449	  0.109779559	-8.138000E+00	  0.109779559	5.885400E+01	  0.109779559	5.656700E+01	  0.109779559	4.481400E+01
450	  0.109979957	-8.123000E+00	  0.109979957	5.823600E+01	  0.109979957	5.709500E+01	  0.109979957	4.504400E+01
451	  0.110180363	-8.109000E+00	  0.110180363	5.752400E+01	  0.110180363	5.771900E+01	  0.110180363	4.528000E+01
452	  0.110380761	-8.099000E+00	  0.110380761	5.676300E+01	  0.110380761	5.840600E+01	  0.110380761	4.550200E+01
453	  0.110581160	-8.090000E+00	  0.110581160	5.598600E+01	  0.110581160	5.912100E+01	  0.110581160	4.571000E+01
454	  0.110781565	-8.082000E+00	  0.110781565	5.527500E+01	  0.110781565	5.978700E+01	  0.110781565	4.589100E+01
455	  0.110981964	-8.075000E+00	  0.110981964	5.452100E+01	  0.110981964	6.050600E+01	  0.110981964	4.606700E+01
456	  0.111182362	-8.064000E+00	  0.111182362	5.374900E+01	  0.111182362	6.125300E+01	  0.111182362	4.626200E+01
457	  0.111382768	-8.060000E+00	  0.111382768	5.291100E+01	  0.111382768	6.208400E+01	  0.111382768	4.641500E+01
458	  0.111583166	-8.055000E+00	  0.111583166	5.213500E+01	  0.111583166	6.286700E+01	  0.111583166	4.655000E+01
459	  0.111783572	-8.052000E+00	  0.111783572	5.135100E+01	  0.111783572	6.367100E+01	  0.111783572	4.665800E+01
460	  0.111983970	-8.048000E+00	  0.111983970	5.048700E+01	  0.111983970	6.457200E+01	  0.111983970	4.677200E+01
461	  0.112184368	-8.043000E+00	  0.112184368	4.971200E+01	  0.112184368	6.539300E+01	  0.112184368	4.687400E+01
462	  0.112384774	-8.048000E+00	  0.112384774	4.890200E+01	  0.112384774	6.626700E+01	  0.112384774	4.689100E+01
463	  0.112585172	-8.040000E+00	  0.112585172	4.804200E+01	  0.112585172	6.720600E+01	  0.112585172	4.698400E+01
464	  0.112785570	-8.046000E+00	  0.112785570	4.725100E+01	  0.112785570	6.808300E+01	  0.112785570	4.696000E+01
465	  0.112985976	-8.041000E+00	  0.112985976	4.637400E+01	  0.112985976	6.907000E+01	  0.112985976	4.699900E+01
466	  0.113186374	-8.049000E+00	  0.113186374	4.552200E+01	  0.113186374	7.004000E+01	  0.113186374	4.691300E+01
467	  0.113386773	-8.056000E+00	  0.113386773	4.469000E+01	  0.113386773	7.099800E+01	  0.113386773	4.682400E+01
468	  0.113587178	-8.056000E+00	  0.113587178	4.381500E+01	  0.113587178	7.202000E+01	  0.113587178	4.675800E+01
469	  0.113787577	-8.061000E+00	  0.113787577	4.292400E+01	  0.113787577	7.306900E+01	  0.113787577	4.662700E+01
470	  0.113987975	-8.077000E+00	  0.113987975	4.206300E+01	  0.113987975	7.408600E+01	  0.113987975	4.639200E+01
471	  0.114188381	-8.084000E+00	  0.114188381	4.114800E+01	  0.114188381	7.518100E+01	  0.114188381	4.619000E+01
472	  0.114388779	-8.090000E+00	  0.114388779	4.026100E+01	  0.114388779	7.625400E+01	  0.114388779	4.596800E+01
473	  0.114589177	-8.103000E+00	  0.114589177	3.937300E+01	  0.114589177	7.732500E+01	  0.114589177	4.566000E+01
474	  0.114789583	-8.119000E+00	  0.114789583	3.842300E+01	  0.114789583	7.847200E+01	  0.114789583	4.527800E+01
475	  0.114989981	-8.133000E+00	  0.114989981	3.746000E+01	  0.114989981	7.964100E+01	  0.114989981	4.487400E+01
476	  0.115190387	-8.153000E+00	  0.115190387	3.655600E+01	  0.115190387	8.072800E+01	  0.115190387	4.440700E+01
477	  0.115390785	-8.180000E+00	  0.115390785	3.562100E+01	  0.115390785	8.182900E+01	  0.115390785	4.382700E+01
478	  0.115591183	-8.194000E+00	  0.115591183	3.466000E+01	  0.115591183	8.299500E+01	  0.115591183	4.331000E+01
479	  0.115791589	-8.225000E+00	  0.115791589	3.368900E+01	  0.115791589	8.411700E+01	  0.115791589	4.260700E+01
480	  0.115991987	-8.248000E+00	  0.115991987	3.268600E+01	  0.115991987	8.529700E+01	  0.115991987	4.191600E+01
481	  0.116192386	-8.273000E+00	  0.116192386	3.168700E+01	  0.116192386	8.644900E+01	  0.116192386	4.116100E+01
482	  0.116392791	-8.305000E+00	  0.116392791	3.069000E+01	  0.116392791	8.756000E+01	  0.116392791	4.031000E+01
483	  0.116593190	-8.332000E+00	  0.116593190	2.971200E+01	  0.116593190	8.864200E+01	  0.116593190	3.945800E+01
484	  0.116793588	-8.365000E+00	  0.116793588	2.867000E+01	  0.116793588	8.975800E+01	  0.116793588	3.848200E+01
485	  0.116993994	-8.406000E+00	  0.116993994	2.761000E+01	  0.116993994	9.082700E+01	  0.116993994	3.737900E+01
486	  0.117194392	-8.445000E+00	  0.117194392	2.658100E+01	  0.117194392	9.183200E+01	  0.117194392	3.626800E+01
487	  0.117394790	-8.482000E+00	  0.117394790	2.553000E+01	  0.117394790	9.283900E+01	  0.117394790	3.511600E+01
488	  0.117595196	-8.525000E+00	  0.117595196	2.445200E+01	  0.117595196	9.380200E+01	  0.117595196	3.385300E+01
489	  0.117795594	-8.572000E+00	  0.117795594	2.337400E+01	  0.117795594	9.469200E+01	  0.117795594	3.252000E+01
490	  0.117995992	-8.616000E+00	  0.117995992	2.227100E+01	  0.117995992	9.558100E+01	  0.117995992	3.115100E+01
491	  0.118196398	-8.668000E+00	  0.118196398	2.117800E+01	  0.118196398	9.634500E+01	  0.118196398	2.969300E+01
492	  0.118396796	-8.720000E+00	  0.118396796	2.007400E+01	  0.118396796	9.706800E+01	  0.118396796	2.820500E+01
493	  0.118597202	-8.769000E+00	  0.118597202	1.891900E+01	  0.118597202	9.779000E+01	  0.118597202	2.664100E+01
494	  0.118797600	-8.833000E+00	  0.118797600	1.780100E+01	  0.118797600	9.830300E+01	  0.118797600	2.500900E+01
495	  0.118997999	-8.894000E+00	  0.118997999	1.665200E+01	  0.118997999	9.879500E+01	  0.118997999	2.334600E+01
496	  0.119198404	-8.951000E+00	  0.119198404	1.544100E+01	  0.119198404	9.929300E+01	  0.119198404	2.161900E+01
497	  0.119398803	-9.023000E+00	  0.119398803	1.424700E+01	  0.119398803	9.957100E+01	  0.119398803	1.982400E+01
498	  0.119599201	-9.094000E+00	  0.119599201	1.309800E+01	  0.119599201	9.975000E+01	  0.119599201	1.809700E+01
499	  0.119799607	-9.169000E+00	  0.119799607	1.179300E+01	  0.119799607	9.991300E+01	  0.119799607	1.616900E+01
500	  0.120000005	-9.240000E+00	  0.120000005	1.062000E+01	  0.120000005	9.994800E+01	  0.120000005	1.443500E+01
