! Anritsu VNA Master:             	Model: MS2036C/10/77
! SN:             	1601066
! /bd0/18may09/252.ew.m1.txt
! Existing Calibration Information:
! TYPE:             	Current Settings	Active Cal Settings
! TIME:             	05/09/2018 08:07:38 AM	05/09/2018 08:04:56 AM
! INTERNAL TEMP:    	42.3 C	42.3 C
! # POINTS:         	500	500
! START FREQ:       	20.000 MHz	20.000 MHz
! STOP FREQ:        	120.000 MHz	120.000 MHz
! SOURCE POWER:     	High	High
! IFBW:             	50 Hz	50 Hz
! AVG FACTOR:       	  1 	  1 
! REF PLANE 1:      	0 mm	0 mm
! REF PLANE 2:      	0 mm	0 mm
! CAL TYPE:         	Full S11	Full S11
! CAL METHOD:       	SOLT	SOLT
! CAL LINE TYPE:    	Coax	Coax
! DUT PORT 1:       	K-Conn(F)	K-Conn(F)
! DUT PORT 2:       	K-Conn(F)	K-Conn(F)
! CAL STATUS:       	OK: Accuracy High	--
! PROP-V:       	0.700
! CABLE LOSS:       	0.000 dB/m
! REF IMPEDANCE:       	50.0
! Trace Specific Parameters:	TR1	TR2	TR3	TR4
! TRACE.#.Y (GRAPH TYPE)	LOG MAG	PHASE	REAL IMPEDANCE	IMAGINARY IMPEDANCE
! TRACE.#.X 	FREQ.GHZ	FREQ.GHZ	FREQ.GHZ	FREQ.GHZ
! S-PARAMETER	S11	S11	S11	S11
! SMOOTH/APERTURE %	0	0	0	0
! WINDOW	NSL	NSL	NSL	NSL
! GATING	OFF	OFF	OFF	OFF
! FGTD	OFF	OFF	OFF	OFF
Marker Information per Trace:	TR1	TR2	TR3	TR4
!MK1	--	"MK1 TR2:  20.000 MHz,PH:-124.22°"	--	--
!MK2	--	--	"MK2 TR3:  70.100 200 MHz,Z:(17.220 ohm, -3.020 ohm)"	--
!MK3	--	--	--	--
!MK4	--	--	--	--
!MK5	--	--	--	--
!MK6	--	--	--	--
!MK7	--	--	--	--
!MK8	--	--	--	--
PNT	TR1.FREQ.GHZ	TR1.LOG MAG.dB	TR2.FREQ.GHZ	TR2.PHASE.deg	TR3.FREQ.GHZ	TR3.REAL IMPEDANCE.ohm	TR4.FREQ.GHZ	TR4.IMAGINARY IMPEDANCE.ohm
1	  0.020000000	-6.030000E-01	  0.020000000	-1.242180E+02	  0.020000000	2.220000E+00	  0.020000000	-2.642200E+01
2	  0.020200402	-6.000000E-01	  0.020200402	-1.256750E+02	  0.020200402	2.183000E+00	  0.020200402	-2.561500E+01
3	  0.020400802	-6.020000E-01	  0.020400802	-1.271060E+02	  0.020400802	2.161000E+00	  0.020400802	-2.483300E+01
4	  0.020601204	-6.020000E-01	  0.020601204	-1.285550E+02	  0.020601204	2.133000E+00	  0.020601204	-2.405100E+01
5	  0.020801604	-6.060000E-01	  0.020801604	-1.300410E+02	  0.020801604	2.122000E+00	  0.020801604	-2.325900E+01
6	  0.021002004	-6.130000E-01	  0.021002004	-1.315410E+02	  0.021002004	2.121000E+00	  0.021002004	-2.246800E+01
7	  0.021202406	-6.190000E-01	  0.021202406	-1.330580E+02	  0.021202406	2.116000E+00	  0.021202406	-2.167700E+01
8	  0.021402806	-6.220000E-01	  0.021402806	-1.345820E+02	  0.021402806	2.102000E+00	  0.021402806	-2.089200E+01
9	  0.021603208	-6.250000E-01	  0.021603208	-1.360770E+02	  0.021603208	2.091000E+00	  0.021603208	-2.013100E+01
10	  0.021803608	-6.290000E-01	  0.021803608	-1.375940E+02	  0.021803608	2.082000E+00	  0.021803608	-1.936700E+01
11	  0.022004008	-6.330000E-01	  0.022004008	-1.391220E+02	  0.022004008	2.076000E+00	  0.022004008	-1.860500E+01
12	  0.022204408	-6.370000E-01	  0.022204408	-1.406630E+02	  0.022204408	2.069000E+00	  0.022204408	-1.784400E+01
13	  0.022404809	-6.400000E-01	  0.022404809	-1.422200E+02	  0.022404809	2.058000E+00	  0.022404809	-1.708200E+01
14	  0.022605211	-6.440000E-01	  0.022605211	-1.437960E+02	  0.022605211	2.052000E+00	  0.022605211	-1.631900E+01
15	  0.022805611	-6.480000E-01	  0.022805611	-1.453780E+02	  0.022805611	2.047000E+00	  0.022805611	-1.555900E+01
16	  0.023006011	-6.500000E-01	  0.023006011	-1.469440E+02	  0.023006011	2.036000E+00	  0.023006011	-1.481400E+01
17	  0.023206413	-6.500000E-01	  0.023206413	-1.485190E+02	  0.023206413	2.019000E+00	  0.023206413	-1.407000E+01
18	  0.023406813	-6.530000E-01	  0.023406813	-1.500870E+02	  0.023406813	2.015000E+00	  0.023406813	-1.333600E+01
19	  0.023607215	-6.570000E-01	  0.023607215	-1.516770E+02	  0.023607215	2.012000E+00	  0.023607215	-1.259600E+01
20	  0.023807615	-6.650000E-01	  0.023807615	-1.532560E+02	  0.023807615	2.021000E+00	  0.023807615	-1.186700E+01
21	  0.024008015	-6.750000E-01	  0.024008015	-1.548720E+02	  0.024008015	2.041000E+00	  0.024008015	-1.112500E+01
22	  0.024208417	-6.830000E-01	  0.024208417	-1.565000E+02	  0.024208417	2.052000E+00	  0.024208417	-1.038200E+01
23	  0.024408817	-6.910000E-01	  0.024408817	-1.581480E+02	  0.024408817	2.063000E+00	  0.024408817	-9.635000E+00
24	  0.024609219	-7.010000E-01	  0.024609219	-1.597790E+02	  0.024609219	2.080000E+00	  0.024609219	-8.900000E+00
25	  0.024809619	-7.110000E-01	  0.024809619	-1.614090E+02	  0.024809619	2.101000E+00	  0.024809619	-8.169000E+00
26	  0.025010020	-7.220000E-01	  0.025010020	-1.630540E+02	  0.025010020	2.124000E+00	  0.025010020	-7.434000E+00
27	  0.025210422	-7.320000E-01	  0.025210422	-1.647110E+02	  0.025210422	2.146000E+00	  0.025210422	-6.698000E+00
28	  0.025410822	-7.480000E-01	  0.025410822	-1.663940E+02	  0.025410822	2.182000E+00	  0.025410822	-5.953000E+00
29	  0.025611224	-7.610000E-01	  0.025611224	-1.680820E+02	  0.025611224	2.212000E+00	  0.025611224	-5.208000E+00
30	  0.025811624	-7.720000E-01	  0.025811624	-1.697970E+02	  0.025811624	2.238000E+00	  0.025811624	-4.454000E+00
31	  0.026012026	-7.790000E-01	  0.026012026	-1.714910E+02	  0.026012026	2.255000E+00	  0.026012026	-3.711000E+00
32	  0.026212426	-7.920000E-01	  0.026212426	-1.732160E+02	  0.026212426	2.286000E+00	  0.026212426	-2.957000E+00
33	  0.026412826	-8.050000E-01	  0.026412826	-1.749320E+02	  0.026412826	2.320000E+00	  0.026412826	-2.207000E+00
34	  0.026613226	-8.200000E-01	  0.026613226	-1.766680E+02	  0.026613226	2.361000E+00	  0.026613226	-1.450000E+00
35	  0.026813626	-8.350000E-01	  0.026813626	-1.784120E+02	  0.026813626	2.403000E+00	  0.026813626	-6.900000E-01
36	  0.027014028	-8.520000E-01	  0.027014028	1.798290E+02	  0.027014028	2.451000E+00	  0.027014028	7.400000E-02
37	  0.027214428	-8.670000E-01	  0.027214428	1.780650E+02	  0.027214428	2.495000E+00	  0.027214428	8.420000E-01
38	  0.027414829	-8.820000E-01	  0.027414829	1.762800E+02	  0.027414829	2.541000E+00	  0.027414829	1.619000E+00
39	  0.027615231	-9.000000E-01	  0.027615231	1.744820E+02	  0.027615231	2.594000E+00	  0.027615231	2.403000E+00
40	  0.027815631	-9.190000E-01	  0.027815631	1.726960E+02	  0.027815631	2.656000E+00	  0.027815631	3.182000E+00
41	  0.028016033	-9.410000E-01	  0.028016033	1.708770E+02	  0.028016033	2.723000E+00	  0.028016033	3.977000E+00
42	  0.028216433	-9.630000E-01	  0.028216433	1.690630E+02	  0.028216433	2.795000E+00	  0.028216433	4.771000E+00
43	  0.028416833	-9.840000E-01	  0.028416833	1.672380E+02	  0.028416833	2.865000E+00	  0.028416833	5.573000E+00
44	  0.028617235	-1.002000E+00	  0.028617235	1.654170E+02	  0.028617235	2.929000E+00	  0.028617235	6.375000E+00
45	  0.028817635	-1.023000E+00	  0.028817635	1.635890E+02	  0.028817635	3.003000E+00	  0.028817635	7.184000E+00
46	  0.029018037	-1.042000E+00	  0.029018037	1.617880E+02	  0.029018037	3.074000E+00	  0.029018037	7.984000E+00
47	  0.029218437	-1.064000E+00	  0.029218437	1.599740E+02	  0.029218437	3.154000E+00	  0.029218437	8.793000E+00
48	  0.029418837	-1.088000E+00	  0.029418837	1.581360E+02	  0.029418837	3.245000E+00	  0.029418837	9.618000E+00
49	  0.029619239	-1.118000E+00	  0.029619239	1.562790E+02	  0.029619239	3.355000E+00	  0.029619239	1.045500E+01
50	  0.029819639	-1.147000E+00	  0.029819639	1.544130E+02	  0.029819639	3.467000E+00	  0.029819639	1.130100E+01
51	  0.030020041	-1.178000E+00	  0.030020041	1.524960E+02	  0.030020041	3.588000E+00	  0.030020041	1.217700E+01
52	  0.030220442	-1.207000E+00	  0.030220442	1.505750E+02	  0.030220442	3.706000E+00	  0.030220442	1.306100E+01
53	  0.030420844	-1.239000E+00	  0.030420844	1.486600E+02	  0.030420844	3.838000E+00	  0.030420844	1.394900E+01
54	  0.030621244	-1.269000E+00	  0.030621244	1.467600E+02	  0.030621244	3.969000E+00	  0.030621244	1.483700E+01
55	  0.030821644	-1.304000E+00	  0.030821644	1.448320E+02	  0.030821644	4.121000E+00	  0.030821644	1.574700E+01
56	  0.031022044	-1.340000E+00	  0.031022044	1.429050E+02	  0.031022044	4.280000E+00	  0.031022044	1.666400E+01
57	  0.031222444	-1.374000E+00	  0.031222444	1.409770E+02	  0.031222444	4.439000E+00	  0.031222444	1.759200E+01
58	  0.031422846	-1.412000E+00	  0.031422846	1.389870E+02	  0.031422846	4.620000E+00	  0.031422846	1.856000E+01
59	  0.031623244	-1.449000E+00	  0.031623244	1.369890E+02	  0.031623244	4.804000E+00	  0.031623244	1.954300E+01
60	  0.031823646	-1.485000E+00	  0.031823646	1.349680E+02	  0.031823646	4.991000E+00	  0.031823646	2.055000E+01
61	  0.032024048	-1.520000E+00	  0.032024048	1.329960E+02	  0.032024048	5.184000E+00	  0.032024048	2.154500E+01
62	  0.032224450	-1.554000E+00	  0.032224450	1.310000E+02	  0.032224450	5.380000E+00	  0.032224450	2.256700E+01
63	  0.032424849	-1.593000E+00	  0.032424849	1.290270E+02	  0.032424849	5.603000E+00	  0.032424849	2.358900E+01
64	  0.032625251	-1.632000E+00	  0.032625251	1.270400E+02	  0.032625251	5.835000E+00	  0.032625251	2.463400E+01
65	  0.032825653	-1.673000E+00	  0.032825653	1.250690E+02	  0.032825653	6.084000E+00	  0.032825653	2.568600E+01
66	  0.033026051	-1.720000E+00	  0.033026051	1.230900E+02	  0.033026051	6.367000E+00	  0.033026051	2.675600E+01
67	  0.033226453	-1.772000E+00	  0.033226453	1.211060E+02	  0.033226453	6.681000E+00	  0.033226453	2.784400E+01
68	  0.033426855	-1.827000E+00	  0.033426855	1.190740E+02	  0.033426855	7.025000E+00	  0.033426855	2.897500E+01
69	  0.033627257	-1.882000E+00	  0.033627257	1.170570E+02	  0.033627257	7.387000E+00	  0.033627257	3.011700E+01
70	  0.033827655	-1.937000E+00	  0.033827655	1.149860E+02	  0.033827655	7.770000E+00	  0.033827655	3.131100E+01
71	  0.034028057	-1.990000E+00	  0.034028057	1.128770E+02	  0.034028057	8.167000E+00	  0.034028057	3.255300E+01
72	  0.034228459	-2.041000E+00	  0.034228459	1.107520E+02	  0.034228459	8.582000E+00	  0.034228459	3.383000E+01
73	  0.034428857	-2.092000E+00	  0.034428857	1.086170E+02	  0.034428857	9.018000E+00	  0.034428857	3.514000E+01
74	  0.034629259	-2.139000E+00	  0.034629259	1.065050E+02	  0.034629259	9.463000E+00	  0.034629259	3.646700E+01
75	  0.034829661	-2.186000E+00	  0.034829661	1.044000E+02	  0.034829661	9.934000E+00	  0.034829661	3.781800E+01
76	  0.035030060	-2.232000E+00	  0.035030060	1.022880E+02	  0.035030060	1.042700E+01	  0.035030060	3.920700E+01
77	  0.035230462	-2.278000E+00	  0.035230462	1.002000E+02	  0.035230462	1.094800E+01	  0.035230462	4.061200E+01
78	  0.035430863	-2.323000E+00	  0.035430863	9.810400E+01	  0.035430863	1.150000E+01	  0.035430863	4.205700E+01
79	  0.035631265	-2.371000E+00	  0.035631265	9.603800E+01	  0.035631265	1.209600E+01	  0.035631265	4.351300E+01
80	  0.035831664	-2.420000E+00	  0.035831664	9.397800E+01	  0.035831664	1.273100E+01	  0.035831664	4.499900E+01
81	  0.036032066	-2.468000E+00	  0.036032066	9.194300E+01	  0.036032066	1.340000E+01	  0.036032066	4.650400E+01
82	  0.036232468	-2.520000E+00	  0.036232468	8.992500E+01	  0.036232468	1.413200E+01	  0.036232468	4.802600E+01
83	  0.036432866	-2.576000E+00	  0.036432866	8.788900E+01	  0.036432866	1.493900E+01	  0.036432866	4.959400E+01
84	  0.036633268	-2.635000E+00	  0.036633268	8.586600E+01	  0.036633268	1.581200E+01	  0.036633268	5.118400E+01
85	  0.036833670	-2.694000E+00	  0.036833670	8.382100E+01	  0.036833670	1.675100E+01	  0.036833670	5.283200E+01
86	  0.037034072	-2.762000E+00	  0.037034072	8.176000E+01	  0.037034072	1.781800E+01	  0.037034072	5.451500E+01
87	  0.037234470	-2.828000E+00	  0.037234470	7.968000E+01	  0.037234470	1.895500E+01	  0.037234470	5.625900E+01
88	  0.037434869	-2.892000E+00	  0.037434869	7.758200E+01	  0.037434869	2.017000E+01	  0.037434869	5.806500E+01
89	  0.037635271	-2.958000E+00	  0.037635271	7.547600E+01	  0.037635271	2.149200E+01	  0.037635271	5.991900E+01
90	  0.037835669	-3.018000E+00	  0.037835669	7.334600E+01	  0.037835669	2.289200E+01	  0.037835669	6.185600E+01
91	  0.038036071	-3.075000E+00	  0.038036071	7.118200E+01	  0.038036071	2.440400E+01	  0.038036071	6.388600E+01
92	  0.038236473	-3.135000E+00	  0.038236473	6.897400E+01	  0.038236473	2.608500E+01	  0.038236473	6.600400E+01
93	  0.038436871	-3.196000E+00	  0.038436871	6.681300E+01	  0.038436871	2.789000E+01	  0.038436871	6.811400E+01
94	  0.038637273	-3.255000E+00	  0.038637273	6.468600E+01	  0.038637273	2.980500E+01	  0.038637273	7.024200E+01
95	  0.038837675	-3.310000E+00	  0.038837675	6.259100E+01	  0.038837675	3.183400E+01	  0.038837675	7.238900E+01
96	  0.039038073	-3.363000E+00	  0.039038073	6.053700E+01	  0.039038073	3.398300E+01	  0.039038073	7.453700E+01
97	  0.039238475	-3.421000E+00	  0.039238475	5.850600E+01	  0.039238475	3.633400E+01	  0.039238475	7.665500E+01
98	  0.039438877	-3.480000E+00	  0.039438877	5.648700E+01	  0.039438877	3.888100E+01	  0.039438877	7.876700E+01
99	  0.039639279	-3.545000E+00	  0.039639279	5.444400E+01	  0.039639279	4.171100E+01	  0.039639279	8.087400E+01
100	  0.039839678	-3.613000E+00	  0.039839678	5.240200E+01	  0.039839678	4.480900E+01	  0.039839678	8.293700E+01
101	  0.040040080	-3.680000E+00	  0.040040080	5.034000E+01	  0.040040080	4.819200E+01	  0.040040080	8.499000E+01
102	  0.040240481	-3.748000E+00	  0.040240481	4.826000E+01	  0.040240481	5.189100E+01	  0.040240481	8.700400E+01
103	  0.040440880	-3.813000E+00	  0.040440880	4.620100E+01	  0.040440880	5.584800E+01	  0.040440880	8.893000E+01
104	  0.040641282	-3.880000E+00	  0.040641282	4.411900E+01	  0.040641282	6.019000E+01	  0.040641282	9.074900E+01
105	  0.040841684	-3.940000E+00	  0.040841684	4.203700E+01	  0.040841684	6.483800E+01	  0.040841684	9.249300E+01
106	  0.041042086	-4.006000E+00	  0.041042086	3.997600E+01	  0.041042086	6.985900E+01	  0.041042086	9.393700E+01
107	  0.041242484	-4.069000E+00	  0.041242484	3.789900E+01	  0.041242484	7.528300E+01	  0.041242484	9.517800E+01
108	  0.041442886	-4.130000E+00	  0.041442886	3.580400E+01	  0.041442886	8.113900E+01	  0.041442886	9.616100E+01
109	  0.041643288	-4.187000E+00	  0.041643288	3.373500E+01	  0.041643288	8.731900E+01	  0.041643288	9.680500E+01
110	  0.041843686	-4.241000E+00	  0.041843686	3.166000E+01	  0.041843686	9.391100E+01	  0.041843686	9.705000E+01
111	  0.042044088	-4.296000E+00	  0.042044088	2.962300E+01	  0.042044088	1.007710E+02	  0.042044088	9.671700E+01
112	  0.042244490	-4.349000E+00	  0.042244490	2.762100E+01	  0.042244490	1.078450E+02	  0.042244490	9.578800E+01
113	  0.042444889	-4.404000E+00	  0.042444889	2.560000E+01	  0.042444889	1.152620E+02	  0.042444889	9.412300E+01
114	  0.042645290	-4.455000E+00	  0.042645290	2.360100E+01	  0.042645290	1.228100E+02	  0.042645290	9.178000E+01
115	  0.042845692	-4.510000E+00	  0.042845692	2.160500E+01	  0.042845692	1.304280E+02	  0.042845692	8.846000E+01
116	  0.043046094	-4.561000E+00	  0.043046094	1.958500E+01	  0.043046094	1.381340E+02	  0.043046094	8.424800E+01
117	  0.043246493	-4.613000E+00	  0.043246493	1.762200E+01	  0.043246493	1.454140E+02	  0.043246493	7.909900E+01
118	  0.043446895	-4.664000E+00	  0.043446895	1.562600E+01	  0.043446895	1.524950E+02	  0.043446895	7.292500E+01
119	  0.043647297	-4.714000E+00	  0.043647297	1.364800E+01	  0.043647297	1.589980E+02	  0.043647297	6.583900E+01
120	  0.043847695	-4.768000E+00	  0.043847695	1.168200E+01	  0.043847695	1.646240E+02	  0.043847695	5.776600E+01
121	  0.044048097	-4.819000E+00	  0.044048097	9.728000E+00	  0.044048097	1.693920E+02	  0.044048097	4.902800E+01
122	  0.044248499	-4.871000E+00	  0.044248499	7.765000E+00	  0.044248499	1.731210E+02	  0.044248499	3.960100E+01
123	  0.044448901	-4.920000E+00	  0.044448901	5.820000E+00	  0.044448901	1.757290E+02	  0.044448901	2.983600E+01
124	  0.044649299	-4.967000E+00	  0.044649299	3.875000E+00	  0.044649299	1.771710E+02	  0.044649299	1.983700E+01
125	  0.044849701	-5.012000E+00	  0.044849701	1.942000E+00	  0.044849701	1.774840E+02	  0.044849701	9.870000E+00
126	  0.045050103	-5.056000E+00	  0.045050103	0.000000E+00	  0.045050103	1.765870E+02	  0.045050103	3.000000E-03
127	  0.045250501	-5.097000E+00	  0.045250501	-1.912000E+00	  0.045250501	1.746960E+02	  0.045250501	-9.383000E+00
128	  0.045450903	-5.139000E+00	  0.045450903	-3.811000E+00	  0.045450903	1.717960E+02	  0.045450903	-1.821900E+01
129	  0.045651305	-5.185000E+00	  0.045651305	-5.701000E+00	  0.045651305	1.679320E+02	  0.045651305	-2.635500E+01
130	  0.045851704	-5.224000E+00	  0.045851704	-7.561000E+00	  0.045851704	1.635980E+02	  0.045851704	-3.371800E+01
131	  0.046052106	-5.265000E+00	  0.046052106	-9.466000E+00	  0.046052106	1.585670E+02	  0.046052106	-4.049100E+01
132	  0.046252504	-5.308000E+00	  0.046252504	-1.132600E+01	  0.046252504	1.532000E+02	  0.046252504	-4.629700E+01
133	  0.046452906	-5.346000E+00	  0.046452906	-1.318400E+01	  0.046452906	1.476540E+02	  0.046452906	-5.141000E+01
134	  0.046653304	-5.381000E+00	  0.046653304	-1.505300E+01	  0.046653304	1.419430E+02	  0.046653304	-5.585500E+01
135	  0.046853706	-5.416000E+00	  0.046853706	-1.689500E+01	  0.046853706	1.362400E+02	  0.046853706	-5.955700E+01
136	  0.047054108	-5.451000E+00	  0.047054108	-1.874300E+01	  0.047054108	1.305220E+02	  0.047054108	-6.263500E+01
137	  0.047254506	-5.483000E+00	  0.047254506	-2.057200E+01	  0.047254506	1.249400E+02	  0.047254506	-6.512300E+01
138	  0.047454908	-5.516000E+00	  0.047454908	-2.237800E+01	  0.047454908	1.195430E+02	  0.047454908	-6.706400E+01
139	  0.047655310	-5.544000E+00	  0.047655310	-2.415200E+01	  0.047655310	1.144130E+02	  0.047655310	-6.858500E+01
140	  0.047855709	-5.577000E+00	  0.047855709	-2.592300E+01	  0.047855709	1.094350E+02	  0.047855709	-6.962600E+01
141	  0.048056111	-5.606000E+00	  0.048056111	-2.769100E+01	  0.048056111	1.046740E+02	  0.048056111	-7.037200E+01
142	  0.048256513	-5.636000E+00	  0.048256513	-2.943400E+01	  0.048256513	1.001700E+02	  0.048256513	-7.078800E+01
143	  0.048456915	-5.665000E+00	  0.048456915	-3.117900E+01	  0.048456915	9.587000E+01	  0.048456915	-7.095700E+01
144	  0.048657313	-5.690000E+00	  0.048657313	-3.294500E+01	  0.048657313	9.173000E+01	  0.048657313	-7.095600E+01
145	  0.048857715	-5.717000E+00	  0.048857715	-3.468500E+01	  0.048857715	8.784800E+01	  0.048857715	-7.073100E+01
146	  0.049058117	-5.741000E+00	  0.049058117	-3.640800E+01	  0.049058117	8.420100E+01	  0.049058117	-7.036500E+01
147	  0.049258515	-5.764000E+00	  0.049258515	-3.810300E+01	  0.049258515	8.079500E+01	  0.049258515	-6.988100E+01
148	  0.049458917	-5.787000E+00	  0.049458917	-3.981300E+01	  0.049458917	7.753400E+01	  0.049458917	-6.927000E+01
149	  0.049659319	-5.812000E+00	  0.049659319	-4.149800E+01	  0.049659319	7.449600E+01	  0.049659319	-6.853600E+01
150	  0.049859721	-5.834000E+00	  0.049859721	-4.319900E+01	  0.049859721	7.158800E+01	  0.049859721	-6.774200E+01
151	  0.050060119	-5.854000E+00	  0.050060119	-4.489100E+01	  0.050060119	6.884500E+01	  0.050060119	-6.690200E+01
152	  0.050260521	-5.872000E+00	  0.050260521	-4.657100E+01	  0.050260521	6.626100E+01	  0.050260521	-6.602500E+01
153	  0.050460923	-5.889000E+00	  0.050460923	-4.826500E+01	  0.050460923	6.378900E+01	  0.050460923	-6.510100E+01
154	  0.050661322	-5.902000E+00	  0.050661322	-4.990900E+01	  0.050661322	6.150600E+01	  0.050661322	-6.418900E+01
155	  0.050861724	-5.913000E+00	  0.050861724	-5.154900E+01	  0.050861724	5.934100E+01	  0.050861724	-6.325400E+01
156	  0.051062126	-5.928000E+00	  0.051062126	-5.316800E+01	  0.051062126	5.732200E+01	  0.051062126	-6.227400E+01
157	  0.051262524	-5.940000E+00	  0.051262524	-5.474600E+01	  0.051262524	5.544600E+01	  0.051262524	-6.131500E+01
158	  0.051462926	-5.953000E+00	  0.051462926	-5.631600E+01	  0.051462926	5.367800E+01	  0.051462926	-6.032700E+01
159	  0.051663328	-5.966000E+00	  0.051663328	-5.786300E+01	  0.051663328	5.201700E+01	  0.051663328	-5.934900E+01
160	  0.051863730	-5.978000E+00	  0.051863730	-5.942200E+01	  0.051863730	5.042300E+01	  0.051863730	-5.835800E+01
161	  0.052064128	-5.994000E+00	  0.052064128	-6.096300E+01	  0.052064128	4.894000E+01	  0.052064128	-5.734200E+01
162	  0.052264530	-6.005000E+00	  0.052264530	-6.253500E+01	  0.052264530	4.748100E+01	  0.052264530	-5.633500E+01
163	  0.052464932	-6.022000E+00	  0.052464932	-6.410800E+01	  0.052464932	4.611200E+01	  0.052464932	-5.529500E+01
164	  0.052665330	-6.037000E+00	  0.052665330	-6.565100E+01	  0.052665330	4.483100E+01	  0.052665330	-5.428200E+01
165	  0.052865732	-6.047000E+00	  0.052865732	-6.722000E+01	  0.052865732	4.356900E+01	  0.052865732	-5.328500E+01
166	  0.053066134	-6.057000E+00	  0.053066134	-6.873900E+01	  0.053066134	4.240700E+01	  0.053066134	-5.232000E+01
167	  0.053266536	-6.066000E+00	  0.053266536	-7.032200E+01	  0.053266536	4.124500E+01	  0.053266536	-5.132500E+01
168	  0.053466935	-6.072000E+00	  0.053466935	-7.186800E+01	  0.053466935	4.015100E+01	  0.053466935	-5.037200E+01
169	  0.053667337	-6.075000E+00	  0.053667337	-7.340200E+01	  0.053667337	3.910300E+01	  0.053667337	-4.944200E+01
170	  0.053867739	-6.076000E+00	  0.053867739	-7.492400E+01	  0.053867739	3.810400E+01	  0.053867739	-4.853100E+01
171	  0.054068137	-6.080000E+00	  0.054068137	-7.641100E+01	  0.054068137	3.718000E+01	  0.054068137	-4.763300E+01
172	  0.054268539	-6.082000E+00	  0.054268539	-7.787400E+01	  0.054268539	3.630200E+01	  0.054268539	-4.676300E+01
173	  0.054468941	-6.088000E+00	  0.054468941	-7.933700E+01	  0.054468941	3.547300E+01	  0.054468941	-4.588600E+01
174	  0.054669339	-6.092000E+00	  0.054669339	-8.077200E+01	  0.054669339	3.469000E+01	  0.054669339	-4.503500E+01
175	  0.054869737	-6.094000E+00	  0.054869737	-8.220900E+01	  0.054869737	3.393100E+01	  0.054869737	-4.419600E+01
176	  0.055070139	-6.098000E+00	  0.055070139	-8.363700E+01	  0.055070139	3.321400E+01	  0.055070139	-4.336100E+01
177	  0.055270538	-6.105000E+00	  0.055270538	-8.503400E+01	  0.055270538	3.255300E+01	  0.055270538	-4.254200E+01
178	  0.055470940	-6.110000E+00	  0.055470940	-8.646800E+01	  0.055470940	3.189100E+01	  0.055470940	-4.171800E+01
179	  0.055671342	-6.112000E+00	  0.055671342	-8.788700E+01	  0.055671342	3.125000E+01	  0.055671342	-4.091800E+01
180	  0.055871744	-6.125000E+00	  0.055871744	-8.929600E+01	  0.055871744	3.068100E+01	  0.055871744	-4.009800E+01
181	  0.056072142	-6.125000E+00	  0.056072142	-9.068500E+01	  0.056072142	3.009800E+01	  0.056072142	-3.933200E+01
182	  0.056272544	-6.133000E+00	  0.056272544	-9.210300E+01	  0.056272544	2.955000E+01	  0.056272544	-3.853800E+01
183	  0.056472946	-6.134000E+00	  0.056472946	-9.351600E+01	  0.056472946	2.900500E+01	  0.056472946	-3.777000E+01
184	  0.056673344	-6.135000E+00	  0.056673344	-9.490800E+01	  0.056673344	2.848600E+01	  0.056673344	-3.702100E+01
185	  0.056873746	-6.137000E+00	  0.056873746	-9.629800E+01	  0.056873746	2.799200E+01	  0.056873746	-3.627700E+01
186	  0.057074148	-6.133000E+00	  0.057074148	-9.768600E+01	  0.057074148	2.749500E+01	  0.057074148	-3.555400E+01
187	  0.057274550	-6.127000E+00	  0.057274550	-9.906300E+01	  0.057274550	2.701100E+01	  0.057274550	-3.484900E+01
188	  0.057474948	-6.130000E+00	  0.057474948	-1.004070E+02	  0.057474948	2.658700E+01	  0.057474948	-3.414500E+01
189	  0.057675350	-6.131000E+00	  0.057675350	-1.017290E+02	  0.057675350	2.617900E+01	  0.057675350	-3.346300E+01
190	  0.057875752	-6.129000E+00	  0.057875752	-1.030520E+02	  0.057875752	2.577700E+01	  0.057875752	-3.279100E+01
191	  0.058076151	-6.126000E+00	  0.058076151	-1.043630E+02	  0.058076151	2.538700E+01	  0.058076151	-3.213400E+01
192	  0.058276553	-6.127000E+00	  0.058276553	-1.056310E+02	  0.058276553	2.503400E+01	  0.058276553	-3.149600E+01
193	  0.058476955	-6.130000E+00	  0.058476955	-1.069290E+02	  0.058476955	2.469200E+01	  0.058476955	-3.084400E+01
194	  0.058677353	-6.131000E+00	  0.058677353	-1.082150E+02	  0.058677353	2.435800E+01	  0.058677353	-3.020800E+01
195	  0.058877755	-6.131000E+00	  0.058877755	-1.094890E+02	  0.058877755	2.403900E+01	  0.058877755	-2.958200E+01
196	  0.059078157	-6.136000E+00	  0.059078157	-1.107770E+02	  0.059078157	2.373900E+01	  0.059078157	-2.894800E+01
197	  0.059278559	-6.140000E+00	  0.059278559	-1.120550E+02	  0.059278559	2.345000E+01	  0.059278559	-2.832600E+01
198	  0.059478957	-6.140000E+00	  0.059478957	-1.133540E+02	  0.059478957	2.315400E+01	  0.059478957	-2.770400E+01
199	  0.059679359	-6.143000E+00	  0.059679359	-1.146020E+02	  0.059679359	2.288900E+01	  0.059679359	-2.710700E+01
200	  0.059879761	-6.145000E+00	  0.059879761	-1.158990E+02	  0.059879761	2.262100E+01	  0.059879761	-2.649200E+01
201	  0.060080159	-6.143000E+00	  0.060080159	-1.171460E+02	  0.060080159	2.235700E+01	  0.060080159	-2.591200E+01
202	  0.060280561	-6.144000E+00	  0.060280561	-1.184100E+02	  0.060280561	2.210800E+01	  0.060280561	-2.532400E+01
203	  0.060480963	-6.144000E+00	  0.060480963	-1.196450E+02	  0.060480963	2.187300E+01	  0.060480963	-2.475300E+01
204	  0.060681365	-6.143000E+00	  0.060681365	-1.209070E+02	  0.060681365	2.163300E+01	  0.060681365	-2.417700E+01
205	  0.060881764	-6.142000E+00	  0.060881764	-1.221340E+02	  0.060881764	2.140900E+01	  0.060881764	-2.362000E+01
206	  0.061082166	-6.141000E+00	  0.061082166	-1.233500E+02	  0.061082166	2.119500E+01	  0.061082166	-2.307100E+01
207	  0.061282568	-6.142000E+00	  0.061282568	-1.245710E+02	  0.061282568	2.099400E+01	  0.061282568	-2.252100E+01
208	  0.061482966	-6.139000E+00	  0.061482966	-1.257440E+02	  0.061482966	2.079400E+01	  0.061482966	-2.200100E+01
209	  0.061683368	-6.137000E+00	  0.061683368	-1.269200E+02	  0.061683368	2.060400E+01	  0.061683368	-2.148000E+01
210	  0.061883770	-6.133000E+00	  0.061883770	-1.280860E+02	  0.061883770	2.041600E+01	  0.061883770	-2.096900E+01
211	  0.062084168	-6.134000E+00	  0.062084168	-1.292360E+02	  0.062084168	2.025000E+01	  0.062084168	-2.046300E+01
212	  0.062284570	-6.138000E+00	  0.062284570	-1.304270E+02	  0.062284570	2.009100E+01	  0.062284570	-1.994000E+01
213	  0.062484972	-6.132000E+00	  0.062484972	-1.315390E+02	  0.062484972	1.992100E+01	  0.062484972	-1.946200E+01
214	  0.062685370	-6.138000E+00	  0.062685370	-1.326990E+02	  0.062685370	1.978400E+01	  0.062685370	-1.895600E+01
215	  0.062885776	-6.141000E+00	  0.062885776	-1.338550E+02	  0.062885776	1.964400E+01	  0.062885776	-1.845700E+01
216	  0.063086174	-6.142000E+00	  0.063086174	-1.350340E+02	  0.063086174	1.950000E+01	  0.063086174	-1.795200E+01
217	  0.063286573	-6.141000E+00	  0.063286573	-1.361440E+02	  0.063286573	1.936300E+01	  0.063286573	-1.748100E+01
218	  0.063486971	-6.144000E+00	  0.063486971	-1.373280E+02	  0.063486971	1.923600E+01	  0.063486971	-1.697800E+01
219	  0.063687377	-6.144000E+00	  0.063687377	-1.384820E+02	  0.063687377	1.910700E+01	  0.063687377	-1.649200E+01
220	  0.063887775	-6.142000E+00	  0.063887775	-1.396120E+02	  0.063887775	1.897900E+01	  0.063887775	-1.602000E+01
221	  0.064088173	-6.139000E+00	  0.064088173	-1.407780E+02	  0.064088173	1.884800E+01	  0.064088173	-1.553500E+01
222	  0.064288579	-6.144000E+00	  0.064288579	-1.418990E+02	  0.064288579	1.874900E+01	  0.064288579	-1.506600E+01
223	  0.064488977	-6.141000E+00	  0.064488977	-1.430010E+02	  0.064488977	1.863300E+01	  0.064488977	-1.461200E+01
224	  0.064689375	-6.142000E+00	  0.064689375	-1.440970E+02	  0.064689375	1.853400E+01	  0.064689375	-1.415900E+01
225	  0.064889781	-6.142000E+00	  0.064889781	-1.451870E+02	  0.064889781	1.843800E+01	  0.064889781	-1.371200E+01
226	  0.065090179	-6.143000E+00	  0.065090179	-1.462720E+02	  0.065090179	1.834700E+01	  0.065090179	-1.326700E+01
227	  0.065290578	-6.142000E+00	  0.065290578	-1.473600E+02	  0.065290578	1.825400E+01	  0.065290578	-1.282400E+01
228	  0.065490983	-6.148000E+00	  0.065490983	-1.484550E+02	  0.065490983	1.818000E+01	  0.065490983	-1.237700E+01
229	  0.065691382	-6.146000E+00	  0.065691382	-1.495400E+02	  0.065691382	1.809200E+01	  0.065691382	-1.193900E+01
230	  0.065891780	-6.145000E+00	  0.065891780	-1.506260E+02	  0.065891780	1.800900E+01	  0.065891780	-1.150100E+01
231	  0.066092186	-6.151000E+00	  0.066092186	-1.516970E+02	  0.066092186	1.794800E+01	  0.066092186	-1.106800E+01
232	  0.066292584	-6.152000E+00	  0.066292584	-1.527500E+02	  0.066292584	1.788000E+01	  0.066292584	-1.064500E+01
233	  0.066492982	-6.155000E+00	  0.066492982	-1.538270E+02	  0.066492982	1.781900E+01	  0.066492982	-1.021300E+01
234	  0.066693388	-6.153000E+00	  0.066693388	-1.548630E+02	  0.066693388	1.774900E+01	  0.066693388	-9.801000E+00
235	  0.066893786	-6.155000E+00	  0.066893786	-1.559080E+02	  0.066893786	1.769100E+01	  0.066893786	-9.385000E+00
236	  0.067094192	-6.158000E+00	  0.067094192	-1.569690E+02	  0.067094192	1.764000E+01	  0.067094192	-8.963000E+00
237	  0.067294590	-6.157000E+00	  0.067294590	-1.580320E+02	  0.067294590	1.758000E+01	  0.067294590	-8.542000E+00
238	  0.067494988	-6.161000E+00	  0.067494988	-1.590600E+02	  0.067494988	1.753800E+01	  0.067494988	-8.135000E+00
239	  0.067695394	-6.167000E+00	  0.067695394	-1.600930E+02	  0.067695394	1.750300E+01	  0.067695394	-7.727000E+00
240	  0.067895792	-6.167000E+00	  0.067895792	-1.611420E+02	  0.067895792	1.745400E+01	  0.067895792	-7.315000E+00
241	  0.068096191	-6.172000E+00	  0.068096191	-1.621610E+02	  0.068096191	1.742300E+01	  0.068096191	-6.914000E+00
242	  0.068296596	-6.172000E+00	  0.068296596	-1.631800E+02	  0.068296596	1.738200E+01	  0.068296596	-6.515000E+00
243	  0.068496995	-6.172000E+00	  0.068496995	-1.641980E+02	  0.068496995	1.734300E+01	  0.068496995	-6.117000E+00
244	  0.068697393	-6.177000E+00	  0.068697393	-1.651890E+02	  0.068697393	1.732000E+01	  0.068697393	-5.730000E+00
245	  0.068897791	-6.178000E+00	  0.068897791	-1.662040E+02	  0.068897791	1.728900E+01	  0.068897791	-5.334000E+00
246	  0.069098189	-6.181000E+00	  0.069098189	-1.671810E+02	  0.069098189	1.726700E+01	  0.069098189	-4.954000E+00
247	  0.069298595	-6.187000E+00	  0.069298595	-1.681870E+02	  0.069298595	1.725300E+01	  0.069298595	-4.562000E+00
248	  0.069498993	-6.189000E+00	  0.069498993	-1.691980E+02	  0.069498993	1.723300E+01	  0.069498993	-4.169000E+00
249	  0.069699399	-6.198000E+00	  0.069699399	-1.701730E+02	  0.069699399	1.723100E+01	  0.069699399	-3.790000E+00
250	  0.069899797	-6.202000E+00	  0.069899797	-1.711570E+02	  0.069899797	1.721900E+01	  0.069899797	-3.409000E+00
251	  0.070100196	-6.209000E+00	  0.070100196	-1.721630E+02	  0.070100196	1.721900E+01	  0.070100196	-3.020000E+00
252	  0.070300601	-6.208000E+00	  0.070300601	-1.731420E+02	  0.070300601	1.719800E+01	  0.070300601	-2.642000E+00
253	  0.070501000	-6.213000E+00	  0.070501000	-1.741230E+02	  0.070501000	1.719800E+01	  0.070501000	-2.263000E+00
254	  0.070701398	-6.220000E+00	  0.070701398	-1.750780E+02	  0.070701398	1.720400E+01	  0.070701398	-1.894000E+00
255	  0.070901804	-6.224000E+00	  0.070901804	-1.760870E+02	  0.070901804	1.720400E+01	  0.070901804	-1.505000E+00
256	  0.071102202	-6.233000E+00	  0.071102202	-1.770440E+02	  0.071102202	1.721800E+01	  0.071102202	-1.137000E+00
257	  0.071302600	-6.239000E+00	  0.071302600	-1.780160E+02	  0.071302600	1.722900E+01	  0.071302600	-7.620000E-01
258	  0.071503006	-6.248000E+00	  0.071503006	-1.789380E+02	  0.071503006	1.724700E+01	  0.071503006	-4.080000E-01
259	  0.071703404	-6.253000E+00	  0.071703404	-1.799000E+02	  0.071703404	1.725900E+01	  0.071703404	-3.800000E-02
260	  0.071903802	-6.259000E+00	  0.071903802	1.791270E+02	  0.071903802	1.727600E+01	  0.071903802	3.350000E-01
261	  0.072104208	-6.263000E+00	  0.072104208	1.782110E+02	  0.072104208	1.728800E+01	  0.072104208	6.870000E-01
262	  0.072304606	-6.272000E+00	  0.072304606	1.772300E+02	  0.072304606	1.731500E+01	  0.072304606	1.063000E+00
263	  0.072505005	-6.277000E+00	  0.072505005	1.763310E+02	  0.072505005	1.733500E+01	  0.072505005	1.409000E+00
264	  0.072705410	-6.284000E+00	  0.072705410	1.753620E+02	  0.072705410	1.736400E+01	  0.072705410	1.780000E+00
265	  0.072905809	-6.292000E+00	  0.072905809	1.744480E+02	  0.072905809	1.739500E+01	  0.072905809	2.131000E+00
266	  0.073106214	-6.300000E+00	  0.073106214	1.735390E+02	  0.073106214	1.742700E+01	  0.073106214	2.480000E+00
267	  0.073306613	-6.308000E+00	  0.073306613	1.726290E+02	  0.073306613	1.746100E+01	  0.073306613	2.828000E+00
268	  0.073507011	-6.313000E+00	  0.073507011	1.716780E+02	  0.073507011	1.749200E+01	  0.073507011	3.194000E+00
269	  0.073707417	-6.322000E+00	  0.073707417	1.707620E+02	  0.073707417	1.753300E+01	  0.073707417	3.545000E+00
270	  0.073907815	-6.329000E+00	  0.073907815	1.698850E+02	  0.073907815	1.757200E+01	  0.073907815	3.882000E+00
271	  0.074108213	-6.334000E+00	  0.074108213	1.689690E+02	  0.074108213	1.760800E+01	  0.074108213	4.233000E+00
272	  0.074308619	-6.341000E+00	  0.074308619	1.680330E+02	  0.074308619	1.765100E+01	  0.074308619	4.593000E+00
273	  0.074509017	-6.351000E+00	  0.074509017	1.671600E+02	  0.074509017	1.770000E+01	  0.074509017	4.928000E+00
274	  0.074709415	-6.359000E+00	  0.074709415	1.662630E+02	  0.074709415	1.775000E+01	  0.074709415	5.272000E+00
275	  0.074909821	-6.367000E+00	  0.074909821	1.653770E+02	  0.074909821	1.780100E+01	  0.074909821	5.613000E+00
276	  0.075110219	-6.377000E+00	  0.075110219	1.644920E+02	  0.075110219	1.785700E+01	  0.075110219	5.953000E+00
277	  0.075310618	-6.385000E+00	  0.075310618	1.636340E+02	  0.075310618	1.791100E+01	  0.075310618	6.283000E+00
278	  0.075511023	-6.396000E+00	  0.075511023	1.627660E+02	  0.075511023	1.797500E+01	  0.075511023	6.616000E+00
279	  0.075711422	-6.412000E+00	  0.075711422	1.618810E+02	  0.075711422	1.805300E+01	  0.075711422	6.955000E+00
280	  0.075911827	-6.419000E+00	  0.075911827	1.609830E+02	  0.075911827	1.811200E+01	  0.075911827	7.301000E+00
281	  0.076112226	-6.430000E+00	  0.076112226	1.601160E+02	  0.076112226	1.818000E+01	  0.076112226	7.635000E+00
282	  0.076312624	-6.445000E+00	  0.076312624	1.592170E+02	  0.076312624	1.826300E+01	  0.076312624	7.980000E+00
283	  0.076513030	-6.453000E+00	  0.076513030	1.583480E+02	  0.076513030	1.832800E+01	  0.076513030	8.315000E+00
284	  0.076713428	-6.460000E+00	  0.076713428	1.574520E+02	  0.076713428	1.839500E+01	  0.076713428	8.662000E+00
285	  0.076913826	-6.474000E+00	  0.076913826	1.566270E+02	  0.076913826	1.848000E+01	  0.076913826	8.979000E+00
286	  0.077114232	-6.483000E+00	  0.077114232	1.557900E+02	  0.077114232	1.855100E+01	  0.077114232	9.303000E+00
287	  0.077314630	-6.492000E+00	  0.077314630	1.549220E+02	  0.077314630	1.862800E+01	  0.077314630	9.640000E+00
288	  0.077515028	-6.502000E+00	  0.077515028	1.540630E+02	  0.077515028	1.870900E+01	  0.077515028	9.973000E+00
289	  0.077715434	-6.516000E+00	  0.077715434	1.532210E+02	  0.077715434	1.880200E+01	  0.077715434	1.029700E+01
290	  0.077915832	-6.530000E+00	  0.077915832	1.523720E+02	  0.077915832	1.889500E+01	  0.077915832	1.062500E+01
291	  0.078116231	-6.547000E+00	  0.078116231	1.515130E+02	  0.078116231	1.900100E+01	  0.078116231	1.095500E+01
292	  0.078316636	-6.559000E+00	  0.078316636	1.506720E+02	  0.078316636	1.909500E+01	  0.078316636	1.128100E+01
293	  0.078517035	-6.576000E+00	  0.078517035	1.498280E+02	  0.078517035	1.920300E+01	  0.078517035	1.160600E+01
294	  0.078717433	-6.591000E+00	  0.078717433	1.490010E+02	  0.078717433	1.930800E+01	  0.078717433	1.192600E+01
295	  0.078917839	-6.605000E+00	  0.078917839	1.481680E+02	  0.078917839	1.941300E+01	  0.078917839	1.224800E+01
296	  0.079118237	-6.619000E+00	  0.079118237	1.473420E+02	  0.079118237	1.951900E+01	  0.079118237	1.256800E+01
297	  0.079318643	-6.634000E+00	  0.079318643	1.465050E+02	  0.079318643	1.963100E+01	  0.079318643	1.289300E+01
298	  0.079519041	-6.652000E+00	  0.079519041	1.457060E+02	  0.079519041	1.975200E+01	  0.079519041	1.320000E+01
299	  0.079719439	-6.665000E+00	  0.079719439	1.448620E+02	  0.079719439	1.986300E+01	  0.079719439	1.352900E+01
300	  0.079919845	-6.681000E+00	  0.079919845	1.440190E+02	  0.079919845	1.998600E+01	  0.079919845	1.385600E+01
301	  0.080120243	-6.696000E+00	  0.080120243	1.431950E+02	  0.080120243	2.010700E+01	  0.080120243	1.417600E+01
302	  0.080320641	-6.712000E+00	  0.080320641	1.423910E+02	  0.080320641	2.022900E+01	  0.080320641	1.448800E+01
303	  0.080521047	-6.726000E+00	  0.080521047	1.415880E+02	  0.080521047	2.035000E+01	  0.080521047	1.480100E+01
304	  0.080721445	-6.745000E+00	  0.080721445	1.407760E+02	  0.080721445	2.048800E+01	  0.080721445	1.511500E+01
305	  0.080921844	-6.761000E+00	  0.080921844	1.399940E+02	  0.080921844	2.061500E+01	  0.080921844	1.541900E+01
306	  0.081122249	-6.779000E+00	  0.081122249	1.392080E+02	  0.081122249	2.075100E+01	  0.081122249	1.572300E+01
307	  0.081322648	-6.794000E+00	  0.081322648	1.383980E+02	  0.081322648	2.088300E+01	  0.081322648	1.604000E+01
308	  0.081523046	-6.814000E+00	  0.081523046	1.376200E+02	  0.081523046	2.102900E+01	  0.081523046	1.634000E+01
309	  0.081723452	-6.832000E+00	  0.081723452	1.368420E+02	  0.081723452	2.117400E+01	  0.081723452	1.664100E+01
310	  0.081923850	-6.851000E+00	  0.081923850	1.361150E+02	  0.081923850	2.131400E+01	  0.081923850	1.692100E+01
311	  0.082124248	-6.875000E+00	  0.082124248	1.353370E+02	  0.082124248	2.147900E+01	  0.082124248	1.721700E+01
312	  0.082324654	-6.896000E+00	  0.082324654	1.346040E+02	  0.082324654	2.163100E+01	  0.082324654	1.749800E+01
313	  0.082525052	-6.921000E+00	  0.082525052	1.338580E+02	  0.082525052	2.179700E+01	  0.082525052	1.778100E+01
314	  0.082725458	-6.941000E+00	  0.082725458	1.330670E+02	  0.082725458	2.195900E+01	  0.082725458	1.808600E+01
315	  0.082925856	-6.968000E+00	  0.082925856	1.323030E+02	  0.082925856	2.213900E+01	  0.082925856	1.837400E+01
316	  0.083126254	-6.986000E+00	  0.083126254	1.315320E+02	  0.083126254	2.229900E+01	  0.083126254	1.867300E+01
317	  0.083326660	-7.010000E+00	  0.083326660	1.307780E+02	  0.083326660	2.247400E+01	  0.083326660	1.896000E+01
318	  0.083527058	-7.031000E+00	  0.083527058	1.300490E+02	  0.083527058	2.264300E+01	  0.083527058	1.923800E+01
319	  0.083727457	-7.052000E+00	  0.083727457	1.292770E+02	  0.083727457	2.281700E+01	  0.083727457	1.953500E+01
320	  0.083927862	-7.072000E+00	  0.083927862	1.285710E+02	  0.083927862	2.298300E+01	  0.083927862	1.980500E+01
321	  0.084128261	-7.095000E+00	  0.084128261	1.278380E+02	  0.084128261	2.316300E+01	  0.084128261	2.008400E+01
322	  0.084328659	-7.116000E+00	  0.084328659	1.271370E+02	  0.084328659	2.333700E+01	  0.084328659	2.035000E+01
323	  0.084529065	-7.142000E+00	  0.084529065	1.264210E+02	  0.084529065	2.352600E+01	  0.084529065	2.061900E+01
324	  0.084729463	-7.166000E+00	  0.084729463	1.256640E+02	  0.084729463	2.372100E+01	  0.084729463	2.090500E+01
325	  0.084929861	-7.188000E+00	  0.084929861	1.249870E+02	  0.084929861	2.390000E+01	  0.084929861	2.116000E+01
326	  0.085130267	-7.208000E+00	  0.085130267	1.242630E+02	  0.085130267	2.408400E+01	  0.085130267	2.143700E+01
327	  0.085330658	-7.235000E+00	  0.085330658	1.235910E+02	  0.085330658	2.428100E+01	  0.085330658	2.168400E+01
328	  0.085531056	-7.259000E+00	  0.085531056	1.228790E+02	  0.085531056	2.448000E+01	  0.085531056	2.195000E+01
329	  0.085731462	-7.286000E+00	  0.085731462	1.222080E+02	  0.085731462	2.467900E+01	  0.085731462	2.219600E+01
330	  0.085931860	-7.311000E+00	  0.085931860	1.215400E+02	  0.085931860	2.487700E+01	  0.085931860	2.244200E+01
331	  0.086132258	-7.333000E+00	  0.086132258	1.208430E+02	  0.086132258	2.507500E+01	  0.086132258	2.270300E+01
332	  0.086332664	-7.362000E+00	  0.086332664	1.201240E+02	  0.086332664	2.529800E+01	  0.086332664	2.296500E+01
333	  0.086533062	-7.385000E+00	  0.086533062	1.194430E+02	  0.086533062	2.550000E+01	  0.086533062	2.321800E+01
334	  0.086733460	-7.407000E+00	  0.086733460	1.187500E+02	  0.086733460	2.570600E+01	  0.086733460	2.347600E+01
335	  0.086933866	-7.433000E+00	  0.086933866	1.180680E+02	  0.086933866	2.592300E+01	  0.086933866	2.372400E+01
336	  0.087134264	-7.453000E+00	  0.087134264	1.173560E+02	  0.087134264	2.613100E+01	  0.087134264	2.399300E+01
337	  0.087334670	-7.479000E+00	  0.087334670	1.167290E+02	  0.087334670	2.634200E+01	  0.087334670	2.421700E+01
338	  0.087535068	-7.503000E+00	  0.087535068	1.160410E+02	  0.087535068	2.656200E+01	  0.087535068	2.446900E+01
339	  0.087735467	-7.527000E+00	  0.087735467	1.153980E+02	  0.087735467	2.677800E+01	  0.087735467	2.470000E+01
340	  0.087935872	-7.552000E+00	  0.087935872	1.147330E+02	  0.087935872	2.700100E+01	  0.087935872	2.494000E+01
341	  0.088136271	-7.572000E+00	  0.088136271	1.141100E+02	  0.088136271	2.720300E+01	  0.088136271	2.517000E+01
342	  0.088336669	-7.596000E+00	  0.088336669	1.134420E+02	  0.088336669	2.742900E+01	  0.088336669	2.541100E+01
343	  0.088537075	-7.618000E+00	  0.088537075	1.128400E+02	  0.088537075	2.763900E+01	  0.088537075	2.562600E+01
344	  0.088737473	-7.642000E+00	  0.088737473	1.122210E+02	  0.088737473	2.785900E+01	  0.088737473	2.584500E+01
345	  0.088937871	-7.666000E+00	  0.088937871	1.116040E+02	  0.088937871	2.808100E+01	  0.088937871	2.606300E+01
346	  0.089138277	-7.697000E+00	  0.089138277	1.110090E+02	  0.089138277	2.832100E+01	  0.089138277	2.625700E+01
347	  0.089338675	-7.724000E+00	  0.089338675	1.104010E+02	  0.089338675	2.855200E+01	  0.089338675	2.646500E+01
348	  0.089539073	-7.755000E+00	  0.089539073	1.097840E+02	  0.089539073	2.880300E+01	  0.089539073	2.666600E+01
349	  0.089739479	-7.781000E+00	  0.089739479	1.091720E+02	  0.089739479	2.903900E+01	  0.089739479	2.687500E+01
350	  0.089939877	-7.808000E+00	  0.089939877	1.085720E+02	  0.089939877	2.927900E+01	  0.089939877	2.707400E+01
351	  0.090140276	-7.834000E+00	  0.090140276	1.079760E+02	  0.090140276	2.951400E+01	  0.090140276	2.727400E+01
352	  0.090340681	-7.863000E+00	  0.090340681	1.073600E+02	  0.090340681	2.977000E+01	  0.090340681	2.747400E+01
353	  0.090541080	-7.889000E+00	  0.090541080	1.067500E+02	  0.090541080	3.001500E+01	  0.090541080	2.767600E+01
354	  0.090741485	-7.918000E+00	  0.090741485	1.061720E+02	  0.090741485	3.026300E+01	  0.090741485	2.785900E+01
355	  0.090941884	-7.946000E+00	  0.090941884	1.055890E+02	  0.090941884	3.051100E+01	  0.090941884	2.804500E+01
356	  0.091142282	-7.969000E+00	  0.091142282	1.050060E+02	  0.091142282	3.075000E+01	  0.091142282	2.823800E+01
357	  0.091342688	-7.997000E+00	  0.091342688	1.044490E+02	  0.091342688	3.099600E+01	  0.091342688	2.841000E+01
358	  0.091543086	-8.021000E+00	  0.091543086	1.038740E+02	  0.091543086	3.123800E+01	  0.091543086	2.859700E+01
359	  0.091743484	-8.044000E+00	  0.091743484	1.033070E+02	  0.091743484	3.147900E+01	  0.091743484	2.878000E+01
360	  0.091943890	-8.071000E+00	  0.091943890	1.027610E+02	  0.091943890	3.172400E+01	  0.091943890	2.894700E+01
361	  0.092144288	-8.098000E+00	  0.092144288	1.022150E+02	  0.092144288	3.197300E+01	  0.092144288	2.911100E+01
362	  0.092344686	-8.127000E+00	  0.092344686	1.016890E+02	  0.092344686	3.222400E+01	  0.092344686	2.926000E+01
363	  0.092545092	-8.156000E+00	  0.092545092	1.011790E+02	  0.092545092	3.246800E+01	  0.092545092	2.940400E+01
364	  0.092745490	-8.181000E+00	  0.092745490	1.006280E+02	  0.092745490	3.272100E+01	  0.092745490	2.957000E+01
365	  0.092945889	-8.211000E+00	  0.092945889	1.001440E+02	  0.092945889	3.296500E+01	  0.092945889	2.969700E+01
366	  0.093146294	-8.236000E+00	  0.093146294	9.958600E+01	  0.093146294	3.322100E+01	  0.093146294	2.986500E+01
367	  0.093346693	-8.265000E+00	  0.093346693	9.910000E+01	  0.093346693	3.346800E+01	  0.093346693	2.999000E+01
368	  0.093547091	-8.289000E+00	  0.093547091	9.857700E+01	  0.093547091	3.371400E+01	  0.093547091	3.014400E+01
369	  0.093747497	-8.311000E+00	  0.093747497	9.804900E+01	  0.093747497	3.396000E+01	  0.093747497	3.030100E+01
370	  0.093947895	-8.340000E+00	  0.093947895	9.752500E+01	  0.093947895	3.422400E+01	  0.093947895	3.043800E+01
371	  0.094148301	-8.366000E+00	  0.094148301	9.704500E+01	  0.094148301	3.446900E+01	  0.094148301	3.056300E+01
372	  0.094348699	-8.388000E+00	  0.094348699	9.658900E+01	  0.094348699	3.469400E+01	  0.094348699	3.068800E+01
373	  0.094549097	-8.413000E+00	  0.094549097	9.609700E+01	  0.094549097	3.494100E+01	  0.094549097	3.082000E+01
374	  0.094749503	-8.437000E+00	  0.094749503	9.561900E+01	  0.094749503	3.518300E+01	  0.094749503	3.094500E+01
375	  0.094949901	-8.452000E+00	  0.094949901	9.516500E+01	  0.094949901	3.539500E+01	  0.094949901	3.108300E+01
376	  0.095150299	-8.474000E+00	  0.095150299	9.465400E+01	  0.095150299	3.564900E+01	  0.095150299	3.122300E+01
377	  0.095350705	-8.497000E+00	  0.095350705	9.420800E+01	  0.095350705	3.588200E+01	  0.095350705	3.133400E+01
378	  0.095551103	-8.514000E+00	  0.095551103	9.377400E+01	  0.095551103	3.609500E+01	  0.095551103	3.145700E+01
379	  0.095751502	-8.532000E+00	  0.095751502	9.333400E+01	  0.095751502	3.631600E+01	  0.095751502	3.157600E+01
380	  0.095951907	-8.556000E+00	  0.095951907	9.292700E+01	  0.095951907	3.654100E+01	  0.095951907	3.166700E+01
381	  0.096152306	-8.574000E+00	  0.096152306	9.246800E+01	  0.096152306	3.677000E+01	  0.096152306	3.179300E+01
382	  0.096352704	-8.592000E+00	  0.096352704	9.206200E+01	  0.096352704	3.698300E+01	  0.096352704	3.189500E+01
383	  0.096553110	-8.608000E+00	  0.096553110	9.162700E+01	  0.096553110	3.720100E+01	  0.096553110	3.201600E+01
384	  0.096753508	-8.623000E+00	  0.096753508	9.123900E+01	  0.096753508	3.740100E+01	  0.096753508	3.211800E+01
385	  0.096953906	-8.641000E+00	  0.096953906	9.081500E+01	  0.096953906	3.762400E+01	  0.096953906	3.222600E+01
386	  0.097154312	-8.659000E+00	  0.097154312	9.034400E+01	  0.097154312	3.786700E+01	  0.097154312	3.235100E+01
387	  0.097354710	-8.671000E+00	  0.097354710	8.994900E+01	  0.097354710	3.806600E+01	  0.097354710	3.246200E+01
388	  0.097555116	-8.690000E+00	  0.097555116	8.954600E+01	  0.097555116	3.828700E+01	  0.097555116	3.255400E+01
389	  0.097755514	-8.703000E+00	  0.097755514	8.910800E+01	  0.097755514	3.851000E+01	  0.097755514	3.267600E+01
390	  0.097955912	-8.711000E+00	  0.097955912	8.870200E+01	  0.097955912	3.870800E+01	  0.097955912	3.280100E+01
391	  0.098156318	-8.717000E+00	  0.098156318	8.828300E+01	  0.098156318	3.890800E+01	  0.098156318	3.293600E+01
392	  0.098356716	-8.725000E+00	  0.098356716	8.788600E+01	  0.098356716	3.910600E+01	  0.098356716	3.305500E+01
393	  0.098557115	-8.731000E+00	  0.098557115	8.750200E+01	  0.098557115	3.929400E+01	  0.098557115	3.317500E+01
394	  0.098757520	-8.732000E+00	  0.098757520	8.708000E+01	  0.098757520	3.949000E+01	  0.098757520	3.332200E+01
395	  0.098957919	-8.736000E+00	  0.098957919	8.668000E+01	  0.098957919	3.968500E+01	  0.098957919	3.345300E+01
396	  0.099158317	-8.742000E+00	  0.099158317	8.628200E+01	  0.099158317	3.988400E+01	  0.099158317	3.357700E+01
397	  0.099358723	-8.751000E+00	  0.099358723	8.589100E+01	  0.099358723	4.008700E+01	  0.099358723	3.368800E+01
398	  0.099559121	-8.755000E+00	  0.099559121	8.552500E+01	  0.099559121	4.026900E+01	  0.099559121	3.380600E+01
399	  0.099759519	-8.754000E+00	  0.099759519	8.510800E+01	  0.099759519	4.046600E+01	  0.099759519	3.395600E+01
400	  0.099959925	-8.748000E+00	  0.099959925	8.473100E+01	  0.099959925	4.063600E+01	  0.099959925	3.410500E+01
401	  0.100160323	-8.749000E+00	  0.100160323	8.431900E+01	  0.100160323	4.083700E+01	  0.100160323	3.424800E+01
402	  0.100360721	-8.744000E+00	  0.100360721	8.390200E+01	  0.100360721	4.103000E+01	  0.100360721	3.441100E+01
403	  0.100561127	-8.750000E+00	  0.100561127	8.352900E+01	  0.100561127	4.122800E+01	  0.100561127	3.452100E+01
404	  0.100761525	-8.741000E+00	  0.100761525	8.310800E+01	  0.100761525	4.141800E+01	  0.100761525	3.469500E+01
405	  0.100961931	-8.744000E+00	  0.100961931	8.266100E+01	  0.100961931	4.165000E+01	  0.100961931	3.484100E+01
406	  0.101162329	-8.737000E+00	  0.101162329	8.227900E+01	  0.101162329	4.182800E+01	  0.101162329	3.499700E+01
407	  0.101362728	-8.732000E+00	  0.101362728	8.184300E+01	  0.101362728	4.204200E+01	  0.101362728	3.516300E+01
408	  0.101563133	-8.721000E+00	  0.101563133	8.145700E+01	  0.101563133	4.221600E+01	  0.101563133	3.533400E+01
409	  0.101763532	-8.716000E+00	  0.101763532	8.098000E+01	  0.101763532	4.245600E+01	  0.101763532	3.551300E+01
410	  0.101963930	-8.701000E+00	  0.101963930	8.060400E+01	  0.101963930	4.262000E+01	  0.101963930	3.569400E+01
411	  0.102164336	-8.693000E+00	  0.102164336	8.013400E+01	  0.102164336	4.285300E+01	  0.102164336	3.588200E+01
412	  0.102364734	-8.689000E+00	  0.102364734	7.964800E+01	  0.102364734	4.310500E+01	  0.102364734	3.606400E+01
413	  0.102565132	-8.679000E+00	  0.102565132	7.924400E+01	  0.102565132	4.330400E+01	  0.102565132	3.623500E+01
414	  0.102765530	-8.665000E+00	  0.102765530	7.880800E+01	  0.102765530	4.351300E+01	  0.102765530	3.643400E+01
415	  0.102965929	-8.645000E+00	  0.102965929	7.834500E+01	  0.102965929	4.372600E+01	  0.102965929	3.666300E+01
416	  0.103166327	-8.640000E+00	  0.103166327	7.789800E+01	  0.103166327	4.396500E+01	  0.103166327	3.683400E+01
417	  0.103366733	-8.611000E+00	  0.103366733	7.748000E+01	  0.103366733	4.414000E+01	  0.103366733	3.708000E+01
418	  0.103567131	-8.618000E+00	  0.103567131	7.696800E+01	  0.103567131	4.444900E+01	  0.103567131	3.722600E+01
419	  0.103767529	-8.594000E+00	  0.103767529	7.653100E+01	  0.103767529	4.465100E+01	  0.103767529	3.746300E+01
420	  0.103967935	-8.588000E+00	  0.103967935	7.598900E+01	  0.103967935	4.495600E+01	  0.103967935	3.766600E+01
421	  0.104168333	-8.570000E+00	  0.104168333	7.556600E+01	  0.104168333	4.516700E+01	  0.104168333	3.787800E+01
422	  0.104368731	-8.554000E+00	  0.104368731	7.500200E+01	  0.104368731	4.547100E+01	  0.104368731	3.812800E+01
423	  0.104569137	-8.535000E+00	  0.104569137	7.448600E+01	  0.104569137	4.574400E+01	  0.104569137	3.837400E+01
424	  0.104769535	-8.524000E+00	  0.104769535	7.396800E+01	  0.104769535	4.604000E+01	  0.104769535	3.858700E+01
425	  0.104969934	-8.505000E+00	  0.104969934	7.346600E+01	  0.104969934	4.631300E+01	  0.104969934	3.882800E+01
426	  0.105170339	-8.491000E+00	  0.105170339	7.298200E+01	  0.105170339	4.658800E+01	  0.105170339	3.904500E+01
427	  0.105370738	-8.470000E+00	  0.105370738	7.239000E+01	  0.105370738	4.692300E+01	  0.105370738	3.932300E+01
428	  0.105571143	-8.454000E+00	  0.105571143	7.183000E+01	  0.105571143	4.725100E+01	  0.105571143	3.957400E+01
429	  0.105771542	-8.436000E+00	  0.105771542	7.127600E+01	  0.105771542	4.757700E+01	  0.105771542	3.982700E+01
430	  0.105971940	-8.422000E+00	  0.105971940	7.070800E+01	  0.105971940	4.792600E+01	  0.105971940	4.007000E+01
431	  0.106172346	-8.403000E+00	  0.106172346	7.017200E+01	  0.106172346	4.825000E+01	  0.106172346	4.032100E+01
432	  0.106372744	-8.382000E+00	  0.106372744	6.960900E+01	  0.106372744	4.859000E+01	  0.106372744	4.059200E+01
433	  0.106573142	-8.361000E+00	  0.106573142	6.904000E+01	  0.106573142	4.894200E+01	  0.106573142	4.086600E+01
434	  0.106773548	-8.342000E+00	  0.106773548	6.847400E+01	  0.106773548	4.930100E+01	  0.106773548	4.112800E+01
435	  0.106973946	-8.326000E+00	  0.106973946	6.783900E+01	  0.106973946	4.972200E+01	  0.106973946	4.139600E+01
436	  0.107174344	-8.308000E+00	  0.107174344	6.725700E+01	  0.107174344	5.010700E+01	  0.107174344	4.165900E+01
437	  0.107374750	-8.287000E+00	  0.107374750	6.663900E+01	  0.107374750	5.051900E+01	  0.107374750	4.194700E+01
438	  0.107575148	-8.268000E+00	  0.107575148	6.606500E+01	  0.107575148	5.090800E+01	  0.107575148	4.221300E+01
439	  0.107775547	-8.249000E+00	  0.107775547	6.544200E+01	  0.107775547	5.134300E+01	  0.107775547	4.248900E+01
440	  0.107975952	-8.239000E+00	  0.107975952	6.483800E+01	  0.107975952	5.178800E+01	  0.107975952	4.271300E+01
441	  0.108176351	-8.226000E+00	  0.108176351	6.423300E+01	  0.108176351	5.223300E+01	  0.108176351	4.295300E+01
442	  0.108376749	-8.213000E+00	  0.108376749	6.355900E+01	  0.108376749	5.274200E+01	  0.108376749	4.320700E+01
443	  0.108577155	-8.193000E+00	  0.108577155	6.291900E+01	  0.108577155	5.321800E+01	  0.108577155	4.349000E+01
444	  0.108777553	-8.173000E+00	  0.108777553	6.227000E+01	  0.108777553	5.371000E+01	  0.108777553	4.377300E+01
445	  0.108977959	-8.154000E+00	  0.108977959	6.157100E+01	  0.108977959	5.425700E+01	  0.108977959	4.405800E+01
446	  0.109178357	-8.143000E+00	  0.109178357	6.088800E+01	  0.109178357	5.481200E+01	  0.109178357	4.429600E+01
447	  0.109378755	-8.126000E+00	  0.109378755	6.022700E+01	  0.109378755	5.534800E+01	  0.109378755	4.456000E+01
448	  0.109579161	-8.115000E+00	  0.109579161	5.954600E+01	  0.109579161	5.592300E+01	  0.109579161	4.478600E+01
449	  0.109779559	-8.096000E+00	  0.109779559	5.881400E+01	  0.109779559	5.653800E+01	  0.109779559	4.507300E+01
450	  0.109979957	-8.092000E+00	  0.109979957	5.813700E+01	  0.109979957	5.713800E+01	  0.109979957	4.525200E+01
451	  0.110180363	-8.075000E+00	  0.110180363	5.741000E+01	  0.110180363	5.777600E+01	  0.110180363	4.551100E+01
452	  0.110380761	-8.071000E+00	  0.110380761	5.667700E+01	  0.110380761	5.844800E+01	  0.110380761	4.569200E+01
453	  0.110581160	-8.051000E+00	  0.110581160	5.594000E+01	  0.110581160	5.911400E+01	  0.110581160	4.596400E+01
454	  0.110781565	-8.048000E+00	  0.110781565	5.515300E+01	  0.110781565	5.986400E+01	  0.110781565	4.612800E+01
455	  0.110981964	-8.040000E+00	  0.110981964	5.441300E+01	  0.110981964	6.057300E+01	  0.110981964	4.631000E+01
456	  0.111182362	-8.034000E+00	  0.111182362	5.369600E+01	  0.111182362	6.127500E+01	  0.111182362	4.646500E+01
457	  0.111382768	-8.024000E+00	  0.111382768	5.287100E+01	  0.111382768	6.209100E+01	  0.111382768	4.666000E+01
458	  0.111583166	-8.017000E+00	  0.111583166	5.209300E+01	  0.111583166	6.287800E+01	  0.111583166	4.681300E+01
459	  0.111783572	-8.015000E+00	  0.111783572	5.128500E+01	  0.111783572	6.371300E+01	  0.111783572	4.692200E+01
460	  0.111983970	-8.005000E+00	  0.111983970	5.048300E+01	  0.111983970	6.455000E+01	  0.111983970	4.707600E+01
461	  0.112184368	-8.003000E+00	  0.112184368	4.964900E+01	  0.112184368	6.544100E+01	  0.112184368	4.716100E+01
462	  0.112384774	-8.007000E+00	  0.112384774	4.884800E+01	  0.112384774	6.631200E+01	  0.112384774	4.718700E+01
463	  0.112585172	-8.001000E+00	  0.112585172	4.801500E+01	  0.112585172	6.722600E+01	  0.112585172	4.727200E+01
464	  0.112785570	-7.997000E+00	  0.112785570	4.718100E+01	  0.112785570	6.815800E+01	  0.112785570	4.732200E+01
465	  0.112985976	-7.999000E+00	  0.112985976	4.633200E+01	  0.112985976	6.912000E+01	  0.112985976	4.731000E+01
466	  0.113186374	-8.003000E+00	  0.113186374	4.548100E+01	  0.113186374	7.009700E+01	  0.113186374	4.726300E+01
467	  0.113386773	-8.007000E+00	  0.113386773	4.462200E+01	  0.113386773	7.109600E+01	  0.113386773	4.719600E+01
468	  0.113587178	-8.013000E+00	  0.113587178	4.377700E+01	  0.113587178	7.208900E+01	  0.113587178	4.709000E+01
469	  0.113787577	-8.019000E+00	  0.113787577	4.288100E+01	  0.113787577	7.315300E+01	  0.113787577	4.695500E+01
470	  0.113987975	-8.025000E+00	  0.113987975	4.195800E+01	  0.113987975	7.426100E+01	  0.113987975	4.679000E+01
471	  0.114188381	-8.034000E+00	  0.114188381	4.111000E+01	  0.114188381	7.528600E+01	  0.114188381	4.658200E+01
472	  0.114388779	-8.047000E+00	  0.114388779	4.020900E+01	  0.114388779	7.637700E+01	  0.114388779	4.630400E+01
473	  0.114589177	-8.060000E+00	  0.114589177	3.930000E+01	  0.114589177	7.748400E+01	  0.114589177	4.599200E+01
474	  0.114789583	-8.073000E+00	  0.114789583	3.835700E+01	  0.114789583	7.863800E+01	  0.114789583	4.563800E+01
475	  0.114989981	-8.085000E+00	  0.114989981	3.744700E+01	  0.114989981	7.976000E+01	  0.114989981	4.527300E+01
476	  0.115190387	-8.106000E+00	  0.115190387	3.651700E+01	  0.115190387	8.088700E+01	  0.115190387	4.478700E+01
477	  0.115390785	-8.122000E+00	  0.115390785	3.557500E+01	  0.115390785	8.203900E+01	  0.115390785	4.429200E+01
478	  0.115591183	-8.143000E+00	  0.115591183	3.462200E+01	  0.115591183	8.319300E+01	  0.115591183	4.372500E+01
479	  0.115791589	-8.169000E+00	  0.115791589	3.363500E+01	  0.115791589	8.436500E+01	  0.115791589	4.304900E+01
480	  0.115991987	-8.193000E+00	  0.115991987	3.265500E+01	  0.115991987	8.552800E+01	  0.115991987	4.235800E+01
481	  0.116192386	-8.217000E+00	  0.116192386	3.166900E+01	  0.116192386	8.668400E+01	  0.116192386	4.161400E+01
482	  0.116392791	-8.248000E+00	  0.116392791	3.063500E+01	  0.116392791	8.785800E+01	  0.116392791	4.073600E+01
483	  0.116593190	-8.277000E+00	  0.116593190	2.964300E+01	  0.116593190	8.896900E+01	  0.116593190	3.986000E+01
484	  0.116793588	-8.311000E+00	  0.116793588	2.862200E+01	  0.116793588	9.007000E+01	  0.116793588	3.887800E+01
485	  0.116993994	-8.348000E+00	  0.116993994	2.757900E+01	  0.116993994	9.115500E+01	  0.116993994	3.781100E+01
486	  0.117194392	-8.389000E+00	  0.117194392	2.656000E+01	  0.117194392	9.215600E+01	  0.117194392	3.668400E+01
487	  0.117394790	-8.429000E+00	  0.117394790	2.555600E+01	  0.117394790	9.310700E+01	  0.117394790	3.554000E+01
488	  0.117595196	-8.470000E+00	  0.117595196	2.443800E+01	  0.117595196	9.414800E+01	  0.117595196	3.424900E+01
489	  0.117795594	-8.514000E+00	  0.117795594	2.336100E+01	  0.117795594	9.507200E+01	  0.117795594	3.292700E+01
490	  0.117995992	-8.557000E+00	  0.117995992	2.225400E+01	  0.117995992	9.598800E+01	  0.117995992	3.154400E+01
491	  0.118196398	-8.604000E+00	  0.118196398	2.114100E+01	  0.118196398	9.681900E+01	  0.118196398	3.008000E+01
492	  0.118396796	-8.660000E+00	  0.118396796	2.001400E+01	  0.118396796	9.754900E+01	  0.118396796	2.851800E+01
493	  0.118597202	-8.713000E+00	  0.118597202	1.889100E+01	  0.118597202	9.822900E+01	  0.118597202	2.695000E+01
494	  0.118797600	-8.775000E+00	  0.118797600	1.774100E+01	  0.118797600	9.879500E+01	  0.118797600	2.527300E+01
495	  0.118997999	-8.834000E+00	  0.118997999	1.661400E+01	  0.118997999	9.929000E+01	  0.118997999	2.362200E+01
496	  0.119198404	-8.896000E+00	  0.119198404	1.543800E+01	  0.119198404	9.972900E+01	  0.119198404	2.188500E+01
497	  0.119398803	-8.965000E+00	  0.119398803	1.425600E+01	  0.119398803	1.000400E+02	  0.119398803	2.010400E+01
498	  0.119599201	-9.035000E+00	  0.119599201	1.305500E+01	  0.119599201	1.002690E+02	  0.119599201	1.829200E+01
499	  0.119799607	-9.110000E+00	  0.119799607	1.183200E+01	  0.119799607	1.003780E+02	  0.119799607	1.643800E+01
500	  0.120000005	-9.185000E+00	  0.120000005	1.061000E+01	  0.120000005	1.004100E+02	  0.120000005	1.460300E+01
