! Anritsu VNA Master:             	Model: MS2036C/10/77
! SN:             	1601066
! /bd0/18may10/255.ew.m2.txt
! Existing Calibration Information:
! TYPE:             	Current Settings	Active Cal Settings
! TIME:             	05/10/2018 01:41:00 PM	05/10/2018 01:36:00 PM
! INTERNAL TEMP:    	55.3 C	54.5 C
! # POINTS:         	492	492
! START FREQ:       	20.000 MHz	20.000 MHz
! STOP FREQ:        	118.396 793 MHz	118.396 793 MHz
! SOURCE POWER:     	High	High
! IFBW:             	50 Hz	50 Hz
! AVG FACTOR:       	  1 	  1 
! REF PLANE 1:      	0 mm	0 mm
! REF PLANE 2:      	0 mm	0 mm
! CAL TYPE:         	Full S22	Full S22
! CAL METHOD:       	SOLT	SOLT
! CAL LINE TYPE:    	Coax	Coax
! DUT PORT 1:       	K-Conn(M)	K-Conn(M)
! DUT PORT 2:       	K-Conn(M)	K-Conn(M)
! CAL STATUS:       	OK: Accuracy High	--
! PROP-V:       	0.700
! CABLE LOSS:       	0.000 dB/m
! REF IMPEDANCE:       	50.0
! Trace Specific Parameters:	TR1	TR2	TR3	TR4
! TRACE.#.Y (GRAPH TYPE)	LOG MAG	PHASE	REAL IMPEDANCE	IMAGINARY IMPEDANCE
! TRACE.#.X 	FREQ.GHZ	FREQ.GHZ	FREQ.GHZ	FREQ.GHZ
! S-PARAMETER	S22	S22	S22	S22
! SMOOTH/APERTURE %	0	0	0	0
! WINDOW	NSL	NSL	NSL	NSL
! GATING	OFF	OFF	OFF	OFF
! FGTD	OFF	OFF	OFF	OFF
Marker Information per Trace:	TR1	TR2	TR3	TR4
!MK1	--	"MK1 TR2:  20.000 MHz,PH:-125.63°"	--	--
!MK2	--	--	"MK2 TR3:  70.100 200 MHz,Z:(16.734 ohm, -1.474 ohm)"	--
!MK3	--	--	--	--
!MK4	--	--	--	--
!MK5	--	--	--	--
!MK6	--	--	--	--
!MK7	--	--	--	--
!MK8	--	--	--	--
PNT	TR1.FREQ.GHZ	TR1.LOG MAG.dB	TR2.FREQ.GHZ	TR2.PHASE.deg	TR3.FREQ.GHZ	TR3.REAL IMPEDANCE.ohm	TR4.FREQ.GHZ	TR4.IMAGINARY IMPEDANCE.ohm
1	  0.020000000	-9.110000E-01	  0.020000000	-1.256330E+02	  0.020000000	3.309000E+00	  0.020000000	-2.558800E+01
2	  0.020200402	-9.200000E-01	  0.020200402	-1.270810E+02	  0.020200402	3.301000E+00	  0.020200402	-2.479700E+01
3	  0.020400802	-9.300000E-01	  0.020400802	-1.285180E+02	  0.020400802	3.296000E+00	  0.020400802	-2.402200E+01
4	  0.020601204	-9.390000E-01	  0.020601204	-1.299780E+02	  0.020601204	3.285000E+00	  0.020601204	-2.324300E+01
5	  0.020801604	-9.500000E-01	  0.020801604	-1.314760E+02	  0.020801604	3.286000E+00	  0.020801604	-2.245400E+01
6	  0.021002004	-9.590000E-01	  0.021002004	-1.329780E+02	  0.021002004	3.277000E+00	  0.021002004	-2.167300E+01
7	  0.021202406	-9.700000E-01	  0.021202406	-1.344790E+02	  0.021202406	3.278000E+00	  0.021202406	-2.090000E+01
8	  0.021402806	-9.790000E-01	  0.021402806	-1.359730E+02	  0.021402806	3.275000E+00	  0.021402806	-2.014000E+01
9	  0.021603208	-9.860000E-01	  0.021603208	-1.374620E+02	  0.021603208	3.263000E+00	  0.021603208	-1.939000E+01
10	  0.021803608	-9.980000E-01	  0.021803608	-1.389660E+02	  0.021803608	3.269000E+00	  0.021803608	-1.864000E+01
11	  0.022004008	-1.008000E+00	  0.022004008	-1.404650E+02	  0.022004008	3.271000E+00	  0.022004008	-1.790000E+01
12	  0.022204408	-1.020000E+00	  0.022204408	-1.419750E+02	  0.022204408	3.281000E+00	  0.022204408	-1.716200E+01
13	  0.022404809	-1.032000E+00	  0.022404809	-1.435130E+02	  0.022404809	3.290000E+00	  0.022404809	-1.641600E+01
14	  0.022605211	-1.042000E+00	  0.022605211	-1.450640E+02	  0.022605211	3.291000E+00	  0.022605211	-1.567100E+01
15	  0.022805611	-1.048000E+00	  0.022805611	-1.466330E+02	  0.022805611	3.282000E+00	  0.022805611	-1.492500E+01
16	  0.023006011	-1.056000E+00	  0.023006011	-1.481890E+02	  0.023006011	3.283000E+00	  0.023006011	-1.419000E+01
17	  0.023206413	-1.066000E+00	  0.023206413	-1.497380E+02	  0.023206413	3.290000E+00	  0.023206413	-1.346500E+01
18	  0.023406813	-1.077000E+00	  0.023406813	-1.512880E+02	  0.023406813	3.298000E+00	  0.023406813	-1.274400E+01
19	  0.023607215	-1.089000E+00	  0.023607215	-1.528470E+02	  0.023607215	3.314000E+00	  0.023607215	-1.202400E+01
20	  0.023807615	-1.103000E+00	  0.023807615	-1.544250E+02	  0.023807615	3.334000E+00	  0.023807615	-1.129900E+01
21	  0.024008015	-1.116000E+00	  0.024008015	-1.560360E+02	  0.024008015	3.352000E+00	  0.024008015	-1.056500E+01
22	  0.024208417	-1.128000E+00	  0.024208417	-1.576580E+02	  0.024208417	3.368000E+00	  0.024208417	-9.830000E+00
23	  0.024408817	-1.138000E+00	  0.024408817	-1.592820E+02	  0.024408817	3.380000E+00	  0.024408817	-9.098000E+00
24	  0.024609219	-1.149000E+00	  0.024609219	-1.608970E+02	  0.024609219	3.397000E+00	  0.024609219	-8.375000E+00
25	  0.024809619	-1.164000E+00	  0.024809619	-1.625360E+02	  0.024809619	3.424000E+00	  0.024809619	-7.644000E+00
26	  0.025010020	-1.178000E+00	  0.025010020	-1.641850E+02	  0.025010020	3.452000E+00	  0.025010020	-6.911000E+00
27	  0.025210422	-1.193000E+00	  0.025210422	-1.658230E+02	  0.025210422	3.483000E+00	  0.025210422	-6.187000E+00
28	  0.025410822	-1.210000E+00	  0.025410822	-1.674840E+02	  0.025410822	3.519000E+00	  0.025410822	-5.455000E+00
29	  0.025611224	-1.225000E+00	  0.025611224	-1.691530E+02	  0.025611224	3.552000E+00	  0.025611224	-4.723000E+00
30	  0.025811624	-1.242000E+00	  0.025811624	-1.708460E+02	  0.025811624	3.593000E+00	  0.025811624	-3.982000E+00
31	  0.026012026	-1.258000E+00	  0.026012026	-1.725400E+02	  0.026012026	3.630000E+00	  0.026012026	-3.242000E+00
32	  0.026212426	-1.275000E+00	  0.026212426	-1.742570E+02	  0.026212426	3.672000E+00	  0.026212426	-2.494000E+00
33	  0.026412826	-1.294000E+00	  0.026412826	-1.759700E+02	  0.026412826	3.724000E+00	  0.026412826	-1.749000E+00
34	  0.026613226	-1.313000E+00	  0.026613226	-1.776960E+02	  0.026613226	3.774000E+00	  0.026613226	-9.990000E-01
35	  0.026813626	-1.333000E+00	  0.026813626	-1.794370E+02	  0.026813626	3.831000E+00	  0.026813626	-2.440000E-01
36	  0.027014028	-1.355000E+00	  0.027014028	1.788260E+02	  0.027014028	3.893000E+00	  0.027014028	5.090000E-01
37	  0.027214428	-1.377000E+00	  0.027214428	1.770690E+02	  0.027214428	3.958000E+00	  0.027214428	1.271000E+00
38	  0.027414829	-1.399000E+00	  0.027414829	1.753150E+02	  0.027414829	4.026000E+00	  0.027414829	2.031000E+00
39	  0.027615231	-1.422000E+00	  0.027615231	1.735410E+02	  0.027615231	4.097000E+00	  0.027615231	2.802000E+00
40	  0.027815631	-1.445000E+00	  0.027815631	1.717610E+02	  0.027815631	4.172000E+00	  0.027815631	3.575000E+00
41	  0.028016033	-1.469000E+00	  0.028016033	1.699650E+02	  0.028016033	4.250000E+00	  0.028016033	4.358000E+00
42	  0.028216433	-1.495000E+00	  0.028216433	1.681560E+02	  0.028216433	4.340000E+00	  0.028216433	5.147000E+00
43	  0.028416833	-1.521000E+00	  0.028416833	1.663490E+02	  0.028416833	4.430000E+00	  0.028416833	5.938000E+00
44	  0.028617235	-1.548000E+00	  0.028617235	1.645230E+02	  0.028617235	4.526000E+00	  0.028617235	6.739000E+00
45	  0.028817635	-1.575000E+00	  0.028817635	1.627100E+02	  0.028817635	4.626000E+00	  0.028817635	7.538000E+00
46	  0.029018037	-1.602000E+00	  0.029018037	1.608900E+02	  0.029018037	4.729000E+00	  0.029018037	8.343000E+00
47	  0.029218437	-1.633000E+00	  0.029218437	1.590470E+02	  0.029218437	4.846000E+00	  0.029218437	9.161000E+00
48	  0.029418837	-1.663000E+00	  0.029418837	1.571880E+02	  0.029418837	4.965000E+00	  0.029418837	9.991000E+00
49	  0.029619239	-1.694000E+00	  0.029619239	1.553240E+02	  0.029619239	5.093000E+00	  0.029619239	1.082800E+01
50	  0.029819639	-1.725000E+00	  0.029819639	1.534480E+02	  0.029819639	5.223000E+00	  0.029819639	1.167500E+01
51	  0.030020041	-1.757000E+00	  0.030020041	1.515740E+02	  0.030020041	5.359000E+00	  0.030020041	1.252600E+01
52	  0.030220442	-1.788000E+00	  0.030220442	1.496920E+02	  0.030220442	5.501000E+00	  0.030220442	1.338800E+01
53	  0.030420844	-1.820000E+00	  0.030420844	1.478090E+02	  0.030420844	5.650000E+00	  0.030420844	1.425600E+01
54	  0.030621244	-1.855000E+00	  0.030621244	1.459240E+02	  0.030621244	5.812000E+00	  0.030621244	1.513200E+01
55	  0.030821642	-1.892000E+00	  0.030821642	1.440390E+02	  0.030821642	5.989000E+00	  0.030821642	1.601600E+01
56	  0.031022044	-1.925000E+00	  0.031022044	1.421080E+02	  0.031022044	6.160000E+00	  0.031022044	1.692900E+01
57	  0.031222444	-1.956000E+00	  0.031222444	1.402170E+02	  0.031222444	6.332000E+00	  0.031222444	1.783300E+01
58	  0.031422846	-1.994000E+00	  0.031422846	1.382580E+02	  0.031422846	6.534000E+00	  0.031422846	1.877800E+01
59	  0.031623244	-2.032000E+00	  0.031623244	1.363050E+02	  0.031623244	6.743000E+00	  0.031623244	1.973100E+01
60	  0.031823646	-2.070000E+00	  0.031823646	1.343330E+02	  0.031823646	6.964000E+00	  0.031823646	2.070400E+01
61	  0.032024048	-2.110000E+00	  0.032024048	1.323910E+02	  0.032024048	7.199000E+00	  0.032024048	2.167300E+01
62	  0.032224450	-2.149000E+00	  0.032224450	1.304160E+02	  0.032224450	7.446000E+00	  0.032224450	2.267000E+01
63	  0.032424849	-2.191000E+00	  0.032424849	1.284220E+02	  0.032424849	7.711000E+00	  0.032424849	2.369100E+01
64	  0.032625251	-2.232000E+00	  0.032625251	1.264350E+02	  0.032625251	7.985000E+00	  0.032625251	2.472100E+01
65	  0.032825653	-2.273000E+00	  0.032825653	1.244300E+02	  0.032825653	8.274000E+00	  0.032825653	2.577700E+01
66	  0.033026051	-2.315000E+00	  0.033026051	1.224080E+02	  0.033026051	8.581000E+00	  0.033026051	2.685700E+01
67	  0.033226453	-2.358000E+00	  0.033226453	1.203900E+02	  0.033226453	8.908000E+00	  0.033226453	2.795100E+01
68	  0.033426855	-2.401000E+00	  0.033426855	1.183530E+02	  0.033426855	9.249000E+00	  0.033426855	2.907500E+01
69	  0.033627257	-2.445000E+00	  0.033627257	1.163360E+02	  0.033627257	9.613000E+00	  0.033627257	3.020400E+01
70	  0.033827655	-2.488000E+00	  0.033827655	1.143330E+02	  0.033827655	9.992000E+00	  0.033827655	3.134600E+01
71	  0.034028057	-2.532000E+00	  0.034028057	1.122880E+02	  0.034028057	1.039800E+01	  0.034028057	3.253200E+01
72	  0.034228459	-2.580000E+00	  0.034228459	1.102640E+02	  0.034228459	1.083800E+01	  0.034228459	3.372400E+01
73	  0.034428857	-2.626000E+00	  0.034428857	1.082010E+02	  0.034428857	1.130100E+01	  0.034428857	3.496500E+01
74	  0.034629259	-2.672000E+00	  0.034629259	1.061270E+02	  0.034629259	1.178800E+01	  0.034629259	3.623800E+01
75	  0.034829661	-2.720000E+00	  0.034829661	1.040820E+02	  0.034829661	1.231100E+01	  0.034829661	3.751400E+01
76	  0.035030060	-2.767000E+00	  0.035030060	1.020090E+02	  0.035030060	1.286700E+01	  0.035030060	3.883600E+01
77	  0.035230462	-2.817000E+00	  0.035230462	9.993900E+01	  0.035230462	1.346600E+01	  0.035230462	4.018100E+01
78	  0.035430863	-2.865000E+00	  0.035430863	9.787500E+01	  0.035430863	1.409000E+01	  0.035430863	4.155200E+01
79	  0.035631265	-2.913000E+00	  0.035631265	9.581200E+01	  0.035631265	1.475700E+01	  0.035631265	4.295200E+01
80	  0.035831664	-2.963000E+00	  0.035831664	9.374000E+01	  0.035831664	1.547100E+01	  0.035831664	4.438800E+01
81	  0.036032066	-3.010000E+00	  0.036032066	9.166500E+01	  0.036032066	1.622200E+01	  0.036032066	4.586300E+01
82	  0.036232468	-3.059000E+00	  0.036232468	8.958300E+01	  0.036232468	1.703500E+01	  0.036232468	4.737300E+01
83	  0.036432866	-3.107000E+00	  0.036432866	8.749800E+01	  0.036432866	1.789500E+01	  0.036432866	4.892300E+01
84	  0.036633268	-3.152000E+00	  0.036633268	8.541100E+01	  0.036633268	1.879900E+01	  0.036633268	5.051700E+01
85	  0.036833670	-3.194000E+00	  0.036833670	8.332900E+01	  0.036833670	1.975100E+01	  0.036833670	5.215100E+01
86	  0.037034072	-3.238000E+00	  0.037034072	8.122200E+01	  0.037034072	2.078800E+01	  0.037034072	5.384400E+01
87	  0.037234470	-3.279000E+00	  0.037234470	7.911700E+01	  0.037234470	2.188200E+01	  0.037234470	5.558600E+01
88	  0.037434869	-3.313000E+00	  0.037434869	7.695000E+01	  0.037434869	2.304300E+01	  0.037434869	5.745000E+01
89	  0.037635271	-3.348000E+00	  0.037635271	7.473900E+01	  0.037635271	2.433200E+01	  0.037635271	5.940100E+01
90	  0.037835669	-3.389000E+00	  0.037835669	7.244800E+01	  0.037835669	2.579800E+01	  0.037835669	6.147000E+01
91	  0.038036071	-3.446000E+00	  0.038036071	7.008200E+01	  0.038036071	2.755000E+01	  0.038036071	6.360500E+01
92	  0.038236473	-3.517000E+00	  0.038236473	6.774800E+01	  0.038236473	2.953300E+01	  0.038236473	6.569200E+01
93	  0.038436871	-3.598000E+00	  0.038436871	6.548800E+01	  0.038436871	3.170600E+01	  0.038436871	6.768100E+01
94	  0.038637273	-3.677000E+00	  0.038637273	6.330000E+01	  0.038637273	3.398900E+01	  0.038637273	6.961100E+01
95	  0.038837675	-3.750000E+00	  0.038837675	6.118100E+01	  0.038837675	3.634200E+01	  0.038837675	7.150800E+01
96	  0.039038073	-3.816000E+00	  0.039038073	5.909500E+01	  0.039038073	3.880800E+01	  0.039038073	7.340000E+01
97	  0.039238475	-3.877000E+00	  0.039238475	5.699600E+01	  0.039238475	4.144800E+01	  0.039238475	7.533000E+01
98	  0.039438877	-3.939000E+00	  0.039438877	5.490900E+01	  0.039438877	4.428800E+01	  0.039438877	7.722800E+01
99	  0.039639279	-4.000000E+00	  0.039639279	5.281300E+01	  0.039639279	4.736700E+01	  0.039639279	7.910700E+01
100	  0.039839678	-4.057000E+00	  0.039839678	5.072300E+01	  0.039839678	5.065300E+01	  0.039839678	8.096700E+01
101	  0.040040080	-4.108000E+00	  0.040040080	4.861300E+01	  0.040040080	5.419700E+01	  0.040040080	8.283900E+01
102	  0.040240481	-4.161000E+00	  0.040240481	4.649500E+01	  0.040240481	5.806200E+01	  0.040240481	8.461500E+01
103	  0.040440880	-4.211000E+00	  0.040440880	4.438400E+01	  0.040440880	6.219900E+01	  0.040440880	8.631100E+01
104	  0.040641282	-4.263000E+00	  0.040641282	4.228900E+01	  0.040641282	6.665600E+01	  0.040641282	8.781100E+01
105	  0.040841684	-4.315000E+00	  0.040841684	4.019400E+01	  0.040841684	7.145500E+01	  0.040841684	8.911600E+01
106	  0.041042086	-4.366000E+00	  0.041042086	3.811800E+01	  0.041042086	7.656200E+01	  0.041042086	9.016600E+01
107	  0.041242484	-4.417000E+00	  0.041242484	3.602400E+01	  0.041242484	8.207000E+01	  0.041242484	9.093900E+01
108	  0.041442886	-4.466000E+00	  0.041442886	3.392600E+01	  0.041442886	8.795000E+01	  0.041442886	9.136900E+01
109	  0.041643288	-4.515000E+00	  0.041643288	3.181900E+01	  0.041643288	9.421400E+01	  0.041643288	9.137900E+01
110	  0.041843686	-4.565000E+00	  0.041843686	2.971600E+01	  0.041843686	1.008140E+02	  0.041843686	9.083500E+01
111	  0.042044088	-4.614000E+00	  0.042044088	2.762400E+01	  0.042044088	1.076770E+02	  0.042044088	8.970300E+01
112	  0.042244490	-4.658000E+00	  0.042244490	2.555000E+01	  0.042244490	1.147300E+02	  0.042244490	8.797800E+01
113	  0.042444889	-4.706000E+00	  0.042444889	2.348600E+01	  0.042444889	1.219060E+02	  0.042444889	8.542100E+01
114	  0.042645290	-4.754000E+00	  0.042645290	2.142500E+01	  0.042645290	1.291220E+02	  0.042645290	8.200400E+01
115	  0.042845692	-4.802000E+00	  0.042845692	1.937400E+01	  0.042845692	1.362370E+02	  0.042845692	7.772100E+01
116	  0.043046094	-4.845000E+00	  0.043046094	1.731300E+01	  0.043046094	1.432370E+02	  0.043046094	7.258600E+01
117	  0.043246493	-4.890000E+00	  0.043246493	1.525800E+01	  0.043246493	1.498180E+02	  0.043246493	6.646000E+01
118	  0.043446895	-4.934000E+00	  0.043446895	1.321400E+01	  0.043446895	1.558400E+02	  0.043446895	5.945900E+01
119	  0.043647297	-4.972000E+00	  0.043647297	1.117100E+01	  0.043647297	1.612670E+02	  0.043647297	5.170200E+01
120	  0.043847695	-5.014000E+00	  0.043847695	9.147000E+00	  0.043847695	1.656870E+02	  0.043847695	4.318100E+01
121	  0.044048097	-5.055000E+00	  0.044048097	7.141000E+00	  0.044048097	1.690940E+02	  0.044048097	3.415400E+01
122	  0.044248499	-5.095000E+00	  0.044248499	5.119000E+00	  0.044248499	1.714450E+02	  0.044248499	2.463700E+01
123	  0.044448901	-5.134000E+00	  0.044448901	3.129000E+00	  0.044448901	1.726380E+02	  0.044448901	1.505200E+01
124	  0.044649299	-5.170000E+00	  0.044649299	1.130000E+00	  0.044649299	1.727220E+02	  0.044649299	5.398000E+00
125	  0.044849701	-5.209000E+00	  0.044849701	-8.400000E-01	  0.044849701	1.716000E+02	  0.044849701	-3.955000E+00
126	  0.045050103	-5.241000E+00	  0.045050103	-2.827000E+00	  0.045050103	1.696080E+02	  0.045050103	-1.305600E+01
127	  0.045250501	-5.274000E+00	  0.045250501	-4.793000E+00	  0.045250501	1.666480E+02	  0.045250501	-2.158100E+01
128	  0.045450903	-5.302000E+00	  0.045450903	-6.762000E+00	  0.045450903	1.629550E+02	  0.045450903	-2.956000E+01
129	  0.045651305	-5.337000E+00	  0.045651305	-8.723000E+00	  0.045651305	1.584070E+02	  0.045651305	-3.673900E+01
130	  0.045851704	-5.368000E+00	  0.045851704	-1.064200E+01	  0.045851704	1.535170E+02	  0.045851704	-4.307500E+01
131	  0.046052102	-5.396000E+00	  0.046052102	-1.258100E+01	  0.046052102	1.482390E+02	  0.046052102	-4.877500E+01
132	  0.046252504	-5.427000E+00	  0.046252504	-1.449400E+01	  0.046252504	1.426960E+02	  0.046252504	-5.360300E+01
133	  0.046452906	-5.457000E+00	  0.046452906	-1.639000E+01	  0.046452906	1.370570E+02	  0.046452906	-5.768600E+01
134	  0.046653304	-5.480000E+00	  0.046653304	-1.829800E+01	  0.046653304	1.314090E+02	  0.046653304	-6.123700E+01
135	  0.046853706	-5.510000E+00	  0.046853706	-2.018400E+01	  0.046853706	1.257610E+02	  0.046853706	-6.401700E+01
136	  0.047054108	-5.535000E+00	  0.047054108	-2.207600E+01	  0.047054108	1.202230E+02	  0.047054108	-6.632100E+01
137	  0.047254506	-5.559000E+00	  0.047254506	-2.396000E+01	  0.047254506	1.148350E+02	  0.047254506	-6.811000E+01
138	  0.047454908	-5.579000E+00	  0.047454908	-2.582800E+01	  0.047454908	1.096720E+02	  0.047454908	-6.950000E+01
139	  0.047655310	-5.601000E+00	  0.047655310	-2.767400E+01	  0.047655310	1.047370E+02	  0.047655310	-7.044300E+01
140	  0.047855709	-5.622000E+00	  0.047855709	-2.949600E+01	  0.047855709	1.000560E+02	  0.047855709	-7.103500E+01
141	  0.048056111	-5.646000E+00	  0.048056111	-3.132400E+01	  0.048056111	9.555900E+01	  0.048056111	-7.129300E+01
142	  0.048256513	-5.669000E+00	  0.048256513	-3.312000E+01	  0.048256513	9.135100E+01	  0.048256513	-7.129900E+01
143	  0.048456915	-5.688000E+00	  0.048456915	-3.492000E+01	  0.048456915	8.734400E+01	  0.048456915	-7.114300E+01
144	  0.048657313	-5.708000E+00	  0.048657313	-3.670900E+01	  0.048657313	8.356200E+01	  0.048657313	-7.079900E+01
145	  0.048857715	-5.725000E+00	  0.048857715	-3.852100E+01	  0.048857715	7.992900E+01	  0.048857715	-7.031800E+01
146	  0.049058117	-5.744000E+00	  0.049058117	-4.029900E+01	  0.049058117	7.655700E+01	  0.049058117	-6.968400E+01
147	  0.049258515	-5.758000E+00	  0.049258515	-4.205200E+01	  0.049258515	7.340400E+01	  0.049258515	-6.899400E+01
148	  0.049458917	-5.776000E+00	  0.049458917	-4.379400E+01	  0.049458917	7.044700E+01	  0.049458917	-6.817300E+01
149	  0.049659319	-5.793000E+00	  0.049659319	-4.551600E+01	  0.049659319	6.767900E+01	  0.049659319	-6.729700E+01
150	  0.049859721	-5.807000E+00	  0.049859721	-4.725000E+01	  0.049859721	6.503800E+01	  0.049859721	-6.637000E+01
151	  0.050060119	-5.827000E+00	  0.050060119	-4.897000E+01	  0.050060119	6.257900E+01	  0.050060119	-6.534800E+01
152	  0.050260521	-5.841000E+00	  0.050260521	-5.068300E+01	  0.050260521	6.024400E+01	  0.050260521	-6.434500E+01
153	  0.050460923	-5.853000E+00	  0.050460923	-5.238200E+01	  0.050460923	5.804600E+01	  0.050460923	-6.333000E+01
154	  0.050661322	-5.863000E+00	  0.050661322	-5.406700E+01	  0.050661322	5.597800E+01	  0.050661322	-6.230600E+01
155	  0.050861724	-5.873000E+00	  0.050861724	-5.574400E+01	  0.050861724	5.402700E+01	  0.050861724	-6.126200E+01
156	  0.051062126	-5.886000E+00	  0.051062126	-5.741000E+01	  0.051062126	5.220400E+01	  0.051062126	-6.018300E+01
157	  0.051262524	-5.899000E+00	  0.051262524	-5.907400E+01	  0.051262524	5.047400E+01	  0.051262524	-5.910200E+01
158	  0.051462926	-5.909000E+00	  0.051462926	-6.069900E+01	  0.051462926	4.886400E+01	  0.051462926	-5.805300E+01
159	  0.051663328	-5.919000E+00	  0.051663328	-6.232900E+01	  0.051663328	4.733200E+01	  0.051663328	-5.699000E+01
160	  0.051863730	-5.928000E+00	  0.051863730	-6.396000E+01	  0.051863730	4.587000E+01	  0.051863730	-5.593600E+01
161	  0.052064128	-5.936000E+00	  0.052064128	-6.556700E+01	  0.052064128	4.449700E+01	  0.052064128	-5.490200E+01
162	  0.052264530	-5.940000E+00	  0.052264530	-6.716000E+01	  0.052264530	4.318600E+01	  0.052264530	-5.389600E+01
163	  0.052464932	-5.945000E+00	  0.052464932	-6.877500E+01	  0.052464932	4.192800E+01	  0.052464932	-5.287000E+01
164	  0.052665330	-5.953000E+00	  0.052665330	-7.032600E+01	  0.052665330	4.078700E+01	  0.052665330	-5.187600E+01
165	  0.052865732	-5.961000E+00	  0.052865732	-7.189100E+01	  0.052865732	3.969200E+01	  0.052865732	-5.087300E+01
166	  0.053066134	-5.969000E+00	  0.053066134	-7.343500E+01	  0.053066134	3.865700E+01	  0.053066134	-4.989600E+01
167	  0.053266536	-5.974000E+00	  0.053266536	-7.496200E+01	  0.053266536	3.767500E+01	  0.053266536	-4.894400E+01
168	  0.053466935	-5.980000E+00	  0.053466935	-7.652700E+01	  0.053466935	3.671300E+01	  0.053466935	-4.797200E+01
169	  0.053667337	-5.986000E+00	  0.053667337	-7.805000E+01	  0.053667337	3.582100E+01	  0.053667337	-4.703500E+01
170	  0.053867739	-5.989000E+00	  0.053867739	-7.956100E+01	  0.053867739	3.496500E+01	  0.053867739	-4.612000E+01
171	  0.054068137	-5.994000E+00	  0.054068137	-8.106800E+01	  0.054068137	3.415100E+01	  0.054068137	-4.521200E+01
172	  0.054268539	-5.998000E+00	  0.054268539	-8.255900E+01	  0.054268539	3.338200E+01	  0.054268539	-4.432200E+01
173	  0.054468941	-6.006000E+00	  0.054468941	-8.404900E+01	  0.054468941	3.265900E+01	  0.054468941	-4.342800E+01
174	  0.054669335	-6.013000E+00	  0.054669335	-8.550000E+01	  0.054669335	3.198200E+01	  0.054669335	-4.256800E+01
175	  0.054869737	-6.019000E+00	  0.054869737	-8.694200E+01	  0.054869737	3.133100E+01	  0.054869737	-4.172700E+01
176	  0.055070139	-6.026000E+00	  0.055070139	-8.837900E+01	  0.055070139	3.071400E+01	  0.055070139	-4.089300E+01
177	  0.055270538	-6.030000E+00	  0.055270538	-8.981000E+01	  0.055270538	3.011500E+01	  0.055270538	-4.007900E+01
178	  0.055470940	-6.032000E+00	  0.055470940	-9.123600E+01	  0.055470940	2.953500E+01	  0.055470940	-3.927900E+01
179	  0.055671342	-6.033000E+00	  0.055671342	-9.265600E+01	  0.055671342	2.897400E+01	  0.055671342	-3.849500E+01
180	  0.055871744	-6.038000E+00	  0.055871744	-9.405700E+01	  0.055871744	2.845600E+01	  0.055871744	-3.771800E+01
181	  0.056072142	-6.038000E+00	  0.056072142	-9.544100E+01	  0.056072142	2.794900E+01	  0.056072142	-3.696800E+01
182	  0.056272544	-6.042000E+00	  0.056272544	-9.680700E+01	  0.056272544	2.747800E+01	  0.056272544	-3.622700E+01
183	  0.056472946	-6.044000E+00	  0.056472946	-9.819100E+01	  0.056472946	2.701300E+01	  0.056472946	-3.548800E+01
184	  0.056673344	-6.044000E+00	  0.056673344	-9.952000E+01	  0.056673344	2.657800E+01	  0.056673344	-3.478700E+01
185	  0.056873746	-6.046000E+00	  0.056873746	-1.008610E+02	  0.056873746	2.615800E+01	  0.056873746	-3.408400E+01
186	  0.057074148	-6.042000E+00	  0.057074148	-1.021810E+02	  0.057074148	2.574200E+01	  0.057074148	-3.340800E+01
187	  0.057274550	-6.042000E+00	  0.057274550	-1.035260E+02	  0.057274550	2.534500E+01	  0.057274550	-3.271800E+01
188	  0.057474948	-6.042000E+00	  0.057474948	-1.048530E+02	  0.057474948	2.496700E+01	  0.057474948	-3.204300E+01
189	  0.057675350	-6.039000E+00	  0.057675350	-1.061760E+02	  0.057675350	2.459400E+01	  0.057675350	-3.138100E+01
190	  0.057875752	-6.036000E+00	  0.057875752	-1.074830E+02	  0.057875752	2.423700E+01	  0.057875752	-3.073200E+01
191	  0.058076151	-6.034000E+00	  0.058076151	-1.087840E+02	  0.058076151	2.390100E+01	  0.058076151	-3.008800E+01
192	  0.058276553	-6.033000E+00	  0.058276553	-1.100820E+02	  0.058276553	2.357500E+01	  0.058276553	-2.945100E+01
193	  0.058476955	-6.025000E+00	  0.058476955	-1.113550E+02	  0.058476955	2.324800E+01	  0.058476955	-2.884100E+01
194	  0.058677353	-6.022000E+00	  0.058677353	-1.126540E+02	  0.058677353	2.293900E+01	  0.058677353	-2.821500E+01
195	  0.058877755	-6.016000E+00	  0.058877755	-1.139360E+02	  0.058877755	2.263700E+01	  0.058877755	-2.760600E+01
196	  0.059078157	-6.009000E+00	  0.059078157	-1.152160E+02	  0.059078157	2.233700E+01	  0.059078157	-2.700500E+01
197	  0.059278559	-6.003000E+00	  0.059278559	-1.164980E+02	  0.059278559	2.205300E+01	  0.059278559	-2.640500E+01
198	  0.059478957	-5.996000E+00	  0.059478957	-1.177850E+02	  0.059478957	2.177700E+01	  0.059478957	-2.580500E+01
199	  0.059679359	-5.996000E+00	  0.059679359	-1.190380E+02	  0.059679359	2.153500E+01	  0.059679359	-2.522000E+01
200	  0.059879761	-5.988000E+00	  0.059879761	-1.203030E+02	  0.059879761	2.127300E+01	  0.059879761	-2.464200E+01
201	  0.060080159	-5.986000E+00	  0.060080159	-1.215340E+02	  0.060080159	2.104600E+01	  0.060080159	-2.407600E+01
202	  0.060280561	-5.983000E+00	  0.060280561	-1.227730E+02	  0.060280561	2.082100E+01	  0.060280561	-2.351100E+01
203	  0.060480963	-5.981000E+00	  0.060480963	-1.240130E+02	  0.060480963	2.060900E+01	  0.060480963	-2.294700E+01
204	  0.060681365	-5.977000E+00	  0.060681365	-1.252550E+02	  0.060681365	2.039500E+01	  0.060681365	-2.239000E+01
205	  0.060881764	-5.973000E+00	  0.060881764	-1.264710E+02	  0.060881764	2.019200E+01	  0.060881764	-2.184700E+01
206	  0.061082166	-5.970000E+00	  0.061082166	-1.277120E+02	  0.061082166	1.999400E+01	  0.061082166	-2.129600E+01
207	  0.061282568	-5.969000E+00	  0.061282568	-1.289220E+02	  0.061282568	1.981700E+01	  0.061282568	-2.075800E+01
208	  0.061482966	-5.963000E+00	  0.061482966	-1.301300E+02	  0.061482966	1.962900E+01	  0.061482966	-2.023000E+01
209	  0.061683368	-5.966000E+00	  0.061683368	-1.313380E+02	  0.061683368	1.947100E+01	  0.061683368	-1.969800E+01
210	  0.061883770	-5.963000E+00	  0.061883770	-1.325310E+02	  0.061883770	1.930600E+01	  0.061883770	-1.917900E+01
211	  0.062084168	-5.963000E+00	  0.062084168	-1.337140E+02	  0.062084168	1.915700E+01	  0.062084168	-1.866500E+01
212	  0.062284570	-5.960000E+00	  0.062284570	-1.348780E+02	  0.062284570	1.900400E+01	  0.062284570	-1.816500E+01
213	  0.062484972	-5.952000E+00	  0.062484972	-1.360500E+02	  0.062484972	1.884300E+01	  0.062484972	-1.766700E+01
214	  0.062685370	-5.951000E+00	  0.062685370	-1.372170E+02	  0.062685370	1.870700E+01	  0.062685370	-1.716900E+01
215	  0.062885776	-5.948000E+00	  0.062885776	-1.383630E+02	  0.062885776	1.857300E+01	  0.062885776	-1.668300E+01
216	  0.063086174	-5.949000E+00	  0.063086174	-1.395500E+02	  0.063086174	1.844800E+01	  0.063086174	-1.618000E+01
217	  0.063286573	-5.948000E+00	  0.063286573	-1.407130E+02	  0.063286573	1.832700E+01	  0.063286573	-1.569000E+01
218	  0.063486971	-5.949000E+00	  0.063486971	-1.418490E+02	  0.063486971	1.821900E+01	  0.063486971	-1.521200E+01
219	  0.063687377	-5.946000E+00	  0.063687377	-1.429500E+02	  0.063687377	1.810600E+01	  0.063687377	-1.475400E+01
220	  0.063887775	-5.946000E+00	  0.063887775	-1.440950E+02	  0.063887775	1.799900E+01	  0.063887775	-1.427800E+01
221	  0.064088173	-5.947000E+00	  0.064088173	-1.452320E+02	  0.064088173	1.790400E+01	  0.064088173	-1.380600E+01
222	  0.064288579	-5.949000E+00	  0.064288579	-1.463640E+02	  0.064288579	1.781200E+01	  0.064288579	-1.333700E+01
223	  0.064488977	-5.952000E+00	  0.064488977	-1.474990E+02	  0.064488977	1.772900E+01	  0.064488977	-1.286900E+01
224	  0.064689375	-5.951000E+00	  0.064689375	-1.485990E+02	  0.064689375	1.764200E+01	  0.064689375	-1.241900E+01
225	  0.064889781	-5.955000E+00	  0.064889781	-1.497270E+02	  0.064889781	1.756800E+01	  0.064889781	-1.195600E+01
226	  0.065090179	-5.958000E+00	  0.065090179	-1.508140E+02	  0.065090179	1.749700E+01	  0.065090179	-1.151300E+01
227	  0.065290578	-5.960000E+00	  0.065290578	-1.518940E+02	  0.065290578	1.742800E+01	  0.065290578	-1.107400E+01
228	  0.065490983	-5.960000E+00	  0.065490983	-1.529810E+02	  0.065490983	1.735500E+01	  0.065490983	-1.063500E+01
229	  0.065691382	-5.961000E+00	  0.065691382	-1.540700E+02	  0.065691382	1.729100E+01	  0.065691382	-1.019600E+01
230	  0.065891780	-5.964000E+00	  0.065891780	-1.551290E+02	  0.065891780	1.723400E+01	  0.065891780	-9.769000E+00
231	  0.066092186	-5.967000E+00	  0.066092186	-1.561950E+02	  0.066092186	1.718000E+01	  0.066092186	-9.341000E+00
232	  0.066292584	-5.972000E+00	  0.066292584	-1.572380E+02	  0.066292584	1.713800E+01	  0.066292584	-8.922000E+00
233	  0.066492982	-5.975000E+00	  0.066492982	-1.583290E+02	  0.066492982	1.708700E+01	  0.066492982	-8.487000E+00
234	  0.066693388	-5.978000E+00	  0.066693388	-1.593540E+02	  0.066693388	1.704600E+01	  0.066693388	-8.078000E+00
235	  0.066893786	-5.983000E+00	  0.066893786	-1.603890E+02	  0.066893786	1.700900E+01	  0.066893786	-7.666000E+00
236	  0.067094192	-5.987000E+00	  0.067094192	-1.614020E+02	  0.067094192	1.697600E+01	  0.067094192	-7.264000E+00
237	  0.067294590	-5.992000E+00	  0.067294590	-1.624340E+02	  0.067294590	1.694700E+01	  0.067294590	-6.855000E+00
238	  0.067494988	-5.994000E+00	  0.067494988	-1.634350E+02	  0.067494988	1.691200E+01	  0.067494988	-6.461000E+00
239	  0.067695394	-5.998000E+00	  0.067695394	-1.644540E+02	  0.067695394	1.688500E+01	  0.067695394	-6.059000E+00
240	  0.067895792	-6.003000E+00	  0.067895792	-1.654520E+02	  0.067895792	1.686200E+01	  0.067895792	-5.666000E+00
241	  0.068096191	-6.012000E+00	  0.068096191	-1.664730E+02	  0.068096191	1.685200E+01	  0.068096191	-5.264000E+00
242	  0.068296596	-6.013000E+00	  0.068296596	-1.674620E+02	  0.068296596	1.682600E+01	  0.068296596	-4.877000E+00
243	  0.068496995	-6.019000E+00	  0.068496995	-1.684610E+02	  0.068496995	1.681400E+01	  0.068496995	-4.485000E+00
244	  0.068697393	-6.023000E+00	  0.068697393	-1.694180E+02	  0.068697393	1.680200E+01	  0.068697393	-4.111000E+00
245	  0.068897791	-6.026000E+00	  0.068897791	-1.704050E+02	  0.068897791	1.678500E+01	  0.068897791	-3.726000E+00
246	  0.069098189	-6.023000E+00	  0.069098189	-1.713670E+02	  0.069098189	1.675900E+01	  0.069098189	-3.351000E+00
247	  0.069298595	-6.028000E+00	  0.069298595	-1.723670E+02	  0.069298595	1.675300E+01	  0.069298595	-2.962000E+00
248	  0.069498993	-6.029000E+00	  0.069498993	-1.732890E+02	  0.069498993	1.674000E+01	  0.069498993	-2.603000E+00
249	  0.069699399	-6.035000E+00	  0.069699399	-1.742900E+02	  0.069699399	1.674100E+01	  0.069699399	-2.214000E+00
250	  0.069899797	-6.038000E+00	  0.069899797	-1.752510E+02	  0.069899797	1.673800E+01	  0.069899797	-1.841000E+00
251	  0.070100196	-6.040000E+00	  0.070100196	-1.761960E+02	  0.070100196	1.673300E+01	  0.070100196	-1.474000E+00
252	  0.070300601	-6.040000E+00	  0.070300601	-1.771280E+02	  0.070300601	1.672600E+01	  0.070300601	-1.113000E+00
253	  0.070501000	-6.042000E+00	  0.070501000	-1.780850E+02	  0.070501000	1.672600E+01	  0.070501000	-7.410000E-01
254	  0.070701398	-6.044000E+00	  0.070701398	-1.790430E+02	  0.070701398	1.672900E+01	  0.070701398	-3.700000E-01
255	  0.070901804	-6.044000E+00	  0.070901804	-1.799570E+02	  0.070901804	1.672600E+01	  0.070901804	-1.600000E-02
256	  0.071102202	-6.046000E+00	  0.071102202	1.790960E+02	  0.071102202	1.673400E+01	  0.071102202	3.500000E-01
257	  0.071302600	-6.050000E+00	  0.071302600	1.781510E+02	  0.071302600	1.674600E+01	  0.071302600	7.160000E-01
258	  0.071503006	-6.054000E+00	  0.071503006	1.772380E+02	  0.071503006	1.676100E+01	  0.071503006	1.069000E+00
259	  0.071703404	-6.054000E+00	  0.071703404	1.763030E+02	  0.071703404	1.676900E+01	  0.071703404	1.432000E+00
260	  0.071903802	-6.058000E+00	  0.071903802	1.753530E+02	  0.071903802	1.678700E+01	  0.071903802	1.800000E+00
261	  0.072104208	-6.062000E+00	  0.072104208	1.744400E+02	  0.072104208	1.680900E+01	  0.072104208	2.153000E+00
262	  0.072304606	-6.066000E+00	  0.072304606	1.735090E+02	  0.072304606	1.683100E+01	  0.072304606	2.514000E+00
263	  0.072505005	-6.066000E+00	  0.072505005	1.726020E+02	  0.072505005	1.684500E+01	  0.072505005	2.866000E+00
264	  0.072705410	-6.068000E+00	  0.072705410	1.716850E+02	  0.072705410	1.686800E+01	  0.072705410	3.222000E+00
265	  0.072905809	-6.077000E+00	  0.072905809	1.707430E+02	  0.072905809	1.691000E+01	  0.072905809	3.587000E+00
266	  0.073106214	-6.080000E+00	  0.073106214	1.698230E+02	  0.073106214	1.693800E+01	  0.073106214	3.944000E+00
267	  0.073306613	-6.084000E+00	  0.073306613	1.689190E+02	  0.073306613	1.696900E+01	  0.073306613	4.295000E+00
268	  0.073507011	-6.090000E+00	  0.073507011	1.679800E+02	  0.073507011	1.701000E+01	  0.073507011	4.660000E+00
269	  0.073707417	-6.098000E+00	  0.073707417	1.670790E+02	  0.073707417	1.705500E+01	  0.073707417	5.010000E+00
270	  0.073907815	-6.102000E+00	  0.073907815	1.661680E+02	  0.073907815	1.709500E+01	  0.073907815	5.364000E+00
271	  0.074108213	-6.108000E+00	  0.074108213	1.652610E+02	  0.074108213	1.714000E+01	  0.074108213	5.717000E+00
272	  0.074308619	-6.111000E+00	  0.074308619	1.643650E+02	  0.074308619	1.718100E+01	  0.074308619	6.067000E+00
273	  0.074509017	-6.121000E+00	  0.074509017	1.634720E+02	  0.074509017	1.723900E+01	  0.074509017	6.414000E+00
274	  0.074709415	-6.129000E+00	  0.074709415	1.625690E+02	  0.074709415	1.729400E+01	  0.074709415	6.766000E+00
275	  0.074909821	-6.135000E+00	  0.074909821	1.616530E+02	  0.074909821	1.734900E+01	  0.074909821	7.123000E+00
276	  0.075110219	-6.143000E+00	  0.075110219	1.607710E+02	  0.075110219	1.741100E+01	  0.075110219	7.468000E+00
277	  0.075310618	-6.149000E+00	  0.075310618	1.598710E+02	  0.075310618	1.746700E+01	  0.075310618	7.820000E+00
278	  0.075511023	-6.156000E+00	  0.075511023	1.589760E+02	  0.075511023	1.752900E+01	  0.075511023	8.170000E+00
279	  0.075711422	-6.160000E+00	  0.075711422	1.581140E+02	  0.075711422	1.758300E+01	  0.075711422	8.509000E+00
280	  0.075911827	-6.172000E+00	  0.075911827	1.572380E+02	  0.075911827	1.766200E+01	  0.075911827	8.851000E+00
281	  0.076112226	-6.178000E+00	  0.076112226	1.563310E+02	  0.076112226	1.772800E+01	  0.076112226	9.208000E+00
282	  0.076312624	-6.189000E+00	  0.076312624	1.554640E+02	  0.076312624	1.780700E+01	  0.076312624	9.548000E+00
283	  0.076513030	-6.198000E+00	  0.076513030	1.545670E+02	  0.076513030	1.788600E+01	  0.076513030	9.900000E+00
284	  0.076713428	-6.205000E+00	  0.076713428	1.537090E+02	  0.076713428	1.795800E+01	  0.076713428	1.023900E+01
285	  0.076913826	-6.217000E+00	  0.076913826	1.528370E+02	  0.076913826	1.804500E+01	  0.076913826	1.058200E+01
286	  0.077114232	-6.225000E+00	  0.077114232	1.519870E+02	  0.077114232	1.812400E+01	  0.077114232	1.091700E+01
287	  0.077314630	-6.236000E+00	  0.077314630	1.511280E+02	  0.077314630	1.821500E+01	  0.077314630	1.125600E+01
288	  0.077515028	-6.242000E+00	  0.077515028	1.503070E+02	  0.077515028	1.829000E+01	  0.077515028	1.158200E+01
289	  0.077715434	-6.256000E+00	  0.077715434	1.494030E+02	  0.077715434	1.839500E+01	  0.077715434	1.193900E+01
290	  0.077915832	-6.266000E+00	  0.077915832	1.485900E+02	  0.077915832	1.848500E+01	  0.077915832	1.226100E+01
291	  0.078116231	-6.280000E+00	  0.078116231	1.477410E+02	  0.078116231	1.859000E+01	  0.078116231	1.259600E+01
292	  0.078316636	-6.289000E+00	  0.078316636	1.468870E+02	  0.078316636	1.868500E+01	  0.078316636	1.293600E+01
293	  0.078517035	-6.300000E+00	  0.078517035	1.460310E+02	  0.078517035	1.878900E+01	  0.078517035	1.327600E+01
294	  0.078717433	-6.314000E+00	  0.078717433	1.452010E+02	  0.078717433	1.889900E+01	  0.078717433	1.360500E+01
295	  0.078917839	-6.327000E+00	  0.078917839	1.443610E+02	  0.078917839	1.901100E+01	  0.078917839	1.393900E+01
296	  0.079118237	-6.337000E+00	  0.079118237	1.435470E+02	  0.079118237	1.911400E+01	  0.079118237	1.426400E+01
297	  0.079318643	-6.353000E+00	  0.079318643	1.427010E+02	  0.079318643	1.923700E+01	  0.079318643	1.460000E+01
298	  0.079519041	-6.368000E+00	  0.079519041	1.418960E+02	  0.079519041	1.936000E+01	  0.079519041	1.491900E+01
299	  0.079719439	-6.377000E+00	  0.079719439	1.410820E+02	  0.079719439	1.946700E+01	  0.079719439	1.524700E+01
300	  0.079919845	-6.395000E+00	  0.079919845	1.402520E+02	  0.079919845	1.960300E+01	  0.079919845	1.557600E+01
301	  0.080120243	-6.407000E+00	  0.080120243	1.394350E+02	  0.080120243	1.972300E+01	  0.080120243	1.590500E+01
302	  0.080320641	-6.421000E+00	  0.080320641	1.386150E+02	  0.080320641	1.985200E+01	  0.080320641	1.623300E+01
303	  0.080521047	-6.437000E+00	  0.080521047	1.378010E+02	  0.080521047	1.998900E+01	  0.080521047	1.655800E+01
304	  0.080721445	-6.453000E+00	  0.080721445	1.370060E+02	  0.080721445	2.012500E+01	  0.080721445	1.687600E+01
305	  0.080921844	-6.471000E+00	  0.080921844	1.362060E+02	  0.080921844	2.027100E+01	  0.080921844	1.719400E+01
306	  0.081122249	-6.483000E+00	  0.081122249	1.354130E+02	  0.081122249	2.040200E+01	  0.081122249	1.751400E+01
307	  0.081322648	-6.502000E+00	  0.081322648	1.345960E+02	  0.081322648	2.055800E+01	  0.081322648	1.784000E+01
308	  0.081523046	-6.516000E+00	  0.081523046	1.338230E+02	  0.081523046	2.069600E+01	  0.081523046	1.815200E+01
309	  0.081723452	-6.534000E+00	  0.081723452	1.330400E+02	  0.081723452	2.085100E+01	  0.081723452	1.846400E+01
310	  0.081923850	-6.546000E+00	  0.081923850	1.322460E+02	  0.081923850	2.099000E+01	  0.081923850	1.878800E+01
311	  0.082124248	-6.562000E+00	  0.082124248	1.314610E+02	  0.082124248	2.114500E+01	  0.082124248	1.910400E+01
312	  0.082324654	-6.578000E+00	  0.082324654	1.306570E+02	  0.082324654	2.130500E+01	  0.082324654	1.942800E+01
313	  0.082525052	-6.595000E+00	  0.082525052	1.299130E+02	  0.082525052	2.146100E+01	  0.082525052	1.972700E+01
314	  0.082725458	-6.612000E+00	  0.082725458	1.291620E+02	  0.082725458	2.162000E+01	  0.082725458	2.002900E+01
315	  0.082925856	-6.633000E+00	  0.082925856	1.283970E+02	  0.082925856	2.179600E+01	  0.082925856	2.033300E+01
316	  0.083126254	-6.650000E+00	  0.083126254	1.276370E+02	  0.083126254	2.196300E+01	  0.083126254	2.063900E+01
317	  0.083326660	-6.666000E+00	  0.083326660	1.268790E+02	  0.083326660	2.212900E+01	  0.083326660	2.094600E+01
318	  0.083527058	-6.683000E+00	  0.083527058	1.261280E+02	  0.083527058	2.230100E+01	  0.083527058	2.124900E+01
319	  0.083727457	-6.707000E+00	  0.083727457	1.253570E+02	  0.083727457	2.249600E+01	  0.083727457	2.155300E+01
320	  0.083927862	-6.723000E+00	  0.083927862	1.246220E+02	  0.083927862	2.266700E+01	  0.083927862	2.185100E+01
321	  0.084128261	-6.742000E+00	  0.084128261	1.238760E+02	  0.084128261	2.285200E+01	  0.084128261	2.215000E+01
322	  0.084328659	-6.764000E+00	  0.084328659	1.231260E+02	  0.084328659	2.304900E+01	  0.084328659	2.244800E+01
323	  0.084529065	-6.785000E+00	  0.084529065	1.224250E+02	  0.084529065	2.323700E+01	  0.084529065	2.272500E+01
324	  0.084729463	-6.804000E+00	  0.084729463	1.216690E+02	  0.084729463	2.343200E+01	  0.084729463	2.302800E+01
325	  0.084929854	-6.825000E+00	  0.084929854	1.209370E+02	  0.084929854	2.363200E+01	  0.084929854	2.331900E+01
326	  0.085130259	-6.847000E+00	  0.085130259	1.201890E+02	  0.085130259	2.384000E+01	  0.085130259	2.361600E+01
327	  0.085330658	-6.864000E+00	  0.085330658	1.194340E+02	  0.085330658	2.404000E+01	  0.085330658	2.392100E+01
328	  0.085531056	-6.887000E+00	  0.085531056	1.187220E+02	  0.085531056	2.424900E+01	  0.085531056	2.420100E+01
329	  0.085731462	-6.909000E+00	  0.085731462	1.179940E+02	  0.085731462	2.446300E+01	  0.085731462	2.448900E+01
330	  0.085931860	-6.930000E+00	  0.085931860	1.172780E+02	  0.085931860	2.467600E+01	  0.085931860	2.477100E+01
331	  0.086132258	-6.951000E+00	  0.086132258	1.165680E+02	  0.086132258	2.488700E+01	  0.086132258	2.505300E+01
332	  0.086332664	-6.975000E+00	  0.086332664	1.158960E+02	  0.086332664	2.510600E+01	  0.086332664	2.531200E+01
333	  0.086533062	-7.000000E+00	  0.086533062	1.151740E+02	  0.086533062	2.533900E+01	  0.086533062	2.559200E+01
334	  0.086733460	-7.023000E+00	  0.086733460	1.144570E+02	  0.086733460	2.557000E+01	  0.086733460	2.587200E+01
335	  0.086933866	-7.043000E+00	  0.086933866	1.137480E+02	  0.086933866	2.579400E+01	  0.086933866	2.615300E+01
336	  0.087134264	-7.064000E+00	  0.087134264	1.130370E+02	  0.087134264	2.602400E+01	  0.087134264	2.643200E+01
337	  0.087334670	-7.086000E+00	  0.087334670	1.123530E+02	  0.087334670	2.625400E+01	  0.087334670	2.669800E+01
338	  0.087535068	-7.118000E+00	  0.087535068	1.116510E+02	  0.087535068	2.651900E+01	  0.087535068	2.695600E+01
339	  0.087735467	-7.143000E+00	  0.087735467	1.109640E+02	  0.087735467	2.676400E+01	  0.087735467	2.721700E+01
340	  0.087935872	-7.166000E+00	  0.087935872	1.102930E+02	  0.087935872	2.700600E+01	  0.087935872	2.747200E+01
341	  0.088136271	-7.195000E+00	  0.088136271	1.096140E+02	  0.088136271	2.726600E+01	  0.088136271	2.772300E+01
342	  0.088336669	-7.215000E+00	  0.088336669	1.089300E+02	  0.088336669	2.750700E+01	  0.088336669	2.798900E+01
343	  0.088537075	-7.243000E+00	  0.088537075	1.082580E+02	  0.088537075	2.776900E+01	  0.088537075	2.823600E+01
344	  0.088737473	-7.265000E+00	  0.088737473	1.075940E+02	  0.088737473	2.801800E+01	  0.088737473	2.848800E+01
345	  0.088937871	-7.289000E+00	  0.088937871	1.068810E+02	  0.088937871	2.828800E+01	  0.088937871	2.875800E+01
346	  0.089138277	-7.315000E+00	  0.089138277	1.062510E+02	  0.089138277	2.854400E+01	  0.089138277	2.898700E+01
347	  0.089338675	-7.338000E+00	  0.089338675	1.056050E+02	  0.089338675	2.879900E+01	  0.089338675	2.922600E+01
348	  0.089539073	-7.368000E+00	  0.089539073	1.049620E+02	  0.089539073	2.907700E+01	  0.089539073	2.945100E+01
349	  0.089739479	-7.394000E+00	  0.089739479	1.043060E+02	  0.089739479	2.934900E+01	  0.089739479	2.968900E+01
350	  0.089939877	-7.420000E+00	  0.089939877	1.036550E+02	  0.089939877	2.962400E+01	  0.089939877	2.992300E+01
351	  0.090140276	-7.445000E+00	  0.090140276	1.030290E+02	  0.090140276	2.989300E+01	  0.090140276	3.014500E+01
352	  0.090340681	-7.472000E+00	  0.090340681	1.023910E+02	  0.090340681	3.017300E+01	  0.090340681	3.036900E+01
353	  0.090541080	-7.502000E+00	  0.090541080	1.017440E+02	  0.090541080	3.047000E+01	  0.090541080	3.058800E+01
354	  0.090741485	-7.526000E+00	  0.090741485	1.011070E+02	  0.090741485	3.074700E+01	  0.090741485	3.081600E+01
355	  0.090941884	-7.559000E+00	  0.090941884	1.004930E+02	  0.090941884	3.104800E+01	  0.090941884	3.101000E+01
356	  0.091142282	-7.585000E+00	  0.091142282	9.990700E+01	  0.091142282	3.132000E+01	  0.091142282	3.120700E+01
357	  0.091342688	-7.618000E+00	  0.091342688	9.927000E+01	  0.091342688	3.163300E+01	  0.091342688	3.141000E+01
358	  0.091543086	-7.654000E+00	  0.091543086	9.865100E+01	  0.091543086	3.195300E+01	  0.091543086	3.159400E+01
359	  0.091743484	-7.682000E+00	  0.091743484	9.800800E+01	  0.091743484	3.226000E+01	  0.091743484	3.180700E+01
360	  0.091943890	-7.714000E+00	  0.091943890	9.744100E+01	  0.091943890	3.255600E+01	  0.091943890	3.197500E+01
361	  0.092144288	-7.740000E+00	  0.092144288	9.682900E+01	  0.092144288	3.285500E+01	  0.092144288	3.217300E+01
362	  0.092344686	-7.774000E+00	  0.092344686	9.619400E+01	  0.092344686	3.318700E+01	  0.092344686	3.236300E+01
363	  0.092545092	-7.806000E+00	  0.092545092	9.561900E+01	  0.092545092	3.349400E+01	  0.092545092	3.252700E+01
364	  0.092745490	-7.840000E+00	  0.092745490	9.502500E+01	  0.092745490	3.381600E+01	  0.092745490	3.269400E+01
365	  0.092945889	-7.871000E+00	  0.092945889	9.445000E+01	  0.092945889	3.412700E+01	  0.092945889	3.285600E+01
366	  0.093146294	-7.903000E+00	  0.093146294	9.388000E+01	  0.093146294	3.444000E+01	  0.093146294	3.301300E+01
367	  0.093346693	-7.933000E+00	  0.093346693	9.332100E+01	  0.093346693	3.474500E+01	  0.093346693	3.316900E+01
368	  0.093547091	-7.970000E+00	  0.093547091	9.277300E+01	  0.093547091	3.506800E+01	  0.093547091	3.330000E+01
369	  0.093747497	-7.998000E+00	  0.093747497	9.218500E+01	  0.093747497	3.538600E+01	  0.093747497	3.346700E+01
370	  0.093947895	-8.034000E+00	  0.093947895	9.162600E+01	  0.093947895	3.571800E+01	  0.093947895	3.359700E+01
371	  0.094148301	-8.068000E+00	  0.094148301	9.107100E+01	  0.094148301	3.604300E+01	  0.094148301	3.373000E+01
372	  0.094348699	-8.098000E+00	  0.094348699	9.055600E+01	  0.094348699	3.634500E+01	  0.094348699	3.385400E+01
373	  0.094549097	-8.136000E+00	  0.094549097	9.000600E+01	  0.094549097	3.668200E+01	  0.094549097	3.397000E+01
374	  0.094749503	-8.165000E+00	  0.094749503	8.951600E+01	  0.094749503	3.697300E+01	  0.094749503	3.408300E+01
375	  0.094949901	-8.203000E+00	  0.094949901	8.898400E+01	  0.094949901	3.730900E+01	  0.094949901	3.418400E+01
376	  0.095150299	-8.226000E+00	  0.095150299	8.848300E+01	  0.095150299	3.759500E+01	  0.095150299	3.431300E+01
377	  0.095350705	-8.263000E+00	  0.095350705	8.796300E+01	  0.095350705	3.792600E+01	  0.095350705	3.440700E+01
378	  0.095551103	-8.298000E+00	  0.095551103	8.746000E+01	  0.095551103	3.824500E+01	  0.095551103	3.450100E+01
379	  0.095751502	-8.328000E+00	  0.095751502	8.695500E+01	  0.095751502	3.855600E+01	  0.095751502	3.460300E+01
380	  0.095951907	-8.358000E+00	  0.095951907	8.647000E+01	  0.095951907	3.886000E+01	  0.095951907	3.469700E+01
381	  0.096152306	-8.388000E+00	  0.096152306	8.598200E+01	  0.096152306	3.916700E+01	  0.096152306	3.478800E+01
382	  0.096352704	-8.421000E+00	  0.096352704	8.551900E+01	  0.096352704	3.946900E+01	  0.096352704	3.486100E+01
383	  0.096553110	-8.449000E+00	  0.096553110	8.505000E+01	  0.096553110	3.976600E+01	  0.096553110	3.494600E+01
384	  0.096753508	-8.480000E+00	  0.096753508	8.459100E+01	  0.096753508	4.006600E+01	  0.096753508	3.501700E+01
385	  0.096953906	-8.509000E+00	  0.096953906	8.416000E+01	  0.096953906	4.034800E+01	  0.096953906	3.508200E+01
386	  0.097154312	-8.539000E+00	  0.097154312	8.371500E+01	  0.097154312	4.064000E+01	  0.097154312	3.514800E+01
387	  0.097354710	-8.571000E+00	  0.097354710	8.325900E+01	  0.097354710	4.094500E+01	  0.097354710	3.520800E+01
388	  0.097555116	-8.593000E+00	  0.097555116	8.282100E+01	  0.097555116	4.121900E+01	  0.097555116	3.528900E+01
389	  0.097755514	-8.623000E+00	  0.097755514	8.240300E+01	  0.097755514	4.150200E+01	  0.097755514	3.533800E+01
390	  0.097955912	-8.651000E+00	  0.097955912	8.198100E+01	  0.097955912	4.178400E+01	  0.097955912	3.539200E+01
391	  0.098156318	-8.679000E+00	  0.098156318	8.157100E+01	  0.098156318	4.206000E+01	  0.098156318	3.544000E+01
392	  0.098356716	-8.701000E+00	  0.098356716	8.115400E+01	  0.098356716	4.233000E+01	  0.098356716	3.550600E+01
393	  0.098557115	-8.732000E+00	  0.098557115	8.077800E+01	  0.098557115	4.259600E+01	  0.098557115	3.552900E+01
394	  0.098757520	-8.750000E+00	  0.098757520	8.034800E+01	  0.098757520	4.286500E+01	  0.098757520	3.561100E+01
395	  0.098957919	-8.771000E+00	  0.098957919	7.993400E+01	  0.098957919	4.313300E+01	  0.098957919	3.567500E+01
396	  0.099158317	-8.793000E+00	  0.099158317	7.955300E+01	  0.099158317	4.338800E+01	  0.099158317	3.572100E+01
397	  0.099358723	-8.814000E+00	  0.099358723	7.914100E+01	  0.099358723	4.365600E+01	  0.099358723	3.578400E+01
398	  0.099559121	-8.835000E+00	  0.099559121	7.877400E+01	  0.099559121	4.390200E+01	  0.099559121	3.582800E+01
399	  0.099759519	-8.852000E+00	  0.099759519	7.839500E+01	  0.099759519	4.414900E+01	  0.099759519	3.588600E+01
400	  0.099959925	-8.866000E+00	  0.099959925	7.805100E+01	  0.099959925	4.436700E+01	  0.099959925	3.594700E+01
401	  0.100160323	-8.881000E+00	  0.100160323	7.765900E+01	  0.100160323	4.461800E+01	  0.100160323	3.601500E+01
402	  0.100360721	-8.893000E+00	  0.100360721	7.729000E+01	  0.100360721	4.485100E+01	  0.100360721	3.608500E+01
403	  0.100561127	-8.905000E+00	  0.100561127	7.698300E+01	  0.100561127	4.504900E+01	  0.100561127	3.613900E+01
404	  0.100761525	-8.927000E+00	  0.100761525	7.651200E+01	  0.100761525	4.536300E+01	  0.100761525	3.619800E+01
405	  0.100961931	-8.932000E+00	  0.100961931	7.619200E+01	  0.100961931	4.555800E+01	  0.100961931	3.627600E+01
406	  0.101162329	-8.937000E+00	  0.101162329	7.580400E+01	  0.101162329	4.579200E+01	  0.101162329	3.637400E+01
407	  0.101362728	-8.952000E+00	  0.101362728	7.542200E+01	  0.101362728	4.604300E+01	  0.101362728	3.643400E+01
408	  0.101563133	-8.961000E+00	  0.101563133	7.509900E+01	  0.101563133	4.625100E+01	  0.101563133	3.649500E+01
409	  0.101763532	-8.961000E+00	  0.101763532	7.475700E+01	  0.101763532	4.645500E+01	  0.101763532	3.659300E+01
410	  0.101963930	-8.972000E+00	  0.101963930	7.444100E+01	  0.101963930	4.666400E+01	  0.101963930	3.664300E+01
411	  0.102164328	-8.974000E+00	  0.102164328	7.404700E+01	  0.102164328	4.690300E+01	  0.102164328	3.675000E+01
412	  0.102364726	-8.979000E+00	  0.102364726	7.364000E+01	  0.102364726	4.715800E+01	  0.102364726	3.684800E+01
413	  0.102565125	-8.984000E+00	  0.102565125	7.329000E+01	  0.102565125	4.738100E+01	  0.102565125	3.692500E+01
414	  0.102765530	-8.983000E+00	  0.102765530	7.300200E+01	  0.102765530	4.755400E+01	  0.102765530	3.701200E+01
415	  0.102965929	-8.976000E+00	  0.102965929	7.259300E+01	  0.102965929	4.779400E+01	  0.102965929	3.715400E+01
416	  0.103166327	-8.983000E+00	  0.103166327	7.221300E+01	  0.103166327	4.804400E+01	  0.103166327	3.723100E+01
417	  0.103366733	-8.986000E+00	  0.103366733	7.186900E+01	  0.103366733	4.826400E+01	  0.103366733	3.731300E+01
418	  0.103567131	-8.976000E+00	  0.103567131	7.146700E+01	  0.103567131	4.850100E+01	  0.103567131	3.746200E+01
419	  0.103767529	-8.979000E+00	  0.103767529	7.109500E+01	  0.103767529	4.874300E+01	  0.103767529	3.755100E+01
420	  0.103967935	-8.978000E+00	  0.103967935	7.067500E+01	  0.103967935	4.901000E+01	  0.103967935	3.766800E+01
421	  0.104168333	-8.981000E+00	  0.104168333	7.029700E+01	  0.104168333	4.926100E+01	  0.104168333	3.775300E+01
422	  0.104368731	-8.978000E+00	  0.104368731	6.991200E+01	  0.104368731	4.950600E+01	  0.104368731	3.786800E+01
423	  0.104569137	-8.972000E+00	  0.104569137	6.947500E+01	  0.104569137	4.978300E+01	  0.104569137	3.800400E+01
424	  0.104769535	-8.966000E+00	  0.104769535	6.912600E+01	  0.104769535	5.000400E+01	  0.104769535	3.812100E+01
425	  0.104969934	-8.959000E+00	  0.104969934	6.869500E+01	  0.104969934	5.028100E+01	  0.104969934	3.825900E+01
426	  0.105170339	-8.959000E+00	  0.105170339	6.824300E+01	  0.105170339	5.058600E+01	  0.105170339	3.837200E+01
427	  0.105370738	-8.957000E+00	  0.105370738	6.785600E+01	  0.105370738	5.084500E+01	  0.105370738	3.847800E+01
428	  0.105571143	-8.953000E+00	  0.105571143	6.744500E+01	  0.105571143	5.112200E+01	  0.105571143	3.859100E+01
429	  0.105771542	-8.947000E+00	  0.105771542	6.691900E+01	  0.105771542	5.147700E+01	  0.105771542	3.874300E+01
430	  0.105971940	-8.939000E+00	  0.105971940	6.651100E+01	  0.105971940	5.174900E+01	  0.105971940	3.887800E+01
431	  0.106172346	-8.927000E+00	  0.106172346	6.599500E+01	  0.106172346	5.209500E+01	  0.106172346	3.905300E+01
432	  0.106372744	-8.922000E+00	  0.106372744	6.557200E+01	  0.106372744	5.239000E+01	  0.106372744	3.917300E+01
433	  0.106573142	-8.916000E+00	  0.106573142	6.512200E+01	  0.106573142	5.270400E+01	  0.106573142	3.930300E+01
434	  0.106773548	-8.907000E+00	  0.106773548	6.465000E+01	  0.106773548	5.303400E+01	  0.106773548	3.945000E+01
435	  0.106973946	-8.893000E+00	  0.106973946	6.413500E+01	  0.106973946	5.339300E+01	  0.106973946	3.962800E+01
436	  0.107174344	-8.891000E+00	  0.107174344	6.369600E+01	  0.107174344	5.371500E+01	  0.107174344	3.972900E+01
437	  0.107374750	-8.881000E+00	  0.107374750	6.312100E+01	  0.107374750	5.413400E+01	  0.107374750	3.989500E+01
438	  0.107575148	-8.866000E+00	  0.107575148	6.263100E+01	  0.107575148	5.448400E+01	  0.107575148	4.007200E+01
439	  0.107775547	-8.847000E+00	  0.107775547	6.214200E+01	  0.107775547	5.483500E+01	  0.107775547	4.026000E+01
440	  0.107975952	-8.839000E+00	  0.107975952	6.160100E+01	  0.107975952	5.524400E+01	  0.107975952	4.040500E+01
441	  0.108176351	-8.828000E+00	  0.108176351	6.114300E+01	  0.108176351	5.558900E+01	  0.108176351	4.055000E+01
442	  0.108376749	-8.813000E+00	  0.108376749	6.055200E+01	  0.108376749	5.603900E+01	  0.108376749	4.073600E+01
443	  0.108577155	-8.800000E+00	  0.108577155	6.005800E+01	  0.108577155	5.641900E+01	  0.108577155	4.089100E+01
444	  0.108777553	-8.792000E+00	  0.108777553	5.958000E+01	  0.108777553	5.679800E+01	  0.108777553	4.101400E+01
445	  0.108977959	-8.773000E+00	  0.108977959	5.899000E+01	  0.108977959	5.725900E+01	  0.108977959	4.121500E+01
446	  0.109178357	-8.762000E+00	  0.109178357	5.846000E+01	  0.109178357	5.768800E+01	  0.109178357	4.135300E+01
447	  0.109378755	-8.750000E+00	  0.109378755	5.788300E+01	  0.109378755	5.815900E+01	  0.109378755	4.150800E+01
448	  0.109579161	-8.740000E+00	  0.109579161	5.733600E+01	  0.109579161	5.861300E+01	  0.109579161	4.164400E+01
449	  0.109779559	-8.717000E+00	  0.109779559	5.673500E+01	  0.109779559	5.910700E+01	  0.109779559	4.185700E+01
450	  0.109979957	-8.713000E+00	  0.109979957	5.624700E+01	  0.109979957	5.952800E+01	  0.109979957	4.193800E+01
451	  0.110180363	-8.697000E+00	  0.110180363	5.561500E+01	  0.110180363	6.007000E+01	  0.110180363	4.210600E+01
452	  0.110380761	-8.687000E+00	  0.110380761	5.503500E+01	  0.110380761	6.057800E+01	  0.110380761	4.223000E+01
453	  0.110581160	-8.669000E+00	  0.110581160	5.444300E+01	  0.110581160	6.109700E+01	  0.110581160	4.240000E+01
454	  0.110781565	-8.671000E+00	  0.110781565	5.386300E+01	  0.110781565	6.162600E+01	  0.110781565	4.244200E+01
455	  0.110981964	-8.659000E+00	  0.110981964	5.322200E+01	  0.110981964	6.220800E+01	  0.110981964	4.256700E+01
456	  0.111182362	-8.653000E+00	  0.111182362	5.264700E+01	  0.111182362	6.273900E+01	  0.111182362	4.264700E+01
457	  0.111382768	-8.635000E+00	  0.111382768	5.200000E+01	  0.111382768	6.334100E+01	  0.111382768	4.279500E+01
458	  0.111583166	-8.630000E+00	  0.111583166	5.133800E+01	  0.111583166	6.396800E+01	  0.111583166	4.285800E+01
459	  0.111783572	-8.624000E+00	  0.111783572	5.068100E+01	  0.111783572	6.460000E+01	  0.111783572	4.292100E+01
460	  0.111983970	-8.624000E+00	  0.111983970	5.005300E+01	  0.111983970	6.521100E+01	  0.111983970	4.293500E+01
461	  0.112184368	-8.617000E+00	  0.112184368	4.937000E+01	  0.112184368	6.588100E+01	  0.112184368	4.298600E+01
462	  0.112384774	-8.611000E+00	  0.112384774	4.862600E+01	  0.112384774	6.662100E+01	  0.112384774	4.302000E+01
463	  0.112585172	-8.613000E+00	  0.112585172	4.796600E+01	  0.112585172	6.728400E+01	  0.112585172	4.299500E+01
464	  0.112785570	-8.611000E+00	  0.112785570	4.722300E+01	  0.112785570	6.803900E+01	  0.112785570	4.298100E+01
465	  0.112985976	-8.613000E+00	  0.112985976	4.650900E+01	  0.112985976	6.877100E+01	  0.112985976	4.292200E+01
466	  0.113186374	-8.611000E+00	  0.113186374	4.577200E+01	  0.113186374	6.953500E+01	  0.113186374	4.287900E+01
467	  0.113386773	-8.614000E+00	  0.113386773	4.504000E+01	  0.113386773	7.029900E+01	  0.113386773	4.278700E+01
468	  0.113587178	-8.617000E+00	  0.113587178	4.427000E+01	  0.113587178	7.110700E+01	  0.113587178	4.267300E+01
469	  0.113787577	-8.624000E+00	  0.113787577	4.348200E+01	  0.113787577	7.194000E+01	  0.113787577	4.251700E+01
470	  0.113987975	-8.623000E+00	  0.113987975	4.267700E+01	  0.113987975	7.280500E+01	  0.113987975	4.239400E+01
471	  0.114188381	-8.628000E+00	  0.114188381	4.189900E+01	  0.114188381	7.363900E+01	  0.114188381	4.221400E+01
472	  0.114388779	-8.635000E+00	  0.114388779	4.108900E+01	  0.114388779	7.451200E+01	  0.114388779	4.199200E+01
473	  0.114589177	-8.641000E+00	  0.114589177	4.026900E+01	  0.114589177	7.540100E+01	  0.114589177	4.175200E+01
474	  0.114789583	-8.656000E+00	  0.114789583	3.942500E+01	  0.114789583	7.630300E+01	  0.114789583	4.141400E+01
475	  0.114989981	-8.662000E+00	  0.114989981	3.854600E+01	  0.114989981	7.726400E+01	  0.114989981	4.111200E+01
476	  0.115190387	-8.676000E+00	  0.115190387	3.769200E+01	  0.115190387	7.818200E+01	  0.115190387	4.073400E+01
477	  0.115390785	-8.689000E+00	  0.115390785	3.685400E+01	  0.115390785	7.908300E+01	  0.115390785	4.033700E+01
478	  0.115591183	-8.711000E+00	  0.115591183	3.592600E+01	  0.115591183	8.006000E+01	  0.115591183	3.981600E+01
479	  0.115791589	-8.723000E+00	  0.115791589	3.506100E+01	  0.115791589	8.098900E+01	  0.115791589	3.936200E+01
480	  0.115991987	-8.740000E+00	  0.115991987	3.414800E+01	  0.115991987	8.195400E+01	  0.115991987	3.882300E+01
481	  0.116192386	-8.764000E+00	  0.116192386	3.324700E+01	  0.116192386	8.287600E+01	  0.116192386	3.820900E+01
482	  0.116392791	-8.788000E+00	  0.116392791	3.233000E+01	  0.116392791	8.380300E+01	  0.116392791	3.755200E+01
483	  0.116593190	-8.816000E+00	  0.116593190	3.141900E+01	  0.116593190	8.469500E+01	  0.116593190	3.683800E+01
484	  0.116793588	-8.838000E+00	  0.116793588	3.044700E+01	  0.116793588	8.566100E+01	  0.116793588	3.609600E+01
485	  0.116993994	-8.869000E+00	  0.116993994	2.950800E+01	  0.116993994	8.654000E+01	  0.116993994	3.528400E+01
486	  0.117194392	-8.899000E+00	  0.117194392	2.852700E+01	  0.117194392	8.744700E+01	  0.117194392	3.441700E+01
487	  0.117394790	-8.937000E+00	  0.117394790	2.753700E+01	  0.117394790	8.829500E+01	  0.117394790	3.344700E+01
488	  0.117595196	-8.976000E+00	  0.117595196	2.654900E+01	  0.117595196	8.911600E+01	  0.117595196	3.245100E+01
489	  0.117795594	-9.015000E+00	  0.117795594	2.557100E+01	  0.117795594	8.988600E+01	  0.117795594	3.142300E+01
490	  0.117995992	-9.061000E+00	  0.117995992	2.452600E+01	  0.117995992	9.065700E+01	  0.117995992	3.027600E+01
491	  0.118196398	-9.107000E+00	  0.118196398	2.350400E+01	  0.118196398	9.136000E+01	  0.118196398	2.911300E+01
492	  0.118396796	-9.151000E+00	  0.118396796	2.248300E+01	  0.118396796	9.203500E+01	  0.118396796	2.794100E+01
