! Anritsu VNA Master:             	Model: MS2036C/10/77
! SN:             	1601066
! /bd0/18may10/255.ew.m4.txt
! Existing Calibration Information:
! TYPE:             	Current Settings	Active Cal Settings
! TIME:             	05/10/2018 01:45:46 PM	05/10/2018 01:36:00 PM
! INTERNAL TEMP:    	55.8 C	54.5 C
! # POINTS:         	492	492
! START FREQ:       	20.000 MHz	20.000 MHz
! STOP FREQ:        	118.396 793 MHz	118.396 793 MHz
! SOURCE POWER:     	High	High
! IFBW:             	50 Hz	50 Hz
! AVG FACTOR:       	  1 	  1 
! REF PLANE 1:      	0 mm	0 mm
! REF PLANE 2:      	0 mm	0 mm
! CAL TYPE:         	Full S22	Full S22
! CAL METHOD:       	SOLT	SOLT
! CAL LINE TYPE:    	Coax	Coax
! DUT PORT 1:       	K-Conn(M)	K-Conn(M)
! DUT PORT 2:       	K-Conn(M)	K-Conn(M)
! CAL STATUS:       	OK: Accuracy High	--
! PROP-V:       	0.700
! CABLE LOSS:       	0.000 dB/m
! REF IMPEDANCE:       	50.0
! Trace Specific Parameters:	TR1	TR2	TR3	TR4
! TRACE.#.Y (GRAPH TYPE)	LOG MAG	PHASE	REAL IMPEDANCE	IMAGINARY IMPEDANCE
! TRACE.#.X 	FREQ.GHZ	FREQ.GHZ	FREQ.GHZ	FREQ.GHZ
! S-PARAMETER	S22	S22	S22	S22
! SMOOTH/APERTURE %	0	0	0	0
! WINDOW	NSL	NSL	NSL	NSL
! GATING	OFF	OFF	OFF	OFF
! FGTD	OFF	OFF	OFF	OFF
Marker Information per Trace:	TR1	TR2	TR3	TR4
!MK1	--	"MK1 TR2:  20.000 MHz,PH:-125.56°"	--	--
!MK2	--	--	"MK2 TR3:  70.100 200 MHz,Z:(16.745 ohm, -1.577 ohm)"	--
!MK3	--	--	--	--
!MK4	--	--	--	--
!MK5	--	--	--	--
!MK6	--	--	--	--
!MK7	--	--	--	--
!MK8	--	--	--	--
PNT	TR1.FREQ.GHZ	TR1.LOG MAG.dB	TR2.FREQ.GHZ	TR2.PHASE.deg	TR3.FREQ.GHZ	TR3.REAL IMPEDANCE.ohm	TR4.FREQ.GHZ	TR4.IMAGINARY IMPEDANCE.ohm
1	  0.020000000	-9.190000E-01	  0.020000000	-1.255570E+02	  0.020000000	3.341000E+00	  0.020000000	-2.562900E+01
2	  0.020200402	-9.280000E-01	  0.020200402	-1.270000E+02	  0.020200402	3.331000E+00	  0.020200402	-2.484000E+01
3	  0.020400802	-9.390000E-01	  0.020400802	-1.284290E+02	  0.020400802	3.329000E+00	  0.020400802	-2.406800E+01
4	  0.020601204	-9.470000E-01	  0.020601204	-1.298950E+02	  0.020601204	3.317000E+00	  0.020601204	-2.328600E+01
5	  0.020801604	-9.580000E-01	  0.020801604	-1.313890E+02	  0.020801604	3.317000E+00	  0.020801604	-2.249800E+01
6	  0.021002004	-9.670000E-01	  0.021002004	-1.328920E+02	  0.021002004	3.307000E+00	  0.021002004	-2.171600E+01
7	  0.021202406	-9.780000E-01	  0.021202406	-1.344030E+02	  0.021202406	3.307000E+00	  0.021202406	-2.093800E+01
8	  0.021402806	-9.880000E-01	  0.021402806	-1.358940E+02	  0.021402806	3.308000E+00	  0.021402806	-2.017800E+01
9	  0.021603208	-9.940000E-01	  0.021603208	-1.373860E+02	  0.021603208	3.292000E+00	  0.021603208	-1.942700E+01
10	  0.021803608	-1.007000E+00	  0.021803608	-1.388910E+02	  0.021803608	3.300000E+00	  0.021803608	-1.867600E+01
11	  0.022004008	-1.018000E+00	  0.022004008	-1.403890E+02	  0.022004008	3.306000E+00	  0.022004008	-1.793600E+01
12	  0.022204408	-1.029000E+00	  0.022204408	-1.419080E+02	  0.022204408	3.310000E+00	  0.022204408	-1.719300E+01
13	  0.022404809	-1.042000E+00	  0.022404809	-1.434530E+02	  0.022404809	3.322000E+00	  0.022404809	-1.644400E+01
14	  0.022605211	-1.049000E+00	  0.022605211	-1.450170E+02	  0.022605211	3.315000E+00	  0.022605211	-1.569300E+01
15	  0.022805611	-1.055000E+00	  0.022805611	-1.465850E+02	  0.022805611	3.306000E+00	  0.022805611	-1.494700E+01
16	  0.023006011	-1.064000E+00	  0.023006011	-1.481370E+02	  0.023006011	3.309000E+00	  0.023006011	-1.421400E+01
17	  0.023206413	-1.075000E+00	  0.023206413	-1.496910E+02	  0.023206413	3.316000E+00	  0.023206413	-1.348600E+01
18	  0.023406813	-1.085000E+00	  0.023406813	-1.512350E+02	  0.023406813	3.325000E+00	  0.023406813	-1.276800E+01
19	  0.023607215	-1.096000E+00	  0.023607215	-1.527920E+02	  0.023607215	3.335000E+00	  0.023607215	-1.204800E+01
20	  0.023807615	-1.110000E+00	  0.023807615	-1.543740E+02	  0.023807615	3.355000E+00	  0.023807615	-1.132200E+01
21	  0.024008015	-1.121000E+00	  0.024008015	-1.559740E+02	  0.024008015	3.367000E+00	  0.024008015	-1.059300E+01
22	  0.024208417	-1.133000E+00	  0.024208417	-1.575900E+02	  0.024208417	3.384000E+00	  0.024208417	-9.860000E+00
23	  0.024408817	-1.143000E+00	  0.024408817	-1.592150E+02	  0.024408817	3.397000E+00	  0.024408817	-9.128000E+00
24	  0.024609219	-1.154000E+00	  0.024609219	-1.608270E+02	  0.024609219	3.412000E+00	  0.024609219	-8.406000E+00
25	  0.024809619	-1.169000E+00	  0.024809619	-1.624620E+02	  0.024809619	3.439000E+00	  0.024809619	-7.676000E+00
26	  0.025010020	-1.184000E+00	  0.025010020	-1.640950E+02	  0.025010020	3.470000E+00	  0.025010020	-6.951000E+00
27	  0.025210422	-1.197000E+00	  0.025210422	-1.657310E+02	  0.025210422	3.495000E+00	  0.025210422	-6.228000E+00
28	  0.025410822	-1.214000E+00	  0.025410822	-1.673870E+02	  0.025410822	3.531000E+00	  0.025410822	-5.498000E+00
29	  0.025611224	-1.230000E+00	  0.025611224	-1.690500E+02	  0.025611224	3.568000E+00	  0.025611224	-4.768000E+00
30	  0.025811624	-1.246000E+00	  0.025811624	-1.707350E+02	  0.025811624	3.605000E+00	  0.025811624	-4.030000E+00
31	  0.026012026	-1.262000E+00	  0.026012026	-1.724220E+02	  0.026012026	3.643000E+00	  0.026012026	-3.293000E+00
32	  0.026212426	-1.280000E+00	  0.026212426	-1.741360E+02	  0.026212426	3.687000E+00	  0.026212426	-2.546000E+00
33	  0.026412826	-1.298000E+00	  0.026412826	-1.758380E+02	  0.026412826	3.736000E+00	  0.026412826	-1.806000E+00
34	  0.026613226	-1.318000E+00	  0.026613226	-1.775680E+02	  0.026613226	3.788000E+00	  0.026613226	-1.055000E+00
35	  0.026813626	-1.338000E+00	  0.026813626	-1.793050E+02	  0.026813626	3.845000E+00	  0.026813626	-3.010000E-01
36	  0.027014028	-1.361000E+00	  0.027014028	1.789590E+02	  0.027014028	3.909000E+00	  0.027014028	4.510000E-01
37	  0.027214428	-1.381000E+00	  0.027214428	1.772070E+02	  0.027214428	3.970000E+00	  0.027214428	1.211000E+00
38	  0.027414829	-1.405000E+00	  0.027414829	1.754520E+02	  0.027414829	4.043000E+00	  0.027414829	1.972000E+00
39	  0.027615231	-1.428000E+00	  0.027615231	1.736680E+02	  0.027615231	4.114000E+00	  0.027615231	2.746000E+00
40	  0.027815631	-1.452000E+00	  0.027815631	1.718920E+02	  0.027815631	4.191000E+00	  0.027815631	3.518000E+00
41	  0.028016033	-1.476000E+00	  0.028016033	1.700910E+02	  0.028016033	4.271000E+00	  0.028016033	4.303000E+00
42	  0.028216433	-1.503000E+00	  0.028216433	1.682700E+02	  0.028216433	4.360000E+00	  0.028216433	5.097000E+00
43	  0.028416833	-1.529000E+00	  0.028416833	1.664590E+02	  0.028416833	4.451000E+00	  0.028416833	5.889000E+00
44	  0.028617235	-1.555000E+00	  0.028617235	1.646360E+02	  0.028617235	4.546000E+00	  0.028617235	6.689000E+00
45	  0.028817635	-1.583000E+00	  0.028817635	1.628090E+02	  0.028817635	4.649000E+00	  0.028817635	7.493000E+00
46	  0.029018037	-1.612000E+00	  0.029018037	1.609860E+02	  0.029018037	4.756000E+00	  0.029018037	8.299000E+00
47	  0.029218437	-1.642000E+00	  0.029218437	1.591390E+02	  0.029218437	4.870000E+00	  0.029218437	9.119000E+00
48	  0.029418837	-1.672000E+00	  0.029418837	1.572750E+02	  0.029418837	4.990000E+00	  0.029418837	9.951000E+00
49	  0.029619239	-1.703000E+00	  0.029619239	1.554070E+02	  0.029619239	5.116000E+00	  0.029619239	1.078900E+01
50	  0.029819639	-1.733000E+00	  0.029819639	1.535300E+02	  0.029819639	5.244000E+00	  0.029819639	1.163600E+01
51	  0.030020041	-1.765000E+00	  0.030020041	1.516540E+02	  0.030020041	5.382000E+00	  0.030020041	1.248900E+01
52	  0.030220442	-1.796000E+00	  0.030220442	1.497660E+02	  0.030220442	5.525000E+00	  0.030220442	1.335200E+01
53	  0.030420844	-1.828000E+00	  0.030420844	1.478860E+02	  0.030420844	5.672000E+00	  0.030420844	1.421900E+01
54	  0.030621244	-1.862000E+00	  0.030621244	1.459990E+02	  0.030621244	5.832000E+00	  0.030621244	1.509600E+01
55	  0.030821642	-1.899000E+00	  0.030821642	1.441080E+02	  0.030821642	6.008000E+00	  0.030821642	1.598100E+01
56	  0.031022044	-1.932000E+00	  0.031022044	1.421920E+02	  0.031022044	6.181000E+00	  0.031022044	1.688700E+01
57	  0.031222444	-1.964000E+00	  0.031222444	1.402860E+02	  0.031222444	6.352000E+00	  0.031222444	1.779800E+01
58	  0.031422846	-2.001000E+00	  0.031422846	1.383380E+02	  0.031422846	6.554000E+00	  0.031422846	1.873700E+01
59	  0.031623244	-2.039000E+00	  0.031623244	1.363790E+02	  0.031623244	6.763000E+00	  0.031623244	1.969200E+01
60	  0.031823646	-2.076000E+00	  0.031823646	1.344100E+02	  0.031823646	6.981000E+00	  0.031823646	2.066300E+01
61	  0.032024048	-2.117000E+00	  0.032024048	1.324620E+02	  0.032024048	7.218000E+00	  0.032024048	2.163400E+01
62	  0.032224450	-2.157000E+00	  0.032224450	1.304900E+02	  0.032224450	7.466000E+00	  0.032224450	2.262900E+01
63	  0.032424849	-2.197000E+00	  0.032424849	1.285050E+02	  0.032424849	7.726000E+00	  0.032424849	2.364500E+01
64	  0.032625251	-2.238000E+00	  0.032625251	1.265050E+02	  0.032625251	8.003000E+00	  0.032625251	2.468200E+01
65	  0.032825653	-2.281000E+00	  0.032825653	1.245100E+02	  0.032825653	8.295000E+00	  0.032825653	2.573000E+01
66	  0.033026051	-2.323000E+00	  0.033026051	1.224940E+02	  0.033026051	8.604000E+00	  0.033026051	2.680600E+01
67	  0.033226453	-2.364000E+00	  0.033226453	1.204760E+02	  0.033226453	8.923000E+00	  0.033226453	2.790000E+01
68	  0.033426855	-2.407000E+00	  0.033426855	1.184430E+02	  0.033426855	9.265000E+00	  0.033426855	2.902000E+01
69	  0.033627257	-2.452000E+00	  0.033627257	1.164210E+02	  0.033627257	9.633000E+00	  0.033627257	3.015000E+01
70	  0.033827655	-2.497000E+00	  0.033827655	1.144260E+02	  0.033827655	1.001500E+01	  0.033827655	3.128500E+01
71	  0.034028057	-2.539000E+00	  0.034028057	1.123770E+02	  0.034028057	1.041300E+01	  0.034028057	3.247300E+01
72	  0.034228459	-2.587000E+00	  0.034228459	1.103480E+02	  0.034228459	1.085500E+01	  0.034228459	3.366700E+01
73	  0.034428857	-2.631000E+00	  0.034428857	1.082910E+02	  0.034428857	1.130800E+01	  0.034428857	3.490400E+01
74	  0.034629259	-2.679000E+00	  0.034629259	1.062150E+02	  0.034629259	1.180600E+01	  0.034629259	3.617400E+01
75	  0.034829661	-2.727000E+00	  0.034829661	1.041720E+02	  0.034829661	1.232600E+01	  0.034829661	3.744800E+01
76	  0.035030060	-2.774000E+00	  0.035030060	1.021040E+02	  0.035030060	1.287900E+01	  0.035030060	3.876400E+01
77	  0.035230462	-2.822000E+00	  0.035230462	1.000330E+02	  0.035230462	1.347200E+01	  0.035230462	4.011000E+01
78	  0.035430863	-2.870000E+00	  0.035430863	9.796100E+01	  0.035430863	1.409400E+01	  0.035430863	4.148600E+01
79	  0.035631265	-2.920000E+00	  0.035631265	9.590300E+01	  0.035631265	1.476800E+01	  0.035631265	4.287800E+01
80	  0.035831664	-2.969000E+00	  0.035831664	9.383900E+01	  0.035831664	1.547600E+01	  0.035831664	4.430600E+01
81	  0.036032066	-3.016000E+00	  0.036032066	9.175700E+01	  0.036032066	1.622900E+01	  0.036032066	4.578300E+01
82	  0.036232468	-3.065000E+00	  0.036232468	8.968100E+01	  0.036232468	1.703700E+01	  0.036232468	4.728600E+01
83	  0.036432866	-3.114000E+00	  0.036432866	8.759600E+01	  0.036432866	1.790000E+01	  0.036432866	4.883100E+01
84	  0.036633268	-3.158000E+00	  0.036633268	8.552000E+01	  0.036633268	1.879800E+01	  0.036633268	5.041400E+01
85	  0.036833670	-3.202000E+00	  0.036833670	8.343800E+01	  0.036833670	1.975500E+01	  0.036833670	5.204100E+01
86	  0.037034072	-3.247000E+00	  0.037034072	8.133900E+01	  0.037034072	2.079100E+01	  0.037034072	5.372100E+01
87	  0.037234470	-3.286000E+00	  0.037234470	7.923300E+01	  0.037234470	2.187400E+01	  0.037234470	5.546300E+01
88	  0.037434869	-3.321000E+00	  0.037434869	7.706900E+01	  0.037434869	2.304200E+01	  0.037434869	5.731400E+01
89	  0.037635271	-3.357000E+00	  0.037635271	7.485900E+01	  0.037635271	2.432200E+01	  0.037635271	5.926100E+01
90	  0.037835669	-3.400000E+00	  0.037835669	7.256900E+01	  0.037835669	2.580400E+01	  0.037835669	6.131100E+01
91	  0.038036071	-3.456000E+00	  0.038036071	7.019900E+01	  0.038036071	2.754800E+01	  0.038036071	6.344500E+01
92	  0.038236473	-3.529000E+00	  0.038236473	6.787600E+01	  0.038236473	2.952800E+01	  0.038236473	6.550600E+01
93	  0.038436871	-3.609000E+00	  0.038436871	6.561500E+01	  0.038436871	3.168800E+01	  0.038436871	6.749200E+01
94	  0.038637273	-3.687000E+00	  0.038637273	6.342700E+01	  0.038637273	3.395500E+01	  0.038637273	6.942000E+01
95	  0.038837675	-3.762000E+00	  0.038837675	6.130600E+01	  0.038837675	3.631500E+01	  0.038837675	7.130000E+01
96	  0.039038073	-3.828000E+00	  0.039038073	5.922100E+01	  0.039038073	3.877500E+01	  0.039038073	7.317700E+01
97	  0.039238475	-3.889000E+00	  0.039238475	5.709900E+01	  0.039238475	4.142400E+01	  0.039238475	7.512900E+01
98	  0.039438877	-3.949000E+00	  0.039438877	5.500800E+01	  0.039438877	4.424400E+01	  0.039438877	7.703800E+01
99	  0.039639279	-4.012000E+00	  0.039639279	5.292000E+01	  0.039639279	4.731700E+01	  0.039639279	7.888100E+01
100	  0.039839678	-4.067000E+00	  0.039839678	5.080400E+01	  0.039839678	5.061500E+01	  0.039839678	8.077800E+01
101	  0.040040080	-4.120000E+00	  0.040040080	4.869600E+01	  0.040040080	5.415900E+01	  0.040040080	8.261900E+01
102	  0.040240481	-4.172000E+00	  0.040240481	4.658400E+01	  0.040240481	5.798300E+01	  0.040240481	8.440200E+01
103	  0.040440880	-4.222000E+00	  0.040440880	4.447300E+01	  0.040440880	6.211000E+01	  0.040440880	8.608100E+01
104	  0.040641282	-4.273000E+00	  0.040641282	4.237700E+01	  0.040641282	6.654500E+01	  0.040641282	8.758300E+01
105	  0.040841684	-4.323000E+00	  0.040841684	4.027900E+01	  0.040841684	7.131500E+01	  0.040841684	8.892100E+01
106	  0.041042086	-4.374000E+00	  0.041042086	3.820500E+01	  0.041042086	7.639800E+01	  0.041042086	8.996000E+01
107	  0.041242484	-4.424000E+00	  0.041242484	3.609800E+01	  0.041242484	8.191300E+01	  0.041242484	9.075600E+01
108	  0.041442886	-4.474000E+00	  0.041442886	3.401500E+01	  0.041442886	8.772800E+01	  0.041442886	9.117300E+01
109	  0.041643288	-4.522000E+00	  0.041643288	3.190600E+01	  0.041643288	9.397000E+01	  0.041643288	9.120800E+01
110	  0.041843686	-4.570000E+00	  0.041843686	2.980800E+01	  0.041843686	1.005220E+02	  0.041843686	9.071600E+01
111	  0.042044088	-4.619000E+00	  0.042044088	2.773400E+01	  0.042044088	1.072980E+02	  0.042044088	8.961600E+01
112	  0.042244490	-4.662000E+00	  0.042244490	2.566700E+01	  0.042244490	1.143070E+02	  0.042244490	8.794900E+01
113	  0.042444889	-4.711000E+00	  0.042444889	2.361700E+01	  0.042444889	1.214010E+02	  0.042444889	8.540300E+01
114	  0.042645290	-4.758000E+00	  0.042645290	2.156000E+01	  0.042645290	1.285950E+02	  0.042645290	8.209200E+01
115	  0.042845692	-4.804000E+00	  0.042845692	1.951600E+01	  0.042845692	1.356930E+02	  0.042845692	7.792400E+01
116	  0.043046094	-4.847000E+00	  0.043046094	1.747200E+01	  0.043046094	1.426340E+02	  0.043046094	7.290000E+01
117	  0.043246493	-4.891000E+00	  0.043246493	1.542200E+01	  0.043246493	1.492300E+02	  0.043246493	6.687800E+01
118	  0.043446895	-4.935000E+00	  0.043446895	1.339700E+01	  0.043446895	1.552140E+02	  0.043446895	6.000400E+01
119	  0.043647297	-4.975000E+00	  0.043647297	1.136500E+01	  0.043647297	1.606290E+02	  0.043647297	5.234600E+01
120	  0.043847695	-5.019000E+00	  0.043847695	9.351000E+00	  0.043847695	1.650620E+02	  0.043847695	4.392800E+01
121	  0.044048097	-5.060000E+00	  0.044048097	7.353000E+00	  0.044048097	1.685150E+02	  0.044048097	3.500000E+01
122	  0.044248499	-5.100000E+00	  0.044248499	5.340000E+00	  0.044248499	1.709670E+02	  0.044248499	2.559900E+01
123	  0.044448901	-5.139000E+00	  0.044448901	3.350000E+00	  0.044448901	1.722820E+02	  0.044448901	1.606400E+01
124	  0.044649299	-5.179000E+00	  0.044649299	1.365000E+00	  0.044649299	1.723660E+02	  0.044649299	6.495000E+00
125	  0.044849701	-5.216000E+00	  0.044849701	-6.090000E-01	  0.044849701	1.714280E+02	  0.044849701	-2.860000E+00
126	  0.045050103	-5.250000E+00	  0.045050103	-2.600000E+00	  0.045050103	1.695220E+02	  0.045050103	-1.198300E+01
127	  0.045250501	-5.282000E+00	  0.045250501	-4.571000E+00	  0.045250501	1.666720E+02	  0.045250501	-2.054800E+01
128	  0.045450903	-5.315000E+00	  0.045450903	-6.539000E+00	  0.045450903	1.629940E+02	  0.045450903	-2.852300E+01
129	  0.045651305	-5.350000E+00	  0.045651305	-8.499000E+00	  0.045651305	1.585470E+02	  0.045651305	-3.573900E+01
130	  0.045851704	-5.381000E+00	  0.045851704	-1.042600E+01	  0.045851704	1.537230E+02	  0.045851704	-4.215300E+01
131	  0.046052102	-5.410000E+00	  0.046052102	-1.238200E+01	  0.046052102	1.484530E+02	  0.046052102	-4.794200E+01
132	  0.046252504	-5.443000E+00	  0.046252504	-1.428700E+01	  0.046252504	1.429670E+02	  0.046252504	-5.277700E+01
133	  0.046452906	-5.468000E+00	  0.046452906	-1.617700E+01	  0.046452906	1.374640E+02	  0.046452906	-5.699000E+01
134	  0.046653304	-5.497000E+00	  0.046653304	-1.809900E+01	  0.046653304	1.317530E+02	  0.046653304	-6.054400E+01
135	  0.046853706	-5.523000E+00	  0.046853706	-1.999500E+01	  0.046853706	1.261450E+02	  0.046853706	-6.346400E+01
136	  0.047054108	-5.549000E+00	  0.047054108	-2.189600E+01	  0.047054108	1.206020E+02	  0.047054108	-6.582900E+01
137	  0.047254506	-5.572000E+00	  0.047254506	-2.378400E+01	  0.047254506	1.152230E+02	  0.047254506	-6.768600E+01
138	  0.047454908	-5.592000E+00	  0.047454908	-2.565500E+01	  0.047454908	1.100650E+02	  0.047454908	-6.913900E+01
139	  0.047655310	-5.614000E+00	  0.047655310	-2.752200E+01	  0.047655310	1.050770E+02	  0.047655310	-7.013600E+01
140	  0.047855709	-5.635000E+00	  0.047855709	-2.934000E+01	  0.047855709	1.004060E+02	  0.047855709	-7.075700E+01
141	  0.048056111	-5.659000E+00	  0.048056111	-3.116800E+01	  0.048056111	9.590600E+01	  0.048056111	-7.104300E+01
142	  0.048256513	-5.680000E+00	  0.048256513	-3.294800E+01	  0.048256513	9.173300E+01	  0.048256513	-7.111000E+01
143	  0.048456915	-5.698000E+00	  0.048456915	-3.474200E+01	  0.048456915	8.772900E+01	  0.048456915	-7.100000E+01
144	  0.048657313	-5.720000E+00	  0.048657313	-3.654500E+01	  0.048657313	8.390800E+01	  0.048657313	-7.065000E+01
145	  0.048857715	-5.738000E+00	  0.048857715	-3.835200E+01	  0.048857715	8.027600E+01	  0.048857715	-7.018100E+01
146	  0.049058117	-5.755000E+00	  0.049058117	-4.011700E+01	  0.049058117	7.691600E+01	  0.049058117	-6.959100E+01
147	  0.049258515	-5.769000E+00	  0.049258515	-4.189100E+01	  0.049258515	7.371300E+01	  0.049258515	-6.891900E+01
148	  0.049458917	-5.787000E+00	  0.049458917	-4.361200E+01	  0.049458917	7.077900E+01	  0.049458917	-6.812300E+01
149	  0.049659319	-5.803000E+00	  0.049659319	-4.535100E+01	  0.049659319	6.797300E+01	  0.049659319	-6.725200E+01
150	  0.049859721	-5.821000E+00	  0.049859721	-4.706400E+01	  0.049859721	6.536200E+01	  0.049859721	-6.631700E+01
151	  0.050060119	-5.837000E+00	  0.050060119	-4.877200E+01	  0.050060119	6.289500E+01	  0.050060119	-6.535300E+01
152	  0.050260521	-5.852000E+00	  0.050260521	-5.048000E+01	  0.050260521	6.055700E+01	  0.050260521	-6.435100E+01
153	  0.050460923	-5.863000E+00	  0.050460923	-5.219800E+01	  0.050460923	5.832200E+01	  0.050460923	-6.334000E+01
154	  0.050661322	-5.874000E+00	  0.050661322	-5.387800E+01	  0.050661322	5.625200E+01	  0.050661322	-6.231700E+01
155	  0.050861724	-5.884000E+00	  0.050861724	-5.556200E+01	  0.050861724	5.428100E+01	  0.050861724	-6.128000E+01
156	  0.051062126	-5.899000E+00	  0.051062126	-5.723000E+01	  0.051062126	5.245200E+01	  0.051062126	-6.019500E+01
157	  0.051262524	-5.912000E+00	  0.051262524	-5.888200E+01	  0.051262524	5.072800E+01	  0.051262524	-5.912300E+01
158	  0.051462926	-5.924000E+00	  0.051462926	-6.051400E+01	  0.051462926	4.910700E+01	  0.051462926	-5.806700E+01
159	  0.051663328	-5.934000E+00	  0.051663328	-6.214900E+01	  0.051663328	4.756200E+01	  0.051663328	-5.700800E+01
160	  0.051863730	-5.944000E+00	  0.051863730	-6.377200E+01	  0.051863730	4.610200E+01	  0.051863730	-5.595800E+01
161	  0.052064128	-5.952000E+00	  0.052064128	-6.539600E+01	  0.052064128	4.470800E+01	  0.052064128	-5.491600E+01
162	  0.052264530	-5.954000E+00	  0.052264530	-6.699800E+01	  0.052264530	4.337700E+01	  0.052264530	-5.392000E+01
163	  0.052464932	-5.959000E+00	  0.052464932	-6.860700E+01	  0.052464932	4.211500E+01	  0.052464932	-5.290300E+01
164	  0.052665330	-5.967000E+00	  0.052665330	-7.016900E+01	  0.052665330	4.096100E+01	  0.052665330	-5.190300E+01
165	  0.052865732	-5.974000E+00	  0.052865732	-7.173900E+01	  0.052865732	3.985000E+01	  0.052865732	-5.090800E+01
166	  0.053066134	-5.982000E+00	  0.053066134	-7.328900E+01	  0.053066134	3.880900E+01	  0.053066134	-4.992700E+01
167	  0.053266536	-5.988000E+00	  0.053266536	-7.481700E+01	  0.053266536	3.782300E+01	  0.053266536	-4.897200E+01
168	  0.053466935	-5.993000E+00	  0.053466935	-7.636800E+01	  0.053466935	3.686200E+01	  0.053466935	-4.801600E+01
169	  0.053667337	-5.999000E+00	  0.053667337	-7.790100E+01	  0.053667337	3.595900E+01	  0.053667337	-4.707300E+01
170	  0.053867739	-6.003000E+00	  0.053867739	-7.941500E+01	  0.053867739	3.510100E+01	  0.053867739	-4.615500E+01
171	  0.054068137	-6.006000E+00	  0.054068137	-8.092400E+01	  0.054068137	3.427600E+01	  0.054068137	-4.525500E+01
172	  0.054268539	-6.011000E+00	  0.054268539	-8.240700E+01	  0.054268539	3.351200E+01	  0.054268539	-4.436500E+01
173	  0.054468941	-6.018000E+00	  0.054468941	-8.389500E+01	  0.054468941	3.278000E+01	  0.054468941	-4.347900E+01
174	  0.054669335	-6.022000E+00	  0.054669335	-8.535500E+01	  0.054669335	3.208500E+01	  0.054669335	-4.262300E+01
175	  0.054869737	-6.029000E+00	  0.054869737	-8.680000E+01	  0.054869737	3.143700E+01	  0.054869737	-4.177500E+01
176	  0.055070139	-6.035000E+00	  0.055070139	-8.822200E+01	  0.055070139	3.081900E+01	  0.055070139	-4.095400E+01
177	  0.055270538	-6.039000E+00	  0.055270538	-8.964300E+01	  0.055270538	3.021800E+01	  0.055270538	-4.014700E+01
178	  0.055470940	-6.044000E+00	  0.055470940	-9.107200E+01	  0.055470940	2.964500E+01	  0.055470940	-3.933700E+01
179	  0.055671342	-6.043000E+00	  0.055671342	-9.247300E+01	  0.055671342	2.908100E+01	  0.055671342	-3.856900E+01
180	  0.055871744	-6.048000E+00	  0.055871744	-9.387900E+01	  0.055871744	2.855800E+01	  0.055871744	-3.779000E+01
181	  0.056072142	-6.048000E+00	  0.056072142	-9.525500E+01	  0.056072142	2.805000E+01	  0.056072142	-3.704600E+01
182	  0.056272544	-6.051000E+00	  0.056272544	-9.662700E+01	  0.056272544	2.757300E+01	  0.056272544	-3.630200E+01
183	  0.056472946	-6.055000E+00	  0.056472946	-9.801300E+01	  0.056472946	2.711000E+01	  0.056472946	-3.555800E+01
184	  0.056673344	-6.053000E+00	  0.056673344	-9.931700E+01	  0.056673344	2.667300E+01	  0.056673344	-3.487600E+01
185	  0.056873746	-6.057000E+00	  0.056873746	-1.006810E+02	  0.056873746	2.625300E+01	  0.056873746	-3.415500E+01
186	  0.057074148	-6.055000E+00	  0.057074148	-1.019950E+02	  0.057074148	2.584100E+01	  0.057074148	-3.347900E+01
187	  0.057274550	-6.054000E+00	  0.057274550	-1.033420E+02	  0.057274550	2.543700E+01	  0.057274550	-3.279000E+01
188	  0.057474948	-6.053000E+00	  0.057474948	-1.046710E+02	  0.057474948	2.505500E+01	  0.057474948	-3.211500E+01
189	  0.057675350	-6.051000E+00	  0.057675350	-1.059940E+02	  0.057675350	2.468400E+01	  0.057675350	-3.145100E+01
190	  0.057875752	-6.047000E+00	  0.057875752	-1.073170E+02	  0.057875752	2.431900E+01	  0.057875752	-3.079500E+01
191	  0.058076151	-6.048000E+00	  0.058076151	-1.086200E+02	  0.058076151	2.398600E+01	  0.058076151	-3.014700E+01
192	  0.058276553	-6.043000E+00	  0.058276553	-1.099080E+02	  0.058276553	2.365200E+01	  0.058276553	-2.952000E+01
193	  0.058476955	-6.039000E+00	  0.058476955	-1.112140E+02	  0.058476955	2.332700E+01	  0.058476955	-2.888800E+01
194	  0.058677353	-6.035000E+00	  0.058677353	-1.125050E+02	  0.058677353	2.301300E+01	  0.058677353	-2.826900E+01
195	  0.058877755	-6.027000E+00	  0.058877755	-1.138080E+02	  0.058877755	2.269900E+01	  0.058877755	-2.765200E+01
196	  0.059078157	-6.021000E+00	  0.059078157	-1.150830E+02	  0.059078157	2.240500E+01	  0.059078157	-2.705100E+01
197	  0.059278559	-6.013000E+00	  0.059278559	-1.163650E+02	  0.059278559	2.211200E+01	  0.059278559	-2.645400E+01
198	  0.059478957	-6.009000E+00	  0.059478957	-1.176570E+02	  0.059478957	2.184200E+01	  0.059478957	-2.584900E+01
199	  0.059679359	-6.005000E+00	  0.059679359	-1.188980E+02	  0.059679359	2.158900E+01	  0.059679359	-2.527300E+01
200	  0.059879761	-5.998000E+00	  0.059879761	-1.201800E+02	  0.059879761	2.132800E+01	  0.059879761	-2.468600E+01
201	  0.060080159	-5.996000E+00	  0.060080159	-1.214180E+02	  0.060080159	2.109600E+01	  0.060080159	-2.411800E+01
202	  0.060280561	-5.990000E+00	  0.060280561	-1.226490E+02	  0.060280561	2.086300E+01	  0.060280561	-2.356000E+01
203	  0.060480963	-5.989000E+00	  0.060480963	-1.238930E+02	  0.060480963	2.065200E+01	  0.060480963	-2.299300E+01
204	  0.060681365	-5.983000E+00	  0.060681365	-1.251230E+02	  0.060681365	2.043300E+01	  0.060681365	-2.244300E+01
205	  0.060881764	-5.977000E+00	  0.060881764	-1.263470E+02	  0.060881764	2.022300E+01	  0.060881764	-2.189800E+01
206	  0.061082166	-5.973000E+00	  0.061082166	-1.275870E+02	  0.061082166	2.002400E+01	  0.061082166	-2.134800E+01
207	  0.061282568	-5.973000E+00	  0.061282568	-1.287790E+02	  0.061282568	1.984700E+01	  0.061282568	-2.081800E+01
208	  0.061482966	-5.968000E+00	  0.061482966	-1.299790E+02	  0.061482966	1.966200E+01	  0.061482966	-2.029300E+01
209	  0.061683368	-5.969000E+00	  0.061683368	-1.311810E+02	  0.061683368	1.950200E+01	  0.061683368	-1.976300E+01
210	  0.061883770	-5.965000E+00	  0.061883770	-1.323620E+02	  0.061883770	1.933400E+01	  0.061883770	-1.925100E+01
211	  0.062084168	-5.964000E+00	  0.062084168	-1.335380E+02	  0.062084168	1.918100E+01	  0.062084168	-1.874000E+01
212	  0.062284570	-5.962000E+00	  0.062284570	-1.347130E+02	  0.062284570	1.902900E+01	  0.062284570	-1.823400E+01
213	  0.062484972	-5.954000E+00	  0.062484972	-1.358740E+02	  0.062484972	1.886800E+01	  0.062484972	-1.774100E+01
214	  0.062685370	-5.951000E+00	  0.062685370	-1.370260E+02	  0.062685370	1.873000E+01	  0.062685370	-1.725000E+01
215	  0.062885776	-5.953000E+00	  0.062885776	-1.381760E+02	  0.062885776	1.860600E+01	  0.062885776	-1.675900E+01
216	  0.063086174	-5.954000E+00	  0.063086174	-1.393550E+02	  0.063086174	1.848300E+01	  0.063086174	-1.625900E+01
217	  0.063286573	-5.952000E+00	  0.063286573	-1.404930E+02	  0.063286573	1.836200E+01	  0.063286573	-1.577900E+01
218	  0.063486971	-5.954000E+00	  0.063486971	-1.416310E+02	  0.063486971	1.825200E+01	  0.063486971	-1.530100E+01
219	  0.063687377	-5.953000E+00	  0.063687377	-1.427350E+02	  0.063687377	1.814600E+01	  0.063687377	-1.483900E+01
220	  0.063887775	-5.950000E+00	  0.063887775	-1.438580E+02	  0.063887775	1.803400E+01	  0.063887775	-1.437300E+01
221	  0.064088173	-5.953000E+00	  0.064088173	-1.450040E+02	  0.064088173	1.793900E+01	  0.064088173	-1.389700E+01
222	  0.064288579	-5.957000E+00	  0.064288579	-1.461380E+02	  0.064288579	1.785300E+01	  0.064288579	-1.342600E+01
223	  0.064488977	-5.958000E+00	  0.064488977	-1.472780E+02	  0.064488977	1.776200E+01	  0.064488977	-1.295600E+01
224	  0.064689375	-5.961000E+00	  0.064689375	-1.483770E+02	  0.064689375	1.768400E+01	  0.064689375	-1.250400E+01
225	  0.064889781	-5.966000E+00	  0.064889781	-1.494950E+02	  0.064889781	1.761200E+01	  0.064889781	-1.204600E+01
226	  0.065090179	-5.965000E+00	  0.065090179	-1.505740E+02	  0.065090179	1.753300E+01	  0.065090179	-1.160700E+01
227	  0.065290578	-5.967000E+00	  0.065290578	-1.516690E+02	  0.065290578	1.746100E+01	  0.065290578	-1.116200E+01
228	  0.065490983	-5.968000E+00	  0.065490983	-1.527630E+02	  0.065490983	1.739100E+01	  0.065490983	-1.071900E+01
229	  0.065691382	-5.968000E+00	  0.065691382	-1.538350E+02	  0.065691382	1.732500E+01	  0.065691382	-1.028700E+01
230	  0.065891780	-5.970000E+00	  0.065891780	-1.549420E+02	  0.065891780	1.726200E+01	  0.065891780	-9.842000E+00
231	  0.066092186	-5.974000E+00	  0.066092186	-1.559950E+02	  0.066092186	1.721200E+01	  0.066092186	-9.418000E+00
232	  0.066292584	-5.977000E+00	  0.066292584	-1.570350E+02	  0.066292584	1.716200E+01	  0.066292584	-9.002000E+00
233	  0.066492982	-5.984000E+00	  0.066492982	-1.581230E+02	  0.066492982	1.712300E+01	  0.066492982	-8.566000E+00
234	  0.066693388	-5.984000E+00	  0.066693388	-1.591490E+02	  0.066693388	1.707200E+01	  0.066693388	-8.158000E+00
235	  0.066893786	-5.991000E+00	  0.066893786	-1.601860E+02	  0.066893786	1.704100E+01	  0.066893786	-7.744000E+00
236	  0.067094192	-5.997000E+00	  0.067094192	-1.611920E+02	  0.067094192	1.701000E+01	  0.067094192	-7.345000E+00
237	  0.067294590	-5.997000E+00	  0.067294590	-1.622450E+02	  0.067294590	1.696800E+01	  0.067294590	-6.929000E+00
238	  0.067494988	-6.000000E+00	  0.067494988	-1.632320E+02	  0.067494988	1.693500E+01	  0.067494988	-6.539000E+00
239	  0.067695394	-6.001000E+00	  0.067695394	-1.642580E+02	  0.067695394	1.689900E+01	  0.067695394	-6.135000E+00
240	  0.067895792	-6.006000E+00	  0.067895792	-1.652590E+02	  0.067895792	1.687600E+01	  0.067895792	-5.741000E+00
241	  0.068096191	-6.018000E+00	  0.068096191	-1.662520E+02	  0.068096191	1.687500E+01	  0.068096191	-5.349000E+00
242	  0.068296596	-6.020000E+00	  0.068296596	-1.672410E+02	  0.068296596	1.685100E+01	  0.068296596	-4.961000E+00
243	  0.068496995	-6.021000E+00	  0.068496995	-1.682450E+02	  0.068496995	1.682400E+01	  0.068496995	-4.569000E+00
244	  0.068697393	-6.027000E+00	  0.068697393	-1.691810E+02	  0.068697393	1.681600E+01	  0.068697393	-4.203000E+00
245	  0.068897791	-6.028000E+00	  0.068897791	-1.701560E+02	  0.068897791	1.679700E+01	  0.068897791	-3.823000E+00
246	  0.069098189	-6.028000E+00	  0.069098189	-1.711110E+02	  0.069098189	1.677600E+01	  0.069098189	-3.450000E+00
247	  0.069298595	-6.033000E+00	  0.069298595	-1.720860E+02	  0.069298595	1.676900E+01	  0.069298595	-3.070000E+00
248	  0.069498993	-6.033000E+00	  0.069498993	-1.730410E+02	  0.069498993	1.675300E+01	  0.069498993	-2.699000E+00
249	  0.069699399	-6.037000E+00	  0.069699399	-1.740170E+02	  0.069699399	1.675100E+01	  0.069699399	-2.320000E+00
250	  0.069899797	-6.041000E+00	  0.069899797	-1.749650E+02	  0.069899797	1.674900E+01	  0.069899797	-1.951000E+00
251	  0.070100196	-6.043000E+00	  0.070100196	-1.759310E+02	  0.070100196	1.674400E+01	  0.070100196	-1.576000E+00
252	  0.070300601	-6.042000E+00	  0.070300601	-1.768530E+02	  0.070300601	1.673400E+01	  0.070300601	-1.219000E+00
253	  0.070501000	-6.046000E+00	  0.070501000	-1.778030E+02	  0.070501000	1.673700E+01	  0.070501000	-8.510000E-01
254	  0.070701398	-6.049000E+00	  0.070701398	-1.787330E+02	  0.070701398	1.674200E+01	  0.070701398	-4.900000E-01
255	  0.070901804	-6.048000E+00	  0.070901804	-1.796430E+02	  0.070901804	1.673700E+01	  0.070901804	-1.380000E-01
256	  0.071102202	-6.050000E+00	  0.071102202	1.793920E+02	  0.071102202	1.674400E+01	  0.071102202	2.350000E-01
257	  0.071302600	-6.055000E+00	  0.071302600	1.784610E+02	  0.071302600	1.675700E+01	  0.071302600	5.950000E-01
258	  0.071503006	-6.058000E+00	  0.071503006	1.775290E+02	  0.071503006	1.677000E+01	  0.071503006	9.560000E-01
259	  0.071703404	-6.063000E+00	  0.071703404	1.766090E+02	  0.071703404	1.678800E+01	  0.071703404	1.313000E+00
260	  0.071903802	-6.065000E+00	  0.071903802	1.756700E+02	  0.071903802	1.680200E+01	  0.071903802	1.676000E+00
261	  0.072104208	-6.073000E+00	  0.072104208	1.747480E+02	  0.072104208	1.683100E+01	  0.072104208	2.033000E+00
262	  0.072304606	-6.074000E+00	  0.072304606	1.738080E+02	  0.072304606	1.684800E+01	  0.072304606	2.397000E+00
263	  0.072505005	-6.078000E+00	  0.072505005	1.728890E+02	  0.072505005	1.687100E+01	  0.072505005	2.753000E+00
264	  0.072705410	-6.080000E+00	  0.072705410	1.719760E+02	  0.072705410	1.689100E+01	  0.072705410	3.108000E+00
265	  0.072905809	-6.088000E+00	  0.072905809	1.710410E+02	  0.072905809	1.693000E+01	  0.072905809	3.470000E+00
266	  0.073106214	-6.092000E+00	  0.073106214	1.701250E+02	  0.073106214	1.696200E+01	  0.073106214	3.825000E+00
267	  0.073306613	-6.097000E+00	  0.073306613	1.691900E+02	  0.073306613	1.699600E+01	  0.073306613	4.188000E+00
268	  0.073507011	-6.103000E+00	  0.073507011	1.682720E+02	  0.073507011	1.703500E+01	  0.073507011	4.544000E+00
269	  0.073707417	-6.110000E+00	  0.073707417	1.673630E+02	  0.073707417	1.707800E+01	  0.073707417	4.897000E+00
270	  0.073907815	-6.118000E+00	  0.073907815	1.664520E+02	  0.073907815	1.712700E+01	  0.073907815	5.250000E+00
271	  0.074108213	-6.121000E+00	  0.074108213	1.655490E+02	  0.074108213	1.716500E+01	  0.074108213	5.602000E+00
272	  0.074308619	-6.127000E+00	  0.074308619	1.646450E+02	  0.074308619	1.721100E+01	  0.074308619	5.953000E+00
273	  0.074509017	-6.135000E+00	  0.074509017	1.637360E+02	  0.074509017	1.726600E+01	  0.074509017	6.307000E+00
274	  0.074709415	-6.144000E+00	  0.074709415	1.628140E+02	  0.074709415	1.732600E+01	  0.074709415	6.666000E+00
275	  0.074909821	-6.147000E+00	  0.074909821	1.619210E+02	  0.074909821	1.737000E+01	  0.074909821	7.015000E+00
276	  0.075110219	-6.157000E+00	  0.075110219	1.610260E+02	  0.075110219	1.743500E+01	  0.075110219	7.363000E+00
277	  0.075310618	-6.167000E+00	  0.075310618	1.601210E+02	  0.075310618	1.750100E+01	  0.075310618	7.716000E+00
278	  0.075511023	-6.173000E+00	  0.075511023	1.592220E+02	  0.075511023	1.756000E+01	  0.075511023	8.068000E+00
279	  0.075711422	-6.176000E+00	  0.075711422	1.583570E+02	  0.075711422	1.761300E+01	  0.075711422	8.408000E+00
280	  0.075911827	-6.188000E+00	  0.075911827	1.574880E+02	  0.075911827	1.769000E+01	  0.075911827	8.747000E+00
281	  0.076112226	-6.192000E+00	  0.076112226	1.565890E+02	  0.076112226	1.774900E+01	  0.076112226	9.101000E+00
282	  0.076312624	-6.202000E+00	  0.076312624	1.557090E+02	  0.076312624	1.782700E+01	  0.076312624	9.445000E+00
283	  0.076513030	-6.215000E+00	  0.076513030	1.548230E+02	  0.076513030	1.791400E+01	  0.076513030	9.792000E+00
284	  0.076713428	-6.219000E+00	  0.076713428	1.539580E+02	  0.076713428	1.797800E+01	  0.076713428	1.013400E+01
285	  0.076913826	-6.230000E+00	  0.076913826	1.530750E+02	  0.076913826	1.806500E+01	  0.076913826	1.048100E+01
286	  0.077114232	-6.239000E+00	  0.077114232	1.522450E+02	  0.077114232	1.814400E+01	  0.077114232	1.080800E+01
287	  0.077314630	-6.248000E+00	  0.077314630	1.513790E+02	  0.077314630	1.822800E+01	  0.077314630	1.115000E+01
288	  0.077515028	-6.255000E+00	  0.077515028	1.505360E+02	  0.077515028	1.830700E+01	  0.077515028	1.148400E+01
289	  0.077715434	-6.267000E+00	  0.077715434	1.496540E+02	  0.077715434	1.840600E+01	  0.077715434	1.183200E+01
290	  0.077915832	-6.281000E+00	  0.077915832	1.488310E+02	  0.077915832	1.850600E+01	  0.077915832	1.215600E+01
291	  0.078116231	-6.293000E+00	  0.078116231	1.479750E+02	  0.078116231	1.860700E+01	  0.078116231	1.249400E+01
292	  0.078316636	-6.301000E+00	  0.078316636	1.471260E+02	  0.078316636	1.869600E+01	  0.078316636	1.283300E+01
293	  0.078517035	-6.314000E+00	  0.078517035	1.462690E+02	  0.078517035	1.880500E+01	  0.078517035	1.317200E+01
294	  0.078717433	-6.327000E+00	  0.078717433	1.454530E+02	  0.078717433	1.891100E+01	  0.078717433	1.349500E+01
295	  0.078917839	-6.337000E+00	  0.078917839	1.446060E+02	  0.078917839	1.901500E+01	  0.078917839	1.383300E+01
296	  0.079118237	-6.352000E+00	  0.079118237	1.437880E+02	  0.079118237	1.913000E+01	  0.079118237	1.415700E+01
297	  0.079318643	-6.365000E+00	  0.079318643	1.429430E+02	  0.079318643	1.924700E+01	  0.079318643	1.449400E+01
298	  0.079519041	-6.380000E+00	  0.079519041	1.421650E+02	  0.079519041	1.936300E+01	  0.079519041	1.480200E+01
299	  0.079719439	-6.391000E+00	  0.079719439	1.413200E+02	  0.079719439	1.947900E+01	  0.079719439	1.514100E+01
300	  0.079919845	-6.407000E+00	  0.079919845	1.404930E+02	  0.079919845	1.960900E+01	  0.079919845	1.546900E+01
301	  0.080120243	-6.420000E+00	  0.080120243	1.396620E+02	  0.080120243	1.973500E+01	  0.080120243	1.580100E+01
302	  0.080320641	-6.431000E+00	  0.080320641	1.388550E+02	  0.080320641	1.985200E+01	  0.080320641	1.612600E+01
303	  0.080521047	-6.451000E+00	  0.080521047	1.380530E+02	  0.080521047	1.999800E+01	  0.080521047	1.644300E+01
304	  0.080721445	-6.464000E+00	  0.080721445	1.372570E+02	  0.080721445	2.012600E+01	  0.080721445	1.676300E+01
305	  0.080921844	-6.484000E+00	  0.080921844	1.364300E+02	  0.080921844	2.027900E+01	  0.080921844	1.709000E+01
306	  0.081122249	-6.499000E+00	  0.081122249	1.356570E+02	  0.081122249	2.041700E+01	  0.081122249	1.739900E+01
307	  0.081322648	-6.517000E+00	  0.081322648	1.348520E+02	  0.081322648	2.056500E+01	  0.081322648	1.772100E+01
308	  0.081523046	-6.533000E+00	  0.081523046	1.340690E+02	  0.081523046	2.071200E+01	  0.081523046	1.803400E+01
309	  0.081723452	-6.548000E+00	  0.081723452	1.332700E+02	  0.081723452	2.085800E+01	  0.081723452	1.835600E+01
310	  0.081923850	-6.562000E+00	  0.081923850	1.324900E+02	  0.081923850	2.100100E+01	  0.081923850	1.867100E+01
311	  0.082124248	-6.577000E+00	  0.082124248	1.316840E+02	  0.082124248	2.115500E+01	  0.082124248	1.899600E+01
312	  0.082324654	-6.595000E+00	  0.082324654	1.309150E+02	  0.082324654	2.131400E+01	  0.082324654	1.930300E+01
313	  0.082525052	-6.609000E+00	  0.082525052	1.301310E+02	  0.082525052	2.146700E+01	  0.082525052	1.962100E+01
314	  0.082725458	-6.628000E+00	  0.082725458	1.293980E+02	  0.082725458	2.162900E+01	  0.082725458	1.991300E+01
315	  0.082925856	-6.648000E+00	  0.082925856	1.286070E+02	  0.082925856	2.180500E+01	  0.082925856	2.022900E+01
316	  0.083126254	-6.666000E+00	  0.083126254	1.278500E+02	  0.083126254	2.197500E+01	  0.083126254	2.053200E+01
317	  0.083326660	-6.682000E+00	  0.083326660	1.270810E+02	  0.083326660	2.214300E+01	  0.083326660	2.084200E+01
318	  0.083527058	-6.699000E+00	  0.083527058	1.263240E+02	  0.083527058	2.231500E+01	  0.083527058	2.114700E+01
319	  0.083727457	-6.720000E+00	  0.083727457	1.255670E+02	  0.083727457	2.249800E+01	  0.083727457	2.144800E+01
320	  0.083927862	-6.740000E+00	  0.083927862	1.248190E+02	  0.083927862	2.268300E+01	  0.083927862	2.174600E+01
321	  0.084128261	-6.761000E+00	  0.084128261	1.240780E+02	  0.084128261	2.287100E+01	  0.084128261	2.204100E+01
322	  0.084328659	-6.781000E+00	  0.084328659	1.233150E+02	  0.084328659	2.306500E+01	  0.084328659	2.234500E+01
323	  0.084529065	-6.802000E+00	  0.084529065	1.226020E+02	  0.084529065	2.325300E+01	  0.084529065	2.262700E+01
324	  0.084729463	-6.820000E+00	  0.084729463	1.218760E+02	  0.084729463	2.343800E+01	  0.084729463	2.291900E+01
325	  0.084929854	-6.841000E+00	  0.084929854	1.211090E+02	  0.084929854	2.364500E+01	  0.084929854	2.322400E+01
326	  0.085130259	-6.861000E+00	  0.085130259	1.203530E+02	  0.085130259	2.384900E+01	  0.085130259	2.352600E+01
327	  0.085330658	-6.878000E+00	  0.085330658	1.195990E+02	  0.085330658	2.404600E+01	  0.085330658	2.383200E+01
328	  0.085531056	-6.900000E+00	  0.085531056	1.188860E+02	  0.085531056	2.425400E+01	  0.085531056	2.411200E+01
329	  0.085731462	-6.923000E+00	  0.085731462	1.181530E+02	  0.085731462	2.447200E+01	  0.085731462	2.440000E+01
330	  0.085931860	-6.941000E+00	  0.085931860	1.174510E+02	  0.085931860	2.467000E+01	  0.085931860	2.468100E+01
331	  0.086132258	-6.962000E+00	  0.086132258	1.167480E+02	  0.086132258	2.488100E+01	  0.086132258	2.495800E+01
332	  0.086332664	-6.985000E+00	  0.086332664	1.160580E+02	  0.086332664	2.509900E+01	  0.086332664	2.522600E+01
333	  0.086533062	-7.008000E+00	  0.086533062	1.153310E+02	  0.086533062	2.532800E+01	  0.086533062	2.551100E+01
334	  0.086733460	-7.028000E+00	  0.086733460	1.146080E+02	  0.086733460	2.555000E+01	  0.086733460	2.579800E+01
335	  0.086933866	-7.050000E+00	  0.086933866	1.139200E+02	  0.086933866	2.577400E+01	  0.086933866	2.606600E+01
336	  0.087134264	-7.069000E+00	  0.087134264	1.132100E+02	  0.087134264	2.599700E+01	  0.087134264	2.634800E+01
337	  0.087334670	-7.091000E+00	  0.087334670	1.125280E+02	  0.087334670	2.622400E+01	  0.087334670	2.661400E+01
338	  0.087535068	-7.116000E+00	  0.087535068	1.118470E+02	  0.087535068	2.646400E+01	  0.087535068	2.687300E+01
339	  0.087735467	-7.141000E+00	  0.087735467	1.111650E+02	  0.087735467	2.670900E+01	  0.087735467	2.713100E+01
340	  0.087935872	-7.167000E+00	  0.087935872	1.105130E+02	  0.087935872	2.695000E+01	  0.087935872	2.737500E+01
341	  0.088136271	-7.194000E+00	  0.088136271	1.098150E+02	  0.088136271	2.721100E+01	  0.088136271	2.763500E+01
342	  0.088336669	-7.212000E+00	  0.088336669	1.091430E+02	  0.088336669	2.744100E+01	  0.088336669	2.790000E+01
343	  0.088537075	-7.241000E+00	  0.088537075	1.084820E+02	  0.088537075	2.770300E+01	  0.088537075	2.814000E+01
344	  0.088737473	-7.260000E+00	  0.088737473	1.078450E+02	  0.088737473	2.793500E+01	  0.088737473	2.838600E+01
345	  0.088937871	-7.285000E+00	  0.088937871	1.071510E+02	  0.088937871	2.820100E+01	  0.088937871	2.864500E+01
346	  0.089138277	-7.309000E+00	  0.089138277	1.065160E+02	  0.089138277	2.845000E+01	  0.089138277	2.888100E+01
347	  0.089338675	-7.332000E+00	  0.089338675	1.058670E+02	  0.089338675	2.870500E+01	  0.089338675	2.912300E+01
348	  0.089539073	-7.365000E+00	  0.089539073	1.052320E+02	  0.089539073	2.898800E+01	  0.089539073	2.933900E+01
349	  0.089739479	-7.390000E+00	  0.089739479	1.046270E+02	  0.089739479	2.924100E+01	  0.089739479	2.955500E+01
350	  0.089939877	-7.414000E+00	  0.089939877	1.039770E+02	  0.089939877	2.951000E+01	  0.089939877	2.979200E+01
351	  0.090140276	-7.444000E+00	  0.090140276	1.033550E+02	  0.090140276	2.978700E+01	  0.090140276	3.000500E+01
352	  0.090340681	-7.469000E+00	  0.090340681	1.027000E+02	  0.090340681	3.006700E+01	  0.090340681	3.024000E+01
353	  0.090541080	-7.501000E+00	  0.090541080	1.021020E+02	  0.090541080	3.035100E+01	  0.090541080	3.043300E+01
354	  0.090741485	-7.528000E+00	  0.090741485	1.014650E+02	  0.090741485	3.063500E+01	  0.090741485	3.065500E+01
355	  0.090941884	-7.556000E+00	  0.090941884	1.008370E+02	  0.090941884	3.092500E+01	  0.090941884	3.086600E+01
356	  0.091142282	-7.586000E+00	  0.091142282	1.002610E+02	  0.091142282	3.120200E+01	  0.091142282	3.105100E+01
357	  0.091342688	-7.620000E+00	  0.091342688	9.963000E+01	  0.091342688	3.151600E+01	  0.091342688	3.124800E+01
358	  0.091543086	-7.654000E+00	  0.091543086	9.902000E+01	  0.091543086	3.182400E+01	  0.091543086	3.143500E+01
359	  0.091743484	-7.684000E+00	  0.091743484	9.838700E+01	  0.091743484	3.213200E+01	  0.091743484	3.163800E+01
360	  0.091943890	-7.718000E+00	  0.091943890	9.781100E+01	  0.091943890	3.243500E+01	  0.091943890	3.180500E+01
361	  0.092144288	-7.744000E+00	  0.092144288	9.720200E+01	  0.092144288	3.272800E+01	  0.092144288	3.200600E+01
362	  0.092344686	-7.781000E+00	  0.092344686	9.656500E+01	  0.092344686	3.306900E+01	  0.092344686	3.218600E+01
363	  0.092545092	-7.810000E+00	  0.092545092	9.598900E+01	  0.092545092	3.336500E+01	  0.092545092	3.236000E+01
364	  0.092745490	-7.848000E+00	  0.092745490	9.540100E+01	  0.092745490	3.369300E+01	  0.092745490	3.251500E+01
365	  0.092945889	-7.877000E+00	  0.092945889	9.480800E+01	  0.092945889	3.400200E+01	  0.092945889	3.269200E+01
366	  0.093146294	-7.915000E+00	  0.093146294	9.426700E+01	  0.093146294	3.431900E+01	  0.093146294	3.282100E+01
367	  0.093346693	-7.941000E+00	  0.093346693	9.368700E+01	  0.093346693	3.462000E+01	  0.093346693	3.299500E+01
368	  0.093547091	-7.977000E+00	  0.093547091	9.312900E+01	  0.093547091	3.494500E+01	  0.093547091	3.313100E+01
369	  0.093747497	-8.007000E+00	  0.093747497	9.256000E+01	  0.093747497	3.525700E+01	  0.093747497	3.328800E+01
370	  0.093947895	-8.043000E+00	  0.093947895	9.200300E+01	  0.093947895	3.558400E+01	  0.093947895	3.341900E+01
371	  0.094148301	-8.077000E+00	  0.094148301	9.143100E+01	  0.094148301	3.591700E+01	  0.094148301	3.355700E+01
372	  0.094348699	-8.110000E+00	  0.094348699	9.089900E+01	  0.094348699	3.622800E+01	  0.094348699	3.368400E+01
373	  0.094549097	-8.145000E+00	  0.094549097	9.038800E+01	  0.094549097	3.654100E+01	  0.094549097	3.379100E+01
374	  0.094749503	-8.173000E+00	  0.094749503	8.985600E+01	  0.094749503	3.684700E+01	  0.094749503	3.392200E+01
375	  0.094949901	-8.212000E+00	  0.094949901	8.934900E+01	  0.094949901	3.717200E+01	  0.094949901	3.401100E+01
376	  0.095150299	-8.237000E+00	  0.095150299	8.882100E+01	  0.095150299	3.747100E+01	  0.095150299	3.414900E+01
377	  0.095350705	-8.273000E+00	  0.095350705	8.834100E+01	  0.095350705	3.778100E+01	  0.095350705	3.422900E+01
378	  0.095551103	-8.305000E+00	  0.095551103	8.780700E+01	  0.095551103	3.810500E+01	  0.095551103	3.434300E+01
379	  0.095751502	-8.335000E+00	  0.095751502	8.732800E+01	  0.095751502	3.840200E+01	  0.095751502	3.443700E+01
380	  0.095951907	-8.370000E+00	  0.095951907	8.683300E+01	  0.095951907	3.872100E+01	  0.095951907	3.451900E+01
381	  0.096152306	-8.401000E+00	  0.096152306	8.635500E+01	  0.096152306	3.902100E+01	  0.096152306	3.460800E+01
382	  0.096352704	-8.431000E+00	  0.096352704	8.589700E+01	  0.096352704	3.931400E+01	  0.096352704	3.468600E+01
383	  0.096553110	-8.463000E+00	  0.096553110	8.541500E+01	  0.096553110	3.962300E+01	  0.096553110	3.476800E+01
384	  0.096753508	-8.491000E+00	  0.096753508	8.496300E+01	  0.096753508	3.991100E+01	  0.096753508	3.484400E+01
385	  0.096953906	-8.521000E+00	  0.096953906	8.453500E+01	  0.096953906	4.019100E+01	  0.096953906	3.490800E+01
386	  0.097154312	-8.551000E+00	  0.097154312	8.409300E+01	  0.097154312	4.048200E+01	  0.097154312	3.497000E+01
387	  0.097354710	-8.578000E+00	  0.097354710	8.362800E+01	  0.097354710	4.077700E+01	  0.097354710	3.505100E+01
388	  0.097555116	-8.607000E+00	  0.097555116	8.318000E+01	  0.097555116	4.107100E+01	  0.097555116	3.511400E+01
389	  0.097755514	-8.636000E+00	  0.097755514	8.275400E+01	  0.097755514	4.135500E+01	  0.097755514	3.516900E+01
390	  0.097955912	-8.664000E+00	  0.097955912	8.233700E+01	  0.097955912	4.163100E+01	  0.097955912	3.522300E+01
391	  0.098156318	-8.691000E+00	  0.098156318	8.193400E+01	  0.098156318	4.190000E+01	  0.098156318	3.527200E+01
392	  0.098356716	-8.715000E+00	  0.098356716	8.148900E+01	  0.098356716	4.218600E+01	  0.098356716	3.534300E+01
393	  0.098557115	-8.742000E+00	  0.098557115	8.111000E+01	  0.098557115	4.244500E+01	  0.098557115	3.537900E+01
394	  0.098757520	-8.762000E+00	  0.098757520	8.068900E+01	  0.098757520	4.271200E+01	  0.098757520	3.545200E+01
395	  0.098957919	-8.788000E+00	  0.098957919	8.025700E+01	  0.098957919	4.299700E+01	  0.098957919	3.550900E+01
396	  0.099158317	-8.811000E+00	  0.099158317	7.986700E+01	  0.099158317	4.325700E+01	  0.099158317	3.555600E+01
397	  0.099358723	-8.826000E+00	  0.099358723	7.945500E+01	  0.099358723	4.351100E+01	  0.099358723	3.563900E+01
398	  0.099559121	-8.846000E+00	  0.099559121	7.908300E+01	  0.099559121	4.375800E+01	  0.099559121	3.568500E+01
399	  0.099759519	-8.866000E+00	  0.099759519	7.870300E+01	  0.099759519	4.400800E+01	  0.099759519	3.573800E+01
400	  0.099959925	-8.875000E+00	  0.099959925	7.836900E+01	  0.099959925	4.421100E+01	  0.099959925	3.581100E+01
401	  0.100160323	-8.895000E+00	  0.100160323	7.790900E+01	  0.100160323	4.450700E+01	  0.100160323	3.588500E+01
402	  0.100360721	-8.908000E+00	  0.100360721	7.755500E+01	  0.100360721	4.473400E+01	  0.100360721	3.594600E+01
403	  0.100561127	-8.917000E+00	  0.100561127	7.720900E+01	  0.100561127	4.494600E+01	  0.100561127	3.602100E+01
404	  0.100761525	-8.935000E+00	  0.100761525	7.680100E+01	  0.100761525	4.521400E+01	  0.100761525	3.608000E+01
405	  0.100961931	-8.937000E+00	  0.100961931	7.643300E+01	  0.100961931	4.542800E+01	  0.100961931	3.618600E+01
406	  0.101162329	-8.943000E+00	  0.101162329	7.605200E+01	  0.101162329	4.565900E+01	  0.101162329	3.628000E+01
407	  0.101362728	-8.957000E+00	  0.101362728	7.569000E+01	  0.101362728	4.589700E+01	  0.101362728	3.633400E+01
408	  0.101563133	-8.958000E+00	  0.101563133	7.538200E+01	  0.101563133	4.608000E+01	  0.101563133	3.642000E+01
409	  0.101763532	-8.963000E+00	  0.101763532	7.501500E+01	  0.101763532	4.630600E+01	  0.101763532	3.650900E+01
410	  0.101963930	-8.968000E+00	  0.101963930	7.471800E+01	  0.101963930	4.649000E+01	  0.101963930	3.657900E+01
411	  0.102164328	-8.968000E+00	  0.102164328	7.435600E+01	  0.102164328	4.670600E+01	  0.102164328	3.668400E+01
412	  0.102364726	-8.977000E+00	  0.102364726	7.395900E+01	  0.102364726	4.696100E+01	  0.102364726	3.676300E+01
413	  0.102565125	-8.978000E+00	  0.102565125	7.359100E+01	  0.102565125	4.718500E+01	  0.102565125	3.686600E+01
414	  0.102765530	-8.973000E+00	  0.102765530	7.330200E+01	  0.102765530	4.735300E+01	  0.102765530	3.696500E+01
415	  0.102965929	-8.978000E+00	  0.102965929	7.292800E+01	  0.102965929	4.759100E+01	  0.102965929	3.705300E+01
416	  0.103166327	-8.980000E+00	  0.103166327	7.255700E+01	  0.103166327	4.782400E+01	  0.103166327	3.714900E+01
417	  0.103366733	-8.974000E+00	  0.103366733	7.221500E+01	  0.103366733	4.802600E+01	  0.103366733	3.726800E+01
418	  0.103567131	-8.973000E+00	  0.103567131	7.185300E+01	  0.103567131	4.825100E+01	  0.103567131	3.737000E+01
419	  0.103767529	-8.973000E+00	  0.103767529	7.148100E+01	  0.103767529	4.848700E+01	  0.103767529	3.747100E+01
420	  0.103967935	-8.974000E+00	  0.103967935	7.115200E+01	  0.103967935	4.869800E+01	  0.103967935	3.755600E+01
421	  0.104168333	-8.978000E+00	  0.104168333	7.072300E+01	  0.104168333	4.898000E+01	  0.104168333	3.765300E+01
422	  0.104368731	-8.972000E+00	  0.104368731	7.038400E+01	  0.104368731	4.918900E+01	  0.104368731	3.776800E+01
423	  0.104569137	-8.968000E+00	  0.104569137	6.995500E+01	  0.104569137	4.946000E+01	  0.104569137	3.790000E+01
424	  0.104769535	-8.965000E+00	  0.104769535	6.960700E+01	  0.104769535	4.968500E+01	  0.104769535	3.800100E+01
425	  0.104969934	-8.966000E+00	  0.104969934	6.915800E+01	  0.104969934	4.998300E+01	  0.104969934	3.811100E+01
426	  0.105170339	-8.967000E+00	  0.105170339	6.877600E+01	  0.105170339	5.024000E+01	  0.105170339	3.820200E+01
427	  0.105370738	-8.965000E+00	  0.105370738	6.833100E+01	  0.105370738	5.053700E+01	  0.105370738	3.832200E+01
428	  0.105571143	-8.965000E+00	  0.105571143	6.788500E+01	  0.105571143	5.083900E+01	  0.105571143	3.843100E+01
429	  0.105771542	-8.960000E+00	  0.105771542	6.739000E+01	  0.105771542	5.117000E+01	  0.105771542	3.857500E+01
430	  0.105971940	-8.949000E+00	  0.105971940	6.695500E+01	  0.105971940	5.145400E+01	  0.105971940	3.872900E+01
431	  0.106172346	-8.944000E+00	  0.106172346	6.648600E+01	  0.106172346	5.177400E+01	  0.106172346	3.886200E+01
432	  0.106372744	-8.940000E+00	  0.106372744	6.602200E+01	  0.106372744	5.209500E+01	  0.106372744	3.898800E+01
433	  0.106573142	-8.930000E+00	  0.106573142	6.555200E+01	  0.106573142	5.241700E+01	  0.106573142	3.913700E+01
434	  0.106773548	-8.922000E+00	  0.106773548	6.506000E+01	  0.106773548	5.275800E+01	  0.106773548	3.928700E+01
435	  0.106973946	-8.919000E+00	  0.106973946	6.455600E+01	  0.106973946	5.312000E+01	  0.106973946	3.941300E+01
436	  0.107174344	-8.909000E+00	  0.107174344	6.408100E+01	  0.107174344	5.345500E+01	  0.107174344	3.956100E+01
437	  0.107374750	-8.907000E+00	  0.107374750	6.350000E+01	  0.107374750	5.388400E+01	  0.107374750	3.969000E+01
438	  0.107575148	-8.894000E+00	  0.107575148	6.298800E+01	  0.107575148	5.425100E+01	  0.107575148	3.985800E+01
439	  0.107775547	-8.867000E+00	  0.107775547	6.246900E+01	  0.107775547	5.460900E+01	  0.107775547	4.009800E+01
440	  0.107975952	-8.863000E+00	  0.107975952	6.192300E+01	  0.107975952	5.502400E+01	  0.107975952	4.022200E+01
441	  0.108176351	-8.847000E+00	  0.108176351	6.147300E+01	  0.108176351	5.535400E+01	  0.108176351	4.038700E+01
442	  0.108376749	-8.831000E+00	  0.108376749	6.085100E+01	  0.108376749	5.582400E+01	  0.108376749	4.058400E+01
443	  0.108577155	-8.818000E+00	  0.108577155	6.035100E+01	  0.108577155	5.620600E+01	  0.108577155	4.074100E+01
444	  0.108777553	-8.802000E+00	  0.108777553	5.981400E+01	  0.108777553	5.661900E+01	  0.108777553	4.091700E+01
445	  0.108977959	-8.788000E+00	  0.108977959	5.924900E+01	  0.108977959	5.706300E+01	  0.108977959	4.108900E+01
446	  0.109178357	-8.771000E+00	  0.109178357	5.870100E+01	  0.109178357	5.749700E+01	  0.109178357	4.126600E+01
447	  0.109378755	-8.757000E+00	  0.109378755	5.811600E+01	  0.109378755	5.797000E+01	  0.109378755	4.143500E+01
448	  0.109579161	-8.742000E+00	  0.109579161	5.757600E+01	  0.109579161	5.841100E+01	  0.109579161	4.159500E+01
449	  0.109779559	-8.723000E+00	  0.109779559	5.697900E+01	  0.109779559	5.890300E+01	  0.109779559	4.178600E+01
450	  0.109979957	-8.713000E+00	  0.109979957	5.648500E+01	  0.109979957	5.932100E+01	  0.109979957	4.191200E+01
451	  0.110180363	-8.695000E+00	  0.110180363	5.588300E+01	  0.110180363	5.983300E+01	  0.110180363	4.208600E+01
452	  0.110380761	-8.684000E+00	  0.110380761	5.531400E+01	  0.110380761	6.032600E+01	  0.110380761	4.222100E+01
453	  0.110581160	-8.669000E+00	  0.110581160	5.473200E+01	  0.110581160	6.083600E+01	  0.110581160	4.237200E+01
454	  0.110781565	-8.662000E+00	  0.110781565	5.418300E+01	  0.110781565	6.132800E+01	  0.110781565	4.246800E+01
455	  0.110981964	-8.652000E+00	  0.110981964	5.352700E+01	  0.110981964	6.192200E+01	  0.110981964	4.258500E+01
456	  0.111182362	-8.641000E+00	  0.111182362	5.297300E+01	  0.111182362	6.242900E+01	  0.111182362	4.269500E+01
457	  0.111382768	-8.631000E+00	  0.111382768	5.233500E+01	  0.111382768	6.302200E+01	  0.111382768	4.280100E+01
458	  0.111583166	-8.625000E+00	  0.111583166	5.171400E+01	  0.111583166	6.360800E+01	  0.111583166	4.287400E+01
459	  0.111783572	-8.618000E+00	  0.111783572	5.105400E+01	  0.111783572	6.423800E+01	  0.111783572	4.294900E+01
460	  0.111983970	-8.615000E+00	  0.111983970	5.041700E+01	  0.111983970	6.485400E+01	  0.111983970	4.298500E+01
461	  0.112184368	-8.610000E+00	  0.112184368	4.980400E+01	  0.112184368	6.545300E+01	  0.112184368	4.303300E+01
462	  0.112384774	-8.610000E+00	  0.112384774	4.908800E+01	  0.112384774	6.616100E+01	  0.112384774	4.303700E+01
463	  0.112585172	-8.615000E+00	  0.112585172	4.840500E+01	  0.112585172	6.684300E+01	  0.112585172	4.299000E+01
464	  0.112785570	-8.611000E+00	  0.112785570	4.768200E+01	  0.112785570	6.757200E+01	  0.112785570	4.299800E+01
465	  0.112985976	-8.614000E+00	  0.112985976	4.697500E+01	  0.112985976	6.829200E+01	  0.112985976	4.294300E+01
466	  0.113186374	-8.618000E+00	  0.113186374	4.626800E+01	  0.113186374	6.901700E+01	  0.113186374	4.287400E+01
467	  0.113386773	-8.620000E+00	  0.113386773	4.551500E+01	  0.113386773	6.979800E+01	  0.113386773	4.279600E+01
468	  0.113587178	-8.628000E+00	  0.113587178	4.472400E+01	  0.113587178	7.062100E+01	  0.113587178	4.265500E+01
469	  0.113787577	-8.629000E+00	  0.113787577	4.397300E+01	  0.113787577	7.141200E+01	  0.113787577	4.255300E+01
470	  0.113987975	-8.637000E+00	  0.113987975	4.312900E+01	  0.113987975	7.230300E+01	  0.113987975	4.236800E+01
471	  0.114188381	-8.645000E+00	  0.114188381	4.232100E+01	  0.114188381	7.316200E+01	  0.114188381	4.217000E+01
472	  0.114388779	-8.655000E+00	  0.114388779	4.149500E+01	  0.114388779	7.404100E+01	  0.114388779	4.193600E+01
473	  0.114589177	-8.665000E+00	  0.114589177	4.071400E+01	  0.114589177	7.487600E+01	  0.114589177	4.169000E+01
474	  0.114789583	-8.675000E+00	  0.114789583	3.984600E+01	  0.114789583	7.580600E+01	  0.114789583	4.139300E+01
475	  0.114989981	-8.683000E+00	  0.114989981	3.893600E+01	  0.114989981	7.679100E+01	  0.114989981	4.108200E+01
476	  0.115190387	-8.693000E+00	  0.115190387	3.809500E+01	  0.115190387	7.769800E+01	  0.115190387	4.074200E+01
477	  0.115390785	-8.713000E+00	  0.115390785	3.720500E+01	  0.115390785	7.863600E+01	  0.115390785	4.028900E+01
478	  0.115591183	-8.729000E+00	  0.115591183	3.627300E+01	  0.115591183	7.962900E+01	  0.115591183	3.982500E+01
479	  0.115791589	-8.743000E+00	  0.115791589	3.541400E+01	  0.115791589	8.054100E+01	  0.115791589	3.936900E+01
480	  0.115991987	-8.759000E+00	  0.115991987	3.451300E+01	  0.115991987	8.149200E+01	  0.115991987	3.885600E+01
481	  0.116192386	-8.779000E+00	  0.116192386	3.356800E+01	  0.116192386	8.247100E+01	  0.116192386	3.826000E+01
482	  0.116392791	-8.803000E+00	  0.116392791	3.267800E+01	  0.116392791	8.336900E+01	  0.116392791	3.763200E+01
483	  0.116593190	-8.826000E+00	  0.116593190	3.177400E+01	  0.116593190	8.427000E+01	  0.116593190	3.696600E+01
484	  0.116793588	-8.851000E+00	  0.116793588	3.079400E+01	  0.116793588	8.523600E+01	  0.116793588	3.621700E+01
485	  0.116993994	-8.877000E+00	  0.116993994	2.982800E+01	  0.116993994	8.616400E+01	  0.116993994	3.543100E+01
486	  0.117194392	-8.910000E+00	  0.117194392	2.886700E+01	  0.117194392	8.703800E+01	  0.117194392	3.457000E+01
487	  0.117394790	-8.942000E+00	  0.117394790	2.789700E+01	  0.117394790	8.790200E+01	  0.117394790	3.367600E+01
488	  0.117595196	-8.978000E+00	  0.117595196	2.689900E+01	  0.117595196	8.874800E+01	  0.117595196	3.270000E+01
489	  0.117795594	-9.018000E+00	  0.117795594	2.592500E+01	  0.117795594	8.952000E+01	  0.117795594	3.168400E+01
490	  0.117995992	-9.059000E+00	  0.117995992	2.493700E+01	  0.117995992	9.027100E+01	  0.117995992	3.062800E+01
491	  0.118196398	-9.108000E+00	  0.118196398	2.392700E+01	  0.118196398	9.095900E+01	  0.118196398	2.947200E+01
492	  0.118396796	-9.154000E+00	  0.118396796	2.287300E+01	  0.118396796	9.166700E+01	  0.118396796	2.827600E+01
