! Anritsu VNA Master:             	Model: MS2036C/10/77
! SN:             	1601066
! /bd0/18may10/255.ew.m3.txt
! Existing Calibration Information:
! TYPE:             	Current Settings	Active Cal Settings
! TIME:             	05/10/2018 01:43:27 PM	05/10/2018 01:36:00 PM
! INTERNAL TEMP:    	55.5 C	54.5 C
! # POINTS:         	492	492
! START FREQ:       	20.000 MHz	20.000 MHz
! STOP FREQ:        	118.396 793 MHz	118.396 793 MHz
! SOURCE POWER:     	High	High
! IFBW:             	50 Hz	50 Hz
! AVG FACTOR:       	  1 	  1 
! REF PLANE 1:      	0 mm	0 mm
! REF PLANE 2:      	0 mm	0 mm
! CAL TYPE:         	Full S22	Full S22
! CAL METHOD:       	SOLT	SOLT
! CAL LINE TYPE:    	Coax	Coax
! DUT PORT 1:       	K-Conn(M)	K-Conn(M)
! DUT PORT 2:       	K-Conn(M)	K-Conn(M)
! CAL STATUS:       	OK: Accuracy High	--
! PROP-V:       	0.700
! CABLE LOSS:       	0.000 dB/m
! REF IMPEDANCE:       	50.0
! Trace Specific Parameters:	TR1	TR2	TR3	TR4
! TRACE.#.Y (GRAPH TYPE)	LOG MAG	PHASE	REAL IMPEDANCE	IMAGINARY IMPEDANCE
! TRACE.#.X 	FREQ.GHZ	FREQ.GHZ	FREQ.GHZ	FREQ.GHZ
! S-PARAMETER	S22	S22	S22	S22
! SMOOTH/APERTURE %	0	0	0	0
! WINDOW	NSL	NSL	NSL	NSL
! GATING	OFF	OFF	OFF	OFF
! FGTD	OFF	OFF	OFF	OFF
Marker Information per Trace:	TR1	TR2	TR3	TR4
!MK1	--	"MK1 TR2:  20.000 MHz,PH:-125.54°"	--	--
!MK2	--	--	"MK2 TR3:  70.100 200 MHz,Z:(16.748 ohm, -1.526 ohm)"	--
!MK3	--	--	--	--
!MK4	--	--	--	--
!MK5	--	--	--	--
!MK6	--	--	--	--
!MK7	--	--	--	--
!MK8	--	--	--	--
PNT	TR1.FREQ.GHZ	TR1.LOG MAG.dB	TR2.FREQ.GHZ	TR2.PHASE.deg	TR3.FREQ.GHZ	TR3.REAL IMPEDANCE.ohm	TR4.FREQ.GHZ	TR4.IMAGINARY IMPEDANCE.ohm
1	  0.020000000	-9.250000E-01	  0.020000000	-1.255430E+02	  0.020000000	3.362000E+00	  0.020000000	-2.563500E+01
2	  0.020200402	-9.330000E-01	  0.020200402	-1.269900E+02	  0.020200402	3.349000E+00	  0.020200402	-2.484400E+01
3	  0.020400802	-9.420000E-01	  0.020400802	-1.284240E+02	  0.020400802	3.340000E+00	  0.020400802	-2.407000E+01
4	  0.020601204	-9.500000E-01	  0.020601204	-1.298840E+02	  0.020601204	3.329000E+00	  0.020601204	-2.329100E+01
5	  0.020801604	-9.630000E-01	  0.020801604	-1.313880E+02	  0.020801604	3.332000E+00	  0.020801604	-2.249800E+01
6	  0.021002004	-9.710000E-01	  0.021002004	-1.328830E+02	  0.021002004	3.321000E+00	  0.021002004	-2.172000E+01
7	  0.021202406	-9.800000E-01	  0.021202406	-1.343910E+02	  0.021202406	3.315000E+00	  0.021202406	-2.094300E+01
8	  0.021402806	-9.900000E-01	  0.021402806	-1.358950E+02	  0.021402806	3.314000E+00	  0.021402806	-2.017700E+01
9	  0.021603208	-9.980000E-01	  0.021603208	-1.373800E+02	  0.021603208	3.304000E+00	  0.021603208	-1.942900E+01
10	  0.021803608	-1.008000E+00	  0.021803608	-1.388870E+02	  0.021803608	3.306000E+00	  0.021803608	-1.867800E+01
11	  0.022004008	-1.020000E+00	  0.022004008	-1.403810E+02	  0.022004008	3.312000E+00	  0.022004008	-1.794000E+01
12	  0.022204408	-1.032000E+00	  0.022204408	-1.418940E+02	  0.022204408	3.321000E+00	  0.022204408	-1.719900E+01
13	  0.022404809	-1.043000E+00	  0.022404809	-1.434480E+02	  0.022404809	3.324000E+00	  0.022404809	-1.644600E+01
14	  0.022605211	-1.049000E+00	  0.022605211	-1.450090E+02	  0.022605211	3.314000E+00	  0.022605211	-1.569700E+01
15	  0.022805611	-1.058000E+00	  0.022805611	-1.465650E+02	  0.022805611	3.316000E+00	  0.022805611	-1.495600E+01
16	  0.023006011	-1.067000E+00	  0.023006011	-1.481200E+02	  0.023006011	3.319000E+00	  0.023006011	-1.422200E+01
17	  0.023206413	-1.077000E+00	  0.023206413	-1.496690E+02	  0.023206413	3.323000E+00	  0.023206413	-1.349600E+01
18	  0.023406813	-1.086000E+00	  0.023406813	-1.512200E+02	  0.023406813	3.327000E+00	  0.023406813	-1.277500E+01
19	  0.023607215	-1.098000E+00	  0.023607215	-1.527830E+02	  0.023607215	3.341000E+00	  0.023607215	-1.205200E+01
20	  0.023807615	-1.111000E+00	  0.023807615	-1.543640E+02	  0.023807615	3.359000E+00	  0.023807615	-1.132700E+01
21	  0.024008015	-1.122000E+00	  0.024008015	-1.559730E+02	  0.024008015	3.370000E+00	  0.024008015	-1.059300E+01
22	  0.024208417	-1.135000E+00	  0.024208417	-1.575860E+02	  0.024208417	3.391000E+00	  0.024208417	-9.862000E+00
23	  0.024408817	-1.145000E+00	  0.024408817	-1.592130E+02	  0.024408817	3.402000E+00	  0.024408817	-9.129000E+00
24	  0.024609219	-1.156000E+00	  0.024609219	-1.608270E+02	  0.024609219	3.416000E+00	  0.024609219	-8.406000E+00
25	  0.024809619	-1.170000E+00	  0.024809619	-1.624640E+02	  0.024809619	3.443000E+00	  0.024809619	-7.675000E+00
26	  0.025010020	-1.184000E+00	  0.025010020	-1.641020E+02	  0.025010020	3.471000E+00	  0.025010020	-6.948000E+00
27	  0.025210422	-1.200000E+00	  0.025210422	-1.657360E+02	  0.025210422	3.502000E+00	  0.025210422	-6.225000E+00
28	  0.025410822	-1.215000E+00	  0.025410822	-1.674050E+02	  0.025410822	3.535000E+00	  0.025410822	-5.490000E+00
29	  0.025611224	-1.231000E+00	  0.025611224	-1.690640E+02	  0.025611224	3.570000E+00	  0.025611224	-4.762000E+00
30	  0.025811624	-1.246000E+00	  0.025811624	-1.707520E+02	  0.025811624	3.606000E+00	  0.025811624	-4.023000E+00
31	  0.026012026	-1.263000E+00	  0.026012026	-1.724610E+02	  0.026012026	3.645000E+00	  0.026012026	-3.276000E+00
32	  0.026212426	-1.279000E+00	  0.026212426	-1.741680E+02	  0.026212426	3.686000E+00	  0.026212426	-2.533000E+00
33	  0.026412826	-1.298000E+00	  0.026412826	-1.758770E+02	  0.026412826	3.736000E+00	  0.026412826	-1.789000E+00
34	  0.026613226	-1.317000E+00	  0.026613226	-1.776070E+02	  0.026613226	3.785000E+00	  0.026613226	-1.037000E+00
35	  0.026813626	-1.337000E+00	  0.026813626	-1.793410E+02	  0.026813626	3.842000E+00	  0.026813626	-2.850000E-01
36	  0.027014028	-1.359000E+00	  0.027014028	1.789260E+02	  0.027014028	3.906000E+00	  0.027014028	4.650000E-01
37	  0.027214428	-1.381000E+00	  0.027214428	1.771640E+02	  0.027214428	3.968000E+00	  0.027214428	1.229000E+00
38	  0.027414829	-1.404000E+00	  0.027414829	1.754080E+02	  0.027414829	4.039000E+00	  0.027414829	1.991000E+00
39	  0.027615231	-1.426000E+00	  0.027615231	1.736250E+02	  0.027615231	4.109000E+00	  0.027615231	2.765000E+00
40	  0.027815631	-1.449000E+00	  0.027815631	1.718480E+02	  0.027815631	4.183000E+00	  0.027815631	3.537000E+00
41	  0.028016033	-1.473000E+00	  0.028016033	1.700490E+02	  0.028016033	4.264000E+00	  0.028016033	4.321000E+00
42	  0.028216433	-1.500000E+00	  0.028216433	1.682380E+02	  0.028216433	4.354000E+00	  0.028216433	5.111000E+00
43	  0.028416833	-1.526000E+00	  0.028416833	1.664170E+02	  0.028416833	4.443000E+00	  0.028416833	5.908000E+00
44	  0.028617235	-1.552000E+00	  0.028617235	1.646030E+02	  0.028617235	4.538000E+00	  0.028617235	6.704000E+00
45	  0.028817635	-1.580000E+00	  0.028817635	1.627820E+02	  0.028817635	4.638000E+00	  0.028817635	7.505000E+00
46	  0.029018037	-1.607000E+00	  0.029018037	1.609560E+02	  0.029018037	4.742000E+00	  0.029018037	8.313000E+00
47	  0.029218437	-1.637000E+00	  0.029218437	1.591130E+02	  0.029218437	4.858000E+00	  0.029218437	9.131000E+00
48	  0.029418837	-1.668000E+00	  0.029418837	1.572560E+02	  0.029418837	4.978000E+00	  0.029418837	9.960000E+00
49	  0.029619239	-1.698000E+00	  0.029619239	1.553950E+02	  0.029619239	5.103000E+00	  0.029619239	1.079500E+01
50	  0.029819639	-1.729000E+00	  0.029819639	1.535140E+02	  0.029819639	5.234000E+00	  0.029819639	1.164400E+01
51	  0.030020041	-1.761000E+00	  0.030020041	1.516460E+02	  0.030020041	5.371000E+00	  0.030020041	1.249300E+01
52	  0.030220442	-1.792000E+00	  0.030220442	1.497590E+02	  0.030220442	5.512000E+00	  0.030220442	1.335600E+01
53	  0.030420844	-1.824000E+00	  0.030420844	1.478750E+02	  0.030420844	5.661000E+00	  0.030420844	1.422500E+01
54	  0.030621244	-1.858000E+00	  0.030621244	1.459940E+02	  0.030621244	5.820000E+00	  0.030621244	1.509900E+01
55	  0.030821642	-1.895000E+00	  0.030821642	1.441020E+02	  0.030821642	5.997000E+00	  0.030821642	1.598500E+01
56	  0.031022044	-1.929000E+00	  0.031022044	1.421870E+02	  0.031022044	6.170000E+00	  0.031022044	1.689100E+01
57	  0.031222444	-1.961000E+00	  0.031222444	1.402950E+02	  0.031222444	6.343000E+00	  0.031222444	1.779500E+01
58	  0.031422846	-1.999000E+00	  0.031422846	1.383460E+02	  0.031422846	6.545000E+00	  0.031422846	1.873400E+01
59	  0.031623244	-2.036000E+00	  0.031623244	1.363900E+02	  0.031623244	6.754000E+00	  0.031623244	1.968700E+01
60	  0.031823646	-2.075000E+00	  0.031823646	1.344230E+02	  0.031823646	6.978000E+00	  0.031823646	2.065700E+01
61	  0.032024048	-2.115000E+00	  0.032024048	1.324760E+02	  0.032024048	7.212000E+00	  0.032024048	2.162800E+01
62	  0.032224450	-2.155000E+00	  0.032224450	1.305030E+02	  0.032224450	7.460000E+00	  0.032224450	2.262400E+01
63	  0.032424849	-2.196000E+00	  0.032424849	1.285180E+02	  0.032424849	7.720000E+00	  0.032424849	2.363900E+01
64	  0.032625251	-2.238000E+00	  0.032625251	1.265280E+02	  0.032625251	7.998000E+00	  0.032625251	2.467000E+01
65	  0.032825653	-2.279000E+00	  0.032825653	1.245170E+02	  0.032825653	8.287000E+00	  0.032825653	2.572700E+01
66	  0.033026051	-2.322000E+00	  0.033026051	1.225050E+02	  0.033026051	8.598000E+00	  0.033026051	2.680100E+01
67	  0.033226453	-2.363000E+00	  0.033226453	1.204780E+02	  0.033226453	8.918000E+00	  0.033226453	2.790000E+01
68	  0.033426855	-2.405000E+00	  0.033426855	1.184470E+02	  0.033426855	9.259000E+00	  0.033426855	2.901800E+01
69	  0.033627257	-2.452000E+00	  0.033627257	1.164290E+02	  0.033627257	9.632000E+00	  0.033627257	3.014600E+01
70	  0.033827655	-2.496000E+00	  0.033827655	1.144120E+02	  0.033827655	1.001200E+01	  0.033827655	3.129400E+01
71	  0.034028057	-2.538000E+00	  0.034028057	1.123710E+02	  0.034028057	1.041000E+01	  0.034028057	3.247800E+01
72	  0.034228459	-2.587000E+00	  0.034228459	1.103400E+02	  0.034228459	1.085800E+01	  0.034228459	3.367100E+01
73	  0.034428857	-2.631000E+00	  0.034428857	1.082790E+02	  0.034428857	1.131100E+01	  0.034428857	3.491200E+01
74	  0.034629259	-2.680000E+00	  0.034629259	1.062010E+02	  0.034629259	1.181100E+01	  0.034629259	3.618200E+01
75	  0.034829661	-2.726000E+00	  0.034829661	1.041530E+02	  0.034829661	1.232800E+01	  0.034829661	3.746000E+01
76	  0.035030060	-2.774000E+00	  0.035030060	1.020750E+02	  0.035030060	1.288600E+01	  0.035030060	3.878400E+01
77	  0.035230462	-2.821000E+00	  0.035230462	1.000080E+02	  0.035230462	1.347200E+01	  0.035230462	4.012800E+01
78	  0.035430863	-2.871000E+00	  0.035430863	9.794400E+01	  0.035430863	1.410300E+01	  0.035430863	4.149600E+01
79	  0.035631265	-2.920000E+00	  0.035631265	9.588500E+01	  0.035631265	1.477200E+01	  0.035631265	4.289100E+01
80	  0.035831664	-2.969000E+00	  0.035831664	9.381300E+01	  0.035831664	1.548400E+01	  0.035831664	4.432500E+01
81	  0.036032066	-3.016000E+00	  0.036032066	9.174000E+01	  0.036032066	1.623500E+01	  0.036032066	4.579500E+01
82	  0.036232468	-3.064000E+00	  0.036232468	8.966200E+01	  0.036232468	1.703900E+01	  0.036232468	4.730200E+01
83	  0.036432866	-3.112000E+00	  0.036432866	8.757100E+01	  0.036432866	1.789900E+01	  0.036432866	4.885400E+01
84	  0.036633268	-3.157000E+00	  0.036633268	8.549000E+01	  0.036633268	1.879800E+01	  0.036633268	5.044100E+01
85	  0.036833670	-3.201000E+00	  0.036833670	8.340600E+01	  0.036833670	1.976200E+01	  0.036833670	5.207000E+01
86	  0.037034072	-3.245000E+00	  0.037034072	8.130800E+01	  0.037034072	2.079200E+01	  0.037034072	5.375300E+01
87	  0.037234470	-3.285000E+00	  0.037234470	7.920900E+01	  0.037234470	2.187900E+01	  0.037234470	5.548600E+01
88	  0.037434869	-3.318000E+00	  0.037434869	7.704100E+01	  0.037434869	2.303300E+01	  0.037434869	5.735000E+01
89	  0.037635271	-3.355000E+00	  0.037635271	7.484500E+01	  0.037635271	2.431700E+01	  0.037635271	5.928000E+01
90	  0.037835669	-3.398000E+00	  0.037835669	7.254800E+01	  0.037835669	2.580600E+01	  0.037835669	6.133700E+01
91	  0.038036071	-3.454000E+00	  0.038036071	7.019000E+01	  0.038036071	2.754000E+01	  0.038036071	6.346100E+01
92	  0.038236473	-3.525000E+00	  0.038236473	6.786400E+01	  0.038236473	2.951100E+01	  0.038236473	6.553500E+01
93	  0.038436871	-3.607000E+00	  0.038436871	6.561300E+01	  0.038436871	3.167700E+01	  0.038436871	6.750300E+01
94	  0.038637273	-3.686000E+00	  0.038637273	6.342500E+01	  0.038637273	3.395000E+01	  0.038637273	6.942700E+01
95	  0.038837675	-3.760000E+00	  0.038837675	6.131000E+01	  0.038837675	3.629800E+01	  0.038837675	7.130700E+01
96	  0.039038073	-3.826000E+00	  0.039038073	5.921600E+01	  0.039038073	3.876100E+01	  0.039038073	7.320000E+01
97	  0.039238475	-3.886000E+00	  0.039238475	5.711100E+01	  0.039238475	4.139000E+01	  0.039238475	7.513600E+01
98	  0.039438877	-3.950000E+00	  0.039438877	5.503600E+01	  0.039438877	4.421900E+01	  0.039438877	7.699900E+01
99	  0.039639279	-4.010000E+00	  0.039639279	5.293200E+01	  0.039639279	4.728900E+01	  0.039639279	7.888300E+01
100	  0.039839678	-4.068000E+00	  0.039839678	5.083400E+01	  0.039839678	5.057600E+01	  0.039839678	8.074000E+01
101	  0.040040080	-4.119000E+00	  0.040040080	4.871900E+01	  0.040040080	5.411500E+01	  0.040040080	8.260300E+01
102	  0.040240481	-4.174000E+00	  0.040240481	4.660700E+01	  0.040240481	5.795800E+01	  0.040240481	8.435500E+01
103	  0.040440880	-4.223000E+00	  0.040440880	4.449700E+01	  0.040440880	6.207500E+01	  0.040440880	8.603900E+01
104	  0.040641282	-4.274000E+00	  0.040641282	4.240300E+01	  0.040641282	6.649700E+01	  0.040641282	8.754700E+01
105	  0.040841684	-4.326000E+00	  0.040841684	4.029700E+01	  0.040841684	7.129300E+01	  0.040841684	8.886000E+01
106	  0.041042086	-4.378000E+00	  0.041042086	3.821800E+01	  0.041042086	7.638700E+01	  0.041042086	8.989200E+01
107	  0.041242484	-4.427000E+00	  0.041242484	3.612100E+01	  0.041242484	8.186600E+01	  0.041242484	9.068800E+01
108	  0.041442886	-4.476000E+00	  0.041442886	3.403200E+01	  0.041442886	8.769000E+01	  0.041442886	9.113000E+01
109	  0.041643288	-4.526000E+00	  0.041643288	3.192000E+01	  0.041643288	9.393600E+01	  0.041643288	9.113400E+01
110	  0.041843686	-4.575000E+00	  0.041843686	2.981600E+01	  0.041843686	1.005030E+02	  0.041843686	9.060700E+01
111	  0.042044088	-4.622000E+00	  0.042044088	2.773400E+01	  0.042044088	1.072950E+02	  0.042044088	8.954100E+01
112	  0.042244490	-4.668000E+00	  0.042244490	2.565500E+01	  0.042244490	1.143310E+02	  0.042244490	8.781600E+01
113	  0.042444889	-4.716000E+00	  0.042444889	2.359500E+01	  0.042444889	1.214520E+02	  0.042444889	8.526700E+01
114	  0.042645290	-4.763000E+00	  0.042645290	2.153800E+01	  0.042645290	1.286320E+02	  0.042645290	8.194100E+01
115	  0.042845692	-4.810000E+00	  0.042845692	1.948300E+01	  0.042845692	1.357480E+02	  0.042845692	7.772100E+01
116	  0.043046094	-4.853000E+00	  0.043046094	1.742600E+01	  0.043046094	1.427170E+02	  0.043046094	7.265500E+01
117	  0.043246493	-4.898000E+00	  0.043246493	1.537900E+01	  0.043246493	1.492510E+02	  0.043246493	6.659200E+01
118	  0.043446895	-4.943000E+00	  0.043446895	1.333800E+01	  0.043446895	1.552570E+02	  0.043446895	5.966800E+01
119	  0.043647297	-4.981000E+00	  0.043647297	1.130400E+01	  0.043647297	1.606780E+02	  0.043647297	5.201900E+01
120	  0.043847695	-5.024000E+00	  0.043847695	9.288000E+00	  0.043847695	1.650730E+02	  0.043847695	4.358400E+01
121	  0.044048097	-5.064000E+00	  0.044048097	7.279000E+00	  0.044048097	1.685570E+02	  0.044048097	3.463100E+01
122	  0.044248499	-5.104000E+00	  0.044248499	5.273000E+00	  0.044248499	1.709690E+02	  0.044248499	2.526300E+01
123	  0.044448901	-5.144000E+00	  0.044448901	3.279000E+00	  0.044448901	1.721870E+02	  0.044448901	1.569900E+01
124	  0.044649299	-5.182000E+00	  0.044649299	1.285000E+00	  0.044649299	1.723010E+02	  0.044649299	6.110000E+00
125	  0.044849701	-5.217000E+00	  0.044849701	-6.790000E-01	  0.044849701	1.713910E+02	  0.044849701	-3.187000E+00
126	  0.045050103	-5.251000E+00	  0.045050103	-2.675000E+00	  0.045050103	1.694160E+02	  0.045050103	-1.231500E+01
127	  0.045250501	-5.285000E+00	  0.045250501	-4.635000E+00	  0.045250501	1.665240E+02	  0.045250501	-2.081000E+01
128	  0.045450903	-5.317000E+00	  0.045450903	-6.604000E+00	  0.045450903	1.628250E+02	  0.045450903	-2.875700E+01
129	  0.045651305	-5.351000E+00	  0.045651305	-8.562000E+00	  0.045651305	1.584020E+02	  0.045651305	-3.596000E+01
130	  0.045851704	-5.381000E+00	  0.045851704	-1.050600E+01	  0.045851704	1.535370E+02	  0.045851704	-4.241700E+01
131	  0.046052102	-5.413000E+00	  0.046052102	-1.242400E+01	  0.046052102	1.483050E+02	  0.046052102	-4.802900E+01
132	  0.046252504	-5.442000E+00	  0.046252504	-1.434000E+01	  0.046252504	1.428300E+02	  0.046252504	-5.292600E+01
133	  0.046452906	-5.470000E+00	  0.046452906	-1.624700E+01	  0.046452906	1.372420E+02	  0.046452906	-5.711100E+01
134	  0.046653304	-5.497000E+00	  0.046653304	-1.814700E+01	  0.046653304	1.316230E+02	  0.046653304	-6.064300E+01
135	  0.046853706	-5.520000E+00	  0.046853706	-2.007200E+01	  0.046853706	1.259670E+02	  0.046853706	-6.364800E+01
136	  0.047054108	-5.547000E+00	  0.047054108	-2.196200E+01	  0.047054108	1.204350E+02	  0.047054108	-6.595200E+01
137	  0.047254506	-5.571000E+00	  0.047254506	-2.384400E+01	  0.047254506	1.150680E+02	  0.047254506	-6.777400E+01
138	  0.047454908	-5.592000E+00	  0.047454908	-2.572000E+01	  0.047454908	1.098940E+02	  0.047454908	-6.919600E+01
139	  0.047655310	-5.613000E+00	  0.047655310	-2.755600E+01	  0.047655310	1.049910E+02	  0.047655310	-7.017000E+01
140	  0.047855709	-5.635000E+00	  0.047855709	-2.939100E+01	  0.047855709	1.002790E+02	  0.047855709	-7.077700E+01
141	  0.048056111	-5.659000E+00	  0.048056111	-3.122100E+01	  0.048056111	9.578200E+01	  0.048056111	-7.106700E+01
142	  0.048256513	-5.680000E+00	  0.048256513	-3.301700E+01	  0.048256513	9.157400E+01	  0.048256513	-7.111800E+01
143	  0.048456915	-5.700000E+00	  0.048456915	-3.481800E+01	  0.048456915	8.756300E+01	  0.048456915	-7.097900E+01
144	  0.048657313	-5.720000E+00	  0.048657313	-3.661900E+01	  0.048657313	8.375500E+01	  0.048657313	-7.064300E+01
145	  0.048857715	-5.736000E+00	  0.048857715	-3.841200E+01	  0.048857715	8.015600E+01	  0.048857715	-7.018700E+01
146	  0.049058117	-5.754000E+00	  0.049058117	-4.020300E+01	  0.049058117	7.675500E+01	  0.049058117	-6.957800E+01
147	  0.049258515	-5.772000E+00	  0.049258515	-4.193900E+01	  0.049258515	7.363300E+01	  0.049258515	-6.887000E+01
148	  0.049458917	-5.787000E+00	  0.049458917	-4.368500E+01	  0.049458917	7.065800E+01	  0.049458917	-6.809200E+01
149	  0.049659319	-5.804000E+00	  0.049659319	-4.542100E+01	  0.049659319	6.786300E+01	  0.049659319	-6.721300E+01
150	  0.049859721	-5.821000E+00	  0.049859721	-4.715300E+01	  0.049859721	6.522700E+01	  0.049859721	-6.627700E+01
151	  0.050060119	-5.838000E+00	  0.050060119	-4.886200E+01	  0.050060119	6.276700E+01	  0.050060119	-6.530300E+01
152	  0.050260521	-5.851000E+00	  0.050260521	-5.056800E+01	  0.050260521	6.043500E+01	  0.050260521	-6.431400E+01
153	  0.050460923	-5.864000E+00	  0.050460923	-5.228600E+01	  0.050460923	5.820900E+01	  0.050460923	-6.328800E+01
154	  0.050661322	-5.873000E+00	  0.050661322	-5.396600E+01	  0.050661322	5.613900E+01	  0.050661322	-6.227900E+01
155	  0.050861724	-5.884000E+00	  0.050861724	-5.565400E+01	  0.050861724	5.417400E+01	  0.050861724	-6.122800E+01
156	  0.051062126	-5.898000E+00	  0.051062126	-5.731200E+01	  0.051062126	5.235600E+01	  0.051062126	-6.015800E+01
157	  0.051262524	-5.910000E+00	  0.051262524	-5.897300E+01	  0.051262524	5.062500E+01	  0.051262524	-5.908300E+01
158	  0.051462926	-5.920000E+00	  0.051462926	-6.060600E+01	  0.051462926	4.899900E+01	  0.051462926	-5.803800E+01
159	  0.051663328	-5.931000E+00	  0.051663328	-6.222200E+01	  0.051663328	4.748100E+01	  0.051663328	-5.698200E+01
160	  0.051863730	-5.940000E+00	  0.051863730	-6.384400E+01	  0.051863730	4.602300E+01	  0.051863730	-5.593500E+01
161	  0.052064128	-5.948000E+00	  0.052064128	-6.545900E+01	  0.052064128	4.463700E+01	  0.052064128	-5.490100E+01
162	  0.052264530	-5.953000E+00	  0.052264530	-6.706100E+01	  0.052264530	4.332100E+01	  0.052264530	-5.388700E+01
163	  0.052464932	-5.957000E+00	  0.052464932	-6.868400E+01	  0.052464932	4.204700E+01	  0.052464932	-5.286600E+01
164	  0.052665330	-5.965000E+00	  0.052665330	-7.022200E+01	  0.052665330	4.091500E+01	  0.052665330	-5.187800E+01
165	  0.052865732	-5.974000E+00	  0.052865732	-7.179100E+01	  0.052865732	3.981200E+01	  0.052865732	-5.087700E+01
166	  0.053066134	-5.979000E+00	  0.053066134	-7.333500E+01	  0.053066134	3.876600E+01	  0.053066134	-4.991200E+01
167	  0.053266536	-5.987000E+00	  0.053266536	-7.487000E+01	  0.053266536	3.778400E+01	  0.053266536	-4.894500E+01
168	  0.053466935	-5.991000E+00	  0.053466935	-7.642500E+01	  0.053466935	3.682100E+01	  0.053466935	-4.798800E+01
169	  0.053667337	-5.997000E+00	  0.053667337	-7.795900E+01	  0.053667337	3.591800E+01	  0.053667337	-4.704500E+01
170	  0.053867739	-6.002000E+00	  0.053867739	-7.947000E+01	  0.053867739	3.506500E+01	  0.053867739	-4.612800E+01
171	  0.054068137	-6.006000E+00	  0.054068137	-8.096800E+01	  0.054068137	3.425200E+01	  0.054068137	-4.522900E+01
172	  0.054268539	-6.010000E+00	  0.054268539	-8.245600E+01	  0.054268539	3.348200E+01	  0.054268539	-4.434100E+01
173	  0.054468941	-6.018000E+00	  0.054468941	-8.393500E+01	  0.054468941	3.276100E+01	  0.054468941	-4.345400E+01
174	  0.054669335	-6.024000E+00	  0.054669335	-8.540000E+01	  0.054669335	3.207100E+01	  0.054669335	-4.259100E+01
175	  0.054869737	-6.031000E+00	  0.054869737	-8.686100E+01	  0.054869737	3.141600E+01	  0.054869737	-4.173500E+01
176	  0.055070139	-6.037000E+00	  0.055070139	-8.828500E+01	  0.055070139	3.079900E+01	  0.055070139	-4.091200E+01
177	  0.055270538	-6.041000E+00	  0.055270538	-8.970000E+01	  0.055270538	3.020300E+01	  0.055270538	-4.010800E+01
178	  0.055470940	-6.045000E+00	  0.055470940	-9.113300E+01	  0.055470940	2.962300E+01	  0.055470940	-3.930300E+01
179	  0.055671342	-6.044000E+00	  0.055671342	-9.254200E+01	  0.055671342	2.905900E+01	  0.055671342	-3.852800E+01
180	  0.055871744	-6.050000E+00	  0.055871744	-9.393700E+01	  0.055871744	2.854400E+01	  0.055871744	-3.775400E+01
181	  0.056072142	-6.050000E+00	  0.056072142	-9.533600E+01	  0.056072142	2.802800E+01	  0.056072142	-3.699700E+01
182	  0.056272544	-6.052000E+00	  0.056272544	-9.670800E+01	  0.056272544	2.754800E+01	  0.056272544	-3.625700E+01
183	  0.056472946	-6.055000E+00	  0.056472946	-9.810100E+01	  0.056472946	2.708300E+01	  0.056472946	-3.551000E+01
184	  0.056673344	-6.055000E+00	  0.056673344	-9.941200E+01	  0.056673344	2.665100E+01	  0.056673344	-3.482000E+01
185	  0.056873746	-6.057000E+00	  0.056873746	-1.007620E+02	  0.056873746	2.622600E+01	  0.056873746	-3.411300E+01
186	  0.057074148	-6.056000E+00	  0.057074148	-1.020960E+02	  0.057074148	2.581300E+01	  0.057074148	-3.342500E+01
187	  0.057274550	-6.054000E+00	  0.057274550	-1.034520E+02	  0.057274550	2.540700E+01	  0.057274550	-3.273300E+01
188	  0.057474948	-6.052000E+00	  0.057474948	-1.047550E+02	  0.057474948	2.502900E+01	  0.057474948	-3.207400E+01
189	  0.057675350	-6.050000E+00	  0.057675350	-1.060840E+02	  0.057675350	2.465500E+01	  0.057675350	-3.140800E+01
190	  0.057875752	-6.045000E+00	  0.057875752	-1.074130E+02	  0.057875752	2.428700E+01	  0.057875752	-3.075100E+01
191	  0.058076151	-6.045000E+00	  0.058076151	-1.087180E+02	  0.058076151	2.395100E+01	  0.058076151	-3.010400E+01
192	  0.058276553	-6.040000E+00	  0.058276553	-1.099860E+02	  0.058276553	2.362100E+01	  0.058276553	-2.948700E+01
193	  0.058476955	-6.035000E+00	  0.058476955	-1.113010E+02	  0.058476955	2.329300E+01	  0.058476955	-2.885100E+01
194	  0.058677353	-6.032000E+00	  0.058677353	-1.125760E+02	  0.058677353	2.298700E+01	  0.058677353	-2.823900E+01
195	  0.058877755	-6.026000E+00	  0.058877755	-1.138690E+02	  0.058877755	2.268100E+01	  0.058877755	-2.762400E+01
196	  0.059078157	-6.018000E+00	  0.059078157	-1.151490E+02	  0.059078157	2.238100E+01	  0.059078157	-2.702400E+01
197	  0.059278559	-6.010000E+00	  0.059278559	-1.164270E+02	  0.059278559	2.209100E+01	  0.059278559	-2.642800E+01
198	  0.059478957	-6.006000E+00	  0.059478957	-1.177210E+02	  0.059478957	2.181900E+01	  0.059478957	-2.582400E+01
199	  0.059679359	-6.003000E+00	  0.059679359	-1.189730E+02	  0.059679359	2.156800E+01	  0.059679359	-2.524200E+01
200	  0.059879761	-5.993000E+00	  0.059879761	-1.202280E+02	  0.059879761	2.130400E+01	  0.059879761	-2.467000E+01
201	  0.060080159	-5.994000E+00	  0.060080159	-1.214600E+02	  0.060080159	2.108300E+01	  0.060080159	-2.410100E+01
202	  0.060280561	-5.988000E+00	  0.060280561	-1.226920E+02	  0.060280561	2.085100E+01	  0.060280561	-2.354200E+01
203	  0.060480963	-5.988000E+00	  0.060480963	-1.239420E+02	  0.060480963	2.064100E+01	  0.060480963	-2.297200E+01
204	  0.060681365	-5.983000E+00	  0.060681365	-1.251780E+02	  0.060681365	2.042400E+01	  0.060681365	-2.241800E+01
205	  0.060881764	-5.978000E+00	  0.060881764	-1.263860E+02	  0.060881764	2.022000E+01	  0.060881764	-2.188000E+01
206	  0.061082166	-5.974000E+00	  0.061082166	-1.276420E+02	  0.061082166	2.001900E+01	  0.061082166	-2.132200E+01
207	  0.061282568	-5.975000E+00	  0.061282568	-1.288310E+02	  0.061282568	1.984500E+01	  0.061282568	-2.079400E+01
208	  0.061482966	-5.969000E+00	  0.061482966	-1.300530E+02	  0.061482966	1.965500E+01	  0.061482966	-2.025900E+01
209	  0.061683368	-5.972000E+00	  0.061683368	-1.312440E+02	  0.061683368	1.950100E+01	  0.061683368	-1.973300E+01
210	  0.061883770	-5.967000E+00	  0.061883770	-1.324370E+02	  0.061883770	1.932800E+01	  0.061883770	-1.921700E+01
211	  0.062084168	-5.967000E+00	  0.062084168	-1.336180E+02	  0.062084168	1.917800E+01	  0.062084168	-1.870400E+01
212	  0.062284570	-5.965000E+00	  0.062284570	-1.347880E+02	  0.062284570	1.903100E+01	  0.062284570	-1.819900E+01
213	  0.062484972	-5.957000E+00	  0.062484972	-1.359600E+02	  0.062484972	1.886700E+01	  0.062484972	-1.770200E+01
214	  0.062685370	-5.958000E+00	  0.062685370	-1.371180E+02	  0.062685370	1.873700E+01	  0.062685370	-1.720600E+01
215	  0.062885776	-5.954000E+00	  0.062885776	-1.382720E+02	  0.062885776	1.860000E+01	  0.062885776	-1.671700E+01
216	  0.063086174	-5.955000E+00	  0.063086174	-1.394600E+02	  0.063086174	1.847400E+01	  0.063086174	-1.621400E+01
217	  0.063286573	-5.955000E+00	  0.063286573	-1.406060E+02	  0.063286573	1.835700E+01	  0.063286573	-1.573000E+01
218	  0.063486971	-5.953000E+00	  0.063486971	-1.417320E+02	  0.063486971	1.823900E+01	  0.063486971	-1.525900E+01
219	  0.063687377	-5.955000E+00	  0.063687377	-1.428550E+02	  0.063687377	1.814000E+01	  0.063687377	-1.478800E+01
220	  0.063887775	-5.953000E+00	  0.063887775	-1.439840E+02	  0.063887775	1.803100E+01	  0.063887775	-1.431900E+01
221	  0.064088173	-5.953000E+00	  0.064088173	-1.451250E+02	  0.064088173	1.792800E+01	  0.064088173	-1.384700E+01
222	  0.064288579	-5.954000E+00	  0.064288579	-1.462590E+02	  0.064288579	1.783500E+01	  0.064288579	-1.337800E+01
223	  0.064488977	-5.957000E+00	  0.064488977	-1.474020E+02	  0.064488977	1.775100E+01	  0.064488977	-1.290600E+01
224	  0.064689375	-5.959000E+00	  0.064689375	-1.484910E+02	  0.064689375	1.767100E+01	  0.064689375	-1.245900E+01
225	  0.064889781	-5.963000E+00	  0.064889781	-1.496210E+02	  0.064889781	1.759700E+01	  0.064889781	-1.199500E+01
226	  0.065090179	-5.964000E+00	  0.065090179	-1.506990E+02	  0.065090179	1.752100E+01	  0.065090179	-1.155700E+01
227	  0.065290578	-5.964000E+00	  0.065290578	-1.517780E+02	  0.065290578	1.744700E+01	  0.065290578	-1.111900E+01
228	  0.065490983	-5.966000E+00	  0.065490983	-1.528680E+02	  0.065490983	1.737900E+01	  0.065490983	-1.067800E+01
229	  0.065691382	-5.968000E+00	  0.065691382	-1.539450E+02	  0.065691382	1.731700E+01	  0.065691382	-1.024300E+01
230	  0.065891780	-5.969000E+00	  0.065891780	-1.550450E+02	  0.065891780	1.725300E+01	  0.065891780	-9.801000E+00
231	  0.066092186	-5.973000E+00	  0.066092186	-1.561000E+02	  0.066092186	1.720300E+01	  0.066092186	-9.376000E+00
232	  0.066292584	-5.976000E+00	  0.066292584	-1.571340E+02	  0.066292584	1.715300E+01	  0.066292584	-8.962000E+00
233	  0.066492982	-5.981000E+00	  0.066492982	-1.582050E+02	  0.066492982	1.711100E+01	  0.066492982	-8.534000E+00
234	  0.066693388	-5.982000E+00	  0.066693388	-1.592590E+02	  0.066693388	1.706200E+01	  0.066693388	-8.115000E+00
235	  0.066893786	-5.990000E+00	  0.066893786	-1.602590E+02	  0.066893786	1.703400E+01	  0.066893786	-7.716000E+00
236	  0.067094192	-5.990000E+00	  0.067094192	-1.612920E+02	  0.067094192	1.698900E+01	  0.067094192	-7.307000E+00
237	  0.067294590	-5.998000E+00	  0.067294590	-1.623260E+02	  0.067294590	1.696600E+01	  0.067294590	-6.896000E+00
238	  0.067494988	-6.000000E+00	  0.067494988	-1.633290E+02	  0.067494988	1.693200E+01	  0.067494988	-6.501000E+00
239	  0.067695394	-5.999000E+00	  0.067695394	-1.643410E+02	  0.067695394	1.689100E+01	  0.067695394	-6.103000E+00
240	  0.067895792	-6.008000E+00	  0.067895792	-1.653460E+02	  0.067895792	1.688000E+01	  0.067895792	-5.706000E+00
241	  0.068096191	-6.015000E+00	  0.068096191	-1.663600E+02	  0.068096191	1.686600E+01	  0.068096191	-5.307000E+00
242	  0.068296596	-6.019000E+00	  0.068296596	-1.673280E+02	  0.068296596	1.684700E+01	  0.068296596	-4.928000E+00
243	  0.068496995	-6.022000E+00	  0.068496995	-1.683290E+02	  0.068496995	1.682700E+01	  0.068496995	-4.536000E+00
244	  0.068697393	-6.028000E+00	  0.068697393	-1.692890E+02	  0.068697393	1.681500E+01	  0.068697393	-4.161000E+00
245	  0.068897791	-6.029000E+00	  0.068897791	-1.702740E+02	  0.068897791	1.679600E+01	  0.068897791	-3.776000E+00
246	  0.069098189	-6.029000E+00	  0.069098189	-1.712170E+02	  0.069098189	1.677600E+01	  0.069098189	-3.409000E+00
247	  0.069298595	-6.034000E+00	  0.069298595	-1.722220E+02	  0.069298595	1.677100E+01	  0.069298595	-3.017000E+00
248	  0.069498993	-6.036000E+00	  0.069498993	-1.731470E+02	  0.069498993	1.676100E+01	  0.069498993	-2.658000E+00
249	  0.069699399	-6.039000E+00	  0.069699399	-1.741460E+02	  0.069699399	1.675400E+01	  0.069699399	-2.269000E+00
250	  0.069899797	-6.043000E+00	  0.069899797	-1.751080E+02	  0.069899797	1.675300E+01	  0.069899797	-1.896000E+00
251	  0.070100196	-6.045000E+00	  0.070100196	-1.760620E+02	  0.070100196	1.674800E+01	  0.070100196	-1.526000E+00
252	  0.070300601	-6.045000E+00	  0.070300601	-1.770030E+02	  0.070300601	1.673900E+01	  0.070300601	-1.161000E+00
253	  0.070501000	-6.047000E+00	  0.070501000	-1.779500E+02	  0.070501000	1.674000E+01	  0.070501000	-7.940000E-01
254	  0.070701398	-6.048000E+00	  0.070701398	-1.788770E+02	  0.070701398	1.673800E+01	  0.070701398	-4.340000E-01
255	  0.070901804	-6.047000E+00	  0.070901804	-1.798100E+02	  0.070901804	1.673500E+01	  0.070901804	-7.300000E-02
256	  0.071102202	-6.051000E+00	  0.071102202	1.792240E+02	  0.071102202	1.674600E+01	  0.071102202	3.000000E-01
257	  0.071302600	-6.054000E+00	  0.071302600	1.782980E+02	  0.071302600	1.675700E+01	  0.071302600	6.580000E-01
258	  0.071503006	-6.058000E+00	  0.071503006	1.773700E+02	  0.071503006	1.677100E+01	  0.071503006	1.018000E+00
259	  0.071703404	-6.063000E+00	  0.071703404	1.764470E+02	  0.071703404	1.679100E+01	  0.071703404	1.375000E+00
260	  0.071903802	-6.064000E+00	  0.071903802	1.754950E+02	  0.071903802	1.680000E+01	  0.071903802	1.744000E+00
261	  0.072104208	-6.068000E+00	  0.072104208	1.745610E+02	  0.072104208	1.682300E+01	  0.072104208	2.106000E+00
262	  0.072304606	-6.070000E+00	  0.072304606	1.736480E+02	  0.072304606	1.684100E+01	  0.072304606	2.460000E+00
263	  0.072505005	-6.069000E+00	  0.072505005	1.727410E+02	  0.072505005	1.685200E+01	  0.072505005	2.812000E+00
264	  0.072705410	-6.074000E+00	  0.072705410	1.718250E+02	  0.072705410	1.688100E+01	  0.072705410	3.167000E+00
265	  0.072905809	-6.082000E+00	  0.072905809	1.708790E+02	  0.072905809	1.691900E+01	  0.072905809	3.533000E+00
266	  0.073106214	-6.086000E+00	  0.073106214	1.699560E+02	  0.073106214	1.694900E+01	  0.073106214	3.892000E+00
267	  0.073306613	-6.089000E+00	  0.073306613	1.690480E+02	  0.073306613	1.698000E+01	  0.073306613	4.244000E+00
268	  0.073507011	-6.095000E+00	  0.073507011	1.681400E+02	  0.073507011	1.701900E+01	  0.073507011	4.597000E+00
269	  0.073707417	-6.103000E+00	  0.073707417	1.672180E+02	  0.073707417	1.706500E+01	  0.073707417	4.955000E+00
270	  0.073907815	-6.108000E+00	  0.073907815	1.663150E+02	  0.073907815	1.710500E+01	  0.073907815	5.306000E+00
271	  0.074108213	-6.115000E+00	  0.074108213	1.653890E+02	  0.074108213	1.715400E+01	  0.074108213	5.665000E+00
272	  0.074308619	-6.117000E+00	  0.074308619	1.645250E+02	  0.074308619	1.719000E+01	  0.074308619	6.003000E+00
273	  0.074509017	-6.127000E+00	  0.074509017	1.636030E+02	  0.074509017	1.724900E+01	  0.074509017	6.361000E+00
274	  0.074709415	-6.136000E+00	  0.074709415	1.627100E+02	  0.074709415	1.730900E+01	  0.074709415	6.708000E+00
275	  0.074909821	-6.139000E+00	  0.074909821	1.617980E+02	  0.074909821	1.735400E+01	  0.074909821	7.065000E+00
276	  0.075110219	-6.148000E+00	  0.075110219	1.608980E+02	  0.075110219	1.741600E+01	  0.075110219	7.416000E+00
277	  0.075310618	-6.155000E+00	  0.075310618	1.600060E+02	  0.075310618	1.747700E+01	  0.075310618	7.765000E+00
278	  0.075511023	-6.163000E+00	  0.075511023	1.591380E+02	  0.075511023	1.754000E+01	  0.075511023	8.104000E+00
279	  0.075711422	-6.168000E+00	  0.075711422	1.582580E+02	  0.075711422	1.759700E+01	  0.075711422	8.450000E+00
280	  0.075911827	-6.180000E+00	  0.075911827	1.573920E+02	  0.075911827	1.767500E+01	  0.075911827	8.787000E+00
281	  0.076112226	-6.187000E+00	  0.076112226	1.565110E+02	  0.076112226	1.774000E+01	  0.076112226	9.134000E+00
282	  0.076312624	-6.195000E+00	  0.076312624	1.556140E+02	  0.076312624	1.781400E+01	  0.076312624	9.486000E+00
283	  0.076513030	-6.208000E+00	  0.076513030	1.547330E+02	  0.076513030	1.790000E+01	  0.076513030	9.830000E+00
284	  0.076713428	-6.213000E+00	  0.076713428	1.538570E+02	  0.076713428	1.796800E+01	  0.076713428	1.017700E+01
285	  0.076913826	-6.223000E+00	  0.076913826	1.529830E+02	  0.076913826	1.805300E+01	  0.076913826	1.052100E+01
286	  0.077114232	-6.233000E+00	  0.077114232	1.521420E+02	  0.077114232	1.813500E+01	  0.077114232	1.085200E+01
287	  0.077314630	-6.244000E+00	  0.077314630	1.512740E+02	  0.077314630	1.822500E+01	  0.077314630	1.119400E+01
288	  0.077515028	-6.251000E+00	  0.077515028	1.504350E+02	  0.077515028	1.830500E+01	  0.077515028	1.152600E+01
289	  0.077715434	-6.265000E+00	  0.077715434	1.495530E+02	  0.077715434	1.840700E+01	  0.077715434	1.187400E+01
290	  0.077915832	-6.275000E+00	  0.077915832	1.487290E+02	  0.077915832	1.849700E+01	  0.077915832	1.220000E+01
291	  0.078116231	-6.289000E+00	  0.078116231	1.478700E+02	  0.078116231	1.860300E+01	  0.078116231	1.253900E+01
292	  0.078316636	-6.296000E+00	  0.078316636	1.470260E+02	  0.078316636	1.869300E+01	  0.078316636	1.287600E+01
293	  0.078517035	-6.309000E+00	  0.078517035	1.461470E+02	  0.078517035	1.880100E+01	  0.078517035	1.322500E+01
294	  0.078717433	-6.322000E+00	  0.078717433	1.453230E+02	  0.078717433	1.890900E+01	  0.078717433	1.355100E+01
295	  0.078917839	-6.334000E+00	  0.078917839	1.444800E+02	  0.078917839	1.901900E+01	  0.078917839	1.388600E+01
296	  0.079118237	-6.348000E+00	  0.079118237	1.436630E+02	  0.079118237	1.913200E+01	  0.079118237	1.421000E+01
297	  0.079318643	-6.360000E+00	  0.079318643	1.428140E+02	  0.079318643	1.924700E+01	  0.079318643	1.454900E+01
298	  0.079519041	-6.375000E+00	  0.079519041	1.420160E+02	  0.079519041	1.936500E+01	  0.079519041	1.486600E+01
299	  0.079719439	-6.385000E+00	  0.079719439	1.412010E+02	  0.079719439	1.947500E+01	  0.079719439	1.519300E+01
300	  0.079919845	-6.398000E+00	  0.079919845	1.403600E+02	  0.079919845	1.960000E+01	  0.079919845	1.553000E+01
301	  0.080120243	-6.412000E+00	  0.080120243	1.395350E+02	  0.080120243	1.972700E+01	  0.080120243	1.585900E+01
302	  0.080320641	-6.425000E+00	  0.080320641	1.387180E+02	  0.080320641	1.985100E+01	  0.080320641	1.618800E+01
303	  0.080521047	-6.444000E+00	  0.080521047	1.379080E+02	  0.080521047	1.999500E+01	  0.080521047	1.650800E+01
304	  0.080721445	-6.458000E+00	  0.080721445	1.371100E+02	  0.080721445	2.012600E+01	  0.080721445	1.682800E+01
305	  0.080921844	-6.473000E+00	  0.080921844	1.363050E+02	  0.080921844	2.026400E+01	  0.080921844	1.715100E+01
306	  0.081122249	-6.491000E+00	  0.081122249	1.355110E+02	  0.081122249	2.041200E+01	  0.081122249	1.746700E+01
307	  0.081322648	-6.506000E+00	  0.081322648	1.347230E+02	  0.081322648	2.055200E+01	  0.081322648	1.778300E+01
308	  0.081523046	-6.522000E+00	  0.081523046	1.339600E+02	  0.081523046	2.069500E+01	  0.081523046	1.808900E+01
309	  0.081723452	-6.535000E+00	  0.081723452	1.331480E+02	  0.081723452	2.083700E+01	  0.081723452	1.841800E+01
310	  0.081923850	-6.548000E+00	  0.081923850	1.323660E+02	  0.081923850	2.098100E+01	  0.081923850	1.873500E+01
311	  0.082124248	-6.564000E+00	  0.082124248	1.315800E+02	  0.082124248	2.113400E+01	  0.082124248	1.905100E+01
312	  0.082324654	-6.582000E+00	  0.082324654	1.308030E+02	  0.082324654	2.129600E+01	  0.082324654	1.936200E+01
313	  0.082525052	-6.598000E+00	  0.082525052	1.300340E+02	  0.082525052	2.145100E+01	  0.082525052	1.967200E+01
314	  0.082725458	-6.616000E+00	  0.082725458	1.293100E+02	  0.082725458	2.161000E+01	  0.082725458	1.996200E+01
315	  0.082925856	-6.633000E+00	  0.082925856	1.285350E+02	  0.082925856	2.177600E+01	  0.082925856	2.027400E+01
316	  0.083126254	-6.653000E+00	  0.083126254	1.277730E+02	  0.083126254	2.195100E+01	  0.083126254	2.057800E+01
317	  0.083326660	-6.672000E+00	  0.083326660	1.270090E+02	  0.083326660	2.212600E+01	  0.083326660	2.088400E+01
318	  0.083527058	-6.685000E+00	  0.083527058	1.262570E+02	  0.083527058	2.228400E+01	  0.083527058	2.119100E+01
319	  0.083727457	-6.709000E+00	  0.083727457	1.255060E+02	  0.083727457	2.247900E+01	  0.083727457	2.148600E+01
320	  0.083927862	-6.727000E+00	  0.083927862	1.247570E+02	  0.083927862	2.265700E+01	  0.083927862	2.178800E+01
321	  0.084128261	-6.749000E+00	  0.084128261	1.240150E+02	  0.084128261	2.284700E+01	  0.084128261	2.208200E+01
322	  0.084328659	-6.769000E+00	  0.084328659	1.232690E+02	  0.084328659	2.303800E+01	  0.084328659	2.237900E+01
323	  0.084529065	-6.791000E+00	  0.084529065	1.225670E+02	  0.084529065	2.322800E+01	  0.084529065	2.265600E+01
324	  0.084729463	-6.811000E+00	  0.084729463	1.218090E+02	  0.084729463	2.342700E+01	  0.084729463	2.295800E+01
325	  0.084929854	-6.830000E+00	  0.084929854	1.210600E+02	  0.084929854	2.362200E+01	  0.084929854	2.326000E+01
326	  0.085130259	-6.852000E+00	  0.085130259	1.203180E+02	  0.085130259	2.382800E+01	  0.085130259	2.355400E+01
327	  0.085330658	-6.871000E+00	  0.085330658	1.195600E+02	  0.085330658	2.403300E+01	  0.085330658	2.385800E+01
328	  0.085531056	-6.892000E+00	  0.085531056	1.188580E+02	  0.085531056	2.423500E+01	  0.085531056	2.413500E+01
329	  0.085731462	-6.914000E+00	  0.085731462	1.181040E+02	  0.085731462	2.445500E+01	  0.085731462	2.443300E+01
330	  0.085931860	-6.934000E+00	  0.085931860	1.174240E+02	  0.085931860	2.465500E+01	  0.085931860	2.470300E+01
331	  0.086132258	-6.957000E+00	  0.086132258	1.166870E+02	  0.086132258	2.488100E+01	  0.086132258	2.499200E+01
332	  0.086332664	-6.981000E+00	  0.086332664	1.160230E+02	  0.086332664	2.509500E+01	  0.086332664	2.524800E+01
333	  0.086533062	-7.005000E+00	  0.086533062	1.152880E+02	  0.086533062	2.533000E+01	  0.086533062	2.553400E+01
334	  0.086733460	-7.025000E+00	  0.086733460	1.145760E+02	  0.086733460	2.554800E+01	  0.086733460	2.581700E+01
335	  0.086933866	-7.048000E+00	  0.086933866	1.138580E+02	  0.086933866	2.578200E+01	  0.086933866	2.609700E+01
336	  0.087134264	-7.071000E+00	  0.087134264	1.131590E+02	  0.087134264	2.601400E+01	  0.087134264	2.636800E+01
337	  0.087334670	-7.089000E+00	  0.087334670	1.124580E+02	  0.087334670	2.623700E+01	  0.087334670	2.664700E+01
338	  0.087535068	-7.117000E+00	  0.087535068	1.117720E+02	  0.087535068	2.648600E+01	  0.087535068	2.690400E+01
339	  0.087735467	-7.143000E+00	  0.087735467	1.110970E+02	  0.087735467	2.673300E+01	  0.087735467	2.715700E+01
340	  0.087935872	-7.168000E+00	  0.087935872	1.104120E+02	  0.087935872	2.698000E+01	  0.087935872	2.741700E+01
341	  0.088136271	-7.195000E+00	  0.088136271	1.097240E+02	  0.088136271	2.723800E+01	  0.088136271	2.767400E+01
342	  0.088336669	-7.214000E+00	  0.088336669	1.090530E+02	  0.088336669	2.747100E+01	  0.088336669	2.793700E+01
343	  0.088537075	-7.242000E+00	  0.088537075	1.083730E+02	  0.088537075	2.773500E+01	  0.088537075	2.818700E+01
344	  0.088737473	-7.265000E+00	  0.088737473	1.077240E+02	  0.088737473	2.798200E+01	  0.088737473	2.843000E+01
345	  0.088937871	-7.287000E+00	  0.088937871	1.070380E+02	  0.088937871	2.823900E+01	  0.088937871	2.869200E+01
346	  0.089138277	-7.312000E+00	  0.089138277	1.063920E+02	  0.089138277	2.849300E+01	  0.089138277	2.893100E+01
347	  0.089338675	-7.336000E+00	  0.089338675	1.057290E+02	  0.089338675	2.875600E+01	  0.089338675	2.917700E+01
348	  0.089539073	-7.367000E+00	  0.089539073	1.051030E+02	  0.089539073	2.903100E+01	  0.089539073	2.939100E+01
349	  0.089739479	-7.391000E+00	  0.089739479	1.044460E+02	  0.089739479	2.929900E+01	  0.089739479	2.963300E+01
350	  0.089939877	-7.415000E+00	  0.089939877	1.038150E+02	  0.089939877	2.956100E+01	  0.089939877	2.986200E+01
351	  0.090140276	-7.445000E+00	  0.090140276	1.032050E+02	  0.090140276	2.983900E+01	  0.090140276	3.006800E+01
352	  0.090340681	-7.468000E+00	  0.090340681	1.025480E+02	  0.090340681	3.011100E+01	  0.090340681	3.030900E+01
353	  0.090541080	-7.500000E+00	  0.090541080	1.019170E+02	  0.090541080	3.040800E+01	  0.090541080	3.051600E+01
354	  0.090741485	-7.526000E+00	  0.090741485	1.012880E+02	  0.090741485	3.068600E+01	  0.090741485	3.073700E+01
355	  0.090941884	-7.556000E+00	  0.090941884	1.006710E+02	  0.090941884	3.098000E+01	  0.090941884	3.093900E+01
356	  0.091142282	-7.584000E+00	  0.091142282	1.000650E+02	  0.091142282	3.126400E+01	  0.091142282	3.114100E+01
357	  0.091342688	-7.617000E+00	  0.091342688	9.945300E+01	  0.091342688	3.156800E+01	  0.091342688	3.133200E+01
358	  0.091543086	-7.651000E+00	  0.091543086	9.886100E+01	  0.091543086	3.187100E+01	  0.091543086	3.151000E+01
359	  0.091743484	-7.680000E+00	  0.091743484	9.821300E+01	  0.091743484	3.218200E+01	  0.091743484	3.172300E+01
360	  0.091943890	-7.712000E+00	  0.091943890	9.763800E+01	  0.091943890	3.247900E+01	  0.091943890	3.189500E+01
361	  0.092144288	-7.740000E+00	  0.092144288	9.701300E+01	  0.092144288	3.278600E+01	  0.092144288	3.209600E+01
362	  0.092344686	-7.773000E+00	  0.092344686	9.639400E+01	  0.092344686	3.310900E+01	  0.092344686	3.227900E+01
363	  0.092545092	-7.802000E+00	  0.092545092	9.582000E+01	  0.092545092	3.340700E+01	  0.092545092	3.245100E+01
364	  0.092745490	-7.840000E+00	  0.092745490	9.522700E+01	  0.092745490	3.373800E+01	  0.092745490	3.260800E+01
365	  0.092945889	-7.871000E+00	  0.092945889	9.465200E+01	  0.092945889	3.404700E+01	  0.092945889	3.277200E+01
366	  0.093146294	-7.906000E+00	  0.093146294	9.409200E+01	  0.093146294	3.436400E+01	  0.093146294	3.291700E+01
367	  0.093346693	-7.933000E+00	  0.093346693	9.350800E+01	  0.093346693	3.466900E+01	  0.093346693	3.309200E+01
368	  0.093547091	-7.969000E+00	  0.093547091	9.296500E+01	  0.093547091	3.499000E+01	  0.093547091	3.322000E+01
369	  0.093747497	-8.000000E+00	  0.093747497	9.239400E+01	  0.093747497	3.530700E+01	  0.093747497	3.337400E+01
370	  0.093947895	-8.038000E+00	  0.093947895	9.183700E+01	  0.093947895	3.564000E+01	  0.093947895	3.349900E+01
371	  0.094148301	-8.067000E+00	  0.094148301	9.127800E+01	  0.094148301	3.595400E+01	  0.094148301	3.364700E+01
372	  0.094348699	-8.099000E+00	  0.094348699	9.074200E+01	  0.094348699	3.626800E+01	  0.094348699	3.377600E+01
373	  0.094549097	-8.135000E+00	  0.094549097	9.022000E+01	  0.094549097	3.658600E+01	  0.094549097	3.388700E+01
374	  0.094749503	-8.165000E+00	  0.094749503	8.969500E+01	  0.094749503	3.689400E+01	  0.094749503	3.401200E+01
375	  0.094949901	-8.201000E+00	  0.094949901	8.918300E+01	  0.094949901	3.721600E+01	  0.094949901	3.411100E+01
376	  0.095150299	-8.227000E+00	  0.095150299	8.866900E+01	  0.095150299	3.751400E+01	  0.095150299	3.423700E+01
377	  0.095350705	-8.265000E+00	  0.095350705	8.818200E+01	  0.095350705	3.783100E+01	  0.095350705	3.431700E+01
378	  0.095551103	-8.299000E+00	  0.095551103	8.764100E+01	  0.095551103	3.816500E+01	  0.095551103	3.442600E+01
379	  0.095751502	-8.328000E+00	  0.095751502	8.715800E+01	  0.095751502	3.846200E+01	  0.095751502	3.452600E+01
380	  0.095951907	-8.358000E+00	  0.095951907	8.667600E+01	  0.095951907	3.876300E+01	  0.095951907	3.461800E+01
381	  0.096152306	-8.393000E+00	  0.096152306	8.621100E+01	  0.096152306	3.906900E+01	  0.096152306	3.468700E+01
382	  0.096352704	-8.420000E+00	  0.096352704	8.571900E+01	  0.096352704	3.937200E+01	  0.096352704	3.478800E+01
383	  0.096553110	-8.452000E+00	  0.096553110	8.525600E+01	  0.096553110	3.967200E+01	  0.096553110	3.486100E+01
384	  0.096753508	-8.479000E+00	  0.096753508	8.482500E+01	  0.096753508	3.994700E+01	  0.096753508	3.493600E+01
385	  0.096953906	-8.508000E+00	  0.096953906	8.438700E+01	  0.096953906	4.023400E+01	  0.096953906	3.500300E+01
386	  0.097154312	-8.540000E+00	  0.097154312	8.394400E+01	  0.097154312	4.053000E+01	  0.097154312	3.505900E+01
387	  0.097354710	-8.568000E+00	  0.097354710	8.346500E+01	  0.097354710	4.083500E+01	  0.097354710	3.514300E+01
388	  0.097555116	-8.594000E+00	  0.097555116	8.305700E+01	  0.097555116	4.110300E+01	  0.097555116	3.520100E+01
389	  0.097755514	-8.621000E+00	  0.097755514	8.262500E+01	  0.097755514	4.138400E+01	  0.097755514	3.526600E+01
390	  0.097955912	-8.649000E+00	  0.097955912	8.220100E+01	  0.097955912	4.166700E+01	  0.097955912	3.532000E+01
391	  0.098156318	-8.679000E+00	  0.098156318	8.180700E+01	  0.098156318	4.193800E+01	  0.098156318	3.535800E+01
392	  0.098356716	-8.702000E+00	  0.098356716	8.138400E+01	  0.098356716	4.221100E+01	  0.098356716	3.542500E+01
393	  0.098557115	-8.728000E+00	  0.098557115	8.099500E+01	  0.098557115	4.247300E+01	  0.098557115	3.546800E+01
394	  0.098757520	-8.748000E+00	  0.098757520	8.058400E+01	  0.098757520	4.273600E+01	  0.098757520	3.553700E+01
395	  0.098957919	-8.775000E+00	  0.098957919	8.017100E+01	  0.098957919	4.301500E+01	  0.098957919	3.558200E+01
396	  0.099158317	-8.796000E+00	  0.099158317	7.977400E+01	  0.099158317	4.327400E+01	  0.099158317	3.564000E+01
397	  0.099358723	-8.811000E+00	  0.099358723	7.939000E+01	  0.099358723	4.351600E+01	  0.099358723	3.571100E+01
398	  0.099559121	-8.833000E+00	  0.099559121	7.900100E+01	  0.099559121	4.377200E+01	  0.099559121	3.576200E+01
399	  0.099759519	-8.852000E+00	  0.099759519	7.861100E+01	  0.099759519	4.402800E+01	  0.099759519	3.581800E+01
400	  0.099959925	-8.869000E+00	  0.099959925	7.832800E+01	  0.099959925	4.422100E+01	  0.099959925	3.584600E+01
401	  0.100160323	-8.880000E+00	  0.100160323	7.788100E+01	  0.100160323	4.449300E+01	  0.100160323	3.594700E+01
402	  0.100360721	-8.892000E+00	  0.100360721	7.750600E+01	  0.100360721	4.472800E+01	  0.100360721	3.602100E+01
403	  0.100561127	-8.902000E+00	  0.100561127	7.717600E+01	  0.100561127	4.493500E+01	  0.100561127	3.608700E+01
404	  0.100761525	-8.929000E+00	  0.100761525	7.674900E+01	  0.100761525	4.523100E+01	  0.100761525	3.611900E+01
405	  0.100961931	-8.927000E+00	  0.100961931	7.640700E+01	  0.100961931	4.542400E+01	  0.100961931	3.622900E+01
406	  0.101162329	-8.934000E+00	  0.101162329	7.603300E+01	  0.101162329	4.565200E+01	  0.101162329	3.631900E+01
407	  0.101362728	-8.958000E+00	  0.101362728	7.568500E+01	  0.101362728	4.590300E+01	  0.101362728	3.633000E+01
408	  0.101563133	-8.959000E+00	  0.101563133	7.533000E+01	  0.101563133	4.611100E+01	  0.101563133	3.643500E+01
409	  0.101763532	-8.964000E+00	  0.101763532	7.502100E+01	  0.101763532	4.630300E+01	  0.101763532	3.650600E+01
410	  0.101963930	-8.974000E+00	  0.101963930	7.467800E+01	  0.101963930	4.652600E+01	  0.101963930	3.656600E+01
411	  0.102164328	-8.976000E+00	  0.102164328	7.427100E+01	  0.102164328	4.677300E+01	  0.102164328	3.667600E+01
412	  0.102364726	-8.980000E+00	  0.102364726	7.386700E+01	  0.102364726	4.702300E+01	  0.102364726	3.677900E+01
413	  0.102565125	-8.976000E+00	  0.102565125	7.354300E+01	  0.102565125	4.721200E+01	  0.102565125	3.688500E+01
414	  0.102765530	-8.978000E+00	  0.102765530	7.317700E+01	  0.102765530	4.743900E+01	  0.102765530	3.698000E+01
415	  0.102965929	-8.983000E+00	  0.102965929	7.284000E+01	  0.102965929	4.765500E+01	  0.102965929	3.705500E+01
416	  0.103166327	-8.982000E+00	  0.103166327	7.244200E+01	  0.103166327	4.790000E+01	  0.103166327	3.716900E+01
417	  0.103366733	-8.983000E+00	  0.103366733	7.205900E+01	  0.103366733	4.814100E+01	  0.103366733	3.727100E+01
418	  0.103567131	-8.976000E+00	  0.103567131	7.172400E+01	  0.103567131	4.833900E+01	  0.103567131	3.739200E+01
419	  0.103767529	-8.983000E+00	  0.103767529	7.133500E+01	  0.103767529	4.859700E+01	  0.103767529	3.746900E+01
420	  0.103967935	-8.977000E+00	  0.103967935	7.095200E+01	  0.103967935	4.883100E+01	  0.103967935	3.759600E+01
421	  0.104168333	-8.980000E+00	  0.104168333	7.054700E+01	  0.104168333	4.909700E+01	  0.104168333	3.769100E+01
422	  0.104368731	-8.976000E+00	  0.104368731	7.019300E+01	  0.104368731	4.931900E+01	  0.104368731	3.780400E+01
423	  0.104569137	-8.968000E+00	  0.104569137	6.973700E+01	  0.104569137	4.960400E+01	  0.104569137	3.795400E+01
424	  0.104769535	-8.971000E+00	  0.104769535	6.939900E+01	  0.104769535	4.983100E+01	  0.104769535	3.803100E+01
425	  0.104969934	-8.964000E+00	  0.104969934	6.894300E+01	  0.104969934	5.012300E+01	  0.104969934	3.817300E+01
426	  0.105170339	-8.961000E+00	  0.105170339	6.851100E+01	  0.105170339	5.040900E+01	  0.105170339	3.829500E+01
427	  0.105370738	-8.956000E+00	  0.105370738	6.811800E+01	  0.105370738	5.066500E+01	  0.105370738	3.841800E+01
428	  0.105571143	-8.958000E+00	  0.105571143	6.762900E+01	  0.105571143	5.100300E+01	  0.105571143	3.852700E+01
429	  0.105771542	-8.949000E+00	  0.105771542	6.718700E+01	  0.105771542	5.129400E+01	  0.105771542	3.867100E+01
430	  0.105971940	-8.940000E+00	  0.105971940	6.672000E+01	  0.105971940	5.160400E+01	  0.105971940	3.882300E+01
431	  0.106172346	-8.931000E+00	  0.106172346	6.625700E+01	  0.106172346	5.191600E+01	  0.106172346	3.897400E+01
432	  0.106372744	-8.921000E+00	  0.106372744	6.580400E+01	  0.106372744	5.222200E+01	  0.106372744	3.912500E+01
433	  0.106573142	-8.921000E+00	  0.106573142	6.534300E+01	  0.106573142	5.255300E+01	  0.106573142	3.922900E+01
434	  0.106773548	-8.908000E+00	  0.106773548	6.485300E+01	  0.106773548	5.288700E+01	  0.106773548	3.940100E+01
435	  0.106973946	-8.901000E+00	  0.106973946	6.439600E+01	  0.106973946	5.321100E+01	  0.106973946	3.953400E+01
436	  0.107174344	-8.892000E+00	  0.107174344	6.389600E+01	  0.107174344	5.356800E+01	  0.107174344	3.968100E+01
437	  0.107374750	-8.887000E+00	  0.107374750	6.336000E+01	  0.107374750	5.396100E+01	  0.107374750	3.981900E+01
438	  0.107575148	-8.875000E+00	  0.107575148	6.284000E+01	  0.107575148	5.433700E+01	  0.107575148	3.998200E+01
439	  0.107775547	-8.853000E+00	  0.107775547	6.233900E+01	  0.107775547	5.469000E+01	  0.107775547	4.019500E+01
440	  0.107975952	-8.849000E+00	  0.107975952	6.180500E+01	  0.107975952	5.509700E+01	  0.107975952	4.031700E+01
441	  0.108176351	-8.829000E+00	  0.108176351	6.137000E+01	  0.108176351	5.541300E+01	  0.108176351	4.049900E+01
442	  0.108376749	-8.812000E+00	  0.108376749	6.076900E+01	  0.108376749	5.586500E+01	  0.108376749	4.069800E+01
443	  0.108577155	-8.805000E+00	  0.108577155	6.026100E+01	  0.108577155	5.626300E+01	  0.108577155	4.082500E+01
444	  0.108777553	-8.790000E+00	  0.108777553	5.975400E+01	  0.108777553	5.665400E+01	  0.108777553	4.099600E+01
445	  0.108977959	-8.777000E+00	  0.108977959	5.917200E+01	  0.108977959	5.711400E+01	  0.108977959	4.116200E+01
446	  0.109178357	-8.761000E+00	  0.109178357	5.862200E+01	  0.109178357	5.755200E+01	  0.109178357	4.133500E+01
447	  0.109378755	-8.745000E+00	  0.109378755	5.804300E+01	  0.109378755	5.801900E+01	  0.109378755	4.151400E+01
448	  0.109579161	-8.734000E+00	  0.109579161	5.755600E+01	  0.109579161	5.842000E+01	  0.109579161	4.164700E+01
449	  0.109779559	-8.713000E+00	  0.109779559	5.693200E+01	  0.109779559	5.893400E+01	  0.109779559	4.185300E+01
450	  0.109979957	-8.708000E+00	  0.109979957	5.645000E+01	  0.109979957	5.934700E+01	  0.109979957	4.194300E+01
451	  0.110180363	-8.695000E+00	  0.110180363	5.583100E+01	  0.110180363	5.987700E+01	  0.110180363	4.209600E+01
452	  0.110380761	-8.682000E+00	  0.110380761	5.522200E+01	  0.110380761	6.040600E+01	  0.110380761	4.224400E+01
453	  0.110581160	-8.669000E+00	  0.110581160	5.467000E+01	  0.110581160	6.089200E+01	  0.110581160	4.237500E+01
454	  0.110781565	-8.666000E+00	  0.110781565	5.407500E+01	  0.110781565	6.142900E+01	  0.110781565	4.245400E+01
455	  0.110981964	-8.655000E+00	  0.110981964	5.340900E+01	  0.110981964	6.203300E+01	  0.110981964	4.258000E+01
456	  0.111182362	-8.640000E+00	  0.111182362	5.290600E+01	  0.111182362	6.249200E+01	  0.111182362	4.270700E+01
457	  0.111382768	-8.636000E+00	  0.111382768	5.219700E+01	  0.111382768	6.315400E+01	  0.111382768	4.277900E+01
458	  0.111583166	-8.628000E+00	  0.111583166	5.159200E+01	  0.111583166	6.372500E+01	  0.111583166	4.286100E+01
459	  0.111783572	-8.622000E+00	  0.111783572	5.092100E+01	  0.111783572	6.436700E+01	  0.111783572	4.292800E+01
460	  0.111983970	-8.616000E+00	  0.111983970	5.031600E+01	  0.111983970	6.495300E+01	  0.111983970	4.298100E+01
461	  0.112184368	-8.612000E+00	  0.112184368	4.965300E+01	  0.112184368	6.560200E+01	  0.112184368	4.302100E+01
462	  0.112384774	-8.615000E+00	  0.112384774	4.892600E+01	  0.112384774	6.632200E+01	  0.112384774	4.300300E+01
463	  0.112585172	-8.610000E+00	  0.112585172	4.823100E+01	  0.112585172	6.701800E+01	  0.112585172	4.302200E+01
464	  0.112785570	-8.605000E+00	  0.112785570	4.749900E+01	  0.112785570	6.776000E+01	  0.112785570	4.303400E+01
465	  0.112985976	-8.614000E+00	  0.112985976	4.679700E+01	  0.112985976	6.847400E+01	  0.112985976	4.293100E+01
466	  0.113186374	-8.615000E+00	  0.113186374	4.607300E+01	  0.113186374	6.922100E+01	  0.113186374	4.287400E+01
467	  0.113386773	-8.616000E+00	  0.113386773	4.534200E+01	  0.113386773	6.998100E+01	  0.113386773	4.280700E+01
468	  0.113587178	-8.619000E+00	  0.113587178	4.454300E+01	  0.113587178	7.081800E+01	  0.113587178	4.269700E+01
469	  0.113787577	-8.621000E+00	  0.113787577	4.377600E+01	  0.113787577	7.163000E+01	  0.113787577	4.258300E+01
470	  0.113987975	-8.623000E+00	  0.113987975	4.296800E+01	  0.113987975	7.249100E+01	  0.113987975	4.244400E+01
471	  0.114188381	-8.630000E+00	  0.114188381	4.216600E+01	  0.114188381	7.334700E+01	  0.114188381	4.224800E+01
472	  0.114388779	-8.643000E+00	  0.114388779	4.137200E+01	  0.114388779	7.419200E+01	  0.114388779	4.199800E+01
473	  0.114589177	-8.651000E+00	  0.114589177	4.056200E+01	  0.114589177	7.506300E+01	  0.114589177	4.175000E+01
474	  0.114789583	-8.662000E+00	  0.114789583	3.969800E+01	  0.114789583	7.599300E+01	  0.114789583	4.145300E+01
475	  0.114989981	-8.667000E+00	  0.114989981	3.883000E+01	  0.114989981	7.694000E+01	  0.114989981	4.116500E+01
476	  0.115190387	-8.677000E+00	  0.115190387	3.797100E+01	  0.115190387	7.786900E+01	  0.115190387	4.081700E+01
477	  0.115390785	-8.692000E+00	  0.115390785	3.711900E+01	  0.115390785	7.878300E+01	  0.115390785	4.041900E+01
478	  0.115591183	-8.714000E+00	  0.115591183	3.622200E+01	  0.115591183	7.972300E+01	  0.115591183	3.991200E+01
479	  0.115791589	-8.726000E+00	  0.115791589	3.533500E+01	  0.115791589	8.067600E+01	  0.115791589	3.945800E+01
480	  0.115991987	-8.747000E+00	  0.115991987	3.444400E+01	  0.115991987	8.160400E+01	  0.115991987	3.891000E+01
481	  0.116192386	-8.770000E+00	  0.116192386	3.351300E+01	  0.116192386	8.256100E+01	  0.116192386	3.829500E+01
482	  0.116392791	-8.793000E+00	  0.116392791	3.262800E+01	  0.116392791	8.345600E+01	  0.116392791	3.767300E+01
483	  0.116593190	-8.816000E+00	  0.116593190	3.172500E+01	  0.116593190	8.436000E+01	  0.116593190	3.700900E+01
484	  0.116793588	-8.837000E+00	  0.116793588	3.070800E+01	  0.116793588	8.538300E+01	  0.116793588	3.626300E+01
485	  0.116993994	-8.869000E+00	  0.116993994	2.974800E+01	  0.116993994	8.628400E+01	  0.116993994	3.543800E+01
486	  0.117194392	-8.902000E+00	  0.117194392	2.879100E+01	  0.117194392	8.715200E+01	  0.117194392	3.457200E+01
487	  0.117394790	-8.938000E+00	  0.117394790	2.784900E+01	  0.117394790	8.797000E+01	  0.117394790	3.366800E+01
488	  0.117595196	-8.974000E+00	  0.117595196	2.684300E+01	  0.117595196	8.882300E+01	  0.117595196	3.268300E+01
489	  0.117795594	-9.014000E+00	  0.117795594	2.586900E+01	  0.117795594	8.960000E+01	  0.117795594	3.167100E+01
490	  0.117995992	-9.059000E+00	  0.117995992	2.483100E+01	  0.117995992	9.037500E+01	  0.117995992	3.054400E+01
491	  0.118196398	-9.106000E+00	  0.118196398	2.381300E+01	  0.118196398	9.107800E+01	  0.118196398	2.938900E+01
492	  0.118396796	-9.149000E+00	  0.118396796	2.277800E+01	  0.118396796	9.177900E+01	  0.118396796	2.821800E+01
