! Anritsu VNA Master:             	Model: MS2036C/10/77
! SN:             	1601066
! /bd0/18may10/255.ew.m7.txt
! Existing Calibration Information:
! TYPE:             	Current Settings	Active Cal Settings
! TIME:             	05/10/2018 01:54:13 PM	05/10/2018 01:50:32 PM
! INTERNAL TEMP:    	56.3 C	56.0 C
! # POINTS:         	492	492
! START FREQ:       	20.000 MHz	20.000 MHz
! STOP FREQ:        	118.396 793 MHz	118.396 793 MHz
! SOURCE POWER:     	High	High
! IFBW:             	50 Hz	50 Hz
! AVG FACTOR:       	  1 	  1 
! REF PLANE 1:      	0 mm	0 mm
! REF PLANE 2:      	0 mm	0 mm
! CAL TYPE:         	Full S22	Full S22
! CAL METHOD:       	SOLT	SOLT
! CAL LINE TYPE:    	Coax	Coax
! DUT PORT 1:       	K-Conn(M)	K-Conn(M)
! DUT PORT 2:       	K-Conn(M)	K-Conn(M)
! CAL STATUS:       	OK: Accuracy High	--
! PROP-V:       	0.700
! CABLE LOSS:       	0.000 dB/m
! REF IMPEDANCE:       	50.0
! Trace Specific Parameters:	TR1	TR2	TR3	TR4
! TRACE.#.Y (GRAPH TYPE)	LOG MAG	PHASE	REAL IMPEDANCE	IMAGINARY IMPEDANCE
! TRACE.#.X 	FREQ.GHZ	FREQ.GHZ	FREQ.GHZ	FREQ.GHZ
! S-PARAMETER	S22	S22	S22	S22
! SMOOTH/APERTURE %	0	0	0	0
! WINDOW	NSL	NSL	NSL	NSL
! GATING	OFF	OFF	OFF	OFF
! FGTD	OFF	OFF	OFF	OFF
Marker Information per Trace:	TR1	TR2	TR3	TR4
!MK1	--	"MK1 TR2:  20.000 MHz,PH:-125.54°"	--	--
!MK2	--	--	"MK2 TR3:  70.100 200 MHz,Z:(16.792 ohm, -1.674 ohm)"	--
!MK3	--	--	--	--
!MK4	--	--	--	--
!MK5	--	--	--	--
!MK6	--	--	--	--
!MK7	--	--	--	--
!MK8	--	--	--	--
PNT	TR1.FREQ.GHZ	TR1.LOG MAG.dB	TR2.FREQ.GHZ	TR2.PHASE.deg	TR3.FREQ.GHZ	TR3.REAL IMPEDANCE.ohm	TR4.FREQ.GHZ	TR4.IMAGINARY IMPEDANCE.ohm
1	  0.020000000	-9.170000E-01	  0.020000000	-1.255400E+02	  0.020000000	3.334000E+00	  0.020000000	-2.563900E+01
2	  0.020200402	-9.270000E-01	  0.020200402	-1.269820E+02	  0.020200402	3.329000E+00	  0.020200402	-2.485000E+01
3	  0.020400802	-9.370000E-01	  0.020400802	-1.284070E+02	  0.020400802	3.322000E+00	  0.020400802	-2.408000E+01
4	  0.020601204	-9.450000E-01	  0.020601204	-1.298800E+02	  0.020601204	3.310000E+00	  0.020601204	-2.329400E+01
5	  0.020801604	-9.560000E-01	  0.020801604	-1.313600E+02	  0.020801604	3.309000E+00	  0.020801604	-2.251400E+01
6	  0.021002004	-9.650000E-01	  0.021002004	-1.328660E+02	  0.021002004	3.302000E+00	  0.021002004	-2.172900E+01
7	  0.021202406	-9.760000E-01	  0.021202406	-1.343620E+02	  0.021202406	3.303000E+00	  0.021202406	-2.095900E+01
8	  0.021402806	-9.840000E-01	  0.021402806	-1.358510E+02	  0.021402806	3.293000E+00	  0.021402806	-2.020100E+01
9	  0.021603208	-9.940000E-01	  0.021603208	-1.373410E+02	  0.021603208	3.292000E+00	  0.021603208	-1.944900E+01
10	  0.021803608	-1.004000E+00	  0.021803608	-1.388360E+02	  0.021803608	3.294000E+00	  0.021803608	-1.870300E+01
11	  0.022004008	-1.015000E+00	  0.022004008	-1.403280E+02	  0.022004008	3.299000E+00	  0.022004008	-1.796600E+01
12	  0.022204408	-1.027000E+00	  0.022204408	-1.418340E+02	  0.022204408	3.306000E+00	  0.022204408	-1.722900E+01
13	  0.022404809	-1.036000E+00	  0.022404809	-1.433790E+02	  0.022404809	3.305000E+00	  0.022404809	-1.648000E+01
14	  0.022605211	-1.048000E+00	  0.022605211	-1.449360E+02	  0.022605211	3.312000E+00	  0.022605211	-1.573200E+01
15	  0.022805611	-1.057000E+00	  0.022805611	-1.464880E+02	  0.022805611	3.315000E+00	  0.022805611	-1.499300E+01
16	  0.023006011	-1.067000E+00	  0.023006011	-1.480300E+02	  0.023006011	3.320000E+00	  0.023006011	-1.426400E+01
17	  0.023206413	-1.075000E+00	  0.023206413	-1.495770E+02	  0.023206413	3.320000E+00	  0.023206413	-1.353900E+01
18	  0.023406813	-1.085000E+00	  0.023406813	-1.511260E+02	  0.023406813	3.326000E+00	  0.023406813	-1.281800E+01
19	  0.023607215	-1.097000E+00	  0.023607215	-1.526920E+02	  0.023607215	3.339000E+00	  0.023607215	-1.209400E+01
20	  0.023807615	-1.110000E+00	  0.023807615	-1.542670E+02	  0.023807615	3.358000E+00	  0.023807615	-1.137100E+01
21	  0.024008015	-1.125000E+00	  0.024008015	-1.558610E+02	  0.024008015	3.381000E+00	  0.024008015	-1.064400E+01
22	  0.024208417	-1.136000E+00	  0.024208417	-1.574860E+02	  0.024208417	3.394000E+00	  0.024208417	-9.907000E+00
23	  0.024408817	-1.146000E+00	  0.024408817	-1.591060E+02	  0.024408817	3.405000E+00	  0.024408817	-9.177000E+00
24	  0.024609219	-1.157000E+00	  0.024609219	-1.607350E+02	  0.024609219	3.421000E+00	  0.024609219	-8.447000E+00
25	  0.024809619	-1.170000E+00	  0.024809619	-1.623660E+02	  0.024809619	3.444000E+00	  0.024809619	-7.719000E+00
26	  0.025010020	-1.186000E+00	  0.025010020	-1.640190E+02	  0.025010020	3.476000E+00	  0.025010020	-6.985000E+00
27	  0.025210422	-1.200000E+00	  0.025210422	-1.656560E+02	  0.025210422	3.505000E+00	  0.025210422	-6.260000E+00
28	  0.025410822	-1.217000E+00	  0.025410822	-1.673170E+02	  0.025410822	3.540000E+00	  0.025410822	-5.528000E+00
29	  0.025611224	-1.233000E+00	  0.025611224	-1.689820E+02	  0.025611224	3.575000E+00	  0.025611224	-4.797000E+00
30	  0.025811624	-1.249000E+00	  0.025811624	-1.706620E+02	  0.025811624	3.614000E+00	  0.025811624	-4.061000E+00
31	  0.026012026	-1.267000E+00	  0.026012026	-1.723730E+02	  0.026012026	3.657000E+00	  0.026012026	-3.314000E+00
32	  0.026212426	-1.282000E+00	  0.026212426	-1.740810E+02	  0.026212426	3.694000E+00	  0.026212426	-2.570000E+00
33	  0.026412826	-1.300000E+00	  0.026412826	-1.757900E+02	  0.026412826	3.740000E+00	  0.026412826	-1.827000E+00
34	  0.026613226	-1.319000E+00	  0.026613226	-1.775080E+02	  0.026613226	3.793000E+00	  0.026613226	-1.081000E+00
35	  0.026813626	-1.339000E+00	  0.026813626	-1.792500E+02	  0.026813626	3.848000E+00	  0.026813626	-3.250000E-01
36	  0.027014028	-1.360000E+00	  0.027014028	1.790090E+02	  0.027014028	3.907000E+00	  0.027014028	4.290000E-01
37	  0.027214428	-1.382000E+00	  0.027214428	1.772610E+02	  0.027214428	3.973000E+00	  0.027214428	1.187000E+00
38	  0.027414829	-1.405000E+00	  0.027414829	1.755130E+02	  0.027414829	4.042000E+00	  0.027414829	1.945000E+00
39	  0.027615231	-1.427000E+00	  0.027615231	1.737400E+02	  0.027615231	4.112000E+00	  0.027615231	2.715000E+00
40	  0.027815631	-1.450000E+00	  0.027815631	1.719580E+02	  0.027815631	4.187000E+00	  0.027815631	3.490000E+00
41	  0.028016033	-1.475000E+00	  0.028016033	1.701650E+02	  0.028016033	4.268000E+00	  0.028016033	4.270000E+00
42	  0.028216433	-1.500000E+00	  0.028216433	1.683570E+02	  0.028216433	4.351000E+00	  0.028216433	5.059000E+00
43	  0.028416833	-1.528000E+00	  0.028416833	1.665510E+02	  0.028416833	4.448000E+00	  0.028416833	5.848000E+00
44	  0.028617235	-1.554000E+00	  0.028617235	1.647310E+02	  0.028617235	4.542000E+00	  0.028617235	6.647000E+00
45	  0.028817635	-1.582000E+00	  0.028817635	1.629170E+02	  0.028817635	4.642000E+00	  0.028817635	7.446000E+00
46	  0.029018037	-1.610000E+00	  0.029018037	1.610940E+02	  0.029018037	4.748000E+00	  0.029018037	8.251000E+00
47	  0.029218437	-1.639000E+00	  0.029218437	1.592510E+02	  0.029218437	4.861000E+00	  0.029218437	9.069000E+00
48	  0.029418837	-1.671000E+00	  0.029418837	1.574100E+02	  0.029418837	4.984000E+00	  0.029418837	9.890000E+00
49	  0.029619239	-1.699000E+00	  0.029619239	1.555380E+02	  0.029619239	5.103000E+00	  0.029619239	1.073000E+01
50	  0.029819639	-1.731000E+00	  0.029819639	1.536550E+02	  0.029819639	5.237000E+00	  0.029819639	1.158000E+01
51	  0.030020041	-1.764000E+00	  0.030020041	1.517810E+02	  0.030020041	5.377000E+00	  0.030020041	1.243000E+01
52	  0.030220442	-1.795000E+00	  0.030220442	1.498950E+02	  0.030220442	5.516000E+00	  0.030220442	1.329300E+01
53	  0.030420844	-1.828000E+00	  0.030420844	1.480140E+02	  0.030420844	5.669000E+00	  0.030420844	1.415900E+01
54	  0.030621244	-1.862000E+00	  0.030621244	1.461270E+02	  0.030621244	5.829000E+00	  0.030621244	1.503600E+01
55	  0.030821642	-1.897000E+00	  0.030821642	1.442330E+02	  0.030821642	5.999000E+00	  0.030821642	1.592200E+01
56	  0.031022044	-1.934000E+00	  0.031022044	1.423170E+02	  0.031022044	6.180000E+00	  0.031022044	1.682700E+01
57	  0.031222444	-1.962000E+00	  0.031222444	1.404010E+02	  0.031222444	6.344000E+00	  0.031222444	1.774300E+01
58	  0.031422846	-1.998000E+00	  0.031422846	1.384560E+02	  0.031422846	6.538000E+00	  0.031422846	1.868100E+01
59	  0.031623244	-2.037000E+00	  0.031623244	1.364980E+02	  0.031623244	6.752000E+00	  0.031623244	1.963400E+01
60	  0.031823646	-2.072000E+00	  0.031823646	1.345420E+02	  0.031823646	6.962000E+00	  0.031823646	2.059800E+01
61	  0.032024048	-2.112000E+00	  0.032024048	1.325540E+02	  0.032024048	7.199000E+00	  0.032024048	2.158900E+01
62	  0.032224450	-2.154000E+00	  0.032224450	1.306000E+02	  0.032224450	7.450000E+00	  0.032224450	2.257400E+01
63	  0.032424849	-2.196000E+00	  0.032424849	1.286150E+02	  0.032424849	7.715000E+00	  0.032424849	2.358800E+01
64	  0.032625251	-2.236000E+00	  0.032625251	1.266180E+02	  0.032625251	7.985000E+00	  0.032625251	2.462300E+01
65	  0.032825653	-2.276000E+00	  0.032825653	1.246030E+02	  0.032825653	8.272000E+00	  0.032825653	2.568200E+01
66	  0.033026051	-2.317000E+00	  0.033026051	1.225870E+02	  0.033026051	8.575000E+00	  0.033026051	2.675800E+01
67	  0.033226453	-2.360000E+00	  0.033226453	1.205560E+02	  0.033226453	8.898000E+00	  0.033226453	2.785800E+01
68	  0.033426855	-2.401000E+00	  0.033426855	1.185460E+02	  0.033426855	9.233000E+00	  0.033426855	2.896500E+01
69	  0.033627257	-2.445000E+00	  0.033627257	1.165190E+02	  0.033627257	9.594000E+00	  0.033627257	3.009900E+01
70	  0.033827655	-2.489000E+00	  0.033827655	1.145080E+02	  0.033827655	9.977000E+00	  0.033827655	3.124200E+01
71	  0.034028057	-2.534000E+00	  0.034028057	1.124950E+02	  0.034028057	1.038000E+01	  0.034028057	3.240700E+01
72	  0.034228459	-2.578000E+00	  0.034228459	1.104430E+02	  0.034228459	1.080600E+01	  0.034228459	3.361600E+01
73	  0.034428857	-2.625000E+00	  0.034428857	1.083850E+02	  0.034428857	1.127200E+01	  0.034428857	3.485000E+01
74	  0.034629259	-2.672000E+00	  0.034629259	1.062950E+02	  0.034629259	1.176700E+01	  0.034629259	3.612900E+01
75	  0.034829661	-2.720000E+00	  0.034829661	1.042480E+02	  0.034829661	1.228400E+01	  0.034829661	3.740600E+01
76	  0.035030060	-2.768000E+00	  0.035030060	1.021940E+02	  0.035030060	1.283900E+01	  0.035030060	3.871100E+01
77	  0.035230462	-2.817000E+00	  0.035230462	1.001330E+02	  0.035230462	1.342900E+01	  0.035230462	4.004800E+01
78	  0.035430863	-2.866000E+00	  0.035430863	9.804700E+01	  0.035430863	1.405900E+01	  0.035430863	4.143100E+01
79	  0.035631265	-2.914000E+00	  0.035631265	9.598900E+01	  0.035631265	1.471900E+01	  0.035631265	4.282500E+01
80	  0.035831664	-2.963000E+00	  0.035831664	9.389700E+01	  0.035831664	1.543400E+01	  0.035831664	4.427300E+01
81	  0.036032066	-3.011000E+00	  0.036032066	9.184200E+01	  0.036032066	1.618400E+01	  0.036032066	4.572600E+01
82	  0.036232468	-3.059000E+00	  0.036232468	8.973900E+01	  0.036232468	1.698800E+01	  0.036232468	4.725300E+01
83	  0.036432866	-3.108000E+00	  0.036432866	8.766300E+01	  0.036432866	1.784900E+01	  0.036432866	4.879000E+01
84	  0.036633268	-3.149000E+00	  0.036633268	8.555900E+01	  0.036633268	1.873700E+01	  0.036633268	5.040100E+01
85	  0.036833670	-3.198000E+00	  0.036833670	8.345800E+01	  0.036833670	1.972700E+01	  0.036833670	5.203300E+01
86	  0.037034072	-3.239000E+00	  0.037034072	8.135400E+01	  0.037034072	2.074400E+01	  0.037034072	5.372600E+01
87	  0.037234470	-3.277000E+00	  0.037234470	7.922700E+01	  0.037234470	2.182700E+01	  0.037234470	5.549200E+01
88	  0.037434869	-3.315000E+00	  0.037434869	7.706900E+01	  0.037434869	2.300400E+01	  0.037434869	5.733400E+01
89	  0.037635271	-3.349000E+00	  0.037635271	7.485200E+01	  0.037635271	2.428000E+01	  0.037635271	5.929200E+01
90	  0.037835669	-3.390000E+00	  0.037835669	7.253600E+01	  0.037835669	2.575700E+01	  0.037835669	6.138000E+01
91	  0.038036071	-3.444000E+00	  0.038036071	7.016200E+01	  0.038036071	2.748800E+01	  0.038036071	6.353200E+01
92	  0.038236473	-3.518000E+00	  0.038236473	6.781900E+01	  0.038236473	2.949300E+01	  0.038236473	6.561400E+01
93	  0.038436871	-3.597000E+00	  0.038436871	6.554400E+01	  0.038436871	3.165700E+01	  0.038436871	6.762500E+01
94	  0.038637273	-3.676000E+00	  0.038637273	6.336500E+01	  0.038637273	3.392800E+01	  0.038637273	6.954600E+01
95	  0.038837675	-3.749000E+00	  0.038837675	6.123600E+01	  0.038837675	3.628800E+01	  0.038837675	7.145100E+01
96	  0.039038073	-3.814000E+00	  0.039038073	5.913300E+01	  0.039038073	3.875700E+01	  0.039038073	7.337000E+01
97	  0.039238475	-3.876000E+00	  0.039238475	5.704700E+01	  0.039238475	4.138400E+01	  0.039238475	7.528200E+01
98	  0.039438877	-3.939000E+00	  0.039438877	5.494400E+01	  0.039438877	4.424800E+01	  0.039438877	7.718700E+01
99	  0.039639279	-3.998000E+00	  0.039639279	5.285200E+01	  0.039639279	4.729800E+01	  0.039639279	7.908400E+01
100	  0.039839678	-4.054000E+00	  0.039839678	5.074500E+01	  0.039839678	5.059900E+01	  0.039839678	8.097200E+01
101	  0.040040080	-4.105000E+00	  0.040040080	4.862600E+01	  0.040040080	5.415500E+01	  0.040040080	8.285400E+01
102	  0.040240481	-4.158000E+00	  0.040240481	4.652000E+01	  0.040240481	5.799100E+01	  0.040240481	8.463000E+01
103	  0.040440880	-4.208000E+00	  0.040440880	4.441900E+01	  0.040440880	6.211000E+01	  0.040440880	8.631500E+01
104	  0.040641282	-4.260000E+00	  0.040641282	4.231700E+01	  0.040641282	6.658000E+01	  0.040641282	8.782200E+01
105	  0.040841684	-4.311000E+00	  0.040841684	4.022300E+01	  0.040841684	7.136800E+01	  0.040841684	8.914100E+01
106	  0.041042086	-4.361000E+00	  0.041042086	3.813500E+01	  0.041042086	7.649300E+01	  0.041042086	9.023300E+01
107	  0.041242484	-4.413000E+00	  0.041242484	3.604400E+01	  0.041242484	8.200000E+01	  0.041242484	9.098700E+01
108	  0.041442886	-4.464000E+00	  0.041442886	3.395700E+01	  0.041442886	8.785400E+01	  0.041442886	9.140000E+01
109	  0.041643288	-4.512000E+00	  0.041643288	3.185400E+01	  0.041643288	9.410300E+01	  0.041643288	9.141900E+01
110	  0.041843686	-4.560000E+00	  0.041843686	2.975100E+01	  0.041843686	1.006990E+02	  0.041843686	9.094400E+01
111	  0.042044088	-4.606000E+00	  0.042044088	2.766100E+01	  0.042044088	1.075590E+02	  0.042044088	8.987800E+01
112	  0.042244490	-4.655000E+00	  0.042244490	2.560100E+01	  0.042244490	1.145600E+02	  0.042244490	8.808000E+01
113	  0.042444889	-4.702000E+00	  0.042444889	2.353300E+01	  0.042444889	1.217580E+02	  0.042444889	8.555500E+01
114	  0.042645290	-4.751000E+00	  0.042645290	2.147300E+01	  0.042645290	1.289770E+02	  0.042645290	8.215200E+01
115	  0.042845692	-4.797000E+00	  0.042845692	1.941600E+01	  0.042845692	1.361450E+02	  0.042845692	7.792200E+01
116	  0.043046094	-4.842000E+00	  0.043046094	1.737100E+01	  0.043046094	1.430660E+02	  0.043046094	7.278400E+01
117	  0.043246493	-4.886000E+00	  0.043246493	1.531600E+01	  0.043246493	1.496890E+02	  0.043246493	6.670700E+01
118	  0.043446895	-4.928000E+00	  0.043446895	1.327100E+01	  0.043446895	1.557800E+02	  0.043446895	5.976500E+01
119	  0.043647297	-4.972000E+00	  0.043647297	1.124100E+01	  0.043647297	1.610690E+02	  0.043647297	5.196400E+01
120	  0.043847695	-5.011000E+00	  0.043847695	9.199000E+00	  0.043847695	1.656590E+02	  0.043847695	4.345500E+01
121	  0.044048097	-5.052000E+00	  0.044048097	7.201000E+00	  0.044048097	1.690670E+02	  0.044048097	3.445600E+01
122	  0.044248499	-5.091000E+00	  0.044248499	5.178000E+00	  0.044248499	1.714860E+02	  0.044248499	2.495200E+01
123	  0.044448901	-5.128000E+00	  0.044448901	3.190000E+00	  0.044448901	1.727760E+02	  0.044448901	1.537700E+01
124	  0.044649299	-5.167000E+00	  0.044649299	1.205000E+00	  0.044649299	1.727980E+02	  0.044649299	5.764000E+00
125	  0.044849701	-5.202000E+00	  0.044849701	-7.800000E-01	  0.044849701	1.718400E+02	  0.044849701	-3.683000E+00
126	  0.045050103	-5.237000E+00	  0.045050103	-2.750000E+00	  0.045050103	1.697780E+02	  0.045050103	-1.272500E+01
127	  0.045250501	-5.270000E+00	  0.045250501	-4.723000E+00	  0.045250501	1.668300E+02	  0.045250501	-2.130500E+01
128	  0.045450903	-5.304000E+00	  0.045450903	-6.677000E+00	  0.045450903	1.630500E+02	  0.045450903	-2.919600E+01
129	  0.045651305	-5.335000E+00	  0.045651305	-8.647000E+00	  0.045651305	1.586140E+02	  0.045651305	-3.648300E+01
130	  0.045851704	-5.366000E+00	  0.045851704	-1.056700E+01	  0.045851704	1.537430E+02	  0.045851704	-4.285700E+01
131	  0.046052102	-5.394000E+00	  0.046052102	-1.250500E+01	  0.046052102	1.484740E+02	  0.046052102	-4.858300E+01
132	  0.046252504	-5.423000E+00	  0.046252504	-1.443000E+01	  0.046252504	1.429240E+02	  0.046252504	-5.349500E+01
133	  0.046452906	-5.452000E+00	  0.046452906	-1.631000E+01	  0.046452906	1.373420E+02	  0.046452906	-5.758100E+01
134	  0.046653304	-5.478000E+00	  0.046653304	-1.822000E+01	  0.046653304	1.316640E+02	  0.046653304	-6.113900E+01
135	  0.046853706	-5.505000E+00	  0.046853706	-2.011400E+01	  0.046853706	1.260120E+02	  0.046853706	-6.399800E+01
136	  0.047054108	-5.530000E+00	  0.047054108	-2.199700E+01	  0.047054108	1.204830E+02	  0.047054108	-6.630000E+01
137	  0.047254506	-5.556000E+00	  0.047254506	-2.387100E+01	  0.047254506	1.150990E+02	  0.047254506	-6.807300E+01
138	  0.047454908	-5.579000E+00	  0.047454908	-2.575700E+01	  0.047454908	1.098660E+02	  0.047454908	-6.945100E+01
139	  0.047655310	-5.602000E+00	  0.047655310	-2.760700E+01	  0.047655310	1.049070E+02	  0.047655310	-7.039400E+01
140	  0.047855709	-5.622000E+00	  0.047855709	-2.941700E+01	  0.047855709	1.002520E+02	  0.047855709	-7.100000E+01
141	  0.048056111	-5.645000E+00	  0.048056111	-3.123000E+01	  0.048056111	9.578500E+01	  0.048056111	-7.128400E+01
142	  0.048256513	-5.667000E+00	  0.048256513	-3.304400E+01	  0.048256513	9.152700E+01	  0.048256513	-7.132300E+01
143	  0.048456915	-5.687000E+00	  0.048456915	-3.484800E+01	  0.048456915	8.750000E+01	  0.048456915	-7.116500E+01
144	  0.048657313	-5.707000E+00	  0.048657313	-3.665900E+01	  0.048657313	8.366500E+01	  0.048657313	-7.081000E+01
145	  0.048857715	-5.725000E+00	  0.048857715	-3.843700E+01	  0.048857715	8.009400E+01	  0.048857715	-7.032800E+01
146	  0.049058117	-5.744000E+00	  0.049058117	-4.022400E+01	  0.049058117	7.670000E+01	  0.049058117	-6.969400E+01
147	  0.049258515	-5.759000E+00	  0.049258515	-4.197800E+01	  0.049258515	7.353700E+01	  0.049258515	-6.900700E+01
148	  0.049458917	-5.775000E+00	  0.049458917	-4.371600E+01	  0.049458917	7.057400E+01	  0.049458917	-6.821300E+01
149	  0.049659319	-5.795000E+00	  0.049659319	-4.547600E+01	  0.049659319	6.775100E+01	  0.049659319	-6.728700E+01
150	  0.049859721	-5.811000E+00	  0.049859721	-4.717300E+01	  0.049859721	6.516700E+01	  0.049859721	-6.636500E+01
151	  0.050060119	-5.827000E+00	  0.050060119	-4.889200E+01	  0.050060119	6.268900E+01	  0.050060119	-6.539000E+01
152	  0.050260521	-5.841000E+00	  0.050260521	-5.060600E+01	  0.050260521	6.034700E+01	  0.050260521	-6.438600E+01
153	  0.050460923	-5.853000E+00	  0.050460923	-5.228200E+01	  0.050460923	5.817600E+01	  0.050460923	-6.337900E+01
154	  0.050661322	-5.865000E+00	  0.050661322	-5.398400E+01	  0.050661322	5.608800E+01	  0.050661322	-6.233400E+01
155	  0.050861724	-5.875000E+00	  0.050861724	-5.563200E+01	  0.050861724	5.416400E+01	  0.050861724	-6.131400E+01
156	  0.051062126	-5.888000E+00	  0.051062126	-5.730600E+01	  0.051062126	5.232300E+01	  0.051062126	-6.023600E+01
157	  0.051262524	-5.900000E+00	  0.051262524	-5.894200E+01	  0.051262524	5.061700E+01	  0.051262524	-5.917300E+01
158	  0.051462926	-5.911000E+00	  0.051462926	-6.058700E+01	  0.051462926	4.898400E+01	  0.051462926	-5.810500E+01
159	  0.051663328	-5.921000E+00	  0.051663328	-6.220600E+01	  0.051663328	4.745500E+01	  0.051663328	-5.705600E+01
160	  0.051863730	-5.930000E+00	  0.051863730	-6.381500E+01	  0.051863730	4.600700E+01	  0.051863730	-5.601500E+01
161	  0.052064128	-5.935000E+00	  0.052064128	-6.541500E+01	  0.052064128	4.462200E+01	  0.052064128	-5.500100E+01
162	  0.052264530	-5.940000E+00	  0.052264530	-6.701800E+01	  0.052264530	4.330400E+01	  0.052264530	-5.398200E+01
163	  0.052464932	-5.947000E+00	  0.052464932	-6.859500E+01	  0.052464932	4.207600E+01	  0.052464932	-5.297100E+01
164	  0.052665330	-5.953000E+00	  0.052665330	-7.017000E+01	  0.052665330	4.090400E+01	  0.052665330	-5.196900E+01
165	  0.052865732	-5.961000E+00	  0.052865732	-7.172100E+01	  0.052865732	3.981000E+01	  0.052865732	-5.098100E+01
166	  0.053066134	-5.972000E+00	  0.053066134	-7.325900E+01	  0.053066134	3.878900E+01	  0.053066134	-4.998900E+01
167	  0.053266536	-5.975000E+00	  0.053266536	-7.479600E+01	  0.053266536	3.778500E+01	  0.053266536	-4.904000E+01
168	  0.053466935	-5.985000E+00	  0.053466935	-7.633200E+01	  0.053466935	3.685400E+01	  0.053466935	-4.806900E+01
169	  0.053667337	-5.989000E+00	  0.053667337	-7.782800E+01	  0.053667337	3.596300E+01	  0.053667337	-4.715600E+01
170	  0.053867739	-5.994000E+00	  0.053867739	-7.934400E+01	  0.053867739	3.510700E+01	  0.053867739	-4.623000E+01
171	  0.054068137	-6.001000E+00	  0.054068137	-8.085600E+01	  0.054068137	3.429400E+01	  0.054068137	-4.531100E+01
172	  0.054268539	-6.004000E+00	  0.054268539	-8.233300E+01	  0.054268539	3.352100E+01	  0.054268539	-4.443500E+01
173	  0.054468941	-6.013000E+00	  0.054468941	-8.378800E+01	  0.054468941	3.281400E+01	  0.054468941	-4.355700E+01
174	  0.054669335	-6.016000E+00	  0.054669335	-8.527100E+01	  0.054669335	3.210100E+01	  0.054669335	-4.269100E+01
175	  0.054869737	-6.022000E+00	  0.054869737	-8.671400E+01	  0.054869737	3.145000E+01	  0.054869737	-4.184500E+01
176	  0.055070139	-6.028000E+00	  0.055070139	-8.814000E+01	  0.055070139	3.082800E+01	  0.055070139	-4.102100E+01
177	  0.055270538	-6.034000E+00	  0.055270538	-8.957200E+01	  0.055270538	3.023100E+01	  0.055270538	-4.020000E+01
178	  0.055470940	-6.040000E+00	  0.055470940	-9.098900E+01	  0.055470940	2.966200E+01	  0.055470940	-3.939600E+01
179	  0.055671342	-6.037000E+00	  0.055671342	-9.239300E+01	  0.055671342	2.909000E+01	  0.055671342	-3.862900E+01
180	  0.055871744	-6.039000E+00	  0.055871744	-9.380000E+01	  0.055871744	2.855500E+01	  0.055871744	-3.785600E+01
181	  0.056072142	-6.044000E+00	  0.056072142	-9.518700E+01	  0.056072142	2.806000E+01	  0.056072142	-3.709200E+01
182	  0.056272544	-6.043000E+00	  0.056272544	-9.656000E+01	  0.056272544	2.757000E+01	  0.056272544	-3.635600E+01
183	  0.056472946	-6.046000E+00	  0.056472946	-9.792200E+01	  0.056472946	2.711100E+01	  0.056472946	-3.562500E+01
184	  0.056673344	-6.049000E+00	  0.056673344	-9.926100E+01	  0.056673344	2.667800E+01	  0.056673344	-3.491200E+01
185	  0.056873746	-6.048000E+00	  0.056873746	-1.005860E+02	  0.056873746	2.624900E+01	  0.056873746	-3.422300E+01
186	  0.057074148	-6.046000E+00	  0.057074148	-1.019140E+02	  0.057074148	2.583400E+01	  0.057074148	-3.353900E+01
187	  0.057274550	-6.046000E+00	  0.057274550	-1.032540E+02	  0.057274550	2.543700E+01	  0.057274550	-3.285000E+01
188	  0.057474948	-6.040000E+00	  0.057474948	-1.045830E+02	  0.057474948	2.503800E+01	  0.057474948	-3.218300E+01
189	  0.057675350	-6.041000E+00	  0.057675350	-1.058770E+02	  0.057675350	2.468300E+01	  0.057675350	-3.152700E+01
190	  0.057875752	-6.037000E+00	  0.057875752	-1.071930E+02	  0.057875752	2.431900E+01	  0.057875752	-3.087400E+01
191	  0.058076151	-6.036000E+00	  0.058076151	-1.084990E+02	  0.058076151	2.397700E+01	  0.058076151	-3.022700E+01
192	  0.058276553	-6.032000E+00	  0.058276553	-1.097740E+02	  0.058276553	2.364700E+01	  0.058276553	-2.960400E+01
193	  0.058476955	-6.026000E+00	  0.058476955	-1.110350E+02	  0.058476955	2.332600E+01	  0.058476955	-2.899600E+01
194	  0.058677353	-6.022000E+00	  0.058677353	-1.123120E+02	  0.058677353	2.301700E+01	  0.058677353	-2.838100E+01
195	  0.058877755	-6.020000E+00	  0.058877755	-1.136020E+02	  0.058877755	2.272200E+01	  0.058877755	-2.776100E+01
196	  0.059078157	-6.010000E+00	  0.059078157	-1.148660E+02	  0.059078157	2.241500E+01	  0.059078157	-2.717000E+01
197	  0.059278559	-6.006000E+00	  0.059278559	-1.161260E+02	  0.059278559	2.214000E+01	  0.059278559	-2.657600E+01
198	  0.059478957	-6.001000E+00	  0.059478957	-1.174070E+02	  0.059478957	2.186600E+01	  0.059478957	-2.597700E+01
199	  0.059679359	-5.997000E+00	  0.059679359	-1.186650E+02	  0.059679359	2.160800E+01	  0.059679359	-2.539300E+01
200	  0.059879761	-5.993000E+00	  0.059879761	-1.198980E+02	  0.059879761	2.136400E+01	  0.059879761	-2.482300E+01
201	  0.060080159	-5.992000E+00	  0.060080159	-1.211270E+02	  0.060080159	2.113600E+01	  0.060080159	-2.425600E+01
202	  0.060280561	-5.988000E+00	  0.060280561	-1.223740E+02	  0.060280561	2.090700E+01	  0.060280561	-2.368700E+01
203	  0.060480963	-5.986000E+00	  0.060480963	-1.236030E+02	  0.060480963	2.069100E+01	  0.060480963	-2.312800E+01
204	  0.060681365	-5.986000E+00	  0.060681365	-1.248160E+02	  0.060681365	2.049000E+01	  0.060681365	-2.257900E+01
205	  0.060881764	-5.983000E+00	  0.060881764	-1.260430E+02	  0.060881764	2.028700E+01	  0.060881764	-2.202900E+01
206	  0.061082166	-5.978000E+00	  0.061082166	-1.272750E+02	  0.061082166	2.008500E+01	  0.061082166	-2.148200E+01
207	  0.061282568	-5.975000E+00	  0.061282568	-1.284790E+02	  0.061282568	1.989800E+01	  0.061282568	-2.094900E+01
208	  0.061482966	-5.976000E+00	  0.061482966	-1.296740E+02	  0.061482966	1.972900E+01	  0.061482966	-2.042000E+01
209	  0.061683368	-5.974000E+00	  0.061683368	-1.308890E+02	  0.061683368	1.955500E+01	  0.061683368	-1.988700E+01
210	  0.061883770	-5.972000E+00	  0.061883770	-1.320780E+02	  0.061883770	1.939000E+01	  0.061883770	-1.936900E+01
211	  0.062084168	-5.972000E+00	  0.062084168	-1.332450E+02	  0.062084168	1.924200E+01	  0.062084168	-1.886100E+01
212	  0.062284570	-5.973000E+00	  0.062284570	-1.344350E+02	  0.062284570	1.909400E+01	  0.062284570	-1.834600E+01
213	  0.062484972	-5.964000E+00	  0.062484972	-1.355640E+02	  0.062484972	1.893300E+01	  0.062484972	-1.786700E+01
214	  0.062685370	-5.961000E+00	  0.062685370	-1.367790E+02	  0.062685370	1.878600E+01	  0.062685370	-1.734800E+01
215	  0.062885776	-5.964000E+00	  0.062885776	-1.379170E+02	  0.062885776	1.866600E+01	  0.062885776	-1.686100E+01
216	  0.063086174	-5.964000E+00	  0.063086174	-1.390870E+02	  0.063086174	1.854000E+01	  0.063086174	-1.636500E+01
217	  0.063286573	-5.960000E+00	  0.063286573	-1.402380E+02	  0.063286573	1.840800E+01	  0.063286573	-1.588200E+01
218	  0.063486971	-5.955000E+00	  0.063486971	-1.413750E+02	  0.063486971	1.828200E+01	  0.063486971	-1.540700E+01
219	  0.063687377	-5.957000E+00	  0.063687377	-1.424890E+02	  0.063687377	1.817900E+01	  0.063687377	-1.494000E+01
220	  0.063887775	-5.957000E+00	  0.063887775	-1.436150E+02	  0.063887775	1.807400E+01	  0.063887775	-1.447100E+01
221	  0.064088173	-5.955000E+00	  0.064088173	-1.447310E+02	  0.064088173	1.796800E+01	  0.064088173	-1.400800E+01
222	  0.064288579	-5.956000E+00	  0.064288579	-1.458880E+02	  0.064288579	1.787300E+01	  0.064288579	-1.352900E+01
223	  0.064488977	-5.960000E+00	  0.064488977	-1.469950E+02	  0.064488977	1.779200E+01	  0.064488977	-1.307100E+01
224	  0.064689375	-5.960000E+00	  0.064689375	-1.480990E+02	  0.064689375	1.770500E+01	  0.064689375	-1.261900E+01
225	  0.064889781	-5.963000E+00	  0.064889781	-1.492030E+02	  0.064889781	1.762600E+01	  0.064889781	-1.216600E+01
226	  0.065090179	-5.962000E+00	  0.065090179	-1.503090E+02	  0.065090179	1.754400E+01	  0.065090179	-1.171600E+01
227	  0.065290578	-5.965000E+00	  0.065290578	-1.513890E+02	  0.065290578	1.747700E+01	  0.065290578	-1.127600E+01
228	  0.065490983	-5.970000E+00	  0.065490983	-1.524360E+02	  0.065490983	1.741800E+01	  0.065490983	-1.085100E+01
229	  0.065691382	-5.975000E+00	  0.065691382	-1.535160E+02	  0.065691382	1.736100E+01	  0.065691382	-1.041300E+01
230	  0.065891780	-5.978000E+00	  0.065891780	-1.545930E+02	  0.065891780	1.730300E+01	  0.065891780	-9.979000E+00
231	  0.066092186	-5.979000E+00	  0.066092186	-1.556560E+02	  0.066092186	1.724300E+01	  0.066092186	-9.552000E+00
232	  0.066292584	-5.984000E+00	  0.066292584	-1.566840E+02	  0.066292584	1.720000E+01	  0.066292584	-9.139000E+00
233	  0.066492982	-5.989000E+00	  0.066492982	-1.577500E+02	  0.066492982	1.715400E+01	  0.066492982	-8.712000E+00
234	  0.066693388	-5.992000E+00	  0.066693388	-1.588140E+02	  0.066693388	1.710800E+01	  0.066693388	-8.289000E+00
235	  0.066893786	-5.997000E+00	  0.066893786	-1.598250E+02	  0.066893786	1.707300E+01	  0.066893786	-7.885000E+00
236	  0.067094192	-6.002000E+00	  0.067094192	-1.608520E+02	  0.067094192	1.703800E+01	  0.067094192	-7.478000E+00
237	  0.067294590	-6.005000E+00	  0.067294590	-1.618570E+02	  0.067294590	1.700400E+01	  0.067294590	-7.080000E+00
238	  0.067494988	-6.010000E+00	  0.067494988	-1.628910E+02	  0.067494988	1.697500E+01	  0.067494988	-6.671000E+00
239	  0.067695394	-6.015000E+00	  0.067695394	-1.638800E+02	  0.067695394	1.695000E+01	  0.067695394	-6.280000E+00
240	  0.067895792	-6.021000E+00	  0.067895792	-1.649040E+02	  0.067895792	1.692700E+01	  0.067895792	-5.877000E+00
241	  0.068096191	-6.026000E+00	  0.068096191	-1.659160E+02	  0.068096191	1.690700E+01	  0.068096191	-5.479000E+00
242	  0.068296596	-6.034000E+00	  0.068296596	-1.669220E+02	  0.068296596	1.689700E+01	  0.068296596	-5.084000E+00
243	  0.068496995	-6.035000E+00	  0.068496995	-1.679050E+02	  0.068496995	1.687100E+01	  0.068496995	-4.699000E+00
244	  0.068697393	-6.040000E+00	  0.068697393	-1.688740E+02	  0.068697393	1.685800E+01	  0.068697393	-4.320000E+00
245	  0.068897791	-6.042000E+00	  0.068897791	-1.698460E+02	  0.068897791	1.684000E+01	  0.068897791	-3.941000E+00
246	  0.069098189	-6.047000E+00	  0.069098189	-1.708150E+02	  0.069098189	1.683100E+01	  0.069098189	-3.563000E+00
247	  0.069298595	-6.047000E+00	  0.069298595	-1.717910E+02	  0.069298595	1.681100E+01	  0.069298595	-3.183000E+00
248	  0.069498993	-6.051000E+00	  0.069498993	-1.727650E+02	  0.069498993	1.680500E+01	  0.069498993	-2.804000E+00
249	  0.069699399	-6.056000E+00	  0.069699399	-1.737530E+02	  0.069699399	1.680200E+01	  0.069699399	-2.420000E+00
250	  0.069899797	-6.057000E+00	  0.069899797	-1.747130E+02	  0.069899797	1.679300E+01	  0.069899797	-2.048000E+00
251	  0.070100196	-6.061000E+00	  0.070100196	-1.756780E+02	  0.070100196	1.679100E+01	  0.070100196	-1.674000E+00
252	  0.070300601	-6.061000E+00	  0.070300601	-1.766010E+02	  0.070300601	1.678400E+01	  0.070300601	-1.316000E+00
253	  0.070501000	-6.061000E+00	  0.070501000	-1.775360E+02	  0.070501000	1.677900E+01	  0.070501000	-9.540000E-01
254	  0.070701398	-6.063000E+00	  0.070701398	-1.784710E+02	  0.070701398	1.677700E+01	  0.070701398	-5.920000E-01
255	  0.070901804	-6.061000E+00	  0.070901804	-1.794170E+02	  0.070901804	1.677200E+01	  0.070901804	-2.250000E-01
256	  0.071102202	-6.061000E+00	  0.071102202	1.796260E+02	  0.071102202	1.677100E+01	  0.071102202	1.440000E-01
257	  0.071302600	-6.065000E+00	  0.071302600	1.786830E+02	  0.071302600	1.678300E+01	  0.071302600	5.090000E-01
258	  0.071503006	-6.070000E+00	  0.071503006	1.777380E+02	  0.071503006	1.679900E+01	  0.071503006	8.750000E-01
259	  0.071703404	-6.072000E+00	  0.071703404	1.768390E+02	  0.071703404	1.681100E+01	  0.071703404	1.223000E+00
260	  0.071903802	-6.074000E+00	  0.071903802	1.759000E+02	  0.071903802	1.682300E+01	  0.071903802	1.586000E+00
261	  0.072104208	-6.078000E+00	  0.072104208	1.749650E+02	  0.072104208	1.684200E+01	  0.072104208	1.948000E+00
262	  0.072304606	-6.079000E+00	  0.072304606	1.740530E+02	  0.072304606	1.685600E+01	  0.072304606	2.302000E+00
263	  0.072505005	-6.085000E+00	  0.072505005	1.731250E+02	  0.072505005	1.688500E+01	  0.072505005	2.661000E+00
264	  0.072705410	-6.085000E+00	  0.072705410	1.722220E+02	  0.072705410	1.690200E+01	  0.072705410	3.011000E+00
265	  0.072905809	-6.087000E+00	  0.072905809	1.712970E+02	  0.072905809	1.692200E+01	  0.072905809	3.370000E+00
266	  0.073106214	-6.094000E+00	  0.073106214	1.703820E+02	  0.073106214	1.696200E+01	  0.073106214	3.725000E+00
267	  0.073306613	-6.099000E+00	  0.073306613	1.694620E+02	  0.073306613	1.699500E+01	  0.073306613	4.082000E+00
268	  0.073507011	-6.107000E+00	  0.073507011	1.685640E+02	  0.073507011	1.703800E+01	  0.073507011	4.430000E+00
269	  0.073707417	-6.113000E+00	  0.073707417	1.676420E+02	  0.073707417	1.707900E+01	  0.073707417	4.787000E+00
270	  0.073907815	-6.120000E+00	  0.073907815	1.667280E+02	  0.073907815	1.712300E+01	  0.073907815	5.142000E+00
271	  0.074108213	-6.123000E+00	  0.074108213	1.658310E+02	  0.074108213	1.716100E+01	  0.074108213	5.491000E+00
272	  0.074308619	-6.132000E+00	  0.074308619	1.649580E+02	  0.074308619	1.721200E+01	  0.074308619	5.830000E+00
273	  0.074509017	-6.138000E+00	  0.074509017	1.640190E+02	  0.074509017	1.726300E+01	  0.074509017	6.196000E+00
274	  0.074709415	-6.147000E+00	  0.074709415	1.631060E+02	  0.074709415	1.731900E+01	  0.074709415	6.551000E+00
275	  0.074909821	-6.151000E+00	  0.074909821	1.622470E+02	  0.074909821	1.736600E+01	  0.074909821	6.886000E+00
276	  0.075110219	-6.160000E+00	  0.075110219	1.613440E+02	  0.075110219	1.742900E+01	  0.075110219	7.238000E+00
277	  0.075310618	-6.170000E+00	  0.075310618	1.604410E+02	  0.075310618	1.749400E+01	  0.075310618	7.589000E+00
278	  0.075511023	-6.173000E+00	  0.075511023	1.595550E+02	  0.075511023	1.754400E+01	  0.075511023	7.937000E+00
279	  0.075711422	-6.180000E+00	  0.075711422	1.586800E+02	  0.075711422	1.760700E+01	  0.075711422	8.279000E+00
280	  0.075911827	-6.186000E+00	  0.075911827	1.578040E+02	  0.075911827	1.766800E+01	  0.075911827	8.623000E+00
281	  0.076112226	-6.194000E+00	  0.076112226	1.569340E+02	  0.076112226	1.773600E+01	  0.076112226	8.963000E+00
282	  0.076312624	-6.206000E+00	  0.076312624	1.560380E+02	  0.076312624	1.781800E+01	  0.076312624	9.314000E+00
283	  0.076513030	-6.214000E+00	  0.076513030	1.551770E+02	  0.076513030	1.788900E+01	  0.076513030	9.652000E+00
284	  0.076713428	-6.223000E+00	  0.076713428	1.542830E+02	  0.076713428	1.796800E+01	  0.076713428	1.000300E+01
285	  0.076913826	-6.232000E+00	  0.076913826	1.534180E+02	  0.076913826	1.804600E+01	  0.076913826	1.034300E+01
286	  0.077114232	-6.244000E+00	  0.077114232	1.525620E+02	  0.077114232	1.813400E+01	  0.077114232	1.067900E+01
287	  0.077314630	-6.250000E+00	  0.077314630	1.517180E+02	  0.077314630	1.820900E+01	  0.077314630	1.101400E+01
288	  0.077515028	-6.261000E+00	  0.077515028	1.508760E+02	  0.077515028	1.829800E+01	  0.077515028	1.134500E+01
289	  0.077715434	-6.273000E+00	  0.077715434	1.500210E+02	  0.077715434	1.839400E+01	  0.077715434	1.168200E+01
290	  0.077915832	-6.281000E+00	  0.077915832	1.491680E+02	  0.077915832	1.847800E+01	  0.077915832	1.202000E+01
291	  0.078116231	-6.291000E+00	  0.078116231	1.483170E+02	  0.078116231	1.857200E+01	  0.078116231	1.235800E+01
292	  0.078316636	-6.304000E+00	  0.078316636	1.474740E+02	  0.078316636	1.867700E+01	  0.078316636	1.269000E+01
293	  0.078517035	-6.315000E+00	  0.078517035	1.466290E+02	  0.078517035	1.877700E+01	  0.078517035	1.302600E+01
294	  0.078717433	-6.326000E+00	  0.078717433	1.458030E+02	  0.078717433	1.887900E+01	  0.078717433	1.335300E+01
295	  0.078917839	-6.338000E+00	  0.078917839	1.449730E+02	  0.078917839	1.898400E+01	  0.078917839	1.368300E+01
296	  0.079118237	-6.353000E+00	  0.079118237	1.441590E+02	  0.079118237	1.909900E+01	  0.079118237	1.400500E+01
297	  0.079318643	-6.366000E+00	  0.079318643	1.433140E+02	  0.079318643	1.921500E+01	  0.079318643	1.434100E+01
298	  0.079519041	-6.383000E+00	  0.079519041	1.425210E+02	  0.079519041	1.933600E+01	  0.079519041	1.465400E+01
299	  0.079719439	-6.396000E+00	  0.079719439	1.417070E+02	  0.079719439	1.945500E+01	  0.079719439	1.497800E+01
300	  0.079919845	-6.410000E+00	  0.079919845	1.408880E+02	  0.079919845	1.957700E+01	  0.079919845	1.530500E+01
301	  0.080120243	-6.425000E+00	  0.080120243	1.400590E+02	  0.080120243	1.970500E+01	  0.080120243	1.563500E+01
302	  0.080320641	-6.439000E+00	  0.080320641	1.392590E+02	  0.080320641	1.983000E+01	  0.080320641	1.595400E+01
303	  0.080521047	-6.454000E+00	  0.080521047	1.384270E+02	  0.080521047	1.996400E+01	  0.080521047	1.628600E+01
304	  0.080721445	-6.472000E+00	  0.080721445	1.376370E+02	  0.080721445	2.010400E+01	  0.080721445	1.659900E+01
305	  0.080921844	-6.487000E+00	  0.080921844	1.368510E+02	  0.080921844	2.023800E+01	  0.080921844	1.691300E+01
306	  0.081122249	-6.505000E+00	  0.081122249	1.360460E+02	  0.081122249	2.038400E+01	  0.081122249	1.723300E+01
307	  0.081322648	-6.526000E+00	  0.081322648	1.352340E+02	  0.081322648	2.054300E+01	  0.081322648	1.755300E+01
308	  0.081523046	-6.539000E+00	  0.081523046	1.344390E+02	  0.081523046	2.067900E+01	  0.081523046	1.787400E+01
309	  0.081723452	-6.555000E+00	  0.081723452	1.336550E+02	  0.081723452	2.082600E+01	  0.081723452	1.818800E+01
310	  0.081923850	-6.567000E+00	  0.081923850	1.328550E+02	  0.081923850	2.096600E+01	  0.081923850	1.851300E+01
311	  0.082124248	-6.585000E+00	  0.082124248	1.320800E+02	  0.082124248	2.112300E+01	  0.082124248	1.882100E+01
312	  0.082324654	-6.601000E+00	  0.082324654	1.312760E+02	  0.082324654	2.127900E+01	  0.082324654	1.914500E+01
313	  0.082525052	-6.617000E+00	  0.082525052	1.305110E+02	  0.082525052	2.143400E+01	  0.082525052	1.945300E+01
314	  0.082725458	-6.636000E+00	  0.082725458	1.297500E+02	  0.082725458	2.160100E+01	  0.082725458	1.975500E+01
315	  0.082925856	-6.654000E+00	  0.082925856	1.289880E+02	  0.082925856	2.176500E+01	  0.082925856	2.006000E+01
316	  0.083126254	-6.676000E+00	  0.083126254	1.282180E+02	  0.083126254	2.194600E+01	  0.083126254	2.036500E+01
317	  0.083326660	-6.695000E+00	  0.083326660	1.274480E+02	  0.083326660	2.212100E+01	  0.083326660	2.067200E+01
318	  0.083527058	-6.709000E+00	  0.083527058	1.266720E+02	  0.083527058	2.228400E+01	  0.083527058	2.098800E+01
319	  0.083727457	-6.726000E+00	  0.083727457	1.259320E+02	  0.083727457	2.245400E+01	  0.083727457	2.128600E+01
320	  0.083927862	-6.747000E+00	  0.083927862	1.251950E+02	  0.083927862	2.263900E+01	  0.083927862	2.157700E+01
321	  0.084128261	-6.767000E+00	  0.084128261	1.244190E+02	  0.084128261	2.282700E+01	  0.084128261	2.188800E+01
322	  0.084328659	-6.791000E+00	  0.084328659	1.236870E+02	  0.084328659	2.302500E+01	  0.084328659	2.217400E+01
323	  0.084529065	-6.809000E+00	  0.084529065	1.229410E+02	  0.084529065	2.321000E+01	  0.084529065	2.247300E+01
324	  0.084729463	-6.833000E+00	  0.084729463	1.222060E+02	  0.084729463	2.341500E+01	  0.084729463	2.276000E+01
325	  0.084929854	-6.853000E+00	  0.084929854	1.214590E+02	  0.084929854	2.361100E+01	  0.084929854	2.305800E+01
326	  0.085130259	-6.871000E+00	  0.085130259	1.207040E+02	  0.085130259	2.380900E+01	  0.085130259	2.336100E+01
327	  0.085330658	-6.893000E+00	  0.085330658	1.199760E+02	  0.085330658	2.401300E+01	  0.085330658	2.364900E+01
328	  0.085531056	-6.911000E+00	  0.085531056	1.192680E+02	  0.085531056	2.420700E+01	  0.085531056	2.393100E+01
329	  0.085731462	-6.936000E+00	  0.085731462	1.185130E+02	  0.085731462	2.443200E+01	  0.085731462	2.422600E+01
330	  0.085931860	-6.958000E+00	  0.085931860	1.178060E+02	  0.085931860	2.464400E+01	  0.085931860	2.450300E+01
331	  0.086132258	-6.980000E+00	  0.086132258	1.171320E+02	  0.086132258	2.484900E+01	  0.086132258	2.476600E+01
332	  0.086332664	-7.005000E+00	  0.086332664	1.163960E+02	  0.086332664	2.508100E+01	  0.086332664	2.505100E+01
333	  0.086533062	-7.025000E+00	  0.086533062	1.157030E+02	  0.086533062	2.529400E+01	  0.086533062	2.532300E+01
334	  0.086733460	-7.054000E+00	  0.086733460	1.149800E+02	  0.086733460	2.554100E+01	  0.086733460	2.559500E+01
335	  0.086933866	-7.075000E+00	  0.086933866	1.142830E+02	  0.086933866	2.576100E+01	  0.086933866	2.586900E+01
336	  0.087134264	-7.099000E+00	  0.087134264	1.135680E+02	  0.087134264	2.599800E+01	  0.087134264	2.614400E+01
337	  0.087334670	-7.122000E+00	  0.087334670	1.128850E+02	  0.087334670	2.622800E+01	  0.087334670	2.640700E+01
338	  0.087535068	-7.147000E+00	  0.087535068	1.121710E+02	  0.087535068	2.647600E+01	  0.087535068	2.667900E+01
339	  0.087735467	-7.172000E+00	  0.087735467	1.114590E+02	  0.087735467	2.672400E+01	  0.087735467	2.695100E+01
340	  0.087935872	-7.198000E+00	  0.087935872	1.108230E+02	  0.087935872	2.695900E+01	  0.087935872	2.718700E+01
341	  0.088136271	-7.221000E+00	  0.088136271	1.101290E+02	  0.088136271	2.720600E+01	  0.088136271	2.745200E+01
342	  0.088336669	-7.248000E+00	  0.088336669	1.094190E+02	  0.088336669	2.747200E+01	  0.088336669	2.771500E+01
343	  0.088537075	-7.276000E+00	  0.088537075	1.087450E+02	  0.088537075	2.773400E+01	  0.088537075	2.796100E+01
344	  0.088737473	-7.299000E+00	  0.088737473	1.080640E+02	  0.088737473	2.798700E+01	  0.088737473	2.821900E+01
345	  0.088937871	-7.323000E+00	  0.088937871	1.073930E+02	  0.088937871	2.824300E+01	  0.088937871	2.846900E+01
346	  0.089138277	-7.349000E+00	  0.089138277	1.066920E+02	  0.089138277	2.851700E+01	  0.089138277	2.872700E+01
347	  0.089338675	-7.375000E+00	  0.089338675	1.060460E+02	  0.089338675	2.877800E+01	  0.089338675	2.896200E+01
348	  0.089539073	-7.401000E+00	  0.089539073	1.053910E+02	  0.089539073	2.904400E+01	  0.089539073	2.919900E+01
349	  0.089739479	-7.430000E+00	  0.089739479	1.047390E+02	  0.089739479	2.932200E+01	  0.089739479	2.942700E+01
350	  0.089939877	-7.453000E+00	  0.089939877	1.040970E+02	  0.089939877	2.958600E+01	  0.089939877	2.966000E+01
351	  0.090140276	-7.481000E+00	  0.090140276	1.034350E+02	  0.090140276	2.987000E+01	  0.090140276	2.989300E+01
352	  0.090340681	-7.509000E+00	  0.090340681	1.028210E+02	  0.090340681	3.014400E+01	  0.090340681	3.010200E+01
353	  0.090541080	-7.534000E+00	  0.090541080	1.021590E+02	  0.090541080	3.042600E+01	  0.090541080	3.034000E+01
354	  0.090741485	-7.565000E+00	  0.090741485	1.015410E+02	  0.090741485	3.071600E+01	  0.090741485	3.054200E+01
355	  0.090941884	-7.592000E+00	  0.090941884	1.009020E+02	  0.090941884	3.100300E+01	  0.090941884	3.076100E+01
356	  0.091142282	-7.621000E+00	  0.091142282	1.003060E+02	  0.091142282	3.128800E+01	  0.091142282	3.095300E+01
357	  0.091342688	-7.655000E+00	  0.091342688	9.967900E+01	  0.091342688	3.159900E+01	  0.091342688	3.114700E+01
358	  0.091543086	-7.686000E+00	  0.091543086	9.904000E+01	  0.091543086	3.190700E+01	  0.091543086	3.135300E+01
359	  0.091743484	-7.713000E+00	  0.091743484	9.844400E+01	  0.091743484	3.219300E+01	  0.091743484	3.154600E+01
360	  0.091943890	-7.744000E+00	  0.091943890	9.780500E+01	  0.091943890	3.251100E+01	  0.091943890	3.174600E+01
361	  0.092144288	-7.775000E+00	  0.092144288	9.719000E+01	  0.092144288	3.282000E+01	  0.092144288	3.193500E+01
362	  0.092344686	-7.804000E+00	  0.092344686	9.657700E+01	  0.092344686	3.312800E+01	  0.092344686	3.212600E+01
363	  0.092545092	-7.835000E+00	  0.092545092	9.597600E+01	  0.092545092	3.344100E+01	  0.092545092	3.230300E+01
364	  0.092745490	-7.870000E+00	  0.092745490	9.540900E+01	  0.092745490	3.375300E+01	  0.092745490	3.245500E+01
365	  0.092945889	-7.904000E+00	  0.092945889	9.483800E+01	  0.092945889	3.406700E+01	  0.092945889	3.260800E+01
366	  0.093146294	-7.936000E+00	  0.093146294	9.425600E+01	  0.093146294	3.438100E+01	  0.093146294	3.277100E+01
367	  0.093346693	-7.968000E+00	  0.093346693	9.370300E+01	  0.093346693	3.468800E+01	  0.093346693	3.291700E+01
368	  0.093547091	-8.001000E+00	  0.093547091	9.312800E+01	  0.093547091	3.500900E+01	  0.093547091	3.306900E+01
369	  0.093747497	-8.034000E+00	  0.093747497	9.257200E+01	  0.093747497	3.532500E+01	  0.093747497	3.320900E+01
370	  0.093947895	-8.068000E+00	  0.093947895	9.202000E+01	  0.093947895	3.564600E+01	  0.093947895	3.334200E+01
371	  0.094148301	-8.102000E+00	  0.094148301	9.145600E+01	  0.094148301	3.597100E+01	  0.094148301	3.348000E+01
372	  0.094348699	-8.131000E+00	  0.094348699	9.089900E+01	  0.094348699	3.628600E+01	  0.094348699	3.362200E+01
373	  0.094549097	-8.164000E+00	  0.094549097	9.038700E+01	  0.094549097	3.659300E+01	  0.094549097	3.373600E+01
374	  0.094749503	-8.199000E+00	  0.094749503	8.983900E+01	  0.094749503	3.692300E+01	  0.094749503	3.385400E+01
375	  0.094949901	-8.231000E+00	  0.094949901	8.934400E+01	  0.094949901	3.722400E+01	  0.094949901	3.395800E+01
376	  0.095150299	-8.262000E+00	  0.095150299	8.882200E+01	  0.095150299	3.753700E+01	  0.095150299	3.407300E+01
377	  0.095350705	-8.299000E+00	  0.095350705	8.831100E+01	  0.095350705	3.786000E+01	  0.095350705	3.416500E+01
378	  0.095551103	-8.330000E+00	  0.095551103	8.779300E+01	  0.095551103	3.817600E+01	  0.095551103	3.427200E+01
379	  0.095751502	-8.364000E+00	  0.095751502	8.729400E+01	  0.095751502	3.849000E+01	  0.095751502	3.436300E+01
380	  0.095951907	-8.394000E+00	  0.095951907	8.680900E+01	  0.095951907	3.879200E+01	  0.095951907	3.445600E+01
381	  0.096152306	-8.423000E+00	  0.096152306	8.631700E+01	  0.096152306	3.909400E+01	  0.096152306	3.455400E+01
382	  0.096352704	-8.451000E+00	  0.096352704	8.584200E+01	  0.096352704	3.939100E+01	  0.096352704	3.464300E+01
383	  0.096553110	-8.489000E+00	  0.096553110	8.537200E+01	  0.096553110	3.970800E+01	  0.096553110	3.470000E+01
384	  0.096753508	-8.513000E+00	  0.096753508	8.493300E+01	  0.096753508	3.997800E+01	  0.096753508	3.478700E+01
385	  0.096953906	-8.544000E+00	  0.096953906	8.449700E+01	  0.096953906	4.026700E+01	  0.096953906	3.484500E+01
386	  0.097154312	-8.575000E+00	  0.097154312	8.401400E+01	  0.097154312	4.057900E+01	  0.097154312	3.492000E+01
387	  0.097354710	-8.607000E+00	  0.097354710	8.357300E+01	  0.097354710	4.087400E+01	  0.097354710	3.497500E+01
388	  0.097555116	-8.629000E+00	  0.097555116	8.315300E+01	  0.097555116	4.113600E+01	  0.097555116	3.505100E+01
389	  0.097755514	-8.659000E+00	  0.097755514	8.272900E+01	  0.097755514	4.142100E+01	  0.097755514	3.510000E+01
390	  0.097955912	-8.687000E+00	  0.097955912	8.232700E+01	  0.097955912	4.168900E+01	  0.097955912	3.515000E+01
391	  0.098156318	-8.715000E+00	  0.098156318	8.192800E+01	  0.098156318	4.195800E+01	  0.098156318	3.519300E+01
392	  0.098356716	-8.733000E+00	  0.098356716	8.147500E+01	  0.098356716	4.223500E+01	  0.098356716	3.528500E+01
393	  0.098557115	-8.763000E+00	  0.098557115	8.109800E+01	  0.098557115	4.249900E+01	  0.098557115	3.531000E+01
394	  0.098757520	-8.784000E+00	  0.098757520	8.070600E+01	  0.098757520	4.275000E+01	  0.098757520	3.537200E+01
395	  0.098957919	-8.811000E+00	  0.098957919	8.026600E+01	  0.098957919	4.304400E+01	  0.098957919	3.542300E+01
396	  0.099158317	-8.830000E+00	  0.099158317	7.988100E+01	  0.099158317	4.329000E+01	  0.099158317	3.548500E+01
397	  0.099358723	-8.848000E+00	  0.099358723	7.949700E+01	  0.099358723	4.353600E+01	  0.099358723	3.554600E+01
398	  0.099559121	-8.871000E+00	  0.099559121	7.912700E+01	  0.099559121	4.378700E+01	  0.099559121	3.558100E+01
399	  0.099759519	-8.892000E+00	  0.099759519	7.874700E+01	  0.099759519	4.403800E+01	  0.099759519	3.562900E+01
400	  0.099959925	-8.900000E+00	  0.099959925	7.834900E+01	  0.099959925	4.427400E+01	  0.099959925	3.572600E+01
401	  0.100160323	-8.919000E+00	  0.100160323	7.805400E+01	  0.100160323	4.447700E+01	  0.100160323	3.575100E+01
402	  0.100360721	-8.936000E+00	  0.100360721	7.767200E+01	  0.100360721	4.472400E+01	  0.100360721	3.580900E+01
403	  0.100561127	-8.953000E+00	  0.100561127	7.725800E+01	  0.100561127	4.499100E+01	  0.100561127	3.587300E+01
404	  0.100761525	-8.961000E+00	  0.100761525	7.692100E+01	  0.100761525	4.519700E+01	  0.100761525	3.594800E+01
405	  0.100961931	-8.975000E+00	  0.100961931	7.652000E+01	  0.100961931	4.545500E+01	  0.100961931	3.601400E+01
406	  0.101162329	-8.988000E+00	  0.101162329	7.610500E+01	  0.101162329	4.571800E+01	  0.101162329	3.609100E+01
407	  0.101362728	-8.992000E+00	  0.101362728	7.576000E+01	  0.101362728	4.592600E+01	  0.101362728	3.617900E+01
408	  0.101563133	-9.006000E+00	  0.101563133	7.547800E+01	  0.101563133	4.611700E+01	  0.101563133	3.620800E+01
409	  0.101763532	-9.011000E+00	  0.101763532	7.503600E+01	  0.101763532	4.638500E+01	  0.101763532	3.631800E+01
410	  0.101963930	-9.016000E+00	  0.101963930	7.473500E+01	  0.101963930	4.657200E+01	  0.101963930	3.638700E+01
411	  0.102164328	-9.022000E+00	  0.102164328	7.438000E+01	  0.102164328	4.679400E+01	  0.102164328	3.646500E+01
412	  0.102364726	-9.035000E+00	  0.102364726	7.394000E+01	  0.102364726	4.708300E+01	  0.102364726	3.653700E+01
413	  0.102565125	-9.037000E+00	  0.102565125	7.357800E+01	  0.102565125	4.730300E+01	  0.102565125	3.663200E+01
414	  0.102765530	-9.034000E+00	  0.102765530	7.322000E+01	  0.102765530	4.751600E+01	  0.102765530	3.674300E+01
415	  0.102965929	-9.030000E+00	  0.102965929	7.282000E+01	  0.102965929	4.775300E+01	  0.102965929	3.687000E+01
416	  0.103166327	-9.034000E+00	  0.103166327	7.243500E+01	  0.103166327	4.799800E+01	  0.103166327	3.696000E+01
417	  0.103366733	-9.027000E+00	  0.103366733	7.209000E+01	  0.103366733	4.820000E+01	  0.103366733	3.708100E+01
418	  0.103567131	-9.030000E+00	  0.103567131	7.166500E+01	  0.103567131	4.847100E+01	  0.103567131	3.718600E+01
419	  0.103767529	-9.023000E+00	  0.103767529	7.131900E+01	  0.103767529	4.867800E+01	  0.103767529	3.730600E+01
420	  0.103967935	-9.031000E+00	  0.103967935	7.086800E+01	  0.103967935	4.897900E+01	  0.103967935	3.739200E+01
421	  0.104168333	-9.027000E+00	  0.104168333	7.047300E+01	  0.104168333	4.922500E+01	  0.104168333	3.751300E+01
422	  0.104368731	-9.028000E+00	  0.104368731	7.008800E+01	  0.104368731	4.947600E+01	  0.104368731	3.760700E+01
423	  0.104569137	-9.016000E+00	  0.104569137	6.964600E+01	  0.104569137	4.974400E+01	  0.104569137	3.777100E+01
424	  0.104769535	-9.008000E+00	  0.104769535	6.927900E+01	  0.104769535	4.997200E+01	  0.104769535	3.789900E+01
425	  0.104969934	-9.010000E+00	  0.104969934	6.884000E+01	  0.104969934	5.026700E+01	  0.104969934	3.799900E+01
426	  0.105170339	-9.002000E+00	  0.105170339	6.839500E+01	  0.105170339	5.055400E+01	  0.105170339	3.814100E+01
427	  0.105370738	-8.991000E+00	  0.105370738	6.803100E+01	  0.105370738	5.078100E+01	  0.105370738	3.827900E+01
428	  0.105571143	-8.984000E+00	  0.105571143	6.752800E+01	  0.105571143	5.111400E+01	  0.105571143	3.843200E+01
429	  0.105771542	-8.980000E+00	  0.105771542	6.709700E+01	  0.105771542	5.140400E+01	  0.105771542	3.855100E+01
430	  0.105971940	-8.972000E+00	  0.105971940	6.664600E+01	  0.105971940	5.170500E+01	  0.105971940	3.869300E+01
431	  0.106172346	-8.968000E+00	  0.106172346	6.617100E+01	  0.106172346	5.203200E+01	  0.106172346	3.882300E+01
432	  0.106372744	-8.951000E+00	  0.106372744	6.579700E+01	  0.106372744	5.227200E+01	  0.106372744	3.898600E+01
433	  0.106573142	-8.951000E+00	  0.106573142	6.522300E+01	  0.106573142	5.268200E+01	  0.106573142	3.911300E+01
434	  0.106773548	-8.942000E+00	  0.106773548	6.483500E+01	  0.106773548	5.295000E+01	  0.106773548	3.924200E+01
435	  0.106973946	-8.928000E+00	  0.106973946	6.434400E+01	  0.106973946	5.328900E+01	  0.106973946	3.941000E+01
436	  0.107174344	-8.927000E+00	  0.107174344	6.388400E+01	  0.107174344	5.362500E+01	  0.107174344	3.951500E+01
437	  0.107374750	-8.910000E+00	  0.107374750	6.336100E+01	  0.107374750	5.399200E+01	  0.107374750	3.970500E+01
438	  0.107575148	-8.897000E+00	  0.107575148	6.283500E+01	  0.107575148	5.437000E+01	  0.107575148	3.987400E+01
439	  0.107775547	-8.888000E+00	  0.107775547	6.231100E+01	  0.107775547	5.475700E+01	  0.107775547	4.002100E+01
440	  0.107975952	-8.872000E+00	  0.107975952	6.182300E+01	  0.107975952	5.511300E+01	  0.107975952	4.019300E+01
441	  0.108176351	-8.868000E+00	  0.108176351	6.133600E+01	  0.108176351	5.548600E+01	  0.108176351	4.030800E+01
442	  0.108376749	-8.854000E+00	  0.108376749	6.083600E+01	  0.108376749	5.586100E+01	  0.108376749	4.047100E+01
443	  0.108577155	-8.845000E+00	  0.108577155	6.026700E+01	  0.108577155	5.630300E+01	  0.108577155	4.061400E+01
444	  0.108777553	-8.832000E+00	  0.108777553	5.971500E+01	  0.108777553	5.673200E+01	  0.108777553	4.077400E+01
445	  0.108977959	-8.823000E+00	  0.108977959	5.917600E+01	  0.108977959	5.716000E+01	  0.108977959	4.091400E+01
446	  0.109178357	-8.811000E+00	  0.109178357	5.860600E+01	  0.109178357	5.761600E+01	  0.109178357	4.106700E+01
447	  0.109378755	-8.792000E+00	  0.109378755	5.803200E+01	  0.109378755	5.807500E+01	  0.109378755	4.125200E+01
448	  0.109579161	-8.785000E+00	  0.109579161	5.745900E+01	  0.109579161	5.854900E+01	  0.109579161	4.137400E+01
449	  0.109779559	-8.769000E+00	  0.109779559	5.689900E+01	  0.109779559	5.901200E+01	  0.109779559	4.153700E+01
450	  0.109979957	-8.763000E+00	  0.109979957	5.634400E+01	  0.109979957	5.948400E+01	  0.109979957	4.164100E+01
451	  0.110180363	-8.748000E+00	  0.110180363	5.572600E+01	  0.110180363	6.001000E+01	  0.110180363	4.180000E+01
452	  0.110380761	-8.730000E+00	  0.110380761	5.508700E+01	  0.110380761	6.056000E+01	  0.110380761	4.197600E+01
453	  0.110581160	-8.720000E+00	  0.110581160	5.444800E+01	  0.110581160	6.112500E+01	  0.110581160	4.209500E+01
454	  0.110781565	-8.710000E+00	  0.110781565	5.389500E+01	  0.110781565	6.161800E+01	  0.110781565	4.220500E+01
455	  0.110981964	-8.702000E+00	  0.110981964	5.325400E+01	  0.110981964	6.219900E+01	  0.110981964	4.230500E+01
456	  0.111182362	-8.688000E+00	  0.111182362	5.264200E+01	  0.111182362	6.275800E+01	  0.111182362	4.243300E+01
457	  0.111382768	-8.676000E+00	  0.111382768	5.197100E+01	  0.111382768	6.338200E+01	  0.111382768	4.254200E+01
458	  0.111583166	-8.662000E+00	  0.111583166	5.134600E+01	  0.111583166	6.396900E+01	  0.111583166	4.265700E+01
459	  0.111783572	-8.658000E+00	  0.111783572	5.068100E+01	  0.111783572	6.460500E+01	  0.111783572	4.270500E+01
460	  0.111983970	-8.653000E+00	  0.111983970	4.998800E+01	  0.111983970	6.527600E+01	  0.111983970	4.275300E+01
461	  0.112184368	-8.642000E+00	  0.112184368	4.923400E+01	  0.112184368	6.601500E+01	  0.112184368	4.282500E+01
462	  0.112384774	-8.639000E+00	  0.112384774	4.859400E+01	  0.112384774	6.665000E+01	  0.112384774	4.283600E+01
463	  0.112585172	-8.631000E+00	  0.112585172	4.788900E+01	  0.112585172	6.735900E+01	  0.112585172	4.287400E+01
464	  0.112785570	-8.630000E+00	  0.112785570	4.715600E+01	  0.112785570	6.810200E+01	  0.112785570	4.284800E+01
465	  0.112985976	-8.626000E+00	  0.112985976	4.641900E+01	  0.112985976	6.885800E+01	  0.112985976	4.282600E+01
466	  0.113186374	-8.629000E+00	  0.113186374	4.570500E+01	  0.113186374	6.959400E+01	  0.113186374	4.275000E+01
467	  0.113386773	-8.625000E+00	  0.113386773	4.496900E+01	  0.113386773	7.036500E+01	  0.113386773	4.270400E+01
468	  0.113587178	-8.620000E+00	  0.113587178	4.420700E+01	  0.113587178	7.117300E+01	  0.113587178	4.264400E+01
469	  0.113787577	-8.626000E+00	  0.113787577	4.340200E+01	  0.113787577	7.202300E+01	  0.113787577	4.248900E+01
470	  0.113987975	-8.634000E+00	  0.113987975	4.265400E+01	  0.113987975	7.281600E+01	  0.113987975	4.231000E+01
471	  0.114188381	-8.640000E+00	  0.114188381	4.186900E+01	  0.114188381	7.365700E+01	  0.114188381	4.212200E+01
472	  0.114388779	-8.643000E+00	  0.114388779	4.104100E+01	  0.114388779	7.455300E+01	  0.114388779	4.192500E+01
473	  0.114589177	-8.652000E+00	  0.114589177	4.020900E+01	  0.114589177	7.544700E+01	  0.114589177	4.165600E+01
474	  0.114789583	-8.660000E+00	  0.114789583	3.940900E+01	  0.114789583	7.631400E+01	  0.114789583	4.138700E+01
475	  0.114989981	-8.672000E+00	  0.114989981	3.855800E+01	  0.114989981	7.723000E+01	  0.114989981	4.104500E+01
476	  0.115190387	-8.684000E+00	  0.115190387	3.771400E+01	  0.115190387	7.814000E+01	  0.115190387	4.068400E+01
477	  0.115390785	-8.699000E+00	  0.115390785	3.681500E+01	  0.115390785	7.910300E+01	  0.115390785	4.025500E+01
478	  0.115591183	-8.711000E+00	  0.115591183	3.592900E+01	  0.115591183	8.005800E+01	  0.115591183	3.981900E+01
479	  0.115791589	-8.731000E+00	  0.115791589	3.506300E+01	  0.115791589	8.096600E+01	  0.115791589	3.931100E+01
480	  0.115991987	-8.754000E+00	  0.115991987	3.415700E+01	  0.115991987	8.190000E+01	  0.115991987	3.872600E+01
481	  0.116192386	-8.772000E+00	  0.116192386	3.320600E+01	  0.116192386	8.289400E+01	  0.116192386	3.812800E+01
482	  0.116392791	-8.793000E+00	  0.116392791	3.231300E+01	  0.116392791	8.380400E+01	  0.116392791	3.750700E+01
483	  0.116593190	-8.819000E+00	  0.116593190	3.137000E+01	  0.116593190	8.473900E+01	  0.116593190	3.679000E+01
484	  0.116793588	-8.843000E+00	  0.116793588	3.040700E+01	  0.116793588	8.568800E+01	  0.116793588	3.604200E+01
485	  0.116993994	-8.868000E+00	  0.116993994	2.946500E+01	  0.116993994	8.658900E+01	  0.116993994	3.526000E+01
486	  0.117194392	-8.910000E+00	  0.117194392	2.846000E+01	  0.117194392	8.746500E+01	  0.117194392	3.429100E+01
487	  0.117394790	-8.937000E+00	  0.117394790	2.751700E+01	  0.117394790	8.832000E+01	  0.117394790	3.343800E+01
488	  0.117595196	-8.976000E+00	  0.117595196	2.650100E+01	  0.117595196	8.916000E+01	  0.117595196	3.240900E+01
489	  0.117795594	-9.008000E+00	  0.117795594	2.550700E+01	  0.117795594	8.998600E+01	  0.117795594	3.141600E+01
490	  0.117995992	-9.055000E+00	  0.117995992	2.448700E+01	  0.117995992	9.072700E+01	  0.117995992	3.028100E+01
491	  0.118196398	-9.100000E+00	  0.118196398	2.344800E+01	  0.118196398	9.145200E+01	  0.118196398	2.910700E+01
492	  0.118396796	-9.148000E+00	  0.118396796	2.236000E+01	  0.118396796	9.216400E+01	  0.118396796	2.784700E+01
