! Anritsu VNA Master:             	Model: MS2036C/10/77
! SN:             	1601066
! /bd0/18may10/255.ew.m1.txt
! Existing Calibration Information:
! TYPE:             	Current Settings	Active Cal Settings
! TIME:             	05/10/2018 01:39:46 PM	05/10/2018 01:36:00 PM
! INTERNAL TEMP:    	55.0 C	54.5 C
! # POINTS:         	492	492
! START FREQ:       	20.000 MHz	20.000 MHz
! STOP FREQ:        	118.396 793 MHz	118.396 793 MHz
! SOURCE POWER:     	High	High
! IFBW:             	50 Hz	50 Hz
! AVG FACTOR:       	  1 	  1 
! REF PLANE 1:      	0 mm	0 mm
! REF PLANE 2:      	0 mm	0 mm
! CAL TYPE:         	Full S22	Full S22
! CAL METHOD:       	SOLT	SOLT
! CAL LINE TYPE:    	Coax	Coax
! DUT PORT 1:       	K-Conn(M)	K-Conn(M)
! DUT PORT 2:       	K-Conn(M)	K-Conn(M)
! CAL STATUS:       	OK: Accuracy High	--
! PROP-V:       	0.700
! CABLE LOSS:       	0.000 dB/m
! REF IMPEDANCE:       	50.0
! Trace Specific Parameters:	TR1	TR2	TR3	TR4
! TRACE.#.Y (GRAPH TYPE)	LOG MAG	PHASE	REAL IMPEDANCE	IMAGINARY IMPEDANCE
! TRACE.#.X 	FREQ.GHZ	FREQ.GHZ	FREQ.GHZ	FREQ.GHZ
! S-PARAMETER	S22	S22	S22	S22
! SMOOTH/APERTURE %	0	0	0	0
! WINDOW	NSL	NSL	NSL	NSL
! GATING	OFF	OFF	OFF	OFF
! FGTD	OFF	OFF	OFF	OFF
Marker Information per Trace:	TR1	TR2	TR3	TR4
!MK1	--	"MK1 TR2:  20.000 MHz,PH:-125.61°"	--	--
!MK2	--	--	"MK2 TR3:  70.100 200 MHz,Z:(16.713 ohm, -1.451 ohm)"	--
!MK3	--	--	--	--
!MK4	--	--	--	--
!MK5	--	--	--	--
!MK6	--	--	--	--
!MK7	--	--	--	--
!MK8	--	--	--	--
PNT	TR1.FREQ.GHZ	TR1.LOG MAG.dB	TR2.FREQ.GHZ	TR2.PHASE.deg	TR3.FREQ.GHZ	TR3.REAL IMPEDANCE.ohm	TR4.FREQ.GHZ	TR4.IMAGINARY IMPEDANCE.ohm
1	  0.020000000	-9.190000E-01	  0.020000000	-1.256100E+02	  0.020000000	3.338000E+00	  0.020000000	-2.560000E+01
2	  0.020200402	-9.260000E-01	  0.020200402	-1.270490E+02	  0.020200402	3.323000E+00	  0.020200402	-2.481400E+01
3	  0.020400802	-9.370000E-01	  0.020400802	-1.284870E+02	  0.020400802	3.321000E+00	  0.020400802	-2.403700E+01
4	  0.020601204	-9.450000E-01	  0.020601204	-1.299550E+02	  0.020601204	3.307000E+00	  0.020601204	-2.325500E+01
5	  0.020801604	-9.560000E-01	  0.020801604	-1.314430E+02	  0.020801604	3.307000E+00	  0.020801604	-2.247000E+01
6	  0.021002004	-9.640000E-01	  0.021002004	-1.329430E+02	  0.021002004	3.297000E+00	  0.021002004	-2.169000E+01
7	  0.021202406	-9.740000E-01	  0.021202406	-1.344490E+02	  0.021202406	3.293000E+00	  0.021202406	-2.091500E+01
8	  0.021402806	-9.840000E-01	  0.021402806	-1.359440E+02	  0.021402806	3.293000E+00	  0.021402806	-2.015300E+01
9	  0.021603208	-9.910000E-01	  0.021603208	-1.374370E+02	  0.021603208	3.282000E+00	  0.021603208	-1.940200E+01
10	  0.021803608	-1.002000E+00	  0.021803608	-1.389370E+02	  0.021803608	3.285000E+00	  0.021803608	-1.865400E+01
11	  0.022004008	-1.013000E+00	  0.022004008	-1.404340E+02	  0.022004008	3.289000E+00	  0.022004008	-1.791500E+01
12	  0.022204408	-1.026000E+00	  0.022204408	-1.419450E+02	  0.022204408	3.301000E+00	  0.022204408	-1.717500E+01
13	  0.022404809	-1.037000E+00	  0.022404809	-1.434910E+02	  0.022404809	3.305000E+00	  0.022404809	-1.642600E+01
14	  0.022605211	-1.043000E+00	  0.022605211	-1.450490E+02	  0.022605211	3.297000E+00	  0.022605211	-1.567800E+01
15	  0.022805611	-1.051000E+00	  0.022805611	-1.466190E+02	  0.022805611	3.294000E+00	  0.022805611	-1.493100E+01
16	  0.023006011	-1.061000E+00	  0.023006011	-1.481610E+02	  0.023006011	3.299000E+00	  0.023006011	-1.420300E+01
17	  0.023206413	-1.071000E+00	  0.023206413	-1.497110E+02	  0.023206413	3.305000E+00	  0.023206413	-1.347700E+01
18	  0.023406813	-1.082000E+00	  0.023406813	-1.512550E+02	  0.023406813	3.314000E+00	  0.023406813	-1.275900E+01
19	  0.023607215	-1.094000E+00	  0.023607215	-1.528260E+02	  0.023607215	3.328000E+00	  0.023607215	-1.203300E+01
20	  0.023807615	-1.107000E+00	  0.023807615	-1.544030E+02	  0.023807615	3.346000E+00	  0.023807615	-1.130900E+01
21	  0.024008015	-1.118000E+00	  0.024008015	-1.560160E+02	  0.024008015	3.360000E+00	  0.024008015	-1.057400E+01
22	  0.024208417	-1.131000E+00	  0.024208417	-1.576350E+02	  0.024208417	3.377000E+00	  0.024208417	-9.840000E+00
23	  0.024408817	-1.141000E+00	  0.024408817	-1.592630E+02	  0.024408817	3.388000E+00	  0.024408817	-9.107000E+00
24	  0.024609219	-1.153000E+00	  0.024609219	-1.608770E+02	  0.024609219	3.407000E+00	  0.024609219	-8.383000E+00
25	  0.024809619	-1.167000E+00	  0.024809619	-1.625200E+02	  0.024809619	3.433000E+00	  0.024809619	-7.651000E+00
26	  0.025010020	-1.181000E+00	  0.025010020	-1.641570E+02	  0.025010020	3.461000E+00	  0.025010020	-6.924000E+00
27	  0.025210422	-1.196000E+00	  0.025210422	-1.658000E+02	  0.025210422	3.490000E+00	  0.025210422	-6.197000E+00
28	  0.025410822	-1.212000E+00	  0.025410822	-1.674670E+02	  0.025410822	3.525000E+00	  0.025410822	-5.463000E+00
29	  0.025611224	-1.227000E+00	  0.025611224	-1.691370E+02	  0.025611224	3.559000E+00	  0.025611224	-4.729000E+00
30	  0.025811624	-1.244000E+00	  0.025811624	-1.708260E+02	  0.025811624	3.599000E+00	  0.025811624	-3.990000E+00
31	  0.026012026	-1.260000E+00	  0.026012026	-1.725250E+02	  0.026012026	3.635000E+00	  0.026012026	-3.248000E+00
32	  0.026212426	-1.276000E+00	  0.026212426	-1.742360E+02	  0.026212426	3.677000E+00	  0.026212426	-2.503000E+00
33	  0.026412826	-1.294000E+00	  0.026412826	-1.759440E+02	  0.026412826	3.724000E+00	  0.026412826	-1.760000E+00
34	  0.026613226	-1.314000E+00	  0.026613226	-1.776690E+02	  0.026613226	3.777000E+00	  0.026613226	-1.011000E+00
35	  0.026813626	-1.333000E+00	  0.026813626	-1.794050E+02	  0.026813626	3.831000E+00	  0.026813626	-2.570000E-01
36	  0.027014028	-1.355000E+00	  0.027014028	1.788620E+02	  0.027014028	3.895000E+00	  0.027014028	4.930000E-01
37	  0.027214428	-1.377000E+00	  0.027214428	1.771060E+02	  0.027214428	3.958000E+00	  0.027214428	1.255000E+00
38	  0.027414829	-1.399000E+00	  0.027414829	1.753530E+02	  0.027414829	4.026000E+00	  0.027414829	2.015000E+00
39	  0.027615231	-1.421000E+00	  0.027615231	1.735760E+02	  0.027615231	4.095000E+00	  0.027615231	2.786000E+00
40	  0.027815631	-1.444000E+00	  0.027815631	1.718060E+02	  0.027815631	4.169000E+00	  0.027815631	3.556000E+00
41	  0.028016033	-1.469000E+00	  0.028016033	1.700110E+02	  0.028016033	4.250000E+00	  0.028016033	4.338000E+00
42	  0.028216433	-1.496000E+00	  0.028216433	1.682070E+02	  0.028216433	4.342000E+00	  0.028216433	5.125000E+00
43	  0.028416833	-1.521000E+00	  0.028416833	1.663980E+02	  0.028416833	4.430000E+00	  0.028416833	5.916000E+00
44	  0.028617235	-1.548000E+00	  0.028617235	1.645760E+02	  0.028617235	4.525000E+00	  0.028617235	6.716000E+00
45	  0.028817635	-1.576000E+00	  0.028817635	1.627590E+02	  0.028817635	4.627000E+00	  0.028817635	7.516000E+00
46	  0.029018037	-1.602000E+00	  0.029018037	1.609380E+02	  0.029018037	4.729000E+00	  0.029018037	8.321000E+00
47	  0.029218437	-1.634000E+00	  0.029218437	1.591030E+02	  0.029218437	4.847000E+00	  0.029218437	9.136000E+00
48	  0.029418837	-1.663000E+00	  0.029418837	1.572450E+02	  0.029418837	4.965000E+00	  0.029418837	9.965000E+00
49	  0.029619239	-1.695000E+00	  0.029619239	1.553740E+02	  0.029619239	5.093000E+00	  0.029619239	1.080500E+01
50	  0.029819639	-1.725000E+00	  0.029819639	1.535040E+02	  0.029819639	5.222000E+00	  0.029819639	1.164900E+01
51	  0.030020041	-1.757000E+00	  0.030020041	1.516280E+02	  0.030020041	5.361000E+00	  0.030020041	1.250200E+01
52	  0.030220442	-1.789000E+00	  0.030220442	1.497430E+02	  0.030220442	5.504000E+00	  0.030220442	1.336400E+01
53	  0.030420844	-1.821000E+00	  0.030420844	1.478550E+02	  0.030420844	5.652000E+00	  0.030420844	1.423500E+01
54	  0.030621244	-1.855000E+00	  0.030621244	1.459710E+02	  0.030621244	5.813000E+00	  0.030621244	1.511000E+01
55	  0.030821642	-1.893000E+00	  0.030821642	1.440740E+02	  0.030821642	5.990000E+00	  0.030821642	1.599900E+01
56	  0.031022044	-1.927000E+00	  0.031022044	1.421520E+02	  0.031022044	6.165000E+00	  0.031022044	1.690800E+01
57	  0.031222444	-1.958000E+00	  0.031222444	1.402550E+02	  0.031222444	6.337000E+00	  0.031222444	1.781500E+01
58	  0.031422846	-1.997000E+00	  0.031422846	1.382970E+02	  0.031422846	6.543000E+00	  0.031422846	1.875900E+01
59	  0.031623244	-2.034000E+00	  0.031623244	1.363450E+02	  0.031623244	6.750000E+00	  0.031623244	1.971100E+01
60	  0.031823646	-2.072000E+00	  0.031823646	1.343730E+02	  0.031823646	6.969000E+00	  0.031823646	2.068300E+01
61	  0.032024048	-2.112000E+00	  0.032024048	1.324210E+02	  0.032024048	7.206000E+00	  0.032024048	2.165600E+01
62	  0.032224450	-2.152000E+00	  0.032224450	1.304410E+02	  0.032224450	7.453000E+00	  0.032224450	2.265600E+01
63	  0.032424849	-2.193000E+00	  0.032424849	1.284650E+02	  0.032424849	7.713000E+00	  0.032424849	2.366700E+01
64	  0.032625251	-2.234000E+00	  0.032625251	1.264720E+02	  0.032625251	7.989000E+00	  0.032625251	2.470100E+01
65	  0.032825653	-2.275000E+00	  0.032825653	1.244620E+02	  0.032825653	8.277000E+00	  0.032825653	2.575900E+01
66	  0.033026051	-2.318000E+00	  0.033026051	1.224480E+02	  0.033026051	8.590000E+00	  0.033026051	2.683400E+01
67	  0.033226453	-2.360000E+00	  0.033226453	1.204180E+02	  0.033226453	8.911000E+00	  0.033226453	2.793500E+01
68	  0.033426855	-2.402000E+00	  0.033426855	1.183850E+02	  0.033426855	9.251000E+00	  0.033426855	2.905600E+01
69	  0.033627257	-2.447000E+00	  0.033627257	1.163790E+02	  0.033627257	9.619000E+00	  0.033627257	3.017800E+01
70	  0.033827655	-2.492000E+00	  0.033827655	1.143680E+02	  0.033827655	1.000100E+01	  0.033827655	3.132300E+01
71	  0.034028057	-2.534000E+00	  0.034028057	1.123280E+02	  0.034028057	1.040100E+01	  0.034028057	3.250600E+01
72	  0.034228459	-2.582000E+00	  0.034228459	1.103080E+02	  0.034228459	1.084100E+01	  0.034228459	3.369600E+01
73	  0.034428857	-2.627000E+00	  0.034428857	1.082510E+02	  0.034428857	1.129800E+01	  0.034428857	3.493200E+01
74	  0.034629259	-2.675000E+00	  0.034629259	1.061780E+02	  0.034629259	1.179400E+01	  0.034629259	3.620100E+01
75	  0.034829661	-2.723000E+00	  0.034829661	1.041350E+02	  0.034829661	1.231600E+01	  0.034829661	3.747600E+01
76	  0.035030060	-2.770000E+00	  0.035030060	1.020660E+02	  0.035030060	1.286800E+01	  0.035030060	3.879500E+01
77	  0.035230462	-2.819000E+00	  0.035230462	1.000020E+02	  0.035230462	1.346400E+01	  0.035230462	4.013500E+01
78	  0.035430863	-2.869000E+00	  0.035430863	9.793700E+01	  0.035430863	1.409500E+01	  0.035430863	4.150400E+01
79	  0.035631265	-2.917000E+00	  0.035631265	9.586700E+01	  0.035631265	1.476100E+01	  0.035631265	4.290800E+01
80	  0.035831664	-2.967000E+00	  0.035831664	9.380100E+01	  0.035831664	1.547900E+01	  0.035831664	4.433600E+01
81	  0.036032066	-3.014000E+00	  0.036032066	9.172900E+01	  0.036032066	1.622700E+01	  0.036032066	4.580800E+01
82	  0.036232468	-3.064000E+00	  0.036232468	8.965100E+01	  0.036232468	1.703900E+01	  0.036232468	4.731200E+01
83	  0.036432866	-3.112000E+00	  0.036432866	8.756300E+01	  0.036432866	1.790300E+01	  0.036432866	4.886000E+01
84	  0.036633268	-3.157000E+00	  0.036633268	8.547100E+01	  0.036633268	1.880500E+01	  0.036633268	5.045700E+01
85	  0.036833670	-3.201000E+00	  0.036833670	8.339500E+01	  0.036833670	1.976600E+01	  0.036833670	5.207900E+01
86	  0.037034072	-3.245000E+00	  0.037034072	8.129300E+01	  0.037034072	2.079800E+01	  0.037034072	5.376500E+01
87	  0.037234470	-3.285000E+00	  0.037234470	7.917500E+01	  0.037234470	2.189300E+01	  0.037234470	5.551700E+01
88	  0.037434869	-3.319000E+00	  0.037434869	7.701000E+01	  0.037434869	2.305300E+01	  0.037434869	5.737600E+01
89	  0.037635271	-3.356000E+00	  0.037635271	7.480100E+01	  0.037635271	2.434900E+01	  0.037635271	5.931700E+01
90	  0.037835669	-3.397000E+00	  0.037835669	7.250200E+01	  0.037835669	2.582300E+01	  0.037835669	6.138700E+01
91	  0.038036071	-3.451000E+00	  0.038036071	7.013400E+01	  0.038036071	2.755500E+01	  0.038036071	6.353000E+01
92	  0.038236473	-3.524000E+00	  0.038236473	6.780100E+01	  0.038236473	2.954900E+01	  0.038236473	6.560300E+01
93	  0.038436871	-3.601000E+00	  0.038436871	6.553800E+01	  0.038436871	3.169200E+01	  0.038436871	6.761200E+01
94	  0.038637273	-3.679000E+00	  0.038637273	6.334000E+01	  0.038637273	3.396600E+01	  0.038637273	6.955900E+01
95	  0.038837675	-3.750000E+00	  0.038837675	6.122000E+01	  0.038837675	3.631100E+01	  0.038837675	7.146200E+01
96	  0.039038073	-3.818000E+00	  0.039038073	5.913000E+01	  0.039038073	3.879100E+01	  0.039038073	7.334600E+01
97	  0.039238475	-3.878000E+00	  0.039238475	5.702400E+01	  0.039238475	4.142200E+01	  0.039238475	7.529400E+01
98	  0.039438877	-3.939000E+00	  0.039438877	5.494400E+01	  0.039438877	4.425000E+01	  0.039438877	7.718500E+01
99	  0.039639279	-4.001000E+00	  0.039639279	5.284200E+01	  0.039639279	4.733700E+01	  0.039639279	7.906400E+01
100	  0.039839678	-4.055000E+00	  0.039839678	5.074200E+01	  0.039839678	5.061500E+01	  0.039839678	8.096100E+01
101	  0.040040080	-4.108000E+00	  0.040040080	4.862700E+01	  0.040040080	5.417300E+01	  0.040040080	8.282800E+01
102	  0.040240481	-4.162000E+00	  0.040240481	4.652300E+01	  0.040240481	5.801500E+01	  0.040240481	8.458200E+01
103	  0.040440880	-4.212000E+00	  0.040440880	4.440800E+01	  0.040440880	6.216400E+01	  0.040440880	8.627100E+01
104	  0.040641282	-4.262000E+00	  0.040641282	4.230300E+01	  0.040641282	6.662300E+01	  0.040641282	8.780500E+01
105	  0.040841684	-4.314000E+00	  0.040841684	4.021000E+01	  0.040841684	7.141700E+01	  0.040841684	8.910900E+01
106	  0.041042086	-4.367000E+00	  0.041042086	3.813600E+01	  0.041042086	7.652200E+01	  0.041042086	9.014000E+01
107	  0.041242484	-4.415000E+00	  0.041242484	3.603300E+01	  0.041242484	8.203700E+01	  0.041242484	9.096200E+01
108	  0.041442886	-4.466000E+00	  0.041442886	3.395100E+01	  0.041442886	8.787900E+01	  0.041442886	9.135900E+01
109	  0.041643288	-4.515000E+00	  0.041643288	3.184000E+01	  0.041643288	9.415300E+01	  0.041643288	9.136600E+01
110	  0.041843686	-4.566000E+00	  0.041843686	2.972100E+01	  0.041843686	1.007990E+02	  0.041843686	9.082200E+01
111	  0.042044088	-4.614000E+00	  0.042044088	2.764200E+01	  0.042044088	1.076150E+02	  0.042044088	8.970200E+01
112	  0.042244490	-4.659000E+00	  0.042244490	2.555700E+01	  0.042244490	1.147030E+02	  0.042244490	8.797500E+01
113	  0.042444889	-4.707000E+00	  0.042444889	2.350000E+01	  0.042444889	1.218500E+02	  0.042444889	8.541500E+01
114	  0.042645290	-4.754000E+00	  0.042645290	2.144200E+01	  0.042645290	1.290630E+02	  0.042645290	8.203400E+01
115	  0.042845692	-4.801000E+00	  0.042845692	1.938400E+01	  0.042845692	1.362120E+02	  0.042845692	7.775900E+01
116	  0.043046094	-4.846000E+00	  0.043046094	1.732600E+01	  0.043046094	1.431830E+02	  0.043046094	7.260100E+01
117	  0.043246493	-4.890000E+00	  0.043246493	1.527000E+01	  0.043246493	1.497770E+02	  0.043246493	6.649000E+01
118	  0.043446895	-4.933000E+00	  0.043446895	1.322500E+01	  0.043446895	1.558120E+02	  0.043446895	5.950400E+01
119	  0.043647297	-4.973000E+00	  0.043647297	1.119500E+01	  0.043647297	1.611860E+02	  0.043647297	5.178100E+01
120	  0.043847695	-5.014000E+00	  0.043847695	9.153000E+00	  0.043847695	1.656930E+02	  0.043847695	4.321700E+01
121	  0.044048097	-5.055000E+00	  0.044048097	7.154000E+00	  0.044048097	1.690700E+02	  0.044048097	3.421100E+01
122	  0.044248499	-5.095000E+00	  0.044248499	5.127000E+00	  0.044248499	1.714530E+02	  0.044248499	2.468100E+01
123	  0.044448901	-5.134000E+00	  0.044448901	3.151000E+00	  0.044448901	1.726050E+02	  0.044448901	1.515200E+01
124	  0.044649299	-5.173000E+00	  0.044649299	1.153000E+00	  0.044649299	1.726440E+02	  0.044649299	5.506000E+00
125	  0.044849701	-5.209000E+00	  0.044849701	-8.120000E-01	  0.044849701	1.715940E+02	  0.044849701	-3.822000E+00
126	  0.045050103	-5.242000E+00	  0.045050103	-2.815000E+00	  0.045050103	1.695770E+02	  0.045050103	-1.299700E+01
127	  0.045250501	-5.276000E+00	  0.045250501	-4.774000E+00	  0.045250501	1.666110E+02	  0.045250501	-2.148400E+01
128	  0.045450903	-5.306000E+00	  0.045450903	-6.760000E+00	  0.045450903	1.628590E+02	  0.045450903	-2.951100E+01
129	  0.045651305	-5.339000E+00	  0.045651305	-8.705000E+00	  0.045651305	1.583960E+02	  0.045651305	-3.664600E+01
130	  0.045851704	-5.367000E+00	  0.045851704	-1.063700E+01	  0.045851704	1.535420E+02	  0.045851704	-4.307000E+01
131	  0.046052102	-5.397000E+00	  0.046052102	-1.257700E+01	  0.046052102	1.482300E+02	  0.046052102	-4.874500E+01
132	  0.046252504	-5.429000E+00	  0.046252504	-1.449200E+01	  0.046252504	1.426660E+02	  0.046252504	-5.356100E+01
133	  0.046452906	-5.456000E+00	  0.046452906	-1.638500E+01	  0.046452906	1.370820E+02	  0.046452906	-5.769000E+01
134	  0.046653304	-5.482000E+00	  0.046653304	-1.829600E+01	  0.046653304	1.313960E+02	  0.046653304	-6.120600E+01
135	  0.046853706	-5.509000E+00	  0.046853706	-2.018300E+01	  0.046853706	1.257730E+02	  0.046853706	-6.403300E+01
136	  0.047054108	-5.537000E+00	  0.047054108	-2.207200E+01	  0.047054108	1.202200E+02	  0.047054108	-6.628400E+01
137	  0.047254506	-5.560000E+00	  0.047254506	-2.396200E+01	  0.047254506	1.148260E+02	  0.047254506	-6.810100E+01
138	  0.047454908	-5.581000E+00	  0.047454908	-2.583300E+01	  0.047454908	1.096520E+02	  0.047454908	-6.947800E+01
139	  0.047655310	-5.601000E+00	  0.047655310	-2.768200E+01	  0.047655310	1.047150E+02	  0.047655310	-7.044400E+01
140	  0.047855709	-5.624000E+00	  0.047855709	-2.950400E+01	  0.047855709	1.000320E+02	  0.047855709	-7.101400E+01
141	  0.048056111	-5.648000E+00	  0.048056111	-3.134300E+01	  0.048056111	9.550900E+01	  0.048056111	-7.126200E+01
142	  0.048256513	-5.671000E+00	  0.048256513	-3.313800E+01	  0.048256513	9.130900E+01	  0.048256513	-7.127100E+01
143	  0.048456915	-5.689000E+00	  0.048456915	-3.492700E+01	  0.048456915	8.732800E+01	  0.048456915	-7.113700E+01
144	  0.048657313	-5.709000E+00	  0.048657313	-3.674800E+01	  0.048657313	8.348100E+01	  0.048657313	-7.078100E+01
145	  0.048857715	-5.726000E+00	  0.048857715	-3.854300E+01	  0.048857715	7.988700E+01	  0.048857715	-7.030100E+01
146	  0.049058117	-5.743000E+00	  0.049058117	-4.031900E+01	  0.049058117	7.652000E+01	  0.049058117	-6.968200E+01
147	  0.049258515	-5.761000E+00	  0.049258515	-4.207800E+01	  0.049258515	7.336400E+01	  0.049258515	-6.895400E+01
148	  0.049458917	-5.778000E+00	  0.049458917	-4.382200E+01	  0.049458917	7.040600E+01	  0.049458917	-6.814000E+01
149	  0.049659319	-5.796000E+00	  0.049659319	-4.555700E+01	  0.049659319	6.762300E+01	  0.049659319	-6.724400E+01
150	  0.049859721	-5.811000E+00	  0.049859721	-4.727900E+01	  0.049859721	6.500700E+01	  0.049859721	-6.631600E+01
151	  0.050060119	-5.827000E+00	  0.050060119	-4.898700E+01	  0.050060119	6.255500E+01	  0.050060119	-6.533800E+01
152	  0.050260521	-5.840000E+00	  0.050260521	-5.070200E+01	  0.050260521	6.021500E+01	  0.050260521	-6.434300E+01
153	  0.050460923	-5.854000E+00	  0.050460923	-5.242500E+01	  0.050460923	5.799600E+01	  0.050460923	-6.329600E+01
154	  0.050661322	-5.863000E+00	  0.050661322	-5.410900E+01	  0.050661322	5.592800E+01	  0.050661322	-6.227900E+01
155	  0.050861724	-5.873000E+00	  0.050861724	-5.580100E+01	  0.050861724	5.396000E+01	  0.050861724	-6.123100E+01
156	  0.051062126	-5.888000E+00	  0.051062126	-5.747300E+01	  0.051062126	5.214300E+01	  0.051062126	-6.013300E+01
157	  0.051262524	-5.899000E+00	  0.051262524	-5.911700E+01	  0.051262524	5.043200E+01	  0.051262524	-5.907200E+01
158	  0.051462926	-5.910000E+00	  0.051462926	-6.074900E+01	  0.051462926	4.882000E+01	  0.051462926	-5.801400E+01
159	  0.051663328	-5.919000E+00	  0.051663328	-6.237800E+01	  0.051663328	4.728600E+01	  0.051663328	-5.696100E+01
160	  0.051863730	-5.926000E+00	  0.051863730	-6.401100E+01	  0.051863730	4.581500E+01	  0.051863730	-5.591800E+01
161	  0.052064128	-5.935000E+00	  0.052064128	-6.562300E+01	  0.052064128	4.444700E+01	  0.052064128	-5.486900E+01
162	  0.052264530	-5.939000E+00	  0.052264530	-6.721800E+01	  0.052264530	4.313500E+01	  0.052264530	-5.386600E+01
163	  0.052464932	-5.944000E+00	  0.052464932	-6.881800E+01	  0.052464932	4.188900E+01	  0.052464932	-5.285100E+01
164	  0.052665330	-5.954000E+00	  0.052665330	-7.038100E+01	  0.052665330	4.075000E+01	  0.052665330	-5.183700E+01
165	  0.052865732	-5.961000E+00	  0.052865732	-7.195300E+01	  0.052865732	3.964700E+01	  0.052865732	-5.083700E+01
166	  0.053066134	-5.968000E+00	  0.053066134	-7.349000E+01	  0.053066134	3.861800E+01	  0.053066134	-4.986600E+01
167	  0.053266536	-5.974000E+00	  0.053266536	-7.502700E+01	  0.053266536	3.763000E+01	  0.053266536	-4.890600E+01
168	  0.053466935	-5.979000E+00	  0.053466935	-7.656600E+01	  0.053466935	3.668600E+01	  0.053466935	-4.795200E+01
169	  0.053667337	-5.984000E+00	  0.053667337	-7.809600E+01	  0.053667337	3.578600E+01	  0.053667337	-4.701400E+01
170	  0.053867739	-5.987000E+00	  0.053867739	-7.961900E+01	  0.053867739	3.492300E+01	  0.053867739	-4.609300E+01
171	  0.054068137	-5.992000E+00	  0.054068137	-8.111900E+01	  0.054068137	3.411800E+01	  0.054068137	-4.518800E+01
172	  0.054268539	-5.997000E+00	  0.054268539	-8.260700E+01	  0.054268539	3.335400E+01	  0.054268539	-4.429600E+01
173	  0.054468941	-6.003000E+00	  0.054468941	-8.409700E+01	  0.054468941	3.262400E+01	  0.054468941	-4.340900E+01
174	  0.054669335	-6.009000E+00	  0.054669335	-8.555100E+01	  0.054669335	3.194200E+01	  0.054669335	-4.255200E+01
175	  0.054869737	-6.015000E+00	  0.054869737	-8.702200E+01	  0.054869737	3.128000E+01	  0.054869737	-4.169400E+01
176	  0.055070139	-6.021000E+00	  0.055070139	-8.843700E+01	  0.055070139	3.067100E+01	  0.055070139	-4.087400E+01
177	  0.055270538	-6.026000E+00	  0.055270538	-8.986100E+01	  0.055270538	3.007900E+01	  0.055270538	-4.006000E+01
178	  0.055470940	-6.028000E+00	  0.055470940	-9.128800E+01	  0.055470940	2.949900E+01	  0.055470940	-3.926100E+01
179	  0.055671342	-6.029000E+00	  0.055671342	-9.271800E+01	  0.055671342	2.893600E+01	  0.055671342	-3.847100E+01
180	  0.055871744	-6.032000E+00	  0.055871744	-9.410300E+01	  0.055871744	2.841800E+01	  0.055871744	-3.770700E+01
181	  0.056072142	-6.033000E+00	  0.056072142	-9.548500E+01	  0.056072142	2.791300E+01	  0.056072142	-3.695800E+01
182	  0.056272544	-6.035000E+00	  0.056272544	-9.687300E+01	  0.056272544	2.743000E+01	  0.056272544	-3.620900E+01
183	  0.056472946	-6.038000E+00	  0.056472946	-9.825800E+01	  0.056472946	2.697000E+01	  0.056472946	-3.546500E+01
184	  0.056673344	-6.038000E+00	  0.056673344	-9.955900E+01	  0.056673344	2.654400E+01	  0.056673344	-3.477900E+01
185	  0.056873746	-6.039000E+00	  0.056873746	-1.009230E+02	  0.056873746	2.611400E+01	  0.056873746	-3.406600E+01
186	  0.057074148	-6.037000E+00	  0.057074148	-1.022610E+02	  0.057074148	2.570200E+01	  0.057074148	-3.337600E+01
187	  0.057274550	-6.035000E+00	  0.057274550	-1.035810E+02	  0.057274550	2.530600E+01	  0.057274550	-3.270300E+01
188	  0.057474948	-6.035000E+00	  0.057474948	-1.049130E+02	  0.057474948	2.492700E+01	  0.057474948	-3.202600E+01
189	  0.057675350	-6.033000E+00	  0.057675350	-1.062400E+02	  0.057675350	2.455800E+01	  0.057675350	-3.135900E+01
190	  0.057875752	-6.029000E+00	  0.057875752	-1.075560E+02	  0.057875752	2.419800E+01	  0.057875752	-3.070700E+01
191	  0.058076151	-6.027000E+00	  0.058076151	-1.088520E+02	  0.058076151	2.386100E+01	  0.058076151	-3.006700E+01
192	  0.058276553	-6.024000E+00	  0.058276553	-1.101420E+02	  0.058276553	2.353200E+01	  0.058276553	-2.943600E+01
193	  0.058476955	-6.020000E+00	  0.058476955	-1.114240E+02	  0.058476955	2.321600E+01	  0.058476955	-2.881500E+01
194	  0.058677353	-6.015000E+00	  0.058677353	-1.127250E+02	  0.058677353	2.290200E+01	  0.058677353	-2.819100E+01
195	  0.058877755	-6.010000E+00	  0.058877755	-1.140010E+02	  0.058877755	2.260300E+01	  0.058877755	-2.758400E+01
196	  0.059078157	-6.004000E+00	  0.059078157	-1.152740E+02	  0.059078157	2.231100E+01	  0.059078157	-2.698400E+01
197	  0.059278559	-5.994000E+00	  0.059278559	-1.165630E+02	  0.059278559	2.201500E+01	  0.059278559	-2.638500E+01
198	  0.059478957	-5.994000E+00	  0.059478957	-1.178360E+02	  0.059478957	2.176000E+01	  0.059478957	-2.578500E+01
199	  0.059679359	-5.990000E+00	  0.059679359	-1.190990E+02	  0.059679359	2.150400E+01	  0.059679359	-2.519900E+01
200	  0.059879761	-5.984000E+00	  0.059879761	-1.203480E+02	  0.059879761	2.125200E+01	  0.059879761	-2.462600E+01
201	  0.060080159	-5.981000E+00	  0.060080159	-1.216000E+02	  0.060080159	2.102000E+01	  0.060080159	-2.405100E+01
202	  0.060280561	-5.977000E+00	  0.060280561	-1.228270E+02	  0.060280561	2.079600E+01	  0.060280561	-2.349200E+01
203	  0.060480963	-5.978000E+00	  0.060480963	-1.240760E+02	  0.060480963	2.058700E+01	  0.060480963	-2.292300E+01
204	  0.060681365	-5.971000E+00	  0.060681365	-1.253130E+02	  0.060681365	2.036800E+01	  0.060681365	-2.237000E+01
205	  0.060881764	-5.965000E+00	  0.060881764	-1.265340E+02	  0.060881764	2.015900E+01	  0.060881764	-2.182700E+01
206	  0.061082166	-5.965000E+00	  0.061082166	-1.277860E+02	  0.061082166	1.996900E+01	  0.061082166	-2.126700E+01
207	  0.061282568	-5.962000E+00	  0.061282568	-1.289810E+02	  0.061282568	1.978600E+01	  0.061282568	-2.073900E+01
208	  0.061482966	-5.958000E+00	  0.061482966	-1.301940E+02	  0.061482966	1.960500E+01	  0.061482966	-2.020700E+01
209	  0.061683368	-5.961000E+00	  0.061683368	-1.314030E+02	  0.061683368	1.944800E+01	  0.061683368	-1.967300E+01
210	  0.061883770	-5.954000E+00	  0.061883770	-1.325770E+02	  0.061883770	1.927500E+01	  0.061883770	-1.916600E+01
211	  0.062084168	-5.954000E+00	  0.062084168	-1.337780E+02	  0.062084168	1.912300E+01	  0.062084168	-1.864400E+01
212	  0.062284570	-5.954000E+00	  0.062284570	-1.349510E+02	  0.062284570	1.897800E+01	  0.062284570	-1.813800E+01
213	  0.062484972	-5.943000E+00	  0.062484972	-1.361240E+02	  0.062484972	1.880800E+01	  0.062484972	-1.764200E+01
214	  0.062685370	-5.944000E+00	  0.062685370	-1.372820E+02	  0.062685370	1.868000E+01	  0.062685370	-1.714600E+01
215	  0.062885776	-5.941000E+00	  0.062885776	-1.384360E+02	  0.062885776	1.854500E+01	  0.062885776	-1.665700E+01
216	  0.063086174	-5.944000E+00	  0.063086174	-1.396110E+02	  0.063086174	1.842900E+01	  0.063086174	-1.615700E+01
217	  0.063286573	-5.941000E+00	  0.063286573	-1.407670E+02	  0.063286573	1.830300E+01	  0.063286573	-1.567100E+01
218	  0.063486971	-5.940000E+00	  0.063486971	-1.418990E+02	  0.063486971	1.818800E+01	  0.063486971	-1.519700E+01
219	  0.063687377	-5.938000E+00	  0.063687377	-1.430010E+02	  0.063687377	1.807900E+01	  0.063687377	-1.473800E+01
220	  0.063887775	-5.936000E+00	  0.063887775	-1.441460E+02	  0.063887775	1.796800E+01	  0.063887775	-1.426200E+01
221	  0.064088173	-5.937000E+00	  0.064088173	-1.453020E+02	  0.064088173	1.787000E+01	  0.064088173	-1.378200E+01
222	  0.064288579	-5.942000E+00	  0.064288579	-1.464300E+02	  0.064288579	1.778700E+01	  0.064288579	-1.331400E+01
223	  0.064488977	-5.941000E+00	  0.064488977	-1.475480E+02	  0.064488977	1.769600E+01	  0.064488977	-1.285400E+01
224	  0.064689375	-5.942000E+00	  0.064689375	-1.486410E+02	  0.064689375	1.761300E+01	  0.064689375	-1.240600E+01
225	  0.064889781	-5.948000E+00	  0.064889781	-1.497670E+02	  0.064889781	1.754500E+01	  0.064889781	-1.194300E+01
226	  0.065090179	-5.948000E+00	  0.065090179	-1.508600E+02	  0.065090179	1.746700E+01	  0.065090179	-1.149900E+01
227	  0.065290578	-5.949000E+00	  0.065290578	-1.519250E+02	  0.065290578	1.739500E+01	  0.065290578	-1.106700E+01
228	  0.065490983	-5.949000E+00	  0.065490983	-1.530240E+02	  0.065490983	1.732500E+01	  0.065490983	-1.062200E+01
229	  0.065691382	-5.953000E+00	  0.065691382	-1.541020E+02	  0.065691382	1.726800E+01	  0.065691382	-1.018600E+01
230	  0.065891780	-5.955000E+00	  0.065891780	-1.551970E+02	  0.065891780	1.720500E+01	  0.065891780	-9.745000E+00
231	  0.066092186	-5.959000E+00	  0.066092186	-1.562410E+02	  0.066092186	1.715800E+01	  0.066092186	-9.325000E+00
232	  0.066292584	-5.962000E+00	  0.066292584	-1.573010E+02	  0.066292584	1.710700E+01	  0.066292584	-8.901000E+00
233	  0.066492982	-5.967000E+00	  0.066492982	-1.583710E+02	  0.066492982	1.706600E+01	  0.066492982	-8.472000E+00
234	  0.066693388	-5.968000E+00	  0.066693388	-1.594070E+02	  0.066693388	1.701600E+01	  0.066693388	-8.061000E+00
235	  0.066893786	-5.972000E+00	  0.066893786	-1.604420E+02	  0.066893786	1.697900E+01	  0.066893786	-7.649000E+00
236	  0.067094192	-5.975000E+00	  0.067094192	-1.614500E+02	  0.067094192	1.694200E+01	  0.067094192	-7.249000E+00
237	  0.067294590	-5.982000E+00	  0.067294590	-1.624850E+02	  0.067294590	1.691800E+01	  0.067294590	-6.838000E+00
238	  0.067494988	-5.984000E+00	  0.067494988	-1.635070E+02	  0.067494988	1.688300E+01	  0.067494988	-6.435000E+00
239	  0.067695394	-5.987000E+00	  0.067695394	-1.645200E+02	  0.067695394	1.685300E+01	  0.067695394	-6.035000E+00
240	  0.067895792	-5.994000E+00	  0.067895792	-1.654990E+02	  0.067895792	1.683700E+01	  0.067895792	-5.649000E+00
241	  0.068096191	-6.002000E+00	  0.068096191	-1.665400E+02	  0.068096191	1.682600E+01	  0.068096191	-5.240000E+00
242	  0.068296596	-6.005000E+00	  0.068296596	-1.675270E+02	  0.068296596	1.680300E+01	  0.068296596	-4.853000E+00
243	  0.068496995	-6.010000E+00	  0.068496995	-1.685120E+02	  0.068496995	1.678900E+01	  0.068496995	-4.467000E+00
244	  0.068697393	-6.014000E+00	  0.068697393	-1.694820E+02	  0.068697393	1.677700E+01	  0.068697393	-4.087000E+00
245	  0.068897791	-6.014000E+00	  0.068897791	-1.704640E+02	  0.068897791	1.675300E+01	  0.068897791	-3.704000E+00
246	  0.069098189	-6.016000E+00	  0.069098189	-1.714210E+02	  0.069098189	1.674000E+01	  0.069098189	-3.331000E+00
247	  0.069298595	-6.019000E+00	  0.069298595	-1.723980E+02	  0.069298595	1.672900E+01	  0.069298595	-2.951000E+00
248	  0.069498993	-6.022000E+00	  0.069498993	-1.733590E+02	  0.069498993	1.672200E+01	  0.069498993	-2.577000E+00
249	  0.069699399	-6.026000E+00	  0.069699399	-1.743370E+02	  0.069699399	1.671700E+01	  0.069699399	-2.196000E+00
250	  0.069899797	-6.031000E+00	  0.069899797	-1.753030E+02	  0.069899797	1.671800E+01	  0.069899797	-1.821000E+00
251	  0.070100196	-6.032000E+00	  0.070100196	-1.762570E+02	  0.070100196	1.671300E+01	  0.070100196	-1.451000E+00
252	  0.070300601	-6.034000E+00	  0.070300601	-1.771780E+02	  0.070300601	1.671200E+01	  0.070300601	-1.093000E+00
253	  0.070501000	-6.034000E+00	  0.070501000	-1.781470E+02	  0.070501000	1.670700E+01	  0.070501000	-7.180000E-01
254	  0.070701398	-6.036000E+00	  0.070701398	-1.790800E+02	  0.070701398	1.670800E+01	  0.070701398	-3.560000E-01
255	  0.070901804	-6.033000E+00	  0.070901804	1.799940E+02	  0.070901804	1.670000E+01	  0.070901804	2.000000E-03
256	  0.071102202	-6.038000E+00	  0.071102202	1.790470E+02	  0.071102202	1.671300E+01	  0.071102202	3.690000E-01
257	  0.071302600	-6.042000E+00	  0.071302600	1.780950E+02	  0.071302600	1.672500E+01	  0.071302600	7.370000E-01
258	  0.071503006	-6.047000E+00	  0.071503006	1.771590E+02	  0.071503006	1.674300E+01	  0.071503006	1.100000E+00
259	  0.071703404	-6.047000E+00	  0.071703404	1.762680E+02	  0.071703404	1.675100E+01	  0.071703404	1.445000E+00
260	  0.071903802	-6.052000E+00	  0.071903802	1.753190E+02	  0.071903802	1.677300E+01	  0.071903802	1.813000E+00
261	  0.072104208	-6.054000E+00	  0.072104208	1.743840E+02	  0.072104208	1.679000E+01	  0.072104208	2.176000E+00
262	  0.072304606	-6.057000E+00	  0.072304606	1.734660E+02	  0.072304606	1.681000E+01	  0.072304606	2.532000E+00
263	  0.072505005	-6.060000E+00	  0.072505005	1.725450E+02	  0.072505005	1.683000E+01	  0.072505005	2.889000E+00
264	  0.072705410	-6.063000E+00	  0.072705410	1.716450E+02	  0.072705410	1.685600E+01	  0.072705410	3.238000E+00
265	  0.072905809	-6.067000E+00	  0.072905809	1.706960E+02	  0.072905809	1.688300E+01	  0.072905809	3.607000E+00
266	  0.073106214	-6.073000E+00	  0.073106214	1.697830E+02	  0.073106214	1.692100E+01	  0.073106214	3.961000E+00
267	  0.073306613	-6.078000E+00	  0.073306613	1.688560E+02	  0.073306613	1.695700E+01	  0.073306613	4.321000E+00
268	  0.073507011	-6.084000E+00	  0.073507011	1.679400E+02	  0.073507011	1.699600E+01	  0.073507011	4.677000E+00
269	  0.073707417	-6.091000E+00	  0.073707417	1.670290E+02	  0.073707417	1.703900E+01	  0.073707417	5.030000E+00
270	  0.073907815	-6.093000E+00	  0.073907815	1.661160E+02	  0.073907815	1.707500E+01	  0.073907815	5.386000E+00
271	  0.074108213	-6.102000E+00	  0.074108213	1.652270E+02	  0.074108213	1.712700E+01	  0.074108213	5.732000E+00
272	  0.074308619	-6.105000E+00	  0.074308619	1.643340E+02	  0.074308619	1.716600E+01	  0.074308619	6.081000E+00
273	  0.074509017	-6.115000E+00	  0.074509017	1.634190E+02	  0.074509017	1.722600E+01	  0.074509017	6.436000E+00
274	  0.074709415	-6.122000E+00	  0.074709415	1.625210E+02	  0.074709415	1.728000E+01	  0.074709415	6.786000E+00
275	  0.074909821	-6.124000E+00	  0.074909821	1.615850E+02	  0.074909821	1.732500E+01	  0.074909821	7.153000E+00
276	  0.075110219	-6.134000E+00	  0.075110219	1.607210E+02	  0.075110219	1.738800E+01	  0.075110219	7.490000E+00
277	  0.075310618	-6.143000E+00	  0.075310618	1.598210E+02	  0.075310618	1.745400E+01	  0.075310618	7.842000E+00
278	  0.075511023	-6.148000E+00	  0.075511023	1.589260E+02	  0.075511023	1.751000E+01	  0.075511023	8.193000E+00
279	  0.075711422	-6.152000E+00	  0.075711422	1.580530E+02	  0.075711422	1.756600E+01	  0.075711422	8.536000E+00
280	  0.075911827	-6.160000E+00	  0.075911827	1.571760E+02	  0.075911827	1.763200E+01	  0.075911827	8.880000E+00
281	  0.076112226	-6.167000E+00	  0.076112226	1.562860E+02	  0.076112226	1.770200E+01	  0.076112226	9.230000E+00
282	  0.076312624	-6.177000E+00	  0.076312624	1.554120E+02	  0.076312624	1.777900E+01	  0.076312624	9.573000E+00
283	  0.076513030	-6.188000E+00	  0.076513030	1.545270E+02	  0.076513030	1.786100E+01	  0.076513030	9.920000E+00
284	  0.076713428	-6.193000E+00	  0.076713428	1.536730E+02	  0.076713428	1.792800E+01	  0.076713428	1.025800E+01
285	  0.076913826	-6.204000E+00	  0.076913826	1.527820E+02	  0.076913826	1.801600E+01	  0.076913826	1.060900E+01
286	  0.077114232	-6.214000E+00	  0.077114232	1.519590E+02	  0.077114232	1.809800E+01	  0.077114232	1.093400E+01
287	  0.077314630	-6.225000E+00	  0.077314630	1.510970E+02	  0.077314630	1.818800E+01	  0.077314630	1.127400E+01
288	  0.077515028	-6.231000E+00	  0.077515028	1.502700E+02	  0.077515028	1.826400E+01	  0.077515028	1.160300E+01
289	  0.077715434	-6.242000E+00	  0.077715434	1.493600E+02	  0.077715434	1.836100E+01	  0.077715434	1.196300E+01
290	  0.077915832	-6.255000E+00	  0.077915832	1.485370E+02	  0.077915832	1.846000E+01	  0.077915832	1.228800E+01
291	  0.078116231	-6.266000E+00	  0.078116231	1.477120E+02	  0.078116231	1.855400E+01	  0.078116231	1.261500E+01
292	  0.078316636	-6.277000E+00	  0.078316636	1.468650E+02	  0.078316636	1.865600E+01	  0.078316636	1.295100E+01
293	  0.078517035	-6.287000E+00	  0.078517035	1.459950E+02	  0.078517035	1.875600E+01	  0.078517035	1.329900E+01
294	  0.078717433	-6.300000E+00	  0.078717433	1.451740E+02	  0.078717433	1.886300E+01	  0.078717433	1.362500E+01
295	  0.078917839	-6.313000E+00	  0.078917839	1.443280E+02	  0.078917839	1.897700E+01	  0.078917839	1.396100E+01
296	  0.079118237	-6.329000E+00	  0.079118237	1.435440E+02	  0.079118237	1.909200E+01	  0.079118237	1.427100E+01
297	  0.079318643	-6.340000E+00	  0.079318643	1.426860E+02	  0.079318643	1.920400E+01	  0.079318643	1.461500E+01
298	  0.079519041	-6.353000E+00	  0.079519041	1.418920E+02	  0.079519041	1.932000E+01	  0.079519041	1.493100E+01
299	  0.079719439	-6.366000E+00	  0.079719439	1.410740E+02	  0.079719439	1.943800E+01	  0.079719439	1.525800E+01
300	  0.079919845	-6.381000E+00	  0.079919845	1.402310E+02	  0.079919845	1.956700E+01	  0.079919845	1.559500E+01
301	  0.080120243	-6.395000E+00	  0.080120243	1.394140E+02	  0.080120243	1.969200E+01	  0.080120243	1.592200E+01
302	  0.080320641	-6.409000E+00	  0.080320641	1.385930E+02	  0.080320641	1.982300E+01	  0.080320641	1.625100E+01
303	  0.080521047	-6.427000E+00	  0.080521047	1.377820E+02	  0.080521047	1.996300E+01	  0.080521047	1.657400E+01
304	  0.080721445	-6.439000E+00	  0.080721445	1.369970E+02	  0.080721445	2.008800E+01	  0.080721445	1.689000E+01
305	  0.080921844	-6.459000E+00	  0.080921844	1.361840E+02	  0.080921844	2.024000E+01	  0.080921844	1.721300E+01
306	  0.081122249	-6.475000E+00	  0.081122249	1.353940E+02	  0.081122249	2.038300E+01	  0.081122249	1.752900E+01
307	  0.081322648	-6.491000E+00	  0.081322648	1.346000E+02	  0.081322648	2.052800E+01	  0.081322648	1.784700E+01
308	  0.081523046	-6.506000E+00	  0.081523046	1.338060E+02	  0.081523046	2.067200E+01	  0.081523046	1.816700E+01
309	  0.081723452	-6.521000E+00	  0.081723452	1.330300E+02	  0.081723452	2.081600E+01	  0.081723452	1.848000E+01
310	  0.081923850	-6.535000E+00	  0.081923850	1.322500E+02	  0.081923850	2.096000E+01	  0.081923850	1.879600E+01
311	  0.082124248	-6.551000E+00	  0.082124248	1.314360E+02	  0.082124248	2.111800E+01	  0.082124248	1.912400E+01
312	  0.082324654	-6.567000E+00	  0.082324654	1.306600E+02	  0.082324654	2.127200E+01	  0.082324654	1.943800E+01
313	  0.082525052	-6.584000E+00	  0.082525052	1.298960E+02	  0.082525052	2.143200E+01	  0.082525052	1.974500E+01
314	  0.082725458	-6.603000E+00	  0.082725458	1.291460E+02	  0.082725458	2.159900E+01	  0.082725458	2.004400E+01
315	  0.082925856	-6.620000E+00	  0.082925856	1.283900E+02	  0.082925856	2.176100E+01	  0.082925856	2.034900E+01
316	  0.083126254	-6.638000E+00	  0.083126254	1.276120E+02	  0.083126254	2.193300E+01	  0.083126254	2.066200E+01
317	  0.083326660	-6.657000E+00	  0.083326660	1.268660E+02	  0.083326660	2.210700E+01	  0.083326660	2.096100E+01
318	  0.083527058	-6.674000E+00	  0.083527058	1.260840E+02	  0.083527058	2.228200E+01	  0.083527058	2.127700E+01
319	  0.083727457	-6.695000E+00	  0.083727457	1.253300E+02	  0.083727457	2.246900E+01	  0.083727457	2.157700E+01
320	  0.083927862	-6.714000E+00	  0.083927862	1.245880E+02	  0.083927862	2.264800E+01	  0.083927862	2.187600E+01
321	  0.084128261	-6.735000E+00	  0.084128261	1.238350E+02	  0.084128261	2.284100E+01	  0.084128261	2.217500E+01
322	  0.084328659	-6.754000E+00	  0.084328659	1.230820E+02	  0.084328659	2.302800E+01	  0.084328659	2.247800E+01
323	  0.084529065	-6.776000E+00	  0.084529065	1.223830E+02	  0.084529065	2.321800E+01	  0.084529065	2.275400E+01
324	  0.084729463	-6.795000E+00	  0.084729463	1.216390E+02	  0.084729463	2.341200E+01	  0.084729463	2.305300E+01
325	  0.084929854	-6.817000E+00	  0.084929854	1.208890E+02	  0.084929854	2.361900E+01	  0.084929854	2.335000E+01
326	  0.085130259	-6.837000E+00	  0.085130259	1.201460E+02	  0.085130259	2.382000E+01	  0.085130259	2.364700E+01
327	  0.085330658	-6.856000E+00	  0.085330658	1.193910E+02	  0.085330658	2.402300E+01	  0.085330658	2.395200E+01
328	  0.085531056	-6.878000E+00	  0.085531056	1.186770E+02	  0.085531056	2.423400E+01	  0.085531056	2.423200E+01
329	  0.085731462	-6.900000E+00	  0.085731462	1.179470E+02	  0.085731462	2.444600E+01	  0.085731462	2.452200E+01
330	  0.085931860	-6.921000E+00	  0.085931860	1.172430E+02	  0.085931860	2.465500E+01	  0.085931860	2.480100E+01
331	  0.086132258	-6.941000E+00	  0.086132258	1.165230E+02	  0.086132258	2.486800E+01	  0.086132258	2.508700E+01
332	  0.086332664	-6.969000E+00	  0.086332664	1.158510E+02	  0.086332664	2.509700E+01	  0.086332664	2.534200E+01
333	  0.086533062	-6.990000E+00	  0.086533062	1.151390E+02	  0.086533062	2.531900E+01	  0.086533062	2.562200E+01
334	  0.086733460	-7.013000E+00	  0.086733460	1.144230E+02	  0.086733460	2.554800E+01	  0.086733460	2.590300E+01
335	  0.086933866	-7.035000E+00	  0.086933866	1.137150E+02	  0.086933866	2.577700E+01	  0.086933866	2.618000E+01
336	  0.087134264	-7.060000E+00	  0.087134264	1.130080E+02	  0.087134264	2.601800E+01	  0.087134264	2.645200E+01
337	  0.087334670	-7.076000E+00	  0.087334670	1.123040E+02	  0.087334670	2.623700E+01	  0.087334670	2.673600E+01
338	  0.087535068	-7.106000E+00	  0.087535068	1.116290E+02	  0.087535068	2.649000E+01	  0.087535068	2.698500E+01
339	  0.087735467	-7.133000E+00	  0.087735467	1.109320E+02	  0.087735467	2.674400E+01	  0.087735467	2.724800E+01
340	  0.087935872	-7.156000E+00	  0.087935872	1.102700E+02	  0.087935872	2.698100E+01	  0.087935872	2.750100E+01
341	  0.088136271	-7.183000E+00	  0.088136271	1.095660E+02	  0.088136271	2.724500E+01	  0.088136271	2.776400E+01
342	  0.088336669	-7.206000E+00	  0.088336669	1.088830E+02	  0.088336669	2.749300E+01	  0.088336669	2.802600E+01
343	  0.088537075	-7.234000E+00	  0.088537075	1.082320E+02	  0.088537075	2.775100E+01	  0.088537075	2.826300E+01
344	  0.088737473	-7.257000E+00	  0.088737473	1.075770E+02	  0.088737473	2.799900E+01	  0.088737473	2.851100E+01
345	  0.088937871	-7.280000E+00	  0.088937871	1.068700E+02	  0.088937871	2.826400E+01	  0.088937871	2.878000E+01
346	  0.089138277	-7.302000E+00	  0.089138277	1.062410E+02	  0.089138277	2.851000E+01	  0.089138277	2.901500E+01
347	  0.089338675	-7.326000E+00	  0.089338675	1.055760E+02	  0.089338675	2.877300E+01	  0.089338675	2.926200E+01
348	  0.089539073	-7.357000E+00	  0.089539073	1.049440E+02	  0.089539073	2.905000E+01	  0.089539073	2.948100E+01
349	  0.089739479	-7.384000E+00	  0.089739479	1.042980E+02	  0.089739479	2.932300E+01	  0.089739479	2.971200E+01
350	  0.089939877	-7.414000E+00	  0.089939877	1.036500E+02	  0.089939877	2.960900E+01	  0.089939877	2.993700E+01
351	  0.090140276	-7.436000E+00	  0.090140276	1.030240E+02	  0.090140276	2.986900E+01	  0.090140276	3.016600E+01
352	  0.090340681	-7.465000E+00	  0.090340681	1.023800E+02	  0.090340681	3.015700E+01	  0.090340681	3.038800E+01
353	  0.090541080	-7.496000E+00	  0.090541080	1.017500E+02	  0.090541080	3.045100E+01	  0.090541080	3.059800E+01
354	  0.090741485	-7.519000E+00	  0.090741485	1.011110E+02	  0.090741485	3.072600E+01	  0.090741485	3.082800E+01
355	  0.090941884	-7.552000E+00	  0.090941884	1.004950E+02	  0.090941884	3.102700E+01	  0.090941884	3.102400E+01
356	  0.091142282	-7.578000E+00	  0.091142282	9.991200E+01	  0.091142282	3.129900E+01	  0.091142282	3.122000E+01
357	  0.091342688	-7.611000E+00	  0.091342688	9.928100E+01	  0.091342688	3.161000E+01	  0.091342688	3.142100E+01
358	  0.091543086	-7.644000E+00	  0.091543086	9.865900E+01	  0.091543086	3.192300E+01	  0.091543086	3.161300E+01
359	  0.091743484	-7.677000E+00	  0.091743484	9.803400E+01	  0.091743484	3.223800E+01	  0.091743484	3.180700E+01
360	  0.091943890	-7.707000E+00	  0.091943890	9.744000E+01	  0.091943890	3.253600E+01	  0.091943890	3.199300E+01
361	  0.092144288	-7.736000E+00	  0.092144288	9.685000E+01	  0.092144288	3.283500E+01	  0.092144288	3.217500E+01
362	  0.092344686	-7.766000E+00	  0.092344686	9.621800E+01	  0.092344686	3.315400E+01	  0.092344686	3.237300E+01
363	  0.092545092	-7.798000E+00	  0.092545092	9.562900E+01	  0.092545092	3.346700E+01	  0.092545092	3.254400E+01
364	  0.092745490	-7.833000E+00	  0.092745490	9.504300E+01	  0.092745490	3.378900E+01	  0.092745490	3.270500E+01
365	  0.092945889	-7.864000E+00	  0.092945889	9.446400E+01	  0.092945889	3.410200E+01	  0.092945889	3.286900E+01
366	  0.093146294	-7.899000E+00	  0.093146294	9.389300E+01	  0.093146294	3.442400E+01	  0.093146294	3.301800E+01
367	  0.093346693	-7.929000E+00	  0.093346693	9.332800E+01	  0.093346693	3.473100E+01	  0.093346693	3.317700E+01
368	  0.093547091	-7.959000E+00	  0.093547091	9.277500E+01	  0.093547091	3.503900E+01	  0.093547091	3.332700E+01
369	  0.093747497	-7.989000E+00	  0.093747497	9.220100E+01	  0.093747497	3.535700E+01	  0.093747497	3.348300E+01
370	  0.093947895	-8.025000E+00	  0.093947895	9.164100E+01	  0.093947895	3.568700E+01	  0.093947895	3.361600E+01
371	  0.094148301	-8.060000E+00	  0.094148301	9.108600E+01	  0.094148301	3.601600E+01	  0.094148301	3.374600E+01
372	  0.094348699	-8.091000E+00	  0.094348699	9.054800E+01	  0.094348699	3.632700E+01	  0.094348699	3.388000E+01
373	  0.094549097	-8.124000E+00	  0.094549097	9.002600E+01	  0.094549097	3.664300E+01	  0.094549097	3.399500E+01
374	  0.094749503	-8.155000E+00	  0.094749503	8.950900E+01	  0.094749503	3.695000E+01	  0.094749503	3.411500E+01
375	  0.094949901	-8.191000E+00	  0.094949901	8.898300E+01	  0.094949901	3.727900E+01	  0.094949901	3.421900E+01
376	  0.095150299	-8.219000E+00	  0.095150299	8.847900E+01	  0.095150299	3.757800E+01	  0.095150299	3.433600E+01
377	  0.095350705	-8.253000E+00	  0.095350705	8.798400E+01	  0.095350705	3.789000E+01	  0.095350705	3.442900E+01
378	  0.095551103	-8.288000E+00	  0.095551103	8.744700E+01	  0.095551103	3.822700E+01	  0.095551103	3.453400E+01
379	  0.095751502	-8.315000E+00	  0.095751502	8.698700E+01	  0.095751502	3.850800E+01	  0.095751502	3.463100E+01
380	  0.095951907	-8.348000E+00	  0.095951907	8.648900E+01	  0.095951907	3.882600E+01	  0.095951907	3.471900E+01
381	  0.096152306	-8.378000E+00	  0.096152306	8.599900E+01	  0.096152306	3.913400E+01	  0.096152306	3.481300E+01
382	  0.096352704	-8.410000E+00	  0.096352704	8.553400E+01	  0.096352704	3.943400E+01	  0.096352704	3.489100E+01
383	  0.096553110	-8.439000E+00	  0.096553110	8.506600E+01	  0.096553110	3.973400E+01	  0.096553110	3.497200E+01
384	  0.096753508	-8.468000E+00	  0.096753508	8.460500E+01	  0.096753508	4.002900E+01	  0.096753508	3.505200E+01
385	  0.096953906	-8.497000E+00	  0.096953906	8.418700E+01	  0.096953906	4.030400E+01	  0.096953906	3.511300E+01
386	  0.097154312	-8.529000E+00	  0.097154312	8.372900E+01	  0.097154312	4.060900E+01	  0.097154312	3.517600E+01
387	  0.097354710	-8.557000E+00	  0.097354710	8.325300E+01	  0.097354710	4.091600E+01	  0.097354710	3.525500E+01
388	  0.097555116	-8.581000E+00	  0.097555116	8.283300E+01	  0.097555116	4.118500E+01	  0.097555116	3.532600E+01
389	  0.097755514	-8.609000E+00	  0.097755514	8.241100E+01	  0.097755514	4.146600E+01	  0.097755514	3.538300E+01
390	  0.097955912	-8.637000E+00	  0.097955912	8.199100E+01	  0.097955912	4.174800E+01	  0.097955912	3.543400E+01
391	  0.098156318	-8.670000E+00	  0.098156318	8.155600E+01	  0.098156318	4.204800E+01	  0.098156318	3.547500E+01
392	  0.098356716	-8.689000E+00	  0.098356716	8.118100E+01	  0.098356716	4.228800E+01	  0.098356716	3.553900E+01
393	  0.098557115	-8.716000E+00	  0.098557115	8.076300E+01	  0.098557115	4.256800E+01	  0.098557115	3.558900E+01
394	  0.098757520	-8.737000E+00	  0.098757520	8.035600E+01	  0.098757520	4.283300E+01	  0.098757520	3.565200E+01
395	  0.098957919	-8.760000E+00	  0.098957919	7.993400E+01	  0.098957919	4.311000E+01	  0.098957919	3.571200E+01
396	  0.099158317	-8.780000E+00	  0.099158317	7.954000E+01	  0.099158317	4.336700E+01	  0.099158317	3.577200E+01
397	  0.099358723	-8.802000E+00	  0.099358723	7.914500E+01	  0.099358723	4.362800E+01	  0.099358723	3.582500E+01
398	  0.099559121	-8.822000E+00	  0.099559121	7.875800E+01	  0.099559121	4.388400E+01	  0.099559121	3.587800E+01
399	  0.099759519	-8.840000E+00	  0.099759519	7.838200E+01	  0.099759519	4.412900E+01	  0.099759519	3.593600E+01
400	  0.099959925	-8.852000E+00	  0.099959925	7.805100E+01	  0.099959925	4.433800E+01	  0.099959925	3.599700E+01
401	  0.100160323	-8.870000E+00	  0.100160323	7.762100E+01	  0.100160323	4.461600E+01	  0.100160323	3.606900E+01
402	  0.100360721	-8.883000E+00	  0.100360721	7.730900E+01	  0.100360721	4.481900E+01	  0.100360721	3.611800E+01
403	  0.100561127	-8.890000E+00	  0.100561127	7.691400E+01	  0.100561127	4.505800E+01	  0.100561127	3.621500E+01
404	  0.100761525	-8.919000E+00	  0.100761525	7.649400E+01	  0.100761525	4.535600E+01	  0.100761525	3.623500E+01
405	  0.100961931	-8.920000E+00	  0.100961931	7.611300E+01	  0.100961931	4.557800E+01	  0.100961931	3.634800E+01
406	  0.101162329	-8.924000E+00	  0.101162329	7.572800E+01	  0.101162329	4.581000E+01	  0.101162329	3.644800E+01
407	  0.101362728	-8.940000E+00	  0.101362728	7.538000E+01	  0.101362728	4.604500E+01	  0.101362728	3.649200E+01
408	  0.101563133	-8.948000E+00	  0.101563133	7.506800E+01	  0.101563133	4.624400E+01	  0.101563133	3.655500E+01
409	  0.101763532	-8.946000E+00	  0.101763532	7.468600E+01	  0.101763532	4.646600E+01	  0.101763532	3.667500E+01
410	  0.101963930	-8.959000E+00	  0.101963930	7.440600E+01	  0.101963930	4.665900E+01	  0.101963930	3.670500E+01
411	  0.102164328	-8.962000E+00	  0.102164328	7.397000E+01	  0.102164328	4.692700E+01	  0.102164328	3.681800E+01
412	  0.102364726	-8.968000E+00	  0.102364726	7.361000E+01	  0.102364726	4.715600E+01	  0.102364726	3.689800E+01
413	  0.102565125	-8.968000E+00	  0.102565125	7.322000E+01	  0.102565125	4.739400E+01	  0.102565125	3.700900E+01
414	  0.102765530	-8.966000E+00	  0.102765530	7.290600E+01	  0.102765530	4.758400E+01	  0.102765530	3.710500E+01
415	  0.102965929	-8.975000E+00	  0.102965929	7.253700E+01	  0.102965929	4.782700E+01	  0.102965929	3.717400E+01
416	  0.103166327	-8.976000E+00	  0.103166327	7.215600E+01	  0.103166327	4.806700E+01	  0.103166327	3.727400E+01
417	  0.103366733	-8.975000E+00	  0.103366733	7.176800E+01	  0.103366733	4.830800E+01	  0.103366733	3.738500E+01
418	  0.103567131	-8.968000E+00	  0.103567131	7.139700E+01	  0.103567131	4.853000E+01	  0.103567131	3.751600E+01
419	  0.103767529	-8.972000E+00	  0.103767529	7.104100E+01	  0.103767529	4.876500E+01	  0.103767529	3.759300E+01
420	  0.103967935	-8.967000E+00	  0.103967935	7.065000E+01	  0.103967935	4.900800E+01	  0.103967935	3.772000E+01
421	  0.104168333	-8.968000E+00	  0.104168333	7.023300E+01	  0.104168333	4.928000E+01	  0.104168333	3.782500E+01
422	  0.104368731	-8.970000E+00	  0.104368731	6.988800E+01	  0.104368731	4.950900E+01	  0.104368731	3.790500E+01
423	  0.104569137	-8.960000E+00	  0.104569137	6.943400E+01	  0.104569137	4.979000E+01	  0.104569137	3.806700E+01
424	  0.104769535	-8.960000E+00	  0.104769535	6.908300E+01	  0.104769535	5.002300E+01	  0.104769535	3.815800E+01
425	  0.104969934	-8.957000E+00	  0.104969934	6.862800E+01	  0.104969934	5.032200E+01	  0.104969934	3.828700E+01
426	  0.105170339	-8.950000E+00	  0.105170339	6.818900E+01	  0.105170339	5.060900E+01	  0.105170339	3.842300E+01
427	  0.105370738	-8.953000E+00	  0.105370738	6.778900E+01	  0.105370738	5.088500E+01	  0.105370738	3.851000E+01
428	  0.105571143	-8.949000E+00	  0.105571143	6.736300E+01	  0.105571143	5.117200E+01	  0.105571143	3.862900E+01
429	  0.105771542	-8.943000E+00	  0.105771542	6.692800E+01	  0.105771542	5.146400E+01	  0.105771542	3.876100E+01
430	  0.105971940	-8.930000E+00	  0.105971940	6.642700E+01	  0.105971940	5.179500E+01	  0.105971940	3.893700E+01
431	  0.106172346	-8.920000E+00	  0.106172346	6.594100E+01	  0.106172346	5.212300E+01	  0.106172346	3.909600E+01
432	  0.106372744	-8.914000E+00	  0.106372744	6.550700E+01	  0.106372744	5.242500E+01	  0.106372744	3.922400E+01
433	  0.106573142	-8.913000E+00	  0.106573142	6.506400E+01	  0.106573142	5.274200E+01	  0.106573142	3.933000E+01
434	  0.106773548	-8.905000E+00	  0.106773548	6.456300E+01	  0.106773548	5.309500E+01	  0.106773548	3.947600E+01
435	  0.106973946	-8.896000E+00	  0.106973946	6.406400E+01	  0.106973946	5.345000E+01	  0.106973946	3.962500E+01
436	  0.107174344	-8.886000E+00	  0.107174344	6.363300E+01	  0.107174344	5.375500E+01	  0.107174344	3.976600E+01
437	  0.107374750	-8.878000E+00	  0.107374750	6.309300E+01	  0.107374750	5.415100E+01	  0.107374750	3.991500E+01
438	  0.107575148	-8.866000E+00	  0.107575148	6.257000E+01	  0.107575148	5.453100E+01	  0.107575148	4.008100E+01
439	  0.107775547	-8.842000E+00	  0.107775547	6.209300E+01	  0.107775547	5.486600E+01	  0.107775547	4.029900E+01
440	  0.107975952	-8.842000E+00	  0.107975952	6.156800E+01	  0.107975952	5.527300E+01	  0.107975952	4.039700E+01
441	  0.108176351	-8.822000E+00	  0.108176351	6.107200E+01	  0.108176351	5.563800E+01	  0.108176351	4.059400E+01
442	  0.108376749	-8.812000E+00	  0.108376749	6.049700E+01	  0.108376749	5.608200E+01	  0.108376749	4.074800E+01
443	  0.108577155	-8.800000E+00	  0.108577155	6.001700E+01	  0.108577155	5.645300E+01	  0.108577155	4.089700E+01
444	  0.108777553	-8.789000E+00	  0.108777553	5.950800E+01	  0.108777553	5.685200E+01	  0.108777553	4.104300E+01
445	  0.108977959	-8.774000E+00	  0.108977959	5.893100E+01	  0.108977959	5.731000E+01	  0.108977959	4.121400E+01
446	  0.109178357	-8.761000E+00	  0.109178357	5.839200E+01	  0.109178357	5.774300E+01	  0.109178357	4.137100E+01
447	  0.109378755	-8.750000E+00	  0.109378755	5.783100E+01	  0.109378755	5.820300E+01	  0.109378755	4.151400E+01
448	  0.109579161	-8.732000E+00	  0.109579161	5.726300E+01	  0.109579161	5.866800E+01	  0.109579161	4.169800E+01
449	  0.109779559	-8.716000E+00	  0.109779559	5.664600E+01	  0.109779559	5.918400E+01	  0.109779559	4.187300E+01
450	  0.109979957	-8.708000E+00	  0.109979957	5.616000E+01	  0.109979957	5.960000E+01	  0.109979957	4.197900E+01
451	  0.110180363	-8.691000E+00	  0.110180363	5.553500E+01	  0.110180363	6.013600E+01	  0.110180363	4.215300E+01
452	  0.110380761	-8.687000E+00	  0.110380761	5.494800E+01	  0.110380761	6.065500E+01	  0.110380761	4.224200E+01
453	  0.110581160	-8.669000E+00	  0.110581160	5.434600E+01	  0.110581160	6.118500E+01	  0.110581160	4.241100E+01
454	  0.110781565	-8.664000E+00	  0.110781565	5.378800E+01	  0.110781565	6.168900E+01	  0.110781565	4.249200E+01
455	  0.110981964	-8.656000E+00	  0.110981964	5.312800E+01	  0.110981964	6.229300E+01	  0.110981964	4.259500E+01
456	  0.111182362	-8.643000E+00	  0.111182362	5.258300E+01	  0.111182362	6.279500E+01	  0.111182362	4.271200E+01
457	  0.111382768	-8.631000E+00	  0.111382768	5.189600E+01	  0.111382768	6.343700E+01	  0.111382768	4.283000E+01
458	  0.111583166	-8.628000E+00	  0.111583166	5.125000E+01	  0.111583166	6.405200E+01	  0.111583166	4.287700E+01
459	  0.111783572	-8.617000E+00	  0.111783572	5.058500E+01	  0.111783572	6.469100E+01	  0.111783572	4.296900E+01
460	  0.111983970	-8.615000E+00	  0.111983970	4.995400E+01	  0.111983970	6.530700E+01	  0.111983970	4.299600E+01
461	  0.112184368	-8.613000E+00	  0.112184368	4.926800E+01	  0.112184368	6.598200E+01	  0.112184368	4.301700E+01
462	  0.112384774	-8.609000E+00	  0.112384774	4.856600E+01	  0.112384774	6.668100E+01	  0.112384774	4.303200E+01
463	  0.112585172	-8.607000E+00	  0.112585172	4.788800E+01	  0.112585172	6.736500E+01	  0.112585172	4.303200E+01
464	  0.112785570	-8.606000E+00	  0.112785570	4.713600E+01	  0.112785570	6.813000E+01	  0.112785570	4.300500E+01
465	  0.112985976	-8.603000E+00	  0.112985976	4.640200E+01	  0.112985976	6.888600E+01	  0.112985976	4.298400E+01
466	  0.113186374	-8.604000E+00	  0.113186374	4.570100E+01	  0.113186374	6.961300E+01	  0.113186374	4.292100E+01
467	  0.113386773	-8.607000E+00	  0.113386773	4.494300E+01	  0.113386773	7.040600E+01	  0.113386773	4.282800E+01
468	  0.113587178	-8.608000E+00	  0.113587178	4.414900E+01	  0.113587178	7.124400E+01	  0.113587178	4.272400E+01
469	  0.113787577	-8.611000E+00	  0.113787577	4.340200E+01	  0.113787577	7.203800E+01	  0.113787577	4.259600E+01
470	  0.113987975	-8.612000E+00	  0.113987975	4.258100E+01	  0.113987975	7.292100E+01	  0.113987975	4.245300E+01
471	  0.114188381	-8.616000E+00	  0.114188381	4.176000E+01	  0.114188381	7.380700E+01	  0.114188381	4.227200E+01
472	  0.114388779	-8.629000E+00	  0.114388779	4.094900E+01	  0.114388779	7.467400E+01	  0.114388779	4.200500E+01
473	  0.114589177	-8.631000E+00	  0.114589177	4.018200E+01	  0.114589177	7.551200E+01	  0.114589177	4.179900E+01
474	  0.114789583	-8.645000E+00	  0.114789583	3.933800E+01	  0.114789583	7.642100E+01	  0.114789583	4.147300E+01
475	  0.114989981	-8.656000E+00	  0.114989981	3.846900E+01	  0.114989981	7.736100E+01	  0.114989981	4.113200E+01
476	  0.115190387	-8.665000E+00	  0.115190387	3.761200E+01	  0.115190387	7.829600E+01	  0.115190387	4.078500E+01
477	  0.115390785	-8.682000E+00	  0.115390785	3.673500E+01	  0.115390785	7.923400E+01	  0.115390785	4.035000E+01
478	  0.115591183	-8.699000E+00	  0.115591183	3.582100E+01	  0.115591183	8.020900E+01	  0.115591183	3.986200E+01
479	  0.115791589	-8.714000E+00	  0.115791589	3.494000E+01	  0.115791589	8.115000E+01	  0.115791589	3.937600E+01
480	  0.115991987	-8.730000E+00	  0.115991987	3.404900E+01	  0.115991987	8.209600E+01	  0.115991987	3.885000E+01
481	  0.116192386	-8.751000E+00	  0.116192386	3.315500E+01	  0.116192386	8.302000E+01	  0.116192386	3.825400E+01
482	  0.116392791	-8.778000E+00	  0.116392791	3.224200E+01	  0.116392791	8.393500E+01	  0.116392791	3.757600E+01
483	  0.116593190	-8.798000E+00	  0.116593190	3.133500E+01	  0.116593190	8.485400E+01	  0.116593190	3.691600E+01
484	  0.116793588	-8.825000E+00	  0.116793588	3.035600E+01	  0.116793588	8.581400E+01	  0.116793588	3.613500E+01
485	  0.116993994	-8.855000E+00	  0.116993994	2.938300E+01	  0.116993994	8.673600E+01	  0.116993994	3.530200E+01
486	  0.117194392	-8.889000E+00	  0.117194392	2.842900E+01	  0.117194392	8.759600E+01	  0.117194392	3.441800E+01
487	  0.117394790	-8.921000E+00	  0.117394790	2.742700E+01	  0.117394790	8.848900E+01	  0.117394790	3.348000E+01
488	  0.117595196	-8.965000E+00	  0.117595196	2.642900E+01	  0.117595196	8.929300E+01	  0.117595196	3.243300E+01
489	  0.117795594	-9.001000E+00	  0.117795594	2.546100E+01	  0.117795594	9.006900E+01	  0.117795594	3.142600E+01
490	  0.117995992	-9.047000E+00	  0.117995992	2.445000E+01	  0.117995992	9.080600E+01	  0.117995992	3.029900E+01
491	  0.118196398	-9.091000E+00	  0.118196398	2.341100E+01	  0.118196398	9.154100E+01	  0.118196398	2.913100E+01
492	  0.118396796	-9.136000E+00	  0.118396796	2.238500E+01	  0.118396796	9.221400E+01	  0.118396796	2.794200E+01
