! Anritsu VNA Master:             	Model: MS2036C/10/77
! SN:             	1601066
! /bd0/18may10/255.ew.m8.txt
! Existing Calibration Information:
! TYPE:             	Current Settings	Active Cal Settings
! TIME:             	05/10/2018 01:55:59 PM	05/10/2018 01:50:32 PM
! INTERNAL TEMP:    	56.5 C	56.0 C
! # POINTS:         	492	492
! START FREQ:       	20.000 MHz	20.000 MHz
! STOP FREQ:        	118.396 793 MHz	118.396 793 MHz
! SOURCE POWER:     	High	High
! IFBW:             	50 Hz	50 Hz
! AVG FACTOR:       	  1 	  1 
! REF PLANE 1:      	0 mm	0 mm
! REF PLANE 2:      	0 mm	0 mm
! CAL TYPE:         	Full S22	Full S22
! CAL METHOD:       	SOLT	SOLT
! CAL LINE TYPE:    	Coax	Coax
! DUT PORT 1:       	K-Conn(M)	K-Conn(M)
! DUT PORT 2:       	K-Conn(M)	K-Conn(M)
! CAL STATUS:       	OK: Accuracy High	--
! PROP-V:       	0.700
! CABLE LOSS:       	0.000 dB/m
! REF IMPEDANCE:       	50.0
! Trace Specific Parameters:	TR1	TR2	TR3	TR4
! TRACE.#.Y (GRAPH TYPE)	LOG MAG	PHASE	REAL IMPEDANCE	IMAGINARY IMPEDANCE
! TRACE.#.X 	FREQ.GHZ	FREQ.GHZ	FREQ.GHZ	FREQ.GHZ
! S-PARAMETER	S22	S22	S22	S22
! SMOOTH/APERTURE %	0	0	0	0
! WINDOW	NSL	NSL	NSL	NSL
! GATING	OFF	OFF	OFF	OFF
! FGTD	OFF	OFF	OFF	OFF
Marker Information per Trace:	TR1	TR2	TR3	TR4
!MK1	--	"MK1 TR2:  20.000 MHz,PH:-125.55°"	--	--
!MK2	--	--	"MK2 TR3:  70.100 200 MHz,Z:(16.771 ohm, -1.661 ohm)"	--
!MK3	--	--	--	--
!MK4	--	--	--	--
!MK5	--	--	--	--
!MK6	--	--	--	--
!MK7	--	--	--	--
!MK8	--	--	--	--
PNT	TR1.FREQ.GHZ	TR1.LOG MAG.dB	TR2.FREQ.GHZ	TR2.PHASE.deg	TR3.FREQ.GHZ	TR3.REAL IMPEDANCE.ohm	TR4.FREQ.GHZ	TR4.IMAGINARY IMPEDANCE.ohm
1	  0.020000000	-9.170000E-01	  0.020000000	-1.255540E+02	  0.020000000	3.334000E+00	  0.020000000	-2.563100E+01
2	  0.020200402	-9.270000E-01	  0.020200402	-1.270020E+02	  0.020200402	3.328000E+00	  0.020200402	-2.483900E+01
3	  0.020400802	-9.370000E-01	  0.020400802	-1.284270E+02	  0.020400802	3.321000E+00	  0.020400802	-2.406900E+01
4	  0.020601204	-9.460000E-01	  0.020601204	-1.298850E+02	  0.020601204	3.315000E+00	  0.020601204	-2.329100E+01
5	  0.020801604	-9.570000E-01	  0.020801604	-1.313770E+02	  0.020801604	3.313000E+00	  0.020801604	-2.250500E+01
6	  0.021002004	-9.660000E-01	  0.021002004	-1.328820E+02	  0.021002004	3.304000E+00	  0.021002004	-2.172100E+01
7	  0.021202406	-9.760000E-01	  0.021202406	-1.343890E+02	  0.021202406	3.302000E+00	  0.021202406	-2.094500E+01
8	  0.021402806	-9.850000E-01	  0.021402806	-1.358780E+02	  0.021402806	3.297000E+00	  0.021402806	-2.018700E+01
9	  0.021603208	-9.940000E-01	  0.021603208	-1.373660E+02	  0.021603208	3.292000E+00	  0.021603208	-1.943700E+01
10	  0.021803608	-1.005000E+00	  0.021803608	-1.388620E+02	  0.021803608	3.296000E+00	  0.021803608	-1.869000E+01
11	  0.022004008	-1.014000E+00	  0.022004008	-1.403590E+02	  0.022004008	3.293000E+00	  0.022004008	-1.795100E+01
12	  0.022204408	-1.028000E+00	  0.022204408	-1.418640E+02	  0.022204408	3.307000E+00	  0.022204408	-1.721500E+01
13	  0.022404809	-1.036000E+00	  0.022404809	-1.434080E+02	  0.022404809	3.305000E+00	  0.022404809	-1.646600E+01
14	  0.022605211	-1.048000E+00	  0.022605211	-1.449620E+02	  0.022605211	3.312000E+00	  0.022605211	-1.571900E+01
15	  0.022805611	-1.058000E+00	  0.022805611	-1.465170E+02	  0.022805611	3.316000E+00	  0.022805611	-1.497900E+01
16	  0.023006011	-1.067000E+00	  0.023006011	-1.480630E+02	  0.023006011	3.318000E+00	  0.023006011	-1.424900E+01
17	  0.023206413	-1.075000E+00	  0.023206413	-1.496090E+02	  0.023206413	3.317000E+00	  0.023206413	-1.352400E+01
18	  0.023406813	-1.083000E+00	  0.023406813	-1.511610E+02	  0.023406813	3.320000E+00	  0.023406813	-1.280200E+01
19	  0.023607215	-1.096000E+00	  0.023607215	-1.527190E+02	  0.023607215	3.337000E+00	  0.023607215	-1.208200E+01
20	  0.023807615	-1.110000E+00	  0.023807615	-1.543010E+02	  0.023807615	3.355000E+00	  0.023807615	-1.135600E+01
21	  0.024008015	-1.124000E+00	  0.024008015	-1.558900E+02	  0.024008015	3.377000E+00	  0.024008015	-1.063100E+01
22	  0.024208417	-1.134000E+00	  0.024208417	-1.575100E+02	  0.024208417	3.388000E+00	  0.024208417	-9.896000E+00
23	  0.024408817	-1.144000E+00	  0.024408817	-1.591320E+02	  0.024408817	3.399000E+00	  0.024408817	-9.165000E+00
24	  0.024609219	-1.155000E+00	  0.024609219	-1.607550E+02	  0.024609219	3.416000E+00	  0.024609219	-8.438000E+00
25	  0.024809619	-1.168000E+00	  0.024809619	-1.623920E+02	  0.024809619	3.438000E+00	  0.024809619	-7.707000E+00
26	  0.025010020	-1.183000E+00	  0.025010020	-1.640280E+02	  0.025010020	3.467000E+00	  0.025010020	-6.981000E+00
27	  0.025210422	-1.198000E+00	  0.025210422	-1.656680E+02	  0.025210422	3.499000E+00	  0.025210422	-6.255000E+00
28	  0.025410822	-1.215000E+00	  0.025410822	-1.673240E+02	  0.025410822	3.536000E+00	  0.025410822	-5.525000E+00
29	  0.025611224	-1.231000E+00	  0.025611224	-1.689890E+02	  0.025611224	3.571000E+00	  0.025611224	-4.794000E+00
30	  0.025811624	-1.247000E+00	  0.025811624	-1.706720E+02	  0.025811624	3.606000E+00	  0.025811624	-4.057000E+00
31	  0.026012026	-1.264000E+00	  0.026012026	-1.723640E+02	  0.026012026	3.648000E+00	  0.026012026	-3.318000E+00
32	  0.026212426	-1.279000E+00	  0.026212426	-1.740760E+02	  0.026212426	3.685000E+00	  0.026212426	-2.572000E+00
33	  0.026412826	-1.296000E+00	  0.026412826	-1.757890E+02	  0.026412826	3.730000E+00	  0.026412826	-1.827000E+00
34	  0.026613226	-1.316000E+00	  0.026613226	-1.774910E+02	  0.026613226	3.785000E+00	  0.026613226	-1.088000E+00
35	  0.026813626	-1.337000E+00	  0.026813626	-1.792340E+02	  0.026813626	3.840000E+00	  0.026813626	-3.320000E-01
36	  0.027014028	-1.358000E+00	  0.027014028	1.790290E+02	  0.027014028	3.903000E+00	  0.027014028	4.200000E-01
37	  0.027214428	-1.380000E+00	  0.027214428	1.772800E+02	  0.027214428	3.967000E+00	  0.027214428	1.179000E+00
38	  0.027414829	-1.403000E+00	  0.027414829	1.755390E+02	  0.027414829	4.037000E+00	  0.027414829	1.934000E+00
39	  0.027615231	-1.425000E+00	  0.027615231	1.737520E+02	  0.027615231	4.105000E+00	  0.027615231	2.710000E+00
40	  0.027815631	-1.449000E+00	  0.027815631	1.719800E+02	  0.027815631	4.183000E+00	  0.027815631	3.480000E+00
41	  0.028016033	-1.474000E+00	  0.028016033	1.701820E+02	  0.028016033	4.263000E+00	  0.028016033	4.263000E+00
42	  0.028216433	-1.499000E+00	  0.028216433	1.683770E+02	  0.028216433	4.348000E+00	  0.028216433	5.050000E+00
43	  0.028416833	-1.526000E+00	  0.028416833	1.665660E+02	  0.028416833	4.441000E+00	  0.028416833	5.842000E+00
44	  0.028617235	-1.553000E+00	  0.028617235	1.647470E+02	  0.028617235	4.537000E+00	  0.028617235	6.640000E+00
45	  0.028817635	-1.580000E+00	  0.028817635	1.629250E+02	  0.028817635	4.637000E+00	  0.028817635	7.442000E+00
46	  0.029018037	-1.609000E+00	  0.029018037	1.611120E+02	  0.029018037	4.745000E+00	  0.029018037	8.243000E+00
47	  0.029218437	-1.639000E+00	  0.029218437	1.592620E+02	  0.029218437	4.859000E+00	  0.029218437	9.064000E+00
48	  0.029418837	-1.669000E+00	  0.029418837	1.574130E+02	  0.029418837	4.979000E+00	  0.029418837	9.889000E+00
49	  0.029619239	-1.699000E+00	  0.029619239	1.555370E+02	  0.029619239	5.102000E+00	  0.029619239	1.073000E+01
50	  0.029819639	-1.731000E+00	  0.029819639	1.536550E+02	  0.029819639	5.236000E+00	  0.029819639	1.158000E+01
51	  0.030020041	-1.762000E+00	  0.030020041	1.517800E+02	  0.030020041	5.371000E+00	  0.030020041	1.243100E+01
52	  0.030220442	-1.794000E+00	  0.030220442	1.498830E+02	  0.030220442	5.516000E+00	  0.030220442	1.329900E+01
53	  0.030420844	-1.827000E+00	  0.030420844	1.480050E+02	  0.030420844	5.664000E+00	  0.030420844	1.416400E+01
54	  0.030621244	-1.861000E+00	  0.030621244	1.461130E+02	  0.030621244	5.826000E+00	  0.030621244	1.504300E+01
55	  0.030821642	-1.897000E+00	  0.030821642	1.442210E+02	  0.030821642	5.998000E+00	  0.030821642	1.592800E+01
56	  0.031022044	-1.932000E+00	  0.031022044	1.423010E+02	  0.031022044	6.176000E+00	  0.031022044	1.683500E+01
57	  0.031222444	-1.959000E+00	  0.031222444	1.403750E+02	  0.031222444	6.334000E+00	  0.031222444	1.775600E+01
58	  0.031422846	-1.997000E+00	  0.031422846	1.384230E+02	  0.031422846	6.536000E+00	  0.031422846	1.869700E+01
59	  0.031623244	-2.036000E+00	  0.031623244	1.364600E+02	  0.031623244	6.750000E+00	  0.031623244	1.965300E+01
60	  0.031823646	-2.071000E+00	  0.031823646	1.345050E+02	  0.031823646	6.960000E+00	  0.031823646	2.061700E+01
61	  0.032024048	-2.112000E+00	  0.032024048	1.325280E+02	  0.032024048	7.201000E+00	  0.032024048	2.160200E+01
62	  0.032224450	-2.153000E+00	  0.032224450	1.305690E+02	  0.032224450	7.448000E+00	  0.032224450	2.259000E+01
63	  0.032424849	-2.193000E+00	  0.032424849	1.285720E+02	  0.032424849	7.709000E+00	  0.032424849	2.361100E+01
64	  0.032625251	-2.234000E+00	  0.032625251	1.265800E+02	  0.032625251	7.983000E+00	  0.032625251	2.464300E+01
65	  0.032825653	-2.273000E+00	  0.032825653	1.245720E+02	  0.032825653	8.261000E+00	  0.032825653	2.570100E+01
66	  0.033026051	-2.315000E+00	  0.033026051	1.225550E+02	  0.033026051	8.569000E+00	  0.033026051	2.677700E+01
67	  0.033226453	-2.358000E+00	  0.033226453	1.205340E+02	  0.033226453	8.894000E+00	  0.033226453	2.787100E+01
68	  0.033426855	-2.399000E+00	  0.033426855	1.185150E+02	  0.033426855	9.230000E+00	  0.033426855	2.898400E+01
69	  0.033627257	-2.443000E+00	  0.033627257	1.165040E+02	  0.033627257	9.589000E+00	  0.033627257	3.010800E+01
70	  0.033827655	-2.486000E+00	  0.033827655	1.144810E+02	  0.033827655	9.968000E+00	  0.033827655	3.126000E+01
71	  0.034028057	-2.530000E+00	  0.034028057	1.124700E+02	  0.034028057	1.036700E+01	  0.034028057	3.242500E+01
72	  0.034228459	-2.575000E+00	  0.034228459	1.104350E+02	  0.034228459	1.079500E+01	  0.034228459	3.362400E+01
73	  0.034428857	-2.623000E+00	  0.034428857	1.083700E+02	  0.034428857	1.126500E+01	  0.034428857	3.486100E+01
74	  0.034629259	-2.669000E+00	  0.034629259	1.062910E+02	  0.034629259	1.175500E+01	  0.034629259	3.613400E+01
75	  0.034829661	-2.715000E+00	  0.034829661	1.042490E+02	  0.034829661	1.226400E+01	  0.034829661	3.741000E+01
76	  0.035030060	-2.766000E+00	  0.035030060	1.021900E+02	  0.035030060	1.282800E+01	  0.035030060	3.871600E+01
77	  0.035230462	-2.813000E+00	  0.035230462	1.001330E+02	  0.035230462	1.341200E+01	  0.035230462	4.005300E+01
78	  0.035430863	-2.862000E+00	  0.035430863	9.806500E+01	  0.035430863	1.403700E+01	  0.035430863	4.142300E+01
79	  0.035631265	-2.910000E+00	  0.035631265	9.600300E+01	  0.035631265	1.470000E+01	  0.035631265	4.282000E+01
80	  0.035831664	-2.960000E+00	  0.035831664	9.391800E+01	  0.035831664	1.541400E+01	  0.035831664	4.426300E+01
81	  0.036032066	-3.008000E+00	  0.036032066	9.186400E+01	  0.036032066	1.615900E+01	  0.036032066	4.571700E+01
82	  0.036232468	-3.057000E+00	  0.036232468	8.976800E+01	  0.036232468	1.697100E+01	  0.036232468	4.723400E+01
83	  0.036432866	-3.105000E+00	  0.036432866	8.768500E+01	  0.036432866	1.782900E+01	  0.036432866	4.877700E+01
84	  0.036633268	-3.147000E+00	  0.036633268	8.559000E+01	  0.036633268	1.871500E+01	  0.036633268	5.038000E+01
85	  0.036833670	-3.197000E+00	  0.036833670	8.348900E+01	  0.036833670	1.970800E+01	  0.036833670	5.201000E+01
86	  0.037034072	-3.240000E+00	  0.037034072	8.138000E+01	  0.037034072	2.073500E+01	  0.037034072	5.370300E+01
87	  0.037234470	-3.277000E+00	  0.037234470	7.924500E+01	  0.037234470	2.181800E+01	  0.037234470	5.547600E+01
88	  0.037434869	-3.315000E+00	  0.037434869	7.708900E+01	  0.037434869	2.299200E+01	  0.037434869	5.731600E+01
89	  0.037635271	-3.350000E+00	  0.037635271	7.486900E+01	  0.037635271	2.427700E+01	  0.037635271	5.927200E+01
90	  0.037835669	-3.391000E+00	  0.037835669	7.255000E+01	  0.037835669	2.576000E+01	  0.037835669	6.136100E+01
91	  0.038036071	-3.446000E+00	  0.038036071	7.016400E+01	  0.038036071	2.750300E+01	  0.038036071	6.352000E+01
92	  0.038236473	-3.520000E+00	  0.038236473	6.782000E+01	  0.038236473	2.950600E+01	  0.038236473	6.560300E+01
93	  0.038436871	-3.600000E+00	  0.038436871	6.554500E+01	  0.038436871	3.167800E+01	  0.038436871	6.761000E+01
94	  0.038637273	-3.681000E+00	  0.038637273	6.336700E+01	  0.038637273	3.396100E+01	  0.038637273	6.951800E+01
95	  0.038837675	-3.753000E+00	  0.038837675	6.123300E+01	  0.038837675	3.632200E+01	  0.038837675	7.142800E+01
96	  0.039038073	-3.818000E+00	  0.039038073	5.911500E+01	  0.039038073	3.880300E+01	  0.039038073	7.336500E+01
97	  0.039238475	-3.882000E+00	  0.039238475	5.702400E+01	  0.039238475	4.145300E+01	  0.039238475	7.526400E+01
98	  0.039438877	-3.943000E+00	  0.039438877	5.491000E+01	  0.039438877	4.432100E+01	  0.039438877	7.719200E+01
99	  0.039639279	-4.002000E+00	  0.039639279	5.281500E+01	  0.039639279	4.737900E+01	  0.039639279	7.908700E+01
100	  0.039839678	-4.056000E+00	  0.039839678	5.071700E+01	  0.039839678	5.065600E+01	  0.039839678	8.098000E+01
101	  0.040040080	-4.110000E+00	  0.040040080	4.858500E+01	  0.040040080	5.425200E+01	  0.040040080	8.285400E+01
102	  0.040240481	-4.161000E+00	  0.040240481	4.648000E+01	  0.040240481	5.808200E+01	  0.040240481	8.464000E+01
103	  0.040440880	-4.210000E+00	  0.040440880	4.436700E+01	  0.040440880	6.222700E+01	  0.040440880	8.633800E+01
104	  0.040641282	-4.262000E+00	  0.040641282	4.227900E+01	  0.040641282	6.667000E+01	  0.040641282	8.783400E+01
105	  0.040841684	-4.311000E+00	  0.040841684	4.018200E+01	  0.040841684	7.146000E+01	  0.040841684	8.917500E+01
106	  0.041042086	-4.362000E+00	  0.041042086	3.810100E+01	  0.041042086	7.658100E+01	  0.041042086	9.024100E+01
107	  0.041242484	-4.413000E+00	  0.041242484	3.600800E+01	  0.041242484	8.209400E+01	  0.041242484	9.101600E+01
108	  0.041442886	-4.464000E+00	  0.041442886	3.390900E+01	  0.041442886	8.798800E+01	  0.041442886	9.142400E+01
109	  0.041643288	-4.512000E+00	  0.041643288	3.181100E+01	  0.041643288	9.423100E+01	  0.041643288	9.144500E+01
110	  0.041843686	-4.559000E+00	  0.041843686	2.970700E+01	  0.041843686	1.008390E+02	  0.041843686	9.096500E+01
111	  0.042044088	-4.605000E+00	  0.042044088	2.763300E+01	  0.042044088	1.076550E+02	  0.042044088	8.990400E+01
112	  0.042244490	-4.653000E+00	  0.042244490	2.556900E+01	  0.042244490	1.146810E+02	  0.042244490	8.811600E+01
113	  0.042444889	-4.700000E+00	  0.042444889	2.351900E+01	  0.042444889	1.218210E+02	  0.042444889	8.559900E+01
114	  0.042645290	-4.749000E+00	  0.042645290	2.146500E+01	  0.042645290	1.290240E+02	  0.042645290	8.219100E+01
115	  0.042845692	-4.794000E+00	  0.042845692	1.941700E+01	  0.042845692	1.361690E+02	  0.042845692	7.799200E+01
116	  0.043046094	-4.839000E+00	  0.043046094	1.737200E+01	  0.043046094	1.431120E+02	  0.043046094	7.286300E+01
117	  0.043246493	-4.886000E+00	  0.043246493	1.531700E+01	  0.043246493	1.496790E+02	  0.043246493	6.670400E+01
118	  0.043446895	-4.929000E+00	  0.043446895	1.327900E+01	  0.043446895	1.557320E+02	  0.043446895	5.977000E+01
119	  0.043647297	-4.970000E+00	  0.043647297	1.125500E+01	  0.043647297	1.610800E+02	  0.043647297	5.205500E+01
120	  0.043847695	-5.011000E+00	  0.043847695	9.230000E+00	  0.043847695	1.655600E+02	  0.043847695	4.356400E+01
121	  0.044048097	-5.051000E+00	  0.044048097	7.212000E+00	  0.044048097	1.690830E+02	  0.044048097	3.452400E+01
122	  0.044248499	-5.091000E+00	  0.044248499	5.213000E+00	  0.044248499	1.714430E+02	  0.044248499	2.511400E+01
123	  0.044448901	-5.130000E+00	  0.044448901	3.211000E+00	  0.044448901	1.726850E+02	  0.044448901	1.546100E+01
124	  0.044649299	-5.168000E+00	  0.044649299	1.221000E+00	  0.044649299	1.727590E+02	  0.044649299	5.839000E+00
125	  0.044849701	-5.204000E+00	  0.044849701	-7.480000E-01	  0.044849701	1.717790E+02	  0.044849701	-3.531000E+00
126	  0.045050103	-5.239000E+00	  0.045050103	-2.733000E+00	  0.045050103	1.697340E+02	  0.045050103	-1.263900E+01
127	  0.045250501	-5.271000E+00	  0.045250501	-4.706000E+00	  0.045250501	1.668290E+02	  0.045250501	-2.122500E+01
128	  0.045450903	-5.307000E+00	  0.045450903	-6.664000E+00	  0.045450903	1.630000E+02	  0.045450903	-2.911600E+01
129	  0.045651305	-5.336000E+00	  0.045651305	-8.614000E+00	  0.045651305	1.586490E+02	  0.045651305	-3.634700E+01
130	  0.045851704	-5.368000E+00	  0.045851704	-1.056200E+01	  0.045851704	1.537010E+02	  0.045851704	-4.280800E+01
131	  0.046052102	-5.395000E+00	  0.046052102	-1.251300E+01	  0.046052102	1.484310E+02	  0.046052102	-4.859100E+01
132	  0.046252504	-5.426000E+00	  0.046252504	-1.440600E+01	  0.046252504	1.429430E+02	  0.046252504	-5.338500E+01
133	  0.046452906	-5.454000E+00	  0.046452906	-1.630800E+01	  0.046452906	1.373190E+02	  0.046452906	-5.754500E+01
134	  0.046653304	-5.480000E+00	  0.046653304	-1.821500E+01	  0.046653304	1.316440E+02	  0.046653304	-6.108300E+01
135	  0.046853706	-5.508000E+00	  0.046853706	-2.010900E+01	  0.046853706	1.259910E+02	  0.046853706	-6.393100E+01
136	  0.047054108	-5.533000E+00	  0.047054108	-2.199000E+01	  0.047054108	1.204770E+02	  0.047054108	-6.624000E+01
137	  0.047254506	-5.559000E+00	  0.047254506	-2.385700E+01	  0.047254506	1.151180E+02	  0.047254506	-6.800800E+01
138	  0.047454908	-5.581000E+00	  0.047454908	-2.574900E+01	  0.047454908	1.098720E+02	  0.047454908	-6.940000E+01
139	  0.047655310	-5.604000E+00	  0.047655310	-2.759900E+01	  0.047655310	1.049160E+02	  0.047655310	-7.034600E+01
140	  0.047855709	-5.625000E+00	  0.047855709	-2.941000E+01	  0.047855709	1.002610E+02	  0.047855709	-7.095500E+01
141	  0.048056111	-5.648000E+00	  0.048056111	-3.122100E+01	  0.048056111	9.580200E+01	  0.048056111	-7.124000E+01
142	  0.048256513	-5.671000E+00	  0.048256513	-3.303700E+01	  0.048256513	9.153900E+01	  0.048256513	-7.125900E+01
143	  0.048456915	-5.692000E+00	  0.048456915	-3.483200E+01	  0.048456915	8.753400E+01	  0.048456915	-7.109700E+01
144	  0.048657313	-5.713000E+00	  0.048657313	-3.664700E+01	  0.048657313	8.369300E+01	  0.048657313	-7.072500E+01
145	  0.048857715	-5.730000E+00	  0.048857715	-3.841600E+01	  0.048857715	8.014100E+01	  0.048857715	-7.026900E+01
146	  0.049058117	-5.748000E+00	  0.049058117	-4.020000E+01	  0.049058117	7.675000E+01	  0.049058117	-6.965800E+01
147	  0.049258515	-5.763000E+00	  0.049258515	-4.196700E+01	  0.049258515	7.356500E+01	  0.049258515	-6.896700E+01
148	  0.049458917	-5.780000E+00	  0.049458917	-4.369600E+01	  0.049458917	7.062200E+01	  0.049458917	-6.816300E+01
149	  0.049659319	-5.801000E+00	  0.049659319	-4.543700E+01	  0.049659319	6.782800E+01	  0.049659319	-6.724200E+01
150	  0.049859721	-5.818000E+00	  0.049859721	-4.714900E+01	  0.049859721	6.522300E+01	  0.049859721	-6.631000E+01
151	  0.050060119	-5.830000E+00	  0.050060119	-4.886300E+01	  0.050060119	6.274200E+01	  0.050060119	-6.536900E+01
152	  0.050260521	-5.849000E+00	  0.050260521	-5.059300E+01	  0.050260521	6.039300E+01	  0.050260521	-6.432200E+01
153	  0.050460923	-5.860000E+00	  0.050460923	-5.227600E+01	  0.050460923	5.821100E+01	  0.050460923	-6.332200E+01
154	  0.050661322	-5.869000E+00	  0.050661322	-5.397200E+01	  0.050661322	5.611700E+01	  0.050661322	-6.231000E+01
155	  0.050861724	-5.881000E+00	  0.050861724	-5.563400E+01	  0.050861724	5.418600E+01	  0.050861724	-6.126400E+01
156	  0.051062126	-5.894000E+00	  0.051062126	-5.732800E+01	  0.051062126	5.232600E+01	  0.051062126	-6.017400E+01
157	  0.051262524	-5.908000E+00	  0.051262524	-5.896200E+01	  0.051262524	5.062600E+01	  0.051262524	-5.910700E+01
158	  0.051462926	-5.920000E+00	  0.051462926	-6.060900E+01	  0.051462926	4.900000E+01	  0.051462926	-5.803000E+01
159	  0.051663328	-5.929000E+00	  0.051663328	-6.222600E+01	  0.051663328	4.746700E+01	  0.051663328	-5.699600E+01
160	  0.051863730	-5.938000E+00	  0.051863730	-6.385500E+01	  0.051863730	4.600600E+01	  0.051863730	-5.594000E+01
161	  0.052064128	-5.944000E+00	  0.052064128	-6.546600E+01	  0.052064128	4.461600E+01	  0.052064128	-5.491700E+01
162	  0.052264530	-5.947000E+00	  0.052264530	-6.706200E+01	  0.052264530	4.329700E+01	  0.052264530	-5.391600E+01
163	  0.052464932	-5.955000E+00	  0.052464932	-6.864500E+01	  0.052464932	4.207000E+01	  0.052464932	-5.289800E+01
164	  0.052665330	-5.960000E+00	  0.052665330	-7.022500E+01	  0.052665330	4.089000E+01	  0.052665330	-5.190400E+01
165	  0.052865732	-5.970000E+00	  0.052865732	-7.178400E+01	  0.052865732	3.980400E+01	  0.052865732	-5.089700E+01
166	  0.053066134	-5.978000E+00	  0.053066134	-7.332000E+01	  0.053066134	3.877100E+01	  0.053066134	-4.992700E+01
167	  0.053266536	-5.982000E+00	  0.053266536	-7.485700E+01	  0.053266536	3.777200E+01	  0.053266536	-4.897500E+01
168	  0.053466935	-5.990000E+00	  0.053466935	-7.641200E+01	  0.053466935	3.682400E+01	  0.053466935	-4.800100E+01
169	  0.053667337	-5.994000E+00	  0.053667337	-7.790600E+01	  0.053667337	3.593800E+01	  0.053667337	-4.708900E+01
170	  0.053867739	-6.001000E+00	  0.053867739	-7.942700E+01	  0.053867739	3.508600E+01	  0.053867739	-4.615600E+01
171	  0.054068137	-6.004000E+00	  0.054068137	-8.092100E+01	  0.054068137	3.427100E+01	  0.054068137	-4.526200E+01
172	  0.054268539	-6.009000E+00	  0.054268539	-8.241000E+01	  0.054268539	3.350000E+01	  0.054268539	-4.437200E+01
173	  0.054468941	-6.015000E+00	  0.054468941	-8.386000E+01	  0.054468941	3.278800E+01	  0.054468941	-4.350800E+01
174	  0.054669335	-6.019000E+00	  0.054669335	-8.535700E+01	  0.054669335	3.207100E+01	  0.054669335	-4.263300E+01
175	  0.054869737	-6.024000E+00	  0.054869737	-8.678900E+01	  0.054869737	3.142200E+01	  0.054869737	-4.179800E+01
176	  0.055070139	-6.030000E+00	  0.055070139	-8.821200E+01	  0.055070139	3.080500E+01	  0.055070139	-4.097400E+01
177	  0.055270538	-6.037000E+00	  0.055270538	-8.963300E+01	  0.055270538	3.021500E+01	  0.055270538	-4.015800E+01
178	  0.055470940	-6.039000E+00	  0.055470940	-9.105700E+01	  0.055470940	2.963300E+01	  0.055470940	-3.936000E+01
179	  0.055671342	-6.041000E+00	  0.055671342	-9.245700E+01	  0.055671342	2.908000E+01	  0.055671342	-3.858400E+01
180	  0.055871744	-6.042000E+00	  0.055871744	-9.385700E+01	  0.055871744	2.854400E+01	  0.055871744	-3.781700E+01
181	  0.056072142	-6.045000E+00	  0.056072142	-9.524700E+01	  0.056072142	2.804200E+01	  0.056072142	-3.705700E+01
182	  0.056272544	-6.045000E+00	  0.056272544	-9.660000E+01	  0.056272544	2.756200E+01	  0.056272544	-3.633000E+01
183	  0.056472946	-6.049000E+00	  0.056472946	-9.797300E+01	  0.056472946	2.710500E+01	  0.056472946	-3.559100E+01
184	  0.056673344	-6.052000E+00	  0.056673344	-9.930600E+01	  0.056673344	2.667400E+01	  0.056673344	-3.488300E+01
185	  0.056873746	-6.051000E+00	  0.056873746	-1.006320E+02	  0.056873746	2.624600E+01	  0.056873746	-3.419300E+01
186	  0.057074148	-6.050000E+00	  0.057074148	-1.019710E+02	  0.057074148	2.583200E+01	  0.057074148	-3.350100E+01
187	  0.057274550	-6.050000E+00	  0.057274550	-1.032970E+02	  0.057274550	2.543900E+01	  0.057274550	-3.282000E+01
188	  0.057474948	-6.047000E+00	  0.057474948	-1.046280E+02	  0.057474948	2.504800E+01	  0.057474948	-3.214700E+01
189	  0.057675350	-6.047000E+00	  0.057675350	-1.059330E+02	  0.057675350	2.468500E+01	  0.057675350	-3.148900E+01
190	  0.057875752	-6.044000E+00	  0.057875752	-1.072330E+02	  0.057875752	2.433000E+01	  0.057875752	-3.084300E+01
191	  0.058076151	-6.042000E+00	  0.058076151	-1.085540E+02	  0.058076151	2.398500E+01	  0.058076151	-3.018900E+01
192	  0.058276553	-6.039000E+00	  0.058276553	-1.098440E+02	  0.058276553	2.365500E+01	  0.058276553	-2.955700E+01
193	  0.058476955	-6.034000E+00	  0.058476955	-1.111010E+02	  0.058476955	2.333600E+01	  0.058476955	-2.895100E+01
194	  0.058677353	-6.031000E+00	  0.058677353	-1.123980E+02	  0.058677353	2.302500E+01	  0.058677353	-2.832600E+01
195	  0.058877755	-6.027000E+00	  0.058877755	-1.136890E+02	  0.058877755	2.272400E+01	  0.058877755	-2.770900E+01
196	  0.059078157	-6.019000E+00	  0.059078157	-1.149500E+02	  0.059078157	2.242600E+01	  0.059078157	-2.711800E+01
197	  0.059278559	-6.013000E+00	  0.059278559	-1.162210E+02	  0.059278559	2.214200E+01	  0.059278559	-2.652200E+01
198	  0.059478957	-6.008000E+00	  0.059478957	-1.175090E+02	  0.059478957	2.186600E+01	  0.059478957	-2.592100E+01
199	  0.059679359	-6.004000E+00	  0.059679359	-1.187690E+02	  0.059679359	2.161000E+01	  0.059679359	-2.533500E+01
200	  0.059879761	-6.000000E+00	  0.059879761	-1.200070E+02	  0.059879761	2.136600E+01	  0.059879761	-2.476400E+01
201	  0.060080159	-5.997000E+00	  0.060080159	-1.212520E+02	  0.060080159	2.113100E+01	  0.060080159	-2.419200E+01
202	  0.060280561	-5.994000E+00	  0.060280561	-1.224930E+02	  0.060280561	2.090300E+01	  0.060280561	-2.362600E+01
203	  0.060480963	-5.992000E+00	  0.060480963	-1.237200E+02	  0.060480963	2.068900E+01	  0.060480963	-2.306900E+01
204	  0.060681365	-5.991000E+00	  0.060681365	-1.249640E+02	  0.060681365	2.048200E+01	  0.060681365	-2.250700E+01
205	  0.060881764	-5.987000E+00	  0.060881764	-1.261690E+02	  0.060881764	2.027900E+01	  0.060881764	-2.196900E+01
206	  0.061082166	-5.980000E+00	  0.061082166	-1.274030E+02	  0.061082166	2.007100E+01	  0.061082166	-2.142300E+01
207	  0.061282568	-5.978000E+00	  0.061282568	-1.286150E+02	  0.061282568	1.988600E+01	  0.061282568	-2.088600E+01
208	  0.061482966	-5.975000E+00	  0.061482966	-1.298140E+02	  0.061482966	1.970600E+01	  0.061482966	-2.035900E+01
209	  0.061683368	-5.973000E+00	  0.061683368	-1.310140E+02	  0.061683368	1.953600E+01	  0.061683368	-1.983300E+01
210	  0.061883770	-5.974000E+00	  0.061883770	-1.321980E+02	  0.061883770	1.938200E+01	  0.061883770	-1.931400E+01
211	  0.062084168	-5.974000E+00	  0.062084168	-1.333730E+02	  0.062084168	1.923000E+01	  0.062084168	-1.880400E+01
212	  0.062284570	-5.973000E+00	  0.062284570	-1.345610E+02	  0.062284570	1.907900E+01	  0.062284570	-1.829200E+01
213	  0.062484972	-5.963000E+00	  0.062484972	-1.356850E+02	  0.062484972	1.891700E+01	  0.062484972	-1.781500E+01
214	  0.062685370	-5.958000E+00	  0.062685370	-1.368650E+02	  0.062685370	1.876600E+01	  0.062685370	-1.731400E+01
215	  0.062885776	-5.960000E+00	  0.062885776	-1.380140E+02	  0.062885776	1.864500E+01	  0.062885776	-1.682200E+01
216	  0.063086174	-5.962000E+00	  0.063086174	-1.391840E+02	  0.063086174	1.852400E+01	  0.063086174	-1.632500E+01
217	  0.063286573	-5.959000E+00	  0.063286573	-1.403210E+02	  0.063286573	1.839800E+01	  0.063286573	-1.584800E+01
218	  0.063486971	-5.955000E+00	  0.063486971	-1.414490E+02	  0.063486971	1.827500E+01	  0.063486971	-1.537600E+01
219	  0.063687377	-5.958000E+00	  0.063687377	-1.425740E+02	  0.063687377	1.817300E+01	  0.063687377	-1.490400E+01
220	  0.063887775	-5.955000E+00	  0.063887775	-1.436830E+02	  0.063887775	1.806100E+01	  0.063887775	-1.444400E+01
221	  0.064088173	-5.955000E+00	  0.064088173	-1.448270E+02	  0.064088173	1.796100E+01	  0.064088173	-1.396800E+01
222	  0.064288579	-5.958000E+00	  0.064288579	-1.459530E+02	  0.064288579	1.787100E+01	  0.064288579	-1.350200E+01
223	  0.064488977	-5.959000E+00	  0.064488977	-1.470790E+02	  0.064488977	1.778100E+01	  0.064488977	-1.303800E+01
224	  0.064689375	-5.961000E+00	  0.064689375	-1.481800E+02	  0.064689375	1.770000E+01	  0.064689375	-1.258500E+01
225	  0.064889781	-5.964000E+00	  0.064889781	-1.492890E+02	  0.064889781	1.762200E+01	  0.064889781	-1.213100E+01
226	  0.065090179	-5.964000E+00	  0.065090179	-1.503770E+02	  0.065090179	1.754300E+01	  0.065090179	-1.168800E+01
227	  0.065290578	-5.969000E+00	  0.065290578	-1.514600E+02	  0.065290578	1.748200E+01	  0.065290578	-1.124500E+01
228	  0.065490983	-5.970000E+00	  0.065490983	-1.525420E+02	  0.065490983	1.741200E+01	  0.065490983	-1.080800E+01
229	  0.065691382	-5.974000E+00	  0.065691382	-1.536130E+02	  0.065691382	1.735400E+01	  0.065691382	-1.037400E+01
230	  0.065891780	-5.979000E+00	  0.065891780	-1.547010E+02	  0.065891780	1.730000E+01	  0.065891780	-9.935000E+00
231	  0.066092186	-5.980000E+00	  0.066092186	-1.557470E+02	  0.066092186	1.724200E+01	  0.066092186	-9.515000E+00
232	  0.066292584	-5.985000E+00	  0.066292584	-1.568020E+02	  0.066292584	1.719400E+01	  0.066292584	-9.092000E+00
233	  0.066492982	-5.991000E+00	  0.066492982	-1.578660E+02	  0.066492982	1.715400E+01	  0.066492982	-8.666000E+00
234	  0.066693388	-5.992000E+00	  0.066693388	-1.589170E+02	  0.066693388	1.710400E+01	  0.066693388	-8.247000E+00
235	  0.066893786	-5.999000E+00	  0.066893786	-1.599410E+02	  0.066893786	1.707200E+01	  0.066893786	-7.839000E+00
236	  0.067094192	-6.004000E+00	  0.067094192	-1.609600E+02	  0.067094192	1.703900E+01	  0.067094192	-7.434000E+00
237	  0.067294590	-6.007000E+00	  0.067294590	-1.619890E+02	  0.067294590	1.700200E+01	  0.067294590	-7.027000E+00
238	  0.067494988	-6.010000E+00	  0.067494988	-1.630160E+02	  0.067494988	1.697000E+01	  0.067494988	-6.621000E+00
239	  0.067695394	-6.013000E+00	  0.067695394	-1.640100E+02	  0.067695394	1.694000E+01	  0.067695394	-6.230000E+00
240	  0.067895792	-6.018000E+00	  0.067895792	-1.650300E+02	  0.067895792	1.691600E+01	  0.067895792	-5.828000E+00
241	  0.068096191	-6.025000E+00	  0.068096191	-1.660430E+02	  0.068096191	1.690100E+01	  0.068096191	-5.429000E+00
242	  0.068296596	-6.031000E+00	  0.068296596	-1.670350E+02	  0.068296596	1.688500E+01	  0.068296596	-5.040000E+00
243	  0.068496995	-6.033000E+00	  0.068496995	-1.680020E+02	  0.068496995	1.686300E+01	  0.068496995	-4.662000E+00
244	  0.068697393	-6.038000E+00	  0.068697393	-1.689730E+02	  0.068697393	1.684900E+01	  0.068697393	-4.282000E+00
245	  0.068897791	-6.040000E+00	  0.068897791	-1.699590E+02	  0.068897791	1.683000E+01	  0.068897791	-3.897000E+00
246	  0.069098189	-6.040000E+00	  0.069098189	-1.709330E+02	  0.069098189	1.681100E+01	  0.069098189	-3.518000E+00
247	  0.069298595	-6.042000E+00	  0.069298595	-1.718670E+02	  0.069298595	1.679700E+01	  0.069298595	-3.155000E+00
248	  0.069498993	-6.043000E+00	  0.069498993	-1.728570E+02	  0.069498993	1.678200E+01	  0.069498993	-2.770000E+00
249	  0.069699399	-6.049000E+00	  0.069699399	-1.738380E+02	  0.069699399	1.678400E+01	  0.069699399	-2.388000E+00
250	  0.069899797	-6.048000E+00	  0.069899797	-1.747950E+02	  0.069899797	1.676700E+01	  0.069899797	-2.017000E+00
251	  0.070100196	-6.053000E+00	  0.070100196	-1.757130E+02	  0.070100196	1.677000E+01	  0.070100196	-1.660000E+00
252	  0.070300601	-6.054000E+00	  0.070300601	-1.766750E+02	  0.070300601	1.676500E+01	  0.070300601	-1.288000E+00
253	  0.070501000	-6.053000E+00	  0.070501000	-1.776060E+02	  0.070501000	1.675600E+01	  0.070501000	-9.270000E-01
254	  0.070701398	-6.054000E+00	  0.070701398	-1.785220E+02	  0.070701398	1.675500E+01	  0.070701398	-5.720000E-01
255	  0.070901804	-6.056000E+00	  0.070901804	-1.794680E+02	  0.070901804	1.675800E+01	  0.070901804	-2.050000E-01
256	  0.071102202	-6.059000E+00	  0.071102202	1.795980E+02	  0.071102202	1.676700E+01	  0.071102202	1.550000E-01
257	  0.071302600	-6.059000E+00	  0.071302600	1.786510E+02	  0.071302600	1.676700E+01	  0.071302600	5.220000E-01
258	  0.071503006	-6.065000E+00	  0.071503006	1.777280E+02	  0.071503006	1.678700E+01	  0.071503006	8.790000E-01
259	  0.071703404	-6.067000E+00	  0.071703404	1.768100E+02	  0.071703404	1.679900E+01	  0.071703404	1.234000E+00
260	  0.071903802	-6.074000E+00	  0.071903802	1.758870E+02	  0.071903802	1.682400E+01	  0.071903802	1.592000E+00
261	  0.072104208	-6.075000E+00	  0.072104208	1.749600E+02	  0.072104208	1.683600E+01	  0.072104208	1.951000E+00
262	  0.072304606	-6.078000E+00	  0.072304606	1.740290E+02	  0.072304606	1.685400E+01	  0.072304606	2.311000E+00
263	  0.072505005	-6.082000E+00	  0.072505005	1.731080E+02	  0.072505005	1.687800E+01	  0.072505005	2.668000E+00
264	  0.072705410	-6.085000E+00	  0.072705410	1.722040E+02	  0.072705410	1.690000E+01	  0.072705410	3.018000E+00
265	  0.072905809	-6.087000E+00	  0.072905809	1.712660E+02	  0.072905809	1.692500E+01	  0.072905809	3.382000E+00
266	  0.073106214	-6.096000E+00	  0.073106214	1.703540E+02	  0.073106214	1.696700E+01	  0.073106214	3.735000E+00
267	  0.073306613	-6.103000E+00	  0.073306613	1.694280E+02	  0.073306613	1.700500E+01	  0.073306613	4.094000E+00
268	  0.073507011	-6.111000E+00	  0.073507011	1.685260E+02	  0.073507011	1.704900E+01	  0.073507011	4.444000E+00
269	  0.073707417	-6.116000E+00	  0.073707417	1.675960E+02	  0.073707417	1.708900E+01	  0.073707417	4.804000E+00
270	  0.073907815	-6.121000E+00	  0.073907815	1.666830E+02	  0.073907815	1.712800E+01	  0.073907815	5.160000E+00
271	  0.074108213	-6.128000E+00	  0.074108213	1.657690E+02	  0.074108213	1.717500E+01	  0.074108213	5.514000E+00
272	  0.074308619	-6.133000E+00	  0.074308619	1.648800E+02	  0.074308619	1.721700E+01	  0.074308619	5.860000E+00
273	  0.074509017	-6.140000E+00	  0.074509017	1.639600E+02	  0.074509017	1.727000E+01	  0.074509017	6.218000E+00
274	  0.074709415	-6.150000E+00	  0.074709415	1.630330E+02	  0.074709415	1.733200E+01	  0.074709415	6.578000E+00
275	  0.074909821	-6.155000E+00	  0.074909821	1.621570E+02	  0.074909821	1.737900E+01	  0.074909821	6.920000E+00
276	  0.075110219	-6.166000E+00	  0.075110219	1.612430E+02	  0.075110219	1.744900E+01	  0.075110219	7.275000E+00
277	  0.075310618	-6.173000E+00	  0.075310618	1.603540E+02	  0.075310618	1.750800E+01	  0.075310618	7.622000E+00
278	  0.075511023	-6.179000E+00	  0.075511023	1.594670E+02	  0.075511023	1.756400E+01	  0.075511023	7.969000E+00
279	  0.075711422	-6.182000E+00	  0.075711422	1.585680E+02	  0.075711422	1.761700E+01	  0.075711422	8.323000E+00
280	  0.075911827	-6.191000E+00	  0.075911827	1.576940E+02	  0.075911827	1.768600E+01	  0.075911827	8.664000E+00
281	  0.076112226	-6.195000E+00	  0.076112226	1.568220E+02	  0.076112226	1.774400E+01	  0.076112226	9.008000E+00
282	  0.076312624	-6.206000E+00	  0.076312624	1.559170E+02	  0.076312624	1.782500E+01	  0.076312624	9.362000E+00
283	  0.076513030	-6.213000E+00	  0.076513030	1.550740E+02	  0.076513030	1.789200E+01	  0.076513030	9.693000E+00
284	  0.076713428	-6.222000E+00	  0.076713428	1.541590E+02	  0.076713428	1.797400E+01	  0.076713428	1.005300E+01
285	  0.076913826	-6.233000E+00	  0.076913826	1.533150E+02	  0.076913826	1.805600E+01	  0.076913826	1.038400E+01
286	  0.077114232	-6.240000E+00	  0.077114232	1.524470E+02	  0.077114232	1.813400E+01	  0.077114232	1.072700E+01
287	  0.077314630	-6.250000E+00	  0.077314630	1.516040E+02	  0.077314630	1.821700E+01	  0.077314630	1.105900E+01
288	  0.077515028	-6.258000E+00	  0.077515028	1.507530E+02	  0.077515028	1.829900E+01	  0.077515028	1.139600E+01
289	  0.077715434	-6.269000E+00	  0.077715434	1.499130E+02	  0.077715434	1.839200E+01	  0.077715434	1.172700E+01
290	  0.077915832	-6.276000E+00	  0.077915832	1.490500E+02	  0.077915832	1.847500E+01	  0.077915832	1.207100E+01
291	  0.078116231	-6.286000E+00	  0.078116231	1.482210E+02	  0.078116231	1.856600E+01	  0.078116231	1.239900E+01
292	  0.078316636	-6.298000E+00	  0.078316636	1.473790E+02	  0.078316636	1.866700E+01	  0.078316636	1.273200E+01
293	  0.078517035	-6.308000E+00	  0.078517035	1.465380E+02	  0.078517035	1.876500E+01	  0.078517035	1.306700E+01
294	  0.078717433	-6.321000E+00	  0.078717433	1.457160E+02	  0.078717433	1.887300E+01	  0.078717433	1.339200E+01
295	  0.078917839	-6.333000E+00	  0.078917839	1.448910E+02	  0.078917839	1.897800E+01	  0.078917839	1.372000E+01
296	  0.079118237	-6.348000E+00	  0.079118237	1.440760E+02	  0.079118237	1.909200E+01	  0.079118237	1.404200E+01
297	  0.079318643	-6.362000E+00	  0.079318643	1.432690E+02	  0.079318643	1.920800E+01	  0.079318643	1.436200E+01
298	  0.079519041	-6.374000E+00	  0.079519041	1.424480E+02	  0.079519041	1.932100E+01	  0.079519041	1.468900E+01
299	  0.079719439	-6.388000E+00	  0.079719439	1.416760E+02	  0.079719439	1.943600E+01	  0.079719439	1.499600E+01
300	  0.079919845	-6.402000E+00	  0.079919845	1.408290E+02	  0.079919845	1.956100E+01	  0.079919845	1.533400E+01
301	  0.080120243	-6.418000E+00	  0.080120243	1.400020E+02	  0.080120243	1.969100E+01	  0.080120243	1.566300E+01
302	  0.080320641	-6.433000E+00	  0.080320641	1.392060E+02	  0.080320641	1.982000E+01	  0.080320641	1.598000E+01
303	  0.080521047	-6.450000E+00	  0.080521047	1.383950E+02	  0.080521047	1.995700E+01	  0.080521047	1.630200E+01
304	  0.080721445	-6.468000E+00	  0.080721445	1.376040E+02	  0.080721445	2.009700E+01	  0.080721445	1.661600E+01
305	  0.080921844	-6.485000E+00	  0.080921844	1.368100E+02	  0.080921844	2.023800E+01	  0.080921844	1.693200E+01
306	  0.081122249	-6.504000E+00	  0.081122249	1.360020E+02	  0.081122249	2.038700E+01	  0.081122249	1.725200E+01
307	  0.081322648	-6.524000E+00	  0.081322648	1.352100E+02	  0.081322648	2.054100E+01	  0.081322648	1.756500E+01
308	  0.081523046	-6.540000E+00	  0.081523046	1.344140E+02	  0.081523046	2.068500E+01	  0.081523046	1.788400E+01
309	  0.081723452	-6.553000E+00	  0.081723452	1.336120E+02	  0.081723452	2.082700E+01	  0.081723452	1.820800E+01
310	  0.081923850	-6.568000E+00	  0.081923850	1.328330E+02	  0.081923850	2.097100E+01	  0.081923850	1.852100E+01
311	  0.082124248	-6.585000E+00	  0.082124248	1.320300E+02	  0.082124248	2.113000E+01	  0.082124248	1.884300E+01
312	  0.082324654	-6.602000E+00	  0.082324654	1.312400E+02	  0.082324654	2.128900E+01	  0.082324654	1.915900E+01
313	  0.082525052	-6.620000E+00	  0.082525052	1.304790E+02	  0.082525052	2.144700E+01	  0.082525052	1.946300E+01
314	  0.082725458	-6.640000E+00	  0.082725458	1.297080E+02	  0.082725458	2.161800E+01	  0.082725458	1.976900E+01
315	  0.082925856	-6.659000E+00	  0.082925856	1.289440E+02	  0.082925856	2.178500E+01	  0.082925856	2.007400E+01
316	  0.083126254	-6.679000E+00	  0.083126254	1.281720E+02	  0.083126254	2.196000E+01	  0.083126254	2.038200E+01
317	  0.083326660	-6.697000E+00	  0.083326660	1.273860E+02	  0.083326660	2.213600E+01	  0.083326660	2.069700E+01
318	  0.083527058	-6.718000E+00	  0.083527058	1.266110E+02	  0.083527058	2.231900E+01	  0.083527058	2.100500E+01
319	  0.083727457	-6.731000E+00	  0.083727457	1.258560E+02	  0.083727457	2.248000E+01	  0.083727457	2.131300E+01
320	  0.083927862	-6.753000E+00	  0.083927862	1.251080E+02	  0.083927862	2.267100E+01	  0.083927862	2.160700E+01
321	  0.084128261	-6.773000E+00	  0.084128261	1.243290E+02	  0.084128261	2.286200E+01	  0.084128261	2.191800E+01
322	  0.084328659	-6.795000E+00	  0.084328659	1.236030E+02	  0.084328659	2.305300E+01	  0.084328659	2.220400E+01
323	  0.084529065	-6.815000E+00	  0.084529065	1.228490E+02	  0.084529065	2.324500E+01	  0.084529065	2.250500E+01
324	  0.084729463	-6.839000E+00	  0.084729463	1.221020E+02	  0.084729463	2.345000E+01	  0.084729463	2.279800E+01
325	  0.084929854	-6.857000E+00	  0.084929854	1.213520E+02	  0.084929854	2.364200E+01	  0.084929854	2.310000E+01
326	  0.085130259	-6.876000E+00	  0.085130259	1.205800E+02	  0.085130259	2.384500E+01	  0.085130259	2.340900E+01
327	  0.085330658	-6.896000E+00	  0.085330658	1.198590E+02	  0.085330658	2.404600E+01	  0.085330658	2.369500E+01
328	  0.085531056	-6.915000E+00	  0.085531056	1.191540E+02	  0.085531056	2.424300E+01	  0.085531056	2.397500E+01
329	  0.085731462	-6.936000E+00	  0.085731462	1.183870E+02	  0.085731462	2.445800E+01	  0.085731462	2.428100E+01
330	  0.085931860	-6.958000E+00	  0.085931860	1.176870E+02	  0.085931860	2.466800E+01	  0.085931860	2.455500E+01
331	  0.086132258	-6.979000E+00	  0.086132258	1.170010E+02	  0.086132258	2.487500E+01	  0.086132258	2.482400E+01
332	  0.086332664	-7.005000E+00	  0.086332664	1.162640E+02	  0.086332664	2.511000E+01	  0.086332664	2.510800E+01
333	  0.086533062	-7.024000E+00	  0.086533062	1.155460E+02	  0.086533062	2.532500E+01	  0.086533062	2.539300E+01
334	  0.086733460	-7.051000E+00	  0.086733460	1.148450E+02	  0.086733460	2.556100E+01	  0.086733460	2.566000E+01
335	  0.086933866	-7.073000E+00	  0.086933866	1.141270E+02	  0.086933866	2.579300E+01	  0.086933866	2.593900E+01
336	  0.087134264	-7.095000E+00	  0.087134264	1.134380E+02	  0.087134264	2.601600E+01	  0.087134264	2.620800E+01
337	  0.087334670	-7.121000E+00	  0.087334670	1.127420E+02	  0.087334670	2.626000E+01	  0.087334670	2.647100E+01
338	  0.087535068	-7.141000E+00	  0.087535068	1.120190E+02	  0.087535068	2.649600E+01	  0.087535068	2.675500E+01
339	  0.087735467	-7.167000E+00	  0.087735467	1.113540E+02	  0.087735467	2.673500E+01	  0.087735467	2.700600E+01
340	  0.087935872	-7.191000E+00	  0.087935872	1.106750E+02	  0.087935872	2.697700E+01	  0.087935872	2.726300E+01
341	  0.088136271	-7.216000E+00	  0.088136271	1.100100E+02	  0.088136271	2.722400E+01	  0.088136271	2.751100E+01
342	  0.088336669	-7.240000E+00	  0.088336669	1.093220E+02	  0.088336669	2.747300E+01	  0.088336669	2.777300E+01
343	  0.088537075	-7.264000E+00	  0.088537075	1.086370E+02	  0.088537075	2.772800E+01	  0.088537075	2.803000E+01
344	  0.088737473	-7.290000E+00	  0.088737473	1.079470E+02	  0.088737473	2.799200E+01	  0.088737473	2.828600E+01
345	  0.088937871	-7.314000E+00	  0.088937871	1.073000E+02	  0.088937871	2.824100E+01	  0.088937871	2.852700E+01
346	  0.089138277	-7.340000E+00	  0.089138277	1.066030E+02	  0.089138277	2.851500E+01	  0.089138277	2.878400E+01
347	  0.089338675	-7.366000E+00	  0.089338675	1.059800E+02	  0.089338675	2.877100E+01	  0.089338675	2.900800E+01
348	  0.089539073	-7.388000E+00	  0.089539073	1.053010E+02	  0.089539073	2.903400E+01	  0.089539073	2.926300E+01
349	  0.089739479	-7.416000E+00	  0.089739479	1.046740E+02	  0.089739479	2.930100E+01	  0.089739479	2.948400E+01
350	  0.089939877	-7.444000E+00	  0.089939877	1.040400E+02	  0.089939877	2.957600E+01	  0.089939877	2.970400E+01
351	  0.090140276	-7.470000E+00	  0.090140276	1.033990E+02	  0.090140276	2.985100E+01	  0.090140276	2.993100E+01
352	  0.090340681	-7.498000E+00	  0.090340681	1.027650E+02	  0.090340681	3.013000E+01	  0.090340681	3.015000E+01
353	  0.090541080	-7.523000E+00	  0.090541080	1.021210E+02	  0.090541080	3.040800E+01	  0.090541080	3.037800E+01
354	  0.090741485	-7.554000E+00	  0.090741485	1.015030E+02	  0.090741485	3.069800E+01	  0.090741485	3.058000E+01
355	  0.090941884	-7.584000E+00	  0.090941884	1.008820E+02	  0.090941884	3.098800E+01	  0.090941884	3.078700E+01
356	  0.091142282	-7.612000E+00	  0.091142282	1.002740E+02	  0.091142282	3.127400E+01	  0.091142282	3.098700E+01
357	  0.091342688	-7.647000E+00	  0.091342688	9.964500E+01	  0.091342688	3.158600E+01	  0.091342688	3.118100E+01
358	  0.091543086	-7.675000E+00	  0.091543086	9.903300E+01	  0.091543086	3.187800E+01	  0.091543086	3.138200E+01
359	  0.091743484	-7.706000E+00	  0.091743484	9.842600E+01	  0.091743484	3.217900E+01	  0.091743484	3.157100E+01
360	  0.091943890	-7.738000E+00	  0.091943890	9.778500E+01	  0.091943890	3.250000E+01	  0.091943890	3.176900E+01
361	  0.092144288	-7.771000E+00	  0.092144288	9.718600E+01	  0.092144288	3.281000E+01	  0.092144288	3.194700E+01
362	  0.092344686	-7.798000E+00	  0.092344686	9.656400E+01	  0.092344686	3.311500E+01	  0.092344686	3.214700E+01
363	  0.092545092	-7.828000E+00	  0.092545092	9.597100E+01	  0.092545092	3.342100E+01	  0.092545092	3.232400E+01
364	  0.092745490	-7.861000E+00	  0.092745490	9.539000E+01	  0.092745490	3.373500E+01	  0.092745490	3.248600E+01
365	  0.092945889	-7.898000E+00	  0.092945889	9.482700E+01	  0.092945889	3.405400E+01	  0.092945889	3.262900E+01
366	  0.093146294	-7.931000E+00	  0.093146294	9.424000E+01	  0.093146294	3.437400E+01	  0.093146294	3.279100E+01
367	  0.093346693	-7.965000E+00	  0.093346693	9.368300E+01	  0.093346693	3.468800E+01	  0.093346693	3.293400E+01
368	  0.093547091	-8.000000E+00	  0.093547091	9.310400E+01	  0.093547091	3.501600E+01	  0.093547091	3.308200E+01
369	  0.093747497	-8.032000E+00	  0.093747497	9.254300E+01	  0.093747497	3.533300E+01	  0.093747497	3.322600E+01
370	  0.093947895	-8.065000E+00	  0.093947895	9.198500E+01	  0.093947895	3.565100E+01	  0.093947895	3.336600E+01
371	  0.094148301	-8.098000E+00	  0.094148301	9.143200E+01	  0.094148301	3.597100E+01	  0.094148301	3.350000E+01
372	  0.094348699	-8.129000E+00	  0.094348699	9.088600E+01	  0.094348699	3.628500E+01	  0.094348699	3.363400E+01
373	  0.094549097	-8.165000E+00	  0.094549097	9.035600E+01	  0.094549097	3.660800E+01	  0.094549097	3.374600E+01
374	  0.094749503	-8.201000E+00	  0.094749503	8.982600E+01	  0.094749503	3.693400E+01	  0.094749503	3.385300E+01
375	  0.094949901	-8.229000E+00	  0.094949901	8.932300E+01	  0.094949901	3.722900E+01	  0.094949901	3.397200E+01
376	  0.095150299	-8.263000E+00	  0.095150299	8.879500E+01	  0.095150299	3.755100E+01	  0.095150299	3.408100E+01
377	  0.095350705	-8.301000E+00	  0.095350705	8.829900E+01	  0.095350705	3.787000E+01	  0.095350705	3.416500E+01
378	  0.095551103	-8.332000E+00	  0.095551103	8.776900E+01	  0.095551103	3.819000E+01	  0.095551103	3.427800E+01
379	  0.095751502	-8.368000E+00	  0.095751502	8.727100E+01	  0.095751502	3.851000E+01	  0.095751502	3.436000E+01
380	  0.095951907	-8.395000E+00	  0.095951907	8.678000E+01	  0.095951907	3.880700E+01	  0.095951907	3.446400E+01
381	  0.096152306	-8.426000E+00	  0.096152306	8.628500E+01	  0.096152306	3.911700E+01	  0.096152306	3.455700E+01
382	  0.096352704	-8.455000E+00	  0.096352704	8.578000E+01	  0.096352704	3.942800E+01	  0.096352704	3.465600E+01
383	  0.096553110	-8.489000E+00	  0.096553110	8.532700E+01	  0.096553110	3.973100E+01	  0.096553110	3.471500E+01
384	  0.096753508	-8.518000E+00	  0.096753508	8.487800E+01	  0.096753508	4.001900E+01	  0.096753508	3.478800E+01
385	  0.096953906	-8.549000E+00	  0.096953906	8.444400E+01	  0.096953906	4.030500E+01	  0.096953906	3.484800E+01
386	  0.097154312	-8.578000E+00	  0.097154312	8.395400E+01	  0.097154312	4.061600E+01	  0.097154312	3.493200E+01
387	  0.097354710	-8.609000E+00	  0.097354710	8.349500E+01	  0.097354710	4.091800E+01	  0.097354710	3.499500E+01
388	  0.097555116	-8.635000E+00	  0.097555116	8.307700E+01	  0.097555116	4.118700E+01	  0.097555116	3.506000E+01
389	  0.097755514	-8.665000E+00	  0.097755514	8.265200E+01	  0.097755514	4.147200E+01	  0.097755514	3.511000E+01
390	  0.097955912	-8.692000E+00	  0.097955912	8.222900E+01	  0.097955912	4.175100E+01	  0.097955912	3.516600E+01
391	  0.098156318	-8.720000E+00	  0.098156318	8.183300E+01	  0.098156318	4.201900E+01	  0.098156318	3.520700E+01
392	  0.098356716	-8.743000E+00	  0.098356716	8.137600E+01	  0.098356716	4.230800E+01	  0.098356716	3.528500E+01
393	  0.098557115	-8.769000E+00	  0.098557115	8.097200E+01	  0.098557115	4.257700E+01	  0.098557115	3.533400E+01
394	  0.098757520	-8.790000E+00	  0.098757520	8.058300E+01	  0.098757520	4.282900E+01	  0.098757520	3.539100E+01
395	  0.098957919	-8.816000E+00	  0.098957919	8.013400E+01	  0.098957919	4.312600E+01	  0.098957919	3.544800E+01
396	  0.099158317	-8.835000E+00	  0.099158317	7.973700E+01	  0.099158317	4.337900E+01	  0.099158317	3.551300E+01
397	  0.099358723	-8.853000E+00	  0.099358723	7.935500E+01	  0.099358723	4.362300E+01	  0.099358723	3.557500E+01
398	  0.099559121	-8.874000E+00	  0.099559121	7.894600E+01	  0.099559121	4.389200E+01	  0.099559121	3.562900E+01
399	  0.099759519	-8.895000E+00	  0.099759519	7.857400E+01	  0.099759519	4.414000E+01	  0.099759519	3.567300E+01
400	  0.099959925	-8.900000E+00	  0.099959925	7.818900E+01	  0.099959925	4.436300E+01	  0.099959925	3.577600E+01
401	  0.100160323	-8.916000E+00	  0.100160323	7.782300E+01	  0.100160323	4.459800E+01	  0.100160323	3.583600E+01
402	  0.100360721	-8.934000E+00	  0.100360721	7.749800E+01	  0.100360721	4.481800E+01	  0.100360721	3.586800E+01
403	  0.100561127	-8.948000E+00	  0.100561127	7.710200E+01	  0.100561127	4.507000E+01	  0.100561127	3.593900E+01
404	  0.100761525	-8.958000E+00	  0.100761525	7.673900E+01	  0.100761525	4.529700E+01	  0.100761525	3.601100E+01
405	  0.100961931	-8.972000E+00	  0.100961931	7.630400E+01	  0.100961931	4.557200E+01	  0.100961931	3.609100E+01
406	  0.101162329	-8.982000E+00	  0.101162329	7.592500E+01	  0.101162329	4.581100E+01	  0.101162329	3.616600E+01
407	  0.101362728	-8.984000E+00	  0.101362728	7.555700E+01	  0.101362728	4.602700E+01	  0.101362728	3.627100E+01
408	  0.101563133	-8.994000E+00	  0.101563133	7.525900E+01	  0.101563133	4.622100E+01	  0.101563133	3.632000E+01
409	  0.101763532	-9.004000E+00	  0.101763532	7.484000E+01	  0.101763532	4.648700E+01	  0.101763532	3.640400E+01
410	  0.101963930	-9.008000E+00	  0.101963930	7.454600E+01	  0.101963930	4.666900E+01	  0.101963930	3.647300E+01
411	  0.102164328	-9.008000E+00	  0.102164328	7.419400E+01	  0.102164328	4.687900E+01	  0.102164328	3.657200E+01
412	  0.102364726	-9.025000E+00	  0.102364726	7.375500E+01	  0.102364726	4.717500E+01	  0.102364726	3.663000E+01
413	  0.102565125	-9.020000E+00	  0.102565125	7.346600E+01	  0.102565125	4.734100E+01	  0.102565125	3.672900E+01
414	  0.102765530	-9.013000E+00	  0.102765530	7.309400E+01	  0.102765530	4.755500E+01	  0.102765530	3.686300E+01
415	  0.102965929	-9.011000E+00	  0.102965929	7.269600E+01	  0.102965929	4.779500E+01	  0.102965929	3.698100E+01
416	  0.103166327	-9.013000E+00	  0.103166327	7.235700E+01	  0.103166327	4.800900E+01	  0.103166327	3.706500E+01
417	  0.103366733	-9.011000E+00	  0.103366733	7.201600E+01	  0.103366733	4.821700E+01	  0.103366733	3.716900E+01
418	  0.103567131	-9.008000E+00	  0.103567131	7.161400E+01	  0.103567131	4.846400E+01	  0.103567131	3.729200E+01
419	  0.103767529	-9.008000E+00	  0.103767529	7.124100E+01	  0.103767529	4.870100E+01	  0.103767529	3.739000E+01
420	  0.103967935	-9.015000E+00	  0.103967935	7.083900E+01	  0.103967935	4.896900E+01	  0.103967935	3.746800E+01
421	  0.104168333	-9.008000E+00	  0.104168333	7.044300E+01	  0.104168333	4.921200E+01	  0.104168333	3.759900E+01
422	  0.104368731	-9.011000E+00	  0.104368731	7.007100E+01	  0.104368731	4.945800E+01	  0.104368731	3.768500E+01
423	  0.104569137	-8.999000E+00	  0.104569137	6.966400E+01	  0.104569137	4.970400E+01	  0.104569137	3.784000E+01
424	  0.104769535	-9.002000E+00	  0.104769535	6.930800E+01	  0.104769535	4.994300E+01	  0.104769535	3.791800E+01
425	  0.104969934	-8.994000E+00	  0.104969934	6.887100E+01	  0.104969934	5.022100E+01	  0.104969934	3.805900E+01
426	  0.105170339	-8.993000E+00	  0.105170339	6.839800E+01	  0.105170339	5.053600E+01	  0.105170339	3.818200E+01
427	  0.105370738	-8.983000E+00	  0.105370738	6.802800E+01	  0.105370738	5.077000E+01	  0.105370738	3.831700E+01
428	  0.105571143	-8.979000E+00	  0.105571143	6.754000E+01	  0.105571143	5.109700E+01	  0.105571143	3.845300E+01
429	  0.105771542	-8.976000E+00	  0.105771542	6.711500E+01	  0.105771542	5.138500E+01	  0.105771542	3.856800E+01
430	  0.105971940	-8.970000E+00	  0.105971940	6.666700E+01	  0.105971940	5.168700E+01	  0.105971940	3.870100E+01
431	  0.106172346	-8.962000E+00	  0.106172346	6.624300E+01	  0.106172346	5.197300E+01	  0.106172346	3.883100E+01
432	  0.106372744	-8.955000E+00	  0.106372744	6.578900E+01	  0.106372744	5.228400E+01	  0.106372744	3.896700E+01
433	  0.106573142	-8.951000E+00	  0.106573142	6.523500E+01	  0.106573142	5.267500E+01	  0.106573142	3.910800E+01
434	  0.106773548	-8.945000E+00	  0.106773548	6.485100E+01	  0.106773548	5.294200E+01	  0.106773548	3.922400E+01
435	  0.106973946	-8.933000E+00	  0.106973946	6.432100E+01	  0.106973946	5.331100E+01	  0.106973946	3.939500E+01
436	  0.107174344	-8.930000E+00	  0.107174344	6.383500E+01	  0.107174344	5.366700E+01	  0.107174344	3.950700E+01
437	  0.107374750	-8.920000E+00	  0.107374750	6.328300E+01	  0.107374750	5.406300E+01	  0.107374750	3.967000E+01
438	  0.107575148	-8.909000E+00	  0.107575148	6.279500E+01	  0.107575148	5.441700E+01	  0.107575148	3.982000E+01
439	  0.107775547	-8.896000E+00	  0.107775547	6.223900E+01	  0.107775547	5.482200E+01	  0.107775547	3.999500E+01
440	  0.107975952	-8.885000E+00	  0.107975952	6.172500E+01	  0.107975952	5.520500E+01	  0.107975952	4.014500E+01
441	  0.108176351	-8.872000E+00	  0.108176351	6.124800E+01	  0.108176351	5.555900E+01	  0.108176351	4.030400E+01
442	  0.108376749	-8.861000E+00	  0.108376749	6.069900E+01	  0.108376749	5.597800E+01	  0.108376749	4.045500E+01
443	  0.108577155	-8.853000E+00	  0.108577155	6.015700E+01	  0.108577155	5.640000E+01	  0.108577155	4.059100E+01
444	  0.108777553	-8.844000E+00	  0.108777553	5.958300E+01	  0.108777553	5.685200E+01	  0.108777553	4.073400E+01
445	  0.108977959	-8.824000E+00	  0.108977959	5.901500E+01	  0.108977959	5.729300E+01	  0.108977959	4.092900E+01
446	  0.109178357	-8.817000E+00	  0.109178357	5.844000E+01	  0.109178357	5.775800E+01	  0.109178357	4.105900E+01
447	  0.109378755	-8.794000E+00	  0.109378755	5.785200E+01	  0.109378755	5.822700E+01	  0.109378755	4.127200E+01
448	  0.109579161	-8.777000E+00	  0.109579161	5.731200E+01	  0.109579161	5.866700E+01	  0.109579161	4.143800E+01
449	  0.109779559	-8.768000E+00	  0.109779559	5.675200E+01	  0.109779559	5.913700E+01	  0.109779559	4.156300E+01
450	  0.109979957	-8.757000E+00	  0.109979957	5.617100E+01	  0.109979957	5.963000E+01	  0.109979957	4.169700E+01
451	  0.110180363	-8.747000E+00	  0.110180363	5.555500E+01	  0.110180363	6.016000E+01	  0.110180363	4.182300E+01
452	  0.110380761	-8.729000E+00	  0.110380761	5.493300E+01	  0.110380761	6.069700E+01	  0.110380761	4.199400E+01
453	  0.110581160	-8.715000E+00	  0.110581160	5.428100E+01	  0.110581160	6.127200E+01	  0.110581160	4.214400E+01
454	  0.110781565	-8.701000E+00	  0.110781565	5.372700E+01	  0.110781565	6.176600E+01	  0.110781565	4.227500E+01
455	  0.110981964	-8.696000E+00	  0.110981964	5.309900E+01	  0.110981964	6.233900E+01	  0.110981964	4.235000E+01
456	  0.111182362	-8.682000E+00	  0.111182362	5.248500E+01	  0.111182362	6.290200E+01	  0.111182362	4.248000E+01
457	  0.111382768	-8.668000E+00	  0.111382768	5.182300E+01	  0.111382768	6.351800E+01	  0.111382768	4.260200E+01
458	  0.111583166	-8.660000E+00	  0.111583166	5.119500E+01	  0.111583166	6.411300E+01	  0.111583166	4.267700E+01
459	  0.111783572	-8.653000E+00	  0.111783572	5.053600E+01	  0.111783572	6.474400E+01	  0.111783572	4.274100E+01
460	  0.111983970	-8.648000E+00	  0.111983970	4.986000E+01	  0.111983970	6.540100E+01	  0.111983970	4.278300E+01
461	  0.112184368	-8.635000E+00	  0.112184368	4.914700E+01	  0.112184368	6.610100E+01	  0.112184368	4.287300E+01
462	  0.112384774	-8.633000E+00	  0.112384774	4.847600E+01	  0.112384774	6.676900E+01	  0.112384774	4.287400E+01
463	  0.112585172	-8.624000E+00	  0.112585172	4.779900E+01	  0.112585172	6.745000E+01	  0.112585172	4.291800E+01
464	  0.112785570	-8.624000E+00	  0.112785570	4.706600E+01	  0.112785570	6.819500E+01	  0.112785570	4.287900E+01
465	  0.112985976	-8.618000E+00	  0.112985976	4.635700E+01	  0.112985976	6.892500E+01	  0.112985976	4.287700E+01
466	  0.113186374	-8.618000E+00	  0.113186374	4.560600E+01	  0.113186374	6.970400E+01	  0.113186374	4.281400E+01
467	  0.113386773	-8.618000E+00	  0.113386773	4.487600E+01	  0.113386773	7.046800E+01	  0.113386773	4.274400E+01
468	  0.113587178	-8.624000E+00	  0.113587178	4.407500E+01	  0.113587178	7.130900E+01	  0.113587178	4.260300E+01
469	  0.113787577	-8.625000E+00	  0.113787577	4.334200E+01	  0.113787577	7.208900E+01	  0.113787577	4.248700E+01
470	  0.113987975	-8.635000E+00	  0.113987975	4.252300E+01	  0.113987975	7.295700E+01	  0.113987975	4.227900E+01
471	  0.114188381	-8.638000E+00	  0.114188381	4.175500E+01	  0.114188381	7.378300E+01	  0.114188381	4.211000E+01
472	  0.114388779	-8.645000E+00	  0.114388779	4.092000E+01	  0.114388779	7.468100E+01	  0.114388779	4.187800E+01
473	  0.114589177	-8.657000E+00	  0.114589177	4.009700E+01	  0.114589177	7.556300E+01	  0.114589177	4.159400E+01
474	  0.114789583	-8.657000E+00	  0.114789583	3.930400E+01	  0.114789583	7.643600E+01	  0.114789583	4.137900E+01
475	  0.114989981	-8.668000E+00	  0.114989981	3.841900E+01	  0.114989981	7.739300E+01	  0.114989981	4.103400E+01
476	  0.115190387	-8.686000E+00	  0.115190387	3.757700E+01	  0.115190387	7.828700E+01	  0.115190387	4.062100E+01
477	  0.115390785	-8.705000E+00	  0.115390785	3.668400E+01	  0.115390785	7.923400E+01	  0.115390785	4.016200E+01
478	  0.115591183	-8.715000E+00	  0.115591183	3.580200E+01	  0.115591183	8.018700E+01	  0.115591183	3.973500E+01
479	  0.115791589	-8.736000E+00	  0.115791589	3.488300E+01	  0.115791589	8.115200E+01	  0.115791589	3.919400E+01
480	  0.115991987	-8.757000E+00	  0.115991987	3.398700E+01	  0.115991987	8.208100E+01	  0.115991987	3.862500E+01
481	  0.116192386	-8.768000E+00	  0.116192386	3.306100E+01	  0.116192386	8.306600E+01	  0.116192386	3.808200E+01
482	  0.116392791	-8.794000E+00	  0.116392791	3.212600E+01	  0.116392791	8.400500E+01	  0.116392791	3.739700E+01
483	  0.116593190	-8.820000E+00	  0.116593190	3.118300E+01	  0.116593190	8.493700E+01	  0.116593190	3.667200E+01
484	  0.116793588	-8.844000E+00	  0.116793588	3.021400E+01	  0.116793588	8.588900E+01	  0.116793588	3.591200E+01
485	  0.116993994	-8.870000E+00	  0.116993994	2.927100E+01	  0.116993994	8.678700E+01	  0.116993994	3.511800E+01
486	  0.117194392	-8.902000E+00	  0.117194392	2.826900E+01	  0.117194392	8.770000E+01	  0.117194392	3.421100E+01
487	  0.117394790	-8.932000E+00	  0.117394790	2.728900E+01	  0.117394790	8.857500E+01	  0.117394790	3.329900E+01
488	  0.117595196	-8.969000E+00	  0.117595196	2.628700E+01	  0.117595196	8.941300E+01	  0.117595196	3.229300E+01
489	  0.117795594	-9.002000E+00	  0.117795594	2.528300E+01	  0.117795594	9.024100E+01	  0.117795594	3.127700E+01
490	  0.117995992	-9.046000E+00	  0.117995992	2.426800E+01	  0.117995992	9.098600E+01	  0.117995992	3.015100E+01
491	  0.118196398	-9.090000E+00	  0.118196398	2.325600E+01	  0.118196398	9.168800E+01	  0.118196398	2.899900E+01
492	  0.118396796	-9.137000E+00	  0.118396796	2.219000E+01	  0.118396796	9.238100E+01	  0.118396796	2.775600E+01
