! Anritsu VNA Master:             	Model: MS2036C/10/77
! SN:             	1601066
! /bd0/18may10/252.ew.m1.txt
! Existing Calibration Information:
! TYPE:             	Current Settings	Active Cal Settings
! TIME:             	05/10/2018 06:24:57 PM	05/10/2018 06:18:15 PM
! INTERNAL TEMP:    	60.0 C	60.0 C
! # POINTS:         	487	487
! START FREQ:       	20.601 202 MHz	20.601 202 MHz
! STOP FREQ:        	117.995 991 MHz	117.995 991 MHz
! SOURCE POWER:     	High	High
! IFBW:             	50 Hz	50 Hz
! AVG FACTOR:       	  1 	  1 
! REF PLANE 1:      	0 mm	0 mm
! REF PLANE 2:      	0 mm	0 mm
! CAL TYPE:         	Full S22	Full S22
! CAL METHOD:       	SOLT	SOLT
! CAL LINE TYPE:    	Coax	Coax
! DUT PORT 1:       	K-Conn(M)	K-Conn(M)
! DUT PORT 2:       	K-Conn(M)	K-Conn(M)
! CAL STATUS:       	OK: Accuracy High	--
! PROP-V:       	0.700
! CABLE LOSS:       	0.000 dB/m
! REF IMPEDANCE:       	50.0
! Trace Specific Parameters:	TR1	TR2	TR3	TR4
! TRACE.#.Y (GRAPH TYPE)	LOG MAG	PHASE	REAL IMPEDANCE	IMAGINARY IMPEDANCE
! TRACE.#.X 	FREQ.GHZ	FREQ.GHZ	FREQ.GHZ	FREQ.GHZ
! S-PARAMETER	S22	S22	S22	S22
! SMOOTH/APERTURE %	0	0	0	0
! WINDOW	NSL	NSL	NSL	NSL
! GATING	OFF	OFF	OFF	OFF
! FGTD	OFF	OFF	OFF	OFF
Marker Information per Trace:	TR1	TR2	TR3	TR4
!MK1	--	"MK1 TR2:  20.000 MHz,##.##"	--	--
!MK2	--	--	"MK2 TR3:  70.100 200 MHz,Z:(17.621 ohm, -1.632 ohm)"	--
!MK3	--	--	--	--
!MK4	--	--	--	--
!MK5	--	--	--	--
!MK6	--	--	--	--
!MK7	--	--	--	--
!MK8	--	--	--	--
PNT	TR1.FREQ.GHZ	TR1.LOG MAG.dB	TR2.FREQ.GHZ	TR2.PHASE.deg	TR3.FREQ.GHZ	TR3.REAL IMPEDANCE.ohm	TR4.FREQ.GHZ	TR4.IMAGINARY IMPEDANCE.ohm
1	  0.020601204	-6.390000E-01	  0.020601204	-1.296640E+02	  0.020601204	2.244000E+00	  0.020601204	-2.345500E+01
2	  0.020801604	-6.430000E-01	  0.020801604	-1.311830E+02	  0.020801604	2.230000E+00	  0.020801604	-2.265200E+01
3	  0.021002004	-6.450000E-01	  0.021002004	-1.327070E+02	  0.021002004	2.212000E+00	  0.021002004	-2.185600E+01
4	  0.021202406	-6.490000E-01	  0.021202406	-1.342430E+02	  0.021202406	2.199000E+00	  0.021202406	-2.106300E+01
5	  0.021402806	-6.510000E-01	  0.021402806	-1.357870E+02	  0.021402806	2.184000E+00	  0.021402806	-2.027600E+01
6	  0.021603208	-6.540000E-01	  0.021603208	-1.373040E+02	  0.021603208	2.169000E+00	  0.021603208	-1.951000E+01
7	  0.021803608	-6.580000E-01	  0.021803608	-1.388540E+02	  0.021803608	2.159000E+00	  0.021803608	-1.873600E+01
8	  0.022004008	-6.640000E-01	  0.022004008	-1.403920E+02	  0.022004008	2.159000E+00	  0.022004008	-1.797500E+01
9	  0.022204408	-6.690000E-01	  0.022204408	-1.419580E+02	  0.022204408	2.154000E+00	  0.022204408	-1.720800E+01
10	  0.022404809	-6.720000E-01	  0.022404809	-1.435450E+02	  0.022404809	2.144000E+00	  0.022404809	-1.643800E+01
11	  0.022605211	-6.750000E-01	  0.022605211	-1.451430E+02	  0.022605211	2.134000E+00	  0.022605211	-1.566900E+01
12	  0.022805611	-6.780000E-01	  0.022805611	-1.467510E+02	  0.022805611	2.125000E+00	  0.022805611	-1.490400E+01
13	  0.023006011	-6.830000E-01	  0.023006011	-1.483460E+02	  0.023006011	2.124000E+00	  0.023006011	-1.414900E+01
14	  0.023206413	-6.860000E-01	  0.023206413	-1.499340E+02	  0.023206413	2.116000E+00	  0.023206413	-1.340500E+01
15	  0.023406813	-6.900000E-01	  0.023406813	-1.515350E+02	  0.023406813	2.114000E+00	  0.023406813	-1.266000E+01
16	  0.023607215	-6.960000E-01	  0.023607215	-1.531350E+02	  0.023607215	2.118000E+00	  0.023607215	-1.192100E+01
17	  0.023807615	-7.040000E-01	  0.023807615	-1.547460E+02	  0.023807615	2.128000E+00	  0.023807615	-1.118100E+01
18	  0.024008015	-7.130000E-01	  0.024008015	-1.563750E+02	  0.024008015	2.142000E+00	  0.024008015	-1.043800E+01
19	  0.024208417	-7.200000E-01	  0.024208417	-1.580390E+02	  0.024208417	2.149000E+00	  0.024208417	-9.684000E+00
20	  0.024408817	-7.270000E-01	  0.024408817	-1.596850E+02	  0.024408817	2.160000E+00	  0.024408817	-8.941000E+00
21	  0.024609219	-7.340000E-01	  0.024609219	-1.613360E+02	  0.024609219	2.169000E+00	  0.024609219	-8.201000E+00
22	  0.024809619	-7.420000E-01	  0.024809619	-1.629980E+02	  0.024809619	2.183000E+00	  0.024809619	-7.459000E+00
23	  0.025010020	-7.530000E-01	  0.025010020	-1.646560E+02	  0.025010020	2.207000E+00	  0.025010020	-6.722000E+00
24	  0.025210422	-7.640000E-01	  0.025210422	-1.663210E+02	  0.025210422	2.229000E+00	  0.025210422	-5.984000E+00
25	  0.025410822	-7.750000E-01	  0.025410822	-1.680040E+02	  0.025410822	2.255000E+00	  0.025410822	-5.242000E+00
26	  0.025611224	-7.890000E-01	  0.025611224	-1.696920E+02	  0.025611224	2.288000E+00	  0.025611224	-4.500000E+00
27	  0.025811624	-8.010000E-01	  0.025811624	-1.714050E+02	  0.025811624	2.317000E+00	  0.025811624	-3.748000E+00
28	  0.026012026	-8.110000E-01	  0.026012026	-1.731260E+02	  0.026012026	2.342000E+00	  0.026012026	-2.996000E+00
29	  0.026212426	-8.240000E-01	  0.026212426	-1.748530E+02	  0.026212426	2.375000E+00	  0.026212426	-2.242000E+00
30	  0.026412826	-8.390000E-01	  0.026412826	-1.765880E+02	  0.026412826	2.416000E+00	  0.026412826	-1.485000E+00
31	  0.026613226	-8.550000E-01	  0.026613226	-1.783410E+02	  0.026613226	2.460000E+00	  0.026613226	-7.220000E-01
32	  0.026813626	-8.700000E-01	  0.026813626	1.798970E+02	  0.026813626	2.503000E+00	  0.026813626	4.400000E-02
33	  0.027014028	-8.870000E-01	  0.027014028	1.781300E+02	  0.027014028	2.554000E+00	  0.027014028	8.130000E-01
34	  0.027214428	-9.050000E-01	  0.027214428	1.763510E+02	  0.027214428	2.606000E+00	  0.027214428	1.588000E+00
35	  0.027414829	-9.210000E-01	  0.027414829	1.745680E+02	  0.027414829	2.655000E+00	  0.027414829	2.364000E+00
36	  0.027615231	-9.390000E-01	  0.027615231	1.727620E+02	  0.027615231	2.712000E+00	  0.027615231	3.152000E+00
37	  0.027815631	-9.580000E-01	  0.027815631	1.709460E+02	  0.027815631	2.772000E+00	  0.027815631	3.946000E+00
38	  0.028016033	-9.770000E-01	  0.028016033	1.691120E+02	  0.028016033	2.835000E+00	  0.028016033	4.749000E+00
39	  0.028216433	-9.980000E-01	  0.028216433	1.672730E+02	  0.028216433	2.906000E+00	  0.028216433	5.557000E+00
40	  0.028416833	-1.018000E+00	  0.028416833	1.654300E+02	  0.028416833	2.976000E+00	  0.028416833	6.369000E+00
41	  0.028617235	-1.039000E+00	  0.028617235	1.635820E+02	  0.028617235	3.050000E+00	  0.028617235	7.186000E+00
42	  0.028817635	-1.060000E+00	  0.028817635	1.617160E+02	  0.028817635	3.127000E+00	  0.028817635	8.015000E+00
43	  0.029018037	-1.084000E+00	  0.029018037	1.598720E+02	  0.029018037	3.216000E+00	  0.029018037	8.838000E+00
44	  0.029218437	-1.109000E+00	  0.029218437	1.580010E+02	  0.029218437	3.308000E+00	  0.029218437	9.677000E+00
45	  0.029418837	-1.133000E+00	  0.029418837	1.560980E+02	  0.029418837	3.402000E+00	  0.029418837	1.053500E+01
46	  0.029619239	-1.159000E+00	  0.029619239	1.542110E+02	  0.029619239	3.505000E+00	  0.029619239	1.139200E+01
47	  0.029819639	-1.186000E+00	  0.029819639	1.523110E+02	  0.029819639	3.614000E+00	  0.029819639	1.226100E+01
48	  0.030020041	-1.213000E+00	  0.030020041	1.504010E+02	  0.030020041	3.728000E+00	  0.030020041	1.314100E+01
49	  0.030220442	-1.240000E+00	  0.030220442	1.484870E+02	  0.030220442	3.846000E+00	  0.030220442	1.402900E+01
50	  0.030420844	-1.268000E+00	  0.030420844	1.465740E+02	  0.030420844	3.972000E+00	  0.030420844	1.492600E+01
51	  0.030621244	-1.299000E+00	  0.030621244	1.446630E+02	  0.030621244	4.108000E+00	  0.030621244	1.582800E+01
52	  0.030821642	-1.332000E+00	  0.030821642	1.427410E+02	  0.030821642	4.259000E+00	  0.030821642	1.674500E+01
53	  0.031022044	-1.364000E+00	  0.031022044	1.407960E+02	  0.031022044	4.414000E+00	  0.031022044	1.768200E+01
54	  0.031222444	-1.392000E+00	  0.031222444	1.388660E+02	  0.031222444	4.556000E+00	  0.031222444	1.862300E+01
55	  0.031422846	-1.427000E+00	  0.031422846	1.368990E+02	  0.031422846	4.732000E+00	  0.031422846	1.959300E+01
56	  0.031623244	-1.462000E+00	  0.031623244	1.349220E+02	  0.031623244	4.917000E+00	  0.031623244	2.057800E+01
57	  0.031823646	-1.502000E+00	  0.031823646	1.329470E+02	  0.031823646	5.125000E+00	  0.031823646	2.157500E+01
58	  0.032024048	-1.541000E+00	  0.032024048	1.309610E+02	  0.032024048	5.336000E+00	  0.032024048	2.259100E+01
59	  0.032224450	-1.581000E+00	  0.032224450	1.289510E+02	  0.032224450	5.564000E+00	  0.032224450	2.363300E+01
60	  0.032424849	-1.623000E+00	  0.032424849	1.269520E+02	  0.032424849	5.807000E+00	  0.032424849	2.468400E+01
61	  0.032625251	-1.664000E+00	  0.032625251	1.249320E+02	  0.032625251	6.060000E+00	  0.032625251	2.576400E+01
62	  0.032825653	-1.706000E+00	  0.032825653	1.228970E+02	  0.032825653	6.328000E+00	  0.032825653	2.686800E+01
63	  0.033026051	-1.748000E+00	  0.033026051	1.208390E+02	  0.033026051	6.611000E+00	  0.033026051	2.800400E+01
64	  0.033226453	-1.789000E+00	  0.033226453	1.187750E+02	  0.033226453	6.902000E+00	  0.033226453	2.916500E+01
65	  0.033426855	-1.832000E+00	  0.033426855	1.167290E+02	  0.033426855	7.218000E+00	  0.033426855	3.033500E+01
66	  0.033627257	-1.878000E+00	  0.033627257	1.146800E+02	  0.033627257	7.561000E+00	  0.033627257	3.152700E+01
67	  0.033827655	-1.921000E+00	  0.033827655	1.126210E+02	  0.033827655	7.913000E+00	  0.033827655	3.275100E+01
68	  0.034028057	-1.966000E+00	  0.034028057	1.105710E+02	  0.034028057	8.292000E+00	  0.034028057	3.399200E+01
69	  0.034228459	-2.015000E+00	  0.034228459	1.085070E+02	  0.034228459	8.706000E+00	  0.034228459	3.526600E+01
70	  0.034428857	-2.059000E+00	  0.034428857	1.064280E+02	  0.034428857	9.129000E+00	  0.034428857	3.657900E+01
71	  0.034629259	-2.108000E+00	  0.034629259	1.043410E+02	  0.034629259	9.596000E+00	  0.034629259	3.792400E+01
72	  0.034829661	-2.155000E+00	  0.034829661	1.022580E+02	  0.034829661	1.008100E+01	  0.034829661	3.929900E+01
73	  0.035030060	-2.206000E+00	  0.035030060	1.001700E+02	  0.035030060	1.061800E+01	  0.035030060	4.070600E+01
74	  0.035230462	-2.259000E+00	  0.035230462	9.809500E+01	  0.035230462	1.119400E+01	  0.035230462	4.213400E+01
75	  0.035430863	-2.309000E+00	  0.035430863	9.603500E+01	  0.035430863	1.179100E+01	  0.035430863	4.359000E+01
76	  0.035631265	-2.361000E+00	  0.035631265	9.394200E+01	  0.035631265	1.244200E+01	  0.035631265	4.510300E+01
77	  0.035831664	-2.413000E+00	  0.035831664	9.186200E+01	  0.035831664	1.313600E+01	  0.035831664	4.664500E+01
78	  0.036032066	-2.466000E+00	  0.036032066	8.978100E+01	  0.036032066	1.387900E+01	  0.036032066	4.822600E+01
79	  0.036232468	-2.518000E+00	  0.036232468	8.770200E+01	  0.036232468	1.467100E+01	  0.036232468	4.984700E+01
80	  0.036432866	-2.573000E+00	  0.036432866	8.561800E+01	  0.036432866	1.553100E+01	  0.036432866	5.151100E+01
81	  0.036633268	-2.628000E+00	  0.036633268	8.355000E+01	  0.036633268	1.645100E+01	  0.036633268	5.320500E+01
82	  0.036833670	-2.682000E+00	  0.036833670	8.146900E+01	  0.036833670	1.743700E+01	  0.036833670	5.495600E+01
83	  0.037034072	-2.742000E+00	  0.037034072	7.938400E+01	  0.037034072	1.853500E+01	  0.037034072	5.674500E+01
84	  0.037234470	-2.797000E+00	  0.037234470	7.729900E+01	  0.037234470	1.968300E+01	  0.037234470	5.859200E+01
85	  0.037434869	-2.856000E+00	  0.037434869	7.523700E+01	  0.037434869	2.093200E+01	  0.037434869	6.045500E+01
86	  0.037635271	-2.916000E+00	  0.037635271	7.317100E+01	  0.037635271	2.229300E+01	  0.037635271	6.236400E+01
87	  0.037835669	-2.977000E+00	  0.037835669	7.108100E+01	  0.037835669	2.377400E+01	  0.037835669	6.434300E+01
88	  0.038036071	-3.035000E+00	  0.038036071	6.898100E+01	  0.038036071	2.536000E+01	  0.038036071	6.639100E+01
89	  0.038236473	-3.097000E+00	  0.038236473	6.685600E+01	  0.038236473	2.712800E+01	  0.038236473	6.849600E+01
90	  0.038436871	-3.159000E+00	  0.038436871	6.474700E+01	  0.038436871	2.903300E+01	  0.038436871	7.063000E+01
91	  0.038637273	-3.221000E+00	  0.038637273	6.264900E+01	  0.038637273	3.109500E+01	  0.038637273	7.278600E+01
92	  0.038837675	-3.282000E+00	  0.038837675	6.054200E+01	  0.038837675	3.332900E+01	  0.038837675	7.500000E+01
93	  0.039038073	-3.343000E+00	  0.039038073	5.846400E+01	  0.039038073	3.573200E+01	  0.039038073	7.720700E+01
94	  0.039238475	-3.400000E+00	  0.039238475	5.637100E+01	  0.039238475	3.832700E+01	  0.039238475	7.948100E+01
95	  0.039438877	-3.463000E+00	  0.039438877	5.428300E+01	  0.039438877	4.120600E+01	  0.039438877	8.171600E+01
96	  0.039639279	-3.522000E+00	  0.039639279	5.220000E+01	  0.039639279	4.429400E+01	  0.039639279	8.397300E+01
97	  0.039839678	-3.581000E+00	  0.039839678	5.007800E+01	  0.039839678	4.771300E+01	  0.039839678	8.626700E+01
98	  0.040040080	-3.640000E+00	  0.040040080	4.799100E+01	  0.040040080	5.138800E+01	  0.040040080	8.847700E+01
99	  0.040240481	-3.698000E+00	  0.040240481	4.588000E+01	  0.040240481	5.542000E+01	  0.040240481	9.066800E+01
100	  0.040440880	-3.755000E+00	  0.040440880	4.382300E+01	  0.040440880	5.970700E+01	  0.040440880	9.270600E+01
101	  0.040641282	-3.812000E+00	  0.040641282	4.174800E+01	  0.040641282	6.440100E+01	  0.040641282	9.463600E+01
102	  0.040841684	-3.869000E+00	  0.040841684	3.969300E+01	  0.040841684	6.945600E+01	  0.040841684	9.635900E+01
103	  0.041042086	-3.927000E+00	  0.041042086	3.766100E+01	  0.041042086	7.487100E+01	  0.041042086	9.781400E+01
104	  0.041242484	-3.983000E+00	  0.041242484	3.561500E+01	  0.041242484	8.073800E+01	  0.041242484	9.901100E+01
105	  0.041442886	-4.041000E+00	  0.041442886	3.356400E+01	  0.041442886	8.706500E+01	  0.041442886	9.982300E+01
106	  0.041643288	-4.096000E+00	  0.041643288	3.152500E+01	  0.041643288	9.377800E+01	  0.041643288	1.002080E+02
107	  0.041843686	-4.150000E+00	  0.041843686	2.945400E+01	  0.041843686	1.010190E+02	  0.041843686	1.001110E+02
108	  0.042044088	-4.205000E+00	  0.042044088	2.744500E+01	  0.042044088	1.084400E+02	  0.042044088	9.930700E+01
109	  0.042244490	-4.257000E+00	  0.042244490	2.541600E+01	  0.042244490	1.162610E+02	  0.042244490	9.782300E+01
110	  0.042444889	-4.312000E+00	  0.042444889	2.341200E+01	  0.042444889	1.242310E+02	  0.042444889	9.546400E+01
111	  0.042645290	-4.368000E+00	  0.042645290	2.140800E+01	  0.042645290	1.323220E+02	  0.042645290	9.210700E+01
112	  0.042845692	-4.423000E+00	  0.042845692	1.940700E+01	  0.042845692	1.403860E+02	  0.042845692	8.776100E+01
113	  0.043046094	-4.476000E+00	  0.043046094	1.741000E+01	  0.043046094	1.482780E+02	  0.043046094	8.239700E+01
114	  0.043246493	-4.530000E+00	  0.043246493	1.540300E+01	  0.043246493	1.558270E+02	  0.043246493	7.587400E+01
115	  0.043446895	-4.580000E+00	  0.043446895	1.342000E+01	  0.043446895	1.627570E+02	  0.043446895	6.840900E+01
116	  0.043647297	-4.632000E+00	  0.043647297	1.144600E+01	  0.043647297	1.688480E+02	  0.043647297	5.994000E+01
117	  0.043847695	-4.683000E+00	  0.043847695	9.459000E+00	  0.043847695	1.740460E+02	  0.043847695	5.056700E+01
118	  0.044048097	-4.734000E+00	  0.044048097	7.497000E+00	  0.044048097	1.779840E+02	  0.044048097	4.056500E+01
119	  0.044248499	-4.785000E+00	  0.044248499	5.525000E+00	  0.044248499	1.806730E+02	  0.044248499	3.003200E+01
120	  0.044448901	-4.834000E+00	  0.044448901	3.582000E+00	  0.044448901	1.820550E+02	  0.044448901	1.942200E+01
121	  0.044649299	-4.882000E+00	  0.044649299	1.617000E+00	  0.044649299	1.821080E+02	  0.044649299	8.680000E+00
122	  0.044849701	-4.930000E+00	  0.044849701	-3.050000E-01	  0.044849701	1.808560E+02	  0.044849701	-1.612000E+00
123	  0.045050103	-4.977000E+00	  0.045050103	-2.261000E+00	  0.045050103	1.784270E+02	  0.045050103	-1.163800E+01
124	  0.045250501	-5.025000E+00	  0.045250501	-4.188000E+00	  0.045250501	1.749300E+02	  0.045250501	-2.090100E+01
125	  0.045450903	-5.070000E+00	  0.045450903	-6.112000E+00	  0.045450903	1.705920E+02	  0.045450903	-2.941500E+01
126	  0.045651305	-5.114000E+00	  0.045651305	-8.020000E+00	  0.045651305	1.656150E+02	  0.045651305	-3.706000E+01
127	  0.045851704	-5.157000E+00	  0.045851704	-9.929000E+00	  0.045851704	1.601280E+02	  0.045851704	-4.388200E+01
128	  0.046052102	-5.199000E+00	  0.046052102	-1.182500E+01	  0.046052102	1.542820E+02	  0.046052102	-4.979100E+01
129	  0.046252504	-5.240000E+00	  0.046252504	-1.369500E+01	  0.046252504	1.482640E+02	  0.046252504	-5.479400E+01
130	  0.046452906	-5.279000E+00	  0.046452906	-1.555500E+01	  0.046452906	1.422010E+02	  0.046452906	-5.903200E+01
131	  0.046653304	-5.318000E+00	  0.046653304	-1.741800E+01	  0.046653304	1.361040E+02	  0.046653304	-6.255100E+01
132	  0.046853706	-5.358000E+00	  0.046853706	-1.928100E+01	  0.046853706	1.300580E+02	  0.046853706	-6.538500E+01
133	  0.047054108	-5.396000E+00	  0.047054108	-2.113300E+01	  0.047054108	1.241830E+02	  0.047054108	-6.762100E+01
134	  0.047254506	-5.433000E+00	  0.047254506	-2.297200E+01	  0.047254506	1.185250E+02	  0.047254506	-6.933300E+01
135	  0.047454908	-5.469000E+00	  0.047454908	-2.479300E+01	  0.047454908	1.131270E+02	  0.047454908	-7.057600E+01
136	  0.047655310	-5.504000E+00	  0.047655310	-2.659400E+01	  0.047655310	1.080010E+02	  0.047655310	-7.141100E+01
137	  0.047855709	-5.541000E+00	  0.047855709	-2.839000E+01	  0.047855709	1.031110E+02	  0.047855709	-7.186400E+01
138	  0.048056111	-5.576000E+00	  0.048056111	-3.014500E+01	  0.048056111	9.856400E+01	  0.048056111	-7.204100E+01
139	  0.048256513	-5.612000E+00	  0.048256513	-3.190300E+01	  0.048256513	9.423900E+01	  0.048256513	-7.196200E+01
140	  0.048456915	-5.647000E+00	  0.048456915	-3.367000E+01	  0.048456915	9.012100E+01	  0.048456915	-7.168300E+01
141	  0.048657313	-5.678000E+00	  0.048657313	-3.542500E+01	  0.048657313	8.625400E+01	  0.048657313	-7.128200E+01
142	  0.048857715	-5.711000E+00	  0.048857715	-3.717500E+01	  0.048857715	8.260700E+01	  0.048857715	-7.070000E+01
143	  0.049058117	-5.742000E+00	  0.049058117	-3.892000E+01	  0.049058117	7.917300E+01	  0.049058117	-7.001800E+01
144	  0.049258515	-5.774000E+00	  0.049258515	-4.064500E+01	  0.049258515	7.597100E+01	  0.049258515	-6.922500E+01
145	  0.049458917	-5.804000E+00	  0.049458917	-4.235600E+01	  0.049458917	7.297000E+01	  0.049458917	-6.836300E+01
146	  0.049659319	-5.834000E+00	  0.049659319	-4.404200E+01	  0.049659319	7.017800E+01	  0.049659319	-6.744100E+01
147	  0.049859721	-5.866000E+00	  0.049859721	-4.572000E+01	  0.049859721	6.756100E+01	  0.049859721	-6.644400E+01
148	  0.050060119	-5.893000E+00	  0.050060119	-4.742600E+01	  0.050060119	6.503300E+01	  0.050060119	-6.544600E+01
149	  0.050260521	-5.922000E+00	  0.050260521	-4.911800E+01	  0.050260521	6.267200E+01	  0.050260521	-6.439100E+01
150	  0.050460923	-5.945000E+00	  0.050460923	-5.080900E+01	  0.050460923	6.042700E+01	  0.050460923	-6.335400E+01
151	  0.050661322	-5.969000E+00	  0.050661322	-5.245400E+01	  0.050661322	5.836600E+01	  0.050661322	-6.230700E+01
152	  0.050861724	-5.995000E+00	  0.050861724	-5.411200E+01	  0.050861724	5.640400E+01	  0.050861724	-6.122300E+01
153	  0.051062126	-6.016000E+00	  0.051062126	-5.576100E+01	  0.051062126	5.454100E+01	  0.051062126	-6.016700E+01
154	  0.051262524	-6.039000E+00	  0.051262524	-5.738700E+01	  0.051262524	5.280800E+01	  0.051262524	-5.909600E+01
155	  0.051462926	-6.063000E+00	  0.051462926	-5.900700E+01	  0.051462926	5.117600E+01	  0.051462926	-5.801500E+01
156	  0.051663328	-6.081000E+00	  0.051663328	-6.059100E+01	  0.051663328	4.964300E+01	  0.051663328	-5.699000E+01
157	  0.051863730	-6.098000E+00	  0.051863730	-6.222900E+01	  0.051863730	4.812900E+01	  0.051863730	-5.594000E+01
158	  0.052064128	-6.116000E+00	  0.052064128	-6.380300E+01	  0.052064128	4.675100E+01	  0.052064128	-5.492000E+01
159	  0.052264530	-6.126000E+00	  0.052264530	-6.538100E+01	  0.052264530	4.541000E+01	  0.052264530	-5.394000E+01
160	  0.052464932	-6.138000E+00	  0.052464932	-6.695900E+01	  0.052464932	4.413800E+01	  0.052464932	-5.295100E+01
161	  0.052665330	-6.150000E+00	  0.052665330	-6.849600E+01	  0.052665330	4.295700E+01	  0.052665330	-5.198900E+01
162	  0.052865732	-6.165000E+00	  0.052865732	-7.001900E+01	  0.052865732	4.185400E+01	  0.052865732	-5.102200E+01
163	  0.053066134	-6.180000E+00	  0.053066134	-7.154100E+01	  0.053066134	4.080300E+01	  0.053066134	-5.006100E+01
164	  0.053266536	-6.190000E+00	  0.053266536	-7.302100E+01	  0.053266536	3.980800E+01	  0.053266536	-4.915200E+01
165	  0.053466935	-6.206000E+00	  0.053466935	-7.453700E+01	  0.053466935	3.885700E+01	  0.053466935	-4.820100E+01
166	  0.053667337	-6.213000E+00	  0.053667337	-7.600800E+01	  0.053667337	3.794300E+01	  0.053667337	-4.732300E+01
167	  0.053867739	-6.222000E+00	  0.053867739	-7.748800E+01	  0.053867739	3.706500E+01	  0.053867739	-4.643900E+01
168	  0.054068137	-6.226000E+00	  0.054068137	-7.895300E+01	  0.054068137	3.622100E+01	  0.054068137	-4.558300E+01
169	  0.054268539	-6.239000E+00	  0.054268539	-8.036700E+01	  0.054268539	3.546900E+01	  0.054268539	-4.473300E+01
170	  0.054468941	-6.248000E+00	  0.054468941	-8.180600E+01	  0.054468941	3.472000E+01	  0.054468941	-4.389100E+01
171	  0.054669335	-6.255000E+00	  0.054669335	-8.324200E+01	  0.054669335	3.399900E+01	  0.054669335	-4.306000E+01
172	  0.054869737	-6.266000E+00	  0.054869737	-8.465000E+01	  0.054869737	3.333400E+01	  0.054869737	-4.224100E+01
173	  0.055070139	-6.275000E+00	  0.055070139	-8.606400E+01	  0.055070139	3.268600E+01	  0.055070139	-4.143200E+01
174	  0.055270538	-6.284000E+00	  0.055270538	-8.744400E+01	  0.055270538	3.207800E+01	  0.055270538	-4.065000E+01
175	  0.055470940	-6.291000E+00	  0.055470940	-8.886000E+01	  0.055470940	3.146900E+01	  0.055470940	-3.986100E+01
176	  0.055671342	-6.299000E+00	  0.055671342	-9.024400E+01	  0.055671342	3.090500E+01	  0.055671342	-3.909100E+01
177	  0.055871744	-6.301000E+00	  0.055871744	-9.165900E+01	  0.055871744	3.032500E+01	  0.055871744	-3.833100E+01
178	  0.056072142	-6.311000E+00	  0.056072142	-9.302100E+01	  0.056072142	2.981600E+01	  0.056072142	-3.758300E+01
179	  0.056272544	-6.318000E+00	  0.056272544	-9.439900E+01	  0.056272544	2.931300E+01	  0.056272544	-3.684100E+01
180	  0.056472946	-6.325000E+00	  0.056472946	-9.577900E+01	  0.056472946	2.882700E+01	  0.056472946	-3.610500E+01
181	  0.056673344	-6.329000E+00	  0.056673344	-9.712700E+01	  0.056673344	2.836000E+01	  0.056673344	-3.539700E+01
182	  0.056873746	-6.335000E+00	  0.056873746	-9.847200E+01	  0.056873746	2.791500E+01	  0.056873746	-3.469700E+01
183	  0.057074148	-6.337000E+00	  0.057074148	-9.982800E+01	  0.057074148	2.747200E+01	  0.057074148	-3.400200E+01
184	  0.057274550	-6.341000E+00	  0.057274550	-1.011860E+02	  0.057274550	2.705200E+01	  0.057274550	-3.330800E+01
185	  0.057474948	-6.340000E+00	  0.057474948	-1.025220E+02	  0.057474948	2.663600E+01	  0.057474948	-3.264100E+01
186	  0.057675350	-6.342000E+00	  0.057675350	-1.038730E+02	  0.057675350	2.624000E+01	  0.057675350	-3.196600E+01
187	  0.057875752	-6.343000E+00	  0.057875752	-1.052100E+02	  0.057875752	2.585600E+01	  0.057875752	-3.130700E+01
188	  0.058076151	-6.338000E+00	  0.058076151	-1.065210E+02	  0.058076151	2.547700E+01	  0.058076151	-3.067500E+01
189	  0.058276553	-6.341000E+00	  0.058276553	-1.078400E+02	  0.058276553	2.513400E+01	  0.058276553	-3.002900E+01
190	  0.058476955	-6.337000E+00	  0.058476955	-1.091380E+02	  0.058476955	2.478400E+01	  0.058476955	-2.941100E+01
191	  0.058677353	-6.334000E+00	  0.058677353	-1.104440E+02	  0.058677353	2.444900E+01	  0.058677353	-2.879100E+01
192	  0.058877755	-6.329000E+00	  0.058877755	-1.117340E+02	  0.058877755	2.412200E+01	  0.058877755	-2.818600E+01
193	  0.059078157	-6.323000E+00	  0.059078157	-1.130010E+02	  0.059078157	2.380600E+01	  0.059078157	-2.759800E+01
194	  0.059278559	-6.316000E+00	  0.059278559	-1.143010E+02	  0.059278559	2.349200E+01	  0.059278559	-2.699900E+01
195	  0.059478957	-6.310000E+00	  0.059478957	-1.155670E+02	  0.059478957	2.319900E+01	  0.059478957	-2.641700E+01
196	  0.059679359	-6.310000E+00	  0.059679359	-1.168390E+02	  0.059679359	2.293200E+01	  0.059679359	-2.582900E+01
197	  0.059879761	-6.302000E+00	  0.059879761	-1.180810E+02	  0.059879761	2.265500E+01	  0.059879761	-2.526800E+01
198	  0.060080159	-6.300000E+00	  0.060080159	-1.193230E+02	  0.060080159	2.240500E+01	  0.060080159	-2.470400E+01
199	  0.060280561	-6.299000E+00	  0.060280561	-1.205730E+02	  0.060280561	2.216200E+01	  0.060280561	-2.413900E+01
200	  0.060480963	-6.296000E+00	  0.060480963	-1.218130E+02	  0.060480963	2.192500E+01	  0.060480963	-2.358300E+01
201	  0.060681365	-6.292000E+00	  0.060681365	-1.230140E+02	  0.060681365	2.170100E+01	  0.060681365	-2.304900E+01
202	  0.060881764	-6.289000E+00	  0.060881764	-1.242510E+02	  0.060881764	2.147900E+01	  0.060881764	-2.250200E+01
203	  0.061082166	-6.282000E+00	  0.061082166	-1.254590E+02	  0.061082166	2.126100E+01	  0.061082166	-2.197400E+01
204	  0.061282568	-6.284000E+00	  0.061282568	-1.266780E+02	  0.061282568	2.107100E+01	  0.061282568	-2.143500E+01
205	  0.061482966	-6.284000E+00	  0.061482966	-1.278750E+02	  0.061482966	2.088300E+01	  0.061482966	-2.091200E+01
206	  0.061683368	-6.287000E+00	  0.061683368	-1.290650E+02	  0.061683368	2.071300E+01	  0.061683368	-2.039100E+01
207	  0.061883770	-6.290000E+00	  0.061883770	-1.302520E+02	  0.061883770	2.055200E+01	  0.061883770	-1.987300E+01
208	  0.062084168	-6.293000E+00	  0.062084168	-1.314430E+02	  0.062084168	2.039300E+01	  0.062084168	-1.935800E+01
209	  0.062284570	-6.291000E+00	  0.062284570	-1.326400E+02	  0.062284570	2.022600E+01	  0.062284570	-1.884700E+01
210	  0.062484972	-6.282000E+00	  0.062484972	-1.337880E+02	  0.062484972	2.005000E+01	  0.062484972	-1.836600E+01
211	  0.062685370	-6.287000E+00	  0.062685370	-1.349930E+02	  0.062685370	1.991200E+01	  0.062685370	-1.785200E+01
212	  0.062885776	-6.290000E+00	  0.062885776	-1.361600E+02	  0.062885776	1.977800E+01	  0.062885776	-1.735700E+01
213	  0.063086174	-6.293000E+00	  0.063086174	-1.373480E+02	  0.063086174	1.964600E+01	  0.063086174	-1.685600E+01
214	  0.063286573	-6.297000E+00	  0.063286573	-1.385310E+02	  0.063286573	1.952200E+01	  0.063286573	-1.635900E+01
215	  0.063486971	-6.295000E+00	  0.063486971	-1.396960E+02	  0.063486971	1.938800E+01	  0.063486971	-1.587700E+01
216	  0.063687377	-6.292000E+00	  0.063687377	-1.408310E+02	  0.063687377	1.926000E+01	  0.063687377	-1.540900E+01
217	  0.063887775	-6.298000E+00	  0.063887775	-1.419990E+02	  0.063887775	1.916000E+01	  0.063887775	-1.492300E+01
218	  0.064088173	-6.296000E+00	  0.064088173	-1.431580E+02	  0.064088173	1.903900E+01	  0.064088173	-1.445000E+01
219	  0.064288579	-6.302000E+00	  0.064288579	-1.443360E+02	  0.064288579	1.894600E+01	  0.064288579	-1.396400E+01
220	  0.064488977	-6.305000E+00	  0.064488977	-1.455220E+02	  0.064488977	1.884600E+01	  0.064488977	-1.348000E+01
221	  0.064689375	-6.309000E+00	  0.064689375	-1.466510E+02	  0.064689375	1.875800E+01	  0.064689375	-1.302000E+01
222	  0.064889781	-6.313000E+00	  0.064889781	-1.478250E+02	  0.064889781	1.867100E+01	  0.064889781	-1.254400E+01
223	  0.065090179	-6.312000E+00	  0.065090179	-1.489440E+02	  0.065090179	1.858000E+01	  0.065090179	-1.209400E+01
224	  0.065290578	-6.313000E+00	  0.065290578	-1.500900E+02	  0.065290578	1.849400E+01	  0.065290578	-1.163400E+01
225	  0.065490983	-6.311000E+00	  0.065490983	-1.512000E+02	  0.065490983	1.840800E+01	  0.065490983	-1.119200E+01
226	  0.065691382	-6.315000E+00	  0.065691382	-1.523320E+02	  0.065691382	1.833800E+01	  0.065691382	-1.073900E+01
227	  0.065891780	-6.318000E+00	  0.065891780	-1.534640E+02	  0.065891780	1.826800E+01	  0.065891780	-1.028800E+01
228	  0.066092186	-6.318000E+00	  0.066092186	-1.545760E+02	  0.066092186	1.819700E+01	  0.066092186	-9.848000E+00
229	  0.066292584	-6.319000E+00	  0.066292584	-1.556660E+02	  0.066292584	1.813400E+01	  0.066292584	-9.417000E+00
230	  0.066492982	-6.319000E+00	  0.066492982	-1.567570E+02	  0.066492982	1.807200E+01	  0.066492982	-8.987000E+00
231	  0.066693388	-6.320000E+00	  0.066693388	-1.578530E+02	  0.066693388	1.801200E+01	  0.066693388	-8.556000E+00
232	  0.066893786	-6.323000E+00	  0.066893786	-1.589440E+02	  0.066893786	1.796300E+01	  0.066893786	-8.127000E+00
233	  0.067094192	-6.326000E+00	  0.067094192	-1.600010E+02	  0.067094192	1.791900E+01	  0.067094192	-7.713000E+00
234	  0.067294590	-6.326000E+00	  0.067294590	-1.610520E+02	  0.067294590	1.787000E+01	  0.067294590	-7.303000E+00
235	  0.067494988	-6.334000E+00	  0.067494988	-1.621270E+02	  0.067494988	1.784200E+01	  0.067494988	-6.882000E+00
236	  0.067695394	-6.335000E+00	  0.067695394	-1.631920E+02	  0.067695394	1.780200E+01	  0.067695394	-6.467000E+00
237	  0.067895792	-6.336000E+00	  0.067895792	-1.642620E+02	  0.067895792	1.776100E+01	  0.067895792	-6.052000E+00
238	  0.068096191	-6.342000E+00	  0.068096191	-1.653260E+02	  0.068096191	1.773800E+01	  0.068096191	-5.639000E+00
239	  0.068296596	-6.346000E+00	  0.068296596	-1.663760E+02	  0.068296596	1.771500E+01	  0.068296596	-5.232000E+00
240	  0.068496995	-6.351000E+00	  0.068496995	-1.674130E+02	  0.068496995	1.769400E+01	  0.068496995	-4.830000E+00
241	  0.068697393	-6.356000E+00	  0.068697393	-1.684550E+02	  0.068697393	1.767800E+01	  0.068697393	-4.428000E+00
242	  0.068897791	-6.361000E+00	  0.068897791	-1.694890E+02	  0.068897791	1.766100E+01	  0.068897791	-4.029000E+00
243	  0.069098189	-6.364000E+00	  0.069098189	-1.705480E+02	  0.069098189	1.764600E+01	  0.069098189	-3.621000E+00
244	  0.069298595	-6.365000E+00	  0.069298595	-1.715710E+02	  0.069298595	1.762500E+01	  0.069298595	-3.228000E+00
245	  0.069498993	-6.370000E+00	  0.069498993	-1.726220E+02	  0.069498993	1.761800E+01	  0.069498993	-2.824000E+00
246	  0.069699399	-6.377000E+00	  0.069699399	-1.736640E+02	  0.069699399	1.762100E+01	  0.069699399	-2.424000E+00
247	  0.069899797	-6.382000E+00	  0.069899797	-1.746880E+02	  0.069899797	1.761900E+01	  0.069899797	-2.031000E+00
248	  0.070100196	-6.387000E+00	  0.070100196	-1.757320E+02	  0.070100196	1.762100E+01	  0.070100196	-1.631000E+00
249	  0.070300601	-6.390000E+00	  0.070300601	-1.767490E+02	  0.070300601	1.761800E+01	  0.070300601	-1.242000E+00
250	  0.070501000	-6.396000E+00	  0.070501000	-1.777360E+02	  0.070501000	1.762600E+01	  0.070501000	-8.650000E-01
251	  0.070701398	-6.399000E+00	  0.070701398	-1.787350E+02	  0.070701398	1.763000E+01	  0.070701398	-4.830000E-01
252	  0.070901804	-6.401000E+00	  0.070901804	-1.797320E+02	  0.070901804	1.763500E+01	  0.070901804	-1.020000E-01
253	  0.071102202	-6.409000E+00	  0.071102202	1.792710E+02	  0.071102202	1.765400E+01	  0.071102202	2.780000E-01
254	  0.071302600	-6.417000E+00	  0.071302600	1.782850E+02	  0.071302600	1.767700E+01	  0.071302600	6.540000E-01
255	  0.071503006	-6.419000E+00	  0.071503006	1.773190E+02	  0.071503006	1.768600E+01	  0.071503006	1.023000E+00
256	  0.071703404	-6.426000E+00	  0.071703404	1.763650E+02	  0.071703404	1.771300E+01	  0.071703404	1.387000E+00
257	  0.071903802	-6.435000E+00	  0.071903802	1.753880E+02	  0.071903802	1.774400E+01	  0.071903802	1.760000E+00
258	  0.072104208	-6.439000E+00	  0.072104208	1.744350E+02	  0.072104208	1.776700E+01	  0.072104208	2.123000E+00
259	  0.072304606	-6.447000E+00	  0.072304606	1.735010E+02	  0.072304606	1.779900E+01	  0.072304606	2.479000E+00
260	  0.072505005	-6.452000E+00	  0.072505005	1.725780E+02	  0.072505005	1.782700E+01	  0.072505005	2.832000E+00
261	  0.072705410	-6.457000E+00	  0.072705410	1.716190E+02	  0.072705410	1.785800E+01	  0.072705410	3.198000E+00
262	  0.072905809	-6.463000E+00	  0.072905809	1.706730E+02	  0.072905809	1.789200E+01	  0.072905809	3.559000E+00
263	  0.073106214	-6.474000E+00	  0.073106214	1.697520E+02	  0.073106214	1.794200E+01	  0.073106214	3.910000E+00
264	  0.073306613	-6.485000E+00	  0.073306613	1.688240E+02	  0.073306613	1.799300E+01	  0.073306613	4.263000E+00
265	  0.073507011	-6.496000E+00	  0.073507011	1.678780E+02	  0.073507011	1.804900E+01	  0.073507011	4.623000E+00
266	  0.073707417	-6.507000E+00	  0.073707417	1.670040E+02	  0.073707417	1.810300E+01	  0.073707417	4.956000E+00
267	  0.073907815	-6.517000E+00	  0.073907815	1.660440E+02	  0.073907815	1.815800E+01	  0.073907815	5.322000E+00
268	  0.074108213	-6.523000E+00	  0.074108213	1.651820E+02	  0.074108213	1.820500E+01	  0.074108213	5.652000E+00
269	  0.074308619	-6.537000E+00	  0.074308619	1.642400E+02	  0.074308619	1.827400E+01	  0.074308619	6.011000E+00
270	  0.074509017	-6.545000E+00	  0.074509017	1.633210E+02	  0.074509017	1.833000E+01	  0.074509017	6.362000E+00
271	  0.074709415	-6.560000E+00	  0.074709415	1.623930E+02	  0.074709415	1.840900E+01	  0.074709415	6.715000E+00
272	  0.074909821	-6.569000E+00	  0.074909821	1.614760E+02	  0.074909821	1.847100E+01	  0.074909821	7.065000E+00
273	  0.075110219	-6.584000E+00	  0.075110219	1.605850E+02	  0.075110219	1.855200E+01	  0.075110219	7.404000E+00
274	  0.075310618	-6.595000E+00	  0.075310618	1.596610E+02	  0.075310618	1.862400E+01	  0.075310618	7.758000E+00
275	  0.075511023	-6.607000E+00	  0.075511023	1.587480E+02	  0.075511023	1.870200E+01	  0.075511023	8.106000E+00
276	  0.075711422	-6.615000E+00	  0.075711422	1.578430E+02	  0.075711422	1.877200E+01	  0.075711422	8.453000E+00
277	  0.075911827	-6.624000E+00	  0.075911827	1.569450E+02	  0.075911827	1.884600E+01	  0.075911827	8.798000E+00
278	  0.076112226	-6.635000E+00	  0.076112226	1.560170E+02	  0.076112226	1.892800E+01	  0.076112226	9.154000E+00
279	  0.076312624	-6.649000E+00	  0.076312624	1.550930E+02	  0.076312624	1.902100E+01	  0.076312624	9.508000E+00
280	  0.076513030	-6.656000E+00	  0.076513030	1.541990E+02	  0.076513030	1.909800E+01	  0.076513030	9.853000E+00
281	  0.076713428	-6.665000E+00	  0.076713428	1.532720E+02	  0.076713428	1.918400E+01	  0.076713428	1.021000E+01
282	  0.076913826	-6.679000E+00	  0.076913826	1.523680E+02	  0.076913826	1.928200E+01	  0.076913826	1.055700E+01
283	  0.077114232	-6.686000E+00	  0.077114232	1.515160E+02	  0.077114232	1.936100E+01	  0.077114232	1.088700E+01
284	  0.077314630	-6.695000E+00	  0.077314630	1.506300E+02	  0.077314630	1.945200E+01	  0.077314630	1.122900E+01
285	  0.077515028	-6.703000E+00	  0.077515028	1.497660E+02	  0.077515028	1.953800E+01	  0.077515028	1.156500E+01
286	  0.077715434	-6.713000E+00	  0.077715434	1.488780E+02	  0.077715434	1.963500E+01	  0.077715434	1.190900E+01
287	  0.077915832	-6.721000E+00	  0.077915832	1.480240E+02	  0.077915832	1.972900E+01	  0.077915832	1.224100E+01
288	  0.078116231	-6.733000E+00	  0.078116231	1.471390E+02	  0.078116231	1.983600E+01	  0.078116231	1.258400E+01
289	  0.078316636	-6.745000E+00	  0.078316636	1.462870E+02	  0.078316636	1.994200E+01	  0.078316636	1.291400E+01
290	  0.078517035	-6.753000E+00	  0.078517035	1.454200E+02	  0.078517035	2.004300E+01	  0.078517035	1.325300E+01
291	  0.078717433	-6.761000E+00	  0.078717433	1.445770E+02	  0.078717433	2.014300E+01	  0.078717433	1.358300E+01
292	  0.078917839	-6.775000E+00	  0.078917839	1.437720E+02	  0.078917839	2.025800E+01	  0.078917839	1.389400E+01
293	  0.079118237	-6.790000E+00	  0.079118237	1.429820E+02	  0.079118237	2.037500E+01	  0.079118237	1.419900E+01
294	  0.079318643	-6.800000E+00	  0.079318643	1.421270E+02	  0.079318643	2.049000E+01	  0.079318643	1.453400E+01
295	  0.079519041	-6.816000E+00	  0.079519041	1.413030E+02	  0.079519041	2.061700E+01	  0.079519041	1.485300E+01
296	  0.079719439	-6.832000E+00	  0.079719439	1.405100E+02	  0.079719439	2.074700E+01	  0.079719439	1.515900E+01
297	  0.079919845	-6.848000E+00	  0.079919845	1.397100E+02	  0.079919845	2.087800E+01	  0.079919845	1.546900E+01
298	  0.080120243	-6.864000E+00	  0.080120243	1.388990E+02	  0.080120243	2.101200E+01	  0.080120243	1.578300E+01
299	  0.080320641	-6.882000E+00	  0.080320641	1.380990E+02	  0.080320641	2.115500E+01	  0.080320641	1.609200E+01
300	  0.080521047	-6.898000E+00	  0.080521047	1.373140E+02	  0.080521047	2.129200E+01	  0.080521047	1.639600E+01
301	  0.080721445	-6.924000E+00	  0.080721445	1.364850E+02	  0.080721445	2.146300E+01	  0.080721445	1.671000E+01
302	  0.080921844	-6.946000E+00	  0.080921844	1.357140E+02	  0.080921844	2.162100E+01	  0.080921844	1.700400E+01
303	  0.081122249	-6.966000E+00	  0.081122249	1.349390E+02	  0.081122249	2.177500E+01	  0.081122249	1.730100E+01
304	  0.081322648	-6.987000E+00	  0.081322648	1.341400E+02	  0.081322648	2.193700E+01	  0.081322648	1.760700E+01
305	  0.081523046	-7.004000E+00	  0.081523046	1.333380E+02	  0.081523046	2.209100E+01	  0.081523046	1.791800E+01
306	  0.081723452	-7.030000E+00	  0.081723452	1.325470E+02	  0.081723452	2.227200E+01	  0.081723452	1.821700E+01
307	  0.081923850	-7.052000E+00	  0.081923850	1.317060E+02	  0.081923850	2.245300E+01	  0.081923850	1.853800E+01
308	  0.082124248	-7.075000E+00	  0.082124248	1.309590E+02	  0.082124248	2.262300E+01	  0.082124248	1.882200E+01
309	  0.082324654	-7.099000E+00	  0.082324654	1.301310E+02	  0.082324654	2.281300E+01	  0.082324654	1.913700E+01
310	  0.082525052	-7.124000E+00	  0.082525052	1.293550E+02	  0.082525052	2.299900E+01	  0.082525052	1.943000E+01
311	  0.082725458	-7.149000E+00	  0.082725458	1.285690E+02	  0.082725458	2.319300E+01	  0.082725458	1.972500E+01
312	  0.082925856	-7.171000E+00	  0.082925856	1.278060E+02	  0.082925856	2.337400E+01	  0.082925856	2.001600E+01
313	  0.083126254	-7.192000E+00	  0.083126254	1.269880E+02	  0.083126254	2.356700E+01	  0.083126254	2.032900E+01
314	  0.083326660	-7.216000E+00	  0.083326660	1.262060E+02	  0.083326660	2.376400E+01	  0.083326660	2.062400E+01
315	  0.083527058	-7.239000E+00	  0.083527058	1.254250E+02	  0.083527058	2.396200E+01	  0.083527058	2.092000E+01
316	  0.083727457	-7.259000E+00	  0.083727457	1.246570E+02	  0.083727457	2.415400E+01	  0.083727457	2.121300E+01
317	  0.083927862	-7.285000E+00	  0.083927862	1.238650E+02	  0.083927862	2.436700E+01	  0.083927862	2.150900E+01
318	  0.084128261	-7.303000E+00	  0.084128261	1.230820E+02	  0.084128261	2.456000E+01	  0.084128261	2.181200E+01
319	  0.084328659	-7.327000E+00	  0.084328659	1.223540E+02	  0.084328659	2.476400E+01	  0.084328659	2.208300E+01
320	  0.084529065	-7.346000E+00	  0.084529065	1.215970E+02	  0.084529065	2.496100E+01	  0.084529065	2.237400E+01
321	  0.084729463	-7.368000E+00	  0.084729463	1.208650E+02	  0.084729463	2.516800E+01	  0.084729463	2.264800E+01
322	  0.084929854	-7.389000E+00	  0.084929854	1.201070E+02	  0.084929854	2.537700E+01	  0.084929854	2.293500E+01
323	  0.085130259	-7.405000E+00	  0.085130259	1.193780E+02	  0.085130259	2.556900E+01	  0.085130259	2.321800E+01
324	  0.085330658	-7.419000E+00	  0.085330658	1.186160E+02	  0.085330658	2.576700E+01	  0.085330658	2.351600E+01
325	  0.085531056	-7.442000E+00	  0.085531056	1.178810E+02	  0.085531056	2.598800E+01	  0.085531056	2.378900E+01
326	  0.085731462	-7.462000E+00	  0.085731462	1.171520E+02	  0.085731462	2.620300E+01	  0.085731462	2.406400E+01
327	  0.085931860	-7.481000E+00	  0.085931860	1.165010E+02	  0.085931860	2.639800E+01	  0.085931860	2.431000E+01
328	  0.086132258	-7.501000E+00	  0.086132258	1.157990E+02	  0.086132258	2.661200E+01	  0.086132258	2.457300E+01
329	  0.086332664	-7.520000E+00	  0.086332664	1.151190E+02	  0.086332664	2.682300E+01	  0.086332664	2.482800E+01
330	  0.086533062	-7.546000E+00	  0.086533062	1.144220E+02	  0.086533062	2.705800E+01	  0.086533062	2.507900E+01
331	  0.086733460	-7.561000E+00	  0.086733460	1.137420E+02	  0.086733460	2.726100E+01	  0.086733460	2.534100E+01
332	  0.086933866	-7.585000E+00	  0.086933866	1.130670E+02	  0.086933866	2.749300E+01	  0.086933866	2.558400E+01
333	  0.087134264	-7.607000E+00	  0.087134264	1.124080E+02	  0.087134264	2.771500E+01	  0.087134264	2.582500E+01
334	  0.087334670	-7.629000E+00	  0.087334670	1.117480E+02	  0.087334670	2.794400E+01	  0.087334670	2.606400E+01
335	  0.087535068	-7.652000E+00	  0.087535068	1.110680E+02	  0.087535068	2.818000E+01	  0.087535068	2.631100E+01
336	  0.087735467	-7.681000E+00	  0.087735467	1.104010E+02	  0.087735467	2.843500E+01	  0.087735467	2.653900E+01
337	  0.087935872	-7.708000E+00	  0.087935872	1.097560E+02	  0.087935872	2.868000E+01	  0.087935872	2.676100E+01
338	  0.088136271	-7.734000E+00	  0.088136271	1.091010E+02	  0.088136271	2.892900E+01	  0.088136271	2.698800E+01
339	  0.088336669	-7.759000E+00	  0.088336669	1.084460E+02	  0.088336669	2.918000E+01	  0.088336669	2.721600E+01
340	  0.088537075	-7.784000E+00	  0.088537075	1.077980E+02	  0.088537075	2.942800E+01	  0.088537075	2.744000E+01
341	  0.088737473	-7.807000E+00	  0.088737473	1.071630E+02	  0.088737473	2.967200E+01	  0.088737473	2.766200E+01
342	  0.088937871	-7.835000E+00	  0.088937871	1.064880E+02	  0.088937871	2.994400E+01	  0.088937871	2.788900E+01
343	  0.089138277	-7.860000E+00	  0.089138277	1.058220E+02	  0.089138277	3.020800E+01	  0.089138277	2.811700E+01
344	  0.089338675	-7.892000E+00	  0.089338675	1.051920E+02	  0.089338675	3.048400E+01	  0.089338675	2.831500E+01
345	  0.089539073	-7.917000E+00	  0.089539073	1.045520E+02	  0.089539073	3.074500E+01	  0.089539073	2.853100E+01
346	  0.089739479	-7.949000E+00	  0.089739479	1.039080E+02	  0.089739479	3.103100E+01	  0.089739479	2.873200E+01
347	  0.089939877	-7.974000E+00	  0.089939877	1.032740E+02	  0.089939877	3.129900E+01	  0.089939877	2.894000E+01
348	  0.090140276	-7.995000E+00	  0.090140276	1.026480E+02	  0.090140276	3.155600E+01	  0.090140276	2.915300E+01
349	  0.090340681	-8.027000E+00	  0.090340681	1.020240E+02	  0.090340681	3.184300E+01	  0.090340681	2.934200E+01
350	  0.090541080	-8.048000E+00	  0.090541080	1.013760E+02	  0.090541080	3.211400E+01	  0.090541080	2.956000E+01
351	  0.090741485	-8.081000E+00	  0.090741485	1.007690E+02	  0.090741485	3.240500E+01	  0.090741485	2.973600E+01
352	  0.090941884	-8.102000E+00	  0.090941884	1.001500E+02	  0.090941884	3.267300E+01	  0.090941884	2.994000E+01
353	  0.091142282	-8.131000E+00	  0.091142282	9.956600E+01	  0.091142282	3.295000E+01	  0.091142282	3.011200E+01
354	  0.091342688	-8.158000E+00	  0.091342688	9.892900E+01	  0.091342688	3.324500E+01	  0.091342688	3.030800E+01
355	  0.091543086	-8.185000E+00	  0.091543086	9.833400E+01	  0.091543086	3.352800E+01	  0.091543086	3.048300E+01
356	  0.091743484	-8.207000E+00	  0.091743484	9.774200E+01	  0.091743484	3.379800E+01	  0.091743484	3.067000E+01
357	  0.091943890	-8.233000E+00	  0.091943890	9.715400E+01	  0.091943890	3.408100E+01	  0.091943890	3.084300E+01
358	  0.092144288	-8.251000E+00	  0.092144288	9.655700E+01	  0.092144288	3.435000E+01	  0.092144288	3.103600E+01
359	  0.092344686	-8.278000E+00	  0.092344686	9.602300E+01	  0.092344686	3.461900E+01	  0.092344686	3.118300E+01
360	  0.092545092	-8.300000E+00	  0.092545092	9.546700E+01	  0.092545092	3.488700E+01	  0.092545092	3.134900E+01
361	  0.092745490	-8.324000E+00	  0.092745490	9.492700E+01	  0.092745490	3.515900E+01	  0.092745490	3.149900E+01
362	  0.092945889	-8.348000E+00	  0.092945889	9.440800E+01	  0.092945889	3.542300E+01	  0.092945889	3.164200E+01
363	  0.093146294	-8.368000E+00	  0.093146294	9.387700E+01	  0.093146294	3.568100E+01	  0.093146294	3.180000E+01
364	  0.093346693	-8.392000E+00	  0.093346693	9.339300E+01	  0.093346693	3.593700E+01	  0.093346693	3.192400E+01
365	  0.093547091	-8.418000E+00	  0.093547091	9.285700E+01	  0.093547091	3.621900E+01	  0.093547091	3.206400E+01
366	  0.093747497	-8.437000E+00	  0.093747497	9.239200E+01	  0.093747497	3.645800E+01	  0.093747497	3.219100E+01
367	  0.093947895	-8.461000E+00	  0.093947895	9.186200E+01	  0.093947895	3.673700E+01	  0.093947895	3.233000E+01
368	  0.094148301	-8.482000E+00	  0.094148301	9.138400E+01	  0.094148301	3.699000E+01	  0.094148301	3.245400E+01
369	  0.094348699	-8.502000E+00	  0.094348699	9.090400E+01	  0.094348699	3.724200E+01	  0.094348699	3.258100E+01
370	  0.094549097	-8.530000E+00	  0.094549097	9.044700E+01	  0.094549097	3.750700E+01	  0.094549097	3.267500E+01
371	  0.094749503	-8.552000E+00	  0.094749503	8.999000E+01	  0.094749503	3.775800E+01	  0.094749503	3.278400E+01
372	  0.094949901	-8.575000E+00	  0.094949901	8.951900E+01	  0.094949901	3.801700E+01	  0.094949901	3.289600E+01
373	  0.095150299	-8.593000E+00	  0.095150299	8.904800E+01	  0.095150299	3.827000E+01	  0.095150299	3.301800E+01
374	  0.095350705	-8.613000E+00	  0.095350705	8.859200E+01	  0.095350705	3.852100E+01	  0.095350705	3.312700E+01
375	  0.095551103	-8.637000E+00	  0.095551103	8.812900E+01	  0.095551103	3.878500E+01	  0.095551103	3.322900E+01
376	  0.095751502	-8.653000E+00	  0.095751502	8.766200E+01	  0.095751502	3.903500E+01	  0.095751502	3.335100E+01
377	  0.095951907	-8.675000E+00	  0.095951907	8.722700E+01	  0.095951907	3.928800E+01	  0.095951907	3.344200E+01
378	  0.096152306	-8.693000E+00	  0.096152306	8.680200E+01	  0.096152306	3.952500E+01	  0.096152306	3.354200E+01
379	  0.096352704	-8.709000E+00	  0.096352704	8.635700E+01	  0.096352704	3.977100E+01	  0.096352704	3.365100E+01
380	  0.096553110	-8.732000E+00	  0.096553110	8.592900E+01	  0.096553110	4.002500E+01	  0.096553110	3.373400E+01
381	  0.096753508	-8.743000E+00	  0.096753508	8.547800E+01	  0.096753508	4.026400E+01	  0.096753508	3.386000E+01
382	  0.096953906	-8.755000E+00	  0.096953906	8.505000E+01	  0.096953906	4.049700E+01	  0.096953906	3.397300E+01
383	  0.097154312	-8.768000E+00	  0.097154312	8.458300E+01	  0.097154312	4.075300E+01	  0.097154312	3.409300E+01
384	  0.097354710	-8.782000E+00	  0.097354710	8.418000E+01	  0.097354710	4.098100E+01	  0.097354710	3.419100E+01
385	  0.097555116	-8.793000E+00	  0.097555116	8.376300E+01	  0.097555116	4.121200E+01	  0.097555116	3.429700E+01
386	  0.097755514	-8.804000E+00	  0.097755514	8.332000E+01	  0.097755514	4.145500E+01	  0.097755514	3.441600E+01
387	  0.097955912	-8.814000E+00	  0.097955912	8.293300E+01	  0.097955912	4.167000E+01	  0.097955912	3.451600E+01
388	  0.098156318	-8.822000E+00	  0.098156318	8.252300E+01	  0.098156318	4.189600E+01	  0.098156318	3.462800E+01
389	  0.098356716	-8.830000E+00	  0.098356716	8.211600E+01	  0.098356716	4.212200E+01	  0.098356716	3.473700E+01
390	  0.098557115	-8.834000E+00	  0.098557115	8.169700E+01	  0.098557115	4.234600E+01	  0.098557115	3.486400E+01
391	  0.098757520	-8.841000E+00	  0.098757520	8.127400E+01	  0.098757520	4.258000E+01	  0.098757520	3.498200E+01
392	  0.098957919	-8.848000E+00	  0.098957919	8.085900E+01	  0.098957919	4.281200E+01	  0.098957919	3.509700E+01
393	  0.099158317	-8.844000E+00	  0.099158317	8.048700E+01	  0.099158317	4.299800E+01	  0.099158317	3.523500E+01
394	  0.099358723	-8.846000E+00	  0.099358723	8.007300E+01	  0.099358723	4.322400E+01	  0.099358723	3.536200E+01
395	  0.099559121	-8.848000E+00	  0.099559121	7.966900E+01	  0.099559121	4.344400E+01	  0.099559121	3.548900E+01
396	  0.099759519	-8.851000E+00	  0.099759519	7.928000E+01	  0.099759519	4.365900E+01	  0.099759519	3.560700E+01
397	  0.099959925	-8.849000E+00	  0.099959925	7.894400E+01	  0.099959925	4.383900E+01	  0.099959925	3.572100E+01
398	  0.100160323	-8.849000E+00	  0.100160323	7.853500E+01	  0.100160323	4.406300E+01	  0.100160323	3.585500E+01
399	  0.100360721	-8.844000E+00	  0.100360721	7.811100E+01	  0.100360721	4.428800E+01	  0.100360721	3.600600E+01
400	  0.100561127	-8.843000E+00	  0.100561127	7.770700E+01	  0.100561127	4.451100E+01	  0.100561127	3.614200E+01
401	  0.100761525	-8.839000E+00	  0.100761525	7.735000E+01	  0.100761525	4.470400E+01	  0.100761525	3.626900E+01
402	  0.100961931	-8.835000E+00	  0.100961931	7.687400E+01	  0.100961931	4.496600E+01	  0.100961931	3.643500E+01
403	  0.101162329	-8.836000E+00	  0.101162329	7.647400E+01	  0.101162329	4.519900E+01	  0.101162329	3.655500E+01
404	  0.101362728	-8.824000E+00	  0.101362728	7.607500E+01	  0.101362728	4.540500E+01	  0.101362728	3.672700E+01
405	  0.101563133	-8.822000E+00	  0.101563133	7.568900E+01	  0.101563133	4.562600E+01	  0.101563133	3.685500E+01
406	  0.101763532	-8.813000E+00	  0.101763532	7.520900E+01	  0.101763532	4.589200E+01	  0.101763532	3.703800E+01
407	  0.101963930	-8.806000E+00	  0.101963930	7.485500E+01	  0.101963930	4.608800E+01	  0.101963930	3.717600E+01
408	  0.102164328	-8.806000E+00	  0.102164328	7.435100E+01	  0.102164328	4.639200E+01	  0.102164328	3.732700E+01
409	  0.102364726	-8.791000E+00	  0.102364726	7.386500E+01	  0.102364726	4.665700E+01	  0.102364726	3.753400E+01
410	  0.102565125	-8.784000E+00	  0.102565125	7.347200E+01	  0.102565125	4.688600E+01	  0.102565125	3.768100E+01
411	  0.102765530	-8.766000E+00	  0.102765530	7.296800E+01	  0.102765530	4.716100E+01	  0.102765530	3.790900E+01
412	  0.102965929	-8.758000E+00	  0.102965929	7.253600E+01	  0.102965929	4.741600E+01	  0.102965929	3.807000E+01
413	  0.103166327	-8.743000E+00	  0.103166327	7.204200E+01	  0.103166327	4.770100E+01	  0.103166327	3.827500E+01
414	  0.103366733	-8.726000E+00	  0.103366733	7.156200E+01	  0.103366733	4.797500E+01	  0.103366733	3.849200E+01
415	  0.103567131	-8.717000E+00	  0.103567131	7.107900E+01	  0.103567131	4.827100E+01	  0.103567131	3.866900E+01
416	  0.103767529	-8.700000E+00	  0.103767529	7.056200E+01	  0.103767529	4.857800E+01	  0.103767529	3.889200E+01
417	  0.103967935	-8.693000E+00	  0.103967935	7.005100E+01	  0.103967935	4.890300E+01	  0.103967935	3.907200E+01
418	  0.104168333	-8.664000E+00	  0.104168333	6.952500E+01	  0.104168333	4.920100E+01	  0.104168333	3.935100E+01
419	  0.104368731	-8.653000E+00	  0.104368731	6.900600E+01	  0.104368731	4.953400E+01	  0.104368731	3.954400E+01
420	  0.104569137	-8.633000E+00	  0.104569137	6.852700E+01	  0.104569137	4.982600E+01	  0.104569137	3.977000E+01
421	  0.104769535	-8.615000E+00	  0.104769535	6.794200E+01	  0.104769535	5.020000E+01	  0.104769535	4.001600E+01
422	  0.104969934	-8.591000E+00	  0.104969934	6.743200E+01	  0.104969934	5.051700E+01	  0.104969934	4.026600E+01
423	  0.105170339	-8.572000E+00	  0.105170339	6.687800E+01	  0.105170339	5.087900E+01	  0.105170339	4.050800E+01
424	  0.105370738	-8.548000E+00	  0.105370738	6.631000E+01	  0.105370738	5.124700E+01	  0.105370738	4.077700E+01
425	  0.105571143	-8.527000E+00	  0.105571143	6.580300E+01	  0.105571143	5.158200E+01	  0.105571143	4.101300E+01
426	  0.105771542	-8.506000E+00	  0.105771542	6.519300E+01	  0.105771542	5.199900E+01	  0.105771542	4.127800E+01
427	  0.105971940	-8.492000E+00	  0.105971940	6.466400E+01	  0.105971940	5.237600E+01	  0.105971940	4.148000E+01
428	  0.106172346	-8.470000E+00	  0.106172346	6.408000E+01	  0.106172346	5.278500E+01	  0.106172346	4.174100E+01
429	  0.106372744	-8.443000E+00	  0.106372744	6.350600E+01	  0.106372744	5.318300E+01	  0.106372744	4.202800E+01
430	  0.106573142	-8.427000E+00	  0.106573142	6.290600E+01	  0.106573142	5.363000E+01	  0.106573142	4.225600E+01
431	  0.106773548	-8.406000E+00	  0.106773548	6.228200E+01	  0.106773548	5.409300E+01	  0.106773548	4.251900E+01
432	  0.106973946	-8.384000E+00	  0.106973946	6.175500E+01	  0.106973946	5.448400E+01	  0.106973946	4.276200E+01
433	  0.107174344	-8.372000E+00	  0.107174344	6.111300E+01	  0.107174344	5.499000E+01	  0.107174344	4.298100E+01
434	  0.107374750	-8.343000E+00	  0.107374750	6.052500E+01	  0.107374750	5.543600E+01	  0.107374750	4.327200E+01
435	  0.107575148	-8.331000E+00	  0.107575148	5.988300E+01	  0.107575148	5.595900E+01	  0.107575148	4.348500E+01
436	  0.107775547	-8.305000E+00	  0.107775547	5.924400E+01	  0.107775547	5.646900E+01	  0.107775547	4.376600E+01
437	  0.107975952	-8.289000E+00	  0.107975952	5.861000E+01	  0.107975952	5.699800E+01	  0.107975952	4.399200E+01
438	  0.108176351	-8.271000E+00	  0.108176351	5.803800E+01	  0.108176351	5.747700E+01	  0.108176351	4.421700E+01
439	  0.108376749	-8.255000E+00	  0.108376749	5.735600E+01	  0.108376749	5.806700E+01	  0.108376749	4.444200E+01
440	  0.108577155	-8.241000E+00	  0.108577155	5.669200E+01	  0.108577155	5.865200E+01	  0.108577155	4.465200E+01
441	  0.108777553	-8.228000E+00	  0.108777553	5.596500E+01	  0.108777553	5.930700E+01	  0.108777553	4.486100E+01
442	  0.108977959	-8.211000E+00	  0.108977959	5.526200E+01	  0.108977959	5.994500E+01	  0.108977959	4.508700E+01
443	  0.109178357	-8.205000E+00	  0.109178357	5.459000E+01	  0.109178357	6.057800E+01	  0.109178357	4.522800E+01
444	  0.109378755	-8.185000E+00	  0.109378755	5.387800E+01	  0.109378755	6.124500E+01	  0.109378755	4.546200E+01
445	  0.109579161	-8.172000E+00	  0.109579161	5.315300E+01	  0.109579161	6.194400E+01	  0.109579161	4.564300E+01
446	  0.109779559	-8.156000E+00	  0.109779559	5.248800E+01	  0.109779559	6.259100E+01	  0.109779559	4.583100E+01
447	  0.109979957	-8.151000E+00	  0.109979957	5.173100E+01	  0.109979957	6.335100E+01	  0.109979957	4.595100E+01
448	  0.110180363	-8.130000E+00	  0.110180363	5.100800E+01	  0.110180363	6.407700E+01	  0.110180363	4.616500E+01
449	  0.110380761	-8.123000E+00	  0.110380761	5.023200E+01	  0.110380761	6.488100E+01	  0.110380761	4.627600E+01
450	  0.110581160	-8.114000E+00	  0.110581160	4.948600E+01	  0.110581160	6.566500E+01	  0.110581160	4.639100E+01
451	  0.110781565	-8.106000E+00	  0.110781565	4.869600E+01	  0.110781565	6.650800E+01	  0.110781565	4.648500E+01
452	  0.110981964	-8.094000E+00	  0.110981964	4.791000E+01	  0.110981964	6.736100E+01	  0.110981964	4.659300E+01
453	  0.111182362	-8.088000E+00	  0.111182362	4.722000E+01	  0.111182362	6.812100E+01	  0.111182362	4.665400E+01
454	  0.111382768	-8.071000E+00	  0.111382768	4.639800E+01	  0.111382768	6.904000E+01	  0.111382768	4.677600E+01
455	  0.111583166	-8.077000E+00	  0.111583166	4.561100E+01	  0.111583166	6.993200E+01	  0.111583166	4.670500E+01
456	  0.111783572	-8.067000E+00	  0.111783572	4.481200E+01	  0.111783572	7.085300E+01	  0.111783572	4.674600E+01
457	  0.111983970	-8.061000E+00	  0.111983970	4.398000E+01	  0.111983970	7.182300E+01	  0.111983970	4.673600E+01
458	  0.112184368	-8.059000E+00	  0.112184368	4.313500E+01	  0.112184368	7.282100E+01	  0.112184368	4.667000E+01
459	  0.112384774	-8.058000E+00	  0.112384774	4.234500E+01	  0.112384774	7.376500E+01	  0.112384774	4.658300E+01
460	  0.112585172	-8.057000E+00	  0.112585172	4.154300E+01	  0.112585172	7.473200E+01	  0.112585172	4.646700E+01
461	  0.112785570	-8.053000E+00	  0.112785570	4.072700E+01	  0.112785570	7.573100E+01	  0.112785570	4.635500E+01
462	  0.112985976	-8.053000E+00	  0.112985976	3.989000E+01	  0.112985976	7.676300E+01	  0.112985976	4.619100E+01
463	  0.113186374	-8.055000E+00	  0.113186374	3.907800E+01	  0.113186374	7.776800E+01	  0.113186374	4.597800E+01
464	  0.113386773	-8.059000E+00	  0.113386773	3.821800E+01	  0.113386773	7.883800E+01	  0.113386773	4.571300E+01
465	  0.113587178	-8.067000E+00	  0.113587178	3.733500E+01	  0.113587178	7.993900E+01	  0.113587178	4.538500E+01
466	  0.113787577	-8.071000E+00	  0.113787577	3.646000E+01	  0.113787577	8.103900E+01	  0.113787577	4.505200E+01
467	  0.113987975	-8.081000E+00	  0.113987975	3.559400E+01	  0.113987975	8.212300E+01	  0.113987975	4.464700E+01
468	  0.114188381	-8.092000E+00	  0.114188381	3.468700E+01	  0.114188381	8.325500E+01	  0.114188381	4.417700E+01
469	  0.114388779	-8.100000E+00	  0.114388779	3.381200E+01	  0.114388779	8.435600E+01	  0.114388779	4.371500E+01
470	  0.114589177	-8.117000E+00	  0.114589177	3.291000E+01	  0.114589177	8.546000E+01	  0.114589177	4.312300E+01
471	  0.114789583	-8.132000E+00	  0.114789583	3.199600E+01	  0.114789583	8.658600E+01	  0.114789583	4.251300E+01
472	  0.114989981	-8.148000E+00	  0.114989981	3.103900E+01	  0.114989981	8.775000E+01	  0.114989981	4.181900E+01
473	  0.115190387	-8.166000E+00	  0.115190387	3.011900E+01	  0.115190387	8.885100E+01	  0.115190387	4.109200E+01
474	  0.115390785	-8.183000E+00	  0.115390785	2.910600E+01	  0.115390785	9.006300E+01	  0.115390785	4.026900E+01
475	  0.115591183	-8.206000E+00	  0.115591183	2.822500E+01	  0.115591183	9.106500E+01	  0.115591183	3.944700E+01
476	  0.115791589	-8.227000E+00	  0.115791589	2.718200E+01	  0.115791589	9.225900E+01	  0.115791589	3.847500E+01
477	  0.115991987	-8.257000E+00	  0.115991987	2.621900E+01	  0.115991987	9.328500E+01	  0.115991987	3.745200E+01
478	  0.116192386	-8.282000E+00	  0.116192386	2.518800E+01	  0.116192386	9.438600E+01	  0.116192386	3.635900E+01
479	  0.116392791	-8.312000E+00	  0.116392791	2.417900E+01	  0.116392791	9.540300E+01	  0.116392791	3.520500E+01
480	  0.116593190	-8.347000E+00	  0.116593190	2.316900E+01	  0.116593190	9.635000E+01	  0.116593190	3.396800E+01
481	  0.116793588	-8.375000E+00	  0.116793588	2.211400E+01	  0.116793588	9.735100E+01	  0.116793588	3.269700E+01
482	  0.116993994	-8.404000E+00	  0.116993994	2.102600E+01	  0.116993994	9.834200E+01	  0.116993994	3.134000E+01
483	  0.117194392	-8.439000E+00	  0.117194392	1.999000E+01	  0.117194392	9.918400E+01	  0.117194392	2.995800E+01
484	  0.117394790	-8.481000E+00	  0.117394790	1.893600E+01	  0.117394790	9.993800E+01	  0.117394790	2.847000E+01
485	  0.117595196	-8.517000E+00	  0.117595196	1.785400E+01	  0.117595196	1.007070E+02	  0.117595196	2.695700E+01
486	  0.117795594	-8.563000E+00	  0.117795594	1.676300E+01	  0.117795594	1.013360E+02	  0.117795594	2.533500E+01
487	  0.117995992	-8.602000E+00	  0.117995992	1.565900E+01	  0.117995992	1.019750E+02	  0.117995992	2.372000E+01
