! Anritsu VNA Master:             	Model: MS2036C/10/77
! SN:             	1601066
! /bd0/18may10/252.ew.m3.txt
! Existing Calibration Information:
! TYPE:             	Current Settings	Active Cal Settings
! TIME:             	05/10/2018 06:28:38 PM	05/10/2018 06:18:15 PM
! INTERNAL TEMP:    	60.3 C	60.0 C
! # POINTS:         	487	487
! START FREQ:       	20.601 202 MHz	20.601 202 MHz
! STOP FREQ:        	117.995 991 MHz	117.995 991 MHz
! SOURCE POWER:     	High	High
! IFBW:             	50 Hz	50 Hz
! AVG FACTOR:       	  1 	  1 
! REF PLANE 1:      	0 mm	0 mm
! REF PLANE 2:      	0 mm	0 mm
! CAL TYPE:         	Full S22	Full S22
! CAL METHOD:       	SOLT	SOLT
! CAL LINE TYPE:    	Coax	Coax
! DUT PORT 1:       	K-Conn(M)	K-Conn(M)
! DUT PORT 2:       	K-Conn(M)	K-Conn(M)
! CAL STATUS:       	OK: Accuracy High	--
! PROP-V:       	0.700
! CABLE LOSS:       	0.000 dB/m
! REF IMPEDANCE:       	50.0
! Trace Specific Parameters:	TR1	TR2	TR3	TR4
! TRACE.#.Y (GRAPH TYPE)	LOG MAG	PHASE	REAL IMPEDANCE	IMAGINARY IMPEDANCE
! TRACE.#.X 	FREQ.GHZ	FREQ.GHZ	FREQ.GHZ	FREQ.GHZ
! S-PARAMETER	S22	S22	S22	S22
! SMOOTH/APERTURE %	0	0	0	0
! WINDOW	NSL	NSL	NSL	NSL
! GATING	OFF	OFF	OFF	OFF
! FGTD	OFF	OFF	OFF	OFF
Marker Information per Trace:	TR1	TR2	TR3	TR4
!MK1	--	"MK1 TR2:  20.000 MHz,##.##"	--	--
!MK2	--	--	"MK2 TR3:  70.100 200 MHz,Z:(17.648 ohm, -1.857 ohm)"	--
!MK3	--	--	--	--
!MK4	--	--	--	--
!MK5	--	--	--	--
!MK6	--	--	--	--
!MK7	--	--	--	--
!MK8	--	--	--	--
PNT	TR1.FREQ.GHZ	TR1.LOG MAG.dB	TR2.FREQ.GHZ	TR2.PHASE.deg	TR3.FREQ.GHZ	TR3.REAL IMPEDANCE.ohm	TR4.FREQ.GHZ	TR4.IMAGINARY IMPEDANCE.ohm
1	  0.020601204	-6.450000E-01	  0.020601204	-1.294540E+02	  0.020601204	2.270000E+00	  0.020601204	-2.356600E+01
2	  0.020801604	-6.500000E-01	  0.020801604	-1.309760E+02	  0.020801604	2.258000E+00	  0.020801604	-2.276000E+01
3	  0.021002004	-6.520000E-01	  0.021002004	-1.325020E+02	  0.021002004	2.241000E+00	  0.021002004	-2.196100E+01
4	  0.021202406	-6.550000E-01	  0.021202406	-1.340420E+02	  0.021202406	2.225000E+00	  0.021202406	-2.116600E+01
5	  0.021402806	-6.590000E-01	  0.021402806	-1.355860E+02	  0.021402806	2.212000E+00	  0.021402806	-2.037700E+01
6	  0.021603208	-6.610000E-01	  0.021603208	-1.371180E+02	  0.021603208	2.196000E+00	  0.021603208	-1.960300E+01
7	  0.021803608	-6.660000E-01	  0.021803608	-1.386660E+02	  0.021803608	2.188000E+00	  0.021803608	-1.882800E+01
8	  0.022004008	-6.710000E-01	  0.022004008	-1.402120E+02	  0.022004008	2.184000E+00	  0.022004008	-1.806300E+01
9	  0.022204408	-6.760000E-01	  0.022204408	-1.417870E+02	  0.022204408	2.179000E+00	  0.022204408	-1.729000E+01
10	  0.022404809	-6.800000E-01	  0.022404809	-1.433850E+02	  0.022404809	2.171000E+00	  0.022404809	-1.651400E+01
11	  0.022605211	-6.820000E-01	  0.022605211	-1.449840E+02	  0.022605211	2.158000E+00	  0.022605211	-1.574500E+01
12	  0.022805611	-6.850000E-01	  0.022805611	-1.465930E+02	  0.022805611	2.150000E+00	  0.022805611	-1.497800E+01
13	  0.023006011	-6.910000E-01	  0.023006011	-1.481920E+02	  0.023006011	2.149000E+00	  0.023006011	-1.422100E+01
14	  0.023206413	-6.930000E-01	  0.023206413	-1.497730E+02	  0.023206413	2.140000E+00	  0.023206413	-1.348000E+01
15	  0.023406813	-6.960000E-01	  0.023406813	-1.513810E+02	  0.023406813	2.134000E+00	  0.023406813	-1.273100E+01
16	  0.023607215	-7.010000E-01	  0.023607215	-1.529790E+02	  0.023607215	2.135000E+00	  0.023607215	-1.199200E+01
17	  0.023807615	-7.100000E-01	  0.023807615	-1.545800E+02	  0.023807615	2.146000E+00	  0.023807615	-1.125700E+01
18	  0.024008015	-7.180000E-01	  0.024008015	-1.562010E+02	  0.024008015	2.159000E+00	  0.024008015	-1.051700E+01
19	  0.024208417	-7.250000E-01	  0.024208417	-1.578540E+02	  0.024208417	2.168000E+00	  0.024208417	-9.767000E+00
20	  0.024408817	-7.310000E-01	  0.024408817	-1.594920E+02	  0.024408817	2.173000E+00	  0.024408817	-9.028000E+00
21	  0.024609219	-7.380000E-01	  0.024609219	-1.611350E+02	  0.024609219	2.182000E+00	  0.024609219	-8.291000E+00
22	  0.024809619	-7.460000E-01	  0.024809619	-1.627820E+02	  0.024809619	2.196000E+00	  0.024809619	-7.555000E+00
23	  0.025010020	-7.570000E-01	  0.025010020	-1.644300E+02	  0.025010020	2.219000E+00	  0.025010020	-6.822000E+00
24	  0.025210422	-7.680000E-01	  0.025210422	-1.660860E+02	  0.025210422	2.242000E+00	  0.025210422	-6.088000E+00
25	  0.025410822	-7.800000E-01	  0.025410822	-1.677650E+02	  0.025410822	2.270000E+00	  0.025410822	-5.347000E+00
26	  0.025611224	-7.930000E-01	  0.025611224	-1.694340E+02	  0.025611224	2.300000E+00	  0.025611224	-4.613000E+00
27	  0.025811624	-8.040000E-01	  0.025811624	-1.711380E+02	  0.025811624	2.327000E+00	  0.025811624	-3.865000E+00
28	  0.026012026	-8.150000E-01	  0.026012026	-1.728500E+02	  0.026012026	2.353000E+00	  0.026012026	-3.116000E+00
29	  0.026212426	-8.280000E-01	  0.026212426	-1.745670E+02	  0.026212426	2.389000E+00	  0.026212426	-2.366000E+00
30	  0.026412826	-8.440000E-01	  0.026412826	-1.762920E+02	  0.026412826	2.430000E+00	  0.026412826	-1.614000E+00
31	  0.026613226	-8.590000E-01	  0.026613226	-1.780530E+02	  0.026613226	2.473000E+00	  0.026613226	-8.470000E-01
32	  0.026813626	-8.760000E-01	  0.026813626	-1.798110E+02	  0.026813626	2.520000E+00	  0.026813626	-8.200000E-02
33	  0.027014028	-8.940000E-01	  0.027014028	1.784220E+02	  0.027014028	2.573000E+00	  0.027014028	6.860000E-01
34	  0.027214428	-9.110000E-01	  0.027214428	1.766440E+02	  0.027214428	2.622000E+00	  0.027214428	1.460000E+00
35	  0.027414829	-9.280000E-01	  0.027414829	1.748540E+02	  0.027414829	2.674000E+00	  0.027414829	2.240000E+00
36	  0.027615231	-9.460000E-01	  0.027615231	1.730470E+02	  0.027615231	2.730000E+00	  0.027615231	3.028000E+00
37	  0.027815631	-9.650000E-01	  0.027815631	1.712240E+02	  0.027815631	2.792000E+00	  0.027815631	3.824000E+00
38	  0.028016033	-9.840000E-01	  0.028016033	1.693880E+02	  0.028016033	2.855000E+00	  0.028016033	4.628000E+00
39	  0.028216433	-1.005000E+00	  0.028216433	1.675370E+02	  0.028216433	2.924000E+00	  0.028216433	5.440000E+00
40	  0.028416833	-1.025000E+00	  0.028416833	1.656870E+02	  0.028416833	2.995000E+00	  0.028416833	6.255000E+00
41	  0.028617235	-1.046000E+00	  0.028617235	1.638330E+02	  0.028617235	3.068000E+00	  0.028617235	7.074000E+00
42	  0.028817635	-1.068000E+00	  0.028817635	1.619680E+02	  0.028817635	3.149000E+00	  0.028817635	7.902000E+00
43	  0.029018037	-1.092000E+00	  0.029018037	1.601210E+02	  0.029018037	3.235000E+00	  0.029018037	8.726000E+00
44	  0.029218437	-1.115000E+00	  0.029218437	1.582450E+02	  0.029218437	3.324000E+00	  0.029218437	9.567000E+00
45	  0.029418837	-1.139000E+00	  0.029418837	1.563500E+02	  0.029418837	3.418000E+00	  0.029418837	1.042100E+01
46	  0.029619239	-1.165000E+00	  0.029619239	1.544590E+02	  0.029619239	3.520000E+00	  0.029619239	1.127900E+01
47	  0.029819639	-1.191000E+00	  0.029819639	1.525570E+02	  0.029819639	3.627000E+00	  0.029819639	1.214700E+01
48	  0.030020041	-1.218000E+00	  0.030020041	1.506520E+02	  0.030020041	3.740000E+00	  0.030020041	1.302400E+01
49	  0.030220442	-1.245000E+00	  0.030220442	1.487510E+02	  0.030220442	3.858000E+00	  0.030220442	1.390600E+01
50	  0.030420844	-1.273000E+00	  0.030420844	1.468460E+02	  0.030420844	3.981000E+00	  0.030420844	1.479700E+01
51	  0.030621244	-1.303000E+00	  0.030621244	1.449390E+02	  0.030621244	4.117000E+00	  0.030621244	1.569600E+01
52	  0.030821642	-1.337000E+00	  0.030821642	1.430210E+02	  0.030821642	4.268000E+00	  0.030821642	1.660900E+01
53	  0.031022044	-1.370000E+00	  0.031022044	1.410970E+02	  0.031022044	4.422000E+00	  0.031022044	1.753500E+01
54	  0.031222444	-1.397000E+00	  0.031222444	1.391780E+02	  0.031222444	4.565000E+00	  0.031222444	1.846800E+01
55	  0.031422846	-1.432000E+00	  0.031422846	1.372050E+02	  0.031422846	4.741000E+00	  0.031422846	1.943900E+01
56	  0.031623244	-1.468000E+00	  0.031623244	1.352360E+02	  0.031623244	4.925000E+00	  0.031623244	2.041800E+01
57	  0.031823646	-1.508000E+00	  0.031823646	1.332610E+02	  0.031823646	5.130000E+00	  0.031823646	2.141200E+01
58	  0.032024048	-1.547000E+00	  0.032024048	1.312830E+02	  0.032024048	5.345000E+00	  0.032024048	2.242100E+01
59	  0.032224450	-1.588000E+00	  0.032224450	1.292760E+02	  0.032224450	5.572000E+00	  0.032224450	2.346000E+01
60	  0.032424849	-1.632000E+00	  0.032424849	1.272790E+02	  0.032424849	5.821000E+00	  0.032424849	2.450600E+01
61	  0.032625251	-1.673000E+00	  0.032625251	1.252450E+02	  0.032625251	6.072000E+00	  0.032625251	2.559000E+01
62	  0.032825653	-1.714000E+00	  0.032825653	1.232190E+02	  0.032825653	6.337000E+00	  0.032825653	2.668700E+01
63	  0.033026051	-1.758000E+00	  0.033026051	1.211640E+02	  0.033026051	6.625000E+00	  0.033026051	2.781600E+01
64	  0.033226453	-1.798000E+00	  0.033226453	1.190830E+02	  0.033226453	6.918000E+00	  0.033226453	2.898300E+01
65	  0.033426855	-1.842000E+00	  0.033426855	1.170250E+02	  0.033426855	7.233000E+00	  0.033426855	3.015600E+01
66	  0.033627257	-1.889000E+00	  0.033627257	1.149640E+02	  0.033627257	7.582000E+00	  0.033627257	3.135100E+01
67	  0.033827655	-1.931000E+00	  0.033827655	1.129020E+02	  0.033827655	7.927000E+00	  0.033827655	3.257300E+01
68	  0.034028057	-1.977000E+00	  0.034028057	1.108360E+02	  0.034028057	8.311000E+00	  0.034028057	3.381900E+01
69	  0.034228459	-2.026000E+00	  0.034228459	1.087720E+02	  0.034228459	8.724000E+00	  0.034228459	3.508900E+01
70	  0.034428857	-2.071000E+00	  0.034428857	1.066850E+02	  0.034428857	9.149000E+00	  0.034428857	3.640200E+01
71	  0.034629259	-2.119000E+00	  0.034629259	1.045970E+02	  0.034629259	9.611000E+00	  0.034629259	3.774400E+01
72	  0.034829661	-2.165000E+00	  0.034829661	1.024940E+02	  0.034829661	1.009600E+01	  0.034829661	3.912800E+01
73	  0.035030060	-2.215000E+00	  0.035030060	1.004080E+02	  0.035030060	1.062600E+01	  0.035030060	4.052900E+01
74	  0.035230462	-2.269000E+00	  0.035230462	9.833400E+01	  0.035230462	1.120300E+01	  0.035230462	4.195000E+01
75	  0.035430863	-2.317000E+00	  0.035430863	9.626200E+01	  0.035430863	1.179200E+01	  0.035430863	4.341000E+01
76	  0.035631265	-2.368000E+00	  0.035631265	9.417500E+01	  0.035631265	1.243300E+01	  0.035631265	4.491600E+01
77	  0.035831664	-2.420000E+00	  0.035831664	9.209700E+01	  0.035831664	1.311900E+01	  0.035831664	4.645100E+01
78	  0.036032066	-2.471000E+00	  0.036032066	9.002800E+01	  0.036032066	1.384700E+01	  0.036032066	4.801800E+01
79	  0.036232468	-2.523000E+00	  0.036232468	8.796100E+01	  0.036232468	1.463100E+01	  0.036232468	4.962400E+01
80	  0.036432866	-2.577000E+00	  0.036432866	8.587700E+01	  0.036432866	1.548100E+01	  0.036432866	5.128300E+01
81	  0.036633268	-2.630000E+00	  0.036633268	8.382600E+01	  0.036633268	1.638100E+01	  0.036633268	5.295700E+01
82	  0.036833670	-2.685000E+00	  0.036833670	8.176000E+01	  0.036833670	1.735500E+01	  0.036833670	5.468700E+01
83	  0.037034072	-2.745000E+00	  0.037034072	7.967800E+01	  0.037034072	1.844700E+01	  0.037034072	5.646100E+01
84	  0.037234470	-2.800000E+00	  0.037234470	7.761200E+01	  0.037234470	1.957600E+01	  0.037234470	5.828200E+01
85	  0.037434869	-2.859000E+00	  0.037434869	7.556400E+01	  0.037434869	2.080800E+01	  0.037434869	6.012200E+01
86	  0.037635271	-2.919000E+00	  0.037635271	7.350800E+01	  0.037635271	2.214600E+01	  0.037635271	6.201100E+01
87	  0.037835669	-2.977000E+00	  0.037835669	7.141600E+01	  0.037835669	2.359800E+01	  0.037835669	6.398800E+01
88	  0.038036071	-3.038000E+00	  0.038036071	6.933500E+01	  0.038036071	2.518100E+01	  0.038036071	6.599000E+01
89	  0.038236473	-3.100000E+00	  0.038236473	6.722700E+01	  0.038236473	2.691700E+01	  0.038236473	6.806400E+01
90	  0.038436871	-3.164000E+00	  0.038436871	6.511500E+01	  0.038436871	2.881100E+01	  0.038436871	7.017900E+01
91	  0.038637273	-3.229000E+00	  0.038637273	6.301900E+01	  0.038637273	3.086500E+01	  0.038637273	7.230800E+01
92	  0.038837675	-3.288000E+00	  0.038837675	6.092000E+01	  0.038837675	3.305000E+01	  0.038837675	7.450500E+01
93	  0.039038073	-3.350000E+00	  0.039038073	5.884000E+01	  0.039038073	3.543200E+01	  0.039038073	7.669200E+01
94	  0.039238475	-3.409000E+00	  0.039238475	5.673900E+01	  0.039238475	3.801600E+01	  0.039238475	7.894800E+01
95	  0.039438877	-3.471000E+00	  0.039438877	5.467400E+01	  0.039438877	4.081900E+01	  0.039438877	8.114400E+01
96	  0.039639279	-3.531000E+00	  0.039639279	5.257200E+01	  0.039639279	4.389400E+01	  0.039639279	8.340600E+01
97	  0.039839678	-3.591000E+00	  0.039839678	5.045400E+01	  0.039839678	4.726200E+01	  0.039839678	8.567500E+01
98	  0.040040080	-3.650000E+00	  0.040040080	4.837000E+01	  0.040040080	5.087000E+01	  0.040040080	8.787500E+01
99	  0.040240481	-3.708000E+00	  0.040240481	4.625900E+01	  0.040240481	5.485000E+01	  0.040240481	9.004800E+01
100	  0.040440880	-3.765000E+00	  0.040440880	4.418200E+01	  0.040440880	5.910600E+01	  0.040440880	9.210700E+01
101	  0.040641282	-3.822000E+00	  0.040641282	4.211400E+01	  0.040641282	6.371400E+01	  0.040641282	9.402800E+01
102	  0.040841684	-3.876000E+00	  0.040841684	4.004000E+01	  0.040841684	6.870800E+01	  0.040841684	9.582700E+01
103	  0.041042086	-3.935000E+00	  0.041042086	3.800800E+01	  0.041042086	7.405100E+01	  0.041042086	9.728600E+01
104	  0.041242484	-3.991000E+00	  0.041242484	3.597400E+01	  0.041242484	7.979900E+01	  0.041242484	9.849200E+01
105	  0.041442886	-4.047000E+00	  0.041442886	3.392100E+01	  0.041442886	8.602800E+01	  0.041442886	9.937900E+01
106	  0.041643288	-4.103000E+00	  0.041643288	3.189500E+01	  0.041643288	9.260500E+01	  0.041643288	9.981700E+01
107	  0.041843686	-4.155000E+00	  0.041843686	2.981900E+01	  0.041843686	9.975700E+01	  0.041843686	9.982500E+01
108	  0.042044088	-4.209000E+00	  0.042044088	2.780700E+01	  0.042044088	1.070920E+02	  0.042044088	9.915300E+01
109	  0.042244490	-4.262000E+00	  0.042244490	2.579100E+01	  0.042244490	1.147780E+02	  0.042244490	9.778900E+01
110	  0.042444889	-4.317000E+00	  0.042444889	2.380700E+01	  0.042444889	1.225880E+02	  0.042444889	9.557700E+01
111	  0.042645290	-4.372000E+00	  0.042645290	2.180800E+01	  0.042645290	1.305950E+02	  0.042645290	9.241400E+01
112	  0.042845692	-4.427000E+00	  0.042845692	1.982000E+01	  0.042845692	1.385730E+02	  0.042845692	8.830200E+01
113	  0.043046094	-4.479000E+00	  0.043046094	1.782800E+01	  0.043046094	1.464460E+02	  0.043046094	8.319400E+01
114	  0.043246493	-4.532000E+00	  0.043246493	1.584000E+01	  0.043246493	1.539860E+02	  0.043246493	7.701100E+01
115	  0.043446895	-4.585000E+00	  0.043446895	1.386100E+01	  0.043446895	1.609360E+02	  0.043446895	6.974500E+01
116	  0.043647297	-4.639000E+00	  0.043647297	1.188700E+01	  0.043647297	1.671210E+02	  0.043647297	6.149000E+01
117	  0.043847695	-4.689000E+00	  0.043847695	9.929000E+00	  0.043847695	1.723960E+02	  0.043847695	5.247300E+01
118	  0.044048097	-4.741000E+00	  0.044048097	7.943000E+00	  0.044048097	1.766190E+02	  0.044048097	4.256900E+01
119	  0.044248499	-4.791000E+00	  0.044248499	5.981000E+00	  0.044248499	1.795710E+02	  0.044248499	3.225500E+01
120	  0.044448901	-4.842000E+00	  0.044448901	4.036000E+00	  0.044448901	1.811540E+02	  0.044448901	2.172900E+01
121	  0.044649299	-4.888000E+00	  0.044649299	2.082000E+00	  0.044649299	1.815910E+02	  0.044649299	1.112500E+01
122	  0.044849701	-4.939000E+00	  0.044849701	1.460000E-01	  0.044849701	1.805570E+02	  0.044849701	7.670000E-01
123	  0.045050103	-4.987000E+00	  0.045050103	-1.807000E+00	  0.045050103	1.783900E+02	  0.045050103	-9.282000E+00
124	  0.045250501	-5.035000E+00	  0.045250501	-3.724000E+00	  0.045250501	1.751510E+02	  0.045250501	-1.856600E+01
125	  0.045450903	-5.082000E+00	  0.045450903	-5.650000E+00	  0.045450903	1.710210E+02	  0.045450903	-2.719600E+01
126	  0.045651305	-5.125000E+00	  0.045651305	-7.584000E+00	  0.045651305	1.662370E+02	  0.045651305	-3.510700E+01
127	  0.045851704	-5.167000E+00	  0.045851704	-9.481000E+00	  0.045851704	1.609450E+02	  0.045851704	-4.203600E+01
128	  0.046052102	-5.211000E+00	  0.046052102	-1.137500E+01	  0.046052102	1.552090E+02	  0.046052102	-4.809000E+01
129	  0.046252504	-5.250000E+00	  0.046252504	-1.325300E+01	  0.046252504	1.493130E+02	  0.046252504	-5.332000E+01
130	  0.046452906	-5.292000E+00	  0.046452906	-1.511900E+01	  0.046452906	1.432670E+02	  0.046452906	-5.769500E+01
131	  0.046653304	-5.329000E+00	  0.046653304	-1.699600E+01	  0.046653304	1.371970E+02	  0.046653304	-6.142600E+01
132	  0.046853706	-5.368000E+00	  0.046853706	-1.882700E+01	  0.046853706	1.312830E+02	  0.046853706	-6.436700E+01
133	  0.047054108	-5.407000E+00	  0.047054108	-2.069200E+01	  0.047054108	1.253660E+02	  0.047054108	-6.675400E+01
134	  0.047254506	-5.442000E+00	  0.047254506	-2.251900E+01	  0.047254506	1.197550E+02	  0.047254506	-6.861900E+01
135	  0.047454908	-5.478000E+00	  0.047454908	-2.432700E+01	  0.047454908	1.143740E+02	  0.047454908	-6.997200E+01
136	  0.047655310	-5.514000E+00	  0.047655310	-2.613300E+01	  0.047655310	1.091980E+02	  0.047655310	-7.090100E+01
137	  0.047855709	-5.551000E+00	  0.047855709	-2.790100E+01	  0.047855709	1.043430E+02	  0.047855709	-7.143000E+01
138	  0.048056111	-5.585000E+00	  0.048056111	-2.968400E+01	  0.048056111	9.968900E+01	  0.048056111	-7.172100E+01
139	  0.048256513	-5.622000E+00	  0.048256513	-3.142500E+01	  0.048256513	9.536000E+01	  0.048256513	-7.168900E+01
140	  0.048456915	-5.659000E+00	  0.048456915	-3.316700E+01	  0.048456915	9.125300E+01	  0.048456915	-7.146000E+01
141	  0.048657313	-5.690000E+00	  0.048657313	-3.490600E+01	  0.048657313	8.737300E+01	  0.048657313	-7.111500E+01
142	  0.048857715	-5.723000E+00	  0.048857715	-3.667200E+01	  0.048857715	8.364800E+01	  0.048857715	-7.059400E+01
143	  0.049058117	-5.757000E+00	  0.049058117	-3.840800E+01	  0.049058117	8.018900E+01	  0.049058117	-6.991800E+01
144	  0.049258515	-5.789000E+00	  0.049258515	-4.011900E+01	  0.049258515	7.696700E+01	  0.049258515	-6.917200E+01
145	  0.049458917	-5.820000E+00	  0.049458917	-4.183600E+01	  0.049458917	7.391500E+01	  0.049458917	-6.833500E+01
146	  0.049659319	-5.853000E+00	  0.049659319	-4.352700E+01	  0.049659319	7.107900E+01	  0.049659319	-6.741800E+01
147	  0.049859721	-5.885000E+00	  0.049859721	-4.521400E+01	  0.049859721	6.840900E+01	  0.049859721	-6.644800E+01
148	  0.050060119	-5.916000E+00	  0.050060119	-4.691400E+01	  0.050060119	6.586400E+01	  0.050060119	-6.544200E+01
149	  0.050260521	-5.944000E+00	  0.050260521	-4.861100E+01	  0.050260521	6.346000E+01	  0.050260521	-6.441800E+01
150	  0.050460923	-5.971000E+00	  0.050460923	-5.032700E+01	  0.050460923	6.116000E+01	  0.050460923	-6.336100E+01
151	  0.050661322	-5.996000E+00	  0.050661322	-5.198100E+01	  0.050661322	5.906000E+01	  0.050661322	-6.232500E+01
152	  0.050861724	-6.022000E+00	  0.050861724	-5.366700E+01	  0.050861724	5.703700E+01	  0.050861724	-6.124500E+01
153	  0.051062126	-6.044000E+00	  0.051062126	-5.532200E+01	  0.051062126	5.514700E+01	  0.051062126	-6.019300E+01
154	  0.051262524	-6.068000E+00	  0.051262524	-5.696700E+01	  0.051262524	5.337600E+01	  0.051262524	-5.911800E+01
155	  0.051462926	-6.091000E+00	  0.051462926	-5.860600E+01	  0.051462926	5.169800E+01	  0.051462926	-5.805000E+01
156	  0.051663328	-6.108000E+00	  0.051663328	-6.021300E+01	  0.051663328	5.012000E+01	  0.051663328	-5.702800E+01
157	  0.051863730	-6.126000E+00	  0.051863730	-6.186100E+01	  0.051863730	4.858000E+01	  0.051863730	-5.597900E+01
158	  0.052064128	-6.141000E+00	  0.052064128	-6.344000E+01	  0.052064128	4.717600E+01	  0.052064128	-5.497800E+01
159	  0.052264530	-6.154000E+00	  0.052264530	-6.504700E+01	  0.052264530	4.580300E+01	  0.052264530	-5.397800E+01
160	  0.052464932	-6.161000E+00	  0.052464932	-6.661900E+01	  0.052464932	4.450300E+01	  0.052464932	-5.302900E+01
161	  0.052665330	-6.175000E+00	  0.052665330	-6.815100E+01	  0.052665330	4.332400E+01	  0.052665330	-5.206000E+01
162	  0.052865732	-6.187000E+00	  0.052865732	-6.970400E+01	  0.052865732	4.217700E+01	  0.052865732	-5.109400E+01
163	  0.053066134	-6.200000E+00	  0.053066134	-7.123100E+01	  0.053066134	4.110200E+01	  0.053066134	-5.014600E+01
164	  0.053266536	-6.207000E+00	  0.053266536	-7.270900E+01	  0.053266536	4.008600E+01	  0.053266536	-4.925800E+01
165	  0.053466935	-6.220000E+00	  0.053466935	-7.422700E+01	  0.053466935	3.911500E+01	  0.053466935	-4.831900E+01
166	  0.053667337	-6.229000E+00	  0.053667337	-7.569900E+01	  0.053667337	3.819600E+01	  0.053667337	-4.743500E+01
167	  0.053867739	-6.232000E+00	  0.053867739	-7.716200E+01	  0.053867739	3.730300E+01	  0.053867739	-4.658200E+01
168	  0.054068137	-6.237000E+00	  0.054068137	-7.861800E+01	  0.054068137	3.645600E+01	  0.054068137	-4.573300E+01
169	  0.054268539	-6.250000E+00	  0.054268539	-8.003400E+01	  0.054268539	3.569600E+01	  0.054268539	-4.488100E+01
170	  0.054468941	-6.259000E+00	  0.054468941	-8.146200E+01	  0.054468941	3.494700E+01	  0.054468941	-4.404400E+01
171	  0.054669335	-6.265000E+00	  0.054669335	-8.286400E+01	  0.054669335	3.423100E+01	  0.054669335	-4.323700E+01
172	  0.054869737	-6.276000E+00	  0.054869737	-8.427200E+01	  0.054869737	3.355600E+01	  0.054869737	-4.241900E+01
173	  0.055070139	-6.284000E+00	  0.055070139	-8.567800E+01	  0.055070139	3.289900E+01	  0.055070139	-4.161800E+01
174	  0.055270538	-6.292000E+00	  0.055270538	-8.704700E+01	  0.055270538	3.228700E+01	  0.055270538	-4.084200E+01
175	  0.055470940	-6.302000E+00	  0.055470940	-8.845200E+01	  0.055470940	3.168900E+01	  0.055470940	-4.004900E+01
176	  0.055671342	-6.311000E+00	  0.055671342	-8.984100E+01	  0.055671342	3.111700E+01	  0.055671342	-3.927500E+01
177	  0.055871744	-6.313000E+00	  0.055871744	-9.123300E+01	  0.055871744	3.054300E+01	  0.055871744	-3.852500E+01
178	  0.056072142	-6.323000E+00	  0.056072142	-9.260400E+01	  0.056072142	3.002300E+01	  0.056072142	-3.777200E+01
179	  0.056272544	-6.330000E+00	  0.056272544	-9.397100E+01	  0.056272544	2.951700E+01	  0.056272544	-3.703400E+01
180	  0.056472946	-6.338000E+00	  0.056472946	-9.535200E+01	  0.056472946	2.902600E+01	  0.056472946	-3.629600E+01
181	  0.056673344	-6.344000E+00	  0.056673344	-9.670600E+01	  0.056673344	2.855900E+01	  0.056673344	-3.558000E+01
182	  0.056873746	-6.349000E+00	  0.056873746	-9.806100E+01	  0.056873746	2.810100E+01	  0.056873746	-3.487500E+01
183	  0.057074148	-6.354000E+00	  0.057074148	-9.943000E+01	  0.057074148	2.765900E+01	  0.057074148	-3.416700E+01
184	  0.057274550	-6.355000E+00	  0.057274550	-1.007800E+02	  0.057274550	2.722500E+01	  0.057274550	-3.348400E+01
185	  0.057474948	-6.356000E+00	  0.057474948	-1.021290E+02	  0.057474948	2.680800E+01	  0.057474948	-3.280600E+01
186	  0.057675350	-6.359000E+00	  0.057675350	-1.034910E+02	  0.057675350	2.640700E+01	  0.057675350	-3.212300E+01
187	  0.057875752	-6.361000E+00	  0.057875752	-1.048320E+02	  0.057875752	2.602200E+01	  0.057875752	-3.146000E+01
188	  0.058076151	-6.356000E+00	  0.058076151	-1.061620E+02	  0.058076151	2.563200E+01	  0.058076151	-3.081800E+01
189	  0.058276553	-6.356000E+00	  0.058276553	-1.074630E+02	  0.058276553	2.528000E+01	  0.058276553	-3.018600E+01
190	  0.058476955	-6.350000E+00	  0.058476955	-1.087820E+02	  0.058476955	2.491500E+01	  0.058476955	-2.956100E+01
191	  0.058677353	-6.347000E+00	  0.058677353	-1.100960E+02	  0.058677353	2.457500E+01	  0.058677353	-2.893600E+01
192	  0.058877755	-6.341000E+00	  0.058877755	-1.113870E+02	  0.058877755	2.424100E+01	  0.058877755	-2.833200E+01
193	  0.059078157	-6.333000E+00	  0.059078157	-1.126720E+02	  0.059078157	2.391400E+01	  0.059078157	-2.773700E+01
194	  0.059278559	-6.325000E+00	  0.059278559	-1.139580E+02	  0.059278559	2.359500E+01	  0.059278559	-2.714700E+01
195	  0.059478957	-6.317000E+00	  0.059478957	-1.152200E+02	  0.059478957	2.329300E+01	  0.059478957	-2.657000E+01
196	  0.059679359	-6.313000E+00	  0.059679359	-1.164750E+02	  0.059679359	2.301600E+01	  0.059679359	-2.599300E+01
197	  0.059879761	-6.304000E+00	  0.059879761	-1.177050E+02	  0.059879761	2.273600E+01	  0.059879761	-2.543900E+01
198	  0.060080159	-6.300000E+00	  0.060080159	-1.189540E+02	  0.060080159	2.247600E+01	  0.060080159	-2.487200E+01
199	  0.060280561	-6.297000E+00	  0.060280561	-1.201800E+02	  0.060280561	2.223100E+01	  0.060280561	-2.431900E+01
200	  0.060480963	-6.292000E+00	  0.060480963	-1.213860E+02	  0.060480963	2.199200E+01	  0.060480963	-2.378000E+01
201	  0.060681365	-6.289000E+00	  0.060681365	-1.225900E+02	  0.060681365	2.176700E+01	  0.060681365	-2.324300E+01
202	  0.060881764	-6.283000E+00	  0.060881764	-1.237960E+02	  0.060881764	2.154100E+01	  0.060881764	-2.271000E+01
203	  0.061082166	-6.278000E+00	  0.061082166	-1.249890E+02	  0.061082166	2.132700E+01	  0.061082166	-2.218600E+01
204	  0.061282568	-6.279000E+00	  0.061282568	-1.261900E+02	  0.061282568	2.113400E+01	  0.061282568	-2.165500E+01
205	  0.061482966	-6.279000E+00	  0.061482966	-1.273700E+02	  0.061482966	2.094700E+01	  0.061482966	-2.113700E+01
206	  0.061683368	-6.283000E+00	  0.061683368	-1.285410E+02	  0.061683368	2.078100E+01	  0.061683368	-2.062200E+01
207	  0.061883770	-6.287000E+00	  0.061883770	-1.297100E+02	  0.061883770	2.062200E+01	  0.061883770	-2.011000E+01
208	  0.062084168	-6.290000E+00	  0.062084168	-1.309080E+02	  0.062084168	2.045800E+01	  0.062084168	-1.959200E+01
209	  0.062284570	-6.290000E+00	  0.062284570	-1.320700E+02	  0.062284570	2.030000E+01	  0.062284570	-1.909200E+01
210	  0.062484972	-6.283000E+00	  0.062484972	-1.332070E+02	  0.062484972	2.012900E+01	  0.062484972	-1.861300E+01
211	  0.062685370	-6.290000E+00	  0.062685370	-1.343880E+02	  0.062685370	1.999500E+01	  0.062685370	-1.810500E+01
212	  0.062885776	-6.292000E+00	  0.062885776	-1.355680E+02	  0.062885776	1.985400E+01	  0.062885776	-1.760500E+01
213	  0.063086174	-6.300000E+00	  0.063086174	-1.367530E+02	  0.063086174	1.973300E+01	  0.063086174	-1.710100E+01
214	  0.063286573	-6.307000E+00	  0.063286573	-1.379540E+02	  0.063286573	1.961400E+01	  0.063286573	-1.659300E+01
215	  0.063486971	-6.304000E+00	  0.063486971	-1.391130E+02	  0.063486971	1.947700E+01	  0.063486971	-1.611200E+01
216	  0.063687377	-6.303000E+00	  0.063687377	-1.402430E+02	  0.063687377	1.935300E+01	  0.063687377	-1.564500E+01
217	  0.063887775	-6.310000E+00	  0.063887775	-1.414360E+02	  0.063887775	1.924900E+01	  0.063887775	-1.514700E+01
218	  0.064088173	-6.312000E+00	  0.064088173	-1.426150E+02	  0.064088173	1.913600E+01	  0.064088173	-1.466200E+01
219	  0.064288579	-6.316000E+00	  0.064288579	-1.437800E+02	  0.064288579	1.903600E+01	  0.064288579	-1.418200E+01
220	  0.064488977	-6.318000E+00	  0.064488977	-1.449670E+02	  0.064488977	1.893100E+01	  0.064488977	-1.369800E+01
221	  0.064689375	-6.321000E+00	  0.064689375	-1.461140E+02	  0.064689375	1.883700E+01	  0.064689375	-1.323100E+01
222	  0.064889781	-6.325000E+00	  0.064889781	-1.472780E+02	  0.064889781	1.874900E+01	  0.064889781	-1.275800E+01
223	  0.065090179	-6.326000E+00	  0.065090179	-1.484230E+02	  0.065090179	1.865700E+01	  0.065090179	-1.229700E+01
224	  0.065290578	-6.327000E+00	  0.065290578	-1.495700E+02	  0.065290578	1.856900E+01	  0.065290578	-1.183600E+01
225	  0.065490983	-6.325000E+00	  0.065490983	-1.506920E+02	  0.065490983	1.848000E+01	  0.065490983	-1.138800E+01
226	  0.065691382	-6.326000E+00	  0.065691382	-1.518240E+02	  0.065691382	1.840200E+01	  0.065691382	-1.093600E+01
227	  0.065891780	-6.326000E+00	  0.065891780	-1.529530E+02	  0.065891780	1.832500E+01	  0.065891780	-1.048700E+01
228	  0.066092186	-6.326000E+00	  0.066092186	-1.540760E+02	  0.066092186	1.825000E+01	  0.066092186	-1.004200E+01
229	  0.066292584	-6.329000E+00	  0.066292584	-1.551590E+02	  0.066292584	1.819200E+01	  0.066292584	-9.613000E+00
230	  0.066492982	-6.329000E+00	  0.066492982	-1.562440E+02	  0.066492982	1.812500E+01	  0.066492982	-9.185000E+00
231	  0.066693388	-6.324000E+00	  0.066693388	-1.573360E+02	  0.066693388	1.805200E+01	  0.066693388	-8.757000E+00
232	  0.066893786	-6.331000E+00	  0.066893786	-1.584400E+02	  0.066893786	1.801000E+01	  0.066893786	-8.322000E+00
233	  0.067094192	-6.333000E+00	  0.067094192	-1.595050E+02	  0.067094192	1.796000E+01	  0.067094192	-7.905000E+00
234	  0.067294590	-6.334000E+00	  0.067294590	-1.605300E+02	  0.067294590	1.791400E+01	  0.067294590	-7.504000E+00
235	  0.067494988	-6.338000E+00	  0.067494988	-1.616110E+02	  0.067494988	1.787400E+01	  0.067494988	-7.081000E+00
236	  0.067695394	-6.340000E+00	  0.067695394	-1.626810E+02	  0.067695394	1.783300E+01	  0.067695394	-6.665000E+00
237	  0.067895792	-6.339000E+00	  0.067895792	-1.637290E+02	  0.067895792	1.779000E+01	  0.067895792	-6.258000E+00
238	  0.068096191	-6.350000E+00	  0.068096191	-1.647850E+02	  0.068096191	1.777700E+01	  0.068096191	-5.846000E+00
239	  0.068296596	-6.354000E+00	  0.068296596	-1.658210E+02	  0.068296596	1.775200E+01	  0.068296596	-5.445000E+00
240	  0.068496995	-6.357000E+00	  0.068496995	-1.668620E+02	  0.068496995	1.772500E+01	  0.068496995	-5.042000E+00
241	  0.068697393	-6.361000E+00	  0.068697393	-1.678890E+02	  0.068697393	1.770500E+01	  0.068697393	-4.645000E+00
242	  0.068897791	-6.366000E+00	  0.068897791	-1.689580E+02	  0.068897791	1.769000E+01	  0.068897791	-4.232000E+00
243	  0.069098189	-6.369000E+00	  0.069098189	-1.700150E+02	  0.069098189	1.767100E+01	  0.069098189	-3.825000E+00
244	  0.069298595	-6.371000E+00	  0.069298595	-1.710190E+02	  0.069298595	1.765300E+01	  0.069298595	-3.439000E+00
245	  0.069498993	-6.376000E+00	  0.069498993	-1.720520E+02	  0.069498993	1.764400E+01	  0.069498993	-3.042000E+00
246	  0.069699399	-6.379000E+00	  0.069699399	-1.731230E+02	  0.069699399	1.763300E+01	  0.069699399	-2.631000E+00
247	  0.069899797	-6.387000E+00	  0.069899797	-1.741420E+02	  0.069899797	1.763800E+01	  0.069899797	-2.240000E+00
248	  0.070100196	-6.396000E+00	  0.070100196	-1.751430E+02	  0.070100196	1.764800E+01	  0.070100196	-1.856000E+00
249	  0.070300601	-6.397000E+00	  0.070300601	-1.761600E+02	  0.070300601	1.764000E+01	  0.070300601	-1.467000E+00
250	  0.070501000	-6.398000E+00	  0.070501000	-1.771450E+02	  0.070501000	1.763600E+01	  0.070501000	-1.090000E+00
251	  0.070701398	-6.401000E+00	  0.070701398	-1.781640E+02	  0.070701398	1.763700E+01	  0.070701398	-7.010000E-01
252	  0.070901804	-6.404000E+00	  0.070901804	-1.791540E+02	  0.070901804	1.764200E+01	  0.070901804	-3.220000E-01
253	  0.071102202	-6.408000E+00	  0.071102202	1.798500E+02	  0.071102202	1.765200E+01	  0.071102202	5.600000E-02
254	  0.071302600	-6.415000E+00	  0.071302600	1.788820E+02	  0.071302600	1.767100E+01	  0.071302600	4.260000E-01
255	  0.071503006	-6.419000E+00	  0.071503006	1.779200E+02	  0.071503006	1.768400E+01	  0.071503006	7.930000E-01
256	  0.071703404	-6.425000E+00	  0.071703404	1.769590E+02	  0.071703404	1.770500E+01	  0.071703404	1.160000E+00
257	  0.071903802	-6.429000E+00	  0.071903802	1.759790E+02	  0.071903802	1.772400E+01	  0.071903802	1.534000E+00
258	  0.072104208	-6.436000E+00	  0.072104208	1.750380E+02	  0.072104208	1.775000E+01	  0.072104208	1.893000E+00
259	  0.072304606	-6.440000E+00	  0.072304606	1.741230E+02	  0.072304606	1.777300E+01	  0.072304606	2.242000E+00
260	  0.072505005	-6.446000E+00	  0.072505005	1.731810E+02	  0.072505005	1.780200E+01	  0.072505005	2.602000E+00
261	  0.072705410	-6.454000E+00	  0.072705410	1.722800E+02	  0.072705410	1.783800E+01	  0.072705410	2.945000E+00
262	  0.072905809	-6.458000E+00	  0.072905809	1.713460E+02	  0.072905809	1.786500E+01	  0.072905809	3.302000E+00
263	  0.073106214	-6.468000E+00	  0.073106214	1.704310E+02	  0.073106214	1.791200E+01	  0.073106214	3.651000E+00
264	  0.073306613	-6.478000E+00	  0.073306613	1.695220E+02	  0.073306613	1.795900E+01	  0.073306613	3.997000E+00
265	  0.073507011	-6.492000E+00	  0.073507011	1.685990E+02	  0.073507011	1.801700E+01	  0.073507011	4.348000E+00
266	  0.073707417	-6.500000E+00	  0.073707417	1.677220E+02	  0.073707417	1.806300E+01	  0.073707417	4.682000E+00
267	  0.073907815	-6.511000E+00	  0.073907815	1.667820E+02	  0.073907815	1.812000E+01	  0.073907815	5.040000E+00
268	  0.074108213	-6.522000E+00	  0.074108213	1.659330E+02	  0.074108213	1.817600E+01	  0.074108213	5.364000E+00
269	  0.074308619	-6.535000E+00	  0.074308619	1.650110E+02	  0.074308619	1.824000E+01	  0.074308619	5.714000E+00
270	  0.074509017	-6.544000E+00	  0.074509017	1.641050E+02	  0.074509017	1.829800E+01	  0.074509017	6.060000E+00
271	  0.074709415	-6.561000E+00	  0.074709415	1.631890E+02	  0.074709415	1.837700E+01	  0.074709415	6.408000E+00
272	  0.074909821	-6.573000E+00	  0.074909821	1.622610E+02	  0.074909821	1.844700E+01	  0.074909821	6.762000E+00
273	  0.075110219	-6.589000E+00	  0.075110219	1.613460E+02	  0.075110219	1.852800E+01	  0.075110219	7.109000E+00
274	  0.075310618	-6.604000E+00	  0.075310618	1.604260E+02	  0.075310618	1.861100E+01	  0.075310618	7.459000E+00
275	  0.075511023	-6.613000E+00	  0.075511023	1.595390E+02	  0.075511023	1.867600E+01	  0.075511023	7.799000E+00
276	  0.075711422	-6.623000E+00	  0.075711422	1.586130E+02	  0.075711422	1.875100E+01	  0.075711422	8.153000E+00
277	  0.075911827	-6.637000E+00	  0.075911827	1.577150E+02	  0.075911827	1.883700E+01	  0.075911827	8.495000E+00
278	  0.076112226	-6.648000E+00	  0.076112226	1.567770E+02	  0.076112226	1.891700E+01	  0.076112226	8.854000E+00
279	  0.076312624	-6.661000E+00	  0.076312624	1.558500E+02	  0.076312624	1.900700E+01	  0.076312624	9.208000E+00
280	  0.076513030	-6.667000E+00	  0.076513030	1.549010E+02	  0.076513030	1.907900E+01	  0.076513030	9.575000E+00
281	  0.076713428	-6.680000E+00	  0.076713428	1.539920E+02	  0.076713428	1.917200E+01	  0.076713428	9.923000E+00
282	  0.076913826	-6.691000E+00	  0.076913826	1.530930E+02	  0.076913826	1.926100E+01	  0.076913826	1.026900E+01
283	  0.077114232	-6.699000E+00	  0.077114232	1.522050E+02	  0.077114232	1.934500E+01	  0.077114232	1.061100E+01
284	  0.077314630	-6.704000E+00	  0.077314630	1.513010E+02	  0.077314630	1.942500E+01	  0.077314630	1.096200E+01
285	  0.077515028	-6.711000E+00	  0.077515028	1.504390E+02	  0.077515028	1.950800E+01	  0.077515028	1.129600E+01
286	  0.077715434	-6.716000E+00	  0.077715434	1.495520E+02	  0.077715434	1.959000E+01	  0.077715434	1.164200E+01
287	  0.077915832	-6.728000E+00	  0.077915832	1.486830E+02	  0.077915832	1.969000E+01	  0.077915832	1.197800E+01
288	  0.078116231	-6.734000E+00	  0.078116231	1.478090E+02	  0.078116231	1.977900E+01	  0.078116231	1.231900E+01
289	  0.078316636	-6.747000E+00	  0.078316636	1.469530E+02	  0.078316636	1.988800E+01	  0.078316636	1.264900E+01
290	  0.078517035	-6.754000E+00	  0.078517035	1.461160E+02	  0.078517035	1.998100E+01	  0.078517035	1.297600E+01
291	  0.078717433	-6.760000E+00	  0.078717433	1.452560E+02	  0.078717433	2.007600E+01	  0.078717433	1.331300E+01
292	  0.078917839	-6.772000E+00	  0.078917839	1.444730E+02	  0.078917839	2.018100E+01	  0.078917839	1.361700E+01
293	  0.079118237	-6.781000E+00	  0.079118237	1.436970E+02	  0.079118237	2.028000E+01	  0.079118237	1.392000E+01
294	  0.079318643	-6.789000E+00	  0.079318643	1.428560E+02	  0.079318643	2.038600E+01	  0.079318643	1.425000E+01
295	  0.079519041	-6.807000E+00	  0.079519041	1.420620E+02	  0.079519041	2.051400E+01	  0.079519041	1.455600E+01
296	  0.079719439	-6.819000E+00	  0.079719439	1.413040E+02	  0.079719439	2.062500E+01	  0.079719439	1.485100E+01
297	  0.079919845	-6.836000E+00	  0.079919845	1.405250E+02	  0.079919845	2.075400E+01	  0.079919845	1.515100E+01
298	  0.080120243	-6.853000E+00	  0.080120243	1.397280E+02	  0.080120243	2.088900E+01	  0.080120243	1.545800E+01
299	  0.080320641	-6.873000E+00	  0.080320641	1.389500E+02	  0.080320641	2.103100E+01	  0.080320641	1.575600E+01
300	  0.080521047	-6.890000E+00	  0.080521047	1.381910E+02	  0.080521047	2.116400E+01	  0.080521047	1.604900E+01
301	  0.080721445	-6.915000E+00	  0.080721445	1.374030E+02	  0.080721445	2.132600E+01	  0.080721445	1.634600E+01
302	  0.080921844	-6.940000E+00	  0.080921844	1.366480E+02	  0.080921844	2.148500E+01	  0.080921844	1.663100E+01
303	  0.081122249	-6.960000E+00	  0.081122249	1.358860E+02	  0.081122249	2.163500E+01	  0.081122249	1.692300E+01
304	  0.081322648	-6.983000E+00	  0.081322648	1.351110E+02	  0.081322648	2.179700E+01	  0.081322648	1.721700E+01
305	  0.081523046	-7.011000E+00	  0.081523046	1.343230E+02	  0.081523046	2.197600E+01	  0.081523046	1.751200E+01
306	  0.081723452	-7.035000E+00	  0.081723452	1.335250E+02	  0.081723452	2.215000E+01	  0.081723452	1.781400E+01
307	  0.081923850	-7.061000E+00	  0.081923850	1.327180E+02	  0.081923850	2.233200E+01	  0.081923850	1.811800E+01
308	  0.082124248	-7.088000E+00	  0.082124248	1.319460E+02	  0.082124248	2.251400E+01	  0.082124248	1.840700E+01
309	  0.082324654	-7.119000E+00	  0.082324654	1.311370E+02	  0.082324654	2.271600E+01	  0.082324654	1.870600E+01
310	  0.082525052	-7.142000E+00	  0.082525052	1.303410E+02	  0.082525052	2.289700E+01	  0.082525052	1.900800E+01
311	  0.082725458	-7.171000E+00	  0.082725458	1.295420E+02	  0.082725458	2.309900E+01	  0.082725458	1.930400E+01
312	  0.082925856	-7.193000E+00	  0.082925856	1.287600E+02	  0.082925856	2.328200E+01	  0.082925856	1.960000E+01
313	  0.083126254	-7.221000E+00	  0.083126254	1.279570E+02	  0.083126254	2.348600E+01	  0.083126254	1.989900E+01
314	  0.083326660	-7.247000E+00	  0.083326660	1.271320E+02	  0.083326660	2.369300E+01	  0.083326660	2.020900E+01
315	  0.083527058	-7.269000E+00	  0.083527058	1.263320E+02	  0.083527058	2.388700E+01	  0.083527058	2.051200E+01
316	  0.083727457	-7.293000E+00	  0.083727457	1.255080E+02	  0.083727457	2.409400E+01	  0.083727457	2.082300E+01
317	  0.083927862	-7.315000E+00	  0.083927862	1.247090E+02	  0.083927862	2.429600E+01	  0.083927862	2.112600E+01
318	  0.084128261	-7.339000E+00	  0.084128261	1.239150E+02	  0.084128261	2.450500E+01	  0.084128261	2.142300E+01
319	  0.084328659	-7.358000E+00	  0.084328659	1.231600E+02	  0.084328659	2.469700E+01	  0.084328659	2.171100E+01
320	  0.084529065	-7.376000E+00	  0.084529065	1.223720E+02	  0.084529065	2.489400E+01	  0.084529065	2.201400E+01
321	  0.084729463	-7.397000E+00	  0.084729463	1.216210E+02	  0.084729463	2.509800E+01	  0.084729463	2.229700E+01
322	  0.084929854	-7.422000E+00	  0.084929854	1.208440E+02	  0.084929854	2.531700E+01	  0.084929854	2.258700E+01
323	  0.085130259	-7.430000E+00	  0.085130259	1.201010E+02	  0.085130259	2.549000E+01	  0.085130259	2.288300E+01
324	  0.085330658	-7.445000E+00	  0.085330658	1.193320E+02	  0.085330658	2.568900E+01	  0.085330658	2.318200E+01
325	  0.085531056	-7.463000E+00	  0.085531056	1.185900E+02	  0.085531056	2.589500E+01	  0.085531056	2.346400E+01
326	  0.085731462	-7.480000E+00	  0.085731462	1.178780E+02	  0.085731462	2.609400E+01	  0.085731462	2.373600E+01
327	  0.085931860	-7.496000E+00	  0.085931860	1.171950E+02	  0.085931860	2.628600E+01	  0.085931860	2.399800E+01
328	  0.086132258	-7.516000E+00	  0.086132258	1.165270E+02	  0.086132258	2.648900E+01	  0.086132258	2.424600E+01
329	  0.086332664	-7.533000E+00	  0.086332664	1.158240E+02	  0.086332664	2.669600E+01	  0.086332664	2.451400E+01
330	  0.086533062	-7.555000E+00	  0.086533062	1.151580E+02	  0.086533062	2.691000E+01	  0.086533062	2.475800E+01
331	  0.086733460	-7.569000E+00	  0.086733460	1.145060E+02	  0.086733460	2.710000E+01	  0.086733460	2.500900E+01
332	  0.086933866	-7.592000E+00	  0.086933866	1.138230E+02	  0.086933866	2.732800E+01	  0.086933866	2.525700E+01
333	  0.087134264	-7.610000E+00	  0.087134264	1.131750E+02	  0.087134264	2.753300E+01	  0.087134264	2.549900E+01
334	  0.087334670	-7.638000E+00	  0.087334670	1.125500E+02	  0.087334670	2.776600E+01	  0.087334670	2.571400E+01
335	  0.087535068	-7.659000E+00	  0.087535068	1.118920E+02	  0.087535068	2.798900E+01	  0.087535068	2.595400E+01
336	  0.087735467	-7.683000E+00	  0.087735467	1.112390E+02	  0.087735467	2.822200E+01	  0.087735467	2.618600E+01
337	  0.087935872	-7.712000E+00	  0.087935872	1.105890E+02	  0.087935872	2.847200E+01	  0.087935872	2.640600E+01
338	  0.088136271	-7.741000E+00	  0.088136271	1.099850E+02	  0.088136271	2.871200E+01	  0.088136271	2.660700E+01
339	  0.088336669	-7.764000E+00	  0.088336669	1.093340E+02	  0.088336669	2.894900E+01	  0.088336669	2.683700E+01
340	  0.088537075	-7.795000E+00	  0.088537075	1.086760E+02	  0.088537075	2.921200E+01	  0.088537075	2.705600E+01
341	  0.088737473	-7.821000E+00	  0.088737473	1.080500E+02	  0.088737473	2.945800E+01	  0.088737473	2.726700E+01
342	  0.088937871	-7.853000E+00	  0.088937871	1.073720E+02	  0.088937871	2.973800E+01	  0.088937871	2.748800E+01
343	  0.089138277	-7.873000E+00	  0.089138277	1.067190E+02	  0.089138277	2.998000E+01	  0.089138277	2.772100E+01
344	  0.089338675	-7.914000E+00	  0.089338675	1.060720E+02	  0.089338675	3.028000E+01	  0.089338675	2.790900E+01
345	  0.089539073	-7.935000E+00	  0.089539073	1.054410E+02	  0.089539073	3.052700E+01	  0.089539073	2.812600E+01
346	  0.089739479	-7.967000E+00	  0.089739479	1.048240E+02	  0.089739479	3.080000E+01	  0.089739479	2.831600E+01
347	  0.089939877	-7.996000E+00	  0.089939877	1.041710E+02	  0.089939877	3.107800E+01	  0.089939877	2.852600E+01
348	  0.090140276	-8.019000E+00	  0.090140276	1.035100E+02	  0.090140276	3.134700E+01	  0.090140276	2.874900E+01
349	  0.090340681	-8.054000E+00	  0.090340681	1.028860E+02	  0.090340681	3.163900E+01	  0.090340681	2.893100E+01
350	  0.090541080	-8.074000E+00	  0.090541080	1.022140E+02	  0.090541080	3.190800E+01	  0.090541080	2.916300E+01
351	  0.090741485	-8.107000E+00	  0.090741485	1.015950E+02	  0.090741485	3.219900E+01	  0.090741485	2.934400E+01
352	  0.090941884	-8.129000E+00	  0.090941884	1.009720E+02	  0.090941884	3.246700E+01	  0.090941884	2.954600E+01
353	  0.091142282	-8.161000E+00	  0.091142282	1.003440E+02	  0.091142282	3.276200E+01	  0.091142282	2.973100E+01
354	  0.091342688	-8.181000E+00	  0.091342688	9.972600E+01	  0.091342688	3.302900E+01	  0.091342688	2.993200E+01
355	  0.091543086	-8.211000E+00	  0.091543086	9.910900E+01	  0.091543086	3.332100E+01	  0.091543086	3.011300E+01
356	  0.091743484	-8.229000E+00	  0.091743484	9.849600E+01	  0.091743484	3.358600E+01	  0.091743484	3.031600E+01
357	  0.091943890	-8.251000E+00	  0.091943890	9.786800E+01	  0.091943890	3.386800E+01	  0.091943890	3.051500E+01
358	  0.092144288	-8.272000E+00	  0.092144288	9.729700E+01	  0.092144288	3.413200E+01	  0.092144288	3.069000E+01
359	  0.092344686	-8.296000E+00	  0.092344686	9.674200E+01	  0.092344686	3.439800E+01	  0.092344686	3.085400E+01
360	  0.092545092	-8.315000E+00	  0.092545092	9.618300E+01	  0.092545092	3.465700E+01	  0.092545092	3.102700E+01
361	  0.092745490	-8.339000E+00	  0.092745490	9.563300E+01	  0.092745490	3.492600E+01	  0.092745490	3.118500E+01
362	  0.092945889	-8.364000E+00	  0.092945889	9.512900E+01	  0.092945889	3.518300E+01	  0.092945889	3.132000E+01
363	  0.093146294	-8.378000E+00	  0.093146294	9.459400E+01	  0.093146294	3.542700E+01	  0.093146294	3.149300E+01
364	  0.093346693	-8.401000E+00	  0.093346693	9.412500E+01	  0.093346693	3.566900E+01	  0.093346693	3.161600E+01
365	  0.093547091	-8.425000E+00	  0.093547091	9.360300E+01	  0.093547091	3.593800E+01	  0.093547091	3.175600E+01
366	  0.093747497	-8.443000E+00	  0.093747497	9.310100E+01	  0.093747497	3.618600E+01	  0.093747497	3.190100E+01
367	  0.093947895	-8.462000E+00	  0.093947895	9.261400E+01	  0.093947895	3.643100E+01	  0.093947895	3.203800E+01
368	  0.094148301	-8.485000E+00	  0.094148301	9.213900E+01	  0.094148301	3.668300E+01	  0.094148301	3.215800E+01
369	  0.094348699	-8.507000E+00	  0.094348699	9.168900E+01	  0.094348699	3.692500E+01	  0.094348699	3.226900E+01
370	  0.094549097	-8.533000E+00	  0.094549097	9.120700E+01	  0.094549097	3.719200E+01	  0.094549097	3.238000E+01
371	  0.094749503	-8.555000E+00	  0.094749503	9.078100E+01	  0.094749503	3.742500E+01	  0.094749503	3.248000E+01
372	  0.094949901	-8.575000E+00	  0.094949901	9.032200E+01	  0.094949901	3.767100E+01	  0.094949901	3.259500E+01
373	  0.095150299	-8.597000E+00	  0.095150299	8.984700E+01	  0.095150299	3.793000E+01	  0.095150299	3.271100E+01
374	  0.095350705	-8.615000E+00	  0.095350705	8.942200E+01	  0.095350705	3.815800E+01	  0.095350705	3.281700E+01
375	  0.095551103	-8.638000E+00	  0.095551103	8.894600E+01	  0.095551103	3.842400E+01	  0.095551103	3.292500E+01
376	  0.095751502	-8.654000E+00	  0.095751502	8.849800E+01	  0.095751502	3.866100E+01	  0.095751502	3.304400E+01
377	  0.095951907	-8.676000E+00	  0.095951907	8.805900E+01	  0.095951907	3.891100E+01	  0.095951907	3.313800E+01
378	  0.096152306	-8.695000E+00	  0.096152306	8.762800E+01	  0.096152306	3.915200E+01	  0.096152306	3.323700E+01
379	  0.096352704	-8.714000E+00	  0.096352704	8.720600E+01	  0.096352704	3.938900E+01	  0.096352704	3.333300E+01
380	  0.096553110	-8.735000E+00	  0.096553110	8.677100E+01	  0.096553110	3.963800E+01	  0.096553110	3.342500E+01
381	  0.096753508	-8.745000E+00	  0.096753508	8.631900E+01	  0.096753508	3.987200E+01	  0.096753508	3.355600E+01
382	  0.096953906	-8.757000E+00	  0.096953906	8.591100E+01	  0.096953906	4.009200E+01	  0.096953906	3.366300E+01
383	  0.097154312	-8.768000E+00	  0.097154312	8.547400E+01	  0.097154312	4.032500E+01	  0.097154312	3.378100E+01
384	  0.097354710	-8.785000E+00	  0.097354710	8.502900E+01	  0.097354710	4.057700E+01	  0.097354710	3.388500E+01
385	  0.097555116	-8.791000E+00	  0.097555116	8.462400E+01	  0.097555116	4.078500E+01	  0.097555116	3.400800E+01
386	  0.097755514	-8.805000E+00	  0.097755514	8.421000E+01	  0.097755514	4.101900E+01	  0.097755514	3.410600E+01
387	  0.097955912	-8.810000E+00	  0.097955912	8.380800E+01	  0.097955912	4.122800E+01	  0.097955912	3.422700E+01
388	  0.098156318	-8.821000E+00	  0.098156318	8.338600E+01	  0.098156318	4.146200E+01	  0.098156318	3.433600E+01
389	  0.098356716	-8.827000E+00	  0.098356716	8.299800E+01	  0.098356716	4.166800E+01	  0.098356716	3.444900E+01
390	  0.098557115	-8.832000E+00	  0.098557115	8.259200E+01	  0.098557115	4.188300E+01	  0.098557115	3.457200E+01
391	  0.098757520	-8.835000E+00	  0.098757520	8.219000E+01	  0.098757520	4.209400E+01	  0.098757520	3.469800E+01
392	  0.098957919	-8.840000E+00	  0.098957919	8.178600E+01	  0.098957919	4.231300E+01	  0.098957919	3.481500E+01
393	  0.099158317	-8.840000E+00	  0.099158317	8.140500E+01	  0.099158317	4.251000E+01	  0.099158317	3.494200E+01
394	  0.099358723	-8.844000E+00	  0.099358723	8.100700E+01	  0.099358723	4.272600E+01	  0.099358723	3.506100E+01
395	  0.099559121	-8.845000E+00	  0.099559121	8.062400E+01	  0.099559121	4.292800E+01	  0.099559121	3.518600E+01
396	  0.099759519	-8.845000E+00	  0.099759519	8.025400E+01	  0.099759519	4.312400E+01	  0.099759519	3.530800E+01
397	  0.099959925	-8.846000E+00	  0.099959925	7.989100E+01	  0.099959925	4.332100E+01	  0.099959925	3.542200E+01
398	  0.100160323	-8.850000E+00	  0.100160323	7.953300E+01	  0.100160323	4.352200E+01	  0.100160323	3.552600E+01
399	  0.100360721	-8.840000E+00	  0.100360721	7.910800E+01	  0.100360721	4.373200E+01	  0.100360721	3.569900E+01
400	  0.100561127	-8.847000E+00	  0.100561127	7.871400E+01	  0.100561127	4.396100E+01	  0.100561127	3.580200E+01
401	  0.100761525	-8.844000E+00	  0.100761525	7.832500E+01	  0.100761525	4.416900E+01	  0.100761525	3.593900E+01
402	  0.100961931	-8.837000E+00	  0.100961931	7.792300E+01	  0.100961931	4.437800E+01	  0.100961931	3.609400E+01
403	  0.101162329	-8.834000E+00	  0.101162329	7.751400E+01	  0.101162329	4.460200E+01	  0.101162329	3.623400E+01
404	  0.101362728	-8.836000E+00	  0.101362728	7.711600E+01	  0.101362728	4.483100E+01	  0.101362728	3.635300E+01
405	  0.101563133	-8.833000E+00	  0.101563133	7.674200E+01	  0.101563133	4.503900E+01	  0.101563133	3.648300E+01
406	  0.101763532	-8.827000E+00	  0.101763532	7.625500E+01	  0.101763532	4.530600E+01	  0.101763532	3.666100E+01
407	  0.101963930	-8.818000E+00	  0.101963930	7.590700E+01	  0.101963930	4.549200E+01	  0.101963930	3.680100E+01
408	  0.102164328	-8.820000E+00	  0.102164328	7.538000E+01	  0.102164328	4.580400E+01	  0.102164328	3.695900E+01
409	  0.102364726	-8.805000E+00	  0.102364726	7.489600E+01	  0.102364726	4.606200E+01	  0.102364726	3.716500E+01
410	  0.102565125	-8.801000E+00	  0.102565125	7.448400E+01	  0.102565125	4.630200E+01	  0.102565125	3.730700E+01
411	  0.102765530	-8.791000E+00	  0.102765530	7.397700E+01	  0.102765530	4.659000E+01	  0.102765530	3.750000E+01
412	  0.102965929	-8.786000E+00	  0.102965929	7.353300E+01	  0.102965929	4.685000E+01	  0.102965929	3.765600E+01
413	  0.103166327	-8.773000E+00	  0.103166327	7.299900E+01	  0.103166327	4.715600E+01	  0.103166327	3.786800E+01
414	  0.103366733	-8.752000E+00	  0.103366733	7.252200E+01	  0.103366733	4.741400E+01	  0.103366733	3.809600E+01
415	  0.103567131	-8.743000E+00	  0.103567131	7.196400E+01	  0.103567131	4.775100E+01	  0.103567131	3.829900E+01
416	  0.103767529	-8.729000E+00	  0.103767529	7.147500E+01	  0.103767529	4.803700E+01	  0.103767529	3.850400E+01
417	  0.103967935	-8.718000E+00	  0.103967935	7.096400E+01	  0.103967935	4.834900E+01	  0.103967935	3.869800E+01
418	  0.104168333	-8.693000E+00	  0.104168333	7.040200E+01	  0.104168333	4.867000E+01	  0.104168333	3.896800E+01
419	  0.104368731	-8.681000E+00	  0.104368731	6.984000E+01	  0.104368731	4.902100E+01	  0.104368731	3.918500E+01
420	  0.104569137	-8.652000E+00	  0.104569137	6.933900E+01	  0.104569137	4.930500E+01	  0.104569137	3.945600E+01
421	  0.104769535	-8.634000E+00	  0.104769535	6.879500E+01	  0.104769535	4.964300E+01	  0.104769535	3.968900E+01
422	  0.104969934	-8.609000E+00	  0.104969934	6.824600E+01	  0.104969934	4.997700E+01	  0.104969934	3.995900E+01
423	  0.105170339	-8.591000E+00	  0.105170339	6.765400E+01	  0.105170339	5.036000E+01	  0.105170339	4.020400E+01
424	  0.105370738	-8.562000E+00	  0.105370738	6.710900E+01	  0.105370738	5.069500E+01	  0.105370738	4.049100E+01
425	  0.105571143	-8.537000E+00	  0.105571143	6.660400E+01	  0.105571143	5.101500E+01	  0.105571143	4.074700E+01
426	  0.105771542	-8.518000E+00	  0.105771542	6.598900E+01	  0.105771542	5.143000E+01	  0.105771542	4.100500E+01
427	  0.105971940	-8.497000E+00	  0.105971940	6.543500E+01	  0.105971940	5.180400E+01	  0.105971940	4.125600E+01
428	  0.106172346	-8.473000E+00	  0.106172346	6.486100E+01	  0.106172346	5.219300E+01	  0.106172346	4.152600E+01
429	  0.106372744	-8.445000E+00	  0.106372744	6.428000E+01	  0.106372744	5.258800E+01	  0.106372744	4.181800E+01
430	  0.106573142	-8.427000E+00	  0.106573142	6.369100E+01	  0.106573142	5.301300E+01	  0.106573142	4.206300E+01
431	  0.106773548	-8.406000E+00	  0.106773548	6.311300E+01	  0.106773548	5.343200E+01	  0.106773548	4.231400E+01
432	  0.106973946	-8.381000E+00	  0.106973946	6.258900E+01	  0.106973946	5.380700E+01	  0.106973946	4.257600E+01
433	  0.107174344	-8.368000E+00	  0.107174344	6.195600E+01	  0.107174344	5.429500E+01	  0.107174344	4.280100E+01
434	  0.107374750	-8.332000E+00	  0.107374750	6.136000E+01	  0.107374750	5.472500E+01	  0.107374750	4.313700E+01
435	  0.107575148	-8.326000E+00	  0.107575148	6.074400E+01	  0.107575148	5.522600E+01	  0.107575148	4.331800E+01
436	  0.107775547	-8.302000E+00	  0.107775547	6.014100E+01	  0.107775547	5.569800E+01	  0.107775547	4.358900E+01
437	  0.107975952	-8.284000E+00	  0.107975952	5.948900E+01	  0.107975952	5.622800E+01	  0.107975952	4.383600E+01
438	  0.108176351	-8.270000E+00	  0.108176351	5.893100E+01	  0.108176351	5.669100E+01	  0.108176351	4.403600E+01
439	  0.108376749	-8.255000E+00	  0.108376749	5.827400E+01	  0.108376749	5.724700E+01	  0.108376749	4.426100E+01
440	  0.108577155	-8.239000E+00	  0.108577155	5.763200E+01	  0.108577155	5.779800E+01	  0.108577155	4.448500E+01
441	  0.108777553	-8.230000E+00	  0.108777553	5.690200E+01	  0.108777553	5.844700E+01	  0.108777553	4.467800E+01
442	  0.108977959	-8.214000E+00	  0.108977959	5.623700E+01	  0.108977959	5.903700E+01	  0.108977959	4.490100E+01
443	  0.109178357	-8.200000E+00	  0.109178357	5.555000E+01	  0.109178357	5.966300E+01	  0.109178357	4.510300E+01
444	  0.109378755	-8.185000E+00	  0.109378755	5.485100E+01	  0.109378755	6.030800E+01	  0.109378755	4.531200E+01
445	  0.109579161	-8.176000E+00	  0.109579161	5.411000E+01	  0.109579161	6.101100E+01	  0.109579161	4.548200E+01
446	  0.109779559	-8.158000E+00	  0.109779559	5.343500E+01	  0.109779559	6.165300E+01	  0.109779559	4.569600E+01
447	  0.109979957	-8.150000E+00	  0.109979957	5.268400E+01	  0.109979957	6.239100E+01	  0.109979957	4.584500E+01
448	  0.110180363	-8.134000E+00	  0.110180363	5.196100E+01	  0.110180363	6.310500E+01	  0.110180363	4.603900E+01
449	  0.110380761	-8.130000E+00	  0.110380761	5.120200E+01	  0.110380761	6.387800E+01	  0.110380761	4.614500E+01
450	  0.110581160	-8.115000E+00	  0.110581160	5.040100E+01	  0.110581160	6.470000E+01	  0.110581160	4.631700E+01
451	  0.110781565	-8.107000E+00	  0.110781565	4.963700E+01	  0.110781565	6.550200E+01	  0.110781565	4.643100E+01
452	  0.110981964	-8.098000E+00	  0.110981964	4.885800E+01	  0.110981964	6.633100E+01	  0.110981964	4.653400E+01
453	  0.111182362	-8.091000E+00	  0.111182362	4.815300E+01	  0.111182362	6.709400E+01	  0.111182362	4.661100E+01
454	  0.111382768	-8.075000E+00	  0.111382768	4.733500E+01	  0.111382768	6.799200E+01	  0.111382768	4.674200E+01
455	  0.111583166	-8.075000E+00	  0.111583166	4.657300E+01	  0.111583166	6.884300E+01	  0.111583166	4.674700E+01
456	  0.111783572	-8.063000E+00	  0.111783572	4.575500E+01	  0.111783572	6.977000E+01	  0.111783572	4.682200E+01
457	  0.111983970	-8.056000E+00	  0.111983970	4.495000E+01	  0.111983970	7.069600E+01	  0.111983970	4.683900E+01
458	  0.112184368	-8.048000E+00	  0.112184368	4.411700E+01	  0.112184368	7.167000E+01	  0.112184368	4.684700E+01
459	  0.112384774	-8.051000E+00	  0.112384774	4.334200E+01	  0.112384774	7.258100E+01	  0.112384774	4.675500E+01
460	  0.112585172	-8.050000E+00	  0.112585172	4.254300E+01	  0.112585172	7.353400E+01	  0.112585172	4.666900E+01
461	  0.112785570	-8.043000E+00	  0.112785570	4.172700E+01	  0.112785570	7.452400E+01	  0.112785570	4.661100E+01
462	  0.112985976	-8.041000E+00	  0.112985976	4.091600E+01	  0.112985976	7.551500E+01	  0.112985976	4.648900E+01
463	  0.113186374	-8.049000E+00	  0.113186374	4.009700E+01	  0.113186374	7.651200E+01	  0.113186374	4.626600E+01
464	  0.113386773	-8.054000E+00	  0.113386773	3.924300E+01	  0.113386773	7.756400E+01	  0.113386773	4.602800E+01
465	  0.113587178	-8.054000E+00	  0.113587178	3.841800E+01	  0.113587178	7.859800E+01	  0.113587178	4.581600E+01
466	  0.113787577	-8.060000E+00	  0.113787577	3.753800E+01	  0.113787577	7.969500E+01	  0.113787577	4.550400E+01
467	  0.113987975	-8.074000E+00	  0.113987975	3.669600E+01	  0.113987975	8.073300E+01	  0.113987975	4.511300E+01
468	  0.114188381	-8.083000E+00	  0.114188381	3.585600E+01	  0.114188381	8.178300E+01	  0.114188381	4.473500E+01
469	  0.114388779	-8.090000E+00	  0.114388779	3.494500E+01	  0.114388779	8.292900E+01	  0.114388779	4.430500E+01
470	  0.114589177	-8.115000E+00	  0.114589177	3.405600E+01	  0.114589177	8.399800E+01	  0.114589177	4.370400E+01
471	  0.114789583	-8.125000E+00	  0.114789583	3.319400E+01	  0.114789583	8.506900E+01	  0.114789583	4.320100E+01
472	  0.114989981	-8.143000E+00	  0.114989981	3.221000E+01	  0.114989981	8.627000E+01	  0.114989981	4.253500E+01
473	  0.115190387	-8.160000E+00	  0.115190387	3.129800E+01	  0.115190387	8.737300E+01	  0.115190387	4.187300E+01
474	  0.115390785	-8.188000E+00	  0.115390785	3.031600E+01	  0.115390785	8.850800E+01	  0.115390785	4.103600E+01
475	  0.115591183	-8.211000E+00	  0.115591183	2.938500E+01	  0.115591183	8.958500E+01	  0.115591183	4.023100E+01
476	  0.115791589	-8.234000E+00	  0.115791589	2.838300E+01	  0.115791589	9.073400E+01	  0.115791589	3.933500E+01
477	  0.115991987	-8.266000E+00	  0.115991987	2.741000E+01	  0.115991987	9.177800E+01	  0.115991987	3.833900E+01
478	  0.116192386	-8.295000E+00	  0.116192386	2.642200E+01	  0.116192386	9.283000E+01	  0.116192386	3.731500E+01
479	  0.116392791	-8.319000E+00	  0.116392791	2.538900E+01	  0.116392791	9.393200E+01	  0.116392791	3.624700E+01
480	  0.116593190	-8.355000E+00	  0.116593190	2.435500E+01	  0.116593190	9.493200E+01	  0.116593190	3.503600E+01
481	  0.116793588	-8.388000E+00	  0.116793588	2.327700E+01	  0.116793588	9.596500E+01	  0.116793588	3.376800E+01
482	  0.116993994	-8.421000E+00	  0.116993994	2.221700E+01	  0.116993994	9.692900E+01	  0.116993994	3.247000E+01
483	  0.117194392	-8.460000E+00	  0.117194392	2.114200E+01	  0.117194392	9.782100E+01	  0.117194392	3.107000E+01
484	  0.117394790	-8.497000E+00	  0.117394790	2.007600E+01	  0.117394790	9.866500E+01	  0.117394790	2.965600E+01
485	  0.117595196	-8.538000E+00	  0.117595196	1.897700E+01	  0.117595196	9.946300E+01	  0.117595196	2.814700E+01
486	  0.117795594	-8.581000E+00	  0.117795594	1.789000E+01	  0.117795594	1.001630E+02	  0.117795594	2.660000E+01
487	  0.117995992	-8.622000E+00	  0.117995992	1.675500E+01	  0.117995992	1.008640E+02	  0.117995992	2.498200E+01
