! Anritsu VNA Master:             	Model: MS2036C/10/77
! SN:             	1601066
! /bd0/18may10/252.ns.m10.txt
! Existing Calibration Information:
! TYPE:             	Current Settings	Active Cal Settings
! TIME:             	05/10/2018 05:58:54 PM	05/10/2018 05:49:06 PM
! INTERNAL TEMP:    	59.8 C	59.5 C
! # POINTS:         	490	490
! START FREQ:       	20.000 MHz	20.000 MHz
! STOP FREQ:        	117.995 991 MHz	117.995 991 MHz
! SOURCE POWER:     	High	High
! IFBW:             	50 Hz	50 Hz
! AVG FACTOR:       	  1 	  1 
! REF PLANE 1:      	0 mm	0 mm
! REF PLANE 2:      	0 mm	0 mm
! CAL TYPE:         	Full S22	Full S22
! CAL METHOD:       	SOLT	SOLT
! CAL LINE TYPE:    	Coax	Coax
! DUT PORT 1:       	K-Conn(M)	K-Conn(M)
! DUT PORT 2:       	K-Conn(M)	K-Conn(M)
! CAL STATUS:       	OK: Accuracy High	--
! PROP-V:       	0.700
! CABLE LOSS:       	0.000 dB/m
! REF IMPEDANCE:       	50.0
! Trace Specific Parameters:	TR1	TR2	TR3	TR4
! TRACE.#.Y (GRAPH TYPE)	LOG MAG	PHASE	REAL IMPEDANCE	IMAGINARY IMPEDANCE
! TRACE.#.X 	FREQ.GHZ	FREQ.GHZ	FREQ.GHZ	FREQ.GHZ
! S-PARAMETER	S22	S22	S22	S22
! SMOOTH/APERTURE %	0	0	0	0
! WINDOW	NSL	NSL	NSL	NSL
! GATING	OFF	OFF	OFF	OFF
! FGTD	OFF	OFF	OFF	OFF
Marker Information per Trace:	TR1	TR2	TR3	TR4
!MK1	--	"MK1 TR2:  20.000 MHz,PH:-125.41°"	--	--
!MK2	--	--	"MK2 TR3:  70.100 200 MHz,Z:(16.688 ohm, -1.582 ohm)"	--
!MK3	--	--	--	--
!MK4	--	--	--	--
!MK5	--	--	--	--
!MK6	--	--	--	--
!MK7	--	--	--	--
!MK8	--	--	--	--
PNT	TR1.FREQ.GHZ	TR1.LOG MAG.dB	TR2.FREQ.GHZ	TR2.PHASE.deg	TR3.FREQ.GHZ	TR3.REAL IMPEDANCE.ohm	TR4.FREQ.GHZ	TR4.IMAGINARY IMPEDANCE.ohm
1	  0.020000000	-6.320000E-01	  0.020000000	-1.254050E+02	  0.020000000	2.304000E+00	  0.020000000	-2.576000E+01
2	  0.020200402	-6.350000E-01	  0.020200402	-1.268620E+02	  0.020200402	2.286000E+00	  0.020200402	-2.496200E+01
3	  0.020400802	-6.390000E-01	  0.020400802	-1.283050E+02	  0.020400802	2.271000E+00	  0.020400802	-2.418100E+01
4	  0.020601204	-6.430000E-01	  0.020601204	-1.297730E+02	  0.020601204	2.258000E+00	  0.020601204	-2.339600E+01
5	  0.020801604	-6.470000E-01	  0.020801604	-1.312720E+02	  0.020801604	2.243000E+00	  0.020801604	-2.260400E+01
6	  0.021002004	-6.490000E-01	  0.021002004	-1.327900E+02	  0.021002004	2.224000E+00	  0.021002004	-2.181300E+01
7	  0.021202406	-6.550000E-01	  0.021202406	-1.343040E+02	  0.021202406	2.218000E+00	  0.021202406	-2.103200E+01
8	  0.021402806	-6.550000E-01	  0.021402806	-1.357990E+02	  0.021402806	2.197000E+00	  0.021402806	-2.026900E+01
9	  0.021603208	-6.580000E-01	  0.021603208	-1.373140E+02	  0.021603208	2.183000E+00	  0.021603208	-1.950400E+01
10	  0.021803608	-6.620000E-01	  0.021803608	-1.388290E+02	  0.021803608	2.175000E+00	  0.021803608	-1.874800E+01
11	  0.022004008	-6.700000E-01	  0.022004008	-1.403340E+02	  0.022004008	2.178000E+00	  0.022004008	-1.800300E+01
12	  0.022204408	-6.760000E-01	  0.022204408	-1.418690E+02	  0.022204408	2.177000E+00	  0.022204408	-1.725100E+01
13	  0.022404809	-6.840000E-01	  0.022404809	-1.434090E+02	  0.022404809	2.182000E+00	  0.022404809	-1.650200E+01
14	  0.022605211	-6.860000E-01	  0.022605211	-1.449900E+02	  0.022605211	2.171000E+00	  0.022605211	-1.574200E+01
15	  0.022805611	-6.860000E-01	  0.022805611	-1.465580E+02	  0.022805611	2.153000E+00	  0.022805611	-1.499400E+01
16	  0.023006011	-6.910000E-01	  0.023006011	-1.481180E+02	  0.023006011	2.150000E+00	  0.023006011	-1.425700E+01
17	  0.023206413	-6.960000E-01	  0.023206413	-1.496810E+02	  0.023206413	2.150000E+00	  0.023206413	-1.352300E+01
18	  0.023406813	-7.020000E-01	  0.023406813	-1.512320E+02	  0.023406813	2.153000E+00	  0.023406813	-1.280000E+01
19	  0.023607215	-7.100000E-01	  0.023607215	-1.528130E+02	  0.023607215	2.163000E+00	  0.023607215	-1.206800E+01
20	  0.023807615	-7.160000E-01	  0.023807615	-1.544100E+02	  0.023807615	2.167000E+00	  0.023807615	-1.133400E+01
21	  0.024008015	-7.240000E-01	  0.024008015	-1.560220E+02	  0.024008015	2.179000E+00	  0.024008015	-1.059800E+01
22	  0.024208417	-7.310000E-01	  0.024208417	-1.576570E+02	  0.024208417	2.186000E+00	  0.024208417	-9.855000E+00
23	  0.024408817	-7.360000E-01	  0.024408817	-1.592900E+02	  0.024408817	2.189000E+00	  0.024408817	-9.119000E+00
24	  0.024609219	-7.430000E-01	  0.024609219	-1.609290E+02	  0.024609219	2.199000E+00	  0.024609219	-8.383000E+00
25	  0.024809619	-7.510000E-01	  0.024809619	-1.625740E+02	  0.024809619	2.213000E+00	  0.024809619	-7.647000E+00
26	  0.025010020	-7.600000E-01	  0.025010020	-1.642250E+02	  0.025010020	2.228000E+00	  0.025010020	-6.913000E+00
27	  0.025210422	-7.700000E-01	  0.025210422	-1.658900E+02	  0.025210422	2.251000E+00	  0.025210422	-6.175000E+00
28	  0.025410822	-7.800000E-01	  0.025410822	-1.675680E+02	  0.025410822	2.272000E+00	  0.025410822	-5.434000E+00
29	  0.025611224	-7.920000E-01	  0.025611224	-1.692460E+02	  0.025611224	2.298000E+00	  0.025611224	-4.695000E+00
30	  0.025811624	-8.030000E-01	  0.025811624	-1.709430E+02	  0.025811624	2.326000E+00	  0.025811624	-3.951000E+00
31	  0.026012026	-8.120000E-01	  0.026012026	-1.726580E+02	  0.026012026	2.347000E+00	  0.026012026	-3.200000E+00
32	  0.026212426	-8.240000E-01	  0.026212426	-1.743720E+02	  0.026212426	2.377000E+00	  0.026212426	-2.452000E+00
33	  0.026412826	-8.380000E-01	  0.026412826	-1.760950E+02	  0.026412826	2.414000E+00	  0.026412826	-1.700000E+00
34	  0.026613226	-8.510000E-01	  0.026613226	-1.778340E+02	  0.026613226	2.450000E+00	  0.026613226	-9.420000E-01
35	  0.026813626	-8.670000E-01	  0.026813626	-1.795790E+02	  0.026813626	2.496000E+00	  0.026813626	-1.820000E-01
36	  0.027014028	-8.830000E-01	  0.027014028	1.786650E+02	  0.027014028	2.541000E+00	  0.027014028	5.800000E-01
37	  0.027214428	-9.000000E-01	  0.027214428	1.769120E+02	  0.027214428	2.592000E+00	  0.027214428	1.343000E+00
38	  0.027414829	-9.180000E-01	  0.027414829	1.751400E+02	  0.027414829	2.646000E+00	  0.027414829	2.115000E+00
39	  0.027615231	-9.340000E-01	  0.027615231	1.733620E+02	  0.027615231	2.696000E+00	  0.027615231	2.891000E+00
40	  0.027815631	-9.540000E-01	  0.027815631	1.715730E+02	  0.027815631	2.758000E+00	  0.027815631	3.672000E+00
41	  0.028016033	-9.720000E-01	  0.028016033	1.697580E+02	  0.028016033	2.819000E+00	  0.028016033	4.466000E+00
42	  0.028216433	-9.950000E-01	  0.028216433	1.679450E+02	  0.028216433	2.893000E+00	  0.028216433	5.261000E+00
43	  0.028416833	-1.016000E+00	  0.028416833	1.661220E+02	  0.028416833	2.966000E+00	  0.028416833	6.063000E+00
44	  0.028617235	-1.038000E+00	  0.028617235	1.642930E+02	  0.028617235	3.043000E+00	  0.028617235	6.871000E+00
45	  0.028817635	-1.062000E+00	  0.028817635	1.624580E+02	  0.028817635	3.126000E+00	  0.028817635	7.684000E+00
46	  0.029018037	-1.087000E+00	  0.029018037	1.606250E+02	  0.029018037	3.217000E+00	  0.029018037	8.501000E+00
47	  0.029218437	-1.113000E+00	  0.029218437	1.587890E+02	  0.029218437	3.313000E+00	  0.029218437	9.322000E+00
48	  0.029418837	-1.142000E+00	  0.029418837	1.569030E+02	  0.029418837	3.420000E+00	  0.029418837	1.017000E+01
49	  0.029619239	-1.169000E+00	  0.029619239	1.550310E+02	  0.029619239	3.524000E+00	  0.029619239	1.101700E+01
50	  0.029819639	-1.198000E+00	  0.029819639	1.531500E+02	  0.029819639	3.639000E+00	  0.029819639	1.187400E+01
51	  0.030020041	-1.227000E+00	  0.030020041	1.512580E+02	  0.030020041	3.758000E+00	  0.030020041	1.274200E+01
52	  0.030220442	-1.256000E+00	  0.030220442	1.493770E+02	  0.030220442	3.879000E+00	  0.030220442	1.361200E+01
53	  0.030420844	-1.287000E+00	  0.030420844	1.474940E+02	  0.030420844	4.012000E+00	  0.030420844	1.448900E+01
54	  0.030621244	-1.320000E+00	  0.030621244	1.456270E+02	  0.030621244	4.153000E+00	  0.030621244	1.536600E+01
55	  0.030821642	-1.353000E+00	  0.030821642	1.437420E+02	  0.030821642	4.302000E+00	  0.030821642	1.626000E+01
56	  0.031022044	-1.387000E+00	  0.031022044	1.418390E+02	  0.031022044	4.457000E+00	  0.031022044	1.717100E+01
57	  0.031222444	-1.416000E+00	  0.031222444	1.399470E+02	  0.031222444	4.604000E+00	  0.031222444	1.808700E+01
58	  0.031422846	-1.449000E+00	  0.031422846	1.380370E+02	  0.031422846	4.768000E+00	  0.031422846	1.902200E+01
59	  0.031623244	-1.486000E+00	  0.031623244	1.360930E+02	  0.031623244	4.955000E+00	  0.031623244	1.998300E+01
60	  0.031823646	-1.518000E+00	  0.031823646	1.341570E+02	  0.031823646	5.132000E+00	  0.031823646	2.095300E+01
61	  0.032024048	-1.552000E+00	  0.032024048	1.322390E+02	  0.032024048	5.322000E+00	  0.032024048	2.192600E+01
62	  0.032224450	-1.587000E+00	  0.032224450	1.303020E+02	  0.032224450	5.525000E+00	  0.032224450	2.292100E+01
63	  0.032424849	-1.623000E+00	  0.032424849	1.283390E+02	  0.032424849	5.740000E+00	  0.032424849	2.394400E+01
64	  0.032625251	-1.658000E+00	  0.032625251	1.263790E+02	  0.032625251	5.959000E+00	  0.032625251	2.498100E+01
65	  0.032825653	-1.693000E+00	  0.032825653	1.243760E+02	  0.032825653	6.194000E+00	  0.032825653	2.605700E+01
66	  0.033026051	-1.726000E+00	  0.033026051	1.223800E+02	  0.033026051	6.431000E+00	  0.033026051	2.714800E+01
67	  0.033226453	-1.765000E+00	  0.033226453	1.203820E+02	  0.033226453	6.705000E+00	  0.033226453	2.825600E+01
68	  0.033426855	-1.800000E+00	  0.033426855	1.183770E+02	  0.033426855	6.972000E+00	  0.033426855	2.938900E+01
69	  0.033627257	-1.837000E+00	  0.033627257	1.163700E+02	  0.033627257	7.267000E+00	  0.033627257	3.054300E+01
70	  0.033827655	-1.878000E+00	  0.033827655	1.143660E+02	  0.033827655	7.589000E+00	  0.033827655	3.171600E+01
71	  0.034028057	-1.917000E+00	  0.034028057	1.123280E+02	  0.034028057	7.925000E+00	  0.034028057	3.293300E+01
72	  0.034228459	-1.959000E+00	  0.034228459	1.103010E+02	  0.034228459	8.287000E+00	  0.034228459	3.416600E+01
73	  0.034428857	-2.003000E+00	  0.034428857	1.082400E+02	  0.034428857	8.684000E+00	  0.034428857	3.544500E+01
74	  0.034629259	-2.044000E+00	  0.034629259	1.061640E+02	  0.034629259	9.092000E+00	  0.034629259	3.676400E+01
75	  0.034829661	-2.089000E+00	  0.034829661	1.040930E+02	  0.034829661	9.543000E+00	  0.034829661	3.810700E+01
76	  0.035030060	-2.136000E+00	  0.035030060	1.020160E+02	  0.035030060	1.003000E+01	  0.035030060	3.948300E+01
77	  0.035230462	-2.183000E+00	  0.035230462	9.994100E+01	  0.035230462	1.054600E+01	  0.035230462	4.089000E+01
78	  0.035430863	-2.233000E+00	  0.035430863	9.785200E+01	  0.035430863	1.111100E+01	  0.035430863	4.233900E+01
79	  0.035631265	-2.282000E+00	  0.035631265	9.577300E+01	  0.035631265	1.170600E+01	  0.035631265	4.381600E+01
80	  0.035831664	-2.330000E+00	  0.035831664	9.367900E+01	  0.035831664	1.233900E+01	  0.035831664	4.534400E+01
81	  0.036032066	-2.383000E+00	  0.036032066	9.157900E+01	  0.036032066	1.303700E+01	  0.036032066	4.691100E+01
82	  0.036232468	-2.432000E+00	  0.036232468	8.945800E+01	  0.036232468	1.377200E+01	  0.036232468	4.854000E+01
83	  0.036432866	-2.484000E+00	  0.036432866	8.735600E+01	  0.036432866	1.457000E+01	  0.036432866	5.019300E+01
84	  0.036633268	-2.536000E+00	  0.036633268	8.523600E+01	  0.036633268	1.542600E+01	  0.036633268	5.190900E+01
85	  0.036833670	-2.589000E+00	  0.036833670	8.312400E+01	  0.036833670	1.635400E+01	  0.036833670	5.366100E+01
86	  0.037034072	-2.643000E+00	  0.037034072	8.100700E+01	  0.037034072	1.735600E+01	  0.037034072	5.546600E+01
87	  0.037234470	-2.695000E+00	  0.037234470	7.887800E+01	  0.037234470	1.842600E+01	  0.037234470	5.733700E+01
88	  0.037434869	-2.753000E+00	  0.037434869	7.677200E+01	  0.037434869	1.960900E+01	  0.037434869	5.922400E+01
89	  0.037635271	-2.809000E+00	  0.037635271	7.464600E+01	  0.037635271	2.088300E+01	  0.037635271	6.118700E+01
90	  0.037835669	-2.869000E+00	  0.037835669	7.250300E+01	  0.037835669	2.229600E+01	  0.037835669	6.320900E+01
91	  0.038036071	-2.934000E+00	  0.038036071	7.038800E+01	  0.038036071	2.384300E+01	  0.038036071	6.523800E+01
92	  0.038236473	-3.000000E+00	  0.038236473	6.831900E+01	  0.038236473	2.550500E+01	  0.038236473	6.725500E+01
93	  0.038436871	-3.058000E+00	  0.038436871	6.624500E+01	  0.038436871	2.723400E+01	  0.038436871	6.935900E+01
94	  0.038637273	-3.111000E+00	  0.038637273	6.414200E+01	  0.038637273	2.910200E+01	  0.038637273	7.156300E+01
95	  0.038837675	-3.165000E+00	  0.038837675	6.203800E+01	  0.038837675	3.113400E+01	  0.038837675	7.381900E+01
96	  0.039038073	-3.219000E+00	  0.039038073	5.993400E+01	  0.039038073	3.335500E+01	  0.039038073	7.611500E+01
97	  0.039238475	-3.274000E+00	  0.039238475	5.785800E+01	  0.039238475	3.574600E+01	  0.039238475	7.841600E+01
98	  0.039438877	-3.331000E+00	  0.039438877	5.576000E+01	  0.039438877	3.839800E+01	  0.039438877	8.076000E+01
99	  0.039639279	-3.389000E+00	  0.039639279	5.367200E+01	  0.039639279	4.128000E+01	  0.039639279	8.310700E+01
100	  0.039839678	-3.445000E+00	  0.039839678	5.157400E+01	  0.039839678	4.442400E+01	  0.039839678	8.548800E+01
101	  0.040040080	-3.501000E+00	  0.040040080	4.945600E+01	  0.040040080	4.789200E+01	  0.040040080	8.788800E+01
102	  0.040240481	-3.557000E+00	  0.040240481	4.736800E+01	  0.040240481	5.163200E+01	  0.040240481	9.021800E+01
103	  0.040440880	-3.615000E+00	  0.040440880	4.527300E+01	  0.040440880	5.575000E+01	  0.040440880	9.247200E+01
104	  0.040641282	-3.671000E+00	  0.040641282	4.321200E+01	  0.040641282	6.015800E+01	  0.040641282	9.461400E+01
105	  0.040841684	-3.730000E+00	  0.040841684	4.113700E+01	  0.040841684	6.501500E+01	  0.040841684	9.660200E+01
106	  0.041042086	-3.785000E+00	  0.041042086	3.908400E+01	  0.041042086	7.021200E+01	  0.041042086	9.843400E+01
107	  0.041242484	-3.845000E+00	  0.041242484	3.700600E+01	  0.041242484	7.595900E+01	  0.041242484	9.996100E+01
108	  0.041442886	-3.900000E+00	  0.041442886	3.494100E+01	  0.041442886	8.208900E+01	  0.041442886	1.012690E+02
109	  0.041643288	-3.956000E+00	  0.041643288	3.286200E+01	  0.041643288	8.875800E+01	  0.041643288	1.021510E+02
110	  0.041843686	-4.013000E+00	  0.041843686	3.075500E+01	  0.041843686	9.600200E+01	  0.041843686	1.025550E+02
111	  0.042044088	-4.069000E+00	  0.042044088	2.871200E+01	  0.042044088	1.034880E+02	  0.042044088	1.023350E+02
112	  0.042244490	-4.123000E+00	  0.042244490	2.663200E+01	  0.042244490	1.115280E+02	  0.042244490	1.014570E+02
113	  0.042444889	-4.178000E+00	  0.042444889	2.458400E+01	  0.042444889	1.198000E+02	  0.042444889	9.971000E+01
114	  0.042645290	-4.235000E+00	  0.042645290	2.254800E+01	  0.042645290	1.282640E+02	  0.042645290	9.697300E+01
115	  0.042845692	-4.288000E+00	  0.042845692	2.048600E+01	  0.042845692	1.369830E+02	  0.042845692	9.327500E+01
116	  0.043046094	-4.342000E+00	  0.043046094	1.846100E+01	  0.043046094	1.454910E+02	  0.043046094	8.842400E+01
117	  0.043246493	-4.396000E+00	  0.043246493	1.641300E+01	  0.043246493	1.538500E+02	  0.043246493	8.232000E+01
118	  0.043446895	-4.447000E+00	  0.043446895	1.439000E+01	  0.043446895	1.616800E+02	  0.043446895	7.514400E+01
119	  0.043647297	-4.497000E+00	  0.043647297	1.236200E+01	  0.043647297	1.688670E+02	  0.043647297	6.680200E+01
120	  0.043847695	-4.547000E+00	  0.043847695	1.035300E+01	  0.043847695	1.750290E+02	  0.043847695	5.742400E+01
121	  0.044048097	-4.598000E+00	  0.044048097	8.367000E+00	  0.044048097	1.799220E+02	  0.044048097	4.721900E+01
122	  0.044248499	-4.646000E+00	  0.044248499	6.380000E+00	  0.044248499	1.836110E+02	  0.044248499	3.638100E+01
123	  0.044448901	-4.695000E+00	  0.044448901	4.412000E+00	  0.044448901	1.857780E+02	  0.044448901	2.519000E+01
124	  0.044649299	-4.741000E+00	  0.044649299	2.452000E+00	  0.044649299	1.865800E+02	  0.044649299	1.392100E+01
125	  0.044849701	-4.785000E+00	  0.044849701	4.940000E-01	  0.044849701	1.860210E+02	  0.044849701	2.772000E+00
126	  0.045050103	-4.830000E+00	  0.045050103	-1.450000E+00	  0.045050103	1.840360E+02	  0.045050103	-7.959000E+00
127	  0.045250501	-4.875000E+00	  0.045250501	-3.390000E+00	  0.045250501	1.808460E+02	  0.045250501	-1.809100E+01
128	  0.045450903	-4.916000E+00	  0.045450903	-5.309000E+00	  0.045450903	1.767400E+02	  0.045450903	-2.740500E+01
129	  0.045651305	-4.959000E+00	  0.045651305	-7.232000E+00	  0.045651305	1.717220E+02	  0.045651305	-3.588700E+01
130	  0.045851704	-4.999000E+00	  0.045851704	-9.119000E+00	  0.045851704	1.661730E+02	  0.045851704	-4.332700E+01
131	  0.046052102	-5.040000E+00	  0.046052102	-1.100100E+01	  0.046052102	1.601380E+02	  0.046052102	-4.982200E+01
132	  0.046252504	-5.081000E+00	  0.046252504	-1.287000E+01	  0.046252504	1.538260E+02	  0.046252504	-5.535600E+01
133	  0.046452906	-5.121000E+00	  0.046452906	-1.472200E+01	  0.046452906	1.474310E+02	  0.046452906	-6.000800E+01
134	  0.046653304	-5.158000E+00	  0.046653304	-1.658000E+01	  0.046653304	1.410120E+02	  0.046653304	-6.392900E+01
135	  0.046853706	-5.194000E+00	  0.046853706	-1.845000E+01	  0.046853706	1.346050E+02	  0.046853706	-6.715500E+01
136	  0.047054108	-5.230000E+00	  0.047054108	-2.030600E+01	  0.047054108	1.283600E+02	  0.047054108	-6.968700E+01
137	  0.047254506	-5.262000E+00	  0.047254506	-2.216600E+01	  0.047254506	1.222990E+02	  0.047254506	-7.169100E+01
138	  0.047454908	-5.294000E+00	  0.047454908	-2.399800E+01	  0.047454908	1.165260E+02	  0.047454908	-7.313100E+01
139	  0.047655310	-5.325000E+00	  0.047655310	-2.584000E+01	  0.047655310	1.109610E+02	  0.047655310	-7.414100E+01
140	  0.047855709	-5.358000E+00	  0.047855709	-2.764300E+01	  0.047855709	1.057480E+02	  0.047855709	-7.470600E+01
141	  0.048056111	-5.389000E+00	  0.048056111	-2.944300E+01	  0.048056111	1.007970E+02	  0.048056111	-7.494400E+01
142	  0.048256513	-5.422000E+00	  0.048256513	-3.123600E+01	  0.048256513	9.612000E+01	  0.048256513	-7.488100E+01
143	  0.048456915	-5.453000E+00	  0.048456915	-3.303100E+01	  0.048456915	9.169800E+01	  0.048456915	-7.461300E+01
144	  0.048657313	-5.479000E+00	  0.048657313	-3.480500E+01	  0.048657313	8.756800E+01	  0.048657313	-7.420700E+01
145	  0.048857715	-5.506000E+00	  0.048857715	-3.661000E+01	  0.048857715	8.360100E+01	  0.048857715	-7.361300E+01
146	  0.049058117	-5.529000E+00	  0.049058117	-3.840100E+01	  0.049058117	7.988900E+01	  0.049058117	-7.292000E+01
147	  0.049258515	-5.552000E+00	  0.049258515	-4.015400E+01	  0.049258515	7.646400E+01	  0.049258515	-7.211300E+01
148	  0.049458917	-5.574000E+00	  0.049458917	-4.191500E+01	  0.049458917	7.321800E+01	  0.049458917	-7.121900E+01
149	  0.049659319	-5.602000E+00	  0.049659319	-4.364400E+01	  0.049659319	7.023200E+01	  0.049659319	-7.018500E+01
150	  0.049859721	-5.624000E+00	  0.049859721	-4.535200E+01	  0.049859721	6.744000E+01	  0.049859721	-6.916300E+01
151	  0.050060119	-5.645000E+00	  0.050060119	-4.707400E+01	  0.050060119	6.478300E+01	  0.050060119	-6.808800E+01
152	  0.050260521	-5.665000E+00	  0.050260521	-4.878700E+01	  0.050260521	6.228800E+01	  0.050260521	-6.698100E+01
153	  0.050460923	-5.685000E+00	  0.050460923	-5.048000E+01	  0.050460923	5.996100E+01	  0.050460923	-6.585800E+01
154	  0.050661322	-5.701000E+00	  0.050661322	-5.218600E+01	  0.050661322	5.773200E+01	  0.050661322	-6.473600E+01
155	  0.050861724	-5.717000E+00	  0.050861724	-5.385900E+01	  0.050861724	5.567300E+01	  0.050861724	-6.360400E+01
156	  0.051062126	-5.735000E+00	  0.051062126	-5.551900E+01	  0.051062126	5.374500E+01	  0.051062126	-6.245500E+01
157	  0.051262524	-5.755000E+00	  0.051262524	-5.716100E+01	  0.051262524	5.195200E+01	  0.051262524	-6.129300E+01
158	  0.051462926	-5.771000E+00	  0.051462926	-5.878800E+01	  0.051462926	5.025500E+01	  0.051462926	-6.016400E+01
159	  0.051663328	-5.792000E+00	  0.051663328	-6.040000E+01	  0.051663328	4.868600E+01	  0.051663328	-5.900300E+01
160	  0.051863730	-5.804000E+00	  0.051863730	-6.203000E+01	  0.051863730	4.714400E+01	  0.051863730	-5.789400E+01
161	  0.052064128	-5.821000E+00	  0.052064128	-6.362200E+01	  0.052064128	4.573300E+01	  0.052064128	-5.678300E+01
162	  0.052264530	-5.829000E+00	  0.052264530	-6.522600E+01	  0.052264530	4.434600E+01	  0.052264530	-5.572200E+01
163	  0.052464932	-5.841000E+00	  0.052464932	-6.681100E+01	  0.052464932	4.306500E+01	  0.052464932	-5.464500E+01
164	  0.052665330	-5.857000E+00	  0.052665330	-6.840100E+01	  0.052665330	4.185500E+01	  0.052665330	-5.355800E+01
165	  0.052865732	-5.870000E+00	  0.052865732	-6.995100E+01	  0.052865732	4.072400E+01	  0.052865732	-5.251700E+01
166	  0.053066134	-5.887000E+00	  0.053066134	-7.149400E+01	  0.053066134	3.967100E+01	  0.053066134	-5.146500E+01
167	  0.053266536	-5.897000E+00	  0.053266536	-7.302700E+01	  0.053266536	3.864400E+01	  0.053266536	-5.046600E+01
168	  0.053466935	-5.912000E+00	  0.053466935	-7.456800E+01	  0.053466935	3.768100E+01	  0.053466935	-4.944700E+01
169	  0.053667337	-5.926000E+00	  0.053667337	-7.610500E+01	  0.053667337	3.675900E+01	  0.053667337	-4.844700E+01
170	  0.053867739	-5.936000E+00	  0.053867739	-7.763100E+01	  0.053867739	3.587000E+01	  0.053867739	-4.748200E+01
171	  0.054068137	-5.948000E+00	  0.054068137	-7.916800E+01	  0.054068137	3.502300E+01	  0.054068137	-4.651100E+01
172	  0.054268539	-5.958000E+00	  0.054268539	-8.065800E+01	  0.054268539	3.423600E+01	  0.054268539	-4.558100E+01
173	  0.054468941	-5.970000E+00	  0.054468941	-8.214200E+01	  0.054468941	3.348900E+01	  0.054468941	-4.466400E+01
174	  0.054669335	-5.982000E+00	  0.054669335	-8.363000E+01	  0.054669335	3.277700E+01	  0.054669335	-4.374900E+01
175	  0.054869737	-5.992000E+00	  0.054869737	-8.510200E+01	  0.054869737	3.209200E+01	  0.054869737	-4.286300E+01
176	  0.055070139	-6.005000E+00	  0.055070139	-8.656000E+01	  0.055070139	3.145500E+01	  0.055070139	-4.198700E+01
177	  0.055270538	-6.016000E+00	  0.055270538	-8.802500E+01	  0.055270538	3.083300E+01	  0.055270538	-4.112200E+01
178	  0.055470940	-6.024000E+00	  0.055470940	-8.944800E+01	  0.055470940	3.024900E+01	  0.055470940	-4.029600E+01
179	  0.055671342	-6.029000E+00	  0.055671342	-9.089400E+01	  0.055671342	2.966300E+01	  0.055671342	-3.947700E+01
180	  0.055871744	-6.034000E+00	  0.055871744	-9.230400E+01	  0.055871744	2.911400E+01	  0.055871744	-3.868700E+01
181	  0.056072142	-6.045000E+00	  0.056072142	-9.372000E+01	  0.056072142	2.860700E+01	  0.056072142	-3.788400E+01
182	  0.056272544	-6.050000E+00	  0.056272544	-9.509300E+01	  0.056272544	2.811800E+01	  0.056272544	-3.712700E+01
183	  0.056472946	-6.052000E+00	  0.056472946	-9.647300E+01	  0.056472946	2.762900E+01	  0.056472946	-3.638300E+01
184	  0.056673344	-6.056000E+00	  0.056673344	-9.780900E+01	  0.056673344	2.718300E+01	  0.056673344	-3.566300E+01
185	  0.056873746	-6.061000E+00	  0.056873746	-9.916800E+01	  0.056873746	2.675100E+01	  0.056873746	-3.493500E+01
186	  0.057074148	-6.063000E+00	  0.057074148	-1.004820E+02	  0.057074148	2.633400E+01	  0.057074148	-3.424600E+01
187	  0.057274550	-6.066000E+00	  0.057274550	-1.018270E+02	  0.057274550	2.592900E+01	  0.057274550	-3.354400E+01
188	  0.057474948	-6.062000E+00	  0.057474948	-1.031380E+02	  0.057474948	2.552500E+01	  0.057474948	-3.287800E+01
189	  0.057675350	-6.064000E+00	  0.057675350	-1.044530E+02	  0.057675350	2.515300E+01	  0.057675350	-3.220500E+01
190	  0.057875752	-6.063000E+00	  0.057875752	-1.057710E+02	  0.057875752	2.478300E+01	  0.057875752	-3.154200E+01
191	  0.058076151	-6.061000E+00	  0.058076151	-1.070630E+02	  0.058076151	2.443000E+01	  0.058076151	-3.089800E+01
192	  0.058276553	-6.058000E+00	  0.058276553	-1.083280E+02	  0.058276553	2.409400E+01	  0.058276553	-3.027400E+01
193	  0.058476955	-6.056000E+00	  0.058476955	-1.096110E+02	  0.058476955	2.376600E+01	  0.058476955	-2.964500E+01
194	  0.058677353	-6.056000E+00	  0.058677353	-1.108980E+02	  0.058677353	2.345500E+01	  0.058677353	-2.901500E+01
195	  0.058877755	-6.055000E+00	  0.058877755	-1.121840E+02	  0.058877755	2.315200E+01	  0.058877755	-2.839200E+01
196	  0.059078157	-6.048000E+00	  0.059078157	-1.134420E+02	  0.059078157	2.284600E+01	  0.059078157	-2.779700E+01
197	  0.059278559	-6.041000E+00	  0.059278559	-1.147200E+02	  0.059278559	2.254500E+01	  0.059278559	-2.719500E+01
198	  0.059478957	-6.037000E+00	  0.059478957	-1.160010E+02	  0.059478957	2.226200E+01	  0.059478957	-2.659300E+01
199	  0.059679359	-6.039000E+00	  0.059679359	-1.172740E+02	  0.059679359	2.201000E+01	  0.059679359	-2.599000E+01
200	  0.059879761	-6.035000E+00	  0.059879761	-1.185310E+02	  0.059879761	2.175000E+01	  0.059879761	-2.540700E+01
201	  0.060080159	-6.033000E+00	  0.060080159	-1.197670E+02	  0.060080159	2.151100E+01	  0.060080159	-2.483500E+01
202	  0.060280561	-6.029000E+00	  0.060280561	-1.210320E+02	  0.060280561	2.126800E+01	  0.060280561	-2.425500E+01
203	  0.060480963	-6.029000E+00	  0.060480963	-1.222840E+02	  0.060480963	2.104600E+01	  0.060480963	-2.368100E+01
204	  0.060681365	-6.027000E+00	  0.060681365	-1.235270E+02	  0.060681365	2.082700E+01	  0.060681365	-2.311800E+01
205	  0.060881764	-6.021000E+00	  0.060881764	-1.247700E+02	  0.060881764	2.060400E+01	  0.060881764	-2.256200E+01
206	  0.061082166	-6.018000E+00	  0.061082166	-1.260280E+02	  0.061082166	2.039500E+01	  0.061082166	-2.199900E+01
207	  0.061282568	-6.019000E+00	  0.061282568	-1.272600E+02	  0.061282568	2.020700E+01	  0.061282568	-2.144800E+01
208	  0.061482966	-6.014000E+00	  0.061482966	-1.284940E+02	  0.061482966	2.000900E+01	  0.061482966	-2.090500E+01
209	  0.061683368	-6.012000E+00	  0.061683368	-1.297330E+02	  0.061683368	1.982700E+01	  0.061683368	-2.036000E+01
210	  0.061883770	-6.012000E+00	  0.061883770	-1.309580E+02	  0.061883770	1.965600E+01	  0.061883770	-1.982200E+01
211	  0.062084168	-6.009000E+00	  0.062084168	-1.321480E+02	  0.062084168	1.948900E+01	  0.062084168	-1.930600E+01
212	  0.062284570	-6.008000E+00	  0.062284570	-1.333800E+02	  0.062284570	1.932700E+01	  0.062284570	-1.877200E+01
213	  0.062484972	-5.998000E+00	  0.062484972	-1.345630E+02	  0.062484972	1.915000E+01	  0.062484972	-1.827000E+01
214	  0.062685370	-5.992000E+00	  0.062685370	-1.357520E+02	  0.062685370	1.899100E+01	  0.062685370	-1.776400E+01
215	  0.062885776	-5.995000E+00	  0.062885776	-1.369420E+02	  0.062885776	1.886200E+01	  0.062885776	-1.725300E+01
216	  0.063086174	-5.990000E+00	  0.063086174	-1.381320E+02	  0.063086174	1.871600E+01	  0.063086174	-1.675100E+01
217	  0.063286573	-5.986000E+00	  0.063286573	-1.393270E+02	  0.063286573	1.857700E+01	  0.063286573	-1.624800E+01
218	  0.063486971	-5.981000E+00	  0.063486971	-1.404710E+02	  0.063486971	1.844400E+01	  0.063486971	-1.576900E+01
219	  0.063687377	-5.979000E+00	  0.063687377	-1.416200E+02	  0.063687377	1.832200E+01	  0.063687377	-1.528900E+01
220	  0.063887775	-5.976000E+00	  0.063887775	-1.427800E+02	  0.063887775	1.820300E+01	  0.063887775	-1.480700E+01
221	  0.064088173	-5.973000E+00	  0.064088173	-1.439490E+02	  0.064088173	1.808900E+01	  0.064088173	-1.432200E+01
222	  0.064288579	-5.967000E+00	  0.064288579	-1.450660E+02	  0.064288579	1.797200E+01	  0.064288579	-1.386300E+01
223	  0.064488977	-5.971000E+00	  0.064488977	-1.462370E+02	  0.064488977	1.788500E+01	  0.064488977	-1.337700E+01
224	  0.064689375	-5.970000E+00	  0.064689375	-1.473250E+02	  0.064689375	1.779100E+01	  0.064689375	-1.293100E+01
225	  0.064889781	-5.963000E+00	  0.064889781	-1.484850E+02	  0.064889781	1.768200E+01	  0.064889781	-1.245900E+01
226	  0.065090179	-5.968000E+00	  0.065090179	-1.495740E+02	  0.065090179	1.761200E+01	  0.065090179	-1.201200E+01
227	  0.065290578	-5.967000E+00	  0.065290578	-1.506520E+02	  0.065290578	1.753300E+01	  0.065290578	-1.157400E+01
228	  0.065490983	-5.968000E+00	  0.065490983	-1.517420E+02	  0.065490983	1.745800E+01	  0.065490983	-1.113200E+01
229	  0.065691382	-5.964000E+00	  0.065691382	-1.528820E+02	  0.065691382	1.737400E+01	  0.065691382	-1.067300E+01
230	  0.065891780	-5.964000E+00	  0.065891780	-1.539720E+02	  0.065891780	1.730500E+01	  0.065891780	-1.023400E+01
231	  0.066092186	-5.971000E+00	  0.066092186	-1.550650E+02	  0.066092186	1.725700E+01	  0.066092186	-9.792000E+00
232	  0.066292584	-5.968000E+00	  0.066292584	-1.561380E+02	  0.066292584	1.718800E+01	  0.066292584	-9.363000E+00
233	  0.066492982	-5.968000E+00	  0.066492982	-1.572290E+02	  0.066492982	1.712800E+01	  0.066492982	-8.927000E+00
234	  0.066693388	-5.972000E+00	  0.066693388	-1.582870E+02	  0.066693388	1.708300E+01	  0.066693388	-8.504000E+00
235	  0.066893786	-5.978000E+00	  0.066893786	-1.593490E+02	  0.066893786	1.704500E+01	  0.066893786	-8.080000E+00
236	  0.067094192	-5.975000E+00	  0.067094192	-1.604170E+02	  0.067094192	1.698800E+01	  0.067094192	-7.658000E+00
237	  0.067294590	-5.981000E+00	  0.067294590	-1.614710E+02	  0.067294590	1.695800E+01	  0.067294590	-7.239000E+00
238	  0.067494988	-5.984000E+00	  0.067494988	-1.625350E+02	  0.067494988	1.692000E+01	  0.067494988	-6.818000E+00
239	  0.067695394	-5.985000E+00	  0.067695394	-1.635950E+02	  0.067695394	1.688300E+01	  0.067695394	-6.400000E+00
240	  0.067895792	-5.992000E+00	  0.067895792	-1.646570E+02	  0.067895792	1.686200E+01	  0.067895792	-5.981000E+00
241	  0.068096191	-5.994000E+00	  0.068096191	-1.657030E+02	  0.068096191	1.683200E+01	  0.068096191	-5.569000E+00
242	  0.068296596	-5.999000E+00	  0.068296596	-1.667420E+02	  0.068296596	1.681100E+01	  0.068296596	-5.161000E+00
243	  0.068496995	-6.002000E+00	  0.068496995	-1.677810E+02	  0.068496995	1.678800E+01	  0.068496995	-4.754000E+00
244	  0.068697393	-6.006000E+00	  0.068697393	-1.688080E+02	  0.068697393	1.677200E+01	  0.068697393	-4.352000E+00
245	  0.068897791	-6.007000E+00	  0.068897791	-1.698490E+02	  0.068897791	1.674800E+01	  0.068897791	-3.945000E+00
246	  0.069098189	-6.007000E+00	  0.069098189	-1.708450E+02	  0.069098189	1.672700E+01	  0.069098189	-3.557000E+00
247	  0.069298595	-6.014000E+00	  0.069298595	-1.718720E+02	  0.069298595	1.672400E+01	  0.069298595	-3.156000E+00
248	  0.069498993	-6.012000E+00	  0.069498993	-1.729150E+02	  0.069498993	1.670100E+01	  0.069498993	-2.750000E+00
249	  0.069699399	-6.018000E+00	  0.069699399	-1.739330E+02	  0.069699399	1.670300E+01	  0.069699399	-2.354000E+00
250	  0.069899797	-6.021000E+00	  0.069899797	-1.749380E+02	  0.069899797	1.669700E+01	  0.069899797	-1.963000E+00
251	  0.070100196	-6.021000E+00	  0.070100196	-1.759220E+02	  0.070100196	1.668700E+01	  0.070100196	-1.581000E+00
252	  0.070300601	-6.024000E+00	  0.070300601	-1.769290E+02	  0.070300601	1.668700E+01	  0.070300601	-1.190000E+00
253	  0.070501000	-6.027000E+00	  0.070501000	-1.779060E+02	  0.070501000	1.668800E+01	  0.070501000	-8.110000E-01
254	  0.070701398	-6.029000E+00	  0.070701398	-1.788940E+02	  0.070701398	1.669000E+01	  0.070701398	-4.280000E-01
255	  0.070901804	-6.034000E+00	  0.070901804	-1.798710E+02	  0.070901804	1.670200E+01	  0.070901804	-4.900000E-02
256	  0.071102202	-6.036000E+00	  0.071102202	1.791490E+02	  0.071102202	1.670900E+01	  0.071102202	3.290000E-01
257	  0.071302600	-6.042000E+00	  0.071302600	1.781740E+02	  0.071302600	1.672600E+01	  0.071302600	7.070000E-01
258	  0.071503006	-6.042000E+00	  0.071503006	1.771880E+02	  0.071503006	1.673100E+01	  0.071503006	1.089000E+00
259	  0.071703404	-6.053000E+00	  0.071703404	1.762300E+02	  0.071703404	1.676800E+01	  0.071703404	1.460000E+00
260	  0.071903802	-6.055000E+00	  0.071903802	1.752760E+02	  0.071903802	1.678100E+01	  0.071903802	1.830000E+00
261	  0.072104208	-6.058000E+00	  0.072104208	1.743170E+02	  0.072104208	1.680000E+01	  0.072104208	2.201000E+00
262	  0.072304606	-6.067000E+00	  0.072304606	1.733790E+02	  0.072304606	1.683500E+01	  0.072304606	2.565000E+00
263	  0.072505005	-6.069000E+00	  0.072505005	1.724170E+02	  0.072505005	1.685600E+01	  0.072505005	2.938000E+00
264	  0.072705410	-6.079000E+00	  0.072705410	1.714720E+02	  0.072705410	1.689800E+01	  0.072705410	3.304000E+00
265	  0.072905809	-6.084000E+00	  0.072905809	1.705200E+02	  0.072905809	1.693100E+01	  0.072905809	3.673000E+00
266	  0.073106214	-6.093000E+00	  0.073106214	1.695860E+02	  0.073106214	1.697600E+01	  0.073106214	4.034000E+00
267	  0.073306613	-6.101000E+00	  0.073306613	1.686490E+02	  0.073306613	1.701900E+01	  0.073306613	4.398000E+00
268	  0.073507011	-6.107000E+00	  0.073507011	1.677110E+02	  0.073507011	1.706100E+01	  0.073507011	4.762000E+00
269	  0.073707417	-6.116000E+00	  0.073707417	1.667850E+02	  0.073707417	1.711300E+01	  0.073707417	5.121000E+00
270	  0.073907815	-6.121000E+00	  0.073907815	1.658640E+02	  0.073907815	1.715300E+01	  0.073907815	5.479000E+00
271	  0.074108213	-6.126000E+00	  0.074108213	1.649300E+02	  0.074108213	1.719800E+01	  0.074108213	5.842000E+00
272	  0.074308619	-6.135000E+00	  0.074308619	1.640300E+02	  0.074308619	1.725300E+01	  0.074308619	6.192000E+00
273	  0.074509017	-6.140000E+00	  0.074509017	1.630590E+02	  0.074509017	1.730400E+01	  0.074509017	6.571000E+00
274	  0.074709415	-6.145000E+00	  0.074709415	1.621930E+02	  0.074709415	1.735300E+01	  0.074709415	6.909000E+00
275	  0.074909821	-6.154000E+00	  0.074909821	1.612640E+02	  0.074909821	1.741600E+01	  0.074909821	7.271000E+00
276	  0.075110219	-6.164000E+00	  0.075110219	1.603560E+02	  0.075110219	1.748400E+01	  0.075110219	7.624000E+00
277	  0.075310618	-6.171000E+00	  0.075310618	1.594700E+02	  0.075310618	1.754300E+01	  0.075310618	7.971000E+00
278	  0.075511023	-6.177000E+00	  0.075511023	1.585630E+02	  0.075511023	1.760300E+01	  0.075511023	8.326000E+00
279	  0.075711422	-6.183000E+00	  0.075711422	1.576990E+02	  0.075711422	1.766400E+01	  0.075711422	8.665000E+00
280	  0.075911827	-6.192000E+00	  0.075911827	1.568160E+02	  0.075911827	1.773600E+01	  0.075911827	9.011000E+00
281	  0.076112226	-6.199000E+00	  0.076112226	1.559330E+02	  0.076112226	1.780400E+01	  0.076112226	9.358000E+00
282	  0.076312624	-6.209000E+00	  0.076312624	1.550340E+02	  0.076312624	1.788400E+01	  0.076312624	9.711000E+00
283	  0.076513030	-6.216000E+00	  0.076513030	1.541620E+02	  0.076513030	1.795600E+01	  0.076513030	1.005400E+01
284	  0.076713428	-6.228000E+00	  0.076713428	1.532860E+02	  0.076713428	1.804400E+01	  0.076713428	1.039800E+01
285	  0.076913826	-6.236000E+00	  0.076913826	1.524350E+02	  0.076913826	1.812400E+01	  0.076913826	1.073300E+01
286	  0.077114232	-6.243000E+00	  0.077114232	1.515780E+02	  0.077114232	1.820000E+01	  0.077114232	1.107300E+01
287	  0.077314630	-6.253000E+00	  0.077314630	1.507200E+02	  0.077314630	1.828900E+01	  0.077314630	1.141100E+01
288	  0.077515028	-6.263000E+00	  0.077515028	1.498840E+02	  0.077515028	1.837600E+01	  0.077515028	1.174200E+01
289	  0.077715434	-6.274000E+00	  0.077715434	1.490280E+02	  0.077715434	1.847200E+01	  0.077715434	1.208000E+01
290	  0.077915832	-6.283000E+00	  0.077915832	1.481600E+02	  0.077915832	1.856400E+01	  0.077915832	1.242500E+01
291	  0.078116231	-6.293000E+00	  0.078116231	1.473090E+02	  0.078116231	1.866100E+01	  0.078116231	1.276300E+01
292	  0.078316636	-6.308000E+00	  0.078316636	1.464800E+02	  0.078316636	1.877000E+01	  0.078316636	1.309000E+01
293	  0.078517035	-6.316000E+00	  0.078517035	1.456080E+02	  0.078517035	1.886700E+01	  0.078517035	1.343900E+01
294	  0.078717433	-6.331000E+00	  0.078717433	1.447580E+02	  0.078717433	1.898400E+01	  0.078717433	1.377500E+01
295	  0.078917839	-6.345000E+00	  0.078917839	1.439230E+02	  0.078917839	1.910000E+01	  0.078917839	1.410600E+01
296	  0.079118237	-6.357000E+00	  0.079118237	1.430870E+02	  0.079118237	1.921200E+01	  0.079118237	1.444000E+01
297	  0.079318643	-6.369000E+00	  0.079318643	1.422420E+02	  0.079318643	1.932700E+01	  0.079318643	1.477700E+01
298	  0.079519041	-6.382000E+00	  0.079519041	1.414090E+02	  0.079519041	1.944500E+01	  0.079519041	1.511000E+01
299	  0.079719439	-6.393000E+00	  0.079719439	1.405820E+02	  0.079719439	1.956300E+01	  0.079719439	1.544200E+01
300	  0.079919845	-6.410000E+00	  0.079919845	1.397150E+02	  0.079919845	1.970100E+01	  0.079919845	1.578700E+01
301	  0.080120243	-6.423000E+00	  0.080120243	1.388830E+02	  0.080120243	1.982800E+01	  0.080120243	1.612100E+01
302	  0.080320641	-6.438000E+00	  0.080320641	1.380740E+02	  0.080320641	1.996000E+01	  0.080320641	1.644400E+01
303	  0.080521047	-6.451000E+00	  0.080521047	1.372250E+02	  0.080521047	2.009500E+01	  0.080521047	1.678600E+01
304	  0.080721445	-6.467000E+00	  0.080721445	1.363980E+02	  0.080721445	2.023600E+01	  0.080721445	1.711800E+01
305	  0.080921844	-6.477000E+00	  0.080921844	1.355420E+02	  0.080921844	2.037100E+01	  0.080921844	1.746500E+01
306	  0.081122249	-6.495000E+00	  0.081122249	1.347680E+02	  0.081122249	2.051600E+01	  0.081122249	1.777400E+01
307	  0.081322648	-6.506000E+00	  0.081322648	1.339490E+02	  0.081322648	2.065200E+01	  0.081322648	1.810700E+01
308	  0.081523046	-6.520000E+00	  0.081523046	1.331360E+02	  0.081523046	2.079900E+01	  0.081523046	1.843600E+01
309	  0.081723452	-6.532000E+00	  0.081723452	1.323050E+02	  0.081723452	2.094600E+01	  0.081723452	1.877500E+01
310	  0.081923850	-6.544000E+00	  0.081923850	1.314880E+02	  0.081923850	2.109000E+01	  0.081923850	1.910900E+01
311	  0.082124248	-6.556000E+00	  0.082124248	1.306850E+02	  0.082124248	2.123800E+01	  0.082124248	1.943800E+01
312	  0.082324654	-6.572000E+00	  0.082324654	1.299010E+02	  0.082324654	2.139700E+01	  0.082324654	1.975500E+01
313	  0.082525052	-6.586000E+00	  0.082525052	1.291190E+02	  0.082525052	2.155500E+01	  0.082525052	2.007300E+01
314	  0.082725458	-6.604000E+00	  0.082725458	1.283780E+02	  0.082725458	2.171900E+01	  0.082725458	2.037000E+01
315	  0.082925856	-6.616000E+00	  0.082925856	1.276040E+02	  0.082925856	2.187300E+01	  0.082925856	2.068900E+01
316	  0.083126254	-6.638000E+00	  0.083126254	1.268140E+02	  0.083126254	2.206000E+01	  0.083126254	2.100400E+01
317	  0.083326660	-6.650000E+00	  0.083326660	1.260660E+02	  0.083326660	2.221600E+01	  0.083326660	2.131200E+01
318	  0.083527058	-6.665000E+00	  0.083527058	1.253020E+02	  0.083527058	2.238600E+01	  0.083527058	2.162400E+01
319	  0.083727457	-6.682000E+00	  0.083727457	1.245340E+02	  0.083727457	2.256700E+01	  0.083727457	2.193500E+01
320	  0.083927862	-6.698000E+00	  0.083927862	1.237930E+02	  0.083927862	2.274300E+01	  0.083927862	2.223600E+01
321	  0.084128261	-6.719000E+00	  0.084128261	1.230290E+02	  0.084128261	2.293800E+01	  0.084128261	2.254300E+01
322	  0.084328659	-6.737000E+00	  0.084328659	1.223230E+02	  0.084328659	2.311900E+01	  0.084328659	2.282700E+01
323	  0.084529065	-6.762000E+00	  0.084529065	1.215710E+02	  0.084529065	2.332900E+01	  0.084529065	2.312400E+01
324	  0.084729463	-6.780000E+00	  0.084729463	1.208400E+02	  0.084729463	2.352200E+01	  0.084729463	2.341800E+01
325	  0.084929854	-6.802000E+00	  0.084929854	1.200830E+02	  0.084929854	2.373100E+01	  0.084929854	2.372100E+01
326	  0.085130259	-6.821000E+00	  0.085130259	1.193330E+02	  0.085130259	2.393700E+01	  0.085130259	2.402200E+01
327	  0.085330658	-6.842000E+00	  0.085330658	1.185900E+02	  0.085330658	2.414600E+01	  0.085330658	2.432000E+01
328	  0.085531056	-6.865000E+00	  0.085531056	1.178440E+02	  0.085531056	2.436800E+01	  0.085531056	2.461500E+01
329	  0.085731462	-6.889000E+00	  0.085731462	1.170840E+02	  0.085731462	2.459800E+01	  0.085731462	2.491500E+01
330	  0.085931860	-6.910000E+00	  0.085931860	1.163820E+02	  0.085931860	2.481100E+01	  0.085931860	2.519300E+01
331	  0.086132258	-6.934000E+00	  0.086132258	1.156680E+02	  0.086132258	2.503700E+01	  0.086132258	2.547300E+01
332	  0.086332664	-6.960000E+00	  0.086332664	1.149180E+02	  0.086332664	2.528200E+01	  0.086332664	2.576500E+01
333	  0.086533062	-6.980000E+00	  0.086533062	1.141820E+02	  0.086533062	2.550900E+01	  0.086533062	2.605900E+01
334	  0.086733460	-7.006000E+00	  0.086733460	1.134700E+02	  0.086733460	2.575100E+01	  0.086733460	2.633300E+01
335	  0.086933866	-7.030000E+00	  0.086933866	1.127420E+02	  0.086933866	2.599700E+01	  0.086933866	2.661600E+01
336	  0.087134264	-7.048000E+00	  0.087134264	1.119970E+02	  0.087134264	2.622900E+01	  0.087134264	2.691800E+01
337	  0.087334670	-7.076000E+00	  0.087334670	1.112760E+02	  0.087334670	2.649000E+01	  0.087334670	2.719100E+01
338	  0.087535068	-7.105000E+00	  0.087535068	1.105730E+02	  0.087535068	2.675400E+01	  0.087535068	2.745300E+01
339	  0.087735467	-7.129000E+00	  0.087735467	1.098470E+02	  0.087735467	2.701200E+01	  0.087735467	2.773400E+01
340	  0.087935872	-7.154000E+00	  0.087935872	1.091560E+02	  0.087935872	2.727000E+01	  0.087935872	2.799600E+01
341	  0.088136271	-7.179000E+00	  0.088136271	1.084500E+02	  0.088136271	2.753100E+01	  0.088136271	2.826500E+01
342	  0.088336669	-7.202000E+00	  0.088336669	1.077540E+02	  0.088336669	2.778800E+01	  0.088336669	2.853300E+01
343	  0.088537075	-7.225000E+00	  0.088537075	1.070400E+02	  0.088537075	2.805500E+01	  0.088537075	2.880700E+01
344	  0.088737473	-7.250000E+00	  0.088737473	1.063540E+02	  0.088737473	2.832600E+01	  0.088737473	2.906300E+01
345	  0.088937871	-7.272000E+00	  0.088937871	1.056310E+02	  0.088937871	2.860000E+01	  0.088937871	2.934200E+01
346	  0.089138277	-7.303000E+00	  0.089138277	1.049620E+02	  0.089138277	2.888600E+01	  0.089138277	2.958000E+01
347	  0.089338675	-7.326000E+00	  0.089338675	1.043350E+02	  0.089338675	2.914400E+01	  0.089338675	2.981200E+01
348	  0.089539073	-7.357000E+00	  0.089539073	1.037040E+02	  0.089539073	2.942700E+01	  0.089539073	3.002900E+01
349	  0.089739479	-7.387000E+00	  0.089739479	1.030140E+02	  0.089739479	2.972900E+01	  0.089739479	3.027200E+01
350	  0.089939877	-7.411000E+00	  0.089939877	1.024010E+02	  0.089939877	2.999300E+01	  0.089939877	3.049300E+01
351	  0.090140276	-7.442000E+00	  0.090140276	1.017560E+02	  0.090140276	3.029200E+01	  0.090140276	3.071100E+01
352	  0.090340681	-7.465000E+00	  0.090340681	1.011180E+02	  0.090340681	3.056800E+01	  0.090340681	3.094200E+01
353	  0.090541080	-7.500000E+00	  0.090541080	1.004770E+02	  0.090541080	3.088300E+01	  0.090541080	3.114800E+01
354	  0.090741485	-7.529000E+00	  0.090741485	9.985200E+01	  0.090741485	3.117800E+01	  0.090741485	3.135700E+01
355	  0.090941884	-7.561000E+00	  0.090941884	9.927300E+01	  0.090941884	3.146900E+01	  0.090941884	3.153900E+01
356	  0.091142282	-7.594000E+00	  0.091142282	9.866000E+01	  0.091142282	3.177900E+01	  0.091142282	3.172900E+01
357	  0.091342688	-7.628000E+00	  0.091342688	9.806100E+01	  0.091342688	3.208700E+01	  0.091342688	3.191200E+01
358	  0.091543086	-7.656000E+00	  0.091543086	9.744000E+01	  0.091543086	3.239300E+01	  0.091543086	3.211300E+01
359	  0.091743484	-7.690000E+00	  0.091743484	9.686500E+01	  0.091743484	3.270000E+01	  0.091743484	3.228000E+01
360	  0.091943890	-7.721000E+00	  0.091943890	9.625500E+01	  0.091943890	3.301500E+01	  0.091943890	3.246600E+01
361	  0.092144288	-7.750000E+00	  0.092144288	9.565600E+01	  0.092144288	3.332200E+01	  0.092144288	3.265300E+01
362	  0.092344686	-7.784000E+00	  0.092344686	9.509400E+01	  0.092344686	3.363400E+01	  0.092344686	3.280600E+01
363	  0.092545092	-7.810000E+00	  0.092545092	9.449000E+01	  0.092545092	3.394100E+01	  0.092545092	3.299800E+01
364	  0.092745490	-7.852000E+00	  0.092745490	9.393400E+01	  0.092745490	3.427800E+01	  0.092745490	3.312400E+01
365	  0.092945889	-7.878000E+00	  0.092945889	9.337800E+01	  0.092945889	3.457200E+01	  0.092945889	3.329000E+01
366	  0.093146294	-7.914000E+00	  0.093146294	9.280300E+01	  0.093146294	3.490300E+01	  0.093146294	3.343600E+01
367	  0.093346693	-7.939000E+00	  0.093346693	9.225400E+01	  0.093346693	3.519700E+01	  0.093346693	3.359800E+01
368	  0.093547091	-7.977000E+00	  0.093547091	9.168500E+01	  0.093547091	3.553700E+01	  0.093547091	3.373100E+01
369	  0.093747497	-8.007000E+00	  0.093747497	9.117100E+01	  0.093747497	3.583600E+01	  0.093747497	3.386000E+01
370	  0.093947895	-8.036000E+00	  0.093947895	9.057600E+01	  0.093947895	3.616700E+01	  0.093947895	3.402300E+01
371	  0.094148301	-8.070000E+00	  0.094148301	9.006500E+01	  0.094148301	3.648200E+01	  0.094148301	3.413300E+01
372	  0.094348699	-8.096000E+00	  0.094348699	8.950500E+01	  0.094348699	3.679600E+01	  0.094348699	3.428600E+01
373	  0.094549097	-8.130000E+00	  0.094549097	8.901300E+01	  0.094549097	3.710400E+01	  0.094549097	3.438700E+01
374	  0.094749503	-8.156000E+00	  0.094749503	8.849100E+01	  0.094749503	3.740600E+01	  0.094749503	3.451900E+01
375	  0.094949901	-8.188000E+00	  0.094949901	8.801100E+01	  0.094949901	3.770900E+01	  0.094949901	3.461400E+01
376	  0.095150299	-8.215000E+00	  0.095150299	8.751900E+01	  0.095150299	3.800300E+01	  0.095150299	3.472900E+01
377	  0.095350705	-8.243000E+00	  0.095350705	8.700600E+01	  0.095350705	3.831600E+01	  0.095350705	3.484300E+01
378	  0.095551103	-8.271000E+00	  0.095551103	8.651400E+01	  0.095551103	3.861800E+01	  0.095551103	3.495000E+01
379	  0.095751502	-8.299000E+00	  0.095751502	8.600300E+01	  0.095751502	3.893200E+01	  0.095751502	3.506000E+01
380	  0.095951907	-8.327000E+00	  0.095951907	8.556100E+01	  0.095951907	3.921400E+01	  0.095951907	3.514200E+01
381	  0.096152306	-8.353000E+00	  0.096152306	8.508200E+01	  0.096152306	3.951000E+01	  0.096152306	3.524400E+01
382	  0.096352704	-8.380000E+00	  0.096352704	8.463900E+01	  0.096352704	3.979400E+01	  0.096352704	3.532400E+01
383	  0.096553110	-8.399000E+00	  0.096553110	8.419800E+01	  0.096553110	4.005900E+01	  0.096553110	3.542800E+01
384	  0.096753508	-8.424000E+00	  0.096753508	8.376200E+01	  0.096753508	4.033800E+01	  0.096753508	3.550900E+01
385	  0.096953906	-8.449000E+00	  0.096953906	8.333500E+01	  0.096953906	4.061400E+01	  0.096953906	3.558500E+01
386	  0.097154312	-8.477000E+00	  0.097154312	8.288600E+01	  0.097154312	4.090800E+01	  0.097154312	3.565700E+01
387	  0.097354710	-8.500000E+00	  0.097354710	8.248300E+01	  0.097354710	4.117100E+01	  0.097354710	3.572500E+01
388	  0.097555116	-8.526000E+00	  0.097555116	8.207400E+01	  0.097555116	4.144500E+01	  0.097555116	3.578300E+01
389	  0.097755514	-8.546000E+00	  0.097755514	8.166700E+01	  0.097755514	4.170300E+01	  0.097755514	3.586200E+01
390	  0.097955912	-8.568000E+00	  0.097955912	8.125300E+01	  0.097955912	4.197200E+01	  0.097955912	3.593200E+01
391	  0.098156318	-8.595000E+00	  0.098156318	8.086400E+01	  0.098156318	4.223800E+01	  0.098156318	3.597800E+01
392	  0.098356716	-8.615000E+00	  0.098356716	8.044000E+01	  0.098356716	4.251100E+01	  0.098356716	3.605500E+01
393	  0.098557115	-8.637000E+00	  0.098557115	8.006200E+01	  0.098557115	4.276600E+01	  0.098557115	3.610500E+01
394	  0.098757520	-8.654000E+00	  0.098757520	7.965100E+01	  0.098757520	4.302600E+01	  0.098757520	3.618700E+01
395	  0.098957919	-8.672000E+00	  0.098957919	7.925800E+01	  0.098957919	4.328000E+01	  0.098957919	3.625600E+01
396	  0.099158317	-8.694000E+00	  0.099158317	7.884800E+01	  0.099158317	4.355600E+01	  0.099158317	3.631300E+01
397	  0.099358723	-8.713000E+00	  0.099358723	7.842900E+01	  0.099358723	4.383000E+01	  0.099358723	3.638400E+01
398	  0.099559121	-8.731000E+00	  0.099559121	7.804800E+01	  0.099559121	4.408200E+01	  0.099559121	3.644300E+01
399	  0.099759519	-8.744000E+00	  0.099759519	7.763300E+01	  0.099759519	4.434300E+01	  0.099759519	3.653300E+01
400	  0.099959925	-8.757000E+00	  0.099959925	7.722600E+01	  0.099959925	4.460200E+01	  0.099959925	3.661500E+01
401	  0.100160323	-8.764000E+00	  0.100160323	7.689200E+01	  0.100160323	4.480700E+01	  0.100160323	3.669700E+01
402	  0.100360721	-8.784000E+00	  0.100360721	7.650700E+01	  0.100360721	4.507200E+01	  0.100360721	3.674200E+01
403	  0.100561127	-8.793000E+00	  0.100561127	7.604600E+01	  0.100561127	4.535700E+01	  0.100561127	3.685600E+01
404	  0.100761525	-8.801000E+00	  0.100761525	7.564700E+01	  0.100761525	4.560900E+01	  0.100761525	3.694800E+01
405	  0.100961931	-8.806000E+00	  0.100961931	7.528300E+01	  0.100961931	4.583300E+01	  0.100961931	3.704300E+01
406	  0.101162329	-8.806000E+00	  0.101162329	7.487200E+01	  0.101162329	4.607900E+01	  0.101162329	3.716800E+01
407	  0.101362728	-8.814000E+00	  0.101362728	7.448400E+01	  0.101362728	4.632700E+01	  0.101362728	3.725700E+01
408	  0.101563133	-8.821000E+00	  0.101563133	7.410500E+01	  0.101563133	4.657100E+01	  0.101563133	3.734200E+01
409	  0.101763532	-8.829000E+00	  0.101763532	7.370600E+01	  0.101763532	4.683000E+01	  0.101763532	3.742900E+01
410	  0.101963930	-8.820000E+00	  0.101963930	7.334000E+01	  0.101963930	4.703600E+01	  0.101963930	3.757700E+01
411	  0.102164328	-8.827000E+00	  0.102164328	7.292000E+01	  0.102164328	4.731000E+01	  0.102164328	3.767200E+01
412	  0.102364726	-8.826000E+00	  0.102364726	7.252900E+01	  0.102364726	4.755400E+01	  0.102364726	3.778800E+01
413	  0.102565125	-8.821000E+00	  0.102565125	7.206700E+01	  0.102565125	4.783400E+01	  0.102565125	3.794500E+01
414	  0.102765530	-8.818000E+00	  0.102765530	7.171900E+01	  0.102765530	4.804900E+01	  0.102765530	3.805800E+01
415	  0.102965929	-8.815000E+00	  0.102965929	7.134300E+01	  0.102965929	4.828500E+01	  0.102965929	3.817600E+01
416	  0.103166327	-8.807000E+00	  0.103166327	7.095800E+01	  0.103166327	4.852000E+01	  0.103166327	3.831800E+01
417	  0.103366733	-8.798000E+00	  0.103366733	7.051000E+01	  0.103366733	4.879500E+01	  0.103366733	3.848300E+01
418	  0.103567131	-8.796000E+00	  0.103567131	7.012400E+01	  0.103567131	4.904700E+01	  0.103567131	3.859700E+01
419	  0.103767529	-8.794000E+00	  0.103767529	6.973200E+01	  0.103767529	4.930100E+01	  0.103767529	3.871800E+01
420	  0.103967935	-8.782000E+00	  0.103967935	6.927000E+01	  0.103967935	4.959000E+01	  0.103967935	3.889400E+01
421	  0.104168333	-8.783000E+00	  0.104168333	6.889200E+01	  0.104168333	4.984700E+01	  0.104168333	3.899300E+01
422	  0.104368731	-8.769000E+00	  0.104368731	6.848000E+01	  0.104368731	5.010300E+01	  0.104368731	3.916400E+01
423	  0.104569137	-8.758000E+00	  0.104569137	6.804300E+01	  0.104569137	5.038500E+01	  0.104569137	3.933000E+01
424	  0.104769535	-8.748000E+00	  0.104769535	6.757400E+01	  0.104769535	5.069400E+01	  0.104769535	3.949900E+01
425	  0.104969934	-8.751000E+00	  0.104969934	6.717600E+01	  0.104969934	5.097800E+01	  0.104969934	3.958800E+01
426	  0.105170339	-8.738000E+00	  0.105170339	6.670800E+01	  0.105170339	5.128800E+01	  0.105170339	3.976800E+01
427	  0.105370738	-8.725000E+00	  0.105370738	6.628700E+01	  0.105370738	5.156800E+01	  0.105370738	3.993300E+01
428	  0.105571143	-8.718000E+00	  0.105571143	6.583800E+01	  0.105571143	5.188000E+01	  0.105571143	4.008100E+01
429	  0.105771542	-8.714000E+00	  0.105771542	6.533900E+01	  0.105771542	5.223900E+01	  0.105771542	4.021900E+01
430	  0.105971940	-8.704000E+00	  0.105971940	6.482400E+01	  0.105971940	5.260200E+01	  0.105971940	4.039500E+01
431	  0.106172346	-8.700000E+00	  0.106172346	6.434100E+01	  0.106172346	5.295600E+01	  0.106172346	4.052700E+01
432	  0.106372744	-8.688000E+00	  0.106372744	6.389200E+01	  0.106372744	5.327500E+01	  0.106372744	4.069300E+01
433	  0.106573142	-8.689000E+00	  0.106573142	6.329500E+01	  0.106573142	5.373100E+01	  0.106573142	4.082300E+01
434	  0.106773548	-8.679000E+00	  0.106773548	6.282700E+01	  0.106773548	5.407700E+01	  0.106773548	4.097800E+01
435	  0.106973946	-8.663000E+00	  0.106973946	6.229000E+01	  0.106973946	5.447200E+01	  0.106973946	4.117300E+01
436	  0.107174344	-8.659000E+00	  0.107174344	6.173100E+01	  0.107174344	5.490600E+01	  0.107174344	4.131300E+01
437	  0.107374750	-8.655000E+00	  0.107374750	6.121500E+01	  0.107374750	5.531200E+01	  0.107374750	4.143900E+01
438	  0.107575148	-8.642000E+00	  0.107575148	6.069200E+01	  0.107575148	5.571500E+01	  0.107575148	4.161500E+01
439	  0.107775547	-8.642000E+00	  0.107775547	6.014500E+01	  0.107775547	5.616100E+01	  0.107775547	4.171900E+01
440	  0.107975952	-8.629000E+00	  0.107975952	5.961000E+01	  0.107975952	5.658500E+01	  0.107975952	4.188900E+01
441	  0.108176351	-8.611000E+00	  0.108176351	5.908400E+01	  0.108176351	5.700100E+01	  0.108176351	4.208300E+01
442	  0.108376749	-8.607000E+00	  0.108376749	5.855000E+01	  0.108376749	5.744500E+01	  0.108376749	4.220000E+01
443	  0.108577155	-8.601000E+00	  0.108577155	5.801800E+01	  0.108577155	5.789200E+01	  0.108577155	4.232200E+01
444	  0.108777553	-8.590000E+00	  0.108777553	5.742900E+01	  0.108777553	5.838700E+01	  0.108777553	4.248000E+01
445	  0.108977959	-8.579000E+00	  0.108977959	5.688800E+01	  0.108977959	5.884600E+01	  0.108977959	4.262700E+01
446	  0.109178357	-8.568000E+00	  0.109178357	5.628600E+01	  0.109178357	5.936800E+01	  0.109178357	4.277300E+01
447	  0.109378755	-8.563000E+00	  0.109378755	5.572400E+01	  0.109378755	5.986300E+01	  0.109378755	4.288400E+01
448	  0.109579161	-8.557000E+00	  0.109579161	5.515800E+01	  0.109579161	6.036800E+01	  0.109579161	4.299000E+01
449	  0.109779559	-8.537000E+00	  0.109779559	5.457300E+01	  0.109779559	6.088600E+01	  0.109779559	4.317800E+01
450	  0.109979957	-8.532000E+00	  0.109979957	5.401600E+01	  0.109979957	6.139600E+01	  0.109979957	4.326900E+01
451	  0.110180363	-8.521000E+00	  0.110180363	5.344200E+01	  0.110180363	6.192500E+01	  0.110180363	4.339400E+01
452	  0.110380761	-8.507000E+00	  0.110380761	5.281700E+01	  0.110380761	6.250600E+01	  0.110380761	4.353800E+01
453	  0.110581160	-8.499000E+00	  0.110581160	5.224100E+01	  0.110581160	6.305100E+01	  0.110581160	4.363700E+01
454	  0.110781565	-8.488000E+00	  0.110781565	5.166000E+01	  0.110781565	6.360800E+01	  0.110781565	4.374400E+01
455	  0.110981964	-8.477000E+00	  0.110981964	5.097700E+01	  0.110981964	6.427200E+01	  0.110981964	4.385700E+01
456	  0.111182362	-8.465000E+00	  0.111182362	5.040200E+01	  0.111182362	6.483700E+01	  0.111182362	4.396100E+01
457	  0.111382768	-8.454000E+00	  0.111382768	4.979400E+01	  0.111382768	6.544300E+01	  0.111382768	4.405800E+01
458	  0.111583166	-8.445000E+00	  0.111583166	4.915900E+01	  0.111583166	6.608500E+01	  0.111583166	4.413000E+01
459	  0.111783572	-8.436000E+00	  0.111783572	4.852300E+01	  0.111783572	6.673500E+01	  0.111783572	4.419300E+01
460	  0.111983970	-8.429000E+00	  0.111983970	4.783300E+01	  0.111983970	6.745000E+01	  0.111983970	4.423800E+01
461	  0.112184368	-8.420000E+00	  0.112184368	4.716200E+01	  0.112184368	6.815400E+01	  0.112184368	4.427900E+01
462	  0.112384774	-8.419000E+00	  0.112384774	4.645200E+01	  0.112384774	6.890600E+01	  0.112384774	4.426200E+01
463	  0.112585172	-8.413000E+00	  0.112585172	4.576400E+01	  0.112585172	6.964500E+01	  0.112585172	4.426300E+01
464	  0.112785570	-8.401000E+00	  0.112785570	4.507700E+01	  0.112785570	7.039500E+01	  0.112785570	4.429200E+01
465	  0.112985976	-8.396000E+00	  0.112985976	4.431800E+01	  0.112985976	7.122900E+01	  0.112985976	4.425900E+01
466	  0.113186374	-8.397000E+00	  0.113186374	4.358800E+01	  0.113186374	7.203500E+01	  0.113186374	4.416000E+01
467	  0.113386773	-8.398000E+00	  0.113386773	4.287600E+01	  0.113386773	7.282700E+01	  0.113386773	4.405500E+01
468	  0.113587178	-8.387000E+00	  0.113587178	4.206900E+01	  0.113587178	7.374800E+01	  0.113587178	4.400500E+01
469	  0.113787577	-8.393000E+00	  0.113787577	4.131200E+01	  0.113787577	7.460100E+01	  0.113787577	4.381700E+01
470	  0.113987975	-8.382000E+00	  0.113987975	4.048800E+01	  0.113987975	7.556300E+01	  0.113987975	4.372600E+01
471	  0.114188381	-8.391000E+00	  0.114188381	3.970400E+01	  0.114188381	7.645600E+01	  0.114188381	4.347100E+01
472	  0.114388779	-8.395000E+00	  0.114388779	3.889700E+01	  0.114388779	7.738700E+01	  0.114388779	4.322200E+01
473	  0.114589177	-8.389000E+00	  0.114589177	3.810500E+01	  0.114589177	7.832700E+01	  0.114589177	4.303200E+01
474	  0.114789583	-8.393000E+00	  0.114789583	3.724100E+01	  0.114789583	7.934000E+01	  0.114789583	4.272400E+01
475	  0.114989981	-8.397000E+00	  0.114989981	3.638200E+01	  0.114989981	8.034800E+01	  0.114989981	4.237900E+01
476	  0.115190387	-8.405000E+00	  0.115190387	3.555400E+01	  0.115190387	8.131300E+01	  0.115190387	4.199200E+01
477	  0.115390785	-8.415000E+00	  0.115390785	3.466500E+01	  0.115390785	8.234500E+01	  0.115390785	4.153100E+01
478	  0.115591183	-8.417000E+00	  0.115591183	3.376300E+01	  0.115591183	8.341700E+01	  0.115591183	4.109600E+01
479	  0.115791589	-8.430000E+00	  0.115791589	3.293400E+01	  0.115791589	8.436600E+01	  0.115791589	4.057900E+01
480	  0.115991987	-8.447000E+00	  0.115991987	3.202700E+01	  0.115991987	8.538900E+01	  0.115991987	3.995800E+01
481	  0.116192386	-8.456000E+00	  0.116192386	3.108800E+01	  0.116192386	8.647100E+01	  0.116192386	3.934600E+01
482	  0.116392791	-8.477000E+00	  0.116392791	3.019600E+01	  0.116392791	8.743800E+01	  0.116392791	3.862600E+01
483	  0.116593190	-8.495000E+00	  0.116593190	2.924800E+01	  0.116593190	8.847500E+01	  0.116593190	3.786500E+01
484	  0.116793588	-8.516000E+00	  0.116793588	2.828500E+01	  0.116793588	8.949800E+01	  0.116793588	3.702900E+01
485	  0.116993994	-8.537000E+00	  0.116993994	2.733200E+01	  0.116993994	9.048900E+01	  0.116993994	3.615700E+01
486	  0.117194392	-8.568000E+00	  0.117194392	2.633500E+01	  0.117194392	9.146000E+01	  0.117194392	3.514500E+01
487	  0.117394790	-8.593000E+00	  0.117394790	2.535100E+01	  0.117394790	9.241800E+01	  0.117394790	3.414600E+01
488	  0.117595196	-8.624000E+00	  0.117595196	2.434600E+01	  0.117595196	9.333300E+01	  0.117595196	3.304600E+01
489	  0.117795594	-8.661000E+00	  0.117795594	2.337300E+01	  0.117795594	9.414700E+01	  0.117795594	3.190100E+01
490	  0.117995992	-8.704000E+00	  0.117995992	2.229200E+01	  0.117995992	9.499100E+01	  0.117995992	3.057700E+01
