! Anritsu VNA Master:             	Model: MS2036C/10/77
! SN:             	1601066
! /bd0/18may10/252.ns.m4.txt
! Existing Calibration Information:
! TYPE:             	Current Settings	Active Cal Settings
! TIME:             	05/10/2018 05:40:43 PM	05/10/2018 05:30:44 PM
! INTERNAL TEMP:    	59.0 C	57.8 C
! # POINTS:         	490	490
! START FREQ:       	20.000 MHz	20.000 MHz
! STOP FREQ:        	117.995 991 MHz	117.995 991 MHz
! SOURCE POWER:     	High	High
! IFBW:             	50 Hz	50 Hz
! AVG FACTOR:       	  1 	  1 
! REF PLANE 1:      	0 mm	0 mm
! REF PLANE 2:      	0 mm	0 mm
! CAL TYPE:         	Full S22	Full S22
! CAL METHOD:       	SOLT	SOLT
! CAL LINE TYPE:    	Coax	Coax
! DUT PORT 1:       	K-Conn(M)	K-Conn(M)
! DUT PORT 2:       	K-Conn(M)	K-Conn(M)
! CAL STATUS:       	OK: Accuracy High	--
! PROP-V:       	0.700
! CABLE LOSS:       	0.000 dB/m
! REF IMPEDANCE:       	50.0
! Trace Specific Parameters:	TR1	TR2	TR3	TR4
! TRACE.#.Y (GRAPH TYPE)	LOG MAG	PHASE	REAL IMPEDANCE	IMAGINARY IMPEDANCE
! TRACE.#.X 	FREQ.GHZ	FREQ.GHZ	FREQ.GHZ	FREQ.GHZ
! S-PARAMETER	S22	S22	S22	S22
! SMOOTH/APERTURE %	0	0	0	0
! WINDOW	NSL	NSL	NSL	NSL
! GATING	OFF	OFF	OFF	OFF
! FGTD	OFF	OFF	OFF	OFF
Marker Information per Trace:	TR1	TR2	TR3	TR4
!MK1	--	"MK1 TR2:  20.000 MHz,PH:-125.40°"	--	--
!MK2	--	--	"MK2 TR3:  70.100 200 MHz,Z:(16.739 ohm, -1.636 ohm)"	--
!MK3	--	--	--	--
!MK4	--	--	--	--
!MK5	--	--	--	--
!MK6	--	--	--	--
!MK7	--	--	--	--
!MK8	--	--	--	--
PNT	TR1.FREQ.GHZ	TR1.LOG MAG.dB	TR2.FREQ.GHZ	TR2.PHASE.deg	TR3.FREQ.GHZ	TR3.REAL IMPEDANCE.ohm	TR4.FREQ.GHZ	TR4.IMAGINARY IMPEDANCE.ohm
1	  0.020000000	-6.430000E-01	  0.020000000	-1.253990E+02	  0.020000000	2.343000E+00	  0.020000000	-2.576200E+01
2	  0.020200402	-6.470000E-01	  0.020200402	-1.268510E+02	  0.020200402	2.328000E+00	  0.020200402	-2.496600E+01
3	  0.020400802	-6.500000E-01	  0.020400802	-1.283020E+02	  0.020400802	2.310000E+00	  0.020400802	-2.418100E+01
4	  0.020601204	-6.530000E-01	  0.020601204	-1.297740E+02	  0.020601204	2.291000E+00	  0.020601204	-2.339400E+01
5	  0.020801604	-6.580000E-01	  0.020801604	-1.312820E+02	  0.020801604	2.280000E+00	  0.020801604	-2.259800E+01
6	  0.021002004	-6.590000E-01	  0.021002004	-1.327910E+02	  0.021002004	2.259000E+00	  0.021002004	-2.181100E+01
7	  0.021202406	-6.620000E-01	  0.021202406	-1.343060E+02	  0.021202406	2.244000E+00	  0.021202406	-2.103000E+01
8	  0.021402806	-6.650000E-01	  0.021402806	-1.358010E+02	  0.021402806	2.230000E+00	  0.021402806	-2.026700E+01
9	  0.021603208	-6.690000E-01	  0.021603208	-1.373140E+02	  0.021603208	2.218000E+00	  0.021603208	-1.950300E+01
10	  0.021803608	-6.730000E-01	  0.021803608	-1.388030E+02	  0.021803608	2.211000E+00	  0.021803608	-1.875900E+01
11	  0.022004008	-6.790000E-01	  0.022004008	-1.403290E+02	  0.022004008	2.208000E+00	  0.022004008	-1.800400E+01
12	  0.022204408	-6.850000E-01	  0.022204408	-1.418460E+02	  0.022204408	2.207000E+00	  0.022204408	-1.726100E+01
13	  0.022404809	-6.910000E-01	  0.022404809	-1.433890E+02	  0.022404809	2.207000E+00	  0.022404809	-1.651200E+01
14	  0.022605211	-6.920000E-01	  0.022605211	-1.449630E+02	  0.022605211	2.190000E+00	  0.022605211	-1.575400E+01
15	  0.022805611	-6.950000E-01	  0.022805611	-1.465260E+02	  0.022805611	2.180000E+00	  0.022805611	-1.500900E+01
16	  0.023006011	-7.000000E-01	  0.023006011	-1.480760E+02	  0.023006011	2.179000E+00	  0.023006011	-1.427600E+01
17	  0.023206413	-7.060000E-01	  0.023206413	-1.496350E+02	  0.023206413	2.182000E+00	  0.023206413	-1.354400E+01
18	  0.023406813	-7.110000E-01	  0.023406813	-1.511850E+02	  0.023406813	2.181000E+00	  0.023406813	-1.282100E+01
19	  0.023607215	-7.180000E-01	  0.023607215	-1.527530E+02	  0.023607215	2.187000E+00	  0.023607215	-1.209500E+01
20	  0.023807615	-7.240000E-01	  0.023807615	-1.543420E+02	  0.023807615	2.193000E+00	  0.023807615	-1.136500E+01
21	  0.024008015	-7.320000E-01	  0.024008015	-1.559490E+02	  0.024008015	2.202000E+00	  0.024008015	-1.063100E+01
22	  0.024208417	-7.390000E-01	  0.024208417	-1.575780E+02	  0.024208417	2.211000E+00	  0.024208417	-9.891000E+00
23	  0.024408817	-7.450000E-01	  0.024408817	-1.592210E+02	  0.024408817	2.214000E+00	  0.024408817	-9.149000E+00
24	  0.024609219	-7.510000E-01	  0.024609219	-1.608500E+02	  0.024609219	2.222000E+00	  0.024609219	-8.417000E+00
25	  0.024809619	-7.590000E-01	  0.024809619	-1.624970E+02	  0.024809619	2.236000E+00	  0.024809619	-7.681000E+00
26	  0.025010020	-7.670000E-01	  0.025010020	-1.641580E+02	  0.025010020	2.251000E+00	  0.025010020	-6.942000E+00
27	  0.025210422	-7.770000E-01	  0.025210422	-1.658220E+02	  0.025210422	2.271000E+00	  0.025210422	-6.205000E+00
28	  0.025410822	-7.880000E-01	  0.025410822	-1.674930E+02	  0.025410822	2.294000E+00	  0.025410822	-5.467000E+00
29	  0.025611224	-7.990000E-01	  0.025611224	-1.691750E+02	  0.025611224	2.319000E+00	  0.025611224	-4.726000E+00
30	  0.025811624	-8.090000E-01	  0.025811624	-1.708820E+02	  0.025811624	2.344000E+00	  0.025811624	-3.977000E+00
31	  0.026012026	-8.210000E-01	  0.026012026	-1.725970E+02	  0.026012026	2.372000E+00	  0.026012026	-3.227000E+00
32	  0.026212426	-8.300000E-01	  0.026212426	-1.743200E+02	  0.026212426	2.395000E+00	  0.026212426	-2.474000E+00
33	  0.026412826	-8.440000E-01	  0.026412826	-1.760410E+02	  0.026412826	2.430000E+00	  0.026412826	-1.723000E+00
34	  0.026613226	-8.590000E-01	  0.026613226	-1.777820E+02	  0.026613226	2.473000E+00	  0.026613226	-9.650000E-01
35	  0.026813626	-8.750000E-01	  0.026813626	-1.795350E+02	  0.026813626	2.518000E+00	  0.026813626	-2.020000E-01
36	  0.027014028	-8.910000E-01	  0.027014028	1.787100E+02	  0.027014028	2.565000E+00	  0.027014028	5.610000E-01
37	  0.027214428	-9.090000E-01	  0.027214428	1.769450E+02	  0.027214428	2.616000E+00	  0.027214428	1.329000E+00
38	  0.027414829	-9.240000E-01	  0.027414829	1.751800E+02	  0.027414829	2.664000E+00	  0.027414829	2.098000E+00
39	  0.027615231	-9.430000E-01	  0.027615231	1.733930E+02	  0.027615231	2.721000E+00	  0.027615231	2.877000E+00
40	  0.027815631	-9.620000E-01	  0.027815631	1.716060E+02	  0.027815631	2.781000E+00	  0.027815631	3.657000E+00
41	  0.028016033	-9.810000E-01	  0.028016033	1.697930E+02	  0.028016033	2.843000E+00	  0.028016033	4.450000E+00
42	  0.028216433	-1.002000E+00	  0.028216433	1.679760E+02	  0.028216433	2.914000E+00	  0.028216433	5.247000E+00
43	  0.028416833	-1.023000E+00	  0.028416833	1.661560E+02	  0.028416833	2.985000E+00	  0.028416833	6.048000E+00
44	  0.028617235	-1.046000E+00	  0.028617235	1.643230E+02	  0.028617235	3.064000E+00	  0.028617235	6.857000E+00
45	  0.028817635	-1.069000E+00	  0.028817635	1.624860E+02	  0.028817635	3.145000E+00	  0.028817635	7.671000E+00
46	  0.029018037	-1.095000E+00	  0.029018037	1.606520E+02	  0.029018037	3.240000E+00	  0.029018037	8.488000E+00
47	  0.029218437	-1.119000E+00	  0.029218437	1.587980E+02	  0.029218437	3.331000E+00	  0.029218437	9.317000E+00
48	  0.029418837	-1.148000E+00	  0.029418837	1.569300E+02	  0.029418837	3.436000E+00	  0.029418837	1.015800E+01
49	  0.029619239	-1.176000E+00	  0.029619239	1.550540E+02	  0.029619239	3.544000E+00	  0.029619239	1.100600E+01
50	  0.029819639	-1.204000E+00	  0.029819639	1.531760E+02	  0.029819639	3.656000E+00	  0.029819639	1.186200E+01
51	  0.030020041	-1.234000E+00	  0.030020041	1.512850E+02	  0.030020041	3.779000E+00	  0.030020041	1.272900E+01
52	  0.030220442	-1.264000E+00	  0.030220442	1.493950E+02	  0.030220442	3.902000E+00	  0.030220442	1.360300E+01
53	  0.030420844	-1.293000E+00	  0.030420844	1.475130E+02	  0.030420844	4.030000E+00	  0.030420844	1.447900E+01
54	  0.030621244	-1.327000E+00	  0.030621244	1.456350E+02	  0.030621244	4.174000E+00	  0.030621244	1.536200E+01
55	  0.030821642	-1.359000E+00	  0.030821642	1.437480E+02	  0.030821642	4.320000E+00	  0.030821642	1.625600E+01
56	  0.031022044	-1.394000E+00	  0.031022044	1.418490E+02	  0.031022044	4.481000E+00	  0.031022044	1.716500E+01
57	  0.031222444	-1.425000E+00	  0.031222444	1.399430E+02	  0.031222444	4.633000E+00	  0.031222444	1.808800E+01
58	  0.031422846	-1.459000E+00	  0.031422846	1.380070E+02	  0.031422846	4.803000E+00	  0.031422846	1.903400E+01
59	  0.031623244	-1.495000E+00	  0.031623244	1.360690E+02	  0.031623244	4.987000E+00	  0.031623244	1.999300E+01
60	  0.031823646	-1.528000E+00	  0.031823646	1.341420E+02	  0.031823646	5.165000E+00	  0.031823646	2.095800E+01
61	  0.032024048	-1.561000E+00	  0.032024048	1.322100E+02	  0.032024048	5.354000E+00	  0.032024048	2.193800E+01
62	  0.032224450	-1.597000E+00	  0.032224450	1.302720E+02	  0.032224450	5.560000E+00	  0.032224450	2.293400E+01
63	  0.032424849	-1.633000E+00	  0.032424849	1.283100E+02	  0.032424849	5.777000E+00	  0.032424849	2.395600E+01
64	  0.032625251	-1.667000E+00	  0.032625251	1.263330E+02	  0.032625251	5.996000E+00	  0.032625251	2.500300E+01
65	  0.032825653	-1.703000E+00	  0.032825653	1.243460E+02	  0.032825653	6.233000E+00	  0.032825653	2.607000E+01
66	  0.033026051	-1.738000E+00	  0.033026051	1.223430E+02	  0.033026051	6.476000E+00	  0.033026051	2.716400E+01
67	  0.033226453	-1.773000E+00	  0.033226453	1.203250E+02	  0.033226453	6.738000E+00	  0.033226453	2.828500E+01
68	  0.033426855	-1.808000E+00	  0.033426855	1.183250E+02	  0.033426855	7.006000E+00	  0.033426855	2.941600E+01
69	  0.033627257	-1.847000E+00	  0.033627257	1.163270E+02	  0.033627257	7.306000E+00	  0.033627257	3.056400E+01
70	  0.033827655	-1.886000E+00	  0.033827655	1.143270E+02	  0.033827655	7.624000E+00	  0.033827655	3.173500E+01
71	  0.034028057	-1.925000E+00	  0.034028057	1.122770E+02	  0.034028057	7.960000E+00	  0.034028057	3.295900E+01
72	  0.034228459	-1.968000E+00	  0.034228459	1.102460E+02	  0.034228459	8.331000E+00	  0.034228459	3.419400E+01
73	  0.034428857	-2.009000E+00	  0.034428857	1.081990E+02	  0.034428857	8.713000E+00	  0.034428857	3.546800E+01
74	  0.034629259	-2.056000E+00	  0.034629259	1.061020E+02	  0.034629259	9.151000E+00	  0.034629259	3.679700E+01
75	  0.034829661	-2.098000E+00	  0.034829661	1.040480E+02	  0.034829661	9.590000E+00	  0.034829661	3.812900E+01
76	  0.035030060	-2.145000E+00	  0.035030060	1.019740E+02	  0.035030060	1.007800E+01	  0.035030060	3.950400E+01
77	  0.035230462	-2.194000E+00	  0.035230462	9.988800E+01	  0.035230462	1.060400E+01	  0.035230462	4.091700E+01
78	  0.035430863	-2.241000E+00	  0.035430863	9.778900E+01	  0.035430863	1.116000E+01	  0.035430863	4.237600E+01
79	  0.035631265	-2.292000E+00	  0.035631265	9.571200E+01	  0.035631265	1.176800E+01	  0.035631265	4.385000E+01
80	  0.035831664	-2.342000E+00	  0.035831664	9.359000E+01	  0.035831664	1.241700E+01	  0.035831664	4.539700E+01
81	  0.036032066	-2.394000E+00	  0.036032066	9.147200E+01	  0.036032066	1.312100E+01	  0.036032066	4.697900E+01
82	  0.036232468	-2.445000E+00	  0.036232468	8.937900E+01	  0.036232468	1.386200E+01	  0.036232468	4.858400E+01
83	  0.036432866	-2.497000E+00	  0.036432866	8.725500E+01	  0.036432866	1.466500E+01	  0.036432866	5.025700E+01
84	  0.036633268	-2.549000E+00	  0.036633268	8.513600E+01	  0.036633268	1.553000E+01	  0.036633268	5.197100E+01
85	  0.036833670	-2.605000E+00	  0.036833670	8.300300E+01	  0.036833670	1.648400E+01	  0.036833670	5.373700E+01
86	  0.037034072	-2.658000E+00	  0.037034072	8.087700E+01	  0.037034072	1.748800E+01	  0.037034072	5.555300E+01
87	  0.037234470	-2.713000E+00	  0.037234470	7.875200E+01	  0.037234470	1.858400E+01	  0.037234470	5.741400E+01
88	  0.037434869	-2.766000E+00	  0.037434869	7.660500E+01	  0.037434869	1.976200E+01	  0.037434869	5.935300E+01
89	  0.037635271	-2.824000E+00	  0.037635271	7.447100E+01	  0.037635271	2.106100E+01	  0.037635271	6.132100E+01
90	  0.037835669	-2.885000E+00	  0.037835669	7.232000E+01	  0.037835669	2.249700E+01	  0.037835669	6.334900E+01
91	  0.038036071	-2.950000E+00	  0.038036071	7.017000E+01	  0.038036071	2.407600E+01	  0.038036071	6.541600E+01
92	  0.038236473	-3.015000E+00	  0.038236473	6.810300E+01	  0.038236473	2.574500E+01	  0.038236473	6.743600E+01
93	  0.038436871	-3.072000E+00	  0.038436871	6.601200E+01	  0.038436871	2.749900E+01	  0.038436871	6.956300E+01
94	  0.038637273	-3.126000E+00	  0.038637273	6.390800E+01	  0.038637273	2.938900E+01	  0.038637273	7.177000E+01
95	  0.038837675	-3.181000E+00	  0.038837675	6.179000E+01	  0.038837675	3.146700E+01	  0.038837675	7.403400E+01
96	  0.039038073	-3.232000E+00	  0.039038073	5.968100E+01	  0.039038073	3.368400E+01	  0.039038073	7.635900E+01
97	  0.039238475	-3.287000E+00	  0.039238475	5.759100E+01	  0.039238475	3.611900E+01	  0.039238475	7.867600E+01
98	  0.039438877	-3.342000E+00	  0.039438877	5.548100E+01	  0.039438877	3.879600E+01	  0.039438877	8.104900E+01
99	  0.039639279	-3.399000E+00	  0.039639279	5.339500E+01	  0.039639279	4.170600E+01	  0.039639279	8.339700E+01
100	  0.039839678	-3.456000E+00	  0.039839678	5.129300E+01	  0.039839678	4.490200E+01	  0.039839678	8.577300E+01
101	  0.040040080	-3.509000E+00	  0.040040080	4.917700E+01	  0.040040080	4.838100E+01	  0.040040080	8.819000E+01
102	  0.040240481	-3.563000E+00	  0.040240481	4.707400E+01	  0.040240481	5.216800E+01	  0.040240481	9.056200E+01
103	  0.040440880	-3.620000E+00	  0.040440880	4.500500E+01	  0.040440880	5.628500E+01	  0.040440880	9.277800E+01
104	  0.040641282	-3.674000E+00	  0.040641282	4.293400E+01	  0.040641282	6.074300E+01	  0.040641282	9.495100E+01
105	  0.040841684	-3.731000E+00	  0.040841684	4.086200E+01	  0.040841684	6.563500E+01	  0.040841684	9.694500E+01
106	  0.041042086	-3.787000E+00	  0.041042086	3.883000E+01	  0.041042086	7.085000E+01	  0.041042086	9.871300E+01
107	  0.041242484	-3.845000E+00	  0.041242484	3.677600E+01	  0.041242484	7.657200E+01	  0.041242484	1.002310E+02
108	  0.041442886	-3.902000E+00	  0.041442886	3.471300E+01	  0.041442886	8.276900E+01	  0.041442886	1.014680E+02
109	  0.041643288	-3.958000E+00	  0.041643288	3.265100E+01	  0.041643288	8.943600E+01	  0.041643288	1.023120E+02
110	  0.041843686	-4.014000E+00	  0.041843686	3.057200E+01	  0.041843686	9.663900E+01	  0.041843686	1.026500E+02
111	  0.042044088	-4.069000E+00	  0.042044088	2.853100E+01	  0.042044088	1.041590E+02	  0.042044088	1.024080E+02
112	  0.042244490	-4.124000E+00	  0.042244490	2.647600E+01	  0.042244490	1.121430E+02	  0.042244490	1.014380E+02
113	  0.042444889	-4.179000E+00	  0.042444889	2.444000E+01	  0.042444889	1.203990E+02	  0.042444889	9.963700E+01
114	  0.042645290	-4.237000E+00	  0.042645290	2.239400E+01	  0.042645290	1.289260E+02	  0.042645290	9.679700E+01
115	  0.042845692	-4.290000E+00	  0.042845692	2.036800E+01	  0.042845692	1.374900E+02	  0.042845692	9.304000E+01
116	  0.043046094	-4.344000E+00	  0.043046094	1.832800E+01	  0.043046094	1.460620E+02	  0.043046094	8.810700E+01
117	  0.043246493	-4.398000E+00	  0.043246493	1.629100E+01	  0.043246493	1.543550E+02	  0.043246493	8.195500E+01
118	  0.043446895	-4.451000E+00	  0.043446895	1.426200E+01	  0.043446895	1.621510E+02	  0.043446895	7.464100E+01
119	  0.043647297	-4.500000E+00	  0.043647297	1.223800E+01	  0.043647297	1.692690E+02	  0.043647297	6.624800E+01
120	  0.043847695	-4.551000E+00	  0.043847695	1.021600E+01	  0.043847695	1.753760E+02	  0.043847695	5.672600E+01
121	  0.044048097	-4.602000E+00	  0.044048097	8.234000E+00	  0.044048097	1.801730E+02	  0.044048097	4.648700E+01
122	  0.044248499	-4.651000E+00	  0.044248499	6.227000E+00	  0.044248499	1.837920E+02	  0.044248499	3.551000E+01
123	  0.044448901	-4.699000E+00	  0.044448901	4.279000E+00	  0.044448901	1.858680E+02	  0.044448901	2.442400E+01
124	  0.044649299	-4.747000E+00	  0.044649299	2.284000E+00	  0.044649299	1.865200E+02	  0.044649299	1.295000E+01
125	  0.044849701	-4.792000E+00	  0.044849701	3.360000E-01	  0.044849701	1.858000E+02	  0.044849701	1.881000E+00
126	  0.045050103	-4.837000E+00	  0.045050103	-1.631000E+00	  0.045050103	1.837100E+02	  0.045050103	-8.924000E+00
127	  0.045250501	-4.880000E+00	  0.045250501	-3.578000E+00	  0.045250501	1.804410E+02	  0.045250501	-1.902400E+01
128	  0.045450903	-4.921000E+00	  0.045450903	-5.499000E+00	  0.045450903	1.762500E+02	  0.045450903	-2.827000E+01
129	  0.045651305	-4.966000E+00	  0.045651305	-7.432000E+00	  0.045651305	1.710650E+02	  0.045651305	-3.667000E+01
130	  0.045851704	-5.004000E+00	  0.045851704	-9.331000E+00	  0.045851704	1.655040E+02	  0.045851704	-4.409600E+01
131	  0.046052102	-5.043000E+00	  0.046052102	-1.122700E+01	  0.046052102	1.594300E+02	  0.046052102	-5.057000E+01
132	  0.046252504	-5.081000E+00	  0.046252504	-1.310700E+01	  0.046252504	1.531270E+02	  0.046252504	-5.610800E+01
133	  0.046452906	-5.118000E+00	  0.046452906	-1.497000E+01	  0.046452906	1.467150E+02	  0.046452906	-6.073700E+01
134	  0.046653304	-5.155000E+00	  0.046653304	-1.683700E+01	  0.046653304	1.402430E+02	  0.046653304	-6.457800E+01
135	  0.046853706	-5.191000E+00	  0.046853706	-1.869600E+01	  0.046853706	1.338670E+02	  0.046853706	-6.769400E+01
136	  0.047054108	-5.224000E+00	  0.047054108	-2.054700E+01	  0.047054108	1.276650E+02	  0.047054108	-7.018500E+01
137	  0.047254506	-5.256000E+00	  0.047254506	-2.240100E+01	  0.047254506	1.216330E+02	  0.047254506	-7.211400E+01
138	  0.047454908	-5.284000E+00	  0.047454908	-2.424000E+01	  0.047454908	1.158750E+02	  0.047454908	-7.358100E+01
139	  0.047655310	-5.316000E+00	  0.047655310	-2.607500E+01	  0.047655310	1.103320E+02	  0.047655310	-7.449500E+01
140	  0.047855709	-5.345000E+00	  0.047855709	-2.785000E+01	  0.047855709	1.052220E+02	  0.047855709	-7.504700E+01
141	  0.048056111	-5.379000E+00	  0.048056111	-2.964200E+01	  0.048056111	1.002970E+02	  0.048056111	-7.519900E+01
142	  0.048256513	-5.407000E+00	  0.048256513	-3.143300E+01	  0.048256513	9.564600E+01	  0.048256513	-7.516100E+01
143	  0.048456915	-5.438000E+00	  0.048456915	-3.320500E+01	  0.048456915	9.128700E+01	  0.048456915	-7.485700E+01
144	  0.048657313	-5.462000E+00	  0.048657313	-3.498900E+01	  0.048657313	8.714300E+01	  0.048657313	-7.445100E+01
145	  0.048857715	-5.486000E+00	  0.048857715	-3.675200E+01	  0.048857715	8.327400E+01	  0.048857715	-7.386900E+01
146	  0.049058117	-5.512000E+00	  0.049058117	-3.852700E+01	  0.049058117	7.960500E+01	  0.049058117	-7.312000E+01
147	  0.049258515	-5.534000E+00	  0.049258515	-4.027200E+01	  0.049258515	7.619800E+01	  0.049258515	-7.231100E+01
148	  0.049458917	-5.559000E+00	  0.049458917	-4.199700E+01	  0.049458917	7.303100E+01	  0.049458917	-7.136700E+01
149	  0.049659319	-5.582000E+00	  0.049659319	-4.371200E+01	  0.049659319	7.005900E+01	  0.049659319	-7.037500E+01
150	  0.049859721	-5.610000E+00	  0.049859721	-4.543100E+01	  0.049859721	6.726800E+01	  0.049859721	-6.927400E+01
151	  0.050060119	-5.630000E+00	  0.050060119	-4.712300E+01	  0.050060119	6.465500E+01	  0.050060119	-6.821400E+01
152	  0.050260521	-5.652000E+00	  0.050260521	-4.882200E+01	  0.050260521	6.218900E+01	  0.050260521	-6.709200E+01
153	  0.050460923	-5.671000E+00	  0.050460923	-5.054500E+01	  0.050460923	5.981900E+01	  0.050460923	-6.595100E+01
154	  0.050661322	-5.689000E+00	  0.050661322	-5.220200E+01	  0.050661322	5.766500E+01	  0.050661322	-6.483100E+01
155	  0.050861724	-5.705000E+00	  0.050861724	-5.386400E+01	  0.050861724	5.561800E+01	  0.050861724	-6.370000E+01
156	  0.051062126	-5.723000E+00	  0.051062126	-5.552500E+01	  0.051062126	5.369100E+01	  0.051062126	-6.254100E+01
157	  0.051262524	-5.746000E+00	  0.051262524	-5.716000E+01	  0.051262524	5.191500E+01	  0.051262524	-6.136100E+01
158	  0.051462926	-5.763000E+00	  0.051462926	-5.879800E+01	  0.051462926	5.021400E+01	  0.051462926	-6.020900E+01
159	  0.051663328	-5.780000E+00	  0.051663328	-6.041400E+01	  0.051663328	4.862200E+01	  0.051663328	-5.907400E+01
160	  0.051863730	-5.797000E+00	  0.051863730	-6.203200E+01	  0.051863730	4.711200E+01	  0.051863730	-5.793700E+01
161	  0.052064128	-5.810000E+00	  0.052064128	-6.364800E+01	  0.052064128	4.566500E+01	  0.052064128	-5.683000E+01
162	  0.052264530	-5.825000E+00	  0.052264530	-6.523200E+01	  0.052264530	4.432500E+01	  0.052264530	-5.574100E+01
163	  0.052464932	-5.836000E+00	  0.052464932	-6.682900E+01	  0.052464932	4.302700E+01	  0.052464932	-5.466500E+01
164	  0.052665330	-5.850000E+00	  0.052665330	-6.840500E+01	  0.052665330	4.182200E+01	  0.052665330	-5.359200E+01
165	  0.052865732	-5.866000E+00	  0.052865732	-6.998900E+01	  0.052865732	4.068200E+01	  0.052865732	-5.250800E+01
166	  0.053066134	-5.879000E+00	  0.053066134	-7.153400E+01	  0.053066134	3.960900E+01	  0.053066134	-5.148000E+01
167	  0.053266536	-5.891000E+00	  0.053266536	-7.308900E+01	  0.053266536	3.857400E+01	  0.053266536	-5.045700E+01
168	  0.053466935	-5.907000E+00	  0.053466935	-7.461200E+01	  0.053466935	3.763100E+01	  0.053466935	-4.944200E+01
169	  0.053667337	-5.918000E+00	  0.053667337	-7.618200E+01	  0.053667337	3.667700E+01	  0.053667337	-4.843500E+01
170	  0.053867739	-5.927000E+00	  0.053867739	-7.770300E+01	  0.053867739	3.579100E+01	  0.053867739	-4.747400E+01
171	  0.054068137	-5.940000E+00	  0.054068137	-7.922800E+01	  0.054068137	3.495700E+01	  0.054068137	-4.650400E+01
172	  0.054268539	-5.946000E+00	  0.054268539	-8.075200E+01	  0.054268539	3.413700E+01	  0.054268539	-4.557000E+01
173	  0.054468941	-5.957000E+00	  0.054468941	-8.221400E+01	  0.054468941	3.340100E+01	  0.054468941	-4.466600E+01
174	  0.054669335	-5.971000E+00	  0.054669335	-8.370600E+01	  0.054669335	3.269500E+01	  0.054669335	-4.374300E+01
175	  0.054869737	-5.982000E+00	  0.054869737	-8.519500E+01	  0.054869737	3.200900E+01	  0.054869737	-4.284200E+01
176	  0.055070139	-5.990000E+00	  0.055070139	-8.663100E+01	  0.055070139	3.136500E+01	  0.055070139	-4.199200E+01
177	  0.055270538	-5.999000E+00	  0.055270538	-8.808600E+01	  0.055270538	3.074300E+01	  0.055270538	-4.113700E+01
178	  0.055470940	-6.008000E+00	  0.055470940	-8.952000E+01	  0.055470940	3.015700E+01	  0.055470940	-4.030100E+01
179	  0.055671342	-6.013000E+00	  0.055671342	-9.093000E+01	  0.055671342	2.959000E+01	  0.055671342	-3.949900E+01
180	  0.055871744	-6.018000E+00	  0.055871744	-9.237000E+01	  0.055871744	2.903000E+01	  0.055871744	-3.869100E+01
181	  0.056072142	-6.021000E+00	  0.056072142	-9.374800E+01	  0.056072142	2.851100E+01	  0.056072142	-3.792800E+01
182	  0.056272544	-6.028000E+00	  0.056272544	-9.510100E+01	  0.056272544	2.803600E+01	  0.056272544	-3.717600E+01
183	  0.056472946	-6.032000E+00	  0.056472946	-9.647900E+01	  0.056472946	2.755600E+01	  0.056472946	-3.642600E+01
184	  0.056673344	-6.037000E+00	  0.056673344	-9.780200E+01	  0.056673344	2.712000E+01	  0.056673344	-3.570900E+01
185	  0.056873746	-6.042000E+00	  0.056873746	-9.912100E+01	  0.056873746	2.669800E+01	  0.056873746	-3.500300E+01
186	  0.057074148	-6.041000E+00	  0.057074148	-1.004500E+02	  0.057074148	2.626900E+01	  0.057074148	-3.430900E+01
187	  0.057274550	-6.043000E+00	  0.057274550	-1.017780E+02	  0.057274550	2.586500E+01	  0.057274550	-3.361600E+01
188	  0.057474948	-6.041000E+00	  0.057474948	-1.030710E+02	  0.057474948	2.547300E+01	  0.057474948	-3.295300E+01
189	  0.057675350	-6.044000E+00	  0.057675350	-1.043770E+02	  0.057675350	2.510800E+01	  0.057675350	-3.228100E+01
190	  0.057875752	-6.046000E+00	  0.057875752	-1.056710E+02	  0.057875752	2.475600E+01	  0.057875752	-3.162100E+01
191	  0.058076151	-6.048000E+00	  0.058076151	-1.069670E+02	  0.058076151	2.441500E+01	  0.058076151	-3.096700E+01
192	  0.058276553	-6.045000E+00	  0.058276553	-1.082280E+02	  0.058276553	2.407600E+01	  0.058276553	-3.034600E+01
193	  0.058476955	-6.045000E+00	  0.058476955	-1.094910E+02	  0.058476955	2.376000E+01	  0.058476955	-2.972200E+01
194	  0.058677353	-6.044000E+00	  0.058677353	-1.107550E+02	  0.058677353	2.344900E+01	  0.058677353	-2.910400E+01
195	  0.058877755	-6.042000E+00	  0.058877755	-1.120480E+02	  0.058877755	2.314200E+01	  0.058877755	-2.847800E+01
196	  0.059078157	-6.039000E+00	  0.059078157	-1.133040E+02	  0.059078157	2.284600E+01	  0.059078157	-2.787700E+01
197	  0.059278559	-6.033000E+00	  0.059278559	-1.145720E+02	  0.059278559	2.255300E+01	  0.059278559	-2.727700E+01
198	  0.059478957	-6.033000E+00	  0.059478957	-1.158180E+02	  0.059478957	2.228700E+01	  0.059478957	-2.668600E+01
199	  0.059679359	-6.032000E+00	  0.059679359	-1.171150E+02	  0.059679359	2.202200E+01	  0.059679359	-2.607400E+01
200	  0.059879761	-6.029000E+00	  0.059879761	-1.183610E+02	  0.059879761	2.176400E+01	  0.059879761	-2.549500E+01
201	  0.060080159	-6.028000E+00	  0.060080159	-1.195920E+02	  0.060080159	2.152900E+01	  0.060080159	-2.492200E+01
202	  0.060280561	-6.030000E+00	  0.060280561	-1.208600E+02	  0.060280561	2.130100E+01	  0.060280561	-2.433400E+01
203	  0.060480963	-6.027000E+00	  0.060480963	-1.221280E+02	  0.060480963	2.106600E+01	  0.060480963	-2.375500E+01
204	  0.060681365	-6.026000E+00	  0.060681365	-1.233780E+02	  0.060681365	2.084700E+01	  0.060681365	-2.318700E+01
205	  0.060881764	-6.024000E+00	  0.060881764	-1.246090E+02	  0.060881764	2.063700E+01	  0.060881764	-2.263200E+01
206	  0.061082166	-6.021000E+00	  0.061082166	-1.258830E+02	  0.061082166	2.042600E+01	  0.061082166	-2.206100E+01
207	  0.061282568	-6.020000E+00	  0.061282568	-1.271280E+02	  0.061282568	2.023000E+01	  0.061282568	-2.150600E+01
208	  0.061482966	-6.019000E+00	  0.061482966	-1.283670E+02	  0.061482966	2.004200E+01	  0.061482966	-2.095600E+01
209	  0.061683368	-6.017000E+00	  0.061683368	-1.295980E+02	  0.061683368	1.986000E+01	  0.061683368	-2.041500E+01
210	  0.061883770	-6.017000E+00	  0.061883770	-1.308120E+02	  0.061883770	1.968900E+01	  0.061883770	-1.988200E+01
211	  0.062084168	-6.012000E+00	  0.062084168	-1.320300E+02	  0.062084168	1.951300E+01	  0.062084168	-1.935500E+01
212	  0.062284570	-6.011000E+00	  0.062284570	-1.332420E+02	  0.062284570	1.935200E+01	  0.062284570	-1.882900E+01
213	  0.062484972	-6.004000E+00	  0.062484972	-1.344060E+02	  0.062484972	1.918800E+01	  0.062484972	-1.833300E+01
214	  0.062685370	-6.007000E+00	  0.062685370	-1.356220E+02	  0.062685370	1.904900E+01	  0.062685370	-1.780800E+01
215	  0.062885776	-6.000000E+00	  0.062885776	-1.368290E+02	  0.062885776	1.888900E+01	  0.062885776	-1.729800E+01
216	  0.063086174	-5.997000E+00	  0.063086174	-1.380110E+02	  0.063086174	1.874900E+01	  0.063086174	-1.679700E+01
217	  0.063286573	-5.993000E+00	  0.063286573	-1.392010E+02	  0.063286573	1.861000E+01	  0.063286573	-1.629600E+01
218	  0.063486971	-5.989000E+00	  0.063486971	-1.403520E+02	  0.063486971	1.847900E+01	  0.063486971	-1.581400E+01
219	  0.063687377	-5.986000E+00	  0.063687377	-1.414810E+02	  0.063687377	1.835500E+01	  0.063687377	-1.534300E+01
220	  0.063887775	-5.983000E+00	  0.063887775	-1.426250E+02	  0.063887775	1.823700E+01	  0.063887775	-1.486700E+01
221	  0.064088173	-5.981000E+00	  0.064088173	-1.438000E+02	  0.064088173	1.812400E+01	  0.064088173	-1.437900E+01
222	  0.064288579	-5.979000E+00	  0.064288579	-1.449620E+02	  0.064288579	1.801500E+01	  0.064288579	-1.389900E+01
223	  0.064488977	-5.979000E+00	  0.064488977	-1.460920E+02	  0.064488977	1.791600E+01	  0.064488977	-1.343300E+01
224	  0.064689375	-5.980000E+00	  0.064689375	-1.472100E+02	  0.064689375	1.782900E+01	  0.064689375	-1.297300E+01
225	  0.064889781	-5.981000E+00	  0.064889781	-1.483190E+02	  0.064889781	1.774400E+01	  0.064889781	-1.251800E+01
226	  0.065090179	-5.977000E+00	  0.065090179	-1.494270E+02	  0.065090179	1.764800E+01	  0.065090179	-1.206800E+01
227	  0.065290578	-5.978000E+00	  0.065290578	-1.505370E+02	  0.065290578	1.757100E+01	  0.065290578	-1.161600E+01
228	  0.065490983	-5.980000E+00	  0.065490983	-1.516520E+02	  0.065490983	1.749800E+01	  0.065490983	-1.116300E+01
229	  0.065691382	-5.980000E+00	  0.065691382	-1.527700E+02	  0.065691382	1.742300E+01	  0.065691382	-1.071100E+01
230	  0.065891780	-5.981000E+00	  0.065891780	-1.538520E+02	  0.065891780	1.735600E+01	  0.065891780	-1.027500E+01
231	  0.066092186	-5.982000E+00	  0.066092186	-1.549320E+02	  0.066092186	1.729300E+01	  0.066092186	-9.841000E+00
232	  0.066292584	-5.987000E+00	  0.066292584	-1.560020E+02	  0.066292584	1.724400E+01	  0.066292584	-9.411000E+00
233	  0.066492982	-5.985000E+00	  0.066492982	-1.571060E+02	  0.066492982	1.717900E+01	  0.066492982	-8.970000E+00
234	  0.066693388	-5.988000E+00	  0.066693388	-1.581890E+02	  0.066693388	1.712900E+01	  0.066693388	-8.538000E+00
235	  0.066893786	-5.996000E+00	  0.066893786	-1.592400E+02	  0.066893786	1.709900E+01	  0.066893786	-8.118000E+00
236	  0.067094192	-5.994000E+00	  0.067094192	-1.602910E+02	  0.067094192	1.704300E+01	  0.067094192	-7.702000E+00
237	  0.067294590	-5.998000E+00	  0.067294590	-1.613670E+02	  0.067294590	1.700500E+01	  0.067294590	-7.275000E+00
238	  0.067494988	-6.004000E+00	  0.067494988	-1.624190E+02	  0.067494988	1.697600E+01	  0.067494988	-6.858000E+00
239	  0.067695394	-6.001000E+00	  0.067695394	-1.635040E+02	  0.067695394	1.692800E+01	  0.067695394	-6.432000E+00
240	  0.067895792	-6.006000E+00	  0.067895792	-1.645300E+02	  0.067895792	1.690200E+01	  0.067895792	-6.027000E+00
241	  0.068096191	-6.013000E+00	  0.068096191	-1.656010E+02	  0.068096191	1.688300E+01	  0.068096191	-5.605000E+00
242	  0.068296596	-6.017000E+00	  0.068296596	-1.666500E+02	  0.068296596	1.686000E+01	  0.068296596	-5.194000E+00
243	  0.068496995	-6.016000E+00	  0.068496995	-1.676520E+02	  0.068496995	1.682800E+01	  0.068496995	-4.802000E+00
244	  0.068697393	-6.022000E+00	  0.068697393	-1.686980E+02	  0.068697393	1.681600E+01	  0.068697393	-4.392000E+00
245	  0.068897791	-6.024000E+00	  0.068897791	-1.697240E+02	  0.068897791	1.679500E+01	  0.068897791	-3.991000E+00
246	  0.069098189	-6.026000E+00	  0.069098189	-1.707540E+02	  0.069098189	1.677800E+01	  0.069098189	-3.590000E+00
247	  0.069298595	-6.028000E+00	  0.069298595	-1.717480E+02	  0.069298595	1.676200E+01	  0.069298595	-3.203000E+00
248	  0.069498993	-6.032000E+00	  0.069498993	-1.727820E+02	  0.069498993	1.675500E+01	  0.069498993	-2.800000E+00
249	  0.069699399	-6.035000E+00	  0.069699399	-1.738000E+02	  0.069699399	1.674800E+01	  0.069699399	-2.404000E+00
250	  0.069899797	-6.036000E+00	  0.069899797	-1.747950E+02	  0.069899797	1.673900E+01	  0.069899797	-2.018000E+00
251	  0.070100196	-6.040000E+00	  0.070100196	-1.757810E+02	  0.070100196	1.673800E+01	  0.070100196	-1.635000E+00
252	  0.070300601	-6.043000E+00	  0.070300601	-1.767840E+02	  0.070300601	1.673700E+01	  0.070300601	-1.246000E+00
253	  0.070501000	-6.045000E+00	  0.070501000	-1.777660E+02	  0.070501000	1.673500E+01	  0.070501000	-8.650000E-01
254	  0.070701398	-6.049000E+00	  0.070701398	-1.787340E+02	  0.070701398	1.674200E+01	  0.070701398	-4.900000E-01
255	  0.070901804	-6.052000E+00	  0.070901804	-1.796960E+02	  0.070901804	1.674900E+01	  0.070901804	-1.170000E-01
256	  0.071102202	-6.061000E+00	  0.071102202	1.793000E+02	  0.071102202	1.677100E+01	  0.071102202	2.700000E-01
257	  0.071302600	-6.062000E+00	  0.071302600	1.783400E+02	  0.071302600	1.677700E+01	  0.071302600	6.420000E-01
258	  0.071503006	-6.068000E+00	  0.071503006	1.773380E+02	  0.071503006	1.679600E+01	  0.071503006	1.030000E+00
259	  0.071703404	-6.077000E+00	  0.071703404	1.764060E+02	  0.071703404	1.682600E+01	  0.071703404	1.391000E+00
260	  0.071903802	-6.087000E+00	  0.071903802	1.754220E+02	  0.071903802	1.686000E+01	  0.071903802	1.771000E+00
261	  0.072104208	-6.090000E+00	  0.072104208	1.744480E+02	  0.072104208	1.687900E+01	  0.072104208	2.148000E+00
262	  0.072304606	-6.096000E+00	  0.072304606	1.734980E+02	  0.072304606	1.690900E+01	  0.072304606	2.515000E+00
263	  0.072505005	-6.103000E+00	  0.072505005	1.725720E+02	  0.072505005	1.694000E+01	  0.072505005	2.874000E+00
264	  0.072705410	-6.108000E+00	  0.072705410	1.716080E+02	  0.072705410	1.697200E+01	  0.072705410	3.247000E+00
265	  0.072905809	-6.117000E+00	  0.072905809	1.706430E+02	  0.072905809	1.701300E+01	  0.072905809	3.620000E+00
266	  0.073106214	-6.123000E+00	  0.073106214	1.696700E+02	  0.073106214	1.705000E+01	  0.073106214	3.997000E+00
267	  0.073306613	-6.132000E+00	  0.073306613	1.687450E+02	  0.073306613	1.709800E+01	  0.073306613	4.355000E+00
268	  0.073507011	-6.140000E+00	  0.073507011	1.677610E+02	  0.073507011	1.714500E+01	  0.073507011	4.736000E+00
269	  0.073707417	-6.149000E+00	  0.073707417	1.668280E+02	  0.073707417	1.719500E+01	  0.073707417	5.097000E+00
270	  0.073907815	-6.152000E+00	  0.073907815	1.659000E+02	  0.073907815	1.723200E+01	  0.073907815	5.458000E+00
271	  0.074108213	-6.161000E+00	  0.074108213	1.649640E+02	  0.074108213	1.728800E+01	  0.074108213	5.821000E+00
272	  0.074308619	-6.168000E+00	  0.074308619	1.640190E+02	  0.074308619	1.734000E+01	  0.074308619	6.188000E+00
273	  0.074509017	-6.176000E+00	  0.074509017	1.630620E+02	  0.074509017	1.739600E+01	  0.074509017	6.560000E+00
274	  0.074709415	-6.181000E+00	  0.074709415	1.621530E+02	  0.074709415	1.744700E+01	  0.074709415	6.914000E+00
275	  0.074909821	-6.187000E+00	  0.074909821	1.612520E+02	  0.074909821	1.750200E+01	  0.074909821	7.266000E+00
276	  0.075110219	-6.192000E+00	  0.075110219	1.603400E+02	  0.075110219	1.755700E+01	  0.075110219	7.622000E+00
277	  0.075310618	-6.196000E+00	  0.075310618	1.594370E+02	  0.075310618	1.761100E+01	  0.075310618	7.975000E+00
278	  0.075511023	-6.208000E+00	  0.075511023	1.585340E+02	  0.075511023	1.768600E+01	  0.075511023	8.327000E+00
279	  0.075711422	-6.210000E+00	  0.075711422	1.576720E+02	  0.075711422	1.773600E+01	  0.075711422	8.666000E+00
280	  0.075911827	-6.216000E+00	  0.075911827	1.567820E+02	  0.075911827	1.780200E+01	  0.075911827	9.015000E+00
281	  0.076112226	-6.223000E+00	  0.076112226	1.558850E+02	  0.076112226	1.787100E+01	  0.076112226	9.368000E+00
282	  0.076312624	-6.233000E+00	  0.076312624	1.550570E+02	  0.076312624	1.794700E+01	  0.076312624	9.692000E+00
283	  0.076513030	-6.238000E+00	  0.076513030	1.541630E+02	  0.076513030	1.801600E+01	  0.076513030	1.004400E+01
284	  0.076713428	-6.244000E+00	  0.076713428	1.532910E+02	  0.076713428	1.808800E+01	  0.076713428	1.038900E+01
285	  0.076913826	-6.255000E+00	  0.076913826	1.524380E+02	  0.076913826	1.817300E+01	  0.076913826	1.072400E+01
286	  0.077114232	-6.265000E+00	  0.077114232	1.516100E+02	  0.077114232	1.825700E+01	  0.077114232	1.104900E+01
287	  0.077314630	-6.272000E+00	  0.077314630	1.507750E+02	  0.077314630	1.833500E+01	  0.077314630	1.138000E+01
288	  0.077515028	-6.282000E+00	  0.077515028	1.499180E+02	  0.077515028	1.842400E+01	  0.077515028	1.171900E+01
289	  0.077715434	-6.295000E+00	  0.077715434	1.490900E+02	  0.077715434	1.852200E+01	  0.077715434	1.204500E+01
290	  0.077915832	-6.302000E+00	  0.077915832	1.482510E+02	  0.077915832	1.860600E+01	  0.077915832	1.237900E+01
291	  0.078116231	-6.319000E+00	  0.078116231	1.474120E+02	  0.078116231	1.872000E+01	  0.078116231	1.270700E+01
292	  0.078316636	-6.330000E+00	  0.078316636	1.465540E+02	  0.078316636	1.882300E+01	  0.078316636	1.304800E+01
293	  0.078517035	-6.345000E+00	  0.078517035	1.457300E+02	  0.078517035	1.893300E+01	  0.078517035	1.337300E+01
294	  0.078717433	-6.356000E+00	  0.078717433	1.448690E+02	  0.078717433	1.904100E+01	  0.078717433	1.371500E+01
295	  0.078917839	-6.371000E+00	  0.078917839	1.440320E+02	  0.078917839	1.915800E+01	  0.078917839	1.404600E+01
296	  0.079118237	-6.384000E+00	  0.079118237	1.432230E+02	  0.079118237	1.927200E+01	  0.079118237	1.436700E+01
297	  0.079318643	-6.402000E+00	  0.079318643	1.423670E+02	  0.079318643	1.940300E+01	  0.079318643	1.470400E+01
298	  0.079519041	-6.416000E+00	  0.079519041	1.415420E+02	  0.079519041	1.952300E+01	  0.079519041	1.503300E+01
299	  0.079719439	-6.433000E+00	  0.079719439	1.407010E+02	  0.079719439	1.965700E+01	  0.079719439	1.536500E+01
300	  0.079919845	-6.446000E+00	  0.079919845	1.398540E+02	  0.079919845	1.978300E+01	  0.079919845	1.570400E+01
301	  0.080120243	-6.462000E+00	  0.080120243	1.389800E+02	  0.080120243	1.992300E+01	  0.080120243	1.605200E+01
302	  0.080320641	-6.479000E+00	  0.080320641	1.381080E+02	  0.080320641	2.006800E+01	  0.080320641	1.639900E+01
303	  0.080521047	-6.493000E+00	  0.080521047	1.372880E+02	  0.080521047	2.020100E+01	  0.080521047	1.672700E+01
304	  0.080721445	-6.509000E+00	  0.080721445	1.364730E+02	  0.080721445	2.034300E+01	  0.080721445	1.705200E+01
305	  0.080921844	-6.526000E+00	  0.080921844	1.355970E+02	  0.080921844	2.049800E+01	  0.080921844	1.740200E+01
306	  0.081122249	-6.543000E+00	  0.081122249	1.347790E+02	  0.081122249	2.064800E+01	  0.081122249	1.772900E+01
307	  0.081322648	-6.559000E+00	  0.081322648	1.339390E+02	  0.081322648	2.079900E+01	  0.081322648	1.806600E+01
308	  0.081523046	-6.571000E+00	  0.081523046	1.331160E+02	  0.081523046	2.094100E+01	  0.081523046	1.840000E+01
309	  0.081723452	-6.583000E+00	  0.081723452	1.322560E+02	  0.081723452	2.109200E+01	  0.081723452	1.875000E+01
310	  0.081923850	-6.594000E+00	  0.081923850	1.314240E+02	  0.081923850	2.124000E+01	  0.081923850	1.908900E+01
311	  0.082124248	-6.607000E+00	  0.082124248	1.306370E+02	  0.082124248	2.138700E+01	  0.082124248	1.940900E+01
312	  0.082324654	-6.623000E+00	  0.082324654	1.298190E+02	  0.082324654	2.155300E+01	  0.082324654	1.973900E+01
313	  0.082525052	-6.639000E+00	  0.082525052	1.290350E+02	  0.082525052	2.171600E+01	  0.082525052	2.005500E+01
314	  0.082725458	-6.653000E+00	  0.082725458	1.282620E+02	  0.082725458	2.187400E+01	  0.082725458	2.036900E+01
315	  0.082925856	-6.663000E+00	  0.082925856	1.274840E+02	  0.082925856	2.202500E+01	  0.082925856	2.069000E+01
316	  0.083126254	-6.680000E+00	  0.083126254	1.266960E+02	  0.083126254	2.219900E+01	  0.083126254	2.100900E+01
317	  0.083326660	-6.694000E+00	  0.083326660	1.259420E+02	  0.083326660	2.236100E+01	  0.083326660	2.131700E+01
318	  0.083527058	-6.711000E+00	  0.083527058	1.251680E+02	  0.083527058	2.253900E+01	  0.083527058	2.163000E+01
319	  0.083727457	-6.725000E+00	  0.083727457	1.244160E+02	  0.083727457	2.271000E+01	  0.083727457	2.193700E+01
320	  0.083927862	-6.743000E+00	  0.083927862	1.236680E+02	  0.083927862	2.289400E+01	  0.083927862	2.223800E+01
321	  0.084128261	-6.760000E+00	  0.084128261	1.229100E+02	  0.084128261	2.307700E+01	  0.084128261	2.254500E+01
322	  0.084328659	-6.785000E+00	  0.084328659	1.221840E+02	  0.084328659	2.328100E+01	  0.084328659	2.282900E+01
323	  0.084529065	-6.801000E+00	  0.084529065	1.214510E+02	  0.084529065	2.346300E+01	  0.084529065	2.312700E+01
324	  0.084729463	-6.820000E+00	  0.084729463	1.207160E+02	  0.084729463	2.366000E+01	  0.084729463	2.342100E+01
325	  0.084929854	-6.844000E+00	  0.084929854	1.199750E+02	  0.084929854	2.387400E+01	  0.084929854	2.371200E+01
326	  0.085130259	-6.865000E+00	  0.085130259	1.192090E+02	  0.085130259	2.408600E+01	  0.085130259	2.401800E+01
327	  0.085330658	-6.884000E+00	  0.085330658	1.184900E+02	  0.085330658	2.428900E+01	  0.085330658	2.430600E+01
328	  0.085531056	-6.911000E+00	  0.085531056	1.177610E+02	  0.085531056	2.451900E+01	  0.085531056	2.458700E+01
329	  0.085731462	-6.931000E+00	  0.085731462	1.170210E+02	  0.085731462	2.473200E+01	  0.085731462	2.488300E+01
330	  0.085931860	-6.954000E+00	  0.085931860	1.163040E+02	  0.085931860	2.495500E+01	  0.085931860	2.516400E+01
331	  0.086132258	-6.977000E+00	  0.086132258	1.156030E+02	  0.086132258	2.517700E+01	  0.086132258	2.543800E+01
332	  0.086332664	-7.004000E+00	  0.086332664	1.148710E+02	  0.086332664	2.541900E+01	  0.086332664	2.571900E+01
333	  0.086533062	-7.028000E+00	  0.086533062	1.141300E+02	  0.086533062	2.566200E+01	  0.086533062	2.600700E+01
334	  0.086733460	-7.054000E+00	  0.086733460	1.133830E+02	  0.086733460	2.591300E+01	  0.086733460	2.629600E+01
335	  0.086933866	-7.076000E+00	  0.086933866	1.126320E+02	  0.086933866	2.615700E+01	  0.086933866	2.659100E+01
336	  0.087134264	-7.103000E+00	  0.087134264	1.119190E+02	  0.087134264	2.641100E+01	  0.087134264	2.686100E+01
337	  0.087334670	-7.126000E+00	  0.087334670	1.112010E+02	  0.087334670	2.665600E+01	  0.087334670	2.714000E+01
338	  0.087535068	-7.156000E+00	  0.087535068	1.104900E+02	  0.087535068	2.692400E+01	  0.087535068	2.740400E+01
339	  0.087735467	-7.182000E+00	  0.087735467	1.097220E+02	  0.087735467	2.720100E+01	  0.087735467	2.769700E+01
340	  0.087935872	-7.208000E+00	  0.087935872	1.090170E+02	  0.087935872	2.746200E+01	  0.087935872	2.796300E+01
341	  0.088136271	-7.235000E+00	  0.088136271	1.083100E+02	  0.088136271	2.773200E+01	  0.088136271	2.822700E+01
342	  0.088336669	-7.263000E+00	  0.088336669	1.075750E+02	  0.088336669	2.801700E+01	  0.088336669	2.850000E+01
343	  0.088537075	-7.285000E+00	  0.088537075	1.068780E+02	  0.088537075	2.827600E+01	  0.088537075	2.876700E+01
344	  0.088737473	-7.304000E+00	  0.088737473	1.061830E+02	  0.088737473	2.853100E+01	  0.088737473	2.903800E+01
345	  0.088937871	-7.328000E+00	  0.088937871	1.054720E+02	  0.088937871	2.881000E+01	  0.088937871	2.930400E+01
346	  0.089138277	-7.356000E+00	  0.089138277	1.047790E+02	  0.089138277	2.909700E+01	  0.089138277	2.955600E+01
347	  0.089338675	-7.383000E+00	  0.089338675	1.040910E+02	  0.089338675	2.938400E+01	  0.089338675	2.980500E+01
348	  0.089539073	-7.409000E+00	  0.089539073	1.034330E+02	  0.089539073	2.966100E+01	  0.089539073	3.004300E+01
349	  0.089739479	-7.436000E+00	  0.089739479	1.027660E+02	  0.089739479	2.995100E+01	  0.089739479	3.027900E+01
350	  0.089939877	-7.464000E+00	  0.089939877	1.021420E+02	  0.089939877	3.023200E+01	  0.089939877	3.049400E+01
351	  0.090140276	-7.493000E+00	  0.090140276	1.014980E+02	  0.090140276	3.052300E+01	  0.090140276	3.071600E+01
352	  0.090340681	-7.514000E+00	  0.090340681	1.008460E+02	  0.090340681	3.079800E+01	  0.090340681	3.095600E+01
353	  0.090541080	-7.544000E+00	  0.090541080	1.001910E+02	  0.090541080	3.110700E+01	  0.090541080	3.117500E+01
354	  0.090741485	-7.573000E+00	  0.090741485	9.958300E+01	  0.090741485	3.139600E+01	  0.090741485	3.137600E+01
355	  0.090941884	-7.600000E+00	  0.090941884	9.898400E+01	  0.090941884	3.168200E+01	  0.090941884	3.157400E+01
356	  0.091142282	-7.635000E+00	  0.091142282	9.838600E+01	  0.091142282	3.199300E+01	  0.091142282	3.175400E+01
357	  0.091342688	-7.666000E+00	  0.091342688	9.780000E+01	  0.091342688	3.229100E+01	  0.091342688	3.193400E+01
358	  0.091543086	-7.699000E+00	  0.091543086	9.719400E+01	  0.091543086	3.260300E+01	  0.091543086	3.211800E+01
359	  0.091743484	-7.724000E+00	  0.091743484	9.661500E+01	  0.091743484	3.288800E+01	  0.091743484	3.230600E+01
360	  0.091943890	-7.760000E+00	  0.091943890	9.603500E+01	  0.091943890	3.320600E+01	  0.091943890	3.246500E+01
361	  0.092144288	-7.786000E+00	  0.092144288	9.540200E+01	  0.092144288	3.352100E+01	  0.092144288	3.267000E+01
362	  0.092344686	-7.823000E+00	  0.092344686	9.483900E+01	  0.092344686	3.384100E+01	  0.092344686	3.281600E+01
363	  0.092545092	-7.851000E+00	  0.092545092	9.427900E+01	  0.092545092	3.413800E+01	  0.092545092	3.298100E+01
364	  0.092745490	-7.886000E+00	  0.092745490	9.368600E+01	  0.092745490	3.446800E+01	  0.092745490	3.314100E+01
365	  0.092945889	-7.919000E+00	  0.092945889	9.314400E+01	  0.092945889	3.477700E+01	  0.092945889	3.328100E+01
366	  0.093146294	-7.954000E+00	  0.093146294	9.259600E+01	  0.093146294	3.509900E+01	  0.093146294	3.341400E+01
367	  0.093346693	-7.984000E+00	  0.093346693	9.205600E+01	  0.093346693	3.540300E+01	  0.093346693	3.355700E+01
368	  0.093547091	-8.019000E+00	  0.093547091	9.152800E+01	  0.093547091	3.571800E+01	  0.093547091	3.367900E+01
369	  0.093747497	-8.051000E+00	  0.093747497	9.095500E+01	  0.093747497	3.604600E+01	  0.093747497	3.382600E+01
370	  0.093947895	-8.082000E+00	  0.093947895	9.039000E+01	  0.093947895	3.637200E+01	  0.093947895	3.396900E+01
371	  0.094148301	-8.117000E+00	  0.094148301	8.986900E+01	  0.094148301	3.669200E+01	  0.094148301	3.407900E+01
372	  0.094348699	-8.149000E+00	  0.094348699	8.934300E+01	  0.094348699	3.700700E+01	  0.094348699	3.419900E+01
373	  0.094549097	-8.183000E+00	  0.094549097	8.882200E+01	  0.094549097	3.732900E+01	  0.094549097	3.430800E+01
374	  0.094749503	-8.213000E+00	  0.094749503	8.828000E+01	  0.094749503	3.765100E+01	  0.094749503	3.443400E+01
375	  0.094949901	-8.243000E+00	  0.094949901	8.778600E+01	  0.094949901	3.795300E+01	  0.094949901	3.453900E+01
376	  0.095150299	-8.274000E+00	  0.095150299	8.723500E+01	  0.095150299	3.828800E+01	  0.095150299	3.466100E+01
377	  0.095350705	-8.300000E+00	  0.095350705	8.674200E+01	  0.095350705	3.858400E+01	  0.095350705	3.477200E+01
378	  0.095551103	-8.329000E+00	  0.095551103	8.623400E+01	  0.095551103	3.889700E+01	  0.095551103	3.487800E+01
379	  0.095751502	-8.357000E+00	  0.095751502	8.572600E+01	  0.095751502	3.921000E+01	  0.095751502	3.498500E+01
380	  0.095951907	-8.382000E+00	  0.095951907	8.523900E+01	  0.095951907	3.950700E+01	  0.095951907	3.509000E+01
381	  0.096152306	-8.408000E+00	  0.096152306	8.478000E+01	  0.096152306	3.979600E+01	  0.096152306	3.517800E+01
382	  0.096352704	-8.434000E+00	  0.096352704	8.430100E+01	  0.096352704	4.009600E+01	  0.096352704	3.527400E+01
383	  0.096553110	-8.460000E+00	  0.096553110	8.384100E+01	  0.096553110	4.038700E+01	  0.096553110	3.536100E+01
384	  0.096753508	-8.486000E+00	  0.096753508	8.340000E+01	  0.096753508	4.067200E+01	  0.096753508	3.543600E+01
385	  0.096953906	-8.508000E+00	  0.096953906	8.294000E+01	  0.096953906	4.095700E+01	  0.096953906	3.553100E+01
386	  0.097154312	-8.531000E+00	  0.097154312	8.249800E+01	  0.097154312	4.123700E+01	  0.097154312	3.561600E+01
387	  0.097354710	-8.555000E+00	  0.097354710	8.207000E+01	  0.097354710	4.151300E+01	  0.097354710	3.568800E+01
388	  0.097555116	-8.574000E+00	  0.097555116	8.164300E+01	  0.097555116	4.178000E+01	  0.097555116	3.577500E+01
389	  0.097755514	-8.602000E+00	  0.097755514	8.122300E+01	  0.097755514	4.206700E+01	  0.097755514	3.582500E+01
390	  0.097955912	-8.621000E+00	  0.097955912	8.080200E+01	  0.097955912	4.233300E+01	  0.097955912	3.590500E+01
391	  0.098156318	-8.642000E+00	  0.098156318	8.039900E+01	  0.098156318	4.259500E+01	  0.098156318	3.597400E+01
392	  0.098356716	-8.660000E+00	  0.098356716	8.000600E+01	  0.098356716	4.284600E+01	  0.098356716	3.604600E+01
393	  0.098557115	-8.682000E+00	  0.098557115	7.960800E+01	  0.098557115	4.311200E+01	  0.098557115	3.610200E+01
394	  0.098757520	-8.702000E+00	  0.098757520	7.922000E+01	  0.098757520	4.336700E+01	  0.098757520	3.616200E+01
395	  0.098957919	-8.719000E+00	  0.098957919	7.881000E+01	  0.098957919	4.363100E+01	  0.098957919	3.623700E+01
396	  0.099158317	-8.734000E+00	  0.099158317	7.839500E+01	  0.099158317	4.389500E+01	  0.099158317	3.631800E+01
397	  0.099358723	-8.749000E+00	  0.099358723	7.799000E+01	  0.099358723	4.415200E+01	  0.099358723	3.639900E+01
398	  0.099559121	-8.768000E+00	  0.099559121	7.765100E+01	  0.099559121	4.438400E+01	  0.099559121	3.643700E+01
399	  0.099759519	-8.783000E+00	  0.099759519	7.724500E+01	  0.099759519	4.464600E+01	  0.099759519	3.651200E+01
400	  0.099959925	-8.792000E+00	  0.099959925	7.689400E+01	  0.099959925	4.486500E+01	  0.099959925	3.659100E+01
401	  0.100160323	-8.802000E+00	  0.100160323	7.647100E+01	  0.100160323	4.513100E+01	  0.100160323	3.668600E+01
402	  0.100360721	-8.828000E+00	  0.100360721	7.604900E+01	  0.100360721	4.542800E+01	  0.100360721	3.672000E+01
403	  0.100561127	-8.826000E+00	  0.100561127	7.568400E+01	  0.100561127	4.563900E+01	  0.100561127	3.683900E+01
404	  0.100761525	-8.827000E+00	  0.100761525	7.529800E+01	  0.100761525	4.586800E+01	  0.100761525	3.695400E+01
405	  0.100961931	-8.842000E+00	  0.100961931	7.493500E+01	  0.100961931	4.611300E+01	  0.100961931	3.700900E+01
406	  0.101162329	-8.853000E+00	  0.101162329	7.450300E+01	  0.101162329	4.639300E+01	  0.101162329	3.709600E+01
407	  0.101362728	-8.863000E+00	  0.101362728	7.414400E+01	  0.101362728	4.663000E+01	  0.101362728	3.716200E+01
408	  0.101563133	-8.868000E+00	  0.101563133	7.373800E+01	  0.101563133	4.688700E+01	  0.101563133	3.726300E+01
409	  0.101763532	-8.870000E+00	  0.101763532	7.341900E+01	  0.101763532	4.708500E+01	  0.101763532	3.734900E+01
410	  0.101963930	-8.870000E+00	  0.101963930	7.299800E+01	  0.101963930	4.734400E+01	  0.101963930	3.747300E+01
411	  0.102164328	-8.877000E+00	  0.102164328	7.260200E+01	  0.102164328	4.760400E+01	  0.102164328	3.755700E+01
412	  0.102364726	-8.879000E+00	  0.102364726	7.219100E+01	  0.102364726	4.786600E+01	  0.102364726	3.766500E+01
413	  0.102565125	-8.876000E+00	  0.102565125	7.180500E+01	  0.102565125	4.810400E+01	  0.102565125	3.778800E+01
414	  0.102765530	-8.879000E+00	  0.102765530	7.138600E+01	  0.102765530	4.837600E+01	  0.102765530	3.789300E+01
415	  0.102965929	-8.876000E+00	  0.102965929	7.095500E+01	  0.102965929	4.864800E+01	  0.102965929	3.802500E+01
416	  0.103166327	-8.868000E+00	  0.103166327	7.055700E+01	  0.103166327	4.889200E+01	  0.103166327	3.816800E+01
417	  0.103366733	-8.855000E+00	  0.103366733	7.016900E+01	  0.103366733	4.912200E+01	  0.103366733	3.833200E+01
418	  0.103567131	-8.863000E+00	  0.103567131	6.974800E+01	  0.103567131	4.941400E+01	  0.103567131	3.841000E+01
419	  0.103767529	-8.859000E+00	  0.103767529	6.933000E+01	  0.103767529	4.968500E+01	  0.103767529	3.854000E+01
420	  0.103967935	-8.860000E+00	  0.103967935	6.892600E+01	  0.103967935	4.995800E+01	  0.103967935	3.864000E+01
421	  0.104168333	-8.846000E+00	  0.104168333	6.844500E+01	  0.104168333	5.026000E+01	  0.104168333	3.882600E+01
422	  0.104368731	-8.838000E+00	  0.104368731	6.803200E+01	  0.104368731	5.052900E+01	  0.104368731	3.897000E+01
423	  0.104569137	-8.835000E+00	  0.104569137	6.760200E+01	  0.104569137	5.082100E+01	  0.104569137	3.909300E+01
424	  0.104769535	-8.835000E+00	  0.104769535	6.713100E+01	  0.104769535	5.114900E+01	  0.104769535	3.921000E+01
425	  0.104969934	-8.819000E+00	  0.104969934	6.666500E+01	  0.104969934	5.145200E+01	  0.104969934	3.939900E+01
426	  0.105170339	-8.811000E+00	  0.105170339	6.623100E+01	  0.105170339	5.174600E+01	  0.105170339	3.954500E+01
427	  0.105370738	-8.799000E+00	  0.105370738	6.578200E+01	  0.105370738	5.205000E+01	  0.105370738	3.970900E+01
428	  0.105571143	-8.786000E+00	  0.105571143	6.530600E+01	  0.105571143	5.237500E+01	  0.105571143	3.988300E+01
429	  0.105771542	-8.782000E+00	  0.105771542	6.481700E+01	  0.105771542	5.272800E+01	  0.105771542	4.001300E+01
430	  0.105971940	-8.770000E+00	  0.105971940	6.432000E+01	  0.105971940	5.307700E+01	  0.105971940	4.018700E+01
431	  0.106172346	-8.756000E+00	  0.106172346	6.383000E+01	  0.106172346	5.342400E+01	  0.106172346	4.036700E+01
432	  0.106372744	-8.749000E+00	  0.106372744	6.330400E+01	  0.106372744	5.381100E+01	  0.106372744	4.051800E+01
433	  0.106573142	-8.746000E+00	  0.106573142	6.280200E+01	  0.106573142	5.419200E+01	  0.106573142	4.063800E+01
434	  0.106773548	-8.730000E+00	  0.106773548	6.230200E+01	  0.106773548	5.455600E+01	  0.106773548	4.082700E+01
435	  0.106973946	-8.723000E+00	  0.106973946	6.172800E+01	  0.106973946	5.499600E+01	  0.106973946	4.098000E+01
436	  0.107174344	-8.709000E+00	  0.107174344	6.126600E+01	  0.107174344	5.534200E+01	  0.107174344	4.114600E+01
437	  0.107374750	-8.709000E+00	  0.107374750	6.069800E+01	  0.107374750	5.579600E+01	  0.107374750	4.125700E+01
438	  0.107575148	-8.696000E+00	  0.107575148	6.014000E+01	  0.107575148	5.623100E+01	  0.107575148	4.143100E+01
439	  0.107775547	-8.685000E+00	  0.107775547	5.961100E+01	  0.107775547	5.665100E+01	  0.107775547	4.158300E+01
440	  0.107975952	-8.674000E+00	  0.107975952	5.908500E+01	  0.107975952	5.707200E+01	  0.107975952	4.173800E+01
441	  0.108176351	-8.664000E+00	  0.108176351	5.856200E+01	  0.108176351	5.749900E+01	  0.108176351	4.188000E+01
442	  0.108376749	-8.654000E+00	  0.108376749	5.800600E+01	  0.108376749	5.795900E+01	  0.108376749	4.202500E+01
443	  0.108577155	-8.644000E+00	  0.108577155	5.746100E+01	  0.108577155	5.841400E+01	  0.108577155	4.216700E+01
444	  0.108777553	-8.642000E+00	  0.108777553	5.692500E+01	  0.108777553	5.887600E+01	  0.108777553	4.225500E+01
445	  0.108977959	-8.624000E+00	  0.108977959	5.633400E+01	  0.108977959	5.937600E+01	  0.108977959	4.244200E+01
446	  0.109178357	-8.625000E+00	  0.109178357	5.578600E+01	  0.109178357	5.986100E+01	  0.109178357	4.250900E+01
447	  0.109378755	-8.611000E+00	  0.109378755	5.519400E+01	  0.109378755	6.037900E+01	  0.109378755	4.266200E+01
448	  0.109579161	-8.598000E+00	  0.109579161	5.467300E+01	  0.109579161	6.084000E+01	  0.109579161	4.280300E+01
449	  0.109779559	-8.597000E+00	  0.109779559	5.413900E+01	  0.109779559	6.132600E+01	  0.109779559	4.286600E+01
450	  0.109979957	-8.582000E+00	  0.109979957	5.356200E+01	  0.109979957	6.185000E+01	  0.109979957	4.300700E+01
451	  0.110180363	-8.567000E+00	  0.110180363	5.290100E+01	  0.110180363	6.245900E+01	  0.110180363	4.316000E+01
452	  0.110380761	-8.562000E+00	  0.110380761	5.232100E+01	  0.110380761	6.300500E+01	  0.110380761	4.323300E+01
453	  0.110581160	-8.554000E+00	  0.110581160	5.173800E+01	  0.110581160	6.355900E+01	  0.110581160	4.332100E+01
454	  0.110781565	-8.546000E+00	  0.110781565	5.111800E+01	  0.110781565	6.415500E+01	  0.110781565	4.340500E+01
455	  0.110981964	-8.547000E+00	  0.110981964	5.051200E+01	  0.110981964	6.474800E+01	  0.110981964	4.342600E+01
456	  0.111182362	-8.533000E+00	  0.111182362	4.987300E+01	  0.111182362	6.537600E+01	  0.111182362	4.353100E+01
457	  0.111382768	-8.520000E+00	  0.111382768	4.921100E+01	  0.111382768	6.603700E+01	  0.111382768	4.362700E+01
458	  0.111583166	-8.515000E+00	  0.111583166	4.858500E+01	  0.111583166	6.666900E+01	  0.111583166	4.366200E+01
459	  0.111783572	-8.503000E+00	  0.111783572	4.791900E+01	  0.111783572	6.735200E+01	  0.111783572	4.373300E+01
460	  0.111983970	-8.492000E+00	  0.111983970	4.721200E+01	  0.111983970	6.808500E+01	  0.111983970	4.378600E+01
461	  0.112184368	-8.491000E+00	  0.112184368	4.654800E+01	  0.112184368	6.878000E+01	  0.112184368	4.376300E+01
462	  0.112384774	-8.481000E+00	  0.112384774	4.582000E+01	  0.112384774	6.955400E+01	  0.112384774	4.378800E+01
463	  0.112585172	-8.469000E+00	  0.112585172	4.508300E+01	  0.112585172	7.034800E+01	  0.112585172	4.380900E+01
464	  0.112785570	-8.476000E+00	  0.112785570	4.439000E+01	  0.112785570	7.109100E+01	  0.112785570	4.368500E+01
465	  0.112985976	-8.463000E+00	  0.112985976	4.363900E+01	  0.112985976	7.192100E+01	  0.112985976	4.368900E+01
466	  0.113186374	-8.463000E+00	  0.113186374	4.287900E+01	  0.113186374	7.275800E+01	  0.113186374	4.357700E+01
467	  0.113386773	-8.459000E+00	  0.113386773	4.215600E+01	  0.113386773	7.356700E+01	  0.113386773	4.348600E+01
468	  0.113587178	-8.454000E+00	  0.113587178	4.134800E+01	  0.113587178	7.448100E+01	  0.113587178	4.337300E+01
469	  0.113787577	-8.450000E+00	  0.113787577	4.058000E+01	  0.113787577	7.535500E+01	  0.113787577	4.323300E+01
470	  0.113987975	-8.446000E+00	  0.113987975	3.974800E+01	  0.113987975	7.631300E+01	  0.113987975	4.306600E+01
471	  0.114188381	-8.447000E+00	  0.114188381	3.896300E+01	  0.114188381	7.721500E+01	  0.114188381	4.284700E+01
472	  0.114388779	-8.450000E+00	  0.114388779	3.810900E+01	  0.114388779	7.819700E+01	  0.114388779	4.256500E+01
473	  0.114589177	-8.442000E+00	  0.114589177	3.730100E+01	  0.114589177	7.915600E+01	  0.114589177	4.235700E+01
474	  0.114789583	-8.451000E+00	  0.114789583	3.642000E+01	  0.114789583	8.016900E+01	  0.114789583	4.197500E+01
475	  0.114989981	-8.453000E+00	  0.114989981	3.558400E+01	  0.114989981	8.114700E+01	  0.114989981	4.162800E+01
476	  0.115190387	-8.457000E+00	  0.115190387	3.471200E+01	  0.115190387	8.216500E+01	  0.115190387	4.122300E+01
477	  0.115390785	-8.464000E+00	  0.115390785	3.385000E+01	  0.115390785	8.316500E+01	  0.115390785	4.077300E+01
478	  0.115591183	-8.462000E+00	  0.115591183	3.298400E+01	  0.115591183	8.419700E+01	  0.115591183	4.035200E+01
479	  0.115791589	-8.477000E+00	  0.115791589	3.206600E+01	  0.115791589	8.523000E+01	  0.115791589	3.974300E+01
480	  0.115991987	-8.488000E+00	  0.115991987	3.116800E+01	  0.115991987	8.624800E+01	  0.115991987	3.913900E+01
481	  0.116192386	-8.497000E+00	  0.116192386	3.025900E+01	  0.116192386	8.728100E+01	  0.116192386	3.851200E+01
482	  0.116392791	-8.515000E+00	  0.116392791	2.935600E+01	  0.116392791	8.826000E+01	  0.116392791	3.778400E+01
483	  0.116593190	-8.534000E+00	  0.116593190	2.844500E+01	  0.116593190	8.922800E+01	  0.116593190	3.700600E+01
484	  0.116793588	-8.553000E+00	  0.116793588	2.746800E+01	  0.116793588	9.025400E+01	  0.116793588	3.614200E+01
485	  0.116993994	-8.575000E+00	  0.116993994	2.650600E+01	  0.116993994	9.122800E+01	  0.116993994	3.522800E+01
486	  0.117194392	-8.602000E+00	  0.117194392	2.551400E+01	  0.117194392	9.218700E+01	  0.117194392	3.421900E+01
487	  0.117394790	-8.632000E+00	  0.117394790	2.448700E+01	  0.117394790	9.313500E+01	  0.117394790	3.311600E+01
488	  0.117595196	-8.660000E+00	  0.117595196	2.352300E+01	  0.117595196	9.399400E+01	  0.117595196	3.204500E+01
489	  0.117795594	-8.694000E+00	  0.117795594	2.253400E+01	  0.117795594	9.480700E+01	  0.117795594	3.087800E+01
490	  0.117995992	-8.727000E+00	  0.117995992	2.151200E+01	  0.117995992	9.561800E+01	  0.117995992	2.964800E+01
