! Anritsu VNA Master:             	Model: MS2036C/10/77
! SN:             	1601066
! /bd0/18may12.cable.cal/uu.20.txt
! Existing Calibration Information:
! TYPE:             	Current Settings	Active Cal Settings
! TIME:             	05/12/2018 02:00:53 PM	05/12/2018 01:41:40 PM
! INTERNAL TEMP:    	49.0 C	49.0 C
! # POINTS:         	500	500
! START FREQ:       	20.000 MHz	20.000 MHz
! STOP FREQ:        	120.000 MHz	120.000 MHz
! SOURCE POWER:     	High	High
! IFBW:             	50 Hz	50 Hz
! AVG FACTOR:       	  1 	  1 
! REF PLANE 1:      	0 mm	0 mm
! REF PLANE 2:      	0 mm	0 mm
! CAL TYPE:         	Full S22	Full S22
! CAL METHOD:       	SOLT	SOLT
! CAL LINE TYPE:    	Coax	Coax
! DUT PORT 1:       	K-Conn(M)	K-Conn(M)
! DUT PORT 2:       	K-Conn(M)	K-Conn(M)
! CAL STATUS:       	OK: Accuracy High	--
! PROP-V:       	0.700
! CABLE LOSS:       	0.000 dB/m
! REF IMPEDANCE:       	50.0
! Trace Specific Parameters:	TR1	TR2	TR3	TR4
! TRACE.#.Y (GRAPH TYPE)	LOG MAG	PHASE	REAL IMPEDANCE	IMAGINARY IMPEDANCE
! TRACE.#.X 	FREQ.GHZ	FREQ.GHZ	FREQ.GHZ	FREQ.GHZ
! S-PARAMETER	S22	S22	S22	S22
! SMOOTH/APERTURE %	0	0	0	0
! WINDOW	NSL	NSL	NSL	NSL
! GATING	OFF	OFF	OFF	OFF
! FGTD	OFF	OFF	OFF	OFF
Marker Information per Trace:	TR1	TR2	TR3	TR4
!MK1	--	"MK1 TR2:  12.184 368 MHz,##.##"	--	--
!MK2	--	--	"MK2 TR3:  12.184 368 MHz,##.##"	--
!MK3	--	--	--	--
!MK4	--	--	--	--
!MK5	--	--	--	--
!MK6	--	--	--	--
!MK7	--	--	--	--
!MK8	--	--	--	--
PNT	TR1.FREQ.GHZ	TR1.LOG MAG.dB	TR2.FREQ.GHZ	TR2.PHASE.deg	TR3.FREQ.GHZ	TR3.REAL IMPEDANCE.ohm	TR4.FREQ.GHZ	TR4.IMAGINARY IMPEDANCE.ohm
1	  0.020000000	-7.243000E+00	  0.020000000	1.547590E+02	  0.020000000	2.054700E+01	  0.020000000	9.380000E+00
2	  0.020200402	-7.246000E+00	  0.020200402	1.545060E+02	  0.020200402	2.057100E+01	  0.020200402	9.474000E+00
3	  0.020400802	-7.246000E+00	  0.020400802	1.542650E+02	  0.020400802	2.058800E+01	  0.020400802	9.565000E+00
4	  0.020601204	-7.244000E+00	  0.020601204	1.540050E+02	  0.020601204	2.060200E+01	  0.020601204	9.665000E+00
5	  0.020801604	-7.246000E+00	  0.020801604	1.537590E+02	  0.020801604	2.062400E+01	  0.020801604	9.757000E+00
6	  0.021002004	-7.246000E+00	  0.021002004	1.535290E+02	  0.021002004	2.063900E+01	  0.021002004	9.844000E+00
7	  0.021202406	-7.245000E+00	  0.021202406	1.532760E+02	  0.021202406	2.065500E+01	  0.021202406	9.941000E+00
8	  0.021402806	-7.247000E+00	  0.021402806	1.530240E+02	  0.021402806	2.067800E+01	  0.021402806	1.003500E+01
9	  0.021603208	-7.247000E+00	  0.021603208	1.527650E+02	  0.021603208	2.069500E+01	  0.021603208	1.013400E+01
10	  0.021803608	-7.247000E+00	  0.021803608	1.525230E+02	  0.021803608	2.071500E+01	  0.021803608	1.022500E+01
11	  0.022004008	-7.248000E+00	  0.022004008	1.522640E+02	  0.022004008	2.073600E+01	  0.022004008	1.032300E+01
12	  0.022204408	-7.250000E+00	  0.022204408	1.520220E+02	  0.022204408	2.075800E+01	  0.022204408	1.041400E+01
13	  0.022404809	-7.247000E+00	  0.022404809	1.517840E+02	  0.022404809	2.077100E+01	  0.022404809	1.050600E+01
14	  0.022605211	-7.248000E+00	  0.022605211	1.515410E+02	  0.022605211	2.079100E+01	  0.022605211	1.059800E+01
15	  0.022805611	-7.251000E+00	  0.022805611	1.512900E+02	  0.022805611	2.081800E+01	  0.022805611	1.069200E+01
16	  0.023006011	-7.250000E+00	  0.023006011	1.510480E+02	  0.023006011	2.083400E+01	  0.023006011	1.078500E+01
17	  0.023206413	-7.250000E+00	  0.023206413	1.507910E+02	  0.023206413	2.085400E+01	  0.023206413	1.088300E+01
18	  0.023406813	-7.251000E+00	  0.023406813	1.505430E+02	  0.023406813	2.087700E+01	  0.023406813	1.097600E+01
19	  0.023607215	-7.250000E+00	  0.023607215	1.503010E+02	  0.023607215	2.089500E+01	  0.023607215	1.106900E+01
20	  0.023807615	-7.251000E+00	  0.023807615	1.500550E+02	  0.023807615	2.091600E+01	  0.023807615	1.116300E+01
21	  0.024008015	-7.251000E+00	  0.024008015	1.498000E+02	  0.024008015	2.093800E+01	  0.024008015	1.126000E+01
22	  0.024208417	-7.251000E+00	  0.024208417	1.495580E+02	  0.024208417	2.095700E+01	  0.024208417	1.135300E+01
23	  0.024408817	-7.252000E+00	  0.024408817	1.493080E+02	  0.024408817	2.098100E+01	  0.024408817	1.144700E+01
24	  0.024609219	-7.254000E+00	  0.024609219	1.490620E+02	  0.024609219	2.100700E+01	  0.024609219	1.154000E+01
25	  0.024809619	-7.254000E+00	  0.024809619	1.488200E+02	  0.024809619	2.102700E+01	  0.024809619	1.163300E+01
26	  0.025010020	-7.253000E+00	  0.025010020	1.485710E+02	  0.025010020	2.104600E+01	  0.025010020	1.172900E+01
27	  0.025210422	-7.255000E+00	  0.025210422	1.483280E+02	  0.025210422	2.107000E+01	  0.025210422	1.182100E+01
28	  0.025410822	-7.255000E+00	  0.025410822	1.480730E+02	  0.025410822	2.109300E+01	  0.025410822	1.191900E+01
29	  0.025611224	-7.257000E+00	  0.025611224	1.478250E+02	  0.025611224	2.112100E+01	  0.025611224	1.201300E+01
30	  0.025811624	-7.257000E+00	  0.025811624	1.475770E+02	  0.025811624	2.114400E+01	  0.025811624	1.210800E+01
31	  0.026012026	-7.259000E+00	  0.026012026	1.473280E+02	  0.026012026	2.117000E+01	  0.026012026	1.220200E+01
32	  0.026212426	-7.259000E+00	  0.026212426	1.470930E+02	  0.026212426	2.119100E+01	  0.026212426	1.229300E+01
33	  0.026412826	-7.261000E+00	  0.026412826	1.468460E+02	  0.026412826	2.121800E+01	  0.026412826	1.238700E+01
34	  0.026613226	-7.257000E+00	  0.026613226	1.465770E+02	  0.026613226	2.123400E+01	  0.026613226	1.249200E+01
35	  0.026813626	-7.259000E+00	  0.026813626	1.463460E+02	  0.026813626	2.125900E+01	  0.026813626	1.258000E+01
36	  0.027014028	-7.260000E+00	  0.027014028	1.460900E+02	  0.027014028	2.128700E+01	  0.027014028	1.267800E+01
37	  0.027214428	-7.259000E+00	  0.027214428	1.458400E+02	  0.027214428	2.130800E+01	  0.027214428	1.277500E+01
38	  0.027414829	-7.262000E+00	  0.027414829	1.455880E+02	  0.027414829	2.133900E+01	  0.027414829	1.287000E+01
39	  0.027615231	-7.261000E+00	  0.027615231	1.453530E+02	  0.027615231	2.136000E+01	  0.027615231	1.296200E+01
40	  0.027815631	-7.261000E+00	  0.027815631	1.451060E+02	  0.027815631	2.138300E+01	  0.027815631	1.305700E+01
41	  0.028016033	-7.260000E+00	  0.028016033	1.448610E+02	  0.028016033	2.140600E+01	  0.028016033	1.315200E+01
42	  0.028216433	-7.260000E+00	  0.028216433	1.446040E+02	  0.028216433	2.142900E+01	  0.028216433	1.325200E+01
43	  0.028416833	-7.261000E+00	  0.028416833	1.443680E+02	  0.028416833	2.145800E+01	  0.028416833	1.334200E+01
44	  0.028617235	-7.264000E+00	  0.028617235	1.441200E+02	  0.028617235	2.148800E+01	  0.028617235	1.343700E+01
45	  0.028817635	-7.263000E+00	  0.028817635	1.438700E+02	  0.028817635	2.151100E+01	  0.028817635	1.353400E+01
46	  0.029018037	-7.261000E+00	  0.029018037	1.436170E+02	  0.029018037	2.153300E+01	  0.029018037	1.363400E+01
47	  0.029218437	-7.263000E+00	  0.029218437	1.433630E+02	  0.029218437	2.156300E+01	  0.029218437	1.373100E+01
48	  0.029418837	-7.263000E+00	  0.029418837	1.431210E+02	  0.029418837	2.158800E+01	  0.029418837	1.382500E+01
49	  0.029619239	-7.262000E+00	  0.029619239	1.428720E+02	  0.029619239	2.161300E+01	  0.029619239	1.392200E+01
50	  0.029819639	-7.262000E+00	  0.029819639	1.426310E+02	  0.029819639	2.163800E+01	  0.029819639	1.401500E+01
51	  0.030020041	-7.263000E+00	  0.030020041	1.423840E+02	  0.030020041	2.166600E+01	  0.030020041	1.411100E+01
52	  0.030220442	-7.262000E+00	  0.030220442	1.421210E+02	  0.030220442	2.169200E+01	  0.030220442	1.421400E+01
53	  0.030420844	-7.264000E+00	  0.030420844	1.418780E+02	  0.030420844	2.172300E+01	  0.030420844	1.430700E+01
54	  0.030621244	-7.261000E+00	  0.030621244	1.416150E+02	  0.030621244	2.174400E+01	  0.030621244	1.441200E+01
55	  0.030821644	-7.263000E+00	  0.030821644	1.413740E+02	  0.030821644	2.177700E+01	  0.030821644	1.450400E+01
56	  0.031022044	-7.263000E+00	  0.031022044	1.411240E+02	  0.031022044	2.180400E+01	  0.031022044	1.460200E+01
57	  0.031222444	-7.245000E+00	  0.031222444	1.409570E+02	  0.031222444	2.177700E+01	  0.031222444	1.468100E+01
58	  0.031422846	-7.245000E+00	  0.031422846	1.407170E+02	  0.031422846	2.180400E+01	  0.031422846	1.477400E+01
59	  0.031623244	-7.248000E+00	  0.031623244	1.404690E+02	  0.031623244	2.183900E+01	  0.031623244	1.487000E+01
60	  0.031823646	-7.246000E+00	  0.031823646	1.402260E+02	  0.031823646	2.186200E+01	  0.031823646	1.496600E+01
61	  0.032024048	-7.250000E+00	  0.032024048	1.399720E+02	  0.032024048	2.190100E+01	  0.032024048	1.506300E+01
62	  0.032224450	-7.249000E+00	  0.032224450	1.397180E+02	  0.032224450	2.192700E+01	  0.032224450	1.516300E+01
63	  0.032424849	-7.249000E+00	  0.032424849	1.394780E+02	  0.032424849	2.195500E+01	  0.032424849	1.525800E+01
64	  0.032625251	-7.248000E+00	  0.032625251	1.392150E+02	  0.032625251	2.198400E+01	  0.032625251	1.536200E+01
65	  0.032825653	-7.249000E+00	  0.032825653	1.389770E+02	  0.032825653	2.201400E+01	  0.032825653	1.545500E+01
66	  0.033026051	-7.249000E+00	  0.033026051	1.387210E+02	  0.033026051	2.204500E+01	  0.033026051	1.555500E+01
67	  0.033226453	-7.250000E+00	  0.033226453	1.384600E+02	  0.033226453	2.208000E+01	  0.033226453	1.565700E+01
68	  0.033426855	-7.248000E+00	  0.033426855	1.382200E+02	  0.033426855	2.210400E+01	  0.033426855	1.575300E+01
69	  0.033627257	-7.250000E+00	  0.033627257	1.379850E+02	  0.033627257	2.213600E+01	  0.033627257	1.584500E+01
70	  0.033827655	-7.250000E+00	  0.033827655	1.377270E+02	  0.033827655	2.216800E+01	  0.033827655	1.594600E+01
71	  0.034028057	-7.249000E+00	  0.034028057	1.374750E+02	  0.034028057	2.219800E+01	  0.034028057	1.604600E+01
72	  0.034228459	-7.249000E+00	  0.034228459	1.372340E+02	  0.034228459	2.222700E+01	  0.034228459	1.614200E+01
73	  0.034428857	-7.250000E+00	  0.034428857	1.369890E+02	  0.034428857	2.226100E+01	  0.034428857	1.623800E+01
74	  0.034629259	-7.250000E+00	  0.034629259	1.367350E+02	  0.034629259	2.229300E+01	  0.034629259	1.633900E+01
75	  0.034829661	-7.250000E+00	  0.034829661	1.364960E+02	  0.034829661	2.232300E+01	  0.034829661	1.643300E+01
76	  0.035030060	-7.251000E+00	  0.035030060	1.362400E+02	  0.035030060	2.235800E+01	  0.035030060	1.653400E+01
77	  0.035230462	-7.252000E+00	  0.035230462	1.360080E+02	  0.035230462	2.239200E+01	  0.035230462	1.662500E+01
78	  0.035430863	-7.249000E+00	  0.035430863	1.357650E+02	  0.035430863	2.241700E+01	  0.035430863	1.672400E+01
79	  0.035631265	-7.250000E+00	  0.035631265	1.355100E+02	  0.035631265	2.245100E+01	  0.035631265	1.682500E+01
80	  0.035831664	-7.248000E+00	  0.035831664	1.352570E+02	  0.035831664	2.248000E+01	  0.035831664	1.692700E+01
81	  0.036032066	-7.248000E+00	  0.036032066	1.350240E+02	  0.036032066	2.251200E+01	  0.036032066	1.702000E+01
82	  0.036232468	-7.249000E+00	  0.036232468	1.347700E+02	  0.036232468	2.254800E+01	  0.036232468	1.712000E+01
83	  0.036432866	-7.247000E+00	  0.036432866	1.345360E+02	  0.036432866	2.257300E+01	  0.036432866	1.721600E+01
84	  0.036633268	-7.249000E+00	  0.036633268	1.342920E+02	  0.036633268	2.261300E+01	  0.036633268	1.731100E+01
85	  0.036833670	-7.247000E+00	  0.036833670	1.340550E+02	  0.036833670	2.264000E+01	  0.036833670	1.740800E+01
86	  0.037034072	-7.250000E+00	  0.037034072	1.338070E+02	  0.037034072	2.268100E+01	  0.037034072	1.750500E+01
87	  0.037234470	-7.247000E+00	  0.037234470	1.335670E+02	  0.037234470	2.270700E+01	  0.037234470	1.760300E+01
88	  0.037434869	-7.246000E+00	  0.037434869	1.333160E+02	  0.037434869	2.274000E+01	  0.037434869	1.770400E+01
89	  0.037635271	-7.245000E+00	  0.037635271	1.330870E+02	  0.037635271	2.277000E+01	  0.037635271	1.779700E+01
90	  0.037835669	-7.247000E+00	  0.037835669	1.328250E+02	  0.037835669	2.281300E+01	  0.037835669	1.790000E+01
91	  0.038036071	-7.246000E+00	  0.038036071	1.325910E+02	  0.038036071	2.284400E+01	  0.038036071	1.799500E+01
92	  0.038236473	-7.244000E+00	  0.038236473	1.323350E+02	  0.038236473	2.287500E+01	  0.038236473	1.810000E+01
93	  0.038436871	-7.246000E+00	  0.038436871	1.321050E+02	  0.038436871	2.291300E+01	  0.038436871	1.819100E+01
94	  0.038637273	-7.244000E+00	  0.038637273	1.318420E+02	  0.038637273	2.294700E+01	  0.038637273	1.829900E+01
95	  0.038837675	-7.245000E+00	  0.038837675	1.316060E+02	  0.038837675	2.298400E+01	  0.038837675	1.839300E+01
96	  0.039038073	-7.244000E+00	  0.039038073	1.313690E+02	  0.039038073	2.301600E+01	  0.039038073	1.848900E+01
97	  0.039238475	-7.243000E+00	  0.039238475	1.311250E+02	  0.039238475	2.305000E+01	  0.039238475	1.858900E+01
98	  0.039438877	-7.244000E+00	  0.039438877	1.308870E+02	  0.039438877	2.308700E+01	  0.039438877	1.868500E+01
99	  0.039639279	-7.244000E+00	  0.039639279	1.306300E+02	  0.039639279	2.312700E+01	  0.039639279	1.878800E+01
100	  0.039839678	-7.242000E+00	  0.039839678	1.304070E+02	  0.039839678	2.315400E+01	  0.039839678	1.888100E+01
101	  0.040040080	-7.244000E+00	  0.040040080	1.301430E+02	  0.040040080	2.320000E+01	  0.040040080	1.898600E+01
102	  0.040240481	-7.243000E+00	  0.040240481	1.298940E+02	  0.040240481	2.323600E+01	  0.040240481	1.908800E+01
103	  0.040440880	-7.240000E+00	  0.040440880	1.296570E+02	  0.040440880	2.326700E+01	  0.040440880	1.918600E+01
104	  0.040641282	-7.242000E+00	  0.040641282	1.294210E+02	  0.040641282	2.330800E+01	  0.040641282	1.928100E+01
105	  0.040841684	-7.242000E+00	  0.040841684	1.291810E+02	  0.040841684	2.334600E+01	  0.040841684	1.937800E+01
106	  0.041042086	-7.238000E+00	  0.041042086	1.289310E+02	  0.041042086	2.337500E+01	  0.041042086	1.948300E+01
107	  0.041242484	-7.240000E+00	  0.041242484	1.286940E+02	  0.041242484	2.341800E+01	  0.041242484	1.957800E+01
108	  0.041442886	-7.241000E+00	  0.041442886	1.284460E+02	  0.041442886	2.346000E+01	  0.041442886	1.967800E+01
109	  0.041643288	-7.239000E+00	  0.041643288	1.282060E+02	  0.041643288	2.349500E+01	  0.041643288	1.977800E+01
110	  0.041843686	-7.239000E+00	  0.041843686	1.279600E+02	  0.041843686	2.353400E+01	  0.041843686	1.987900E+01
111	  0.042044088	-7.239000E+00	  0.042044088	1.277290E+02	  0.042044088	2.357000E+01	  0.042044088	1.997400E+01
112	  0.042244490	-7.237000E+00	  0.042244490	1.274630E+02	  0.042244490	2.361100E+01	  0.042244490	2.008400E+01
113	  0.042444889	-7.239000E+00	  0.042444889	1.272310E+02	  0.042444889	2.365500E+01	  0.042444889	2.017700E+01
114	  0.042645290	-7.241000E+00	  0.042645290	1.269980E+02	  0.042645290	2.369700E+01	  0.042645290	2.027100E+01
115	  0.042845692	-7.239000E+00	  0.042845692	1.267500E+02	  0.042845692	2.373400E+01	  0.042845692	2.037500E+01
116	  0.043046094	-7.239000E+00	  0.043046094	1.265090E+02	  0.043046094	2.377500E+01	  0.043046094	2.047400E+01
117	  0.043246493	-7.240000E+00	  0.043246493	1.262380E+02	  0.043246493	2.382600E+01	  0.043246493	2.058300E+01
118	  0.043446895	-7.238000E+00	  0.043446895	1.260080E+02	  0.043446895	2.385800E+01	  0.043446895	2.068100E+01
119	  0.043647297	-7.239000E+00	  0.043647297	1.257650E+02	  0.043647297	2.390400E+01	  0.043647297	2.077900E+01
120	  0.043847695	-7.237000E+00	  0.043847695	1.255220E+02	  0.043847695	2.394000E+01	  0.043847695	2.088200E+01
121	  0.044048097	-7.238000E+00	  0.044048097	1.252770E+02	  0.044048097	2.398500E+01	  0.044048097	2.098200E+01
122	  0.044248499	-7.238000E+00	  0.044248499	1.250190E+02	  0.044248499	2.403000E+01	  0.044248499	2.108900E+01
123	  0.044448901	-7.236000E+00	  0.044448901	1.247740E+02	  0.044448901	2.406900E+01	  0.044448901	2.119200E+01
124	  0.044649299	-7.237000E+00	  0.044649299	1.245430E+02	  0.044649299	2.411200E+01	  0.044649299	2.128700E+01
125	  0.044849701	-7.237000E+00	  0.044849701	1.242960E+02	  0.044849701	2.415600E+01	  0.044849701	2.138900E+01
126	  0.045050103	-7.237000E+00	  0.045050103	1.240430E+02	  0.045050103	2.420300E+01	  0.045050103	2.149400E+01
127	  0.045250501	-7.235000E+00	  0.045250501	1.237920E+02	  0.045250501	2.424500E+01	  0.045250501	2.160000E+01
128	  0.045450903	-7.238000E+00	  0.045450903	1.235570E+02	  0.045450903	2.429400E+01	  0.045450903	2.169500E+01
129	  0.045651305	-7.238000E+00	  0.045651305	1.233060E+02	  0.045651305	2.434000E+01	  0.045651305	2.179900E+01
130	  0.045851704	-7.236000E+00	  0.045851704	1.230620E+02	  0.045851704	2.438200E+01	  0.045851704	2.190200E+01
131	  0.046052106	-7.236000E+00	  0.046052106	1.228160E+02	  0.046052106	2.442800E+01	  0.046052106	2.200500E+01
132	  0.046252504	-7.235000E+00	  0.046252504	1.225610E+02	  0.046252504	2.447400E+01	  0.046252504	2.211200E+01
133	  0.046452906	-7.234000E+00	  0.046452906	1.223300E+02	  0.046452906	2.451400E+01	  0.046452906	2.221000E+01
134	  0.046653304	-7.232000E+00	  0.046653304	1.220720E+02	  0.046653304	2.455800E+01	  0.046653304	2.232000E+01
135	  0.046853706	-7.234000E+00	  0.046853706	1.218350E+02	  0.046853706	2.460800E+01	  0.046853706	2.241700E+01
136	  0.047054108	-7.232000E+00	  0.047054108	1.215790E+02	  0.047054108	2.465200E+01	  0.047054108	2.252700E+01
137	  0.047254506	-7.232000E+00	  0.047254506	1.213580E+02	  0.047254506	2.469500E+01	  0.047254506	2.262000E+01
138	  0.047454908	-7.231000E+00	  0.047454908	1.210940E+02	  0.047454908	2.474500E+01	  0.047454908	2.273100E+01
139	  0.047655310	-7.232000E+00	  0.047655310	1.208580E+02	  0.047655310	2.479200E+01	  0.047655310	2.282900E+01
140	  0.047855709	-7.232000E+00	  0.047855709	1.206070E+02	  0.047855709	2.484300E+01	  0.047855709	2.293500E+01
141	  0.048056111	-7.232000E+00	  0.048056111	1.203630E+02	  0.048056111	2.489000E+01	  0.048056111	2.303800E+01
142	  0.048256513	-7.231000E+00	  0.048256513	1.201220E+02	  0.048256513	2.493700E+01	  0.048256513	2.314000E+01
143	  0.048456915	-7.230000E+00	  0.048456915	1.198770E+02	  0.048456915	2.498400E+01	  0.048456915	2.324500E+01
144	  0.048657313	-7.228000E+00	  0.048657313	1.196400E+02	  0.048657313	2.502800E+01	  0.048657313	2.334700E+01
145	  0.048857715	-7.228000E+00	  0.048857715	1.193870E+02	  0.048857715	2.507800E+01	  0.048857715	2.345400E+01
146	  0.049058117	-7.228000E+00	  0.049058117	1.191420E+02	  0.049058117	2.512700E+01	  0.049058117	2.355900E+01
147	  0.049258515	-7.228000E+00	  0.049258515	1.189200E+02	  0.049258515	2.517500E+01	  0.049258515	2.365200E+01
148	  0.049458917	-7.226000E+00	  0.049458917	1.186650E+02	  0.049458917	2.522200E+01	  0.049458917	2.376300E+01
149	  0.049659319	-7.226000E+00	  0.049659319	1.183950E+02	  0.049659319	2.528000E+01	  0.049659319	2.387600E+01
150	  0.049859721	-7.226000E+00	  0.049859721	1.181670E+02	  0.049859721	2.532800E+01	  0.049859721	2.397400E+01
151	  0.050060119	-7.228000E+00	  0.050060119	1.179380E+02	  0.050060119	2.538000E+01	  0.050060119	2.406900E+01
152	  0.050260521	-7.227000E+00	  0.050260521	1.176910E+02	  0.050260521	2.543200E+01	  0.050260521	2.417500E+01
153	  0.050460923	-7.226000E+00	  0.050460923	1.174490E+02	  0.050460923	2.548000E+01	  0.050460923	2.428000E+01
154	  0.050661322	-7.224000E+00	  0.050661322	1.171970E+02	  0.050661322	2.552900E+01	  0.050661322	2.439000E+01
155	  0.050861724	-7.223000E+00	  0.050861724	1.169390E+02	  0.050861724	2.558400E+01	  0.050861724	2.450000E+01
156	  0.051062126	-7.225000E+00	  0.051062126	1.167220E+02	  0.051062126	2.563600E+01	  0.051062126	2.459100E+01
157	  0.051262524	-7.224000E+00	  0.051262524	1.164650E+02	  0.051262524	2.569100E+01	  0.051262524	2.470200E+01
158	  0.051462926	-7.223000E+00	  0.051462926	1.162330E+02	  0.051462926	2.573900E+01	  0.051462926	2.480300E+01
159	  0.051663328	-7.223000E+00	  0.051663328	1.159770E+02	  0.051663328	2.579500E+01	  0.051663328	2.491300E+01
160	  0.051863730	-7.221000E+00	  0.051863730	1.157350E+02	  0.051863730	2.584600E+01	  0.051863730	2.501900E+01
161	  0.052064128	-7.221000E+00	  0.052064128	1.155070E+02	  0.052064128	2.589600E+01	  0.052064128	2.511700E+01
162	  0.052264530	-7.222000E+00	  0.052264530	1.152630E+02	  0.052264530	2.595400E+01	  0.052264530	2.522100E+01
163	  0.052464932	-7.221000E+00	  0.052464932	1.150110E+02	  0.052464932	2.600900E+01	  0.052464932	2.533100E+01
164	  0.052665330	-7.221000E+00	  0.052665330	1.147760E+02	  0.052665330	2.606300E+01	  0.052665330	2.543200E+01
165	  0.052865732	-7.222000E+00	  0.052865732	1.145300E+02	  0.052865732	2.612300E+01	  0.052865732	2.553700E+01
166	  0.053066134	-7.217000E+00	  0.053066134	1.143040E+02	  0.053066134	2.616200E+01	  0.053066134	2.564200E+01
167	  0.053266536	-7.217000E+00	  0.053266536	1.140460E+02	  0.053266536	2.622300E+01	  0.053266536	2.575200E+01
168	  0.053466935	-7.218000E+00	  0.053466935	1.138110E+02	  0.053466935	2.628100E+01	  0.053466935	2.585300E+01
169	  0.053667337	-7.216000E+00	  0.053667337	1.135660E+02	  0.053667337	2.633300E+01	  0.053667337	2.596200E+01
170	  0.053867739	-7.213000E+00	  0.053867739	1.133450E+02	  0.053867739	2.637900E+01	  0.053867739	2.606200E+01
171	  0.054068137	-7.213000E+00	  0.054068137	1.130890E+02	  0.054068137	2.644200E+01	  0.054068137	2.617200E+01
172	  0.054268539	-7.210000E+00	  0.054268539	1.128510E+02	  0.054268539	2.649100E+01	  0.054268539	2.628000E+01
173	  0.054468941	-7.212000E+00	  0.054468941	1.126150E+02	  0.054468941	2.655200E+01	  0.054468941	2.638100E+01
174	  0.054669339	-7.209000E+00	  0.054669339	1.123740E+02	  0.054669339	2.660300E+01	  0.054669339	2.649000E+01
175	  0.054869737	-7.212000E+00	  0.054869737	1.121250E+02	  0.054869737	2.667300E+01	  0.054869737	2.659400E+01
176	  0.055070139	-7.212000E+00	  0.055070139	1.118940E+02	  0.055070139	2.673000E+01	  0.055070139	2.669500E+01
177	  0.055270538	-7.209000E+00	  0.055270538	1.116510E+02	  0.055270538	2.678200E+01	  0.055270538	2.680500E+01
178	  0.055470940	-7.208000E+00	  0.055470940	1.114090E+02	  0.055470940	2.683900E+01	  0.055470940	2.691300E+01
179	  0.055671342	-7.209000E+00	  0.055671342	1.111620E+02	  0.055671342	2.690600E+01	  0.055671342	2.701900E+01
180	  0.055871744	-7.205000E+00	  0.055871744	1.109230E+02	  0.055871744	2.695500E+01	  0.055871744	2.713000E+01
181	  0.056072142	-7.205000E+00	  0.056072142	1.106930E+02	  0.056072142	2.701400E+01	  0.056072142	2.723100E+01
182	  0.056272544	-7.207000E+00	  0.056272544	1.104330E+02	  0.056272544	2.708700E+01	  0.056272544	2.734200E+01
183	  0.056472946	-7.206000E+00	  0.056472946	1.102010E+02	  0.056472946	2.714300E+01	  0.056472946	2.744600E+01
184	  0.056673344	-7.203000E+00	  0.056673344	1.099530E+02	  0.056673344	2.720100E+01	  0.056673344	2.755900E+01
185	  0.056873746	-7.203000E+00	  0.056873746	1.097150E+02	  0.056873746	2.726300E+01	  0.056873746	2.766400E+01
186	  0.057074148	-7.204000E+00	  0.057074148	1.094750E+02	  0.057074148	2.733000E+01	  0.057074148	2.776700E+01
187	  0.057274550	-7.205000E+00	  0.057274550	1.092500E+02	  0.057274550	2.739200E+01	  0.057274550	2.786600E+01
188	  0.057474948	-7.204000E+00	  0.057474948	1.089890E+02	  0.057474948	2.745800E+01	  0.057474948	2.798300E+01
189	  0.057675350	-7.201000E+00	  0.057675350	1.087480E+02	  0.057675350	2.751500E+01	  0.057675350	2.809400E+01
190	  0.057875752	-7.200000E+00	  0.057875752	1.085230E+02	  0.057875752	2.757400E+01	  0.057875752	2.819500E+01
191	  0.058076151	-7.199000E+00	  0.058076151	1.082700E+02	  0.058076151	2.763900E+01	  0.058076151	2.830900E+01
192	  0.058276553	-7.200000E+00	  0.058276553	1.080140E+02	  0.058276553	2.771200E+01	  0.058276553	2.842000E+01
193	  0.058476955	-7.201000E+00	  0.058476955	1.077870E+02	  0.058476955	2.777700E+01	  0.058476955	2.852000E+01
194	  0.058677353	-7.199000E+00	  0.058677353	1.075430E+02	  0.058677353	2.783800E+01	  0.058677353	2.863300E+01
195	  0.058877755	-7.197000E+00	  0.058877755	1.073110E+02	  0.058877755	2.790000E+01	  0.058877755	2.873800E+01
196	  0.059078157	-7.200000E+00	  0.059078157	1.070600E+02	  0.059078157	2.797900E+01	  0.059078157	2.884400E+01
197	  0.059278559	-7.197000E+00	  0.059278559	1.068200E+02	  0.059278559	2.803500E+01	  0.059278559	2.895800E+01
198	  0.059478957	-7.196000E+00	  0.059478957	1.065730E+02	  0.059478957	2.810400E+01	  0.059478957	2.906800E+01
199	  0.059679359	-7.195000E+00	  0.059679359	1.063400E+02	  0.059679359	2.816800E+01	  0.059679359	2.917400E+01
200	  0.059879761	-7.196000E+00	  0.059879761	1.061000E+02	  0.059879761	2.823800E+01	  0.059879761	2.928100E+01
201	  0.060080159	-7.196000E+00	  0.060080159	1.058530E+02	  0.060080159	2.831200E+01	  0.060080159	2.939000E+01
202	  0.060280561	-7.195000E+00	  0.060280561	1.056060E+02	  0.060280561	2.838000E+01	  0.060280561	2.950300E+01
203	  0.060480963	-7.193000E+00	  0.060480963	1.053710E+02	  0.060480963	2.844300E+01	  0.060480963	2.961200E+01
204	  0.060681365	-7.194000E+00	  0.060681365	1.051190E+02	  0.060681365	2.852000E+01	  0.060681365	2.972300E+01
205	  0.060881764	-7.190000E+00	  0.060881764	1.048930E+02	  0.060881764	2.857600E+01	  0.060881764	2.983200E+01
206	  0.061082166	-7.193000E+00	  0.061082166	1.046490E+02	  0.061082166	2.865600E+01	  0.061082166	2.993700E+01
207	  0.061282568	-7.189000E+00	  0.061282568	1.044150E+02	  0.061282568	2.871500E+01	  0.061282568	3.004900E+01
208	  0.061482966	-7.188000E+00	  0.061482966	1.041820E+02	  0.061482966	2.878400E+01	  0.061482966	3.015600E+01
209	  0.061683368	-7.189000E+00	  0.061683368	1.039340E+02	  0.061683368	2.886000E+01	  0.061683368	3.026700E+01
210	  0.061883770	-7.186000E+00	  0.061883770	1.036950E+02	  0.061883770	2.892600E+01	  0.061883770	3.037900E+01
211	  0.062084168	-7.189000E+00	  0.062084168	1.034530E+02	  0.062084168	2.900900E+01	  0.062084168	3.048300E+01
212	  0.062284570	-7.188000E+00	  0.062284570	1.032200E+02	  0.062284570	2.907900E+01	  0.062284570	3.058900E+01
213	  0.062484972	-7.172000E+00	  0.062484972	1.030750E+02	  0.062484972	2.907500E+01	  0.062484972	3.068900E+01
214	  0.062685370	-7.170000E+00	  0.062685370	1.028220E+02	  0.062685370	2.915000E+01	  0.062685370	3.080600E+01
215	  0.062885776	-7.172000E+00	  0.062885776	1.025820E+02	  0.062885776	2.923100E+01	  0.062885776	3.091100E+01
216	  0.063086174	-7.171000E+00	  0.063086174	1.023230E+02	  0.063086174	2.930800E+01	  0.063086174	3.103200E+01
217	  0.063286573	-7.169000E+00	  0.063286573	1.021110E+02	  0.063286573	2.937000E+01	  0.063286573	3.113300E+01
218	  0.063486971	-7.165000E+00	  0.063486971	1.018530E+02	  0.063486971	2.944200E+01	  0.063486971	3.125700E+01
219	  0.063687377	-7.159000E+00	  0.063687377	1.016210E+02	  0.063687377	2.949900E+01	  0.063687377	3.137600E+01
220	  0.063887775	-7.160000E+00	  0.063887775	1.014220E+02	  0.063887775	2.956600E+01	  0.063887775	3.146500E+01
221	  0.064088173	-7.160000E+00	  0.064088173	1.011670E+02	  0.064088173	2.964700E+01	  0.064088173	3.158300E+01
222	  0.064288579	-7.161000E+00	  0.064288579	1.009300E+02	  0.064288579	2.972800E+01	  0.064288579	3.168900E+01
223	  0.064488977	-7.159000E+00	  0.064488977	1.006680E+02	  0.064488977	2.981000E+01	  0.064488977	3.181300E+01
224	  0.064689375	-7.157000E+00	  0.064689375	1.004300E+02	  0.064689375	2.988300E+01	  0.064689375	3.192500E+01
225	  0.064889781	-7.159000E+00	  0.064889781	1.001960E+02	  0.064889781	2.996800E+01	  0.064889781	3.202800E+01
226	  0.065090179	-7.156000E+00	  0.065090179	9.995100E+01	  0.065090179	3.003800E+01	  0.065090179	3.214900E+01
227	  0.065290578	-7.154000E+00	  0.065290578	9.971600E+01	  0.065290578	3.011200E+01	  0.065290578	3.226200E+01
228	  0.065490983	-7.150000E+00	  0.065490983	9.946200E+01	  0.065490983	3.018800E+01	  0.065490983	3.238600E+01
229	  0.065691382	-7.151000E+00	  0.065691382	9.922600E+01	  0.065691382	3.027000E+01	  0.065691382	3.249400E+01
230	  0.065891780	-7.152000E+00	  0.065891780	9.899800E+01	  0.065891780	3.035300E+01	  0.065891780	3.259500E+01
231	  0.066092186	-7.150000E+00	  0.066092186	9.877000E+01	  0.066092186	3.042700E+01	  0.066092186	3.270500E+01
232	  0.066292584	-7.149000E+00	  0.066292584	9.850300E+01	  0.066292584	3.051700E+01	  0.066292584	3.283000E+01
233	  0.066492982	-7.148000E+00	  0.066492982	9.828900E+01	  0.066492982	3.058700E+01	  0.066492982	3.293200E+01
234	  0.066693388	-7.147000E+00	  0.066693388	9.804000E+01	  0.066693388	3.067300E+01	  0.066693388	3.304900E+01
235	  0.066893786	-7.143000E+00	  0.066893786	9.781500E+01	  0.066893786	3.074100E+01	  0.066893786	3.316300E+01
236	  0.067094192	-7.143000E+00	  0.067094192	9.756900E+01	  0.067094192	3.082900E+01	  0.067094192	3.327600E+01
237	  0.067294590	-7.141000E+00	  0.067294590	9.732000E+01	  0.067294590	3.091000E+01	  0.067294590	3.339800E+01
238	  0.067494988	-7.142000E+00	  0.067494988	9.706600E+01	  0.067494988	3.100700E+01	  0.067494988	3.351200E+01
239	  0.067695394	-7.142000E+00	  0.067695394	9.685900E+01	  0.067695394	3.108000E+01	  0.067695394	3.361000E+01
240	  0.067895792	-7.142000E+00	  0.067895792	9.661000E+01	  0.067895792	3.117200E+01	  0.067895792	3.372500E+01
241	  0.068096191	-7.136000E+00	  0.068096191	9.636600E+01	  0.068096191	3.124400E+01	  0.068096191	3.385300E+01
242	  0.068296596	-7.139000E+00	  0.068296596	9.615800E+01	  0.068296596	3.132900E+01	  0.068296596	3.394300E+01
243	  0.068496995	-7.137000E+00	  0.068496995	9.588700E+01	  0.068496995	3.142400E+01	  0.068496995	3.407500E+01
244	  0.068697393	-7.136000E+00	  0.068697393	9.566900E+01	  0.068697393	3.150300E+01	  0.068697393	3.417800E+01
245	  0.068897791	-7.134000E+00	  0.068897791	9.543200E+01	  0.068897791	3.158600E+01	  0.068897791	3.429400E+01
246	  0.069098189	-7.136000E+00	  0.069098189	9.518600E+01	  0.069098189	3.168600E+01	  0.069098189	3.440400E+01
247	  0.069298595	-7.132000E+00	  0.069298595	9.494900E+01	  0.069298595	3.176500E+01	  0.069298595	3.452400E+01
248	  0.069498993	-7.131000E+00	  0.069498993	9.470500E+01	  0.069498993	3.185600E+01	  0.069498993	3.464100E+01
249	  0.069699399	-7.131000E+00	  0.069699399	9.447600E+01	  0.069699399	3.194200E+01	  0.069699399	3.475000E+01
250	  0.069899797	-7.131000E+00	  0.069899797	9.424400E+01	  0.069899797	3.203200E+01	  0.069899797	3.485900E+01
251	  0.070100196	-7.130000E+00	  0.070100196	9.400400E+01	  0.070100196	3.212300E+01	  0.070100196	3.497400E+01
252	  0.070300601	-7.130000E+00	  0.070300601	9.377300E+01	  0.070300601	3.221500E+01	  0.070300601	3.508100E+01
253	  0.070501000	-7.126000E+00	  0.070501000	9.353400E+01	  0.070501000	3.229600E+01	  0.070501000	3.520600E+01
254	  0.070701398	-7.130000E+00	  0.070701398	9.330500E+01	  0.070701398	3.240000E+01	  0.070701398	3.530300E+01
255	  0.070901804	-7.128000E+00	  0.070901804	9.305300E+01	  0.070901804	3.249500E+01	  0.070901804	3.542700E+01
256	  0.071102202	-7.123000E+00	  0.071102202	9.282900E+01	  0.071102202	3.257100E+01	  0.071102202	3.554400E+01
257	  0.071302600	-7.121000E+00	  0.071302600	9.259700E+01	  0.071302600	3.265800E+01	  0.071302600	3.566000E+01
258	  0.071503006	-7.125000E+00	  0.071503006	9.236300E+01	  0.071503006	3.276600E+01	  0.071503006	3.575900E+01
259	  0.071703404	-7.122000E+00	  0.071703404	9.211900E+01	  0.071703404	3.285600E+01	  0.071703404	3.588300E+01
260	  0.071903802	-7.122000E+00	  0.071903802	9.187600E+01	  0.071903802	3.295700E+01	  0.071903802	3.599700E+01
261	  0.072104208	-7.122000E+00	  0.072104208	9.162700E+01	  0.072104208	3.305900E+01	  0.072104208	3.611700E+01
262	  0.072304606	-7.120000E+00	  0.072304606	9.140200E+01	  0.072304606	3.314800E+01	  0.072304606	3.622800E+01
263	  0.072505005	-7.117000E+00	  0.072505005	9.115700E+01	  0.072505005	3.324100E+01	  0.072505005	3.635200E+01
264	  0.072705410	-7.116000E+00	  0.072705410	9.091700E+01	  0.072705410	3.334100E+01	  0.072705410	3.646800E+01
265	  0.072905809	-7.116000E+00	  0.072905809	9.068800E+01	  0.072905809	3.343700E+01	  0.072905809	3.657700E+01
266	  0.073106214	-7.114000E+00	  0.073106214	9.043700E+01	  0.073106214	3.354000E+01	  0.073106214	3.670100E+01
267	  0.073306613	-7.115000E+00	  0.073306613	9.023500E+01	  0.073306613	3.363000E+01	  0.073306613	3.679500E+01
268	  0.073507011	-7.112000E+00	  0.073507011	8.999000E+01	  0.073507011	3.372700E+01	  0.073507011	3.691900E+01
269	  0.073707417	-7.110000E+00	  0.073707417	8.974100E+01	  0.073707417	3.382800E+01	  0.073707417	3.704400E+01
270	  0.073907815	-7.108000E+00	  0.073907815	8.949700E+01	  0.073907815	3.392900E+01	  0.073907815	3.716700E+01
271	  0.074108213	-7.112000E+00	  0.074108213	8.928300E+01	  0.074108213	3.403700E+01	  0.074108213	3.725600E+01
272	  0.074308619	-7.109000E+00	  0.074308619	8.903400E+01	  0.074308619	3.413700E+01	  0.074308619	3.738400E+01
273	  0.074509017	-7.106000E+00	  0.074509017	8.879000E+01	  0.074509017	3.423800E+01	  0.074509017	3.750900E+01
274	  0.074709415	-7.106000E+00	  0.074709415	8.855800E+01	  0.074709415	3.434100E+01	  0.074709415	3.762100E+01
275	  0.074909821	-7.108000E+00	  0.074909821	8.832900E+01	  0.074909821	3.445100E+01	  0.074909821	3.772400E+01
276	  0.075110219	-7.102000E+00	  0.075110219	8.809700E+01	  0.075110219	3.453900E+01	  0.075110219	3.785100E+01
277	  0.075310618	-7.105000E+00	  0.075310618	8.784700E+01	  0.075310618	3.466300E+01	  0.075310618	3.796200E+01
278	  0.075511023	-7.103000E+00	  0.075511023	8.763700E+01	  0.075511023	3.475200E+01	  0.075511023	3.807000E+01
279	  0.075711422	-7.103000E+00	  0.075711422	8.739200E+01	  0.075711422	3.486600E+01	  0.075711422	3.818700E+01
280	  0.075911827	-7.102000E+00	  0.075911827	8.717000E+01	  0.075911827	3.496600E+01	  0.075911827	3.829700E+01
281	  0.076112226	-7.099000E+00	  0.076112226	8.690900E+01	  0.076112226	3.507900E+01	  0.076112226	3.843000E+01
282	  0.076312624	-7.102000E+00	  0.076312624	8.667000E+01	  0.076312624	3.520000E+01	  0.076312624	3.853700E+01
283	  0.076513030	-7.100000E+00	  0.076513030	8.644200E+01	  0.076513030	3.530300E+01	  0.076513030	3.865100E+01
284	  0.076713428	-7.096000E+00	  0.076713428	8.619900E+01	  0.076713428	3.540700E+01	  0.076713428	3.878000E+01
285	  0.076913826	-7.097000E+00	  0.076913826	8.596400E+01	  0.076913826	3.552200E+01	  0.076913826	3.889100E+01
286	  0.077114232	-7.097000E+00	  0.077114232	8.571400E+01	  0.077114232	3.564300E+01	  0.077114232	3.901100E+01
287	  0.077314630	-7.096000E+00	  0.077314630	8.550400E+01	  0.077314630	3.574300E+01	  0.077314630	3.911400E+01
288	  0.077515028	-7.091000E+00	  0.077515028	8.526400E+01	  0.077515028	3.584500E+01	  0.077515028	3.924500E+01
289	  0.077715434	-7.094000E+00	  0.077715434	8.500400E+01	  0.077715434	3.598300E+01	  0.077715434	3.936000E+01
290	  0.077915832	-7.091000E+00	  0.077915832	8.478000E+01	  0.077915832	3.608500E+01	  0.077915832	3.947700E+01
291	  0.078116231	-7.088000E+00	  0.078116231	8.452900E+01	  0.078116231	3.619900E+01	  0.078116231	3.961000E+01
292	  0.078316636	-7.089000E+00	  0.078316636	8.430900E+01	  0.078316636	3.631200E+01	  0.078316636	3.971200E+01
293	  0.078517035	-7.090000E+00	  0.078517035	8.406600E+01	  0.078517035	3.644000E+01	  0.078517035	3.982400E+01
294	  0.078717433	-7.088000E+00	  0.078717433	8.382800E+01	  0.078717433	3.655400E+01	  0.078717433	3.994600E+01
295	  0.078917839	-7.087000E+00	  0.078917839	8.360800E+01	  0.078917839	3.666100E+01	  0.078917839	4.005700E+01
296	  0.079118237	-7.086000E+00	  0.079118237	8.338000E+01	  0.079118237	3.677600E+01	  0.079118237	4.017000E+01
297	  0.079318643	-7.085000E+00	  0.079318643	8.313200E+01	  0.079318643	3.690100E+01	  0.079318643	4.029300E+01
298	  0.079519041	-7.084000E+00	  0.079519041	8.290000E+01	  0.079519041	3.701800E+01	  0.079519041	4.040800E+01
299	  0.079719439	-7.080000E+00	  0.079719439	8.266800E+01	  0.079719439	3.712900E+01	  0.079719439	4.053200E+01
300	  0.079919845	-7.080000E+00	  0.079919845	8.239800E+01	  0.079919845	3.727100E+01	  0.079919845	4.066200E+01
301	  0.080120243	-7.081000E+00	  0.080120243	8.219500E+01	  0.080120243	3.738100E+01	  0.080120243	4.075900E+01
302	  0.080320641	-7.081000E+00	  0.080320641	8.193700E+01	  0.080320641	3.751700E+01	  0.080320641	4.088400E+01
303	  0.080521047	-7.078000E+00	  0.080521047	8.171900E+01	  0.080521047	3.762600E+01	  0.080521047	4.099800E+01
304	  0.080721445	-7.078000E+00	  0.080721445	8.148200E+01	  0.080721445	3.775400E+01	  0.080721445	4.111300E+01
305	  0.080921844	-7.077000E+00	  0.080921844	8.125300E+01	  0.080921844	3.787700E+01	  0.080921844	4.122600E+01
306	  0.081122249	-7.076000E+00	  0.081122249	8.101300E+01	  0.081122249	3.800500E+01	  0.081122249	4.134500E+01
307	  0.081322648	-7.075000E+00	  0.081322648	8.076800E+01	  0.081322648	3.813700E+01	  0.081322648	4.146600E+01
308	  0.081523046	-7.073000E+00	  0.081523046	8.052200E+01	  0.081523046	3.826600E+01	  0.081523046	4.159300E+01
309	  0.081723452	-7.074000E+00	  0.081723452	8.030400E+01	  0.081723452	3.838900E+01	  0.081723452	4.169600E+01
310	  0.081923850	-7.071000E+00	  0.081923850	8.007700E+01	  0.081923850	3.850800E+01	  0.081923850	4.181600E+01
311	  0.082124248	-7.073000E+00	  0.082124248	7.984000E+01	  0.082124248	3.864600E+01	  0.082124248	4.192500E+01
312	  0.082324654	-7.072000E+00	  0.082324654	7.959400E+01	  0.082324654	3.878200E+01	  0.082324654	4.204700E+01
313	  0.082525052	-7.071000E+00	  0.082525052	7.937000E+01	  0.082525052	3.891000E+01	  0.082525052	4.215600E+01
314	  0.082725458	-7.068000E+00	  0.082725458	7.912300E+01	  0.082725458	3.904200E+01	  0.082725458	4.228700E+01
315	  0.082925856	-7.070000E+00	  0.082925856	7.888800E+01	  0.082925856	3.918200E+01	  0.082925856	4.239500E+01
316	  0.083126254	-7.066000E+00	  0.083126254	7.865300E+01	  0.083126254	3.930700E+01	  0.083126254	4.252200E+01
317	  0.083326660	-7.067000E+00	  0.083326660	7.843300E+01	  0.083326660	3.943700E+01	  0.083326660	4.262600E+01
318	  0.083527058	-7.066000E+00	  0.083527058	7.818300E+01	  0.083527058	3.958300E+01	  0.083527058	4.274800E+01
319	  0.083727457	-7.063000E+00	  0.083727457	7.796700E+01	  0.083727457	3.970300E+01	  0.083727457	4.286300E+01
320	  0.083927862	-7.062000E+00	  0.083927862	7.772700E+01	  0.083927862	3.984100E+01	  0.083927862	4.298400E+01
321	  0.084128261	-7.063000E+00	  0.084128261	7.749100E+01	  0.084128261	3.998700E+01	  0.084128261	4.309200E+01
322	  0.084328659	-7.062000E+00	  0.084328659	7.726600E+01	  0.084328659	4.011900E+01	  0.084328659	4.320500E+01
323	  0.084529065	-7.063000E+00	  0.084529065	7.701600E+01	  0.084529065	4.027200E+01	  0.084529065	4.332400E+01
324	  0.084729463	-7.057000E+00	  0.084729463	7.679600E+01	  0.084729463	4.039100E+01	  0.084729463	4.345100E+01
325	  0.084929861	-7.062000E+00	  0.084929861	7.655700E+01	  0.084929861	4.055000E+01	  0.084929861	4.354900E+01
326	  0.085130267	-7.061000E+00	  0.085130267	7.632900E+01	  0.085130267	4.068900E+01	  0.085130267	4.366200E+01
327	  0.085330658	-7.058000E+00	  0.085330658	7.609600E+01	  0.085330658	4.082500E+01	  0.085330658	4.378500E+01
328	  0.085531056	-7.059000E+00	  0.085531056	7.585100E+01	  0.085531056	4.098200E+01	  0.085531056	4.389700E+01
329	  0.085731462	-7.058000E+00	  0.085731462	7.561700E+01	  0.085731462	4.112600E+01	  0.085731462	4.401300E+01
330	  0.085931860	-7.057000E+00	  0.085931860	7.537800E+01	  0.085931860	4.127500E+01	  0.085931860	4.413200E+01
331	  0.086132258	-7.055000E+00	  0.086132258	7.515700E+01	  0.086132258	4.140900E+01	  0.086132258	4.424700E+01
332	  0.086332664	-7.056000E+00	  0.086332664	7.494300E+01	  0.086332664	4.154800E+01	  0.086332664	4.434600E+01
333	  0.086533062	-7.055000E+00	  0.086533062	7.469300E+01	  0.086533062	4.170600E+01	  0.086533062	4.447100E+01
334	  0.086733460	-7.053000E+00	  0.086733460	7.446200E+01	  0.086733460	4.185200E+01	  0.086733460	4.458600E+01
335	  0.086933866	-7.052000E+00	  0.086933866	7.423500E+01	  0.086933866	4.199400E+01	  0.086933866	4.470300E+01
336	  0.087134264	-7.052000E+00	  0.087134264	7.399000E+01	  0.087134264	4.215700E+01	  0.087134264	4.481800E+01
337	  0.087334670	-7.055000E+00	  0.087334670	7.377500E+01	  0.087334670	4.230700E+01	  0.087334670	4.490900E+01
338	  0.087535068	-7.053000E+00	  0.087535068	7.354300E+01	  0.087535068	4.245700E+01	  0.087535068	4.502600E+01
339	  0.087735467	-7.054000E+00	  0.087735467	7.330400E+01	  0.087735467	4.262100E+01	  0.087735467	4.513400E+01
340	  0.087935872	-7.052000E+00	  0.087935872	7.308200E+01	  0.087935872	4.276300E+01	  0.087935872	4.525100E+01
341	  0.088136271	-7.052000E+00	  0.088136271	7.283300E+01	  0.088136271	4.293200E+01	  0.088136271	4.536800E+01
342	  0.088336669	-7.052000E+00	  0.088336669	7.260300E+01	  0.088336669	4.309000E+01	  0.088336669	4.547600E+01
343	  0.088537075	-7.051000E+00	  0.088537075	7.236100E+01	  0.088537075	4.325300E+01	  0.088537075	4.559400E+01
344	  0.088737473	-7.049000E+00	  0.088737473	7.214100E+01	  0.088737473	4.339800E+01	  0.088737473	4.570900E+01
345	  0.088937871	-7.050000E+00	  0.088937871	7.190700E+01	  0.088937871	4.356300E+01	  0.088937871	4.581600E+01
346	  0.089138277	-7.050000E+00	  0.089138277	7.166600E+01	  0.089138277	4.373200E+01	  0.089138277	4.592700E+01
347	  0.089338675	-7.050000E+00	  0.089338675	7.144400E+01	  0.089338675	4.388600E+01	  0.089338675	4.603400E+01
348	  0.089539073	-7.051000E+00	  0.089539073	7.120500E+01	  0.089539073	4.405900E+01	  0.089539073	4.614100E+01
349	  0.089739479	-7.050000E+00	  0.089739479	7.096600E+01	  0.089739479	4.422600E+01	  0.089739479	4.625800E+01
350	  0.089939877	-7.051000E+00	  0.089939877	7.073200E+01	  0.089939877	4.439800E+01	  0.089939877	4.636100E+01
351	  0.090140276	-7.049000E+00	  0.090140276	7.049700E+01	  0.090140276	4.456200E+01	  0.090140276	4.647900E+01
352	  0.090340681	-7.048000E+00	  0.090340681	7.027000E+01	  0.090340681	4.472300E+01	  0.090340681	4.659100E+01
353	  0.090541080	-7.048000E+00	  0.090541080	7.003300E+01	  0.090541080	4.489400E+01	  0.090541080	4.670300E+01
354	  0.090741485	-7.049000E+00	  0.090741485	6.980400E+01	  0.090741485	4.506600E+01	  0.090741485	4.680400E+01
355	  0.090941884	-7.046000E+00	  0.090941884	6.957700E+01	  0.090941884	4.522400E+01	  0.090941884	4.692500E+01
356	  0.091142282	-7.047000E+00	  0.091142282	6.934200E+01	  0.091142282	4.540200E+01	  0.091142282	4.702800E+01
357	  0.091342688	-7.045000E+00	  0.091342688	6.910100E+01	  0.091342688	4.557700E+01	  0.091342688	4.714800E+01
358	  0.091543086	-7.046000E+00	  0.091543086	6.885300E+01	  0.091543086	4.576700E+01	  0.091543086	4.725600E+01
359	  0.091743484	-7.045000E+00	  0.091743484	6.861600E+01	  0.091743484	4.594300E+01	  0.091743484	4.737200E+01
360	  0.091943890	-7.044000E+00	  0.091943890	6.839000E+01	  0.091943890	4.611300E+01	  0.091943890	4.748100E+01
361	  0.092144288	-7.047000E+00	  0.092144288	6.816600E+01	  0.092144288	4.629100E+01	  0.092144288	4.757000E+01
362	  0.092344686	-7.041000E+00	  0.092344686	6.793900E+01	  0.092344686	4.645000E+01	  0.092344686	4.770200E+01
363	  0.092545092	-7.042000E+00	  0.092545092	6.769200E+01	  0.092545092	4.664300E+01	  0.092545092	4.781200E+01
364	  0.092745490	-7.042000E+00	  0.092745490	6.746000E+01	  0.092745490	4.682500E+01	  0.092745490	4.791500E+01
365	  0.092945889	-7.040000E+00	  0.092945889	6.722100E+01	  0.092945889	4.700600E+01	  0.092945889	4.803600E+01
366	  0.093146294	-7.037000E+00	  0.093146294	6.700900E+01	  0.093146294	4.716600E+01	  0.093146294	4.814600E+01
367	  0.093346693	-7.038000E+00	  0.093346693	6.676100E+01	  0.093346693	4.736600E+01	  0.093346693	4.825300E+01
368	  0.093547091	-7.036000E+00	  0.093547091	6.652500E+01	  0.093547091	4.754800E+01	  0.093547091	4.837200E+01
369	  0.093747497	-7.037000E+00	  0.093747497	6.628700E+01	  0.093747497	4.774400E+01	  0.093747497	4.846900E+01
370	  0.093947895	-7.037000E+00	  0.093947895	6.604200E+01	  0.093947895	4.794200E+01	  0.093947895	4.858100E+01
371	  0.094148301	-7.036000E+00	  0.094148301	6.583200E+01	  0.094148301	4.811200E+01	  0.094148301	4.867800E+01
372	  0.094348699	-7.033000E+00	  0.094348699	6.558000E+01	  0.094348699	4.831000E+01	  0.094348699	4.880600E+01
373	  0.094549097	-7.035000E+00	  0.094549097	6.536600E+01	  0.094549097	4.849100E+01	  0.094549097	4.889300E+01
374	  0.094749503	-7.035000E+00	  0.094749503	6.512000E+01	  0.094749503	4.869400E+01	  0.094749503	4.900200E+01
375	  0.094949901	-7.032000E+00	  0.094949901	6.489300E+01	  0.094949901	4.887700E+01	  0.094949901	4.911600E+01
376	  0.095150299	-7.031000E+00	  0.095150299	6.466100E+01	  0.095150299	4.906800E+01	  0.095150299	4.922600E+01
377	  0.095350705	-7.030000E+00	  0.095350705	6.442600E+01	  0.095350705	4.926400E+01	  0.095350705	4.933400E+01
378	  0.095551103	-7.030000E+00	  0.095551103	6.418400E+01	  0.095551103	4.946900E+01	  0.095551103	4.944300E+01
379	  0.095751502	-7.026000E+00	  0.095751502	6.395900E+01	  0.095751502	4.965200E+01	  0.095751502	4.955900E+01
380	  0.095951907	-7.027000E+00	  0.095951907	6.372100E+01	  0.095951907	4.985800E+01	  0.095951907	4.966000E+01
381	  0.096152306	-7.024000E+00	  0.096152306	6.350300E+01	  0.096152306	5.004000E+01	  0.096152306	4.976900E+01
382	  0.096352704	-7.024000E+00	  0.096352704	6.325100E+01	  0.096352704	5.025800E+01	  0.096352704	4.988000E+01
383	  0.096553110	-7.024000E+00	  0.096553110	6.303400E+01	  0.096553110	5.045000E+01	  0.096553110	4.997100E+01
384	  0.096753508	-7.023000E+00	  0.096753508	6.280500E+01	  0.096753508	5.064800E+01	  0.096753508	5.007600E+01
385	  0.096953906	-7.023000E+00	  0.096953906	6.256100E+01	  0.096953906	5.086700E+01	  0.096953906	5.017800E+01
386	  0.097154312	-7.021000E+00	  0.097154312	6.232300E+01	  0.097154312	5.107200E+01	  0.097154312	5.029200E+01
387	  0.097354710	-7.018000E+00	  0.097354710	6.208800E+01	  0.097354710	5.127600E+01	  0.097354710	5.041000E+01
388	  0.097555116	-7.019000E+00	  0.097555116	6.186200E+01	  0.097555116	5.148400E+01	  0.097555116	5.049500E+01
389	  0.097755514	-7.018000E+00	  0.097755514	6.163000E+01	  0.097755514	5.169200E+01	  0.097755514	5.059900E+01
390	  0.097955912	-7.014000E+00	  0.097955912	6.140000E+01	  0.097955912	5.189100E+01	  0.097955912	5.072000E+01
391	  0.098156318	-7.014000E+00	  0.098156318	6.116600E+01	  0.098156318	5.210800E+01	  0.098156318	5.081400E+01
392	  0.098356716	-7.014000E+00	  0.098356716	6.095100E+01	  0.098356716	5.230800E+01	  0.098356716	5.090300E+01
393	  0.098557115	-7.015000E+00	  0.098557115	6.069900E+01	  0.098557115	5.254300E+01	  0.098557115	5.100400E+01
394	  0.098757520	-7.014000E+00	  0.098757520	6.047400E+01	  0.098757520	5.275200E+01	  0.098757520	5.110300E+01
395	  0.098957919	-7.011000E+00	  0.098957919	6.026300E+01	  0.098957919	5.294300E+01	  0.098957919	5.120500E+01
396	  0.099158317	-7.011000E+00	  0.099158317	6.002300E+01	  0.099158317	5.317000E+01	  0.099158317	5.130400E+01
397	  0.099358723	-7.010000E+00	  0.099358723	5.979500E+01	  0.099358723	5.338600E+01	  0.099358723	5.140100E+01
398	  0.099559121	-7.007000E+00	  0.099559121	5.955400E+01	  0.099559121	5.361000E+01	  0.099559121	5.151400E+01
399	  0.099759519	-7.006000E+00	  0.099759519	5.932300E+01	  0.099759519	5.383200E+01	  0.099759519	5.161100E+01
400	  0.099959925	-6.995000E+00	  0.099959925	5.913600E+01	  0.099959925	5.398400E+01	  0.099959925	5.175900E+01
401	  0.100160323	-6.997000E+00	  0.100160323	5.892100E+01	  0.100160323	5.420000E+01	  0.100160323	5.182600E+01
402	  0.100360721	-6.993000E+00	  0.100360721	5.865900E+01	  0.100360721	5.444600E+01	  0.100360721	5.195800E+01
403	  0.100561127	-6.989000E+00	  0.100561127	5.842100E+01	  0.100561127	5.467300E+01	  0.100561127	5.207400E+01
404	  0.100761525	-6.987000E+00	  0.100761525	5.821600E+01	  0.100761525	5.487300E+01	  0.100761525	5.216700E+01
405	  0.100961931	-6.994000E+00	  0.100961931	5.799500E+01	  0.100961931	5.511100E+01	  0.100961931	5.220600E+01
406	  0.101162329	-6.991000E+00	  0.101162329	5.776200E+01	  0.101162329	5.533700E+01	  0.101162329	5.231800E+01
407	  0.101362728	-6.989000E+00	  0.101362728	5.751500E+01	  0.101362728	5.558400E+01	  0.101362728	5.242000E+01
408	  0.101563133	-6.990000E+00	  0.101563133	5.727900E+01	  0.101563133	5.582700E+01	  0.101563133	5.250100E+01
409	  0.101763532	-6.985000E+00	  0.101763532	5.707800E+01	  0.101763532	5.601900E+01	  0.101763532	5.261600E+01
410	  0.101963930	-6.988000E+00	  0.101963930	5.683400E+01	  0.101963930	5.628000E+01	  0.101963930	5.268200E+01
411	  0.102164336	-6.984000E+00	  0.102164336	5.661700E+01	  0.102164336	5.649500E+01	  0.102164336	5.278900E+01
412	  0.102364734	-6.988000E+00	  0.102364734	5.636000E+01	  0.102364734	5.677200E+01	  0.102364734	5.285600E+01
413	  0.102565132	-6.982000E+00	  0.102565132	5.614900E+01	  0.102565132	5.698100E+01	  0.102565132	5.297400E+01
414	  0.102765530	-6.983000E+00	  0.102765530	5.591700E+01	  0.102765530	5.722800E+01	  0.102765530	5.304800E+01
415	  0.102965929	-6.981000E+00	  0.102965929	5.568600E+01	  0.102965929	5.747000E+01	  0.102965929	5.314300E+01
416	  0.103166327	-6.982000E+00	  0.103166327	5.547900E+01	  0.103166327	5.769300E+01	  0.103166327	5.320900E+01
417	  0.103366733	-6.984000E+00	  0.103366733	5.523300E+01	  0.103366733	5.796200E+01	  0.103366733	5.328000E+01
418	  0.103567131	-6.980000E+00	  0.103567131	5.501100E+01	  0.103567131	5.819300E+01	  0.103567131	5.338700E+01
419	  0.103767529	-6.984000E+00	  0.103767529	5.474700E+01	  0.103767529	5.848800E+01	  0.103767529	5.345100E+01
420	  0.103967935	-6.982000E+00	  0.103967935	5.453400E+01	  0.103967935	5.871700E+01	  0.103967935	5.353300E+01
421	  0.104168333	-6.980000E+00	  0.104168333	5.432300E+01	  0.104168333	5.894400E+01	  0.104168333	5.362100E+01
422	  0.104368731	-6.978000E+00	  0.104368731	5.407900E+01	  0.104368731	5.921000E+01	  0.104368731	5.371400E+01
423	  0.104569137	-6.975000E+00	  0.104569137	5.385000E+01	  0.104569137	5.945900E+01	  0.104569137	5.381100E+01
424	  0.104769535	-6.978000E+00	  0.104769535	5.362900E+01	  0.104769535	5.971400E+01	  0.104769535	5.385700E+01
425	  0.104969934	-6.977000E+00	  0.104969934	5.338700E+01	  0.104969934	5.998400E+01	  0.104969934	5.394200E+01
426	  0.105170339	-6.972000E+00	  0.105170339	5.316800E+01	  0.105170339	6.022100E+01	  0.105170339	5.405100E+01
427	  0.105370738	-6.974000E+00	  0.105370738	5.293900E+01	  0.105370738	6.048600E+01	  0.105370738	5.410700E+01
428	  0.105571143	-6.976000E+00	  0.105571143	5.270100E+01	  0.105571143	6.076300E+01	  0.105571143	5.416800E+01
429	  0.105771542	-6.971000E+00	  0.105771542	5.246200E+01	  0.105771542	6.102800E+01	  0.105771542	5.427600E+01
430	  0.105971940	-6.972000E+00	  0.105971940	5.227800E+01	  0.105971940	6.124300E+01	  0.105971940	5.432200E+01
431	  0.106172346	-6.969000E+00	  0.106172346	5.201000E+01	  0.106172346	6.155000E+01	  0.106172346	5.442700E+01
432	  0.106372744	-6.969000E+00	  0.106372744	5.180100E+01	  0.106372744	6.179500E+01	  0.106372744	5.448100E+01
433	  0.106573142	-6.967000E+00	  0.106573142	5.156000E+01	  0.106573142	6.207600E+01	  0.106573142	5.456700E+01
434	  0.106773548	-6.968000E+00	  0.106773548	5.132200E+01	  0.106773548	6.236000E+01	  0.106773548	5.462600E+01
435	  0.106973946	-6.971000E+00	  0.106973946	5.109000E+01	  0.106973946	6.264000E+01	  0.106973946	5.467200E+01
436	  0.107174344	-6.964000E+00	  0.107174344	5.087200E+01	  0.107174344	6.289100E+01	  0.107174344	5.478400E+01
437	  0.107374750	-6.964000E+00	  0.107374750	5.061100E+01	  0.107374750	6.320500E+01	  0.107374750	5.485500E+01
438	  0.107575148	-6.960000E+00	  0.107575148	5.041200E+01	  0.107575148	6.343900E+01	  0.107575148	5.493700E+01
439	  0.107775547	-6.962000E+00	  0.107775547	5.016200E+01	  0.107775547	6.374900E+01	  0.107775547	5.498600E+01
440	  0.107975952	-6.961000E+00	  0.107975952	4.991900E+01	  0.107975952	6.404500E+01	  0.107975952	5.505500E+01
441	  0.108176351	-6.962000E+00	  0.108176351	4.971900E+01	  0.108176351	6.429300E+01	  0.108176351	5.509300E+01
442	  0.108376749	-6.961000E+00	  0.108376749	4.947000E+01	  0.108376749	6.460000E+01	  0.108376749	5.516800E+01
443	  0.108577155	-6.959000E+00	  0.108577155	4.927100E+01	  0.108577155	6.484400E+01	  0.108577155	5.523100E+01
444	  0.108777553	-6.959000E+00	  0.108777553	4.904000E+01	  0.108777553	6.513500E+01	  0.108777553	5.527800E+01
445	  0.108977959	-6.957000E+00	  0.108977959	4.879500E+01	  0.108977959	6.544100E+01	  0.108977959	5.535300E+01
446	  0.109178357	-6.956000E+00	  0.109178357	4.854500E+01	  0.109178357	6.575700E+01	  0.109178357	5.541400E+01
447	  0.109378755	-6.956000E+00	  0.109378755	4.830700E+01	  0.109378755	6.606100E+01	  0.109378755	5.546500E+01
448	  0.109579161	-6.954000E+00	  0.109579161	4.812200E+01	  0.109579161	6.629400E+01	  0.109579161	5.552400E+01
449	  0.109779559	-6.954000E+00	  0.109779559	4.786600E+01	  0.109779559	6.662400E+01	  0.109779559	5.558100E+01
450	  0.109979957	-6.949000E+00	  0.109979957	4.764900E+01	  0.109979957	6.690000E+01	  0.109979957	5.565900E+01
451	  0.110180363	-6.953000E+00	  0.110180363	4.742400E+01	  0.110180363	6.719800E+01	  0.110180363	5.567200E+01
452	  0.110380761	-6.950000E+00	  0.110380761	4.718800E+01	  0.110380761	6.750300E+01	  0.110380761	5.573800E+01
453	  0.110581160	-6.950000E+00	  0.110581160	4.693800E+01	  0.110581160	6.783200E+01	  0.110581160	5.578200E+01
454	  0.110781565	-6.949000E+00	  0.110781565	4.672600E+01	  0.110781565	6.811100E+01	  0.110781565	5.583100E+01
455	  0.110981964	-6.947000E+00	  0.110981964	4.649900E+01	  0.110981964	6.841200E+01	  0.110981964	5.588700E+01
456	  0.111182362	-6.941000E+00	  0.111182362	4.626600E+01	  0.111182362	6.871800E+01	  0.111182362	5.597400E+01
457	  0.111382768	-6.945000E+00	  0.111382768	4.601700E+01	  0.111382768	6.905600E+01	  0.111382768	5.598400E+01
458	  0.111583166	-6.944000E+00	  0.111583166	4.580400E+01	  0.111583166	6.934400E+01	  0.111583166	5.602100E+01
459	  0.111783572	-6.942000E+00	  0.111783572	4.557700E+01	  0.111783572	6.965100E+01	  0.111783572	5.606800E+01
460	  0.111983970	-6.942000E+00	  0.111983970	4.536600E+01	  0.111983970	6.993900E+01	  0.111983970	5.610400E+01
461	  0.112184368	-6.936000E+00	  0.112184368	4.512300E+01	  0.112184368	7.026600E+01	  0.112184368	5.619000E+01
462	  0.112384774	-6.940000E+00	  0.112384774	4.490200E+01	  0.112384774	7.057600E+01	  0.112384774	5.618100E+01
463	  0.112585172	-6.938000E+00	  0.112585172	4.467600E+01	  0.112585172	7.088800E+01	  0.112585172	5.622200E+01
464	  0.112785570	-6.939000E+00	  0.112785570	4.446600E+01	  0.112785570	7.118100E+01	  0.112785570	5.623300E+01
465	  0.112985976	-6.940000E+00	  0.112985976	4.422200E+01	  0.112985976	7.152400E+01	  0.112985976	5.625300E+01
466	  0.113186374	-6.937000E+00	  0.113186374	4.399500E+01	  0.113186374	7.184100E+01	  0.113186374	5.629400E+01
467	  0.113386773	-6.936000E+00	  0.113386773	4.377800E+01	  0.113386773	7.214800E+01	  0.113386773	5.632600E+01
468	  0.113587178	-6.936000E+00	  0.113587178	4.352900E+01	  0.113587178	7.250200E+01	  0.113587178	5.634400E+01
469	  0.113787577	-6.934000E+00	  0.113787577	4.331300E+01	  0.113787577	7.281000E+01	  0.113787577	5.638100E+01
470	  0.113987975	-6.935000E+00	  0.113987975	4.310400E+01	  0.113987975	7.311100E+01	  0.113987975	5.638100E+01
471	  0.114188381	-6.931000E+00	  0.114188381	4.286500E+01	  0.114188381	7.345400E+01	  0.114188381	5.643000E+01
472	  0.114388779	-6.932000E+00	  0.114388779	4.263700E+01	  0.114388779	7.378500E+01	  0.114388779	5.643000E+01
473	  0.114589177	-6.932000E+00	  0.114589177	4.239600E+01	  0.114589177	7.413600E+01	  0.114589177	5.644300E+01
474	  0.114789583	-6.930000E+00	  0.114789583	4.217400E+01	  0.114789583	7.446100E+01	  0.114789583	5.646400E+01
475	  0.114989981	-6.932000E+00	  0.114989981	4.193400E+01	  0.114989981	7.481400E+01	  0.114989981	5.645900E+01
476	  0.115190387	-6.931000E+00	  0.115190387	4.172200E+01	  0.115190387	7.512700E+01	  0.115190387	5.646300E+01
477	  0.115390785	-6.928000E+00	  0.115390785	4.148700E+01	  0.115390785	7.547600E+01	  0.115390785	5.649300E+01
478	  0.115591183	-6.929000E+00	  0.115591183	4.125700E+01	  0.115591183	7.582000E+01	  0.115591183	5.648900E+01
479	  0.115791589	-6.923000E+00	  0.115791589	4.103500E+01	  0.115791589	7.615300E+01	  0.115791589	5.653700E+01
480	  0.115991987	-6.929000E+00	  0.115991987	4.080200E+01	  0.115991987	7.650200E+01	  0.115991987	5.647800E+01
481	  0.116192386	-6.925000E+00	  0.116192386	4.057100E+01	  0.116192386	7.685200E+01	  0.116192386	5.650700E+01
482	  0.116392791	-6.928000E+00	  0.116392791	4.035600E+01	  0.116392791	7.717900E+01	  0.116392791	5.647500E+01
483	  0.116593190	-6.927000E+00	  0.116593190	4.012700E+01	  0.116593190	7.752700E+01	  0.116593190	5.647200E+01
484	  0.116793588	-6.923000E+00	  0.116793588	3.992000E+01	  0.116793588	7.784700E+01	  0.116793588	5.650000E+01
485	  0.116993994	-6.928000E+00	  0.116993994	3.969200E+01	  0.116993994	7.819500E+01	  0.116993994	5.643000E+01
486	  0.117194392	-6.921000E+00	  0.117194392	3.945200E+01	  0.117194392	7.856900E+01	  0.117194392	5.647900E+01
487	  0.117394790	-6.925000E+00	  0.117394790	3.923400E+01	  0.117394790	7.890500E+01	  0.117394790	5.641900E+01
488	  0.117595196	-6.923000E+00	  0.117595196	3.901700E+01	  0.117595196	7.924400E+01	  0.117595196	5.642300E+01
489	  0.117795594	-6.921000E+00	  0.117795594	3.876900E+01	  0.117795594	7.963400E+01	  0.117795594	5.641500E+01
490	  0.117995992	-6.921000E+00	  0.117995992	3.854900E+01	  0.117995992	7.998000E+01	  0.117995992	5.638700E+01
491	  0.118196398	-6.920000E+00	  0.118196398	3.832000E+01	  0.118196398	8.034100E+01	  0.118196398	5.636700E+01
492	  0.118396796	-6.923000E+00	  0.118396796	3.808100E+01	  0.118396796	8.071700E+01	  0.118396796	5.630400E+01
493	  0.118597202	-6.919000E+00	  0.118597202	3.787800E+01	  0.118597202	8.104500E+01	  0.118597202	5.631300E+01
494	  0.118797600	-6.917000E+00	  0.118797600	3.761900E+01	  0.118797600	8.146000E+01	  0.118797600	5.628900E+01
495	  0.118997999	-6.916000E+00	  0.118997999	3.742700E+01	  0.118997999	8.176800E+01	  0.118997999	5.626600E+01
496	  0.119198404	-6.916000E+00	  0.119198404	3.719200E+01	  0.119198404	8.214700E+01	  0.119198404	5.622700E+01
497	  0.119398803	-6.915000E+00	  0.119398803	3.695700E+01	  0.119398803	8.252800E+01	  0.119398803	5.618900E+01
498	  0.119599201	-6.916000E+00	  0.119599201	3.672800E+01	  0.119599201	8.289800E+01	  0.119599201	5.613900E+01
499	  0.119799607	-6.913000E+00	  0.119799607	3.650100E+01	  0.119799607	8.327100E+01	  0.119799607	5.611600E+01
500	  0.120000005	-6.916000E+00	  0.120000005	3.624700E+01	  0.120000005	8.368200E+01	  0.120000005	5.602800E+01
