! Anritsu VNA Master:             	Model: MS2036C/10/77
! SN:             	1601066
! /bd0/18may07/256.ns.m3.txt
! Existing Calibration Information:
! TYPE:             	Current Settings	Active Cal Settings
! TIME:             	05/07/2018 03:03:35 PM	05/07/2018 02:58:54 PM
! INTERNAL TEMP:    	59.3 C	58.8 C
! # POINTS:         	500	500
! START FREQ:       	20.000 MHz	20.000 MHz
! STOP FREQ:        	120.000 MHz	120.000 MHz
! SOURCE POWER:     	High	High
! IFBW:             	50 Hz	50 Hz
! AVG FACTOR:       	  1 	  1 
! REF PLANE 1:      	0 mm	0 mm
! REF PLANE 2:      	0 mm	0 mm
! CAL TYPE:         	Full S11	Full S11
! CAL METHOD:       	SOLT	SOLT
! CAL LINE TYPE:    	Coax	Coax
! DUT PORT 1:       	K-Conn(F)	K-Conn(F)
! DUT PORT 2:       	K-Conn(F)	K-Conn(F)
! CAL STATUS:       	OK: Accuracy High	--
! PROP-V:       	0.700
! CABLE LOSS:       	0.000 dB/m
! REF IMPEDANCE:       	50.0
! Trace Specific Parameters:	TR1	TR2	TR3	TR4
! TRACE.#.Y (GRAPH TYPE)	LOG MAG	PHASE	REAL IMPEDANCE	IMAGINARY IMPEDANCE
! TRACE.#.X 	FREQ.GHZ	FREQ.GHZ	FREQ.GHZ	FREQ.GHZ
! S-PARAMETER	S11	S11	S11	S11
! SMOOTH/APERTURE %	0	0	0	0
! WINDOW	NSL	NSL	NSL	NSL
! GATING	OFF	OFF	OFF	OFF
! FGTD	OFF	OFF	OFF	OFF
Marker Information per Trace:	TR1	TR2	TR3	TR4
!MK1	--	"MK1 TR2:  20.000 MHz,PH:-125.91°"	--	--
!MK2	--	--	"MK2 TR3:  70.100 200 MHz,Z:(17.032 ohm, -2.845 ohm)"	--
!MK3	--	--	--	--
!MK4	--	--	--	--
!MK5	--	--	--	--
!MK6	--	--	--	--
!MK7	--	--	--	--
!MK8	--	--	--	--
PNT	TR1.FREQ.GHZ	TR1.LOG MAG.dB	TR2.FREQ.GHZ	TR2.PHASE.deg	TR3.FREQ.GHZ	TR3.REAL IMPEDANCE.ohm	TR4.FREQ.GHZ	TR4.IMAGINARY IMPEDANCE.ohm
1	  0.020000000	-6.240000E-01	  0.020000000	-1.259090E+02	  0.020000000	2.262000E+00	  0.020000000	-2.548400E+01
2	  0.020200402	-6.240000E-01	  0.020200402	-1.273760E+02	  0.020200402	2.234000E+00	  0.020200402	-2.468400E+01
3	  0.020400802	-6.240000E-01	  0.020400802	-1.288430E+02	  0.020400802	2.207000E+00	  0.020400802	-2.389400E+01
4	  0.020601204	-6.260000E-01	  0.020601204	-1.303140E+02	  0.020601204	2.189000E+00	  0.020601204	-2.311100E+01
5	  0.020801604	-6.320000E-01	  0.020801604	-1.318180E+02	  0.020801604	2.181000E+00	  0.020801604	-2.232000E+01
6	  0.021002004	-6.370000E-01	  0.021002004	-1.333540E+02	  0.021002004	2.173000E+00	  0.021002004	-2.152200E+01
7	  0.021202406	-6.450000E-01	  0.021202406	-1.348940E+02	  0.021202406	2.176000E+00	  0.021202406	-2.073100E+01
8	  0.021402806	-6.500000E-01	  0.021402806	-1.364280E+02	  0.021402806	2.170000E+00	  0.021402806	-1.995100E+01
9	  0.021603208	-6.540000E-01	  0.021603208	-1.379810E+02	  0.021603208	2.159000E+00	  0.021603208	-1.917100E+01
10	  0.021803608	-6.600000E-01	  0.021803608	-1.395290E+02	  0.021803608	2.159000E+00	  0.021803608	-1.840100E+01
11	  0.022004008	-6.660000E-01	  0.022004008	-1.410780E+02	  0.022004008	2.157000E+00	  0.022004008	-1.763800E+01
12	  0.022204408	-6.730000E-01	  0.022204408	-1.426550E+02	  0.022204408	2.157000E+00	  0.022204408	-1.686800E+01
13	  0.022404809	-6.780000E-01	  0.022404809	-1.442350E+02	  0.022404809	2.155000E+00	  0.022404809	-1.610500E+01
14	  0.022605211	-6.840000E-01	  0.022605211	-1.458320E+02	  0.022605211	2.156000E+00	  0.022605211	-1.534000E+01
15	  0.022805611	-6.880000E-01	  0.022805611	-1.474310E+02	  0.022805611	2.150000E+00	  0.022805611	-1.458100E+01
16	  0.023006011	-6.910000E-01	  0.023006011	-1.490390E+02	  0.023006011	2.141000E+00	  0.023006011	-1.382300E+01
17	  0.023206413	-6.910000E-01	  0.023206413	-1.506340E+02	  0.023206413	2.125000E+00	  0.023206413	-1.307800E+01
18	  0.023406813	-6.950000E-01	  0.023406813	-1.522410E+02	  0.023406813	2.121000E+00	  0.023406813	-1.233300E+01
19	  0.023607215	-7.010000E-01	  0.023607215	-1.538530E+02	  0.023607215	2.126000E+00	  0.023607215	-1.159000E+01
20	  0.023807615	-7.080000E-01	  0.023807615	-1.554540E+02	  0.023807615	2.134000E+00	  0.023807615	-1.085700E+01
21	  0.024008015	-7.170000E-01	  0.024008015	-1.570870E+02	  0.024008015	2.148000E+00	  0.024008015	-1.011400E+01
22	  0.024208417	-7.280000E-01	  0.024208417	-1.587320E+02	  0.024208417	2.170000E+00	  0.024208417	-9.370000E+00
23	  0.024408817	-7.370000E-01	  0.024408817	-1.603920E+02	  0.024408817	2.184000E+00	  0.024408817	-8.623000E+00
24	  0.024609219	-7.470000E-01	  0.024609219	-1.620500E+02	  0.024609219	2.202000E+00	  0.024609219	-7.881000E+00
25	  0.024809619	-7.570000E-01	  0.024809619	-1.637130E+02	  0.024809619	2.222000E+00	  0.024809619	-7.140000E+00
26	  0.025010020	-7.690000E-01	  0.025010020	-1.653730E+02	  0.025010020	2.249000E+00	  0.025010020	-6.404000E+00
27	  0.025210422	-7.810000E-01	  0.025210422	-1.670430E+02	  0.025210422	2.275000E+00	  0.025210422	-5.665000E+00
28	  0.025410822	-7.950000E-01	  0.025410822	-1.687450E+02	  0.025410822	2.310000E+00	  0.025410822	-4.916000E+00
29	  0.025611224	-8.100000E-01	  0.025611224	-1.704430E+02	  0.025611224	2.347000E+00	  0.025611224	-4.170000E+00
30	  0.025811624	-8.230000E-01	  0.025811624	-1.721630E+02	  0.025811624	2.379000E+00	  0.025811624	-3.417000E+00
31	  0.026012026	-8.350000E-01	  0.026012026	-1.739040E+02	  0.026012026	2.409000E+00	  0.026012026	-2.656000E+00
32	  0.026212426	-8.470000E-01	  0.026212426	-1.756420E+02	  0.026212426	2.439000E+00	  0.026212426	-1.897000E+00
33	  0.026412826	-8.600000E-01	  0.026412826	-1.773870E+02	  0.026412826	2.476000E+00	  0.026412826	-1.137000E+00
34	  0.026613226	-8.760000E-01	  0.026613226	-1.791420E+02	  0.026613226	2.519000E+00	  0.026613226	-3.730000E-01
35	  0.026813626	-8.910000E-01	  0.026813626	1.790900E+02	  0.026813626	2.564000E+00	  0.026813626	3.950000E-01
36	  0.027014028	-9.070000E-01	  0.027014028	1.773050E+02	  0.027014028	2.612000E+00	  0.027014028	1.172000E+00
37	  0.027214428	-9.260000E-01	  0.027214428	1.755020E+02	  0.027214428	2.668000E+00	  0.027214428	1.957000E+00
38	  0.027414829	-9.420000E-01	  0.027414829	1.737000E+02	  0.027414829	2.717000E+00	  0.027414829	2.743000E+00
39	  0.027615231	-9.580000E-01	  0.027615231	1.718900E+02	  0.027615231	2.769000E+00	  0.027615231	3.533000E+00
40	  0.027815631	-9.760000E-01	  0.027815631	1.700480E+02	  0.027815631	2.828000E+00	  0.027815631	4.339000E+00
41	  0.028016033	-9.970000E-01	  0.028016033	1.682110E+02	  0.028016033	2.899000E+00	  0.028016033	5.144000E+00
42	  0.028216433	-1.019000E+00	  0.028216433	1.663720E+02	  0.028216433	2.972000E+00	  0.028216433	5.953000E+00
43	  0.028416833	-1.040000E+00	  0.028416833	1.645240E+02	  0.028416833	3.046000E+00	  0.028416833	6.769000E+00
44	  0.028617235	-1.061000E+00	  0.028617235	1.626690E+02	  0.028617235	3.120000E+00	  0.028617235	7.591000E+00
45	  0.028817635	-1.078000E+00	  0.028817635	1.608210E+02	  0.028817635	3.189000E+00	  0.028817635	8.413000E+00
46	  0.029018037	-1.098000E+00	  0.029018037	1.589860E+02	  0.029018037	3.265000E+00	  0.029018037	9.234000E+00
47	  0.029218437	-1.117000E+00	  0.029218437	1.571430E+02	  0.029218437	3.342000E+00	  0.029218437	1.006300E+01
48	  0.029418837	-1.140000E+00	  0.029418837	1.553190E+02	  0.029418837	3.434000E+00	  0.029418837	1.088900E+01
49	  0.029619239	-1.165000E+00	  0.029619239	1.534600E+02	  0.029619239	3.536000E+00	  0.029619239	1.173500E+01
50	  0.029819639	-1.193000E+00	  0.029819639	1.515810E+02	  0.029819639	3.647000E+00	  0.029819639	1.259600E+01
51	  0.030020041	-1.225000E+00	  0.030020041	1.496770E+02	  0.030020041	3.777000E+00	  0.030020041	1.347600E+01
52	  0.030220442	-1.254000E+00	  0.030220442	1.477580E+02	  0.030220442	3.905000E+00	  0.030220442	1.437000E+01
53	  0.030420844	-1.285000E+00	  0.030420844	1.458180E+02	  0.030420844	4.040000E+00	  0.030420844	1.528100E+01
54	  0.030621244	-1.316000E+00	  0.030621244	1.439100E+02	  0.030621244	4.180000E+00	  0.030621244	1.618600E+01
55	  0.030821644	-1.348000E+00	  0.030821644	1.419960E+02	  0.030821644	4.329000E+00	  0.030821644	1.710200E+01
56	  0.031022044	-1.385000E+00	  0.031022044	1.400540E+02	  0.031022044	4.499000E+00	  0.031022044	1.804100E+01
57	  0.031222444	-1.414000E+00	  0.031222444	1.381250E+02	  0.031222444	4.653000E+00	  0.031222444	1.898500E+01
58	  0.031422846	-1.452000E+00	  0.031422846	1.361650E+02	  0.031422846	4.841000E+00	  0.031422846	1.995400E+01
59	  0.031623244	-1.491000E+00	  0.031623244	1.341410E+02	  0.031623244	5.040000E+00	  0.031623244	2.096800E+01
60	  0.031823646	-1.529000E+00	  0.031823646	1.321490E+02	  0.031823646	5.247000E+00	  0.031823646	2.197900E+01
61	  0.032024048	-1.565000E+00	  0.032024048	1.301300E+02	  0.032024048	5.457000E+00	  0.032024048	2.301800E+01
62	  0.032224450	-1.604000E+00	  0.032224450	1.281170E+02	  0.032224450	5.683000E+00	  0.032224450	2.406800E+01
63	  0.032424849	-1.640000E+00	  0.032424849	1.261020E+02	  0.032424849	5.910000E+00	  0.032424849	2.513700E+01
64	  0.032625251	-1.675000E+00	  0.032625251	1.240800E+02	  0.032625251	6.144000E+00	  0.032625251	2.622600E+01
65	  0.032825653	-1.712000E+00	  0.032825653	1.220740E+02	  0.032825653	6.400000E+00	  0.032825653	2.732400E+01
66	  0.033026051	-1.752000E+00	  0.033026051	1.200690E+02	  0.033026051	6.675000E+00	  0.033026051	2.844000E+01
67	  0.033226453	-1.794000E+00	  0.033226453	1.180730E+02	  0.033226453	6.973000E+00	  0.033226453	2.956800E+01
68	  0.033426855	-1.839000E+00	  0.033426855	1.160850E+02	  0.033426855	7.296000E+00	  0.033426855	3.071100E+01
69	  0.033627257	-1.890000E+00	  0.033627257	1.140810E+02	  0.033627257	7.658000E+00	  0.033627257	3.188100E+01
70	  0.033827655	-1.940000E+00	  0.033827655	1.120420E+02	  0.033827655	8.043000E+00	  0.033827655	3.309500E+01
71	  0.034028057	-1.993000E+00	  0.034028057	1.100120E+02	  0.034028057	8.458000E+00	  0.034028057	3.432500E+01
72	  0.034228459	-2.044000E+00	  0.034228459	1.078900E+02	  0.034228459	8.895000E+00	  0.034228459	3.564100E+01
73	  0.034428857	-2.095000E+00	  0.034428857	1.057800E+02	  0.034428857	9.358000E+00	  0.034428857	3.697800E+01
74	  0.034629259	-2.142000E+00	  0.034629259	1.036530E+02	  0.034629259	9.834000E+00	  0.034629259	3.835900E+01
75	  0.034829661	-2.189000E+00	  0.034829661	1.015260E+02	  0.034829661	1.034100E+01	  0.034829661	3.977300E+01
76	  0.035030060	-2.234000E+00	  0.035030060	9.941000E+01	  0.035030060	1.086500E+01	  0.035030060	4.121600E+01
77	  0.035230462	-2.280000E+00	  0.035230462	9.731200E+01	  0.035230462	1.142900E+01	  0.035230462	4.268000E+01
78	  0.035430863	-2.323000E+00	  0.035430863	9.519600E+01	  0.035430863	1.201400E+01	  0.035430863	4.420000E+01
79	  0.035631265	-2.365000E+00	  0.035631265	9.312200E+01	  0.035631265	1.262600E+01	  0.035631265	4.572900E+01
80	  0.035831664	-2.410000E+00	  0.035831664	9.103900E+01	  0.035831664	1.330000E+01	  0.035831664	4.729900E+01
81	  0.036032066	-2.452000E+00	  0.036032066	8.897300E+01	  0.036032066	1.399700E+01	  0.036032066	4.890400E+01
82	  0.036232468	-2.497000E+00	  0.036232468	8.694000E+01	  0.036232468	1.474800E+01	  0.036232468	5.052200E+01
83	  0.036432866	-2.545000E+00	  0.036432866	8.489500E+01	  0.036432866	1.557400E+01	  0.036432866	5.218700E+01
84	  0.036633268	-2.597000E+00	  0.036633268	8.283200E+01	  0.036633268	1.648900E+01	  0.036633268	5.390700E+01
85	  0.036833670	-2.651000E+00	  0.036833670	8.078700E+01	  0.036833670	1.747600E+01	  0.036833670	5.565200E+01
86	  0.037034072	-2.710000E+00	  0.037034072	7.873700E+01	  0.037034072	1.857300E+01	  0.037034072	5.743400E+01
87	  0.037234470	-2.772000E+00	  0.037234470	7.665500E+01	  0.037234470	1.978300E+01	  0.037234470	5.928700E+01
88	  0.037434869	-2.838000E+00	  0.037434869	7.456000E+01	  0.037434869	2.111200E+01	  0.037434869	6.119000E+01
89	  0.037635271	-2.909000E+00	  0.037635271	7.247100E+01	  0.037635271	2.258700E+01	  0.037635271	6.311200E+01
90	  0.037835669	-2.982000E+00	  0.037835669	7.044800E+01	  0.037835669	2.415100E+01	  0.037835669	6.500000E+01
91	  0.038036071	-3.041000E+00	  0.038036071	6.841600E+01	  0.038036071	2.574600E+01	  0.038036071	6.698400E+01
92	  0.038236473	-3.091000E+00	  0.038236473	6.633200E+01	  0.038236473	2.743300E+01	  0.038236473	6.911300E+01
93	  0.038436871	-3.138000E+00	  0.038436871	6.418000E+01	  0.038436871	2.928500E+01	  0.038436871	7.138900E+01
94	  0.038637273	-3.188000E+00	  0.038637273	6.202000E+01	  0.038637273	3.133600E+01	  0.038637273	7.371700E+01
95	  0.038837675	-3.237000E+00	  0.038837675	5.987700E+01	  0.038837675	3.355400E+01	  0.038837675	7.608100E+01
96	  0.039038073	-3.280000E+00	  0.039038073	5.779300E+01	  0.039038073	3.586000E+01	  0.039038073	7.846100E+01
97	  0.039238475	-3.324000E+00	  0.039238475	5.570800E+01	  0.039238475	3.839200E+01	  0.039238475	8.087800E+01
98	  0.039438877	-3.369000E+00	  0.039438877	5.364900E+01	  0.039438877	4.113500E+01	  0.039438877	8.329100E+01
99	  0.039639279	-3.420000E+00	  0.039639279	5.161700E+01	  0.039639279	4.414500E+01	  0.039639279	8.564400E+01
100	  0.039839678	-3.475000E+00	  0.039839678	4.957400E+01	  0.039839678	4.747900E+01	  0.039839678	8.797500E+01
101	  0.040040080	-3.531000E+00	  0.040040080	4.751900E+01	  0.040040080	5.115600E+01	  0.040040080	9.027600E+01
102	  0.040240481	-3.587000E+00	  0.040240481	4.545800E+01	  0.040240481	5.516300E+01	  0.040240481	9.254500E+01
103	  0.040440880	-3.645000E+00	  0.040440880	4.337800E+01	  0.040440880	5.959900E+01	  0.040440880	9.471600E+01
104	  0.040641282	-3.701000E+00	  0.040641282	4.131400E+01	  0.040641282	6.437600E+01	  0.040641282	9.677600E+01
105	  0.040841684	-3.759000E+00	  0.040841684	3.925700E+01	  0.040841684	6.957600E+01	  0.040841684	9.862700E+01
106	  0.041042086	-3.811000E+00	  0.041042086	3.720700E+01	  0.041042086	7.515500E+01	  0.041042086	1.003280E+02
107	  0.041242484	-3.865000E+00	  0.041242484	3.515700E+01	  0.041242484	8.121800E+01	  0.041242484	1.017070E+02
108	  0.041442886	-3.917000E+00	  0.041442886	3.311200E+01	  0.041442886	8.773300E+01	  0.041442886	1.027400E+02
109	  0.041643288	-3.970000E+00	  0.041643288	3.105800E+01	  0.041643288	9.476500E+01	  0.041643288	1.033230E+02
110	  0.041843686	-4.020000E+00	  0.041843686	2.902600E+01	  0.041843686	1.021870E+02	  0.041843686	1.033820E+02
111	  0.042044088	-4.070000E+00	  0.042044088	2.697800E+01	  0.042044088	1.101200E+02	  0.042044088	1.028050E+02
112	  0.042244490	-4.117000E+00	  0.042244490	2.498300E+01	  0.042244490	1.182400E+02	  0.042244490	1.015010E+02
113	  0.042444889	-4.166000E+00	  0.042444889	2.298300E+01	  0.042444889	1.266920E+02	  0.042444889	9.926500E+01
114	  0.042645290	-4.216000E+00	  0.042645290	2.100000E+01	  0.042645290	1.352550E+02	  0.042645290	9.602700E+01
115	  0.042845692	-4.267000E+00	  0.042845692	1.901100E+01	  0.042845692	1.438760E+02	  0.042845692	9.165400E+01
116	  0.043046094	-4.317000E+00	  0.043046094	1.703500E+01	  0.043046094	1.523170E+02	  0.043046094	8.618500E+01
117	  0.043246493	-4.365000E+00	  0.043246493	1.506600E+01	  0.043246493	1.603900E+02	  0.043246493	7.956100E+01
118	  0.043446895	-4.413000E+00	  0.043446895	1.308300E+01	  0.043446895	1.679570E+02	  0.043446895	7.169300E+01
119	  0.043647297	-4.462000E+00	  0.043647297	1.111900E+01	  0.043647297	1.746160E+02	  0.043647297	6.275100E+01
120	  0.043847695	-4.507000E+00	  0.043847695	9.133000E+00	  0.043847695	1.803890E+02	  0.043847695	5.277100E+01
121	  0.044048097	-4.557000E+00	  0.044048097	7.173000E+00	  0.044048097	1.846870E+02	  0.044048097	4.200500E+01
122	  0.044248499	-4.604000E+00	  0.044248499	5.214000E+00	  0.044248499	1.876370E+02	  0.044248499	3.070800E+01
123	  0.044448901	-4.650000E+00	  0.044448901	3.259000E+00	  0.044448901	1.891110E+02	  0.044448901	1.915000E+01
124	  0.044649299	-4.698000E+00	  0.044649299	1.302000E+00	  0.044649299	1.890340E+02	  0.044649299	7.567000E+00
125	  0.044849701	-4.741000E+00	  0.044849701	-6.210000E-01	  0.044849701	1.876330E+02	  0.044849701	-3.550000E+00
126	  0.045050103	-4.787000E+00	  0.045050103	-2.540000E+00	  0.045050103	1.848420E+02	  0.045050103	-1.414000E+01
127	  0.045250501	-4.827000E+00	  0.045250501	-4.474000E+00	  0.045250501	1.810440E+02	  0.045250501	-2.415200E+01
128	  0.045450903	-4.866000E+00	  0.045450903	-6.410000E+00	  0.045450903	1.762950E+02	  0.045450903	-3.335800E+01
129	  0.045651305	-4.906000E+00	  0.045651305	-8.326000E+00	  0.045651305	1.707240E+02	  0.045651305	-4.152000E+01
130	  0.045851704	-4.947000E+00	  0.045851704	-1.022600E+01	  0.045851704	1.645880E+02	  0.045851704	-4.862800E+01
131	  0.046052106	-4.984000E+00	  0.046052106	-1.209900E+01	  0.046052106	1.582430E+02	  0.046052106	-5.475000E+01
132	  0.046252504	-5.023000E+00	  0.046252504	-1.397000E+01	  0.046252504	1.516170E+02	  0.046252504	-5.989700E+01
133	  0.046452906	-5.062000E+00	  0.046452906	-1.582700E+01	  0.046452906	1.449520E+02	  0.046452906	-6.414200E+01
134	  0.046653304	-5.099000E+00	  0.046653304	-1.768600E+01	  0.046653304	1.383260E+02	  0.046653304	-6.762700E+01
135	  0.046853706	-5.134000E+00	  0.046853706	-1.954000E+01	  0.046853706	1.318430E+02	  0.046853706	-7.041800E+01
136	  0.047054108	-5.172000E+00	  0.047054108	-2.138100E+01	  0.047054108	1.255420E+02	  0.047054108	-7.249400E+01
137	  0.047254506	-5.203000E+00	  0.047254506	-2.321600E+01	  0.047254506	1.195310E+02	  0.047254506	-7.413600E+01
138	  0.047454908	-5.236000E+00	  0.047454908	-2.499100E+01	  0.047454908	1.139180E+02	  0.047454908	-7.519700E+01
139	  0.047655310	-5.266000E+00	  0.047655310	-2.680800E+01	  0.047655310	1.084450E+02	  0.047655310	-7.592300E+01
140	  0.047855709	-5.295000E+00	  0.047855709	-2.856000E+01	  0.047855709	1.034150E+02	  0.047855709	-7.627900E+01
141	  0.048056111	-5.324000E+00	  0.048056111	-3.028800E+01	  0.048056111	9.870100E+01	  0.048056111	-7.633700E+01
142	  0.048256513	-5.355000E+00	  0.048256513	-3.202400E+01	  0.048256513	9.421100E+01	  0.048256513	-7.611100E+01
143	  0.048456915	-5.389000E+00	  0.048456915	-3.372900E+01	  0.048456915	9.004200E+01	  0.048456915	-7.563000E+01
144	  0.048657313	-5.417000E+00	  0.048657313	-3.546000E+01	  0.048657313	8.604800E+01	  0.048657313	-7.507300E+01
145	  0.048857715	-5.444000E+00	  0.048857715	-3.718800E+01	  0.048857715	8.228500E+01	  0.048857715	-7.438200E+01
146	  0.049058117	-5.474000E+00	  0.049058117	-3.889700E+01	  0.049058117	7.878300E+01	  0.049058117	-7.352500E+01
147	  0.049258515	-5.501000E+00	  0.049258515	-4.061200E+01	  0.049258515	7.546900E+01	  0.049258515	-7.261300E+01
148	  0.049458917	-5.528000E+00	  0.049458917	-4.229100E+01	  0.049458917	7.241300E+01	  0.049458917	-7.162100E+01
149	  0.049659319	-5.554000E+00	  0.049659319	-4.397800E+01	  0.049659319	6.951800E+01	  0.049659319	-7.057500E+01
150	  0.049859721	-5.582000E+00	  0.049859721	-4.564500E+01	  0.049859721	6.683000E+01	  0.049859721	-6.946800E+01
151	  0.050060119	-5.609000E+00	  0.050060119	-4.732500E+01	  0.050060119	6.427300E+01	  0.050060119	-6.831800E+01
152	  0.050260521	-5.635000E+00	  0.050260521	-4.898900E+01	  0.050260521	6.188500E+01	  0.050260521	-6.716000E+01
153	  0.050460923	-5.655000E+00	  0.050460923	-5.067900E+01	  0.050460923	5.957300E+01	  0.050460923	-6.601800E+01
154	  0.050661322	-5.675000E+00	  0.050661322	-5.234800E+01	  0.050661322	5.742300E+01	  0.050661322	-6.486000E+01
155	  0.050861724	-5.692000E+00	  0.050861724	-5.401000E+01	  0.050861724	5.538700E+01	  0.050861724	-6.371500E+01
156	  0.051062126	-5.714000E+00	  0.051062126	-5.563000E+01	  0.051062126	5.352900E+01	  0.051062126	-6.255000E+01
157	  0.051262524	-5.730000E+00	  0.051262524	-5.724600E+01	  0.051262524	5.175700E+01	  0.051262524	-6.141800E+01
158	  0.051462926	-5.744000E+00	  0.051462926	-5.881100E+01	  0.051462926	5.011800E+01	  0.051462926	-6.033700E+01
159	  0.051663328	-5.760000E+00	  0.051663328	-6.036700E+01	  0.051663328	4.858300E+01	  0.051663328	-5.923900E+01
160	  0.051863730	-5.775000E+00	  0.051863730	-6.193600E+01	  0.051863730	4.710900E+01	  0.051863730	-5.814100E+01
161	  0.052064128	-5.792000E+00	  0.052064128	-6.347600E+01	  0.052064128	4.574400E+01	  0.052064128	-5.705100E+01
162	  0.052264530	-5.810000E+00	  0.052264530	-6.500400E+01	  0.052264530	4.446200E+01	  0.052264530	-5.596800E+01
163	  0.052464932	-5.826000E+00	  0.052464932	-6.650700E+01	  0.052464932	4.325300E+01	  0.052464932	-5.491900E+01
164	  0.052665330	-5.842000E+00	  0.052665330	-6.807100E+01	  0.052665330	4.205500E+01	  0.052665330	-5.384100E+01
165	  0.052865732	-5.860000E+00	  0.052865732	-6.957400E+01	  0.052865732	4.096900E+01	  0.052865732	-5.279900E+01
166	  0.053066134	-5.877000E+00	  0.053066134	-7.110700E+01	  0.053066134	3.990600E+01	  0.053066134	-5.175500E+01
167	  0.053266536	-5.892000E+00	  0.053266536	-7.262400E+01	  0.053266536	3.889900E+01	  0.053266536	-5.073900E+01
168	  0.053466935	-5.906000E+00	  0.053466935	-7.410300E+01	  0.053466935	3.795900E+01	  0.053466935	-4.976200E+01
169	  0.053667337	-5.918000E+00	  0.053667337	-7.562800E+01	  0.053667337	3.702300E+01	  0.053667337	-4.877500E+01
170	  0.053867739	-5.929000E+00	  0.053867739	-7.710000E+01	  0.053867739	3.615900E+01	  0.053867739	-4.783200E+01
171	  0.054068137	-5.934000E+00	  0.054068137	-7.857900E+01	  0.054068137	3.530500E+01	  0.054068137	-4.691800E+01
172	  0.054268539	-5.942000E+00	  0.054268539	-8.004100E+01	  0.054268539	3.450900E+01	  0.054268539	-4.601000E+01
173	  0.054468941	-5.948000E+00	  0.054468941	-8.146600E+01	  0.054468941	3.376100E+01	  0.054468941	-4.513700E+01
174	  0.054669339	-5.962000E+00	  0.054669339	-8.285900E+01	  0.054669339	3.308900E+01	  0.054669339	-4.426700E+01
175	  0.054869737	-5.969000E+00	  0.054869737	-8.426500E+01	  0.054869737	3.240900E+01	  0.054869737	-4.342500E+01
176	  0.055070139	-5.981000E+00	  0.055070139	-8.567600E+01	  0.055070139	3.177700E+01	  0.055070139	-4.256700E+01
177	  0.055270538	-5.992000E+00	  0.055270538	-8.704300E+01	  0.055270538	3.118400E+01	  0.055270538	-4.175100E+01
178	  0.055470940	-6.002000E+00	  0.055470940	-8.841200E+01	  0.055470940	3.061200E+01	  0.055470940	-4.094300E+01
179	  0.055671342	-6.013000E+00	  0.055671342	-8.978500E+01	  0.055671342	3.006400E+01	  0.055671342	-4.013900E+01
180	  0.055871744	-6.021000E+00	  0.055871744	-9.117600E+01	  0.055871744	2.951700E+01	  0.055871744	-3.934400E+01
181	  0.056072142	-6.033000E+00	  0.056072142	-9.253400E+01	  0.056072142	2.902200E+01	  0.056072142	-3.856100E+01
182	  0.056272544	-6.042000E+00	  0.056272544	-9.391200E+01	  0.056272544	2.852400E+01	  0.056272544	-3.778700E+01
183	  0.056472946	-6.055000E+00	  0.056472946	-9.530700E+01	  0.056472946	2.805600E+01	  0.056472946	-3.700000E+01
184	  0.056673344	-6.062000E+00	  0.056673344	-9.667900E+01	  0.056673344	2.759400E+01	  0.056673344	-3.624900E+01
185	  0.056873746	-6.070000E+00	  0.056873746	-9.803500E+01	  0.056873746	2.715600E+01	  0.056873746	-3.551200E+01
186	  0.057074148	-6.077000E+00	  0.057074148	-9.939700E+01	  0.057074148	2.673100E+01	  0.057074148	-3.478100E+01
187	  0.057274550	-6.078000E+00	  0.057274550	-1.007590E+02	  0.057274550	2.629900E+01	  0.057274550	-3.407100E+01
188	  0.057474948	-6.081000E+00	  0.057474948	-1.021130E+02	  0.057474948	2.589500E+01	  0.057474948	-3.336600E+01
189	  0.057675350	-6.082000E+00	  0.057675350	-1.034590E+02	  0.057675350	2.550000E+01	  0.057675350	-3.267500E+01
190	  0.057875752	-6.081000E+00	  0.057875752	-1.047530E+02	  0.057875752	2.512600E+01	  0.057875752	-3.202100E+01
191	  0.058076151	-6.086000E+00	  0.058076151	-1.060730E+02	  0.058076151	2.477900E+01	  0.058076151	-3.134800E+01
192	  0.058276553	-6.087000E+00	  0.058276553	-1.073410E+02	  0.058276553	2.444300E+01	  0.058276553	-3.071400E+01
193	  0.058476955	-6.090000E+00	  0.058476955	-1.086150E+02	  0.058476955	2.412500E+01	  0.058476955	-3.007900E+01
194	  0.058677353	-6.090000E+00	  0.058677353	-1.098410E+02	  0.058677353	2.382100E+01	  0.058677353	-2.947700E+01
195	  0.058877755	-6.094000E+00	  0.058877755	-1.111250E+02	  0.058877755	2.352300E+01	  0.058877755	-2.884500E+01
196	  0.059078157	-6.098000E+00	  0.059078157	-1.123960E+02	  0.059078157	2.324000E+01	  0.059078157	-2.822500E+01
197	  0.059278559	-6.101000E+00	  0.059278559	-1.136420E+02	  0.059278559	2.296900E+01	  0.059278559	-2.762400E+01
198	  0.059478957	-6.101000E+00	  0.059478957	-1.148890E+02	  0.059478957	2.269600E+01	  0.059478957	-2.703100E+01
199	  0.059679359	-6.108000E+00	  0.059679359	-1.161420E+02	  0.059679359	2.245300E+01	  0.059679359	-2.643000E+01
200	  0.059879761	-6.115000E+00	  0.059879761	-1.173970E+02	  0.059879761	2.222000E+01	  0.059879761	-2.583200E+01
201	  0.060080159	-6.119000E+00	  0.060080159	-1.186070E+02	  0.060080159	2.199500E+01	  0.060080159	-2.526400E+01
202	  0.060280561	-6.122000E+00	  0.060280561	-1.198380E+02	  0.060280561	2.176800E+01	  0.060280561	-2.469200E+01
203	  0.060480963	-6.127000E+00	  0.060480963	-1.210770E+02	  0.060480963	2.155400E+01	  0.060480963	-2.411800E+01
204	  0.060681365	-6.128000E+00	  0.060681365	-1.222870E+02	  0.060681365	2.134300E+01	  0.060681365	-2.356600E+01
205	  0.060881764	-6.131000E+00	  0.060881764	-1.235040E+02	  0.060881764	2.114200E+01	  0.060881764	-2.301200E+01
206	  0.061082166	-6.136000E+00	  0.061082166	-1.247120E+02	  0.061082166	2.095400E+01	  0.061082166	-2.246400E+01
207	  0.061282568	-6.138000E+00	  0.061282568	-1.259010E+02	  0.061282568	2.076900E+01	  0.061282568	-2.193100E+01
208	  0.061482966	-6.140000E+00	  0.061482966	-1.271010E+02	  0.061482966	2.058700E+01	  0.061482966	-2.139700E+01
209	  0.061683368	-6.142000E+00	  0.061683368	-1.282690E+02	  0.061683368	2.041400E+01	  0.061683368	-2.088000E+01
210	  0.061883770	-6.145000E+00	  0.061883770	-1.294430E+02	  0.061883770	2.025200E+01	  0.061883770	-2.036200E+01
211	  0.062084168	-6.151000E+00	  0.062084168	-1.305880E+02	  0.062084168	2.010700E+01	  0.062084168	-1.985800E+01
212	  0.062284570	-6.157000E+00	  0.062284570	-1.317360E+02	  0.062284570	1.996600E+01	  0.062284570	-1.935500E+01
213	  0.062484972	-6.148000E+00	  0.062484972	-1.328260E+02	  0.062484972	1.979600E+01	  0.062484972	-1.889300E+01
214	  0.062685370	-6.157000E+00	  0.062685370	-1.339720E+02	  0.062685370	1.967400E+01	  0.062685370	-1.839300E+01
215	  0.062885776	-6.161000E+00	  0.062885776	-1.351250E+02	  0.062885776	1.954300E+01	  0.062885776	-1.789800E+01
216	  0.063086174	-6.169000E+00	  0.063086174	-1.362650E+02	  0.063086174	1.942800E+01	  0.063086174	-1.740800E+01
217	  0.063286573	-6.177000E+00	  0.063286573	-1.374130E+02	  0.063286573	1.931800E+01	  0.063286573	-1.691700E+01
218	  0.063486971	-6.178000E+00	  0.063486971	-1.385420E+02	  0.063486971	1.919200E+01	  0.063486971	-1.644200E+01
219	  0.063687377	-6.180000E+00	  0.063687377	-1.396720E+02	  0.063687377	1.907800E+01	  0.063687377	-1.596700E+01
220	  0.063887775	-6.183000E+00	  0.063887775	-1.407780E+02	  0.063887775	1.896800E+01	  0.063887775	-1.550500E+01
221	  0.064088173	-6.187000E+00	  0.064088173	-1.419010E+02	  0.064088173	1.886600E+01	  0.064088173	-1.503700E+01
222	  0.064288579	-6.180000E+00	  0.064288579	-1.430030E+02	  0.064288579	1.874000E+01	  0.064288579	-1.458700E+01
223	  0.064488977	-6.184000E+00	  0.064488977	-1.440980E+02	  0.064488977	1.865000E+01	  0.064488977	-1.413300E+01
224	  0.064689375	-6.176000E+00	  0.064689375	-1.451550E+02	  0.064689375	1.853200E+01	  0.064689375	-1.370500E+01
225	  0.064889781	-6.176000E+00	  0.064889781	-1.461770E+02	  0.064889781	1.844400E+01	  0.064889781	-1.328700E+01
226	  0.065090179	-6.174000E+00	  0.065090179	-1.472510E+02	  0.065090179	1.834700E+01	  0.065090179	-1.285200E+01
227	  0.065290578	-6.169000E+00	  0.065290578	-1.482690E+02	  0.065290578	1.825100E+01	  0.065290578	-1.244100E+01
228	  0.065490983	-6.165000E+00	  0.065490983	-1.492930E+02	  0.065490983	1.816000E+01	  0.065490983	-1.202900E+01
229	  0.065691382	-6.157000E+00	  0.065691382	-1.503120E+02	  0.065691382	1.806400E+01	  0.065691382	-1.162200E+01
230	  0.065891780	-6.156000E+00	  0.065891780	-1.513440E+02	  0.065891780	1.798600E+01	  0.065891780	-1.120700E+01
231	  0.066092186	-6.149000E+00	  0.066092186	-1.523350E+02	  0.066092186	1.789900E+01	  0.066092186	-1.081200E+01
232	  0.066292584	-6.146000E+00	  0.066292584	-1.533600E+02	  0.066292584	1.782400E+01	  0.066292584	-1.040300E+01
233	  0.066492982	-6.146000E+00	  0.066492982	-1.543750E+02	  0.066492982	1.775900E+01	  0.066492982	-9.998000E+00
234	  0.066693388	-6.143000E+00	  0.066693388	-1.554060E+02	  0.066693388	1.769000E+01	  0.066693388	-9.589000E+00
235	  0.066893786	-6.138000E+00	  0.066893786	-1.564190E+02	  0.066893786	1.761700E+01	  0.066893786	-9.188000E+00
236	  0.067094192	-6.134000E+00	  0.067094192	-1.573960E+02	  0.067094192	1.755300E+01	  0.067094192	-8.802000E+00
237	  0.067294590	-6.133000E+00	  0.067294590	-1.584130E+02	  0.067294590	1.749600E+01	  0.067294590	-8.400000E+00
238	  0.067494988	-6.132000E+00	  0.067494988	-1.594480E+02	  0.067494988	1.744200E+01	  0.067494988	-7.992000E+00
239	  0.067695394	-6.130000E+00	  0.067695394	-1.604420E+02	  0.067695394	1.739100E+01	  0.067695394	-7.601000E+00
240	  0.067895792	-6.127000E+00	  0.067895792	-1.614670E+02	  0.067895792	1.733600E+01	  0.067895792	-7.199000E+00
241	  0.068096191	-6.130000E+00	  0.068096191	-1.624950E+02	  0.068096191	1.730100E+01	  0.068096191	-6.794000E+00
242	  0.068296596	-6.134000E+00	  0.068296596	-1.635170E+02	  0.068296596	1.727100E+01	  0.068296596	-6.393000E+00
243	  0.068496995	-6.135000E+00	  0.068496995	-1.645140E+02	  0.068496995	1.723700E+01	  0.068496995	-6.003000E+00
244	  0.068697393	-6.133000E+00	  0.068697393	-1.655300E+02	  0.068697393	1.719600E+01	  0.068697393	-5.607000E+00
245	  0.068897791	-6.137000E+00	  0.068897791	-1.665260E+02	  0.068897791	1.717400E+01	  0.068897791	-5.217000E+00
246	  0.069098189	-6.139000E+00	  0.069098189	-1.675490E+02	  0.069098189	1.714800E+01	  0.069098189	-4.819000E+00
247	  0.069298595	-6.135000E+00	  0.069298595	-1.685660E+02	  0.069298595	1.710900E+01	  0.069298595	-4.424000E+00
248	  0.069498993	-6.133000E+00	  0.069498993	-1.695720E+02	  0.069498993	1.707900E+01	  0.069498993	-4.033000E+00
249	  0.069699399	-6.138000E+00	  0.069699399	-1.705930E+02	  0.069699399	1.706800E+01	  0.069699399	-3.637000E+00
250	  0.069899797	-6.137000E+00	  0.069899797	-1.716360E+02	  0.069899797	1.704400E+01	  0.069899797	-3.233000E+00
251	  0.070100196	-6.139000E+00	  0.070100196	-1.726380E+02	  0.070100196	1.703200E+01	  0.070100196	-2.844000E+00
252	  0.070300601	-6.141000E+00	  0.070300601	-1.736180E+02	  0.070300601	1.702000E+01	  0.070300601	-2.465000E+00
253	  0.070501000	-6.137000E+00	  0.070501000	-1.746590E+02	  0.070501000	1.699800E+01	  0.070501000	-2.063000E+00
254	  0.070701398	-6.134000E+00	  0.070701398	-1.756690E+02	  0.070701398	1.697900E+01	  0.070701398	-1.672000E+00
255	  0.070901804	-6.133000E+00	  0.070901804	-1.766780E+02	  0.070901804	1.696700E+01	  0.070901804	-1.282000E+00
256	  0.071102202	-6.133000E+00	  0.071102202	-1.776900E+02	  0.071102202	1.696000E+01	  0.071102202	-8.920000E-01
257	  0.071302600	-6.131000E+00	  0.071302600	-1.786730E+02	  0.071302600	1.695300E+01	  0.071302600	-5.120000E-01
258	  0.071503006	-6.135000E+00	  0.071503006	-1.796990E+02	  0.071503006	1.696000E+01	  0.071503006	-1.160000E-01
259	  0.071703404	-6.133000E+00	  0.071703404	1.793330E+02	  0.071703404	1.695500E+01	  0.071703404	2.570000E-01
260	  0.071903802	-6.135000E+00	  0.071903802	1.783950E+02	  0.071903802	1.696400E+01	  0.071903802	6.190000E-01
261	  0.072104208	-6.136000E+00	  0.072104208	1.773910E+02	  0.072104208	1.697000E+01	  0.072104208	1.007000E+00
262	  0.072304606	-6.132000E+00	  0.072304606	1.764250E+02	  0.072304606	1.696600E+01	  0.072304606	1.380000E+00
263	  0.072505005	-6.132000E+00	  0.072505005	1.754520E+02	  0.072505005	1.697700E+01	  0.072505005	1.756000E+00
264	  0.072705410	-6.137000E+00	  0.072705410	1.745130E+02	  0.072705410	1.699900E+01	  0.072705410	2.119000E+00
265	  0.072905809	-6.135000E+00	  0.072905809	1.735540E+02	  0.072905809	1.700700E+01	  0.072905809	2.490000E+00
266	  0.073106214	-6.140000E+00	  0.073106214	1.725890E+02	  0.073106214	1.703400E+01	  0.073106214	2.863000E+00
267	  0.073306613	-6.142000E+00	  0.073306613	1.716570E+02	  0.073306613	1.705700E+01	  0.073306613	3.224000E+00
268	  0.073507011	-6.145000E+00	  0.073507011	1.707110E+02	  0.073507011	1.708300E+01	  0.073507011	3.590000E+00
269	  0.073707417	-6.151000E+00	  0.073707417	1.697680E+02	  0.073707417	1.711900E+01	  0.073707417	3.955000E+00
270	  0.073907815	-6.153000E+00	  0.073907815	1.688080E+02	  0.073907815	1.714800E+01	  0.073907815	4.327000E+00
271	  0.074108213	-6.160000E+00	  0.074108213	1.679000E+02	  0.074108213	1.719300E+01	  0.074108213	4.678000E+00
272	  0.074308619	-6.163000E+00	  0.074308619	1.669440E+02	  0.074308619	1.722700E+01	  0.074308619	5.049000E+00
273	  0.074509017	-6.171000E+00	  0.074509017	1.660030E+02	  0.074509017	1.727700E+01	  0.074509017	5.414000E+00
274	  0.074709415	-6.178000E+00	  0.074709415	1.650690E+02	  0.074709415	1.732800E+01	  0.074709415	5.776000E+00
275	  0.074909821	-6.185000E+00	  0.074909821	1.641380E+02	  0.074909821	1.737900E+01	  0.074909821	6.138000E+00
276	  0.075110219	-6.198000E+00	  0.075110219	1.632030E+02	  0.075110219	1.744700E+01	  0.075110219	6.499000E+00
277	  0.075310618	-6.209000E+00	  0.075310618	1.623080E+02	  0.075310618	1.751200E+01	  0.075310618	6.846000E+00
278	  0.075511023	-6.219000E+00	  0.075511023	1.613980E+02	  0.075511023	1.757800E+01	  0.075511023	7.199000E+00
279	  0.075711422	-6.226000E+00	  0.075711422	1.604630E+02	  0.075711422	1.763900E+01	  0.075711422	7.563000E+00
280	  0.075911827	-6.236000E+00	  0.075911827	1.595440E+02	  0.075911827	1.771000E+01	  0.075911827	7.921000E+00
281	  0.076112226	-6.245000E+00	  0.076112226	1.586420E+02	  0.076112226	1.777600E+01	  0.076112226	8.272000E+00
282	  0.076312624	-6.256000E+00	  0.076312624	1.577210E+02	  0.076312624	1.785500E+01	  0.076312624	8.630000E+00
283	  0.076513030	-6.266000E+00	  0.076513030	1.567840E+02	  0.076513030	1.793100E+01	  0.076513030	8.996000E+00
284	  0.076713428	-6.280000E+00	  0.076713428	1.558570E+02	  0.076713428	1.802100E+01	  0.076713428	9.357000E+00
285	  0.076913826	-6.290000E+00	  0.076913826	1.549470E+02	  0.076913826	1.810300E+01	  0.076913826	9.712000E+00
286	  0.077114232	-6.299000E+00	  0.077114232	1.540210E+02	  0.077114232	1.818500E+01	  0.077114232	1.007500E+01
287	  0.077314630	-6.304000E+00	  0.077314630	1.531290E+02	  0.077314630	1.825500E+01	  0.077314630	1.042700E+01
288	  0.077515028	-6.316000E+00	  0.077515028	1.522400E+02	  0.077515028	1.834600E+01	  0.077515028	1.077500E+01
289	  0.077715434	-6.328000E+00	  0.077715434	1.513740E+02	  0.077715434	1.843900E+01	  0.077715434	1.111400E+01
290	  0.077915832	-6.339000E+00	  0.077915832	1.504950E+02	  0.077915832	1.853300E+01	  0.077915832	1.146000E+01
291	  0.078116231	-6.350000E+00	  0.078116231	1.495710E+02	  0.078116231	1.863000E+01	  0.078116231	1.182400E+01
292	  0.078316636	-6.366000E+00	  0.078316636	1.487330E+02	  0.078316636	1.873800E+01	  0.078316636	1.215100E+01
293	  0.078517035	-6.378000E+00	  0.078517035	1.478610E+02	  0.078517035	1.884100E+01	  0.078517035	1.249400E+01
294	  0.078717433	-6.398000E+00	  0.078717433	1.470030E+02	  0.078717433	1.896600E+01	  0.078717433	1.282800E+01
295	  0.078917839	-6.410000E+00	  0.078917839	1.461370E+02	  0.078917839	1.907100E+01	  0.078917839	1.317000E+01
296	  0.079118237	-6.424000E+00	  0.079118237	1.452920E+02	  0.079118237	1.918600E+01	  0.079118237	1.350300E+01
297	  0.079318643	-6.440000E+00	  0.079318643	1.444660E+02	  0.079318643	1.930300E+01	  0.079318643	1.382700E+01
298	  0.079519041	-6.453000E+00	  0.079519041	1.436100E+02	  0.079519041	1.941900E+01	  0.079519041	1.416600E+01
299	  0.079719439	-6.477000E+00	  0.079719439	1.427700E+02	  0.079719439	1.956600E+01	  0.079719439	1.449100E+01
300	  0.079919845	-6.491000E+00	  0.079919845	1.419260E+02	  0.079919845	1.968600E+01	  0.079919845	1.482500E+01
301	  0.080120243	-6.508000E+00	  0.080120243	1.410690E+02	  0.080120243	1.982100E+01	  0.080120243	1.516300E+01
302	  0.080320641	-6.522000E+00	  0.080320641	1.402360E+02	  0.080320641	1.994900E+01	  0.080320641	1.549300E+01
303	  0.080521047	-6.545000E+00	  0.080521047	1.394020E+02	  0.080521047	2.010000E+01	  0.080521047	1.581800E+01
304	  0.080721445	-6.564000E+00	  0.080721445	1.386070E+02	  0.080721445	2.024100E+01	  0.080721445	1.613000E+01
305	  0.080921844	-6.581000E+00	  0.080921844	1.377580E+02	  0.080921844	2.038600E+01	  0.080921844	1.646500E+01
306	  0.081122249	-6.603000E+00	  0.081122249	1.369630E+02	  0.081122249	2.053900E+01	  0.081122249	1.677500E+01
307	  0.081322648	-6.618000E+00	  0.081322648	1.361530E+02	  0.081322648	2.067900E+01	  0.081322648	1.709700E+01
308	  0.081523046	-6.638000E+00	  0.081523046	1.353400E+02	  0.081523046	2.083600E+01	  0.081523046	1.741600E+01
309	  0.081723452	-6.661000E+00	  0.081723452	1.345260E+02	  0.081723452	2.100300E+01	  0.081723452	1.773400E+01
310	  0.081923850	-6.673000E+00	  0.081923850	1.337240E+02	  0.081923850	2.114200E+01	  0.081923850	1.805600E+01
311	  0.082124248	-6.694000E+00	  0.082124248	1.329270E+02	  0.082124248	2.130700E+01	  0.082124248	1.836800E+01
312	  0.082324654	-6.716000E+00	  0.082324654	1.321330E+02	  0.082324654	2.147700E+01	  0.082324654	1.867900E+01
313	  0.082525052	-6.739000E+00	  0.082525052	1.313540E+02	  0.082525052	2.165000E+01	  0.082525052	1.898300E+01
314	  0.082725458	-6.759000E+00	  0.082725458	1.305900E+02	  0.082725458	2.181700E+01	  0.082725458	1.928200E+01
315	  0.082925856	-6.781000E+00	  0.082925856	1.298200E+02	  0.082925856	2.199100E+01	  0.082925856	1.958300E+01
316	  0.083126254	-6.806000E+00	  0.083126254	1.290330E+02	  0.083126254	2.218000E+01	  0.083126254	1.988800E+01
317	  0.083326660	-6.827000E+00	  0.083326660	1.282320E+02	  0.083326660	2.236400E+01	  0.083326660	2.020300E+01
318	  0.083527058	-6.848000E+00	  0.083527058	1.274440E+02	  0.083527058	2.254700E+01	  0.083527058	2.051200E+01
319	  0.083727457	-6.866000E+00	  0.083727457	1.266490E+02	  0.083727457	2.272900E+01	  0.083727457	2.082700E+01
320	  0.083927862	-6.884000E+00	  0.083927862	1.258960E+02	  0.083927862	2.290400E+01	  0.083927862	2.112500E+01
321	  0.084128261	-6.907000E+00	  0.084128261	1.251270E+02	  0.084128261	2.309800E+01	  0.084128261	2.142500E+01
322	  0.084328659	-6.924000E+00	  0.084328659	1.243540E+02	  0.084328659	2.328200E+01	  0.084328659	2.173200E+01
323	  0.084529065	-6.942000E+00	  0.084529065	1.236270E+02	  0.084529065	2.346100E+01	  0.084529065	2.202100E+01
324	  0.084729463	-6.964000E+00	  0.084729463	1.228940E+02	  0.084729463	2.365700E+01	  0.084729463	2.230600E+01
325	  0.084929861	-6.985000E+00	  0.084929861	1.221530E+02	  0.084929861	2.385400E+01	  0.084929861	2.259600E+01
326	  0.085130267	-7.007000E+00	  0.085130267	1.214260E+02	  0.085130267	2.405300E+01	  0.085130267	2.287800E+01
327	  0.085330658	-7.022000E+00	  0.085330658	1.206820E+02	  0.085330658	2.424200E+01	  0.085330658	2.317600E+01
328	  0.085531056	-7.042000E+00	  0.085531056	1.199910E+02	  0.085531056	2.443400E+01	  0.085531056	2.344600E+01
329	  0.085731462	-7.071000E+00	  0.085731462	1.192800E+02	  0.085731462	2.465900E+01	  0.085731462	2.371200E+01
330	  0.085931860	-7.093000E+00	  0.085931860	1.185700E+02	  0.085931860	2.486700E+01	  0.085931860	2.398700E+01
331	  0.086132258	-7.111000E+00	  0.086132258	1.178580E+02	  0.086132258	2.506800E+01	  0.086132258	2.426700E+01
332	  0.086332664	-7.143000E+00	  0.086332664	1.171640E+02	  0.086332664	2.530800E+01	  0.086332664	2.451900E+01
333	  0.086533062	-7.164000E+00	  0.086533062	1.164850E+02	  0.086533062	2.551700E+01	  0.086533062	2.478100E+01
334	  0.086733460	-7.194000E+00	  0.086733460	1.157660E+02	  0.086733460	2.576200E+01	  0.086733460	2.504600E+01
335	  0.086933866	-7.213000E+00	  0.086933866	1.150570E+02	  0.086933866	2.597700E+01	  0.086933866	2.532300E+01
336	  0.087134264	-7.244000E+00	  0.087134264	1.143440E+02	  0.087134264	2.623000E+01	  0.087134264	2.558300E+01
337	  0.087334670	-7.264000E+00	  0.087334670	1.136420E+02	  0.087334670	2.645400E+01	  0.087334670	2.585200E+01
338	  0.087535068	-7.299000E+00	  0.087535068	1.129110E+02	  0.087535068	2.673000E+01	  0.087535068	2.611200E+01
339	  0.087735467	-7.320000E+00	  0.087735467	1.122070E+02	  0.087735467	2.696100E+01	  0.087735467	2.638200E+01
340	  0.087935872	-7.348000E+00	  0.087935872	1.115280E+02	  0.087935872	2.721100E+01	  0.087935872	2.662800E+01
341	  0.088136271	-7.376000E+00	  0.088136271	1.108350E+02	  0.088136271	2.746700E+01	  0.088136271	2.687900E+01
342	  0.088336669	-7.404000E+00	  0.088336669	1.101680E+02	  0.088336669	2.772200E+01	  0.088336669	2.711800E+01
343	  0.088537075	-7.429000E+00	  0.088537075	1.094820E+02	  0.088537075	2.797200E+01	  0.088537075	2.737100E+01
344	  0.088737473	-7.457000E+00	  0.088737473	1.088310E+02	  0.088737473	2.823000E+01	  0.088737473	2.760000E+01
345	  0.088937871	-7.488000E+00	  0.088937871	1.081560E+02	  0.088937871	2.850200E+01	  0.088937871	2.783400E+01
346	  0.089138277	-7.511000E+00	  0.089138277	1.074890E+02	  0.089138277	2.875300E+01	  0.089138277	2.807900E+01
347	  0.089338675	-7.542000E+00	  0.089338675	1.068920E+02	  0.089338675	2.901000E+01	  0.089338675	2.827700E+01
348	  0.089539073	-7.576000E+00	  0.089539073	1.062550E+02	  0.089539073	2.929100E+01	  0.089539073	2.848500E+01
349	  0.089739479	-7.605000E+00	  0.089739479	1.056160E+02	  0.089739479	2.956100E+01	  0.089739479	2.870200E+01
350	  0.089939877	-7.638000E+00	  0.089939877	1.049990E+02	  0.089939877	2.983800E+01	  0.089939877	2.890100E+01
351	  0.090140276	-7.662000E+00	  0.090140276	1.043510E+02	  0.090140276	3.010300E+01	  0.090140276	2.912900E+01
352	  0.090340681	-7.697000E+00	  0.090340681	1.037350E+02	  0.090340681	3.039200E+01	  0.090340681	2.931900E+01
353	  0.090541080	-7.723000E+00	  0.090541080	1.031150E+02	  0.090541080	3.065800E+01	  0.090541080	2.953000E+01
354	  0.090741485	-7.754000E+00	  0.090741485	1.024680E+02	  0.090741485	3.095000E+01	  0.090741485	2.974000E+01
355	  0.090941884	-7.779000E+00	  0.090941884	1.018400E+02	  0.090941884	3.122400E+01	  0.090941884	2.995100E+01
356	  0.091142282	-7.808000E+00	  0.091142282	1.012450E+02	  0.091142282	3.149900E+01	  0.091142282	3.014000E+01
357	  0.091342688	-7.839000E+00	  0.091342688	1.006580E+02	  0.091342688	3.178300E+01	  0.091342688	3.031800E+01
358	  0.091543086	-7.867000E+00	  0.091543086	1.000610E+02	  0.091543086	3.206200E+01	  0.091543086	3.050700E+01
359	  0.091743484	-7.898000E+00	  0.091743484	9.949200E+01	  0.091743484	3.234400E+01	  0.091743484	3.067400E+01
360	  0.091943890	-7.921000E+00	  0.091943890	9.887100E+01	  0.091943890	3.262400E+01	  0.091943890	3.088000E+01
361	  0.092144288	-7.944000E+00	  0.092144288	9.831100E+01	  0.092144288	3.288400E+01	  0.092144288	3.106100E+01
362	  0.092344686	-7.969000E+00	  0.092344686	9.771900E+01	  0.092344686	3.316500E+01	  0.092344686	3.124800E+01
363	  0.092545092	-8.002000E+00	  0.092545092	9.715400E+01	  0.092545092	3.346200E+01	  0.092545092	3.140200E+01
364	  0.092745490	-8.027000E+00	  0.092745490	9.662300E+01	  0.092745490	3.372500E+01	  0.092745490	3.156100E+01
365	  0.092945889	-8.059000E+00	  0.092945889	9.610100E+01	  0.092945889	3.400700E+01	  0.092945889	3.169600E+01
366	  0.093146294	-8.090000E+00	  0.093146294	9.552900E+01	  0.093146294	3.430900E+01	  0.093146294	3.185100E+01
367	  0.093346693	-8.121000E+00	  0.093346693	9.500100E+01	  0.093346693	3.459500E+01	  0.093346693	3.198700E+01
368	  0.093547091	-8.149000E+00	  0.093547091	9.445500E+01	  0.093547091	3.488100E+01	  0.093547091	3.213700E+01
369	  0.093747497	-8.181000E+00	  0.093747497	9.392500E+01	  0.093747497	3.517600E+01	  0.093747497	3.226700E+01
370	  0.093947895	-8.211000E+00	  0.093947895	9.335300E+01	  0.093947895	3.548300E+01	  0.093947895	3.241800E+01
371	  0.094148301	-8.239000E+00	  0.094148301	9.278700E+01	  0.094148301	3.578400E+01	  0.094148301	3.257100E+01
372	  0.094348699	-8.269000E+00	  0.094348699	9.226800E+01	  0.094348699	3.607600E+01	  0.094348699	3.269400E+01
373	  0.094549097	-8.298000E+00	  0.094549097	9.171600E+01	  0.094549097	3.637900E+01	  0.094549097	3.283500E+01
374	  0.094749503	-8.331000E+00	  0.094749503	9.120800E+01	  0.094749503	3.667900E+01	  0.094749503	3.294000E+01
375	  0.094949901	-8.349000E+00	  0.094949901	9.069200E+01	  0.094949901	3.694500E+01	  0.094949901	3.309100E+01
376	  0.095150299	-8.381000E+00	  0.095150299	9.019300E+01	  0.095150299	3.724000E+01	  0.095150299	3.319400E+01
377	  0.095350705	-8.401000E+00	  0.095350705	8.966500E+01	  0.095350705	3.752000E+01	  0.095350705	3.334100E+01
378	  0.095551103	-8.428000E+00	  0.095551103	8.916800E+01	  0.095551103	3.780700E+01	  0.095551103	3.345300E+01
379	  0.095751502	-8.455000E+00	  0.095751502	8.867000E+01	  0.095751502	3.809600E+01	  0.095751502	3.356400E+01
380	  0.095951907	-8.473000E+00	  0.095951907	8.816200E+01	  0.095951907	3.836900E+01	  0.095951907	3.370300E+01
381	  0.096152306	-8.502000E+00	  0.096152306	8.770900E+01	  0.096152306	3.864700E+01	  0.096152306	3.378600E+01
382	  0.096352704	-8.525000E+00	  0.096352704	8.725600E+01	  0.096352704	3.891000E+01	  0.096352704	3.388800E+01
383	  0.096553110	-8.554000E+00	  0.096553110	8.678500E+01	  0.096553110	3.919900E+01	  0.096553110	3.397300E+01
384	  0.096753508	-8.576000E+00	  0.096753508	8.631200E+01	  0.096753508	3.947300E+01	  0.096753508	3.408000E+01
385	  0.096953906	-8.597000E+00	  0.096953906	8.585100E+01	  0.096953906	3.974100E+01	  0.096953906	3.418500E+01
386	  0.097154312	-8.617000E+00	  0.097154312	8.539000E+01	  0.097154312	4.000900E+01	  0.097154312	3.428800E+01
387	  0.097354710	-8.643000E+00	  0.097354710	8.491700E+01	  0.097354710	4.029800E+01	  0.097354710	3.437600E+01
388	  0.097555116	-8.667000E+00	  0.097555116	8.448400E+01	  0.097555116	4.056600E+01	  0.097555116	3.445300E+01
389	  0.097755514	-8.689000E+00	  0.097755514	8.406900E+01	  0.097755514	4.082100E+01	  0.097755514	3.453000E+01
390	  0.097955912	-8.708000E+00	  0.097955912	8.360800E+01	  0.097955912	4.109300E+01	  0.097955912	3.463000E+01
391	  0.098156318	-8.732000E+00	  0.098156318	8.317100E+01	  0.098156318	4.136700E+01	  0.098156318	3.470300E+01
392	  0.098356716	-8.755000E+00	  0.098356716	8.273900E+01	  0.098356716	4.163600E+01	  0.098356716	3.477800E+01
393	  0.098557115	-8.773000E+00	  0.098557115	8.232200E+01	  0.098557115	4.188700E+01	  0.098557115	3.486200E+01
394	  0.098757520	-8.786000E+00	  0.098757520	8.192700E+01	  0.098757520	4.212000E+01	  0.098757520	3.495000E+01
395	  0.098957919	-8.804000E+00	  0.098957919	8.147400E+01	  0.098957919	4.239400E+01	  0.098957919	3.504300E+01
396	  0.099158317	-8.823000E+00	  0.099158317	8.107700E+01	  0.099158317	4.264200E+01	  0.099158317	3.511100E+01
397	  0.099358723	-8.843000E+00	  0.099358723	8.067800E+01	  0.099358723	4.289600E+01	  0.099358723	3.517500E+01
398	  0.099559121	-8.860000E+00	  0.099559121	8.029600E+01	  0.099559121	4.313400E+01	  0.099559121	3.524200E+01
399	  0.099759519	-8.873000E+00	  0.099759519	7.987700E+01	  0.099759519	4.338700E+01	  0.099759519	3.533100E+01
400	  0.099959925	-8.888000E+00	  0.099959925	7.941400E+01	  0.099959925	4.366700E+01	  0.099959925	3.542800E+01
401	  0.100160323	-8.904000E+00	  0.100160323	7.908300E+01	  0.100160323	4.388100E+01	  0.100160323	3.547700E+01
402	  0.100360721	-8.925000E+00	  0.100360721	7.870200E+01	  0.100360721	4.413200E+01	  0.100360721	3.552600E+01
403	  0.100561127	-8.940000E+00	  0.100561127	7.831900E+01	  0.100561127	4.437300E+01	  0.100561127	3.559200E+01
404	  0.100761525	-8.961000E+00	  0.100761525	7.786800E+01	  0.100761525	4.466500E+01	  0.100761525	3.565700E+01
405	  0.100961931	-8.960000E+00	  0.100961931	7.750300E+01	  0.100961931	4.486800E+01	  0.100961931	3.577000E+01
406	  0.101162329	-8.980000E+00	  0.101162329	7.712000E+01	  0.101162329	4.512400E+01	  0.101162329	3.581500E+01
407	  0.101362728	-8.982000E+00	  0.101362728	7.666500E+01	  0.101362728	4.538500E+01	  0.101362728	3.594600E+01
408	  0.101563133	-9.003000E+00	  0.101563133	7.628200E+01	  0.101563133	4.564500E+01	  0.101563133	3.598200E+01
409	  0.101763532	-9.007000E+00	  0.101763532	7.587300E+01	  0.101763532	4.588900E+01	  0.101763532	3.608900E+01
410	  0.101963930	-9.012000E+00	  0.101963930	7.541500E+01	  0.101963930	4.616600E+01	  0.101963930	3.620200E+01
411	  0.102164336	-9.019000E+00	  0.102164336	7.506400E+01	  0.102164336	4.638500E+01	  0.102164336	3.627700E+01
412	  0.102364734	-9.030000E+00	  0.102364734	7.457800E+01	  0.102364734	4.669300E+01	  0.102364734	3.637500E+01
413	  0.102565132	-9.027000E+00	  0.102565132	7.414400E+01	  0.102565132	4.694500E+01	  0.102565132	3.651200E+01
414	  0.102765530	-9.027000E+00	  0.102765530	7.371400E+01	  0.102765530	4.720300E+01	  0.102765530	3.663400E+01
415	  0.102965929	-9.018000E+00	  0.102965929	7.332900E+01	  0.102965929	4.742000E+01	  0.102965929	3.677800E+01
416	  0.103166327	-9.023000E+00	  0.103166327	7.296500E+01	  0.103166327	4.765200E+01	  0.103166327	3.685900E+01
417	  0.103366733	-9.028000E+00	  0.103366733	7.255500E+01	  0.103366733	4.791300E+01	  0.103366733	3.695200E+01
418	  0.103567131	-9.023000E+00	  0.103567131	7.211900E+01	  0.103567131	4.817400E+01	  0.103567131	3.709300E+01
419	  0.103767529	-9.026000E+00	  0.103767529	7.173900E+01	  0.103767529	4.841900E+01	  0.103767529	3.717900E+01
420	  0.103967935	-9.026000E+00	  0.103967935	7.132900E+01	  0.103967935	4.867600E+01	  0.103967935	3.729100E+01
421	  0.104168333	-9.024000E+00	  0.104168333	7.088700E+01	  0.104168333	4.895500E+01	  0.104168333	3.741500E+01
422	  0.104368731	-9.023000E+00	  0.104368731	7.059000E+01	  0.104368731	4.914400E+01	  0.104368731	3.749500E+01
423	  0.104569137	-9.015000E+00	  0.104569137	7.021100E+01	  0.104569137	4.937500E+01	  0.104569137	3.763000E+01
424	  0.104769535	-9.014000E+00	  0.104769535	6.976400E+01	  0.104769535	4.966300E+01	  0.104769535	3.774900E+01
425	  0.104969934	-9.004000E+00	  0.104969934	6.941200E+01	  0.104969934	4.987800E+01	  0.104969934	3.788100E+01
426	  0.105170339	-8.998000E+00	  0.105170339	6.903700E+01	  0.105170339	5.011600E+01	  0.105170339	3.800400E+01
427	  0.105370738	-8.980000E+00	  0.105370738	6.863900E+01	  0.105370738	5.035200E+01	  0.105370738	3.818200E+01
428	  0.105571143	-8.975000E+00	  0.105571143	6.830300E+01	  0.105571143	5.057100E+01	  0.105571143	3.828700E+01
429	  0.105771542	-8.955000E+00	  0.105771542	6.788500E+01	  0.105771542	5.082300E+01	  0.105771542	3.847900E+01
430	  0.105971940	-8.948000E+00	  0.105971940	6.751000E+01	  0.105971940	5.106900E+01	  0.105971940	3.860000E+01
431	  0.106172346	-8.932000E+00	  0.106172346	6.708800E+01	  0.106172346	5.133500E+01	  0.106172346	3.877600E+01
432	  0.106372744	-8.915000E+00	  0.106372744	6.668000E+01	  0.106372744	5.159400E+01	  0.106372744	3.895000E+01
433	  0.106573142	-8.881000E+00	  0.106573142	6.629100E+01	  0.106573142	5.181400E+01	  0.106573142	3.920000E+01
434	  0.106773548	-8.868000E+00	  0.106773548	6.578700E+01	  0.106773548	5.215400E+01	  0.106773548	3.937800E+01
435	  0.106973946	-8.846000E+00	  0.106973946	6.536000E+01	  0.106973946	5.242800E+01	  0.106973946	3.958100E+01
436	  0.107174344	-8.831000E+00	  0.107174344	6.485500E+01	  0.107174344	5.277300E+01	  0.107174344	3.977000E+01
437	  0.107374750	-8.810000E+00	  0.107374750	6.435400E+01	  0.107374750	5.311100E+01	  0.107374750	3.998500E+01
438	  0.107575148	-8.782000E+00	  0.107575148	6.384600E+01	  0.107575148	5.344900E+01	  0.107575148	4.023500E+01
439	  0.107775547	-8.759000E+00	  0.107775547	6.324100E+01	  0.107775547	5.387400E+01	  0.107775547	4.047900E+01
440	  0.107975952	-8.735000E+00	  0.107975952	6.268500E+01	  0.107975952	5.426600E+01	  0.107975952	4.072200E+01
441	  0.108176351	-8.729000E+00	  0.108176351	6.208800E+01	  0.108176351	5.472200E+01	  0.108176351	4.087500E+01
442	  0.108376749	-8.695000E+00	  0.108376749	6.145500E+01	  0.108376749	5.517400E+01	  0.108376749	4.118100E+01
443	  0.108577155	-8.672000E+00	  0.108577155	6.092800E+01	  0.108577155	5.556500E+01	  0.108577155	4.140600E+01
444	  0.108777553	-8.652000E+00	  0.108777553	6.031800E+01	  0.108777553	5.603200E+01	  0.108777553	4.163000E+01
445	  0.108977959	-8.636000E+00	  0.108977959	5.961200E+01	  0.108977959	5.659100E+01	  0.108977959	4.185000E+01
446	  0.109178357	-8.618000E+00	  0.109178357	5.895100E+01	  0.109178357	5.712100E+01	  0.109178357	4.206800E+01
447	  0.109378755	-8.601000E+00	  0.109378755	5.825400E+01	  0.109378755	5.769000E+01	  0.109378755	4.228300E+01
448	  0.109579161	-8.578000E+00	  0.109579161	5.763100E+01	  0.109579161	5.820000E+01	  0.109579161	4.251400E+01
449	  0.109779559	-8.557000E+00	  0.109779559	5.692900E+01	  0.109779559	5.878900E+01	  0.109779559	4.274300E+01
450	  0.109979957	-8.535000E+00	  0.109979957	5.618100E+01	  0.109979957	5.943000E+01	  0.109979957	4.298200E+01
451	  0.110180363	-8.514000E+00	  0.110180363	5.547500E+01	  0.110180363	6.004500E+01	  0.110180363	4.320300E+01
452	  0.110380761	-8.505000E+00	  0.110380761	5.478900E+01	  0.110380761	6.066200E+01	  0.110380761	4.335000E+01
453	  0.110581160	-8.485000E+00	  0.110581160	5.407700E+01	  0.110581160	6.130600E+01	  0.110581160	4.355400E+01
454	  0.110781565	-8.467000E+00	  0.110781565	5.330100E+01	  0.110781565	6.202200E+01	  0.110781565	4.374400E+01
455	  0.110981964	-8.447000E+00	  0.110981964	5.258900E+01	  0.110981964	6.268900E+01	  0.110981964	4.394000E+01
456	  0.111182362	-8.437000E+00	  0.111182362	5.185900E+01	  0.111182362	6.339100E+01	  0.111182362	4.406300E+01
457	  0.111382768	-8.418000E+00	  0.111382768	5.105700E+01	  0.111382768	6.417100E+01	  0.111382768	4.423500E+01
458	  0.111583166	-8.411000E+00	  0.111583166	5.034300E+01	  0.111583166	6.488100E+01	  0.111583166	4.431700E+01
459	  0.111783572	-8.395000E+00	  0.111783572	4.955700E+01	  0.111783572	6.567200E+01	  0.111783572	4.445500E+01
460	  0.111983970	-8.389000E+00	  0.111983970	4.884000E+01	  0.111983970	6.640600E+01	  0.111983970	4.451300E+01
461	  0.112184368	-8.380000E+00	  0.112184368	4.803600E+01	  0.112184368	6.724200E+01	  0.112184368	4.457300E+01
462	  0.112384774	-8.383000E+00	  0.112384774	4.720000E+01	  0.112384774	6.812100E+01	  0.112384774	4.453800E+01
463	  0.112585172	-8.375000E+00	  0.112585172	4.643400E+01	  0.112585172	6.893900E+01	  0.112585172	4.456600E+01
464	  0.112785570	-8.377000E+00	  0.112785570	4.560600E+01	  0.112785570	6.983200E+01	  0.112785570	4.450800E+01
465	  0.112985976	-8.375000E+00	  0.112985976	4.475100E+01	  0.112985976	7.076600E+01	  0.112985976	4.445300E+01
466	  0.113186374	-8.377000E+00	  0.113186374	4.395900E+01	  0.113186374	7.163900E+01	  0.113186374	4.435200E+01
467	  0.113386773	-8.382000E+00	  0.113386773	4.309700E+01	  0.113386773	7.259600E+01	  0.113386773	4.420800E+01
468	  0.113587178	-8.393000E+00	  0.113587178	4.226100E+01	  0.113587178	7.352600E+01	  0.113587178	4.399600E+01
469	  0.113787577	-8.396000E+00	  0.113787577	4.143000E+01	  0.113787577	7.446400E+01	  0.113787577	4.382100E+01
470	  0.113987975	-8.399000E+00	  0.113987975	4.051000E+01	  0.113987975	7.551200E+01	  0.113987975	4.360300E+01
471	  0.114188381	-8.410000E+00	  0.114188381	3.968800E+01	  0.114188381	7.644300E+01	  0.114188381	4.332200E+01
472	  0.114388779	-8.419000E+00	  0.114388779	3.872700E+01	  0.114388779	7.754200E+01	  0.114388779	4.299200E+01
473	  0.114589177	-8.433000E+00	  0.114589177	3.783300E+01	  0.114589177	7.855500E+01	  0.114589177	4.260900E+01
474	  0.114789583	-8.443000E+00	  0.114789583	3.692200E+01	  0.114789583	7.960000E+01	  0.114789583	4.222300E+01
475	  0.114989981	-8.460000E+00	  0.114989981	3.603800E+01	  0.114989981	8.059300E+01	  0.114989981	4.175300E+01
476	  0.115190387	-8.478000E+00	  0.115190387	3.504800E+01	  0.115190387	8.170700E+01	  0.115190387	4.120400E+01
477	  0.115390785	-8.494000E+00	  0.115390785	3.408900E+01	  0.115390785	8.279000E+01	  0.115390785	4.065400E+01
478	  0.115591183	-8.514000E+00	  0.115591183	3.315200E+01	  0.115591183	8.382200E+01	  0.115591183	4.003400E+01
479	  0.115791589	-8.535000E+00	  0.115791589	3.212400E+01	  0.115791589	8.494900E+01	  0.115791589	3.932300E+01
480	  0.115991987	-8.546000E+00	  0.115991987	3.115700E+01	  0.115991987	8.603500E+01	  0.115991987	3.868600E+01
481	  0.116192386	-8.578000E+00	  0.116192386	3.014300E+01	  0.116192386	8.707800E+01	  0.116192386	3.781900E+01
482	  0.116392791	-8.601000E+00	  0.116392791	2.909900E+01	  0.116392791	8.817200E+01	  0.116392791	3.695800E+01
483	  0.116593190	-8.627000E+00	  0.116593190	2.809400E+01	  0.116593190	8.918400E+01	  0.116593190	3.605300E+01
484	  0.116793588	-8.655000E+00	  0.116793588	2.706100E+01	  0.116793588	9.020100E+01	  0.116793588	3.508200E+01
485	  0.116993994	-8.684000E+00	  0.116993994	2.596900E+01	  0.116993994	9.124300E+01	  0.116993994	3.400500E+01
486	  0.117194392	-8.714000E+00	  0.117194392	2.487300E+01	  0.117194392	9.225100E+01	  0.117194392	3.287600E+01
487	  0.117394790	-8.740000E+00	  0.117394790	2.380300E+01	  0.117394790	9.321900E+01	  0.117394790	3.175200E+01
488	  0.117595196	-8.779000E+00	  0.117595196	2.272500E+01	  0.117595196	9.407400E+01	  0.117595196	3.049000E+01
489	  0.117795594	-8.819000E+00	  0.117795594	2.160800E+01	  0.117795594	9.492400E+01	  0.117795594	2.915400E+01
490	  0.117995992	-8.864000E+00	  0.117995992	2.051900E+01	  0.117995992	9.565200E+01	  0.117995992	2.777500E+01
491	  0.118196398	-8.908000E+00	  0.118196398	1.937000E+01	  0.118196398	9.639200E+01	  0.118196398	2.631100E+01
492	  0.118396796	-8.957000E+00	  0.118396796	1.825600E+01	  0.118396796	9.700400E+01	  0.118396796	2.482700E+01
493	  0.118597202	-9.006000E+00	  0.118597202	1.705400E+01	  0.118597202	9.762500E+01	  0.118597202	2.322200E+01
494	  0.118797600	-9.067000E+00	  0.118797600	1.589400E+01	  0.118797600	9.805200E+01	  0.118797600	2.158400E+01
495	  0.118997999	-9.122000E+00	  0.118997999	1.472600E+01	  0.118997999	9.845600E+01	  0.118997999	1.995300E+01
496	  0.119198404	-9.185000E+00	  0.119198404	1.349000E+01	  0.119198404	9.876500E+01	  0.119198404	1.819800E+01
497	  0.119398803	-9.251000E+00	  0.119398803	1.228800E+01	  0.119398803	9.896100E+01	  0.119398803	1.647800E+01
498	  0.119599201	-9.322000E+00	  0.119599201	1.103700E+01	  0.119599201	9.905900E+01	  0.119599201	1.468400E+01
499	  0.119799607	-9.402000E+00	  0.119799607	9.732000E+00	  0.119799607	9.901900E+01	  0.119799607	1.281000E+01
500	  0.120000005	-9.485000E+00	  0.120000005	8.501000E+00	  0.120000005	9.884700E+01	  0.120000005	1.105100E+01
