! Anritsu VNA Master:             	Model: MS2036C/10/77
! SN:             	1601066
! /bd0/18may09/252.ns.m6.txt
! Existing Calibration Information:
! TYPE:             	Current Settings	Active Cal Settings
! TIME:             	05/09/2018 09:06:00 AM	05/09/2018 09:02:47 AM
! INTERNAL TEMP:    	40.8 C	40.3 C
! # POINTS:         	500	500
! START FREQ:       	20.000 MHz	20.000 MHz
! STOP FREQ:        	120.000 MHz	120.000 MHz
! SOURCE POWER:     	High	High
! IFBW:             	50 Hz	50 Hz
! AVG FACTOR:       	  1 	  1 
! REF PLANE 1:      	0 mm	0 mm
! REF PLANE 2:      	0 mm	0 mm
! CAL TYPE:         	Full S11	Full S11
! CAL METHOD:       	SOLT	SOLT
! CAL LINE TYPE:    	Coax	Coax
! DUT PORT 1:       	K-Conn(F)	K-Conn(F)
! DUT PORT 2:       	K-Conn(F)	K-Conn(F)
! CAL STATUS:       	OK: Accuracy High	--
! PROP-V:       	0.700
! CABLE LOSS:       	0.000 dB/m
! REF IMPEDANCE:       	50.0
! Trace Specific Parameters:	TR1	TR2	TR3	TR4
! TRACE.#.Y (GRAPH TYPE)	LOG MAG	PHASE	REAL IMPEDANCE	IMAGINARY IMPEDANCE
! TRACE.#.X 	FREQ.GHZ	FREQ.GHZ	FREQ.GHZ	FREQ.GHZ
! S-PARAMETER	S11	S11	S11	S11
! SMOOTH/APERTURE %	0	0	0	0
! WINDOW	NSL	NSL	NSL	NSL
! GATING	OFF	OFF	OFF	OFF
! FGTD	OFF	OFF	OFF	OFF
Marker Information per Trace:	TR1	TR2	TR3	TR4
!MK1	--	"MK1 TR2:  20.000 MHz,PH:-124.00°"	--	--
!MK2	--	--	"MK2 TR3:  70.100 200 MHz,Z:(16.445 ohm, -3.605 ohm)"	--
!MK3	--	--	--	--
!MK4	--	--	--	--
!MK5	--	--	--	--
!MK6	--	--	--	--
!MK7	--	--	--	--
!MK8	--	--	--	--
PNT	TR1.FREQ.GHZ	TR1.LOG MAG.dB	TR2.FREQ.GHZ	TR2.PHASE.deg	TR3.FREQ.GHZ	TR3.REAL IMPEDANCE.ohm	TR4.FREQ.GHZ	TR4.IMAGINARY IMPEDANCE.ohm
1	  0.020000000	-5.840000E-01	  0.020000000	-1.239990E+02	  0.020000000	2.156000E+00	  0.020000000	-2.654700E+01
2	  0.020200402	-5.850000E-01	  0.020200402	-1.254190E+02	  0.020200402	2.133000E+00	  0.020200402	-2.575900E+01
3	  0.020400802	-5.860000E-01	  0.020400802	-1.268430E+02	  0.020400802	2.109000E+00	  0.020400802	-2.497800E+01
4	  0.020601204	-5.900000E-01	  0.020601204	-1.282830E+02	  0.020601204	2.096000E+00	  0.020601204	-2.419800E+01
5	  0.020801604	-5.960000E-01	  0.020801604	-1.297410E+02	  0.020801604	2.093000E+00	  0.020801604	-2.341900E+01
6	  0.021002004	-6.020000E-01	  0.021002004	-1.312250E+02	  0.021002004	2.088000E+00	  0.021002004	-2.263400E+01
7	  0.021202406	-6.100000E-01	  0.021202406	-1.327380E+02	  0.021202406	2.091000E+00	  0.021202406	-2.184400E+01
8	  0.021402806	-6.160000E-01	  0.021402806	-1.342140E+02	  0.021402806	2.090000E+00	  0.021402806	-2.108200E+01
9	  0.021603208	-6.190000E-01	  0.021603208	-1.357060E+02	  0.021603208	2.076000E+00	  0.021603208	-2.032000E+01
10	  0.021803608	-6.240000E-01	  0.021803608	-1.371980E+02	  0.021803608	2.071000E+00	  0.021803608	-1.956600E+01
11	  0.022004008	-6.300000E-01	  0.022004008	-1.386900E+02	  0.022004008	2.072000E+00	  0.022004008	-1.881900E+01
12	  0.022204408	-6.370000E-01	  0.022204408	-1.401990E+02	  0.022204408	2.073000E+00	  0.022204408	-1.807200E+01
13	  0.022404809	-6.420000E-01	  0.022404809	-1.417190E+02	  0.022404809	2.069000E+00	  0.022404809	-1.732600E+01
14	  0.022605211	-6.460000E-01	  0.022605211	-1.432700E+02	  0.022605211	2.063000E+00	  0.022605211	-1.657300E+01
15	  0.022805611	-6.480000E-01	  0.022805611	-1.448230E+02	  0.022805611	2.051000E+00	  0.022805611	-1.582500E+01
16	  0.023006011	-6.510000E-01	  0.023006011	-1.463490E+02	  0.023006011	2.046000E+00	  0.023006011	-1.509600E+01
17	  0.023206413	-6.530000E-01	  0.023206413	-1.478740E+02	  0.023206413	2.034000E+00	  0.023206413	-1.437400E+01
18	  0.023406813	-6.550000E-01	  0.023406813	-1.494040E+02	  0.023406813	2.025000E+00	  0.023406813	-1.365500E+01
19	  0.023607215	-6.610000E-01	  0.023607215	-1.509480E+02	  0.023607215	2.031000E+00	  0.023607215	-1.293400E+01
20	  0.023807615	-6.680000E-01	  0.023807615	-1.525000E+02	  0.023807615	2.039000E+00	  0.023807615	-1.221500E+01
21	  0.024008015	-6.770000E-01	  0.024008015	-1.540760E+02	  0.024008015	2.051000E+00	  0.024008015	-1.148900E+01
22	  0.024208417	-6.870000E-01	  0.024208417	-1.556670E+02	  0.024208417	2.069000E+00	  0.024208417	-1.076100E+01
23	  0.024408817	-6.930000E-01	  0.024408817	-1.572610E+02	  0.024408817	2.076000E+00	  0.024408817	-1.003700E+01
24	  0.024609219	-7.020000E-01	  0.024609219	-1.588620E+02	  0.024609219	2.092000E+00	  0.024609219	-9.313000E+00
25	  0.024809619	-7.100000E-01	  0.024809619	-1.604580E+02	  0.024809619	2.104000E+00	  0.024809619	-8.595000E+00
26	  0.025010020	-7.200000E-01	  0.025010020	-1.620690E+02	  0.025010020	2.124000E+00	  0.025010020	-7.874000E+00
27	  0.025210422	-7.300000E-01	  0.025210422	-1.636860E+02	  0.025210422	2.145000E+00	  0.025210422	-7.153000E+00
28	  0.025410822	-7.440000E-01	  0.025410822	-1.653350E+02	  0.025410822	2.177000E+00	  0.025410822	-6.421000E+00
29	  0.025611224	-7.570000E-01	  0.025611224	-1.670000E+02	  0.025611224	2.207000E+00	  0.025611224	-5.685000E+00
30	  0.025811624	-7.680000E-01	  0.025811624	-1.686770E+02	  0.025811624	2.232000E+00	  0.025811624	-4.946000E+00
31	  0.026012026	-7.760000E-01	  0.026012026	-1.703640E+02	  0.026012026	2.249000E+00	  0.026012026	-4.205000E+00
32	  0.026212426	-7.870000E-01	  0.026212426	-1.720540E+02	  0.026212426	2.275000E+00	  0.026212426	-3.465000E+00
33	  0.026412826	-7.990000E-01	  0.026412826	-1.737540E+02	  0.026412826	2.305000E+00	  0.026412826	-2.722000E+00
34	  0.026613226	-8.120000E-01	  0.026613226	-1.754610E+02	  0.026613226	2.340000E+00	  0.026613226	-1.976000E+00
35	  0.026813626	-8.280000E-01	  0.026813626	-1.771880E+02	  0.026813626	2.384000E+00	  0.026813626	-1.224000E+00
36	  0.027014028	-8.420000E-01	  0.027014028	-1.789170E+02	  0.027014028	2.422000E+00	  0.027014028	-4.710000E-01
37	  0.027214428	-8.580000E-01	  0.027214428	1.793380E+02	  0.027214428	2.468000E+00	  0.027214428	2.870000E-01
38	  0.027414829	-8.720000E-01	  0.027414829	1.775770E+02	  0.027414829	2.511000E+00	  0.027414829	1.054000E+00
39	  0.027615231	-8.890000E-01	  0.027615231	1.758060E+02	  0.027615231	2.561000E+00	  0.027615231	1.825000E+00
40	  0.027815631	-9.090000E-01	  0.027815631	1.740330E+02	  0.027815631	2.622000E+00	  0.027815631	2.598000E+00
41	  0.028016033	-9.310000E-01	  0.028016033	1.722470E+02	  0.028016033	2.690000E+00	  0.028016033	3.377000E+00
42	  0.028216433	-9.520000E-01	  0.028216433	1.704540E+02	  0.028216433	2.758000E+00	  0.028216433	4.162000E+00
43	  0.028416833	-9.730000E-01	  0.028416833	1.686460E+02	  0.028416833	2.825000E+00	  0.028416833	4.954000E+00
44	  0.028617235	-9.940000E-01	  0.028617235	1.668530E+02	  0.028617235	2.897000E+00	  0.028617235	5.742000E+00
45	  0.028817635	-1.014000E+00	  0.028817635	1.650660E+02	  0.028817635	2.965000E+00	  0.028817635	6.530000E+00
46	  0.029018037	-1.035000E+00	  0.029018037	1.632770E+02	  0.029018037	3.041000E+00	  0.029018037	7.322000E+00
47	  0.029218437	-1.057000E+00	  0.029218437	1.614930E+02	  0.029218437	3.120000E+00	  0.029218437	8.114000E+00
48	  0.029418837	-1.082000E+00	  0.029418837	1.596990E+02	  0.029418837	3.212000E+00	  0.029418837	8.915000E+00
49	  0.029619239	-1.111000E+00	  0.029619239	1.578900E+02	  0.029619239	3.316000E+00	  0.029619239	9.727000E+00
50	  0.029819639	-1.140000E+00	  0.029819639	1.560660E+02	  0.029819639	3.425000E+00	  0.029819639	1.055000E+01
51	  0.030020041	-1.173000E+00	  0.030020041	1.542020E+02	  0.030020041	3.547000E+00	  0.030020041	1.139500E+01
52	  0.030220442	-1.202000E+00	  0.030220442	1.523350E+02	  0.030220442	3.662000E+00	  0.030220442	1.224800E+01
53	  0.030420844	-1.234000E+00	  0.030420844	1.504750E+02	  0.030420844	3.791000E+00	  0.030420844	1.310400E+01
54	  0.030621244	-1.266000E+00	  0.030621244	1.486210E+02	  0.030621244	3.923000E+00	  0.030621244	1.396300E+01
55	  0.030821644	-1.300000E+00	  0.030821644	1.467630E+02	  0.030821644	4.065000E+00	  0.030821644	1.483200E+01
56	  0.031022044	-1.336000E+00	  0.031022044	1.448990E+02	  0.031022044	4.219000E+00	  0.031022044	1.571000E+01
57	  0.031222444	-1.370000E+00	  0.031222444	1.430270E+02	  0.031222444	4.374000E+00	  0.031222444	1.660100E+01
58	  0.031422846	-1.406000E+00	  0.031422846	1.411000E+02	  0.031422846	4.538000E+00	  0.031422846	1.752700E+01
59	  0.031623244	-1.440000E+00	  0.031623244	1.391670E+02	  0.031623244	4.706000E+00	  0.031623244	1.846600E+01
60	  0.031823646	-1.472000E+00	  0.031823646	1.372270E+02	  0.031823646	4.870000E+00	  0.031823646	1.941900E+01
61	  0.032024048	-1.503000E+00	  0.032024048	1.352910E+02	  0.032024048	5.040000E+00	  0.032024048	2.038300E+01
62	  0.032224450	-1.536000E+00	  0.032224450	1.333580E+02	  0.032224450	5.221000E+00	  0.032224450	2.135600E+01
63	  0.032424849	-1.566000E+00	  0.032424849	1.314310E+02	  0.032424849	5.402000E+00	  0.032424849	2.234000E+01
64	  0.032625251	-1.600000E+00	  0.032625251	1.294970E+02	  0.032625251	5.604000E+00	  0.032625251	2.333900E+01
65	  0.032825653	-1.635000E+00	  0.032825653	1.275650E+02	  0.032825653	5.820000E+00	  0.032825653	2.435200E+01
66	  0.033026051	-1.675000E+00	  0.033026051	1.256030E+02	  0.033026051	6.062000E+00	  0.033026051	2.539400E+01
67	  0.033226453	-1.720000E+00	  0.033226453	1.236470E+02	  0.033226453	6.334000E+00	  0.033226453	2.644800E+01
68	  0.033426855	-1.769000E+00	  0.033426855	1.216590E+02	  0.033426855	6.636000E+00	  0.033426855	2.753400E+01
69	  0.033627257	-1.816000E+00	  0.033627257	1.196300E+02	  0.033627257	6.946000E+00	  0.033627257	2.866100E+01
70	  0.033827655	-1.865000E+00	  0.033827655	1.175800E+02	  0.033827655	7.283000E+00	  0.033827655	2.982000E+01
71	  0.034028057	-1.912000E+00	  0.034028057	1.154870E+02	  0.034028057	7.630000E+00	  0.034028057	3.102700E+01
72	  0.034228459	-1.958000E+00	  0.034228459	1.133680E+02	  0.034228459	7.994000E+00	  0.034228459	3.227300E+01
73	  0.034428857	-2.001000E+00	  0.034428857	1.112290E+02	  0.034428857	8.369000E+00	  0.034428857	3.356000E+01
74	  0.034629259	-2.044000E+00	  0.034629259	1.091250E+02	  0.034629259	8.761000E+00	  0.034629259	3.485100E+01
75	  0.034829661	-2.082000E+00	  0.034829661	1.070130E+02	  0.034829661	9.158000E+00	  0.034829661	3.618000E+01
76	  0.035030060	-2.121000E+00	  0.035030060	1.048970E+02	  0.035030060	9.585000E+00	  0.035030060	3.754100E+01
77	  0.035230462	-2.163000E+00	  0.035230462	1.028030E+02	  0.035230462	1.004300E+01	  0.035230462	3.891800E+01
78	  0.035430863	-2.202000E+00	  0.035430863	1.007290E+02	  0.035430863	1.051500E+01	  0.035430863	4.031600E+01
79	  0.035631265	-2.243000E+00	  0.035631265	9.865700E+01	  0.035631265	1.102800E+01	  0.035631265	4.174500E+01
80	  0.035831664	-2.287000E+00	  0.035831664	9.657200E+01	  0.035831664	1.158900E+01	  0.035831664	4.321700E+01
81	  0.036032066	-2.330000E+00	  0.036032066	9.452600E+01	  0.036032066	1.217600E+01	  0.036032066	4.469700E+01
82	  0.036232468	-2.377000E+00	  0.036232468	9.244800E+01	  0.036232468	1.282400E+01	  0.036232468	4.623700E+01
83	  0.036432866	-2.427000E+00	  0.036432866	9.042600E+01	  0.036432866	1.352600E+01	  0.036432866	4.776500E+01
84	  0.036633268	-2.484000E+00	  0.036633268	8.838700E+01	  0.036633268	1.431100E+01	  0.036633268	4.933500E+01
85	  0.036833670	-2.543000E+00	  0.036833670	8.631600E+01	  0.036833670	1.516900E+01	  0.036833670	5.097000E+01
86	  0.037034072	-2.605000E+00	  0.037034072	8.422000E+01	  0.037034072	1.611400E+01	  0.037034072	5.266200E+01
87	  0.037234470	-2.668000E+00	  0.037234470	8.211000E+01	  0.037234470	1.714100E+01	  0.037234470	5.440600E+01
88	  0.037434869	-2.732000E+00	  0.037434869	7.997100E+01	  0.037434869	1.825600E+01	  0.037434869	5.622200E+01
89	  0.037635271	-2.795000E+00	  0.037635271	7.780200E+01	  0.037635271	1.946900E+01	  0.037635271	5.811300E+01
90	  0.037835669	-2.863000E+00	  0.037835669	7.563300E+01	  0.037835669	2.080700E+01	  0.037835669	6.004000E+01
91	  0.038036071	-2.934000E+00	  0.038036071	7.348200E+01	  0.038036071	2.226200E+01	  0.038036071	6.198900E+01
92	  0.038236473	-2.993000E+00	  0.038236473	7.137900E+01	  0.038236473	2.372800E+01	  0.038236473	6.397200E+01
93	  0.038436871	-3.039000E+00	  0.038436871	6.923400E+01	  0.038436871	2.524700E+01	  0.038436871	6.609600E+01
94	  0.038637273	-3.087000E+00	  0.038637273	6.711700E+01	  0.038637273	2.688600E+01	  0.038637273	6.824500E+01
95	  0.038837675	-3.136000E+00	  0.038837675	6.497600E+01	  0.038837675	2.870000E+01	  0.038837675	7.046800E+01
96	  0.039038073	-3.179000E+00	  0.039038073	6.286300E+01	  0.039038073	3.059700E+01	  0.039038073	7.274900E+01
97	  0.039238475	-3.231000E+00	  0.039238475	6.080200E+01	  0.039238475	3.269100E+01	  0.039238475	7.497200E+01
98	  0.039438877	-3.286000E+00	  0.039438877	5.873000E+01	  0.039438877	3.501100E+01	  0.039438877	7.722600E+01
99	  0.039639279	-3.344000E+00	  0.039639279	5.666600E+01	  0.039639279	3.754900E+01	  0.039639279	7.948500E+01
100	  0.039839678	-3.409000E+00	  0.039839678	5.460300E+01	  0.039839678	4.036200E+01	  0.039839678	8.171300E+01
101	  0.040040080	-3.474000E+00	  0.040040080	5.249700E+01	  0.040040080	4.348700E+01	  0.040040080	8.399000E+01
102	  0.040240481	-3.539000E+00	  0.040240481	5.039500E+01	  0.040240481	4.688800E+01	  0.040240481	8.623600E+01
103	  0.040440880	-3.602000E+00	  0.040440880	4.826600E+01	  0.040440880	5.061400E+01	  0.040440880	8.850400E+01
104	  0.040641282	-3.665000E+00	  0.040641282	4.616400E+01	  0.040641282	5.463400E+01	  0.040641282	9.066600E+01
105	  0.040841684	-3.727000E+00	  0.040841684	4.405100E+01	  0.040841684	5.902200E+01	  0.040841684	9.276200E+01
106	  0.041042086	-3.790000E+00	  0.041042086	4.194600E+01	  0.041042086	6.379300E+01	  0.041042086	9.469300E+01
107	  0.041242484	-3.851000E+00	  0.041242484	3.983100E+01	  0.041242484	6.898800E+01	  0.041242484	9.646600E+01
108	  0.041442886	-3.908000E+00	  0.041442886	3.771400E+01	  0.041442886	7.459400E+01	  0.041442886	9.807000E+01
109	  0.041643288	-3.963000E+00	  0.041643288	3.560100E+01	  0.041643288	8.064500E+01	  0.041643288	9.938900E+01
110	  0.041843686	-4.019000E+00	  0.041843686	3.351000E+01	  0.041843686	8.710700E+01	  0.041843686	1.002970E+02
111	  0.042044088	-4.072000E+00	  0.042044088	3.142800E+01	  0.042044088	9.399000E+01	  0.042044088	1.008060E+02
112	  0.042244490	-4.124000E+00	  0.042244490	2.938200E+01	  0.042244490	1.012040E+02	  0.042244490	1.007480E+02
113	  0.042444889	-4.176000E+00	  0.042444889	2.734200E+01	  0.042444889	1.088090E+02	  0.042444889	1.000390E+02
114	  0.042645290	-4.229000E+00	  0.042645290	2.527600E+01	  0.042645290	1.168670E+02	  0.042645290	9.854700E+01
115	  0.042845692	-4.282000E+00	  0.042845692	2.325400E+01	  0.042845692	1.250250E+02	  0.042845692	9.618100E+01
116	  0.043046094	-4.336000E+00	  0.043046094	2.122100E+01	  0.043046094	1.333610E+02	  0.043046094	9.277900E+01
117	  0.043246493	-4.389000E+00	  0.043246493	1.919000E+01	  0.043246493	1.417010E+02	  0.043246493	8.835500E+01
118	  0.043446895	-4.439000E+00	  0.043446895	1.717200E+01	  0.043446895	1.498550E+02	  0.043446895	8.291200E+01
119	  0.043647297	-4.494000E+00	  0.043647297	1.515600E+01	  0.043647297	1.575150E+02	  0.043647297	7.614200E+01
120	  0.043847695	-4.547000E+00	  0.043847695	1.313400E+01	  0.043847695	1.646350E+02	  0.043847695	6.829700E+01
121	  0.044048097	-4.600000E+00	  0.044048097	1.113200E+01	  0.044048097	1.708100E+02	  0.044048097	5.944600E+01
122	  0.044248499	-4.650000E+00	  0.044248499	9.127000E+00	  0.044248499	1.760170E+02	  0.044248499	4.973400E+01
123	  0.044448901	-4.699000E+00	  0.044448901	7.125000E+00	  0.044448901	1.800480E+02	  0.044448901	3.933200E+01
124	  0.044649299	-4.746000E+00	  0.044649299	5.135000E+00	  0.044649299	1.827320E+02	  0.044649299	2.849100E+01
125	  0.044849701	-4.795000E+00	  0.044849701	3.145000E+00	  0.044849701	1.839370E+02	  0.044849701	1.738600E+01
126	  0.045050103	-4.836000E+00	  0.045050103	1.171000E+00	  0.045050103	1.839810E+02	  0.045050103	6.417000E+00
127	  0.045250501	-4.876000E+00	  0.045250501	-7.810000E-01	  0.045250501	1.826680E+02	  0.045250501	-4.211000E+00
128	  0.045450903	-4.916000E+00	  0.045450903	-2.711000E+00	  0.045450903	1.801290E+02	  0.045450903	-1.428100E+01
129	  0.045651305	-4.958000E+00	  0.045651305	-4.643000E+00	  0.045651305	1.764520E+02	  0.045651305	-2.371400E+01
130	  0.045851704	-4.999000E+00	  0.045851704	-6.539000E+00	  0.045851704	1.719410E+02	  0.045851704	-3.221200E+01
131	  0.046052106	-5.038000E+00	  0.046052106	-8.440000E+00	  0.046052106	1.667440E+02	  0.046052106	-3.991300E+01
132	  0.046252504	-5.077000E+00	  0.046252504	-1.034100E+01	  0.046252504	1.610240E+02	  0.046252504	-4.674000E+01
133	  0.046452906	-5.112000E+00	  0.046452906	-1.221300E+01	  0.046452906	1.550790E+02	  0.046452906	-5.264500E+01
134	  0.046653304	-5.143000E+00	  0.046653304	-1.412000E+01	  0.046653304	1.488640E+02	  0.046653304	-5.788900E+01
135	  0.046853706	-5.179000E+00	  0.046853706	-1.595800E+01	  0.046853706	1.426160E+02	  0.046853706	-6.201200E+01
136	  0.047054108	-5.206000E+00	  0.047054108	-1.782300E+01	  0.047054108	1.364170E+02	  0.047054108	-6.565200E+01
137	  0.047254506	-5.234000E+00	  0.047254506	-1.965800E+01	  0.047254506	1.303380E+02	  0.047254506	-6.853700E+01
138	  0.047454908	-5.263000E+00	  0.047454908	-2.148500E+01	  0.047454908	1.243790E+02	  0.047454908	-7.076000E+01
139	  0.047655310	-5.288000E+00	  0.047655310	-2.326300E+01	  0.047655310	1.187690E+02	  0.047655310	-7.248000E+01
140	  0.047855709	-5.316000E+00	  0.047855709	-2.504600E+01	  0.047855709	1.133060E+02	  0.047855709	-7.367400E+01
141	  0.048056111	-5.344000E+00	  0.048056111	-2.680900E+01	  0.048056111	1.081230E+02	  0.048056111	-7.447200E+01
142	  0.048256513	-5.374000E+00	  0.048256513	-2.857800E+01	  0.048256513	1.031440E+02	  0.048256513	-7.486400E+01
143	  0.048456915	-5.400000E+00	  0.048456915	-3.034600E+01	  0.048456915	9.842000E+01	  0.048456915	-7.504600E+01
144	  0.048657313	-5.425000E+00	  0.048657313	-3.209900E+01	  0.048657313	9.397300E+01	  0.048657313	-7.496800E+01
145	  0.048857715	-5.452000E+00	  0.048857715	-3.385200E+01	  0.048857715	8.975700E+01	  0.048857715	-7.464600E+01
146	  0.049058117	-5.474000E+00	  0.049058117	-3.563000E+01	  0.049058117	8.571200E+01	  0.049058117	-7.421300E+01
147	  0.049258515	-5.496000E+00	  0.049258515	-3.733600E+01	  0.049258515	8.204400E+01	  0.049258515	-7.361500E+01
148	  0.049458917	-5.519000E+00	  0.049458917	-3.906100E+01	  0.049458917	7.853900E+01	  0.049458917	-7.288300E+01
149	  0.049659319	-5.544000E+00	  0.049659319	-4.080100E+01	  0.049659319	7.521200E+01	  0.049659319	-7.199900E+01
150	  0.049859721	-5.567000E+00	  0.049859721	-4.252300E+01	  0.049859721	7.210300E+01	  0.049859721	-7.106200E+01
151	  0.050060119	-5.588000E+00	  0.050060119	-4.424000E+01	  0.050060119	6.917500E+01	  0.050060119	-7.007700E+01
152	  0.050260521	-5.601000E+00	  0.050260521	-4.598500E+01	  0.050260521	6.634400E+01	  0.050260521	-6.909700E+01
153	  0.050460923	-5.619000E+00	  0.050460923	-4.770500E+01	  0.050460923	6.372900E+01	  0.050460923	-6.802000E+01
154	  0.050661322	-5.630000E+00	  0.050661322	-4.941800E+01	  0.050661322	6.124700E+01	  0.050661322	-6.697000E+01
155	  0.050861724	-5.645000E+00	  0.050861724	-5.110600E+01	  0.050861724	5.895200E+01	  0.050861724	-6.586000E+01
156	  0.051062126	-5.656000E+00	  0.051062126	-5.277700E+01	  0.051062126	5.679200E+01	  0.051062126	-6.476600E+01
157	  0.051262524	-5.669000E+00	  0.051262524	-5.440200E+01	  0.051262524	5.481300E+01	  0.051262524	-6.366200E+01
158	  0.051462926	-5.678000E+00	  0.051462926	-5.601400E+01	  0.051462926	5.293600E+01	  0.051462926	-6.258400E+01
159	  0.051663328	-5.692000E+00	  0.051663328	-5.762900E+01	  0.051663328	5.117300E+01	  0.051663328	-6.145800E+01
160	  0.051863730	-5.705000E+00	  0.051863730	-5.924300E+01	  0.051863730	4.950200E+01	  0.051863730	-6.032900E+01
161	  0.052064128	-5.720000E+00	  0.052064128	-6.085400E+01	  0.052064128	4.792900E+01	  0.052064128	-5.918800E+01
162	  0.052264530	-5.731000E+00	  0.052264530	-6.244900E+01	  0.052264530	4.643400E+01	  0.052264530	-5.808800E+01
163	  0.052464932	-5.743000E+00	  0.052464932	-6.404800E+01	  0.052464932	4.501900E+01	  0.052464932	-5.697400E+01
164	  0.052665330	-5.756000E+00	  0.052665330	-6.564700E+01	  0.052665330	4.367600E+01	  0.052665330	-5.586400E+01
165	  0.052865732	-5.769000E+00	  0.052865732	-6.722400E+01	  0.052865732	4.242500E+01	  0.052865732	-5.476800E+01
166	  0.053066134	-5.777000E+00	  0.053066134	-6.880800E+01	  0.053066134	4.120500E+01	  0.053066134	-5.370500E+01
167	  0.053266536	-5.785000E+00	  0.053266536	-7.037300E+01	  0.053266536	4.005600E+01	  0.053266536	-5.266400E+01
168	  0.053466935	-5.790000E+00	  0.053466935	-7.195700E+01	  0.053466935	3.893900E+01	  0.053466935	-5.162700E+01
169	  0.053667337	-5.793000E+00	  0.053667337	-7.349900E+01	  0.053667337	3.789300E+01	  0.053667337	-5.063600E+01
170	  0.053867739	-5.794000E+00	  0.053867739	-7.503300E+01	  0.053867739	3.689400E+01	  0.053867739	-4.966200E+01
171	  0.054068137	-5.796000E+00	  0.054068137	-7.654000E+01	  0.054068137	3.596200E+01	  0.054068137	-4.870700E+01
172	  0.054268539	-5.797000E+00	  0.054268539	-7.799600E+01	  0.054268539	3.509200E+01	  0.054268539	-4.780000E+01
173	  0.054468941	-5.806000E+00	  0.054468941	-7.946700E+01	  0.054468941	3.428800E+01	  0.054468941	-4.685600E+01
174	  0.054669339	-5.807000E+00	  0.054669339	-8.092400E+01	  0.054669339	3.348900E+01	  0.054669339	-4.596300E+01
175	  0.054869737	-5.818000E+00	  0.054869737	-8.232400E+01	  0.054869737	3.279600E+01	  0.054869737	-4.507600E+01
176	  0.055070139	-5.823000E+00	  0.055070139	-8.373800E+01	  0.055070139	3.210400E+01	  0.055070139	-4.420700E+01
177	  0.055270538	-5.831000E+00	  0.055270538	-8.515000E+01	  0.055270538	3.144900E+01	  0.055270538	-4.334300E+01
178	  0.055470940	-5.837000E+00	  0.055470940	-8.656500E+01	  0.055470940	3.081200E+01	  0.055470940	-4.249200E+01
179	  0.055671342	-5.845000E+00	  0.055671342	-8.797000E+01	  0.055671342	3.021300E+01	  0.055671342	-4.165000E+01
180	  0.055871744	-5.855000E+00	  0.055871744	-8.936600E+01	  0.055871744	2.965000E+01	  0.055871744	-4.081600E+01
181	  0.056072142	-5.865000E+00	  0.056072142	-9.078000E+01	  0.056072142	2.910000E+01	  0.056072142	-3.998400E+01
182	  0.056272544	-5.872000E+00	  0.056272544	-9.215700E+01	  0.056272544	2.857800E+01	  0.056272544	-3.918700E+01
183	  0.056472946	-5.879000E+00	  0.056472946	-9.356500E+01	  0.056472946	2.806500E+01	  0.056472946	-3.838100E+01
184	  0.056673344	-5.882000E+00	  0.056673344	-9.492800E+01	  0.056673344	2.757400E+01	  0.056673344	-3.761900E+01
185	  0.056873746	-5.890000E+00	  0.056873746	-9.631300E+01	  0.056873746	2.710900E+01	  0.056873746	-3.684300E+01
186	  0.057074148	-5.885000E+00	  0.057074148	-9.770100E+01	  0.057074148	2.661800E+01	  0.057074148	-3.610000E+01
187	  0.057274550	-5.889000E+00	  0.057274550	-9.905200E+01	  0.057274550	2.618700E+01	  0.057274550	-3.536600E+01
188	  0.057474948	-5.888000E+00	  0.057474948	-1.003830E+02	  0.057474948	2.576100E+01	  0.057474948	-3.465800E+01
189	  0.057675350	-5.888000E+00	  0.057675350	-1.017040E+02	  0.057675350	2.535700E+01	  0.057675350	-3.396100E+01
190	  0.057875752	-5.889000E+00	  0.057875752	-1.029910E+02	  0.057875752	2.498000E+01	  0.057875752	-3.328600E+01
191	  0.058076151	-5.888000E+00	  0.058076151	-1.042710E+02	  0.058076151	2.460900E+01	  0.058076151	-3.262500E+01
192	  0.058276553	-5.889000E+00	  0.058276553	-1.055390E+02	  0.058276553	2.426300E+01	  0.058276553	-3.197200E+01
193	  0.058476955	-5.891000E+00	  0.058476955	-1.067970E+02	  0.058476955	2.393700E+01	  0.058476955	-3.132600E+01
194	  0.058677353	-5.891000E+00	  0.058677353	-1.080710E+02	  0.058677353	2.361000E+01	  0.058677353	-3.068200E+01
195	  0.058877755	-5.892000E+00	  0.058877755	-1.093060E+02	  0.058877755	2.330600E+01	  0.058877755	-3.006100E+01
196	  0.059078157	-5.891000E+00	  0.059078157	-1.105590E+02	  0.059078157	2.300000E+01	  0.059078157	-2.944000E+01
197	  0.059278559	-5.894000E+00	  0.059278559	-1.118030E+02	  0.059278559	2.272100E+01	  0.059278559	-2.882200E+01
198	  0.059478957	-5.894000E+00	  0.059478957	-1.130750E+02	  0.059478957	2.243600E+01	  0.059478957	-2.819900E+01
199	  0.059679359	-5.894000E+00	  0.059679359	-1.142930E+02	  0.059679359	2.216900E+01	  0.059679359	-2.760900E+01
200	  0.059879761	-5.895000E+00	  0.059879761	-1.155330E+02	  0.059879761	2.191300E+01	  0.059879761	-2.701000E+01
201	  0.060080159	-5.892000E+00	  0.060080159	-1.167270E+02	  0.060080159	2.166000E+01	  0.060080159	-2.644300E+01
202	  0.060280561	-5.892000E+00	  0.060280561	-1.179570E+02	  0.060280561	2.141900E+01	  0.060280561	-2.585900E+01
203	  0.060480963	-5.891000E+00	  0.060480963	-1.191660E+02	  0.060480963	2.118600E+01	  0.060480963	-2.529000E+01
204	  0.060681365	-5.887000E+00	  0.060681365	-1.203650E+02	  0.060681365	2.095400E+01	  0.060681365	-2.473300E+01
205	  0.060881764	-5.881000E+00	  0.060881764	-1.215740E+02	  0.060881764	2.071800E+01	  0.060881764	-2.417900E+01
206	  0.061082166	-5.878000E+00	  0.061082166	-1.227840E+02	  0.061082166	2.050300E+01	  0.061082166	-2.362300E+01
207	  0.061282568	-5.878000E+00	  0.061282568	-1.239470E+02	  0.061282568	2.030800E+01	  0.061282568	-2.309000E+01
208	  0.061482966	-5.873000E+00	  0.061482966	-1.251050E+02	  0.061482966	2.010700E+01	  0.061482966	-2.256700E+01
209	  0.061683368	-5.869000E+00	  0.061683368	-1.262420E+02	  0.061683368	1.992000E+01	  0.061683368	-2.205500E+01
210	  0.061883770	-5.870000E+00	  0.061883770	-1.273900E+02	  0.061883770	1.974700E+01	  0.061883770	-2.153800E+01
211	  0.062084168	-5.866000E+00	  0.062084168	-1.285180E+02	  0.062084168	1.957100E+01	  0.062084168	-2.103600E+01
212	  0.062284570	-5.867000E+00	  0.062284570	-1.296650E+02	  0.062284570	1.941100E+01	  0.062284570	-2.052400E+01
213	  0.062484972	-5.867000E+00	  0.062484972	-1.307930E+02	  0.062484972	1.925800E+01	  0.062484972	-2.002400E+01
214	  0.062685370	-5.867000E+00	  0.062685370	-1.319270E+02	  0.062685370	1.910900E+01	  0.062685370	-1.952500E+01
215	  0.062885776	-5.870000E+00	  0.062885776	-1.330610E+02	  0.062885776	1.897000E+01	  0.062885776	-1.902600E+01
216	  0.063086174	-5.867000E+00	  0.063086174	-1.341890E+02	  0.063086174	1.882400E+01	  0.063086174	-1.853700E+01
217	  0.063286573	-5.870000E+00	  0.063286573	-1.353630E+02	  0.063286573	1.869000E+01	  0.063286573	-1.802600E+01
218	  0.063486971	-5.871000E+00	  0.063486971	-1.365130E+02	  0.063486971	1.856100E+01	  0.063486971	-1.753000E+01
219	  0.063687377	-5.865000E+00	  0.063687377	-1.376080E+02	  0.063687377	1.842200E+01	  0.063687377	-1.706400E+01
220	  0.063887775	-5.864000E+00	  0.063887775	-1.387800E+02	  0.063887775	1.829300E+01	  0.063887775	-1.656500E+01
221	  0.064088173	-5.857000E+00	  0.064088173	-1.399120E+02	  0.064088173	1.815600E+01	  0.064088173	-1.608800E+01
222	  0.064288579	-5.860000E+00	  0.064288579	-1.410150E+02	  0.064288579	1.805300E+01	  0.064288579	-1.562000E+01
223	  0.064488977	-5.857000E+00	  0.064488977	-1.420940E+02	  0.064488977	1.794100E+01	  0.064488977	-1.516800E+01
224	  0.064689375	-5.856000E+00	  0.064689375	-1.432190E+02	  0.064689375	1.783200E+01	  0.064689375	-1.469600E+01
225	  0.064889781	-5.850000E+00	  0.064889781	-1.442900E+02	  0.064889781	1.771900E+01	  0.064889781	-1.425300E+01
226	  0.065090179	-5.850000E+00	  0.065090179	-1.453340E+02	  0.065090179	1.762900E+01	  0.065090179	-1.381800E+01
227	  0.065290578	-5.847000E+00	  0.065290578	-1.464000E+02	  0.065290578	1.753200E+01	  0.065290578	-1.337800E+01
228	  0.065490983	-5.849000E+00	  0.065490983	-1.474850E+02	  0.065490983	1.745000E+01	  0.065490983	-1.292900E+01
229	  0.065691382	-5.848000E+00	  0.065691382	-1.485390E+02	  0.065691382	1.736700E+01	  0.065691382	-1.249500E+01
230	  0.065891780	-5.849000E+00	  0.065891780	-1.495790E+02	  0.065891780	1.729100E+01	  0.065891780	-1.206800E+01
231	  0.066092186	-5.848000E+00	  0.066092186	-1.506370E+02	  0.066092186	1.721500E+01	  0.066092186	-1.163600E+01
232	  0.066292584	-5.848000E+00	  0.066292584	-1.516840E+02	  0.066292584	1.714200E+01	  0.066292584	-1.120900E+01
233	  0.066492982	-5.850000E+00	  0.066492982	-1.527300E+02	  0.066492982	1.708000E+01	  0.066492982	-1.078300E+01
234	  0.066693388	-5.848000E+00	  0.066693388	-1.537550E+02	  0.066693388	1.700800E+01	  0.066693388	-1.036900E+01
235	  0.066893786	-5.849000E+00	  0.066893786	-1.547660E+02	  0.066893786	1.695000E+01	  0.066893786	-9.960000E+00
236	  0.067094192	-5.855000E+00	  0.067094192	-1.557960E+02	  0.067094192	1.690800E+01	  0.067094192	-9.542000E+00
237	  0.067294590	-5.853000E+00	  0.067294590	-1.568110E+02	  0.067294590	1.684700E+01	  0.067294590	-9.135000E+00
238	  0.067494988	-5.855000E+00	  0.067494988	-1.578530E+02	  0.067494988	1.679700E+01	  0.067494988	-8.717000E+00
239	  0.067695394	-5.861000E+00	  0.067695394	-1.588810E+02	  0.067695394	1.676100E+01	  0.067695394	-8.304000E+00
240	  0.067895792	-5.860000E+00	  0.067895792	-1.598840E+02	  0.067895792	1.671100E+01	  0.067895792	-7.904000E+00
241	  0.068096191	-5.863000E+00	  0.068096191	-1.608880E+02	  0.068096191	1.667500E+01	  0.068096191	-7.503000E+00
242	  0.068296596	-5.865000E+00	  0.068296596	-1.619050E+02	  0.068296596	1.663700E+01	  0.068296596	-7.099000E+00
243	  0.068496995	-5.870000E+00	  0.068496995	-1.628680E+02	  0.068496995	1.660900E+01	  0.068496995	-6.716000E+00
244	  0.068697393	-5.870000E+00	  0.068697393	-1.638920E+02	  0.068697393	1.657300E+01	  0.068697393	-6.311000E+00
245	  0.068897791	-5.873000E+00	  0.068897791	-1.648560E+02	  0.068897791	1.654500E+01	  0.068897791	-5.930000E+00
246	  0.069098189	-5.878000E+00	  0.069098189	-1.658460E+02	  0.069098189	1.652600E+01	  0.069098189	-5.538000E+00
247	  0.069298595	-5.880000E+00	  0.069298595	-1.668300E+02	  0.069298595	1.650000E+01	  0.069298595	-5.150000E+00
248	  0.069498993	-5.884000E+00	  0.069498993	-1.678390E+02	  0.069498993	1.648100E+01	  0.069498993	-4.752000E+00
249	  0.069699399	-5.890000E+00	  0.069699399	-1.688140E+02	  0.069699399	1.647300E+01	  0.069699399	-4.369000E+00
250	  0.069899797	-5.897000E+00	  0.069899797	-1.697770E+02	  0.069899797	1.646700E+01	  0.069899797	-3.990000E+00
251	  0.070100196	-5.896000E+00	  0.070100196	-1.707610E+02	  0.070100196	1.644400E+01	  0.070100196	-3.605000E+00
252	  0.070300601	-5.898000E+00	  0.070300601	-1.717590E+02	  0.070300601	1.642900E+01	  0.070300601	-3.214000E+00
253	  0.070501000	-5.900000E+00	  0.070501000	-1.727340E+02	  0.070501000	1.641800E+01	  0.070501000	-2.833000E+00
254	  0.070701398	-5.900000E+00	  0.070701398	-1.736840E+02	  0.070701398	1.640300E+01	  0.070701398	-2.462000E+00
255	  0.070901804	-5.906000E+00	  0.070901804	-1.746450E+02	  0.070901804	1.640600E+01	  0.070901804	-2.086000E+00
256	  0.071102202	-5.911000E+00	  0.071102202	-1.756190E+02	  0.071102202	1.640700E+01	  0.071102202	-1.706000E+00
257	  0.071302600	-5.911000E+00	  0.071302600	-1.765780E+02	  0.071302600	1.640100E+01	  0.071302600	-1.332000E+00
258	  0.071503006	-5.917000E+00	  0.071503006	-1.775050E+02	  0.071503006	1.640800E+01	  0.071503006	-9.710000E-01
259	  0.071703404	-5.919000E+00	  0.071703404	-1.784400E+02	  0.071703404	1.640900E+01	  0.071703404	-6.070000E-01
260	  0.071903802	-5.921000E+00	  0.071903802	-1.793880E+02	  0.071903802	1.641200E+01	  0.071903802	-2.370000E-01
261	  0.072104208	-5.926000E+00	  0.072104208	1.796920E+02	  0.072104208	1.642500E+01	  0.072104208	1.190000E-01
262	  0.072304606	-5.932000E+00	  0.072304606	1.787780E+02	  0.072304606	1.644300E+01	  0.072304606	4.750000E-01
263	  0.072505005	-5.934000E+00	  0.072505005	1.778640E+02	  0.072505005	1.645200E+01	  0.072505005	8.300000E-01
264	  0.072705410	-5.938000E+00	  0.072705410	1.769490E+02	  0.072705410	1.646700E+01	  0.072705410	1.187000E+00
265	  0.072905809	-5.943000E+00	  0.072905809	1.760400E+02	  0.072905809	1.648500E+01	  0.072905809	1.540000E+00
266	  0.073106214	-5.946000E+00	  0.073106214	1.751410E+02	  0.073106214	1.650400E+01	  0.073106214	1.890000E+00
267	  0.073306613	-5.951000E+00	  0.073306613	1.742830E+02	  0.073306613	1.652500E+01	  0.073306613	2.224000E+00
268	  0.073507011	-5.959000E+00	  0.073507011	1.733670E+02	  0.073507011	1.655800E+01	  0.073507011	2.580000E+00
269	  0.073707417	-5.966000E+00	  0.073707417	1.724700E+02	  0.073707417	1.659100E+01	  0.073707417	2.929000E+00
270	  0.073907815	-5.969000E+00	  0.073907815	1.716130E+02	  0.073907815	1.661600E+01	  0.073907815	3.263000E+00
271	  0.074108213	-5.975000E+00	  0.074108213	1.707380E+02	  0.074108213	1.664800E+01	  0.074108213	3.603000E+00
272	  0.074308619	-5.984000E+00	  0.074308619	1.698420E+02	  0.074308619	1.669100E+01	  0.074308619	3.951000E+00
273	  0.074509017	-5.992000E+00	  0.074509017	1.689540E+02	  0.074509017	1.673100E+01	  0.074509017	4.297000E+00
274	  0.074709415	-6.000000E+00	  0.074709415	1.680870E+02	  0.074709415	1.677500E+01	  0.074709415	4.634000E+00
275	  0.074909821	-6.011000E+00	  0.074909821	1.672140E+02	  0.074909821	1.682900E+01	  0.074909821	4.974000E+00
276	  0.075110219	-6.017000E+00	  0.075110219	1.663520E+02	  0.075110219	1.686900E+01	  0.075110219	5.310000E+00
277	  0.075310618	-6.025000E+00	  0.075310618	1.654700E+02	  0.075310618	1.692000E+01	  0.075310618	5.654000E+00
278	  0.075511023	-6.038000E+00	  0.075511023	1.646390E+02	  0.075511023	1.698000E+01	  0.075511023	5.977000E+00
279	  0.075711422	-6.048000E+00	  0.075711422	1.637950E+02	  0.075711422	1.703900E+01	  0.075711422	6.306000E+00
280	  0.075911827	-6.058000E+00	  0.075911827	1.629020E+02	  0.075911827	1.709900E+01	  0.075911827	6.654000E+00
281	  0.076112226	-6.070000E+00	  0.076112226	1.620120E+02	  0.076112226	1.716600E+01	  0.076112226	7.000000E+00
282	  0.076312624	-6.081000E+00	  0.076312624	1.611640E+02	  0.076312624	1.723000E+01	  0.076312624	7.332000E+00
283	  0.076513030	-6.087000E+00	  0.076513030	1.602880E+02	  0.076513030	1.728500E+01	  0.076513030	7.675000E+00
284	  0.076713428	-6.096000E+00	  0.076713428	1.593960E+02	  0.076713428	1.735100E+01	  0.076713428	8.024000E+00
285	  0.076913826	-6.106000E+00	  0.076913826	1.585580E+02	  0.076913826	1.742000E+01	  0.076913826	8.352000E+00
286	  0.077114232	-6.114000E+00	  0.077114232	1.577150E+02	  0.077114232	1.748400E+01	  0.077114232	8.683000E+00
287	  0.077314630	-6.121000E+00	  0.077314630	1.568760E+02	  0.077314630	1.754800E+01	  0.077314630	9.013000E+00
288	  0.077515028	-6.130000E+00	  0.077515028	1.560230E+02	  0.077515028	1.762100E+01	  0.077515028	9.348000E+00
289	  0.077715434	-6.142000E+00	  0.077715434	1.552060E+02	  0.077715434	1.769900E+01	  0.077715434	9.669000E+00
290	  0.077915832	-6.150000E+00	  0.077915832	1.543500E+02	  0.077915832	1.777300E+01	  0.077915832	1.000600E+01
291	  0.078116231	-6.165000E+00	  0.078116231	1.535090E+02	  0.078116231	1.786500E+01	  0.078116231	1.033600E+01
292	  0.078316636	-6.174000E+00	  0.078316636	1.526780E+02	  0.078316636	1.794300E+01	  0.078316636	1.066400E+01
293	  0.078517035	-6.186000E+00	  0.078517035	1.518460E+02	  0.078517035	1.803200E+01	  0.078517035	1.099200E+01
294	  0.078717433	-6.195000E+00	  0.078717433	1.510460E+02	  0.078717433	1.811100E+01	  0.078717433	1.130800E+01
295	  0.078917839	-6.208000E+00	  0.078917839	1.502120E+02	  0.078917839	1.820700E+01	  0.078917839	1.163700E+01
296	  0.079118237	-6.219000E+00	  0.079118237	1.494230E+02	  0.079118237	1.829500E+01	  0.079118237	1.194900E+01
297	  0.079318643	-6.233000E+00	  0.079318643	1.486090E+02	  0.079318643	1.839600E+01	  0.079318643	1.227000E+01
298	  0.079519041	-6.244000E+00	  0.079519041	1.477880E+02	  0.079519041	1.848900E+01	  0.079519041	1.259600E+01
299	  0.079719439	-6.259000E+00	  0.079719439	1.470160E+02	  0.079719439	1.859400E+01	  0.079719439	1.290100E+01
300	  0.079919845	-6.272000E+00	  0.079919845	1.461750E+02	  0.079919845	1.870000E+01	  0.079919845	1.323400E+01
301	  0.080120243	-6.282000E+00	  0.080120243	1.453760E+02	  0.080120243	1.879800E+01	  0.080120243	1.355300E+01
302	  0.080320641	-6.294000E+00	  0.080320641	1.446040E+02	  0.080320641	1.890000E+01	  0.080320641	1.386000E+01
303	  0.080521047	-6.311000E+00	  0.080521047	1.437970E+02	  0.080521047	1.901900E+01	  0.080521047	1.417900E+01
304	  0.080721445	-6.324000E+00	  0.080721445	1.430310E+02	  0.080721445	1.912700E+01	  0.080721445	1.448400E+01
305	  0.080921844	-6.342000E+00	  0.080921844	1.422180E+02	  0.080921844	1.925700E+01	  0.080921844	1.480500E+01
306	  0.081122249	-6.354000E+00	  0.081122249	1.414560E+02	  0.081122249	1.936600E+01	  0.081122249	1.510900E+01
307	  0.081322648	-6.373000E+00	  0.081322648	1.406560E+02	  0.081322648	1.949900E+01	  0.081322648	1.542600E+01
308	  0.081523046	-6.391000E+00	  0.081523046	1.398710E+02	  0.081523046	1.963100E+01	  0.081523046	1.573700E+01
309	  0.081723452	-6.406000E+00	  0.081723452	1.390890E+02	  0.081723452	1.976000E+01	  0.081723452	1.604800E+01
310	  0.081923850	-6.424000E+00	  0.081923850	1.383410E+02	  0.081923850	1.989100E+01	  0.081923850	1.634400E+01
311	  0.082124248	-6.441000E+00	  0.082124248	1.375740E+02	  0.082124248	2.002700E+01	  0.082124248	1.664900E+01
312	  0.082324654	-6.462000E+00	  0.082324654	1.368170E+02	  0.082324654	2.017400E+01	  0.082324654	1.694700E+01
313	  0.082525052	-6.482000E+00	  0.082525052	1.360620E+02	  0.082525052	2.031900E+01	  0.082525052	1.724500E+01
314	  0.082725458	-6.507000E+00	  0.082725458	1.353040E+02	  0.082725458	2.048200E+01	  0.082725458	1.754000E+01
315	  0.082925856	-6.527000E+00	  0.082925856	1.345040E+02	  0.082925856	2.063900E+01	  0.082925856	1.785700E+01
316	  0.083126254	-6.543000E+00	  0.083126254	1.336780E+02	  0.083126254	2.079100E+01	  0.083126254	1.818900E+01
317	  0.083326660	-6.564000E+00	  0.083326660	1.329040E+02	  0.083326660	2.095300E+01	  0.083326660	1.849400E+01
318	  0.083527058	-6.584000E+00	  0.083527058	1.321430E+02	  0.083527058	2.111200E+01	  0.083527058	1.879600E+01
319	  0.083727457	-6.605000E+00	  0.083727457	1.313880E+02	  0.083727457	2.127400E+01	  0.083727457	1.909400E+01
320	  0.083927862	-6.618000E+00	  0.083927862	1.306060E+02	  0.083927862	2.142400E+01	  0.083927862	1.941100E+01
321	  0.084128261	-6.638000E+00	  0.084128261	1.298910E+02	  0.084128261	2.158400E+01	  0.084128261	1.969400E+01
322	  0.084328659	-6.655000E+00	  0.084328659	1.291280E+02	  0.084328659	2.174700E+01	  0.084328659	2.000000E+01
323	  0.084529065	-6.676000E+00	  0.084529065	1.283780E+02	  0.084529065	2.192100E+01	  0.084529065	2.029600E+01
324	  0.084729463	-6.695000E+00	  0.084729463	1.276530E+02	  0.084729463	2.208700E+01	  0.084729463	2.058500E+01
325	  0.084929861	-6.714000E+00	  0.084929861	1.269070E+02	  0.084929861	2.226000E+01	  0.084929861	2.088200E+01
326	  0.085130267	-6.733000E+00	  0.085130267	1.261930E+02	  0.085130267	2.243200E+01	  0.085130267	2.116600E+01
327	  0.085330658	-6.753000E+00	  0.085330658	1.254720E+02	  0.085330658	2.260900E+01	  0.085330658	2.145200E+01
328	  0.085531056	-6.773000E+00	  0.085531056	1.247510E+02	  0.085531056	2.278900E+01	  0.085531056	2.173700E+01
329	  0.085731462	-6.794000E+00	  0.085731462	1.240690E+02	  0.085731462	2.296700E+01	  0.085731462	2.200600E+01
330	  0.085931860	-6.817000E+00	  0.085931860	1.233740E+02	  0.085931860	2.315600E+01	  0.085931860	2.227700E+01
331	  0.086132258	-6.839000E+00	  0.086132258	1.226870E+02	  0.086132258	2.334100E+01	  0.086132258	2.254700E+01
332	  0.086332664	-6.864000E+00	  0.086332664	1.219670E+02	  0.086332664	2.354700E+01	  0.086332664	2.282500E+01
333	  0.086533062	-6.888000E+00	  0.086533062	1.212520E+02	  0.086533062	2.375200E+01	  0.086533062	2.310300E+01
334	  0.086733460	-6.909000E+00	  0.086733460	1.205690E+02	  0.086733460	2.394200E+01	  0.086733460	2.337100E+01
335	  0.086933866	-6.932000E+00	  0.086933866	1.198740E+02	  0.086933866	2.414600E+01	  0.086933866	2.364100E+01
336	  0.087134264	-6.954000E+00	  0.087134264	1.191660E+02	  0.087134264	2.435100E+01	  0.087134264	2.391800E+01
337	  0.087334670	-6.977000E+00	  0.087334670	1.184700E+02	  0.087334670	2.455900E+01	  0.087334670	2.418800E+01
338	  0.087535068	-7.001000E+00	  0.087535068	1.178140E+02	  0.087535068	2.476600E+01	  0.087535068	2.443900E+01
339	  0.087735467	-7.026000E+00	  0.087735467	1.171270E+02	  0.087735467	2.498400E+01	  0.087735467	2.470200E+01
340	  0.087935872	-7.050000E+00	  0.087935872	1.164660E+02	  0.087935872	2.519600E+01	  0.087935872	2.495400E+01
341	  0.088136271	-7.073000E+00	  0.088136271	1.157880E+02	  0.088136271	2.541200E+01	  0.088136271	2.521600E+01
342	  0.088336669	-7.099000E+00	  0.088336669	1.151290E+02	  0.088336669	2.563400E+01	  0.088336669	2.546400E+01
343	  0.088537075	-7.128000E+00	  0.088537075	1.144610E+02	  0.088537075	2.587100E+01	  0.088537075	2.571000E+01
344	  0.088737473	-7.153000E+00	  0.088737473	1.138210E+02	  0.088737473	2.609300E+01	  0.088737473	2.595000E+01
345	  0.088937871	-7.180000E+00	  0.088937871	1.131790E+02	  0.088937871	2.632500E+01	  0.088937871	2.618600E+01
346	  0.089138277	-7.212000E+00	  0.089138277	1.125200E+02	  0.089138277	2.657600E+01	  0.089138277	2.642100E+01
347	  0.089338675	-7.244000E+00	  0.089338675	1.119010E+02	  0.089338675	2.682000E+01	  0.089338675	2.663900E+01
348	  0.089539073	-7.273000E+00	  0.089539073	1.112560E+02	  0.089539073	2.706700E+01	  0.089539073	2.687100E+01
349	  0.089739479	-7.308000E+00	  0.089739479	1.106080E+02	  0.089739479	2.733200E+01	  0.089739479	2.709300E+01
350	  0.089939877	-7.334000E+00	  0.089939877	1.099550E+02	  0.089939877	2.757700E+01	  0.089939877	2.733200E+01
351	  0.090140276	-7.365000E+00	  0.090140276	1.092900E+02	  0.090140276	2.784200E+01	  0.090140276	2.756600E+01
352	  0.090340681	-7.395000E+00	  0.090340681	1.086510E+02	  0.090340681	2.810000E+01	  0.090340681	2.779000E+01
353	  0.090541080	-7.428000E+00	  0.090541080	1.080140E+02	  0.090541080	2.836900E+01	  0.090541080	2.800600E+01
354	  0.090741485	-7.456000E+00	  0.090741485	1.073840E+02	  0.090741485	2.862800E+01	  0.090741485	2.822600E+01
355	  0.090941884	-7.487000E+00	  0.090941884	1.067560E+02	  0.090941884	2.889200E+01	  0.090941884	2.844000E+01
356	  0.091142282	-7.517000E+00	  0.091142282	1.061480E+02	  0.091142282	2.915600E+01	  0.091142282	2.864400E+01
357	  0.091342688	-7.546000E+00	  0.091342688	1.055240E+02	  0.091342688	2.941900E+01	  0.091342688	2.885800E+01
358	  0.091543086	-7.574000E+00	  0.091543086	1.049190E+02	  0.091543086	2.968000E+01	  0.091543086	2.906300E+01
359	  0.091743484	-7.599000E+00	  0.091743484	1.043410E+02	  0.091743484	2.992600E+01	  0.091743484	2.926200E+01
360	  0.091943890	-7.629000E+00	  0.091943890	1.037590E+02	  0.091943890	3.019100E+01	  0.091943890	2.945000E+01
361	  0.092144288	-7.661000E+00	  0.092144288	1.031940E+02	  0.092144288	3.045800E+01	  0.092144288	2.962500E+01
362	  0.092344686	-7.688000E+00	  0.092344686	1.026410E+02	  0.092344686	3.070900E+01	  0.092344686	2.980600E+01
363	  0.092545092	-7.722000E+00	  0.092545092	1.020820E+02	  0.092545092	3.098400E+01	  0.092545092	2.997200E+01
364	  0.092745490	-7.760000E+00	  0.092745490	1.015540E+02	  0.092745490	3.126400E+01	  0.092745490	3.011400E+01
365	  0.092945889	-7.789000E+00	  0.092945889	1.010200E+02	  0.092945889	3.152100E+01	  0.092945889	3.027700E+01
366	  0.093146294	-7.820000E+00	  0.093146294	1.004640E+02	  0.093146294	3.179500E+01	  0.093146294	3.044200E+01
367	  0.093346693	-7.854000E+00	  0.093346693	9.993100E+01	  0.093346693	3.207100E+01	  0.093346693	3.059100E+01
368	  0.093547091	-7.888000E+00	  0.093547091	9.939500E+01	  0.093547091	3.235000E+01	  0.093547091	3.073800E+01
369	  0.093747497	-7.921000E+00	  0.093747497	9.888200E+01	  0.093747497	3.262000E+01	  0.093747497	3.087600E+01
370	  0.093947895	-7.954000E+00	  0.093947895	9.838100E+01	  0.093947895	3.288700E+01	  0.093947895	3.100800E+01
371	  0.094148301	-7.990000E+00	  0.094148301	9.785600E+01	  0.094148301	3.317400E+01	  0.094148301	3.114000E+01
372	  0.094348699	-8.027000E+00	  0.094348699	9.734600E+01	  0.094348699	3.346100E+01	  0.094348699	3.126100E+01
373	  0.094549097	-8.053000E+00	  0.094549097	9.685400E+01	  0.094549097	3.371200E+01	  0.094549097	3.140000E+01
374	  0.094749503	-8.086000E+00	  0.094749503	9.639300E+01	  0.094749503	3.397100E+01	  0.094749503	3.150900E+01
375	  0.094949901	-8.120000E+00	  0.094949901	9.591700E+01	  0.094949901	3.424100E+01	  0.094949901	3.162000E+01
376	  0.095150299	-8.150000E+00	  0.095150299	9.539900E+01	  0.095150299	3.451900E+01	  0.095150299	3.175300E+01
377	  0.095350705	-8.187000E+00	  0.095350705	9.493900E+01	  0.095350705	3.479500E+01	  0.095350705	3.184400E+01
378	  0.095551103	-8.213000E+00	  0.095551103	9.448200E+01	  0.095551103	3.504100E+01	  0.095551103	3.196100E+01
379	  0.095751502	-8.252000E+00	  0.095751502	9.402500E+01	  0.095751502	3.532300E+01	  0.095751502	3.204300E+01
380	  0.095951907	-8.283000E+00	  0.095951907	9.360400E+01	  0.095951907	3.557100E+01	  0.095951907	3.212800E+01
381	  0.096152306	-8.317000E+00	  0.096152306	9.316000E+01	  0.096152306	3.583800E+01	  0.096152306	3.221300E+01
382	  0.096352704	-8.351000E+00	  0.096352704	9.269400E+01	  0.096352704	3.611300E+01	  0.096352704	3.230600E+01
383	  0.096553110	-8.380000E+00	  0.096553110	9.224100E+01	  0.096553110	3.637400E+01	  0.096553110	3.240400E+01
384	  0.096753508	-8.407000E+00	  0.096753508	9.182400E+01	  0.096753508	3.661500E+01	  0.096753508	3.249200E+01
385	  0.096953906	-8.442000E+00	  0.096953906	9.136800E+01	  0.096953906	3.689400E+01	  0.096953906	3.257200E+01
386	  0.097154312	-8.472000E+00	  0.097154312	9.095200E+01	  0.097154312	3.714700E+01	  0.097154312	3.264600E+01
387	  0.097354710	-8.492000E+00	  0.097354710	9.053900E+01	  0.097354710	3.737100E+01	  0.097354710	3.274900E+01
388	  0.097555116	-8.521000E+00	  0.097555116	9.009900E+01	  0.097555116	3.763300E+01	  0.097555116	3.283300E+01
389	  0.097755514	-8.554000E+00	  0.097755514	8.970800E+01	  0.097755514	3.788300E+01	  0.097755514	3.288600E+01
390	  0.097955912	-8.571000E+00	  0.097955912	8.929500E+01	  0.097955912	3.810700E+01	  0.097955912	3.299000E+01
391	  0.098156318	-8.591000E+00	  0.098156318	8.888200E+01	  0.098156318	3.833800E+01	  0.098156318	3.308600E+01
392	  0.098356716	-8.618000E+00	  0.098356716	8.851400E+01	  0.098356716	3.856600E+01	  0.098356716	3.314400E+01
393	  0.098557115	-8.632000E+00	  0.098557115	8.812400E+01	  0.098557115	3.877500E+01	  0.098557115	3.324600E+01
394	  0.098757520	-8.653000E+00	  0.098757520	8.773500E+01	  0.098757520	3.900200E+01	  0.098757520	3.332500E+01
395	  0.098957919	-8.666000E+00	  0.098957919	8.737500E+01	  0.098957919	3.919900E+01	  0.098957919	3.341500E+01
396	  0.099158317	-8.686000E+00	  0.099158317	8.700400E+01	  0.099158317	3.941500E+01	  0.099158317	3.349100E+01
397	  0.099358723	-8.702000E+00	  0.099358723	8.668000E+01	  0.099358723	3.960500E+01	  0.099358723	3.355700E+01
398	  0.099559121	-8.723000E+00	  0.099559121	8.632100E+01	  0.099559121	3.982000E+01	  0.099559121	3.362200E+01
399	  0.099759519	-8.735000E+00	  0.099759519	8.600800E+01	  0.099759519	3.999500E+01	  0.099759519	3.369600E+01
400	  0.099959925	-8.747000E+00	  0.099959925	8.568100E+01	  0.099959925	4.017700E+01	  0.099959925	3.377600E+01
401	  0.100160323	-8.766000E+00	  0.100160323	8.531500E+01	  0.100160323	4.039600E+01	  0.100160323	3.384400E+01
402	  0.100360721	-8.771000E+00	  0.100360721	8.496800E+01	  0.100360721	4.057400E+01	  0.100360721	3.395100E+01
403	  0.100561127	-8.781000E+00	  0.100561127	8.465700E+01	  0.100561127	4.074600E+01	  0.100561127	3.402700E+01
404	  0.100761525	-8.795000E+00	  0.100761525	8.428500E+01	  0.100761525	4.095900E+01	  0.100761525	3.411200E+01
405	  0.100961931	-8.807000E+00	  0.100961931	8.399200E+01	  0.100961931	4.113100E+01	  0.100961931	3.417400E+01
406	  0.101162329	-8.812000E+00	  0.101162329	8.364600E+01	  0.101162329	4.131100E+01	  0.101162329	3.427900E+01
407	  0.101362728	-8.819000E+00	  0.101362728	8.329500E+01	  0.101362728	4.150100E+01	  0.101362728	3.437600E+01
408	  0.101563133	-8.835000E+00	  0.101563133	8.294600E+01	  0.101563133	4.171200E+01	  0.101563133	3.444000E+01
409	  0.101763532	-8.842000E+00	  0.101763532	8.264600E+01	  0.101763532	4.187800E+01	  0.101763532	3.452100E+01
410	  0.101963930	-8.849000E+00	  0.101963930	8.224700E+01	  0.101963930	4.209800E+01	  0.101963930	3.462900E+01
411	  0.102164336	-8.847000E+00	  0.102164336	8.193200E+01	  0.102164336	4.225300E+01	  0.102164336	3.474300E+01
412	  0.102364734	-8.861000E+00	  0.102364734	8.154000E+01	  0.102364734	4.248500E+01	  0.102364734	3.482800E+01
413	  0.102565132	-8.859000E+00	  0.102565132	8.117100E+01	  0.102565132	4.267200E+01	  0.102565132	3.495700E+01
414	  0.102765530	-8.861000E+00	  0.102765530	8.082700E+01	  0.102765530	4.285700E+01	  0.102765530	3.506300E+01
415	  0.102965929	-8.859000E+00	  0.102965929	8.045000E+01	  0.102965929	4.305000E+01	  0.102965929	3.519500E+01
416	  0.103166327	-8.852000E+00	  0.103166327	8.008400E+01	  0.103166327	4.322900E+01	  0.103166327	3.534000E+01
417	  0.103366733	-8.853000E+00	  0.103366733	7.974000E+01	  0.103366733	4.341700E+01	  0.103366733	3.544600E+01
418	  0.103567131	-8.854000E+00	  0.103567131	7.926500E+01	  0.103567131	4.367500E+01	  0.103567131	3.559900E+01
419	  0.103767529	-8.850000E+00	  0.103767529	7.893600E+01	  0.103767529	4.384600E+01	  0.103767529	3.572000E+01
420	  0.103967935	-8.849000E+00	  0.103967935	7.843300E+01	  0.103967935	4.411900E+01	  0.103967935	3.588700E+01
421	  0.104168333	-8.842000E+00	  0.104168333	7.806000E+01	  0.104168333	4.431200E+01	  0.104168333	3.603100E+01
422	  0.104368731	-8.834000E+00	  0.104368731	7.759100E+01	  0.104368731	4.455800E+01	  0.104368731	3.621100E+01
423	  0.104569137	-8.830000E+00	  0.104569137	7.716700E+01	  0.104569137	4.478900E+01	  0.104569137	3.636100E+01
424	  0.104769535	-8.811000E+00	  0.104769535	7.667300E+01	  0.104769535	4.503300E+01	  0.104769535	3.658700E+01
425	  0.104969934	-8.804000E+00	  0.104969934	7.631000E+01	  0.104969934	4.522700E+01	  0.104969934	3.672900E+01
426	  0.105170339	-8.787000E+00	  0.105170339	7.580200E+01	  0.105170339	4.548800E+01	  0.105170339	3.695500E+01
427	  0.105370738	-8.775000E+00	  0.105370738	7.534000E+01	  0.105370738	4.573600E+01	  0.105370738	3.714700E+01
428	  0.105571143	-8.759000E+00	  0.105571143	7.486300E+01	  0.105571143	4.598700E+01	  0.105571143	3.735900E+01
429	  0.105771542	-8.744000E+00	  0.105771542	7.439900E+01	  0.105771542	4.623700E+01	  0.105771542	3.756100E+01
430	  0.105971940	-8.726000E+00	  0.105971940	7.388400E+01	  0.105971940	4.651500E+01	  0.105971940	3.779100E+01
431	  0.106172346	-8.717000E+00	  0.106172346	7.336900E+01	  0.106172346	4.681400E+01	  0.106172346	3.798700E+01
432	  0.106372744	-8.701000E+00	  0.106372744	7.294600E+01	  0.106372744	4.704600E+01	  0.106372744	3.818100E+01
433	  0.106573142	-8.684000E+00	  0.106573142	7.244500E+01	  0.106573142	4.732800E+01	  0.106573142	3.840400E+01
434	  0.106773548	-8.666000E+00	  0.106773548	7.198300E+01	  0.106773548	4.758700E+01	  0.106773548	3.861900E+01
435	  0.106973946	-8.648000E+00	  0.106973946	7.147500E+01	  0.106973946	4.787900E+01	  0.106973946	3.885000E+01
436	  0.107174344	-8.634000E+00	  0.107174344	7.092100E+01	  0.107174344	4.821400E+01	  0.107174344	3.907300E+01
437	  0.107374750	-8.611000E+00	  0.107374750	7.042900E+01	  0.107374750	4.849400E+01	  0.107374750	3.931900E+01
438	  0.107575148	-8.600000E+00	  0.107575148	6.991900E+01	  0.107575148	4.881400E+01	  0.107575148	3.952100E+01
439	  0.107775547	-8.586000E+00	  0.107775547	6.941100E+01	  0.107775547	4.913200E+01	  0.107775547	3.972900E+01
440	  0.107975952	-8.569000E+00	  0.107975952	6.887900E+01	  0.107975952	4.946300E+01	  0.107975952	3.996300E+01
441	  0.108176351	-8.566000E+00	  0.108176351	6.833800E+01	  0.108176351	4.983200E+01	  0.108176351	4.013100E+01
442	  0.108376749	-8.556000E+00	  0.108376749	6.783900E+01	  0.108376749	5.016500E+01	  0.108376749	4.031700E+01
443	  0.108577155	-8.541000E+00	  0.108577155	6.723400E+01	  0.108577155	5.056800E+01	  0.108577155	4.055500E+01
444	  0.108777553	-8.533000E+00	  0.108777553	6.670300E+01	  0.108777553	5.093500E+01	  0.108777553	4.074100E+01
445	  0.108977959	-8.529000E+00	  0.108977959	6.611100E+01	  0.108977959	5.135900E+01	  0.108977959	4.092100E+01
446	  0.109178357	-8.520000E+00	  0.109178357	6.559100E+01	  0.109178357	5.172800E+01	  0.109178357	4.110100E+01
447	  0.109378755	-8.509000E+00	  0.109378755	6.498200E+01	  0.109378755	5.216400E+01	  0.109378755	4.131500E+01
448	  0.109579161	-8.503000E+00	  0.109579161	6.438200E+01	  0.109579161	5.260800E+01	  0.109579161	4.149900E+01
449	  0.109779559	-8.502000E+00	  0.109779559	6.386100E+01	  0.109779559	5.300600E+01	  0.109779559	4.163400E+01
450	  0.109979957	-8.496000E+00	  0.109979957	6.324900E+01	  0.109979957	5.347100E+01	  0.109979957	4.181500E+01
451	  0.110180363	-8.492000E+00	  0.110180363	6.260900E+01	  0.110180363	5.396800E+01	  0.110180363	4.198900E+01
452	  0.110380761	-8.481000E+00	  0.110380761	6.199200E+01	  0.110380761	5.444100E+01	  0.110380761	4.219400E+01
453	  0.110581160	-8.479000E+00	  0.110581160	6.138400E+01	  0.110581160	5.493000E+01	  0.110581160	4.233900E+01
454	  0.110781565	-8.467000E+00	  0.110781565	6.074200E+01	  0.110781565	5.543700E+01	  0.110781565	4.254700E+01
455	  0.110981964	-8.462000E+00	  0.110981964	6.008600E+01	  0.110981964	5.597400E+01	  0.110981964	4.271000E+01
456	  0.111182362	-8.458000E+00	  0.111182362	5.948200E+01	  0.111182362	5.647500E+01	  0.111182362	4.286000E+01
457	  0.111382768	-8.453000E+00	  0.111382768	5.879300E+01	  0.111382768	5.705500E+01	  0.111382768	4.301800E+01
458	  0.111583166	-8.450000E+00	  0.111583166	5.807900E+01	  0.111583166	5.766700E+01	  0.111583166	4.317000E+01
459	  0.111783572	-8.439000E+00	  0.111783572	5.741300E+01	  0.111783572	5.823800E+01	  0.111783572	4.335100E+01
460	  0.111983970	-8.433000E+00	  0.111983970	5.674600E+01	  0.111983970	5.882200E+01	  0.111983970	4.349900E+01
461	  0.112184368	-8.422000E+00	  0.112184368	5.600500E+01	  0.112184368	5.947800E+01	  0.112184368	4.367800E+01
462	  0.112384774	-8.416000E+00	  0.112384774	5.529400E+01	  0.112384774	6.012100E+01	  0.112384774	4.382100E+01
463	  0.112585172	-8.413000E+00	  0.112585172	5.456000E+01	  0.112585172	6.079800E+01	  0.112585172	4.393800E+01
464	  0.112785570	-8.402000E+00	  0.112785570	5.383900E+01	  0.112785570	6.146700E+01	  0.112785570	4.409300E+01
465	  0.112985976	-8.401000E+00	  0.112985976	5.309400E+01	  0.112985976	6.217600E+01	  0.112985976	4.418100E+01
466	  0.113186374	-8.392000E+00	  0.113186374	5.234900E+01	  0.113186374	6.289000E+01	  0.113186374	4.431100E+01
467	  0.113386773	-8.389000E+00	  0.113386773	5.158300E+01	  0.113386773	6.363800E+01	  0.113386773	4.439000E+01
468	  0.113587178	-8.387000E+00	  0.113587178	5.080400E+01	  0.113587178	6.441100E+01	  0.113587178	4.445600E+01
469	  0.113787577	-8.378000E+00	  0.113787577	5.005100E+01	  0.113787577	6.516600E+01	  0.113787577	4.455200E+01
470	  0.113987975	-8.380000E+00	  0.113987975	4.921800E+01	  0.113987975	6.601600E+01	  0.113987975	4.456500E+01
471	  0.114188381	-8.383000E+00	  0.114188381	4.843100E+01	  0.114188381	6.682900E+01	  0.114188381	4.455800E+01
472	  0.114388779	-8.381000E+00	  0.114388779	4.762500E+01	  0.114388779	6.767300E+01	  0.114388779	4.456100E+01
473	  0.114589177	-8.381000E+00	  0.114589177	4.685200E+01	  0.114589177	6.849100E+01	  0.114589177	4.454300E+01
474	  0.114789583	-8.389000E+00	  0.114789583	4.602800E+01	  0.114789583	6.937100E+01	  0.114789583	4.445000E+01
475	  0.114989981	-8.390000E+00	  0.114989981	4.518300E+01	  0.114989981	7.028500E+01	  0.114989981	4.438100E+01
476	  0.115190387	-8.398000E+00	  0.115190387	4.428700E+01	  0.115190387	7.126100E+01	  0.115190387	4.423900E+01
477	  0.115390785	-8.412000E+00	  0.115390785	4.343200E+01	  0.115390785	7.219400E+01	  0.115390785	4.402900E+01
478	  0.115591183	-8.423000E+00	  0.115591183	4.226600E+01	  0.115591183	7.348500E+01	  0.115591183	4.377200E+01
479	  0.115791589	-8.430000E+00	  0.115791589	4.137400E+01	  0.115791589	7.448300E+01	  0.115791589	4.355700E+01
480	  0.115991987	-8.447000E+00	  0.115991987	4.048400E+01	  0.115991987	7.546900E+01	  0.115991987	4.323400E+01
481	  0.116192386	-8.464000E+00	  0.116192386	3.955900E+01	  0.116192386	7.649800E+01	  0.116192386	4.287800E+01
482	  0.116392791	-8.480000E+00	  0.116392791	3.860100E+01	  0.116392791	7.756700E+01	  0.116392791	4.248400E+01
483	  0.116593190	-8.502000E+00	  0.116593190	3.768400E+01	  0.116593190	7.857800E+01	  0.116593190	4.202700E+01
484	  0.116793588	-8.524000E+00	  0.116793588	3.670400E+01	  0.116793588	7.965900E+01	  0.116793588	4.152000E+01
485	  0.116993994	-8.557000E+00	  0.116993994	3.574000E+01	  0.116993994	8.068600E+01	  0.116993994	4.089400E+01
486	  0.117194392	-8.577000E+00	  0.117194392	3.476400E+01	  0.117194392	8.175200E+01	  0.117194392	4.032500E+01
487	  0.117394790	-8.612000E+00	  0.117394790	3.376500E+01	  0.117394790	8.279100E+01	  0.117394790	3.959200E+01
488	  0.117595196	-8.646000E+00	  0.117595196	3.273000E+01	  0.117595196	8.385700E+01	  0.117595196	3.881000E+01
489	  0.117795594	-8.681000E+00	  0.117795594	3.169400E+01	  0.117795594	8.490400E+01	  0.117795594	3.798500E+01
490	  0.117995992	-8.713000E+00	  0.117995992	3.063500E+01	  0.117995992	8.596200E+01	  0.117995992	3.711700E+01
491	  0.118196398	-8.760000E+00	  0.118196398	2.960000E+01	  0.118196398	8.691000E+01	  0.118196398	3.611900E+01
492	  0.118396796	-8.803000E+00	  0.118396796	2.848600E+01	  0.118396796	8.792700E+01	  0.118396796	3.505700E+01
493	  0.118597202	-8.849000E+00	  0.118597202	2.737700E+01	  0.118597202	8.889100E+01	  0.118597202	3.393700E+01
494	  0.118797600	-8.902000E+00	  0.118797600	2.624200E+01	  0.118797600	8.980600E+01	  0.118797600	3.270900E+01
495	  0.118997999	-8.956000E+00	  0.118997999	2.509400E+01	  0.118997999	9.067900E+01	  0.118997999	3.142500E+01
496	  0.119198404	-9.013000E+00	  0.119198404	2.400600E+01	  0.119198404	9.142200E+01	  0.119198404	3.013300E+01
497	  0.119398803	-9.073000E+00	  0.119398803	2.279900E+01	  0.119398803	9.221400E+01	  0.119398803	2.869800E+01
498	  0.119599201	-9.141000E+00	  0.119599201	2.159300E+01	  0.119599201	9.288500E+01	  0.119599201	2.717600E+01
499	  0.119799607	-9.216000E+00	  0.119799607	2.035900E+01	  0.119799607	9.347200E+01	  0.119799607	2.557200E+01
500	  0.120000005	-9.284000E+00	  0.120000005	1.908100E+01	  0.120000005	9.406200E+01	  0.120000005	2.394000E+01
