! Anritsu VNA Master:             	Model: MS2036C/10/77
! SN:             	1601066
! /bd0/18may09/252.ns.m7.txt
! Existing Calibration Information:
! TYPE:             	Current Settings	Active Cal Settings
! TIME:             	05/09/2018 09:07:29 AM	05/09/2018 09:02:47 AM
! INTERNAL TEMP:    	41.0 C	40.3 C
! # POINTS:         	500	500
! START FREQ:       	20.000 MHz	20.000 MHz
! STOP FREQ:        	120.000 MHz	120.000 MHz
! SOURCE POWER:     	High	High
! IFBW:             	50 Hz	50 Hz
! AVG FACTOR:       	  1 	  1 
! REF PLANE 1:      	0 mm	0 mm
! REF PLANE 2:      	0 mm	0 mm
! CAL TYPE:         	Full S11	Full S11
! CAL METHOD:       	SOLT	SOLT
! CAL LINE TYPE:    	Coax	Coax
! DUT PORT 1:       	K-Conn(F)	K-Conn(F)
! DUT PORT 2:       	K-Conn(F)	K-Conn(F)
! CAL STATUS:       	OK: Accuracy High	--
! PROP-V:       	0.700
! CABLE LOSS:       	0.000 dB/m
! REF IMPEDANCE:       	50.0
! Trace Specific Parameters:	TR1	TR2	TR3	TR4
! TRACE.#.Y (GRAPH TYPE)	LOG MAG	PHASE	REAL IMPEDANCE	IMAGINARY IMPEDANCE
! TRACE.#.X 	FREQ.GHZ	FREQ.GHZ	FREQ.GHZ	FREQ.GHZ
! S-PARAMETER	S11	S11	S11	S11
! SMOOTH/APERTURE %	0	0	0	0
! WINDOW	NSL	NSL	NSL	NSL
! GATING	OFF	OFF	OFF	OFF
! FGTD	OFF	OFF	OFF	OFF
Marker Information per Trace:	TR1	TR2	TR3	TR4
!MK1	--	"MK1 TR2:  20.000 MHz,PH:-123.91°"	--	--
!MK2	--	--	"MK2 TR3:  70.100 200 MHz,Z:(16.461 ohm, -3.725 ohm)"	--
!MK3	--	--	--	--
!MK4	--	--	--	--
!MK5	--	--	--	--
!MK6	--	--	--	--
!MK7	--	--	--	--
!MK8	--	--	--	--
PNT	TR1.FREQ.GHZ	TR1.LOG MAG.dB	TR2.FREQ.GHZ	TR2.PHASE.deg	TR3.FREQ.GHZ	TR3.REAL IMPEDANCE.ohm	TR4.FREQ.GHZ	TR4.IMAGINARY IMPEDANCE.ohm
1	  0.020000000	-5.950000E-01	  0.020000000	-1.239060E+02	  0.020000000	2.198000E+00	  0.020000000	-2.659700E+01
2	  0.020200402	-5.960000E-01	  0.020200402	-1.253240E+02	  0.020200402	2.173000E+00	  0.020200402	-2.581000E+01
3	  0.020400802	-5.960000E-01	  0.020400802	-1.267500E+02	  0.020400802	2.146000E+00	  0.020400802	-2.502800E+01
4	  0.020601204	-5.990000E-01	  0.020601204	-1.281910E+02	  0.020601204	2.130000E+00	  0.020601204	-2.424700E+01
5	  0.020801604	-6.050000E-01	  0.020801604	-1.296450E+02	  0.020801604	2.125000E+00	  0.020801604	-2.346900E+01
6	  0.021002004	-6.110000E-01	  0.021002004	-1.311320E+02	  0.021002004	2.121000E+00	  0.021002004	-2.268200E+01
7	  0.021202406	-6.180000E-01	  0.021202406	-1.326440E+02	  0.021202406	2.120000E+00	  0.021202406	-2.189200E+01
8	  0.021402806	-6.230000E-01	  0.021402806	-1.341200E+02	  0.021402806	2.116000E+00	  0.021402806	-2.112900E+01
9	  0.021603208	-6.260000E-01	  0.021603208	-1.356080E+02	  0.021603208	2.101000E+00	  0.021603208	-2.036900E+01
10	  0.021803608	-6.320000E-01	  0.021803608	-1.370990E+02	  0.021803608	2.100000E+00	  0.021803608	-1.961500E+01
11	  0.022004008	-6.400000E-01	  0.022004008	-1.385950E+02	  0.022004008	2.104000E+00	  0.022004008	-1.886600E+01
12	  0.022204408	-6.420000E-01	  0.022204408	-1.401150E+02	  0.022204408	2.090000E+00	  0.022204408	-1.811300E+01
13	  0.022404809	-6.460000E-01	  0.022404809	-1.416290E+02	  0.022404809	2.084000E+00	  0.022404809	-1.737000E+01
14	  0.022605211	-6.520000E-01	  0.022605211	-1.431780E+02	  0.022605211	2.083000E+00	  0.022605211	-1.661700E+01
15	  0.022805611	-6.580000E-01	  0.022805611	-1.447140E+02	  0.022805611	2.085000E+00	  0.022805611	-1.587600E+01
16	  0.023006011	-6.580000E-01	  0.023006011	-1.462500E+02	  0.023006011	2.069000E+00	  0.023006011	-1.514300E+01
17	  0.023206413	-6.580000E-01	  0.023206413	-1.477720E+02	  0.023206413	2.053000E+00	  0.023206413	-1.442200E+01
18	  0.023406813	-6.590000E-01	  0.023406813	-1.493050E+02	  0.023406813	2.039000E+00	  0.023406813	-1.370100E+01
19	  0.023607215	-6.670000E-01	  0.023607215	-1.508480E+02	  0.023607215	2.049000E+00	  0.023607215	-1.298100E+01
20	  0.023807615	-6.750000E-01	  0.023807615	-1.523920E+02	  0.023807615	2.061000E+00	  0.023807615	-1.226400E+01
21	  0.024008015	-6.840000E-01	  0.024008015	-1.539710E+02	  0.024008015	2.074000E+00	  0.024008015	-1.153700E+01
22	  0.024208417	-6.920000E-01	  0.024208417	-1.555570E+02	  0.024208417	2.086000E+00	  0.024208417	-1.081100E+01
23	  0.024408817	-7.000000E-01	  0.024408817	-1.571520E+02	  0.024408817	2.097000E+00	  0.024408817	-1.008600E+01
24	  0.024609219	-7.080000E-01	  0.024609219	-1.587520E+02	  0.024609219	2.111000E+00	  0.024609219	-9.362000E+00
25	  0.024809619	-7.160000E-01	  0.024809619	-1.603500E+02	  0.024809619	2.122000E+00	  0.024809619	-8.643000E+00
26	  0.025010020	-7.250000E-01	  0.025010020	-1.619560E+02	  0.025010020	2.140000E+00	  0.025010020	-7.924000E+00
27	  0.025210422	-7.370000E-01	  0.025210422	-1.635710E+02	  0.025210422	2.165000E+00	  0.025210422	-7.204000E+00
28	  0.025410822	-7.490000E-01	  0.025410822	-1.652130E+02	  0.025410822	2.193000E+00	  0.025410822	-6.475000E+00
29	  0.025611224	-7.630000E-01	  0.025611224	-1.668830E+02	  0.025611224	2.224000E+00	  0.025611224	-5.737000E+00
30	  0.025811624	-7.730000E-01	  0.025811624	-1.685650E+02	  0.025811624	2.246000E+00	  0.025811624	-4.995000E+00
31	  0.026012026	-7.820000E-01	  0.026012026	-1.702460E+02	  0.026012026	2.267000E+00	  0.026012026	-4.257000E+00
32	  0.026212426	-7.920000E-01	  0.026212426	-1.719490E+02	  0.026212426	2.290000E+00	  0.026212426	-3.511000E+00
33	  0.026412826	-8.040000E-01	  0.026412826	-1.736470E+02	  0.026412826	2.322000E+00	  0.026412826	-2.768000E+00
34	  0.026613226	-8.170000E-01	  0.026613226	-1.753490E+02	  0.026613226	2.355000E+00	  0.026613226	-2.025000E+00
35	  0.026813626	-8.330000E-01	  0.026813626	-1.770810E+02	  0.026813626	2.399000E+00	  0.026813626	-1.270000E+00
36	  0.027014028	-8.470000E-01	  0.027014028	-1.788050E+02	  0.027014028	2.438000E+00	  0.027014028	-5.190000E-01
37	  0.027214428	-8.630000E-01	  0.027214428	1.794510E+02	  0.027214428	2.482000E+00	  0.027214428	2.380000E-01
38	  0.027414829	-8.770000E-01	  0.027414829	1.776930E+02	  0.027414829	2.524000E+00	  0.027414829	1.004000E+00
39	  0.027615231	-8.950000E-01	  0.027615231	1.759220E+02	  0.027615231	2.577000E+00	  0.027615231	1.775000E+00
40	  0.027815631	-9.140000E-01	  0.027815631	1.741470E+02	  0.027815631	2.635000E+00	  0.027815631	2.548000E+00
41	  0.028016033	-9.360000E-01	  0.028016033	1.723550E+02	  0.028016033	2.704000E+00	  0.028016033	3.330000E+00
42	  0.028216433	-9.580000E-01	  0.028216433	1.705580E+02	  0.028216433	2.774000E+00	  0.028216433	4.116000E+00
43	  0.028416833	-9.780000E-01	  0.028416833	1.687610E+02	  0.028416833	2.839000E+00	  0.028416833	4.903000E+00
44	  0.028617235	-9.990000E-01	  0.028617235	1.669680E+02	  0.028617235	2.910000E+00	  0.028617235	5.691000E+00
45	  0.028817635	-1.019000E+00	  0.028817635	1.651810E+02	  0.028817635	2.980000E+00	  0.028817635	6.479000E+00
46	  0.029018037	-1.040000E+00	  0.029018037	1.634010E+02	  0.029018037	3.053000E+00	  0.029018037	7.266000E+00
47	  0.029218437	-1.062000E+00	  0.029218437	1.616120E+02	  0.029218437	3.135000E+00	  0.029218437	8.061000E+00
48	  0.029418837	-1.087000E+00	  0.029418837	1.598190E+02	  0.029418837	3.223000E+00	  0.029418837	8.861000E+00
49	  0.029619239	-1.115000E+00	  0.029619239	1.580100E+02	  0.029619239	3.327000E+00	  0.029619239	9.672000E+00
50	  0.029819639	-1.144000E+00	  0.029819639	1.561840E+02	  0.029819639	3.436000E+00	  0.029819639	1.049500E+01
51	  0.030020041	-1.176000E+00	  0.030020041	1.543340E+02	  0.030020041	3.555000E+00	  0.030020041	1.133500E+01
52	  0.030220442	-1.206000E+00	  0.030220442	1.524710E+02	  0.030220442	3.673000E+00	  0.030220442	1.218500E+01
53	  0.030420844	-1.237000E+00	  0.030420844	1.506130E+02	  0.030420844	3.799000E+00	  0.030420844	1.304000E+01
54	  0.030621244	-1.269000E+00	  0.030621244	1.487560E+02	  0.030621244	3.932000E+00	  0.030621244	1.390000E+01
55	  0.030821644	-1.304000E+00	  0.030821644	1.469070E+02	  0.030821644	4.074000E+00	  0.030821644	1.476400E+01
56	  0.031022044	-1.339000E+00	  0.031022044	1.450450E+02	  0.031022044	4.226000E+00	  0.031022044	1.564000E+01
57	  0.031222444	-1.376000E+00	  0.031222444	1.431750E+02	  0.031222444	4.387000E+00	  0.031222444	1.652900E+01
58	  0.031422846	-1.409000E+00	  0.031422846	1.412530E+02	  0.031422846	4.544000E+00	  0.031422846	1.745100E+01
59	  0.031623244	-1.445000E+00	  0.031623244	1.393200E+02	  0.031623244	4.716000E+00	  0.031623244	1.838900E+01
60	  0.031823646	-1.477000E+00	  0.031823646	1.373860E+02	  0.031823646	4.881000E+00	  0.031823646	1.933900E+01
61	  0.032024048	-1.507000E+00	  0.032024048	1.354470E+02	  0.032024048	5.048000E+00	  0.032024048	2.030300E+01
62	  0.032224450	-1.540000E+00	  0.032224450	1.335270E+02	  0.032224450	5.230000E+00	  0.032224450	2.126800E+01
63	  0.032424849	-1.571000E+00	  0.032424849	1.315950E+02	  0.032424849	5.412000E+00	  0.032424849	2.225300E+01
64	  0.032625251	-1.603000E+00	  0.032625251	1.296690E+02	  0.032625251	5.609000E+00	  0.032625251	2.324800E+01
65	  0.032825653	-1.640000E+00	  0.032825653	1.277350E+02	  0.032825653	5.829000E+00	  0.032825653	2.426000E+01
66	  0.033026051	-1.680000E+00	  0.033026051	1.257760E+02	  0.033026051	6.072000E+00	  0.033026051	2.529900E+01
67	  0.033226453	-1.725000E+00	  0.033226453	1.238200E+02	  0.033226453	6.342000E+00	  0.033226453	2.635000E+01
68	  0.033426855	-1.773000E+00	  0.033426855	1.218290E+02	  0.033426855	6.638000E+00	  0.033426855	2.743600E+01
69	  0.033627257	-1.822000E+00	  0.033627257	1.198130E+02	  0.033627257	6.956000E+00	  0.033627257	2.855400E+01
70	  0.033827655	-1.873000E+00	  0.033827655	1.177570E+02	  0.033827655	7.298000E+00	  0.033827655	2.971400E+01
71	  0.034028057	-1.917000E+00	  0.034028057	1.156550E+02	  0.034028057	7.635000E+00	  0.034028057	3.092400E+01
72	  0.034228459	-1.964000E+00	  0.034228459	1.135390E+02	  0.034228459	8.005000E+00	  0.034228459	3.216600E+01
73	  0.034428857	-2.007000E+00	  0.034428857	1.113950E+02	  0.034428857	8.378000E+00	  0.034428857	3.345200E+01
74	  0.034629259	-2.050000E+00	  0.034629259	1.092860E+02	  0.034629259	8.771000E+00	  0.034629259	3.474500E+01
75	  0.034829661	-2.091000E+00	  0.034829661	1.071870E+02	  0.034829661	9.176000E+00	  0.034829661	3.606000E+01
76	  0.035030060	-2.131000E+00	  0.035030060	1.050550E+02	  0.035030060	9.608000E+00	  0.035030060	3.742800E+01
77	  0.035230462	-2.167000E+00	  0.035230462	1.029710E+02	  0.035230462	1.003900E+01	  0.035230462	3.880000E+01
78	  0.035430863	-2.209000E+00	  0.035430863	1.008850E+02	  0.035430863	1.052500E+01	  0.035430863	4.020100E+01
79	  0.035631265	-2.250000E+00	  0.035631265	9.881900E+01	  0.035631265	1.103700E+01	  0.035631265	4.162100E+01
80	  0.035831664	-2.294000E+00	  0.035831664	9.673000E+01	  0.035831664	1.159700E+01	  0.035831664	4.309200E+01
81	  0.036032066	-2.337000E+00	  0.036032066	9.469000E+01	  0.036032066	1.217800E+01	  0.036032066	4.456500E+01
82	  0.036232468	-2.384000E+00	  0.036232468	9.260000E+01	  0.036232468	1.283100E+01	  0.036232468	4.610700E+01
83	  0.036432866	-2.433000E+00	  0.036432866	9.058100E+01	  0.036432866	1.352300E+01	  0.036432866	4.763100E+01
84	  0.036633268	-2.492000E+00	  0.036633268	8.853800E+01	  0.036633268	1.431600E+01	  0.036633268	4.919900E+01
85	  0.036833670	-2.550000E+00	  0.036833670	8.647100E+01	  0.036833670	1.516600E+01	  0.036833670	5.082700E+01
86	  0.037034072	-2.612000E+00	  0.037034072	8.437000E+01	  0.037034072	1.611000E+01	  0.037034072	5.251800E+01
87	  0.037234470	-2.674000E+00	  0.037234470	8.225200E+01	  0.037234470	1.713100E+01	  0.037234470	5.426500E+01
88	  0.037434869	-2.737000E+00	  0.037434869	8.011700E+01	  0.037434869	1.823600E+01	  0.037434869	5.607400E+01
89	  0.037635271	-2.802000E+00	  0.037635271	7.795600E+01	  0.037635271	1.944900E+01	  0.037635271	5.794900E+01
90	  0.037835669	-2.870000E+00	  0.037835669	7.578100E+01	  0.037835669	2.078900E+01	  0.037835669	5.987300E+01
91	  0.038036071	-2.940000E+00	  0.038036071	7.361700E+01	  0.038036071	2.223500E+01	  0.038036071	6.183300E+01
92	  0.038236473	-3.000000E+00	  0.038236473	7.152000E+01	  0.038236473	2.370000E+01	  0.038236473	6.379900E+01
93	  0.038436871	-3.046000E+00	  0.038436871	6.938400E+01	  0.038436871	2.520600E+01	  0.038436871	6.591000E+01
94	  0.038637273	-3.093000E+00	  0.038637273	6.726000E+01	  0.038637273	2.684000E+01	  0.038637273	6.805900E+01
95	  0.038837675	-3.141000E+00	  0.038837675	6.512500E+01	  0.038837675	2.862800E+01	  0.038837675	7.027500E+01
96	  0.039038073	-3.185000E+00	  0.039038073	6.302300E+01	  0.039038073	3.052100E+01	  0.039038073	7.252700E+01
97	  0.039238475	-3.235000E+00	  0.039238475	6.094300E+01	  0.039238475	3.260500E+01	  0.039238475	7.477500E+01
98	  0.039438877	-3.292000E+00	  0.039438877	5.888700E+01	  0.039438877	3.491500E+01	  0.039438877	7.699000E+01
99	  0.039639279	-3.348000E+00	  0.039639279	5.682900E+01	  0.039639279	3.740800E+01	  0.039639279	7.925200E+01
100	  0.039839678	-3.413000E+00	  0.039839678	5.475600E+01	  0.039839678	4.022000E+01	  0.039839678	8.148300E+01
101	  0.040040080	-3.477000E+00	  0.040040080	5.266700E+01	  0.040040080	4.330200E+01	  0.040040080	8.373300E+01
102	  0.040240481	-3.543000E+00	  0.040240481	5.055700E+01	  0.040240481	4.669400E+01	  0.040240481	8.598200E+01
103	  0.040440880	-3.606000E+00	  0.040440880	4.844400E+01	  0.040440880	5.036900E+01	  0.040440880	8.822300E+01
104	  0.040641282	-3.668000E+00	  0.040641282	4.635100E+01	  0.040641282	5.434000E+01	  0.040641282	9.037800E+01
105	  0.040841684	-3.729000E+00	  0.040841684	4.424100E+01	  0.040841684	5.868500E+01	  0.040841684	9.247700E+01
106	  0.041042086	-3.794000E+00	  0.041042086	4.213400E+01	  0.041042086	6.343500E+01	  0.041042086	9.439500E+01
107	  0.041242484	-3.854000E+00	  0.041242484	4.003100E+01	  0.041242484	6.855100E+01	  0.041242484	9.617100E+01
108	  0.041442886	-3.911000E+00	  0.041442886	3.792100E+01	  0.041442886	7.409300E+01	  0.041442886	9.777700E+01
109	  0.041643288	-3.967000E+00	  0.041643288	3.581500E+01	  0.041643288	8.007000E+01	  0.041643288	9.910600E+01
110	  0.041843686	-4.022000E+00	  0.041843686	3.371900E+01	  0.041843686	8.648600E+01	  0.041843686	1.000670E+02
111	  0.042044088	-4.076000E+00	  0.042044088	3.164800E+01	  0.042044088	9.328600E+01	  0.042044088	1.005610E+02
112	  0.042244490	-4.129000E+00	  0.042244490	2.959500E+01	  0.042244490	1.004630E+02	  0.042244490	1.005410E+02
113	  0.042444889	-4.180000E+00	  0.042444889	2.756800E+01	  0.042444889	1.079570E+02	  0.042444889	9.990300E+01
114	  0.042645290	-4.233000E+00	  0.042645290	2.550500E+01	  0.042645290	1.159440E+02	  0.042645290	9.848800E+01
115	  0.042845692	-4.287000E+00	  0.042845692	2.347400E+01	  0.042845692	1.240800E+02	  0.042845692	9.616400E+01
116	  0.043046094	-4.342000E+00	  0.043046094	2.144600E+01	  0.043046094	1.323470E+02	  0.043046094	9.286800E+01
117	  0.043246493	-4.397000E+00	  0.043246493	1.941200E+01	  0.043246493	1.406500E+02	  0.043246493	8.851500E+01
118	  0.043446895	-4.446000E+00	  0.043446895	1.738800E+01	  0.043446895	1.488100E+02	  0.043446895	8.319100E+01
119	  0.043647297	-4.499000E+00	  0.043647297	1.537400E+01	  0.043647297	1.565120E+02	  0.043647297	7.662800E+01
120	  0.043847695	-4.552000E+00	  0.043847695	1.334700E+01	  0.043847695	1.636720E+02	  0.043847695	6.888500E+01
121	  0.044048097	-4.606000E+00	  0.044048097	1.133900E+01	  0.044048097	1.699190E+02	  0.044048097	6.014200E+01
122	  0.044248499	-4.657000E+00	  0.044248499	9.345000E+00	  0.044248499	1.751480E+02	  0.044248499	5.058000E+01
123	  0.044448901	-4.708000E+00	  0.044448901	7.337000E+00	  0.044448901	1.792080E+02	  0.044448901	4.022000E+01
124	  0.044649299	-4.754000E+00	  0.044649299	5.338000E+00	  0.044649299	1.820820E+02	  0.044649299	2.945200E+01
125	  0.044849701	-4.801000E+00	  0.044849701	3.338000E+00	  0.044849701	1.835130E+02	  0.044849701	1.838200E+01
126	  0.045050103	-4.843000E+00	  0.045050103	1.348000E+00	  0.045050103	1.836460E+02	  0.045050103	7.361000E+00
127	  0.045250501	-4.882000E+00	  0.045250501	-6.030000E-01	  0.045250501	1.824820E+02	  0.045250501	-3.246000E+00
128	  0.045450903	-4.925000E+00	  0.045450903	-2.533000E+00	  0.045450903	1.799660E+02	  0.045450903	-1.330000E+01
129	  0.045651305	-4.966000E+00	  0.045651305	-4.459000E+00	  0.045651305	1.764600E+02	  0.045651305	-2.273600E+01
130	  0.045851704	-5.004000E+00	  0.045851704	-6.358000E+00	  0.045851704	1.721390E+02	  0.045851704	-3.132700E+01
131	  0.046052106	-5.042000E+00	  0.046052106	-8.267000E+00	  0.046052106	1.670460E+02	  0.046052106	-3.914100E+01
132	  0.046252504	-5.078000E+00	  0.046252504	-1.015600E+01	  0.046252504	1.614940E+02	  0.046252504	-4.604000E+01
133	  0.046452906	-5.114000E+00	  0.046452906	-1.201800E+01	  0.046452906	1.555950E+02	  0.046452906	-5.197100E+01
134	  0.046653304	-5.144000E+00	  0.046653304	-1.392600E+01	  0.046653304	1.494180E+02	  0.046653304	-5.730500E+01
135	  0.046853706	-5.177000E+00	  0.046853706	-1.576600E+01	  0.046853706	1.432430E+02	  0.046853706	-6.157900E+01
136	  0.047054108	-5.205000E+00	  0.047054108	-1.761500E+01	  0.047054108	1.370800E+02	  0.047054108	-6.524100E+01
137	  0.047254506	-5.236000E+00	  0.047254506	-1.945100E+01	  0.047254506	1.309530E+02	  0.047254506	-6.812300E+01
138	  0.047454908	-5.263000E+00	  0.047454908	-2.125900E+01	  0.047454908	1.250770E+02	  0.047454908	-7.044900E+01
139	  0.047655310	-5.290000E+00	  0.047655310	-2.305100E+01	  0.047655310	1.193900E+02	  0.047655310	-7.220000E+01
140	  0.047855709	-5.318000E+00	  0.047855709	-2.480800E+01	  0.047855709	1.139900E+02	  0.047855709	-7.342900E+01
141	  0.048056111	-5.345000E+00	  0.048056111	-2.656800E+01	  0.048056111	1.087940E+02	  0.048056111	-7.428100E+01
142	  0.048256513	-5.374000E+00	  0.048256513	-2.833600E+01	  0.048256513	1.037980E+02	  0.048256513	-7.475400E+01
143	  0.048456915	-5.403000E+00	  0.048456915	-3.009200E+01	  0.048456915	9.907100E+01	  0.048456915	-7.492400E+01
144	  0.048657313	-5.430000E+00	  0.048657313	-3.183900E+01	  0.048657313	9.460900E+01	  0.048657313	-7.486300E+01
145	  0.048857715	-5.456000E+00	  0.048857715	-3.358800E+01	  0.048857715	9.037700E+01	  0.048857715	-7.459300E+01
146	  0.049058117	-5.479000E+00	  0.049058117	-3.535500E+01	  0.049058117	8.633000E+01	  0.049058117	-7.416300E+01
147	  0.049258515	-5.502000E+00	  0.049258515	-3.706000E+01	  0.049258515	8.263500E+01	  0.049258515	-7.359500E+01
148	  0.049458917	-5.524000E+00	  0.049458917	-3.880600E+01	  0.049458917	7.906100E+01	  0.049458917	-7.288800E+01
149	  0.049659319	-5.550000E+00	  0.049659319	-4.052400E+01	  0.049659319	7.575200E+01	  0.049659319	-7.201700E+01
150	  0.049859721	-5.575000E+00	  0.049859721	-4.225200E+01	  0.049859721	7.261000E+01	  0.049859721	-7.107900E+01
151	  0.050060119	-5.596000E+00	  0.050060119	-4.399100E+01	  0.050060119	6.962100E+01	  0.050060119	-7.010200E+01
152	  0.050260521	-5.611000E+00	  0.050260521	-4.572800E+01	  0.050260521	6.679100E+01	  0.050260521	-6.911100E+01
153	  0.050460923	-5.627000E+00	  0.050460923	-4.744600E+01	  0.050460923	6.415000E+01	  0.050460923	-6.807700E+01
154	  0.050661322	-5.642000E+00	  0.050661322	-4.917600E+01	  0.050661322	6.163900E+01	  0.050661322	-6.699200E+01
155	  0.050861724	-5.653000E+00	  0.050861724	-5.086500E+01	  0.050861724	5.931200E+01	  0.050861724	-6.592800E+01
156	  0.051062126	-5.666000E+00	  0.051062126	-5.254600E+01	  0.051062126	5.712900E+01	  0.051062126	-6.482100E+01
157	  0.051262524	-5.681000E+00	  0.051262524	-5.418800E+01	  0.051262524	5.512000E+01	  0.051262524	-6.370200E+01
158	  0.051462926	-5.688000E+00	  0.051462926	-5.580400E+01	  0.051462926	5.322100E+01	  0.051462926	-6.263800E+01
159	  0.051663328	-5.699000E+00	  0.051663328	-5.741900E+01	  0.051663328	5.143600E+01	  0.051663328	-6.153800E+01
160	  0.051863730	-5.714000E+00	  0.051863730	-5.904500E+01	  0.051863730	4.974900E+01	  0.051863730	-6.039100E+01
161	  0.052064128	-5.729000E+00	  0.052064128	-6.067200E+01	  0.052064128	4.814900E+01	  0.052064128	-5.924600E+01
162	  0.052264530	-5.738000E+00	  0.052264530	-6.226700E+01	  0.052264530	4.663900E+01	  0.052264530	-5.815800E+01
163	  0.052464932	-5.749000E+00	  0.052464932	-6.387600E+01	  0.052464932	4.520000E+01	  0.052464932	-5.704900E+01
164	  0.052665330	-5.762000E+00	  0.052665330	-6.547200E+01	  0.052665330	4.385300E+01	  0.052665330	-5.594300E+01
165	  0.052865732	-5.774000E+00	  0.052865732	-6.706500E+01	  0.052865732	4.257600E+01	  0.052865732	-5.484400E+01
166	  0.053066134	-5.782000E+00	  0.053066134	-6.866900E+01	  0.053066134	4.133000E+01	  0.053066134	-5.377400E+01
167	  0.053266536	-5.789000E+00	  0.053266536	-7.022700E+01	  0.053266536	4.018000E+01	  0.053266536	-5.273900E+01
168	  0.053466935	-5.794000E+00	  0.053466935	-7.180100E+01	  0.053466935	3.906500E+01	  0.053466935	-5.170900E+01
169	  0.053667337	-5.794000E+00	  0.053667337	-7.335000E+01	  0.053667337	3.799900E+01	  0.053667337	-5.072400E+01
170	  0.053867739	-5.798000E+00	  0.053867739	-7.488300E+01	  0.053867739	3.700800E+01	  0.053867739	-4.973800E+01
171	  0.054068137	-5.797000E+00	  0.054068137	-7.637900E+01	  0.054068137	3.606400E+01	  0.054068137	-4.880400E+01
172	  0.054268539	-5.800000E+00	  0.054268539	-7.783500E+01	  0.054268539	3.520100E+01	  0.054268539	-4.788500E+01
173	  0.054468941	-5.806000E+00	  0.054468941	-7.929600E+01	  0.054468941	3.438400E+01	  0.054468941	-4.696000E+01
174	  0.054669339	-5.806000E+00	  0.054669339	-8.074300E+01	  0.054669339	3.358300E+01	  0.054669339	-4.607700E+01
175	  0.054869737	-5.814000E+00	  0.054869737	-8.213700E+01	  0.054869737	3.287900E+01	  0.054869737	-4.520100E+01
176	  0.055070139	-5.821000E+00	  0.055070139	-8.354600E+01	  0.055070139	3.219100E+01	  0.055070139	-4.433000E+01
177	  0.055270538	-5.831000E+00	  0.055270538	-8.495200E+01	  0.055270538	3.154200E+01	  0.055270538	-4.346200E+01
178	  0.055470940	-5.836000E+00	  0.055470940	-8.636800E+01	  0.055470940	3.089700E+01	  0.055470940	-4.261200E+01
179	  0.055671342	-5.843000E+00	  0.055671342	-8.777100E+01	  0.055671342	3.029400E+01	  0.055671342	-4.177100E+01
180	  0.055871744	-5.852000E+00	  0.055871744	-8.917500E+01	  0.055871744	2.971800E+01	  0.055871744	-4.093500E+01
181	  0.056072142	-5.863000E+00	  0.056072142	-9.056900E+01	  0.056072142	2.917900E+01	  0.056072142	-4.010800E+01
182	  0.056272544	-5.874000E+00	  0.056272544	-9.196300E+01	  0.056272544	2.866300E+01	  0.056272544	-3.929000E+01
183	  0.056472946	-5.878000E+00	  0.056472946	-9.335700E+01	  0.056472946	2.813900E+01	  0.056472946	-3.850000E+01
184	  0.056673344	-5.883000E+00	  0.056673344	-9.472600E+01	  0.056673344	2.765000E+01	  0.056673344	-3.772900E+01
185	  0.056873746	-5.889000E+00	  0.056873746	-9.610100E+01	  0.056873746	2.718000E+01	  0.056873746	-3.696100E+01
186	  0.057074148	-5.886000E+00	  0.057074148	-9.748700E+01	  0.057074148	2.669300E+01	  0.057074148	-3.621400E+01
187	  0.057274550	-5.890000E+00	  0.057274550	-9.883800E+01	  0.057274550	2.625800E+01	  0.057274550	-3.547900E+01
188	  0.057474948	-5.889000E+00	  0.057474948	-1.001670E+02	  0.057474948	2.583100E+01	  0.057474948	-3.477200E+01
189	  0.057675350	-5.892000E+00	  0.057675350	-1.014880E+02	  0.057675350	2.543400E+01	  0.057675350	-3.406800E+01
190	  0.057875752	-5.890000E+00	  0.057875752	-1.027790E+02	  0.057875752	2.504400E+01	  0.057875752	-3.339600E+01
191	  0.058076151	-5.889000E+00	  0.058076151	-1.040640E+02	  0.058076151	2.467100E+01	  0.058076151	-3.273100E+01
192	  0.058276553	-5.890000E+00	  0.058276553	-1.053220E+02	  0.058276553	2.432600E+01	  0.058276553	-3.208100E+01
193	  0.058476955	-5.891000E+00	  0.058476955	-1.065860E+02	  0.058476955	2.399400E+01	  0.058476955	-3.143300E+01
194	  0.058677353	-5.893000E+00	  0.058677353	-1.078620E+02	  0.058677353	2.366900E+01	  0.058677353	-3.078400E+01
195	  0.058877755	-5.891000E+00	  0.058877755	-1.091140E+02	  0.058877755	2.334900E+01	  0.058877755	-3.015900E+01
196	  0.059078157	-5.889000E+00	  0.059078157	-1.103590E+02	  0.059078157	2.304300E+01	  0.059078157	-2.954100E+01
197	  0.059278559	-5.894000E+00	  0.059278559	-1.115930E+02	  0.059278559	2.276800E+01	  0.059278559	-2.892600E+01
198	  0.059478957	-5.892000E+00	  0.059478957	-1.128650E+02	  0.059478957	2.247500E+01	  0.059478957	-2.830500E+01
199	  0.059679359	-5.892000E+00	  0.059679359	-1.140900E+02	  0.059679359	2.220900E+01	  0.059679359	-2.770900E+01
200	  0.059879761	-5.894000E+00	  0.059879761	-1.153250E+02	  0.059879761	2.195200E+01	  0.059879761	-2.711100E+01
201	  0.060080159	-5.890000E+00	  0.060080159	-1.165320E+02	  0.060080159	2.169500E+01	  0.060080159	-2.653800E+01
202	  0.060280561	-5.889000E+00	  0.060280561	-1.177480E+02	  0.060280561	2.145000E+01	  0.060280561	-2.596200E+01
203	  0.060480963	-5.889000E+00	  0.060480963	-1.189610E+02	  0.060480963	2.121800E+01	  0.060480963	-2.538900E+01
204	  0.060681365	-5.886000E+00	  0.060681365	-1.201530E+02	  0.060681365	2.098700E+01	  0.060681365	-2.483500E+01
205	  0.060881764	-5.876000E+00	  0.060881764	-1.213620E+02	  0.060881764	2.074200E+01	  0.060881764	-2.428300E+01
206	  0.061082166	-5.877000E+00	  0.061082166	-1.225650E+02	  0.061082166	2.053600E+01	  0.061082166	-2.372500E+01
207	  0.061282568	-5.873000E+00	  0.061282568	-1.237330E+02	  0.061282568	2.032800E+01	  0.061282568	-2.319300E+01
208	  0.061482966	-5.866000E+00	  0.061482966	-1.248880E+02	  0.061482966	2.012100E+01	  0.061482966	-2.267300E+01
209	  0.061683368	-5.867000E+00	  0.061683368	-1.260140E+02	  0.061683368	1.994800E+01	  0.061683368	-2.216100E+01
210	  0.061883770	-5.864000E+00	  0.061883770	-1.271540E+02	  0.061883770	1.976500E+01	  0.061883770	-2.164900E+01
211	  0.062084168	-5.862000E+00	  0.062084168	-1.282940E+02	  0.062084168	1.959100E+01	  0.062084168	-2.114000E+01
212	  0.062284570	-5.860000E+00	  0.062284570	-1.294190E+02	  0.062284570	1.942600E+01	  0.062284570	-2.064000E+01
213	  0.062484972	-5.864000E+00	  0.062484972	-1.305340E+02	  0.062484972	1.928400E+01	  0.062484972	-2.014200E+01
214	  0.062685370	-5.862000E+00	  0.062685370	-1.316670E+02	  0.062685370	1.912700E+01	  0.062685370	-1.964400E+01
215	  0.062885776	-5.867000E+00	  0.062885776	-1.327960E+02	  0.062885776	1.899500E+01	  0.062885776	-1.914500E+01
216	  0.063086174	-5.863000E+00	  0.063086174	-1.339380E+02	  0.063086174	1.884100E+01	  0.063086174	-1.864900E+01
217	  0.063286573	-5.866000E+00	  0.063286573	-1.350900E+02	  0.063286573	1.871100E+01	  0.063286573	-1.814800E+01
218	  0.063486971	-5.867000E+00	  0.063486971	-1.362340E+02	  0.063486971	1.858100E+01	  0.063486971	-1.765300E+01
219	  0.063687377	-5.861000E+00	  0.063687377	-1.373360E+02	  0.063687377	1.844100E+01	  0.063687377	-1.718400E+01
220	  0.063887775	-5.861000E+00	  0.063887775	-1.385100E+02	  0.063887775	1.831300E+01	  0.063887775	-1.668200E+01
221	  0.064088173	-5.857000E+00	  0.064088173	-1.396200E+02	  0.064088173	1.818400E+01	  0.064088173	-1.621300E+01
222	  0.064288579	-5.853000E+00	  0.064288579	-1.407300E+02	  0.064288579	1.806300E+01	  0.064288579	-1.574500E+01
223	  0.064488977	-5.853000E+00	  0.064488977	-1.418010E+02	  0.064488977	1.795800E+01	  0.064488977	-1.529300E+01
224	  0.064689375	-5.852000E+00	  0.064689375	-1.428940E+02	  0.064689375	1.785100E+01	  0.064689375	-1.483500E+01
225	  0.064889781	-5.849000E+00	  0.064889781	-1.439850E+02	  0.064889781	1.774300E+01	  0.064889781	-1.438100E+01
226	  0.065090179	-5.847000E+00	  0.065090179	-1.450210E+02	  0.065090179	1.764800E+01	  0.065090179	-1.395000E+01
227	  0.065290578	-5.846000E+00	  0.065290578	-1.461010E+02	  0.065290578	1.755400E+01	  0.065290578	-1.350200E+01
228	  0.065490983	-5.846000E+00	  0.065490983	-1.471660E+02	  0.065490983	1.746900E+01	  0.065490983	-1.306100E+01
229	  0.065691382	-5.848000E+00	  0.065691382	-1.482130E+02	  0.065691382	1.739100E+01	  0.065691382	-1.262900E+01
230	  0.065891780	-5.848000E+00	  0.065891780	-1.492630E+02	  0.065891780	1.731300E+01	  0.065891780	-1.219800E+01
231	  0.066092186	-5.850000E+00	  0.066092186	-1.503100E+02	  0.066092186	1.724100E+01	  0.066092186	-1.176800E+01
232	  0.066292584	-5.848000E+00	  0.066292584	-1.513650E+02	  0.066292584	1.716400E+01	  0.066292584	-1.133900E+01
233	  0.066492982	-5.848000E+00	  0.066492982	-1.523980E+02	  0.066492982	1.709400E+01	  0.066492982	-1.091900E+01
234	  0.066693388	-5.847000E+00	  0.066693388	-1.534210E+02	  0.066693388	1.702700E+01	  0.066693388	-1.050400E+01
235	  0.066893786	-5.852000E+00	  0.066893786	-1.544340E+02	  0.066893786	1.697700E+01	  0.066893786	-1.009300E+01
236	  0.067094192	-5.854000E+00	  0.067094192	-1.554560E+02	  0.067094192	1.692300E+01	  0.067094192	-9.680000E+00
237	  0.067294590	-5.855000E+00	  0.067294590	-1.565060E+02	  0.067294590	1.686800E+01	  0.067294590	-9.257000E+00
238	  0.067494988	-5.858000E+00	  0.067494988	-1.575110E+02	  0.067494988	1.682200E+01	  0.067494988	-8.853000E+00
239	  0.067695394	-5.865000E+00	  0.067695394	-1.585560E+02	  0.067695394	1.678600E+01	  0.067695394	-8.433000E+00
240	  0.067895792	-5.866000E+00	  0.067895792	-1.595740E+02	  0.067895792	1.674000E+01	  0.067895792	-8.026000E+00
241	  0.068096191	-5.868000E+00	  0.068096191	-1.605750E+02	  0.068096191	1.670100E+01	  0.068096191	-7.627000E+00
242	  0.068296596	-5.868000E+00	  0.068296596	-1.615920E+02	  0.068296596	1.665600E+01	  0.068296596	-7.223000E+00
243	  0.068496995	-5.870000E+00	  0.068496995	-1.625460E+02	  0.068496995	1.662300E+01	  0.068496995	-6.844000E+00
244	  0.068697393	-5.877000E+00	  0.068697393	-1.635570E+02	  0.068697393	1.660300E+01	  0.068697393	-6.442000E+00
245	  0.068897791	-5.875000E+00	  0.068897791	-1.645470E+02	  0.068897791	1.656100E+01	  0.068897791	-6.051000E+00
246	  0.069098189	-5.883000E+00	  0.069098189	-1.655480E+02	  0.069098189	1.654800E+01	  0.069098189	-5.654000E+00
247	  0.069298595	-5.886000E+00	  0.069298595	-1.665280E+02	  0.069298595	1.652400E+01	  0.069298595	-5.268000E+00
248	  0.069498993	-5.890000E+00	  0.069498993	-1.675470E+02	  0.069498993	1.650500E+01	  0.069498993	-4.866000E+00
249	  0.069699399	-5.893000E+00	  0.069699399	-1.685270E+02	  0.069699399	1.648700E+01	  0.069699399	-4.481000E+00
250	  0.069899797	-5.898000E+00	  0.069899797	-1.694970E+02	  0.069899797	1.647500E+01	  0.069899797	-4.100000E+00
251	  0.070100196	-5.900000E+00	  0.070100196	-1.704530E+02	  0.070100196	1.646100E+01	  0.070100196	-3.725000E+00
252	  0.070300601	-5.901000E+00	  0.070300601	-1.714560E+02	  0.070300601	1.644300E+01	  0.070300601	-3.332000E+00
253	  0.070501000	-5.903000E+00	  0.070501000	-1.724410E+02	  0.070501000	1.643000E+01	  0.070501000	-2.947000E+00
254	  0.070701398	-5.905000E+00	  0.070701398	-1.734110E+02	  0.070701398	1.641900E+01	  0.070701398	-2.568000E+00
255	  0.070901804	-5.906000E+00	  0.070901804	-1.743440E+02	  0.070901804	1.640900E+01	  0.070901804	-2.204000E+00
256	  0.071102202	-5.913000E+00	  0.071102202	-1.753380E+02	  0.071102202	1.641600E+01	  0.071102202	-1.815000E+00
257	  0.071302600	-5.913000E+00	  0.071302600	-1.762730E+02	  0.071302600	1.640800E+01	  0.071302600	-1.451000E+00
258	  0.071503006	-5.918000E+00	  0.071503006	-1.771990E+02	  0.071503006	1.641200E+01	  0.071503006	-1.090000E+00
259	  0.071703404	-5.921000E+00	  0.071703404	-1.781350E+02	  0.071703404	1.641700E+01	  0.071703404	-7.260000E-01
260	  0.071903802	-5.922000E+00	  0.071903802	-1.790630E+02	  0.071903802	1.641500E+01	  0.071903802	-3.640000E-01
261	  0.072104208	-5.929000E+00	  0.072104208	-1.799890E+02	  0.072104208	1.643400E+01	  0.072104208	-3.000000E-03
262	  0.072304606	-5.932000E+00	  0.072304606	1.790800E+02	  0.072304606	1.644100E+01	  0.072304606	3.580000E-01
263	  0.072505005	-5.937000E+00	  0.072505005	1.781750E+02	  0.072505005	1.645600E+01	  0.072505005	7.090000E-01
264	  0.072705410	-5.939000E+00	  0.072705410	1.772790E+02	  0.072705410	1.646700E+01	  0.072705410	1.058000E+00
265	  0.072905809	-5.943000E+00	  0.072905809	1.763720E+02	  0.072905809	1.648400E+01	  0.072905809	1.411000E+00
266	  0.073106214	-5.949000E+00	  0.073106214	1.754870E+02	  0.073106214	1.650700E+01	  0.073106214	1.755000E+00
267	  0.073306613	-5.955000E+00	  0.073306613	1.746130E+02	  0.073306613	1.653100E+01	  0.073306613	2.095000E+00
268	  0.073507011	-5.960000E+00	  0.073507011	1.737090E+02	  0.073507011	1.655700E+01	  0.073507011	2.447000E+00
269	  0.073707417	-5.967000E+00	  0.073707417	1.728210E+02	  0.073707417	1.658900E+01	  0.073707417	2.792000E+00
270	  0.073907815	-5.972000E+00	  0.073907815	1.719580E+02	  0.073907815	1.661500E+01	  0.073907815	3.127000E+00
271	  0.074108213	-5.979000E+00	  0.074108213	1.710850E+02	  0.074108213	1.664900E+01	  0.074108213	3.467000E+00
272	  0.074308619	-5.987000E+00	  0.074308619	1.701920E+02	  0.074308619	1.669000E+01	  0.074308619	3.815000E+00
273	  0.074509017	-5.997000E+00	  0.074509017	1.693210E+02	  0.074509017	1.673500E+01	  0.074509017	4.153000E+00
274	  0.074709415	-6.004000E+00	  0.074709415	1.684260E+02	  0.074709415	1.677600E+01	  0.074709415	4.501000E+00
275	  0.074909821	-6.014000E+00	  0.074909821	1.675670E+02	  0.074909821	1.682700E+01	  0.074909821	4.835000E+00
276	  0.075110219	-6.021000E+00	  0.075110219	1.667020E+02	  0.075110219	1.687000E+01	  0.075110219	5.172000E+00
277	  0.075310618	-6.034000E+00	  0.075310618	1.658250E+02	  0.075310618	1.693000E+01	  0.075310618	5.513000E+00
278	  0.075511023	-6.042000E+00	  0.075511023	1.650020E+02	  0.075511023	1.697900E+01	  0.075511023	5.834000E+00
279	  0.075711422	-6.050000E+00	  0.075711422	1.641390E+02	  0.075711422	1.703200E+01	  0.075711422	6.170000E+00
280	  0.075911827	-6.063000E+00	  0.075911827	1.632460E+02	  0.075911827	1.709700E+01	  0.075911827	6.518000E+00
281	  0.076112226	-6.074000E+00	  0.076112226	1.623540E+02	  0.076112226	1.716300E+01	  0.076112226	6.865000E+00
282	  0.076312624	-6.084000E+00	  0.076312624	1.615100E+02	  0.076312624	1.722400E+01	  0.076312624	7.194000E+00
283	  0.076513030	-6.099000E+00	  0.076513030	1.605840E+02	  0.076513030	1.730400E+01	  0.076513030	7.555000E+00
284	  0.076713428	-6.103000E+00	  0.076713428	1.596970E+02	  0.076713428	1.735700E+01	  0.076713428	7.903000E+00
285	  0.076913826	-6.115000E+00	  0.076913826	1.588320E+02	  0.076913826	1.743000E+01	  0.076913826	8.241000E+00
286	  0.077114232	-6.122000E+00	  0.077114232	1.580090E+02	  0.077114232	1.748900E+01	  0.077114232	8.564000E+00
287	  0.077314630	-6.130000E+00	  0.077314630	1.571730E+02	  0.077314630	1.755400E+01	  0.077314630	8.892000E+00
288	  0.077515028	-6.142000E+00	  0.077515028	1.563400E+02	  0.077515028	1.763300E+01	  0.077515028	9.218000E+00
289	  0.077715434	-6.153000E+00	  0.077715434	1.554790E+02	  0.077715434	1.771100E+01	  0.077715434	9.556000E+00
290	  0.077915832	-6.162000E+00	  0.077915832	1.546320E+02	  0.077915832	1.778600E+01	  0.077915832	9.889000E+00
291	  0.078116231	-6.173000E+00	  0.078116231	1.538190E+02	  0.078116231	1.786700E+01	  0.078116231	1.020900E+01
292	  0.078316636	-6.186000E+00	  0.078316636	1.529800E+02	  0.078316636	1.795500E+01	  0.078316636	1.053800E+01
293	  0.078517035	-6.197000E+00	  0.078517035	1.521490E+02	  0.078517035	1.804000E+01	  0.078517035	1.086500E+01
294	  0.078717433	-6.207000E+00	  0.078717433	1.513280E+02	  0.078717433	1.812300E+01	  0.078717433	1.118900E+01
295	  0.078917839	-6.221000E+00	  0.078917839	1.505150E+02	  0.078917839	1.821900E+01	  0.078917839	1.150900E+01
296	  0.079118237	-6.230000E+00	  0.079118237	1.497120E+02	  0.079118237	1.830200E+01	  0.079118237	1.182700E+01
297	  0.079318643	-6.246000E+00	  0.079318643	1.488970E+02	  0.079318643	1.840600E+01	  0.079318643	1.214800E+01
298	  0.079519041	-6.255000E+00	  0.079519041	1.480880E+02	  0.079519041	1.849400E+01	  0.079519041	1.246900E+01
299	  0.079719439	-6.270000E+00	  0.079719439	1.473200E+02	  0.079719439	1.859900E+01	  0.079719439	1.277100E+01
300	  0.079919845	-6.283000E+00	  0.079919845	1.464730E+02	  0.079919845	1.870400E+01	  0.079919845	1.310700E+01
301	  0.080120243	-6.295000E+00	  0.080120243	1.456710E+02	  0.080120243	1.880600E+01	  0.080120243	1.342600E+01
302	  0.080320641	-6.307000E+00	  0.080320641	1.448970E+02	  0.080320641	1.890800E+01	  0.080320641	1.373300E+01
303	  0.080521047	-6.323000E+00	  0.080521047	1.441090E+02	  0.080521047	1.902200E+01	  0.080521047	1.404400E+01
304	  0.080721445	-6.337000E+00	  0.080721445	1.433110E+02	  0.080721445	1.913600E+01	  0.080721445	1.436100E+01
305	  0.080921844	-6.353000E+00	  0.080921844	1.425310E+02	  0.080921844	1.925400E+01	  0.080921844	1.467000E+01
306	  0.081122249	-6.370000E+00	  0.081122249	1.417520E+02	  0.081122249	1.937800E+01	  0.081122249	1.497800E+01
307	  0.081322648	-6.387000E+00	  0.081322648	1.409710E+02	  0.081322648	1.950600E+01	  0.081322648	1.528600E+01
308	  0.081523046	-6.398000E+00	  0.081523046	1.401710E+02	  0.081523046	1.962000E+01	  0.081523046	1.560800E+01
309	  0.081723452	-6.420000E+00	  0.081723452	1.393900E+02	  0.081723452	1.976200E+01	  0.081723452	1.591400E+01
310	  0.081923850	-6.438000E+00	  0.081923850	1.386350E+02	  0.081923850	1.989600E+01	  0.081923850	1.621200E+01
311	  0.082124248	-6.454000E+00	  0.082124248	1.378720E+02	  0.082124248	2.002800E+01	  0.082124248	1.651500E+01
312	  0.082324654	-6.474000E+00	  0.082324654	1.370900E+02	  0.082324654	2.017500E+01	  0.082324654	1.682400E+01
313	  0.082525052	-6.495000E+00	  0.082525052	1.363360E+02	  0.082525052	2.032300E+01	  0.082525052	1.712000E+01
314	  0.082725458	-6.521000E+00	  0.082725458	1.355730E+02	  0.082725458	2.048500E+01	  0.082725458	1.741700E+01
315	  0.082925856	-6.538000E+00	  0.082925856	1.347810E+02	  0.082925856	2.063300E+01	  0.082925856	1.773300E+01
316	  0.083126254	-6.555000E+00	  0.083126254	1.339530E+02	  0.083126254	2.078600E+01	  0.083126254	1.806400E+01
317	  0.083326660	-6.574000E+00	  0.083326660	1.331890E+02	  0.083326660	2.094200E+01	  0.083326660	1.836600E+01
318	  0.083527058	-6.597000E+00	  0.083527058	1.324120E+02	  0.083527058	2.111000E+01	  0.083527058	1.867100E+01
319	  0.083727457	-6.615000E+00	  0.083727457	1.316530E+02	  0.083727457	2.126600E+01	  0.083727457	1.897300E+01
320	  0.083927862	-6.628000E+00	  0.083927862	1.308650E+02	  0.083927862	2.141500E+01	  0.083927862	1.929200E+01
321	  0.084128261	-6.649000E+00	  0.084128261	1.301520E+02	  0.084128261	2.157600E+01	  0.084128261	1.957300E+01
322	  0.084328659	-6.668000E+00	  0.084328659	1.293910E+02	  0.084328659	2.174300E+01	  0.084328659	1.987600E+01
323	  0.084529065	-6.686000E+00	  0.084529065	1.286320E+02	  0.084529065	2.190900E+01	  0.084529065	2.017900E+01
324	  0.084729463	-6.705000E+00	  0.084729463	1.279190E+02	  0.084729463	2.207200E+01	  0.084729463	2.046200E+01
325	  0.084929861	-6.723000E+00	  0.084929861	1.271810E+02	  0.084929861	2.224000E+01	  0.084929861	2.075600E+01
326	  0.085130267	-6.745000E+00	  0.085130267	1.264660E+02	  0.085130267	2.242000E+01	  0.085130267	2.103700E+01
327	  0.085330658	-6.762000E+00	  0.085330658	1.257520E+02	  0.085330658	2.258700E+01	  0.085330658	2.132200E+01
328	  0.085531056	-6.781000E+00	  0.085531056	1.250180E+02	  0.085531056	2.276500E+01	  0.085531056	2.161400E+01
329	  0.085731462	-6.808000E+00	  0.085731462	1.243420E+02	  0.085731462	2.295700E+01	  0.085731462	2.187300E+01
330	  0.085931860	-6.828000E+00	  0.085931860	1.236440E+02	  0.085931860	2.313700E+01	  0.085931860	2.214900E+01
331	  0.086132258	-6.849000E+00	  0.086132258	1.229900E+02	  0.086132258	2.331600E+01	  0.086132258	2.240400E+01
332	  0.086332664	-6.873000E+00	  0.086332664	1.222640E+02	  0.086332664	2.351600E+01	  0.086332664	2.268600E+01
333	  0.086533062	-6.895000E+00	  0.086533062	1.215320E+02	  0.086533062	2.371800E+01	  0.086533062	2.297400E+01
334	  0.086733460	-6.920000E+00	  0.086733460	1.208720E+02	  0.086733460	2.391400E+01	  0.086733460	2.322700E+01
335	  0.086933866	-6.940000E+00	  0.086933866	1.201410E+02	  0.086933866	2.411500E+01	  0.086933866	2.351500E+01
336	  0.087134264	-6.965000E+00	  0.087134264	1.194550E+02	  0.087134264	2.432300E+01	  0.087134264	2.377800E+01
337	  0.087334670	-6.986000E+00	  0.087334670	1.187490E+02	  0.087334670	2.452800E+01	  0.087334670	2.405500E+01
338	  0.087535068	-7.009000E+00	  0.087535068	1.180880E+02	  0.087535068	2.472900E+01	  0.087535068	2.431000E+01
339	  0.087735467	-7.034000E+00	  0.087735467	1.174040E+02	  0.087735467	2.494800E+01	  0.087735467	2.457000E+01
340	  0.087935872	-7.061000E+00	  0.087935872	1.167300E+02	  0.087935872	2.517000E+01	  0.087935872	2.482400E+01
341	  0.088136271	-7.083000E+00	  0.088136271	1.160550E+02	  0.088136271	2.538000E+01	  0.088136271	2.508600E+01
342	  0.088336669	-7.110000E+00	  0.088336669	1.154070E+02	  0.088336669	2.560200E+01	  0.088336669	2.532700E+01
343	  0.088537075	-7.136000E+00	  0.088537075	1.147560E+02	  0.088537075	2.582700E+01	  0.088537075	2.556900E+01
344	  0.088737473	-7.161000E+00	  0.088737473	1.140800E+02	  0.088737473	2.605500E+01	  0.088737473	2.582500E+01
345	  0.088937871	-7.188000E+00	  0.088937871	1.134340E+02	  0.088937871	2.628600E+01	  0.088937871	2.606300E+01
346	  0.089138277	-7.220000E+00	  0.089138277	1.128030E+02	  0.089138277	2.652900E+01	  0.089138277	2.628600E+01
347	  0.089338675	-7.248000E+00	  0.089338675	1.121640E+02	  0.089338675	2.676700E+01	  0.089338675	2.651800E+01
348	  0.089539073	-7.286000E+00	  0.089539073	1.115320E+02	  0.089539073	2.703300E+01	  0.089539073	2.673000E+01
349	  0.089739479	-7.309000E+00	  0.089739479	1.108410E+02	  0.089739479	2.727600E+01	  0.089739479	2.699000E+01
350	  0.089939877	-7.343000E+00	  0.089939877	1.102120E+02	  0.089939877	2.753500E+01	  0.089939877	2.720600E+01
351	  0.090140276	-7.368000E+00	  0.090140276	1.095390E+02	  0.090140276	2.778400E+01	  0.090140276	2.745300E+01
352	  0.090340681	-7.400000E+00	  0.090340681	1.089040E+02	  0.090340681	2.804700E+01	  0.090340681	2.767100E+01
353	  0.090541080	-7.431000E+00	  0.090541080	1.082480E+02	  0.090541080	2.831500E+01	  0.090541080	2.789800E+01
354	  0.090741485	-7.463000E+00	  0.090741485	1.076430E+02	  0.090741485	2.857200E+01	  0.090741485	2.810200E+01
355	  0.090941884	-7.485000E+00	  0.090941884	1.069960E+02	  0.090941884	2.882000E+01	  0.090941884	2.833900E+01
356	  0.091142282	-7.518000E+00	  0.091142282	1.063810E+02	  0.091142282	2.909100E+01	  0.091142282	2.854200E+01
357	  0.091342688	-7.547000E+00	  0.091342688	1.057860E+02	  0.091342688	2.934500E+01	  0.091342688	2.874300E+01
358	  0.091543086	-7.572000E+00	  0.091543086	1.051920E+02	  0.091543086	2.959300E+01	  0.091543086	2.894900E+01
359	  0.091743484	-7.602000E+00	  0.091743484	1.046180E+02	  0.091743484	2.985200E+01	  0.091743484	2.913500E+01
360	  0.091943890	-7.625000E+00	  0.091943890	1.040270E+02	  0.091943890	3.009600E+01	  0.091943890	2.934400E+01
361	  0.092144288	-7.663000E+00	  0.092144288	1.034770E+02	  0.092144288	3.037500E+01	  0.092144288	2.950000E+01
362	  0.092344686	-7.687000E+00	  0.092344686	1.029240E+02	  0.092344686	3.061700E+01	  0.092344686	2.968700E+01
363	  0.092545092	-7.721000E+00	  0.092545092	1.023790E+02	  0.092545092	3.088800E+01	  0.092545092	2.984600E+01
364	  0.092745490	-7.756000E+00	  0.092745490	1.018460E+02	  0.092745490	3.115700E+01	  0.092745490	2.999800E+01
365	  0.092945889	-7.785000E+00	  0.092945889	1.013250E+02	  0.092945889	3.140900E+01	  0.092945889	3.015700E+01
366	  0.093146294	-7.818000E+00	  0.093146294	1.007900E+02	  0.093146294	3.168100E+01	  0.093146294	3.030900E+01
367	  0.093346693	-7.851000E+00	  0.093346693	1.002490E+02	  0.093346693	3.195400E+01	  0.093346693	3.046400E+01
368	  0.093547091	-7.889000E+00	  0.093547091	9.974200E+01	  0.093547091	3.223100E+01	  0.093547091	3.059200E+01
369	  0.093747497	-7.918000E+00	  0.093747497	9.920800E+01	  0.093747497	3.249800E+01	  0.093747497	3.074700E+01
370	  0.093947895	-7.953000E+00	  0.093947895	9.871700E+01	  0.093947895	3.276500E+01	  0.093947895	3.087000E+01
371	  0.094148301	-7.989000E+00	  0.094148301	9.819200E+01	  0.094148301	3.305000E+01	  0.094148301	3.100400E+01
372	  0.094348699	-8.029000E+00	  0.094348699	9.768100E+01	  0.094348699	3.334200E+01	  0.094348699	3.112000E+01
373	  0.094549097	-8.054000E+00	  0.094549097	9.721300E+01	  0.094549097	3.358300E+01	  0.094549097	3.125100E+01
374	  0.094749503	-8.087000E+00	  0.094749503	9.673400E+01	  0.094749503	3.384700E+01	  0.094749503	3.136700E+01
375	  0.094949901	-8.118000E+00	  0.094949901	9.624600E+01	  0.094949901	3.411100E+01	  0.094949901	3.149100E+01
376	  0.095150299	-8.154000E+00	  0.095150299	9.576300E+01	  0.095150299	3.439100E+01	  0.095150299	3.159600E+01
377	  0.095350705	-8.187000E+00	  0.095350705	9.528300E+01	  0.095350705	3.466000E+01	  0.095350705	3.170800E+01
378	  0.095551103	-8.218000E+00	  0.095551103	9.480700E+01	  0.095551103	3.492700E+01	  0.095551103	3.181900E+01
379	  0.095751502	-8.252000E+00	  0.095751502	9.436700E+01	  0.095751502	3.518900E+01	  0.095751502	3.190500E+01
380	  0.095951907	-8.289000E+00	  0.095951907	9.394400E+01	  0.095951907	3.545200E+01	  0.095951907	3.197800E+01
381	  0.096152306	-8.322000E+00	  0.096152306	9.349400E+01	  0.096152306	3.571600E+01	  0.096152306	3.207000E+01
382	  0.096352704	-8.354000E+00	  0.096352704	9.304000E+01	  0.096352704	3.598000E+01	  0.096352704	3.216400E+01
383	  0.096553110	-8.385000E+00	  0.096553110	9.256600E+01	  0.096553110	3.625500E+01	  0.096553110	3.226300E+01
384	  0.096753508	-8.412000E+00	  0.096753508	9.216000E+01	  0.096753508	3.648900E+01	  0.096753508	3.234900E+01
385	  0.096953906	-8.447000E+00	  0.096953906	9.168400E+01	  0.096953906	3.677400E+01	  0.096953906	3.243700E+01
386	  0.097154312	-8.476000E+00	  0.097154312	9.125600E+01	  0.097154312	3.702900E+01	  0.097154312	3.251900E+01
387	  0.097354710	-8.496000E+00	  0.097354710	9.084300E+01	  0.097354710	3.725200E+01	  0.097354710	3.262200E+01
388	  0.097555116	-8.525000E+00	  0.097555116	9.040100E+01	  0.097555116	3.751300E+01	  0.097555116	3.270700E+01
389	  0.097755514	-8.556000E+00	  0.097755514	8.998900E+01	  0.097755514	3.776900E+01	  0.097755514	3.277300E+01
390	  0.097955912	-8.574000E+00	  0.097955912	8.958600E+01	  0.097955912	3.798700E+01	  0.097955912	3.287300E+01
391	  0.098156318	-8.596000E+00	  0.098156318	8.917900E+01	  0.098156318	3.821900E+01	  0.098156318	3.296100E+01
392	  0.098356716	-8.617000E+00	  0.098356716	8.880800E+01	  0.098356716	3.843300E+01	  0.098356716	3.303900E+01
393	  0.098557115	-8.635000E+00	  0.098557115	8.842700E+01	  0.098557115	3.864800E+01	  0.098557115	3.312400E+01
394	  0.098757520	-8.650000E+00	  0.098757520	8.800800E+01	  0.098757520	3.887100E+01	  0.098757520	3.323400E+01
395	  0.098957919	-8.665000E+00	  0.098957919	8.764300E+01	  0.098957919	3.907300E+01	  0.098957919	3.332200E+01
396	  0.099158317	-8.682000E+00	  0.099158317	8.730400E+01	  0.099158317	3.926800E+01	  0.099158317	3.339400E+01
397	  0.099358723	-8.702000E+00	  0.099358723	8.695700E+01	  0.099358723	3.947600E+01	  0.099358723	3.345700E+01
398	  0.099559121	-8.718000E+00	  0.099559121	8.661700E+01	  0.099559121	3.967000E+01	  0.099559121	3.353200E+01
399	  0.099759519	-8.731000E+00	  0.099759519	8.629700E+01	  0.099759519	3.984900E+01	  0.099759519	3.360700E+01
400	  0.099959925	-8.746000E+00	  0.099959925	8.596600E+01	  0.099959925	4.004100E+01	  0.099959925	3.367700E+01
401	  0.100160323	-8.752000E+00	  0.100160323	8.567000E+01	  0.100160323	4.019400E+01	  0.100160323	3.376300E+01
402	  0.100360721	-8.771000E+00	  0.100360721	8.534900E+01	  0.100360721	4.039100E+01	  0.100360721	3.381700E+01
403	  0.100561127	-8.776000E+00	  0.100561127	8.500300E+01	  0.100561127	4.056800E+01	  0.100561127	3.392300E+01
404	  0.100761525	-8.796000E+00	  0.100761525	8.462200E+01	  0.100761525	4.079800E+01	  0.100761525	3.399100E+01
405	  0.100961931	-8.798000E+00	  0.100961931	8.432300E+01	  0.100961931	4.094700E+01	  0.100961931	3.408900E+01
406	  0.101162329	-8.811000E+00	  0.101162329	8.402800E+01	  0.101162329	4.112200E+01	  0.101162329	3.414900E+01
407	  0.101362728	-8.825000E+00	  0.101362728	8.368700E+01	  0.101362728	4.132000E+01	  0.101362728	3.422200E+01
408	  0.101563133	-8.829000E+00	  0.101563133	8.334400E+01	  0.101563133	4.150100E+01	  0.101563133	3.432400E+01
409	  0.101763532	-8.837000E+00	  0.101763532	8.301700E+01	  0.101763532	4.168000E+01	  0.101763532	3.441100E+01
410	  0.101963930	-8.848000E+00	  0.101963930	8.260900E+01	  0.101963930	4.191100E+01	  0.101963930	3.451200E+01
411	  0.102164336	-8.850000E+00	  0.102164336	8.230600E+01	  0.102164336	4.206800E+01	  0.102164336	3.460900E+01
412	  0.102364734	-8.858000E+00	  0.102364734	8.185700E+01	  0.102364734	4.231500E+01	  0.102364734	3.473200E+01
413	  0.102565132	-8.862000E+00	  0.102565132	8.157100E+01	  0.102565132	4.247200E+01	  0.102565132	3.481200E+01
414	  0.102765530	-8.863000E+00	  0.102765530	8.119700E+01	  0.102765530	4.266900E+01	  0.102765530	3.493200E+01
415	  0.102965929	-8.861000E+00	  0.102965929	8.086000E+01	  0.102965929	4.284000E+01	  0.102965929	3.505000E+01
416	  0.103166327	-8.865000E+00	  0.103166327	8.047600E+01	  0.103166327	4.305100E+01	  0.103166327	3.516400E+01
417	  0.103366733	-8.861000E+00	  0.103366733	8.011500E+01	  0.103366733	4.323300E+01	  0.103366733	3.529800E+01
418	  0.103567131	-8.862000E+00	  0.103567131	7.964200E+01	  0.103567131	4.348900E+01	  0.103567131	3.544700E+01
419	  0.103767529	-8.853000E+00	  0.103767529	7.927000E+01	  0.103767529	4.367000E+01	  0.103767529	3.560100E+01
420	  0.103967935	-8.859000E+00	  0.103967935	7.880700E+01	  0.103967935	4.393500E+01	  0.103967935	3.572900E+01
421	  0.104168333	-8.843000E+00	  0.104168333	7.840800E+01	  0.104168333	4.412100E+01	  0.104168333	3.591500E+01
422	  0.104368731	-8.846000E+00	  0.104368731	7.795900E+01	  0.104368731	4.437600E+01	  0.104368731	3.605100E+01
423	  0.104569137	-8.834000E+00	  0.104569137	7.752800E+01	  0.104569137	4.459400E+01	  0.104569137	3.623100E+01
424	  0.104769535	-8.821000E+00	  0.104769535	7.703400E+01	  0.104769535	4.484700E+01	  0.104769535	3.643600E+01
425	  0.104969934	-8.812000E+00	  0.104969934	7.664000E+01	  0.104969934	4.505400E+01	  0.104969934	3.659400E+01
426	  0.105170339	-8.797000E+00	  0.105170339	7.611900E+01	  0.105170339	4.532400E+01	  0.105170339	3.681700E+01
427	  0.105370738	-8.777000E+00	  0.105370738	7.564200E+01	  0.105370738	4.556200E+01	  0.105370738	3.704400E+01
428	  0.105571143	-8.765000E+00	  0.105571143	7.521000E+01	  0.105571143	4.579300E+01	  0.105571143	3.722700E+01
429	  0.105771542	-8.751000E+00	  0.105771542	7.469800E+01	  0.105771542	4.607100E+01	  0.105771542	3.744100E+01
430	  0.105971940	-8.739000E+00	  0.105971940	7.418400E+01	  0.105971940	4.635700E+01	  0.105971940	3.764800E+01
431	  0.106172346	-8.717000E+00	  0.106172346	7.369100E+01	  0.106172346	4.661400E+01	  0.106172346	3.788900E+01
432	  0.106372744	-8.706000E+00	  0.106372744	7.327000E+01	  0.106372744	4.685400E+01	  0.106372744	3.806100E+01
433	  0.106573142	-8.685000E+00	  0.106573142	7.272800E+01	  0.106573142	4.715000E+01	  0.106573142	3.831500E+01
434	  0.106773548	-8.672000E+00	  0.106773548	7.229800E+01	  0.106773548	4.739800E+01	  0.106773548	3.849900E+01
435	  0.106973946	-8.653000E+00	  0.106973946	7.181500E+01	  0.106973946	4.767000E+01	  0.106973946	3.872400E+01
436	  0.107174344	-8.633000E+00	  0.107174344	7.123600E+01	  0.107174344	4.800500E+01	  0.107174344	3.898700E+01
437	  0.107374750	-8.625000E+00	  0.107374750	7.072300E+01	  0.107374750	4.832500E+01	  0.107374750	3.917500E+01
438	  0.107575148	-8.601000E+00	  0.107575148	7.023300E+01	  0.107575148	4.860600E+01	  0.107575148	3.942100E+01
439	  0.107775547	-8.588000E+00	  0.107775547	6.970300E+01	  0.107775547	4.893600E+01	  0.107775547	3.963800E+01
440	  0.107975952	-8.571000E+00	  0.107975952	6.916200E+01	  0.107975952	4.927300E+01	  0.107975952	3.987000E+01
441	  0.108176351	-8.565000E+00	  0.108176351	6.863900E+01	  0.108176351	4.962100E+01	  0.108176351	4.005100E+01
442	  0.108376749	-8.557000E+00	  0.108376749	6.814300E+01	  0.108376749	4.995200E+01	  0.108376749	4.022900E+01
443	  0.108577155	-8.541000E+00	  0.108577155	6.756000E+01	  0.108577155	5.033400E+01	  0.108577155	4.046700E+01
444	  0.108777553	-8.538000E+00	  0.108777553	6.703100E+01	  0.108777553	5.070700E+01	  0.108777553	4.062900E+01
445	  0.108977959	-8.527000E+00	  0.108977959	6.646600E+01	  0.108977959	5.109700E+01	  0.108977959	4.083200E+01
446	  0.109178357	-8.519000E+00	  0.109178357	6.590300E+01	  0.109178357	5.149500E+01	  0.109178357	4.102400E+01
447	  0.109378755	-8.514000E+00	  0.109378755	6.531800E+01	  0.109378755	5.192000E+01	  0.109378755	4.120500E+01
448	  0.109579161	-8.505000E+00	  0.109579161	6.478300E+01	  0.109579161	5.230700E+01	  0.109579161	4.138900E+01
449	  0.109779559	-8.501000E+00	  0.109779559	6.420700E+01	  0.109779559	5.273800E+01	  0.109779559	4.155600E+01
450	  0.109979957	-8.497000E+00	  0.109979957	6.362000E+01	  0.109979957	5.318400E+01	  0.109979957	4.172100E+01
451	  0.110180363	-8.495000E+00	  0.110180363	6.299400E+01	  0.110180363	5.366800E+01	  0.110180363	4.188400E+01
452	  0.110380761	-8.488000E+00	  0.110380761	6.239700E+01	  0.110380761	5.413000E+01	  0.110380761	4.206000E+01
453	  0.110581160	-8.481000E+00	  0.110581160	6.175500E+01	  0.110581160	5.463200E+01	  0.110581160	4.224500E+01
454	  0.110781565	-8.476000E+00	  0.110781565	6.110900E+01	  0.110781565	5.514800E+01	  0.110781565	4.241800E+01
455	  0.110981964	-8.464000E+00	  0.110981964	6.045000E+01	  0.110981964	5.567400E+01	  0.110981964	4.262300E+01
456	  0.111182362	-8.466000E+00	  0.111182362	5.985200E+01	  0.111182362	5.617500E+01	  0.111182362	4.273600E+01
457	  0.111382768	-8.454000E+00	  0.111382768	5.916200E+01	  0.111382768	5.674100E+01	  0.111382768	4.294100E+01
458	  0.111583166	-8.455000E+00	  0.111583166	5.850500E+01	  0.111583166	5.730400E+01	  0.111583166	4.306500E+01
459	  0.111783572	-8.444000E+00	  0.111783572	5.781500E+01	  0.111783572	5.789000E+01	  0.111783572	4.325400E+01
460	  0.111983970	-8.435000E+00	  0.111983970	5.712700E+01	  0.111983970	5.848500E+01	  0.111983970	4.342400E+01
461	  0.112184368	-8.425000E+00	  0.112184368	5.639100E+01	  0.112184368	5.913200E+01	  0.112184368	4.360400E+01
462	  0.112384774	-8.423000E+00	  0.112384774	5.567900E+01	  0.112384774	5.977500E+01	  0.112384774	4.372500E+01
463	  0.112585172	-8.419000E+00	  0.112585172	5.496600E+01	  0.112585172	6.042600E+01	  0.112585172	4.384800E+01
464	  0.112785570	-8.409000E+00	  0.112785570	5.423100E+01	  0.112785570	6.110300E+01	  0.112785570	4.400100E+01
465	  0.112985976	-8.405000E+00	  0.112985976	5.345500E+01	  0.112985976	6.183400E+01	  0.112985976	4.411900E+01
466	  0.113186374	-8.396000E+00	  0.113186374	5.275200E+01	  0.113186374	6.250200E+01	  0.113186374	4.424500E+01
467	  0.113386773	-8.394000E+00	  0.113386773	5.198500E+01	  0.113386773	6.324600E+01	  0.113386773	4.433000E+01
468	  0.113587178	-8.393000E+00	  0.113587178	5.117300E+01	  0.113587178	6.404600E+01	  0.113587178	4.439500E+01
469	  0.113787577	-8.384000E+00	  0.113787577	5.041300E+01	  0.113787577	6.480300E+01	  0.113787577	4.449300E+01
470	  0.113987975	-8.382000E+00	  0.113987975	4.959100E+01	  0.113987975	6.563500E+01	  0.113987975	4.454000E+01
471	  0.114188381	-8.385000E+00	  0.114188381	4.882400E+01	  0.114188381	6.642300E+01	  0.114188381	4.453900E+01
472	  0.114388779	-8.383000E+00	  0.114388779	4.799500E+01	  0.114388779	6.728500E+01	  0.114388779	4.455200E+01
473	  0.114589177	-8.382000E+00	  0.114589177	4.722300E+01	  0.114589177	6.809800E+01	  0.114589177	4.455100E+01
474	  0.114789583	-8.386000E+00	  0.114789583	4.637500E+01	  0.114789583	6.899900E+01	  0.114789583	4.448800E+01
475	  0.114989981	-8.388000E+00	  0.114989981	4.552300E+01	  0.114989981	6.991700E+01	  0.114989981	4.442300E+01
476	  0.115190387	-8.401000E+00	  0.115190387	4.465700E+01	  0.115190387	7.085400E+01	  0.115190387	4.425700E+01
477	  0.115390785	-8.410000E+00	  0.115390785	4.377100E+01	  0.115390785	7.182100E+01	  0.115390785	4.408800E+01
478	  0.115591183	-8.421000E+00	  0.115591183	4.290300E+01	  0.115591183	7.277500E+01	  0.115591183	4.388700E+01
479	  0.115791589	-8.430000E+00	  0.115791589	4.203000E+01	  0.115791589	7.374300E+01	  0.115791589	4.368200E+01
480	  0.115991987	-8.448000E+00	  0.115991987	4.116800E+01	  0.115991987	7.469100E+01	  0.115991987	4.337800E+01
481	  0.116192386	-8.464000E+00	  0.116192386	4.023500E+01	  0.116192386	7.572700E+01	  0.116192386	4.305000E+01
482	  0.116392791	-8.481000E+00	  0.116392791	3.929700E+01	  0.116392791	7.676700E+01	  0.116392791	4.267800E+01
483	  0.116593190	-8.502000E+00	  0.116593190	3.837700E+01	  0.116593190	7.778100E+01	  0.116593190	4.225400E+01
484	  0.116793588	-8.525000E+00	  0.116793588	3.737600E+01	  0.116793588	7.888000E+01	  0.116793588	4.174800E+01
485	  0.116993994	-8.550000E+00	  0.116993994	3.642600E+01	  0.116993994	7.991400E+01	  0.116993994	4.121600E+01
486	  0.117194392	-8.578000E+00	  0.117194392	3.545300E+01	  0.117194392	8.095800E+01	  0.117194392	4.061400E+01
487	  0.117394790	-8.613000E+00	  0.117394790	3.443500E+01	  0.117394790	8.202100E+01	  0.117394790	3.989900E+01
488	  0.117595196	-8.643000E+00	  0.117595196	3.343500E+01	  0.117595196	8.306600E+01	  0.117595196	3.919500E+01
489	  0.117795594	-8.676000E+00	  0.117795594	3.241300E+01	  0.117795594	8.410900E+01	  0.117795594	3.841600E+01
490	  0.117995992	-8.710000E+00	  0.117995992	3.136100E+01	  0.117995992	8.516700E+01	  0.117995992	3.757900E+01
491	  0.118196398	-8.760000E+00	  0.118196398	3.030900E+01	  0.118196398	8.613200E+01	  0.118196398	3.657300E+01
492	  0.118396796	-8.802000E+00	  0.118396796	2.921300E+01	  0.118396796	8.714900E+01	  0.118396796	3.556300E+01
493	  0.118597202	-8.852000E+00	  0.118597202	2.810200E+01	  0.118597202	8.811100E+01	  0.118597202	3.444300E+01
494	  0.118797600	-8.900000E+00	  0.118797600	2.697800E+01	  0.118797600	8.905800E+01	  0.118797600	3.328900E+01
495	  0.118997999	-8.954000E+00	  0.118997999	2.586500E+01	  0.118997999	8.991400E+01	  0.118997999	3.205900E+01
496	  0.119198404	-9.015000E+00	  0.119198404	2.475000E+01	  0.119198404	9.069300E+01	  0.119198404	3.075600E+01
497	  0.119398803	-9.075000E+00	  0.119398803	2.354100E+01	  0.119398803	9.151000E+01	  0.119398803	2.934400E+01
498	  0.119599201	-9.142000E+00	  0.119599201	2.238700E+01	  0.119599201	9.217500E+01	  0.119599201	2.790700E+01
499	  0.119799607	-9.212000E+00	  0.119799607	2.113300E+01	  0.119799607	9.284100E+01	  0.119799607	2.633500E+01
500	  0.120000005	-9.284000E+00	  0.120000005	1.987700E+01	  0.120000005	9.342800E+01	  0.120000005	2.473200E+01
