! Anritsu VNA Master:             	Model: MS2036C/10/77
! SN:             	1601066
! /bd0/18may8/255.ns.m3.txt
! Existing Calibration Information:
! TYPE:             	Current Settings	Active Cal Settings
! TIME:             	05/08/2018 11:05:56 AM	05/08/2018 10:55:57 AM
! INTERNAL TEMP:    	50.8 C	49.3 C
! # POINTS:         	500	500
! START FREQ:       	20.000 MHz	20.000 MHz
! STOP FREQ:        	120.000 MHz	120.000 MHz
! SOURCE POWER:     	High	High
! IFBW:             	50 Hz	50 Hz
! AVG FACTOR:       	  1 	  1 
! REF PLANE 1:      	0 mm	0 mm
! REF PLANE 2:      	0 mm	0 mm
! CAL TYPE:         	Full S11	Full S11
! CAL METHOD:       	SOLT	SOLT
! CAL LINE TYPE:    	Coax	Coax
! DUT PORT 1:       	K-Conn(F)	K-Conn(F)
! DUT PORT 2:       	K-Conn(F)	K-Conn(F)
! CAL STATUS:       	OK: Accuracy High	--
! PROP-V:       	0.700
! CABLE LOSS:       	0.000 dB/m
! REF IMPEDANCE:       	50.0
! Trace Specific Parameters:	TR1	TR2	TR3	TR4
! TRACE.#.Y (GRAPH TYPE)	LOG MAG	PHASE	REAL IMPEDANCE	IMAGINARY IMPEDANCE
! TRACE.#.X 	FREQ.GHZ	FREQ.GHZ	FREQ.GHZ	FREQ.GHZ
! S-PARAMETER	S11	S11	S11	S11
! SMOOTH/APERTURE %	0	0	0	0
! WINDOW	NSL	NSL	NSL	NSL
! GATING	OFF	OFF	OFF	OFF
! FGTD	OFF	OFF	OFF	OFF
Marker Information per Trace:	TR1	TR2	TR3	TR4
!MK1	--	"MK1 TR2:  20.000 MHz,PH:-124.13°"	--	--
!MK2	--	--	"MK2 TR3:  70.100 200 MHz,Z:(17.512 ohm, -3.454 ohm)"	--
!MK3	--	--	--	--
!MK4	--	--	--	--
!MK5	--	--	--	--
!MK6	--	--	--	--
!MK7	--	--	--	--
!MK8	--	--	--	--
PNT	TR1.FREQ.GHZ	TR1.LOG MAG.dB	TR2.FREQ.GHZ	TR2.PHASE.deg	TR3.FREQ.GHZ	TR3.REAL IMPEDANCE.ohm	TR4.FREQ.GHZ	TR4.IMAGINARY IMPEDANCE.ohm
1	  0.020000000	-6.640000E-01	  0.020000000	-1.241340E+02	  0.020000000	2.446000E+00	  0.020000000	-2.646000E+01
2	  0.020200402	-6.660000E-01	  0.020200402	-1.255620E+02	  0.020200402	2.423000E+00	  0.020200402	-2.566900E+01
3	  0.020400802	-6.720000E-01	  0.020400802	-1.270000E+02	  0.020400802	2.414000E+00	  0.020400802	-2.488200E+01
4	  0.020601204	-6.790000E-01	  0.020601204	-1.284450E+02	  0.020601204	2.410000E+00	  0.020601204	-2.410000E+01
5	  0.020801604	-6.870000E-01	  0.020801604	-1.299380E+02	  0.020801604	2.409000E+00	  0.020801604	-2.330300E+01
6	  0.021002004	-6.970000E-01	  0.021002004	-1.314480E+02	  0.021002004	2.414000E+00	  0.021002004	-2.250600E+01
7	  0.021202406	-7.090000E-01	  0.021202406	-1.329810E+02	  0.021202406	2.425000E+00	  0.021202406	-2.170700E+01
8	  0.021402806	-7.170000E-01	  0.021402806	-1.345140E+02	  0.021402806	2.426000E+00	  0.021402806	-2.091700E+01
9	  0.021603208	-7.220000E-01	  0.021603208	-1.360340E+02	  0.021603208	2.417000E+00	  0.021603208	-2.014300E+01
10	  0.021803608	-7.290000E-01	  0.021803608	-1.375730E+02	  0.021803608	2.412000E+00	  0.021803608	-1.936700E+01
11	  0.022004008	-7.310000E-01	  0.022004008	-1.391110E+02	  0.022004008	2.397000E+00	  0.022004008	-1.860100E+01
12	  0.022204408	-7.340000E-01	  0.022204408	-1.406840E+02	  0.022204408	2.383000E+00	  0.022204408	-1.782500E+01
13	  0.022404809	-7.370000E-01	  0.022404809	-1.422600E+02	  0.022404809	2.369000E+00	  0.022404809	-1.705500E+01
14	  0.022605211	-7.440000E-01	  0.022605211	-1.438400E+02	  0.022605211	2.370000E+00	  0.022605211	-1.628900E+01
15	  0.022805611	-7.450000E-01	  0.022805611	-1.454430E+02	  0.022805611	2.350000E+00	  0.022805611	-1.552100E+01
16	  0.023006011	-7.410000E-01	  0.023006011	-1.470370E+02	  0.023006011	2.318000E+00	  0.023006011	-1.476300E+01
17	  0.023206413	-7.360000E-01	  0.023206413	-1.486090E+02	  0.023206413	2.285000E+00	  0.023206413	-1.402200E+01
18	  0.023406813	-7.320000E-01	  0.023406813	-1.501880E+02	  0.023406813	2.255000E+00	  0.023406813	-1.328400E+01
19	  0.023607215	-7.340000E-01	  0.023607215	-1.517570E+02	  0.023607215	2.246000E+00	  0.023607215	-1.255500E+01
20	  0.023807615	-7.350000E-01	  0.023807615	-1.533430E+02	  0.023807615	2.235000E+00	  0.023807615	-1.182200E+01
21	  0.024008015	-7.370000E-01	  0.024008015	-1.549480E+02	  0.024008015	2.225000E+00	  0.024008015	-1.108700E+01
22	  0.024208417	-7.390000E-01	  0.024208417	-1.565610E+02	  0.024208417	2.218000E+00	  0.024208417	-1.035200E+01
23	  0.024408817	-7.410000E-01	  0.024408817	-1.581750E+02	  0.024408817	2.213000E+00	  0.024408817	-9.621000E+00
24	  0.024609219	-7.420000E-01	  0.024609219	-1.598000E+02	  0.024609219	2.203000E+00	  0.024609219	-8.889000E+00
25	  0.024809619	-7.460000E-01	  0.024809619	-1.614100E+02	  0.024809619	2.204000E+00	  0.024809619	-8.167000E+00
26	  0.025010020	-7.510000E-01	  0.025010020	-1.630250E+02	  0.025010020	2.209000E+00	  0.025010020	-7.446000E+00
27	  0.025210422	-7.570000E-01	  0.025210422	-1.646530E+02	  0.025210422	2.217000E+00	  0.025210422	-6.723000E+00
28	  0.025410822	-7.660000E-01	  0.025410822	-1.662980E+02	  0.025410822	2.235000E+00	  0.025410822	-5.995000E+00
29	  0.025611224	-7.730000E-01	  0.025611224	-1.679620E+02	  0.025611224	2.250000E+00	  0.025611224	-5.261000E+00
30	  0.025811624	-7.820000E-01	  0.025811624	-1.696450E+02	  0.025811624	2.270000E+00	  0.025811624	-4.520000E+00
31	  0.026012026	-7.920000E-01	  0.026012026	-1.713490E+02	  0.026012026	2.292000E+00	  0.026012026	-3.773000E+00
32	  0.026212426	-7.990000E-01	  0.026212426	-1.730460E+02	  0.026212426	2.308000E+00	  0.026212426	-3.031000E+00
33	  0.026412826	-8.120000E-01	  0.026412826	-1.747510E+02	  0.026412826	2.341000E+00	  0.026412826	-2.286000E+00
34	  0.026613226	-8.270000E-01	  0.026613226	-1.764720E+02	  0.026613226	2.382000E+00	  0.026613226	-1.536000E+00
35	  0.026813626	-8.430000E-01	  0.026813626	-1.782090E+02	  0.026813626	2.425000E+00	  0.026813626	-7.790000E-01
36	  0.027014028	-8.610000E-01	  0.027014028	-1.799560E+02	  0.027014028	2.478000E+00	  0.027014028	-1.800000E-02
37	  0.027214428	-8.800000E-01	  0.027214428	1.782760E+02	  0.027214428	2.531000E+00	  0.027214428	7.500000E-01
38	  0.027414829	-8.990000E-01	  0.027414829	1.764950E+02	  0.027414829	2.589000E+00	  0.027414829	1.525000E+00
39	  0.027615231	-9.180000E-01	  0.027615231	1.747110E+02	  0.027615231	2.647000E+00	  0.027615231	2.302000E+00
40	  0.027815631	-9.440000E-01	  0.027815631	1.729160E+02	  0.027815631	2.725000E+00	  0.027815631	3.085000E+00
41	  0.028016033	-9.680000E-01	  0.028016033	1.710880E+02	  0.028016033	2.801000E+00	  0.028016033	3.884000E+00
42	  0.028216433	-9.930000E-01	  0.028216433	1.692560E+02	  0.028216433	2.880000E+00	  0.028216433	4.685000E+00
43	  0.028416833	-1.019000E+00	  0.028416833	1.674230E+02	  0.028416833	2.967000E+00	  0.028416833	5.490000E+00
44	  0.028617235	-1.046000E+00	  0.028617235	1.655860E+02	  0.028617235	3.056000E+00	  0.028617235	6.299000E+00
45	  0.028817635	-1.068000E+00	  0.028817635	1.637390E+02	  0.028817635	3.134000E+00	  0.028817635	7.115000E+00
46	  0.029018037	-1.092000E+00	  0.029018037	1.619130E+02	  0.029018037	3.219000E+00	  0.029018037	7.925000E+00
47	  0.029218437	-1.117000E+00	  0.029218437	1.600860E+02	  0.029218437	3.311000E+00	  0.029218437	8.740000E+00
48	  0.029418837	-1.143000E+00	  0.029418837	1.582540E+02	  0.029418837	3.407000E+00	  0.029418837	9.560000E+00
49	  0.029619239	-1.171000E+00	  0.029619239	1.564110E+02	  0.029619239	3.511000E+00	  0.029619239	1.039000E+01
50	  0.029819639	-1.201000E+00	  0.029819639	1.545410E+02	  0.029819639	3.629000E+00	  0.029819639	1.123800E+01
51	  0.030020041	-1.233000E+00	  0.030020041	1.526520E+02	  0.030020041	3.751000E+00	  0.030020041	1.209900E+01
52	  0.030220442	-1.262000E+00	  0.030220442	1.507450E+02	  0.030220442	3.872000E+00	  0.030220442	1.297600E+01
53	  0.030420844	-1.289000E+00	  0.030420844	1.488430E+02	  0.030420844	3.992000E+00	  0.030420844	1.385700E+01
54	  0.030621244	-1.318000E+00	  0.030621244	1.469360E+02	  0.030621244	4.120000E+00	  0.030621244	1.474800E+01
55	  0.030821644	-1.348000E+00	  0.030821644	1.450550E+02	  0.030821644	4.255000E+00	  0.030821644	1.563400E+01
56	  0.031022044	-1.380000E+00	  0.031022044	1.431410E+02	  0.031022044	4.403000E+00	  0.031022044	1.654400E+01
57	  0.031222444	-1.409000E+00	  0.031222444	1.412370E+02	  0.031222444	4.543000E+00	  0.031222444	1.746000E+01
58	  0.031422846	-1.441000E+00	  0.031422846	1.392790E+02	  0.031422846	4.704000E+00	  0.031422846	1.841000E+01
59	  0.031623244	-1.473000E+00	  0.031623244	1.373130E+02	  0.031623244	4.872000E+00	  0.031623244	1.937600E+01
60	  0.031823646	-1.504000E+00	  0.031823646	1.353310E+02	  0.031823646	5.041000E+00	  0.031823646	2.036200E+01
61	  0.032024048	-1.532000E+00	  0.032024048	1.333610E+02	  0.032024048	5.210000E+00	  0.032024048	2.135500E+01
62	  0.032224450	-1.560000E+00	  0.032224450	1.313970E+02	  0.032224450	5.384000E+00	  0.032224450	2.235900E+01
63	  0.032424849	-1.586000E+00	  0.032424849	1.294310E+02	  0.032424849	5.560000E+00	  0.032424849	2.337800E+01
64	  0.032625251	-1.617000E+00	  0.032625251	1.274450E+02	  0.032625251	5.763000E+00	  0.032625251	2.442200E+01
65	  0.032825653	-1.648000E+00	  0.032825653	1.254880E+02	  0.032825653	5.971000E+00	  0.032825653	2.546600E+01
66	  0.033026051	-1.681000E+00	  0.033026051	1.235470E+02	  0.033026051	6.199000E+00	  0.033026051	2.651800E+01
67	  0.033226453	-1.724000E+00	  0.033226453	1.215750E+02	  0.033226453	6.472000E+00	  0.033226453	2.760000E+01
68	  0.033426855	-1.763000E+00	  0.033426855	1.195720E+02	  0.033426855	6.748000E+00	  0.033426855	2.871900E+01
69	  0.033627257	-1.810000E+00	  0.033627257	1.175880E+02	  0.033627257	7.070000E+00	  0.033627257	2.984300E+01
70	  0.033827655	-1.861000E+00	  0.033827655	1.155630E+02	  0.033827655	7.424000E+00	  0.033827655	3.100900E+01
71	  0.034028057	-1.908000E+00	  0.034028057	1.134840E+02	  0.034028057	7.784000E+00	  0.034028057	3.223200E+01
72	  0.034228459	-1.955000E+00	  0.034228459	1.114030E+02	  0.034228459	8.163000E+00	  0.034228459	3.348100E+01
73	  0.034428857	-2.004000E+00	  0.034428857	1.092700E+02	  0.034428857	8.578000E+00	  0.034428857	3.478700E+01
74	  0.034629259	-2.048000E+00	  0.034629259	1.071530E+02	  0.034629259	8.995000E+00	  0.034629259	3.611500E+01
75	  0.034829661	-2.093000E+00	  0.034829661	1.050250E+02	  0.034829661	9.443000E+00	  0.034829661	3.748000E+01
76	  0.035030060	-2.139000E+00	  0.035030060	1.029260E+02	  0.035030060	9.921000E+00	  0.035030060	3.885500E+01
77	  0.035230462	-2.185000E+00	  0.035230462	1.008070E+02	  0.035230462	1.042500E+01	  0.035230462	4.027800E+01
78	  0.035430863	-2.228000E+00	  0.035430863	9.872500E+01	  0.035430863	1.094400E+01	  0.035430863	4.171300E+01
79	  0.035631265	-2.273000E+00	  0.035631265	9.665700E+01	  0.035631265	1.150800E+01	  0.035631265	4.317000E+01
80	  0.035831664	-2.321000E+00	  0.035831664	9.459300E+01	  0.035831664	1.211700E+01	  0.035831664	4.465800E+01
81	  0.036032066	-2.368000E+00	  0.036032066	9.255800E+01	  0.036032066	1.275500E+01	  0.036032066	4.616300E+01
82	  0.036232468	-2.423000E+00	  0.036232468	9.052400E+01	  0.036232468	1.348300E+01	  0.036232468	4.769200E+01
83	  0.036432866	-2.477000E+00	  0.036432866	8.850500E+01	  0.036432866	1.424400E+01	  0.036432866	4.924900E+01
84	  0.036633268	-2.536000E+00	  0.036633268	8.648900E+01	  0.036633268	1.508400E+01	  0.036633268	5.083600E+01
85	  0.036833670	-2.600000E+00	  0.036833670	8.449000E+01	  0.036833670	1.600900E+01	  0.036833670	5.243500E+01
86	  0.037034072	-2.664000E+00	  0.037034072	8.247200E+01	  0.037034072	1.699800E+01	  0.037034072	5.409000E+01
87	  0.037234470	-2.732000E+00	  0.037234470	8.040100E+01	  0.037234470	1.810600E+01	  0.037234470	5.582200E+01
88	  0.037434869	-2.801000E+00	  0.037434869	7.833500E+01	  0.037434869	1.929400E+01	  0.037434869	5.759000E+01
89	  0.037635271	-2.868000E+00	  0.037635271	7.626000E+01	  0.037635271	2.056900E+01	  0.037635271	5.940900E+01
90	  0.037835669	-2.939000E+00	  0.037835669	7.414100E+01	  0.037835669	2.198400E+01	  0.037835669	6.130400E+01
91	  0.038036071	-3.006000E+00	  0.038036071	7.202200E+01	  0.038036071	2.347800E+01	  0.038036071	6.325600E+01
92	  0.038236473	-3.069000E+00	  0.038236473	6.988400E+01	  0.038236473	2.507900E+01	  0.038236473	6.528400E+01
93	  0.038436871	-3.131000E+00	  0.038436871	6.774900E+01	  0.038436871	2.681000E+01	  0.038436871	6.735600E+01
94	  0.038637273	-3.188000E+00	  0.038637273	6.561200E+01	  0.038637273	2.864400E+01	  0.038637273	6.950100E+01
95	  0.038837675	-3.239000E+00	  0.038837675	6.349900E+01	  0.038837675	3.057600E+01	  0.038837675	7.169100E+01
96	  0.039038073	-3.287000E+00	  0.039038073	6.138800E+01	  0.039038073	3.264600E+01	  0.039038073	7.394300E+01
97	  0.039238475	-3.336000E+00	  0.039238475	5.931900E+01	  0.039238475	3.487100E+01	  0.039238475	7.618300E+01
98	  0.039438877	-3.390000E+00	  0.039438877	5.728300E+01	  0.039438877	3.729700E+01	  0.039438877	7.838500E+01
99	  0.039639279	-3.442000E+00	  0.039639279	5.525300E+01	  0.039639279	3.991400E+01	  0.039639279	8.061200E+01
100	  0.039839678	-3.499000E+00	  0.039839678	5.317500E+01	  0.039839678	4.285300E+01	  0.039839678	8.288100E+01
101	  0.040040080	-3.557000E+00	  0.040040080	5.110700E+01	  0.040040080	4.605300E+01	  0.040040080	8.512000E+01
102	  0.040240481	-3.615000E+00	  0.040240481	4.901500E+01	  0.040240481	4.958000E+01	  0.040240481	8.736000E+01
103	  0.040440880	-3.677000E+00	  0.040440880	4.693300E+01	  0.040440880	5.343100E+01	  0.040440880	8.950300E+01
104	  0.040641282	-3.735000E+00	  0.040641282	4.483500E+01	  0.040641282	5.761900E+01	  0.040641282	9.162600E+01
105	  0.040841684	-3.787000E+00	  0.040841684	4.273300E+01	  0.040841684	6.214600E+01	  0.040841684	9.370600E+01
106	  0.041042086	-3.841000E+00	  0.041042086	4.066800E+01	  0.041042086	6.700300E+01	  0.041042086	9.557400E+01
107	  0.041242484	-3.894000E+00	  0.041242484	3.857200E+01	  0.041242484	7.233600E+01	  0.041242484	9.731100E+01
108	  0.041442886	-3.944000E+00	  0.041442886	3.648800E+01	  0.041442886	7.807800E+01	  0.041442886	9.879800E+01
109	  0.041643288	-3.994000E+00	  0.041643288	3.440000E+01	  0.041643288	8.429300E+01	  0.041643288	9.998700E+01
110	  0.041843686	-4.045000E+00	  0.041843686	3.233600E+01	  0.041843686	9.090900E+01	  0.041843686	1.007330E+02
111	  0.042044088	-4.088000E+00	  0.042044088	3.029500E+01	  0.042044088	9.788700E+01	  0.042044088	1.011280E+02
112	  0.042244490	-4.134000E+00	  0.042244490	2.827300E+01	  0.042244490	1.052580E+02	  0.042244490	1.008830E+02
113	  0.042444889	-4.182000E+00	  0.042444889	2.629400E+01	  0.042444889	1.128640E+02	  0.042444889	9.993300E+01
114	  0.042645290	-4.231000E+00	  0.042645290	2.429900E+01	  0.042645290	1.208520E+02	  0.042645290	9.815200E+01
115	  0.042845692	-4.281000E+00	  0.042845692	2.234000E+01	  0.042845692	1.289130E+02	  0.042845692	9.550200E+01
116	  0.043046094	-4.327000E+00	  0.043046094	2.039200E+01	  0.043046094	1.370520E+02	  0.043046094	9.199000E+01
117	  0.043246493	-4.377000E+00	  0.043246493	1.842700E+01	  0.043246493	1.452050E+02	  0.043246493	8.733500E+01
118	  0.043446895	-4.428000E+00	  0.043446895	1.650600E+01	  0.043446895	1.529190E+02	  0.043446895	8.164300E+01
119	  0.043647297	-4.477000E+00	  0.043647297	1.457700E+01	  0.043647297	1.602710E+02	  0.043647297	7.488200E+01
120	  0.043847695	-4.531000E+00	  0.043847695	1.265800E+01	  0.043847695	1.668690E+02	  0.043847695	6.700900E+01
121	  0.044048097	-4.585000E+00	  0.044048097	1.074400E+01	  0.044048097	1.725790E+02	  0.044048097	5.820000E+01
122	  0.044248499	-4.643000E+00	  0.044248499	8.859000E+00	  0.044248499	1.770610E+02	  0.044248499	4.865800E+01
123	  0.044448901	-4.696000E+00	  0.044448901	6.957000E+00	  0.044448901	1.805680E+02	  0.044448901	3.854900E+01
124	  0.044649299	-4.747000E+00	  0.044649299	5.062000E+00	  0.044649299	1.828190E+02	  0.044649299	2.809300E+01
125	  0.044849701	-4.800000E+00	  0.044849701	3.172000E+00	  0.044849701	1.837040E+02	  0.044849701	1.749100E+01
126	  0.045050103	-4.850000E+00	  0.045050103	1.280000E+00	  0.045050103	1.834100E+02	  0.045050103	6.973000E+00
127	  0.045250501	-4.900000E+00	  0.045250501	-6.140000E-01	  0.045250501	1.818670E+02	  0.045250501	-3.280000E+00
128	  0.045450903	-4.947000E+00	  0.045450903	-2.490000E+00	  0.045450903	1.792720E+02	  0.045450903	-1.296400E+01
129	  0.045651305	-4.993000E+00	  0.045651305	-4.363000E+00	  0.045651305	1.757200E+02	  0.045651305	-2.202200E+01
130	  0.045851704	-5.039000E+00	  0.045851704	-6.225000E+00	  0.045851704	1.713190E+02	  0.045851704	-3.029300E+01
131	  0.046052106	-5.088000E+00	  0.046052106	-8.087000E+00	  0.046052106	1.661940E+02	  0.046052106	-3.771700E+01
132	  0.046252504	-5.132000E+00	  0.046252504	-9.928000E+00	  0.046252504	1.607250E+02	  0.046252504	-4.427000E+01
133	  0.046452906	-5.178000E+00	  0.046452906	-1.179700E+01	  0.046452906	1.547940E+02	  0.046452906	-5.005800E+01
134	  0.046653304	-5.219000E+00	  0.046653304	-1.366300E+01	  0.046653304	1.487720E+02	  0.046653304	-5.510900E+01
135	  0.046853706	-5.258000E+00	  0.046853706	-1.552500E+01	  0.046853706	1.426430E+02	  0.046853706	-5.937200E+01
136	  0.047054108	-5.295000E+00	  0.047054108	-1.737300E+01	  0.047054108	1.365670E+02	  0.047054108	-6.291500E+01
137	  0.047254506	-5.329000E+00	  0.047254506	-1.923100E+01	  0.047254506	1.305450E+02	  0.047254506	-6.586200E+01
138	  0.047454908	-5.360000E+00	  0.047454908	-2.107700E+01	  0.047454908	1.246980E+02	  0.047454908	-6.824400E+01
139	  0.047655310	-5.388000E+00	  0.047655310	-2.288400E+01	  0.047655310	1.191310E+02	  0.047655310	-7.008700E+01
140	  0.047855709	-5.415000E+00	  0.047855709	-2.469200E+01	  0.047855709	1.137420E+02	  0.047855709	-7.148900E+01
141	  0.048056111	-5.440000E+00	  0.048056111	-2.648200E+01	  0.048056111	1.086050E+02	  0.048056111	-7.247900E+01
142	  0.048256513	-5.466000E+00	  0.048256513	-2.828300E+01	  0.048256513	1.036450E+02	  0.048256513	-7.311400E+01
143	  0.048456915	-5.489000E+00	  0.048456915	-3.005100E+01	  0.048456915	9.899700E+01	  0.048456915	-7.345000E+01
144	  0.048657313	-5.512000E+00	  0.048657313	-3.182900E+01	  0.048657313	9.454600E+01	  0.048657313	-7.352800E+01
145	  0.048857715	-5.531000E+00	  0.048857715	-3.361100E+01	  0.048857715	9.030700E+01	  0.048857715	-7.343700E+01
146	  0.049058117	-5.549000E+00	  0.049058117	-3.536900E+01	  0.049058117	8.633700E+01	  0.049058117	-7.314100E+01
147	  0.049258515	-5.566000E+00	  0.049258515	-3.710100E+01	  0.049258515	8.262600E+01	  0.049258515	-7.268700E+01
148	  0.049458917	-5.583000E+00	  0.049458917	-3.880800E+01	  0.049458917	7.916000E+01	  0.049458917	-7.210400E+01
149	  0.049659319	-5.602000E+00	  0.049659319	-4.054000E+01	  0.049659319	7.583300E+01	  0.049659319	-7.136300E+01
150	  0.049859721	-5.618000E+00	  0.049859721	-4.221600E+01	  0.049859721	7.278400E+01	  0.049859721	-7.058200E+01
151	  0.050060119	-5.638000E+00	  0.050060119	-4.390500E+01	  0.050060119	6.989000E+01	  0.050060119	-6.966400E+01
152	  0.050260521	-5.651000E+00	  0.050260521	-4.559300E+01	  0.050260521	6.713500E+01	  0.050260521	-6.875200E+01
153	  0.050460923	-5.665000E+00	  0.050460923	-4.725500E+01	  0.050460923	6.457400E+01	  0.050460923	-6.778900E+01
154	  0.050661322	-5.677000E+00	  0.050661322	-4.891900E+01	  0.050661322	6.213800E+01	  0.050661322	-6.679800E+01
155	  0.050861724	-5.693000E+00	  0.050861724	-5.055600E+01	  0.050861724	5.988700E+01	  0.050861724	-6.574000E+01
156	  0.051062126	-5.704000E+00	  0.051062126	-5.216700E+01	  0.051062126	5.776900E+01	  0.051062126	-6.472100E+01
157	  0.051262524	-5.719000E+00	  0.051262524	-5.375800E+01	  0.051262524	5.580200E+01	  0.051262524	-6.365400E+01
158	  0.051462926	-5.733000E+00	  0.051462926	-5.533300E+01	  0.051462926	5.395800E+01	  0.051462926	-6.258100E+01
159	  0.051663328	-5.750000E+00	  0.051663328	-5.685500E+01	  0.051663328	5.227600E+01	  0.051663328	-6.151500E+01
160	  0.051863730	-5.769000E+00	  0.051863730	-5.837800E+01	  0.051863730	5.068300E+01	  0.051863730	-6.043300E+01
161	  0.052064128	-5.786000E+00	  0.052064128	-5.990900E+01	  0.052064128	4.915800E+01	  0.052064128	-5.935100E+01
162	  0.052264530	-5.810000E+00	  0.052264530	-6.144900E+01	  0.052264530	4.772300E+01	  0.052264530	-5.822900E+01
163	  0.052464932	-5.833000E+00	  0.052464932	-6.296500E+01	  0.052464932	4.638700E+01	  0.052464932	-5.712400E+01
164	  0.052665330	-5.859000E+00	  0.052665330	-6.452100E+01	  0.052665330	4.508700E+01	  0.052665330	-5.599400E+01
165	  0.052865732	-5.885000E+00	  0.052865732	-6.603500E+01	  0.052865732	4.389000E+01	  0.052865732	-5.489700E+01
166	  0.053066134	-5.907000E+00	  0.053066134	-6.756900E+01	  0.053066134	4.272400E+01	  0.053066134	-5.381500E+01
167	  0.053266536	-5.932000E+00	  0.053266536	-6.912100E+01	  0.053266536	4.161000E+01	  0.053266536	-5.272100E+01
168	  0.053466935	-5.955000E+00	  0.053466935	-7.064500E+01	  0.053466935	4.056100E+01	  0.053466935	-5.166900E+01
169	  0.053667337	-5.974000E+00	  0.053667337	-7.219700E+01	  0.053667337	3.952800E+01	  0.053667337	-5.062800E+01
170	  0.053867739	-5.991000E+00	  0.053867739	-7.373000E+01	  0.053867739	3.854900E+01	  0.053867739	-4.961800E+01
171	  0.054068137	-6.006000E+00	  0.054068137	-7.524400E+01	  0.054068137	3.762000E+01	  0.054068137	-4.863900E+01
172	  0.054268539	-6.022000E+00	  0.054268539	-7.674000E+01	  0.054268539	3.674900E+01	  0.054268539	-4.767500E+01
173	  0.054468941	-6.039000E+00	  0.054468941	-7.824100E+01	  0.054468941	3.591500E+01	  0.054468941	-4.671700E+01
174	  0.054669339	-6.059000E+00	  0.054669339	-7.969500E+01	  0.054669339	3.515900E+01	  0.054669339	-4.578400E+01
175	  0.054869737	-6.070000E+00	  0.054869737	-8.118000E+01	  0.054869737	3.438800E+01	  0.054869737	-4.487400E+01
176	  0.055070139	-6.087000E+00	  0.055070139	-8.262000E+01	  0.055070139	3.369200E+01	  0.055070139	-4.398200E+01
177	  0.055270538	-6.102000E+00	  0.055270538	-8.406400E+01	  0.055270538	3.301700E+01	  0.055270538	-4.310400E+01
178	  0.055470940	-6.116000E+00	  0.055470940	-8.550300E+01	  0.055470940	3.236800E+01	  0.055470940	-4.224300E+01
179	  0.055671342	-6.126000E+00	  0.055671342	-8.696300E+01	  0.055671342	3.172100E+01	  0.055671342	-4.139100E+01
180	  0.055871744	-6.133000E+00	  0.055871744	-8.843400E+01	  0.055871744	3.108600E+01	  0.055871744	-4.055100E+01
181	  0.056072142	-6.145000E+00	  0.056072142	-8.986200E+01	  0.056072142	3.051500E+01	  0.056072142	-3.972800E+01
182	  0.056272544	-6.154000E+00	  0.056272544	-9.130700E+01	  0.056272544	2.994700E+01	  0.056272544	-3.891300E+01
183	  0.056472946	-6.159000E+00	  0.056472946	-9.276400E+01	  0.056472946	2.938300E+01	  0.056472946	-3.811300E+01
184	  0.056673344	-6.162000E+00	  0.056673344	-9.417100E+01	  0.056673344	2.885300E+01	  0.056673344	-3.735000E+01
185	  0.056873746	-6.162000E+00	  0.056873746	-9.557800E+01	  0.056873746	2.833700E+01	  0.056873746	-3.659900E+01
186	  0.057074148	-6.157000E+00	  0.057074148	-9.698000E+01	  0.057074148	2.782100E+01	  0.057074148	-3.587100E+01
187	  0.057274550	-6.153000E+00	  0.057274550	-9.839200E+01	  0.057274550	2.732400E+01	  0.057274550	-3.514100E+01
188	  0.057474948	-6.147000E+00	  0.057474948	-9.978400E+01	  0.057474948	2.684500E+01	  0.057474948	-3.443100E+01
189	  0.057675350	-6.141000E+00	  0.057675350	-1.011240E+02	  0.057675350	2.640000E+01	  0.057675350	-3.375300E+01
190	  0.057875752	-6.131000E+00	  0.057875752	-1.024410E+02	  0.057875752	2.596300E+01	  0.057875752	-3.310000E+01
191	  0.058076151	-6.126000E+00	  0.058076151	-1.037640E+02	  0.058076151	2.555700E+01	  0.058076151	-3.243700E+01
192	  0.058276553	-6.115000E+00	  0.058276553	-1.050330E+02	  0.058276553	2.516000E+01	  0.058276553	-3.181800E+01
193	  0.058476955	-6.113000E+00	  0.058476955	-1.062880E+02	  0.058476955	2.480800E+01	  0.058476955	-3.119300E+01
194	  0.058677353	-6.108000E+00	  0.058677353	-1.075450E+02	  0.058677353	2.445700E+01	  0.058677353	-3.057700E+01
195	  0.058877755	-6.106000E+00	  0.058877755	-1.087910E+02	  0.058877755	2.413300E+01	  0.058877755	-2.996500E+01
196	  0.059078157	-6.101000E+00	  0.059078157	-1.100390E+02	  0.059078157	2.380600E+01	  0.059078157	-2.936300E+01
197	  0.059278559	-6.102000E+00	  0.059278559	-1.112580E+02	  0.059278559	2.351700E+01	  0.059278559	-2.876900E+01
198	  0.059478957	-6.100000E+00	  0.059478957	-1.125060E+02	  0.059478957	2.322100E+01	  0.059478957	-2.816900E+01
199	  0.059679359	-6.102000E+00	  0.059679359	-1.137360E+02	  0.059679359	2.295100E+01	  0.059679359	-2.757700E+01
200	  0.059879761	-6.107000E+00	  0.059879761	-1.149440E+02	  0.059879761	2.270500E+01	  0.059879761	-2.699600E+01
201	  0.060080159	-6.110000E+00	  0.060080159	-1.161320E+02	  0.060080159	2.246400E+01	  0.060080159	-2.643100E+01
202	  0.060280561	-6.114000E+00	  0.060280561	-1.173530E+02	  0.060280561	2.222700E+01	  0.060280561	-2.585300E+01
203	  0.060480963	-6.121000E+00	  0.060480963	-1.185670E+02	  0.060480963	2.200900E+01	  0.060480963	-2.528000E+01
204	  0.060681365	-6.122000E+00	  0.060681365	-1.197660E+02	  0.060681365	2.178300E+01	  0.060681365	-2.472500E+01
205	  0.060881764	-6.130000E+00	  0.060881764	-1.209540E+02	  0.060881764	2.158600E+01	  0.060881764	-2.417100E+01
206	  0.061082166	-6.137000E+00	  0.061082166	-1.221590E+02	  0.061082166	2.139000E+01	  0.061082166	-2.361400E+01
207	  0.061282568	-6.142000E+00	  0.061282568	-1.233900E+02	  0.061282568	2.119400E+01	  0.061282568	-2.305100E+01
208	  0.061482966	-6.151000E+00	  0.061482966	-1.245390E+02	  0.061482966	2.102800E+01	  0.061482966	-2.252500E+01
209	  0.061683368	-6.159000E+00	  0.061683368	-1.257140E+02	  0.061683368	2.085800E+01	  0.061683368	-2.199300E+01
210	  0.061883770	-6.168000E+00	  0.061883770	-1.268930E+02	  0.061883770	2.069900E+01	  0.061883770	-2.146000E+01
211	  0.062084168	-6.177000E+00	  0.062084168	-1.280710E+02	  0.062084168	2.054500E+01	  0.062084168	-2.093200E+01
212	  0.062284570	-6.188000E+00	  0.062284570	-1.292380E+02	  0.062284570	2.040500E+01	  0.062284570	-2.041100E+01
213	  0.062484972	-6.195000E+00	  0.062484972	-1.303900E+02	  0.062484972	2.025900E+01	  0.062484972	-1.990300E+01
214	  0.062685370	-6.205000E+00	  0.062685370	-1.315560E+02	  0.062685370	2.012800E+01	  0.062685370	-1.938900E+01
215	  0.062885776	-6.218000E+00	  0.062885776	-1.327450E+02	  0.062885776	2.000500E+01	  0.062885776	-1.886700E+01
216	  0.063086174	-6.226000E+00	  0.063086174	-1.339530E+02	  0.063086174	1.987200E+01	  0.063086174	-1.834300E+01
217	  0.063286573	-6.234000E+00	  0.063286573	-1.351880E+02	  0.063286573	1.974100E+01	  0.063286573	-1.781200E+01
218	  0.063486971	-6.245000E+00	  0.063486971	-1.363640E+02	  0.063486971	1.962700E+01	  0.063486971	-1.730700E+01
219	  0.063687377	-6.247000E+00	  0.063687377	-1.375560E+02	  0.063687377	1.949600E+01	  0.063687377	-1.680400E+01
220	  0.063887775	-6.251000E+00	  0.063887775	-1.387620E+02	  0.063887775	1.936900E+01	  0.063887775	-1.629700E+01
221	  0.064088173	-6.249000E+00	  0.064088173	-1.399500E+02	  0.064088173	1.923600E+01	  0.064088173	-1.580400E+01
222	  0.064288579	-6.252000E+00	  0.064288579	-1.411480E+02	  0.064288579	1.911900E+01	  0.064288579	-1.530600E+01
223	  0.064488977	-6.253000E+00	  0.064488977	-1.422740E+02	  0.064488977	1.900900E+01	  0.064488977	-1.484000E+01
224	  0.064689375	-6.255000E+00	  0.064689375	-1.434580E+02	  0.064689375	1.890100E+01	  0.064689375	-1.435200E+01
225	  0.064889781	-6.253000E+00	  0.064889781	-1.445960E+02	  0.064889781	1.878900E+01	  0.064889781	-1.388800E+01
226	  0.065090179	-6.253000E+00	  0.065090179	-1.456940E+02	  0.065090179	1.869100E+01	  0.065090179	-1.344100E+01
227	  0.065290578	-6.250000E+00	  0.065290578	-1.468190E+02	  0.065290578	1.858700E+01	  0.065290578	-1.298500E+01
228	  0.065490983	-6.247000E+00	  0.065490983	-1.479060E+02	  0.065490983	1.849000E+01	  0.065490983	-1.254600E+01
229	  0.065691382	-6.243000E+00	  0.065691382	-1.490010E+02	  0.065691382	1.839000E+01	  0.065691382	-1.210700E+01
230	  0.065891780	-6.242000E+00	  0.065891780	-1.501050E+02	  0.065891780	1.830400E+01	  0.065891780	-1.166400E+01
231	  0.066092186	-6.240000E+00	  0.066092186	-1.511860E+02	  0.066092186	1.821900E+01	  0.066092186	-1.123100E+01
232	  0.066292584	-6.241000E+00	  0.066292584	-1.522320E+02	  0.066292584	1.815000E+01	  0.066292584	-1.081200E+01
233	  0.066492982	-6.233000E+00	  0.066492982	-1.532810E+02	  0.066492982	1.806000E+01	  0.066492982	-1.039700E+01
234	  0.066693388	-6.233000E+00	  0.066693388	-1.543480E+02	  0.066693388	1.798900E+01	  0.066693388	-9.973000E+00
235	  0.066893786	-6.233000E+00	  0.066893786	-1.553420E+02	  0.066893786	1.792900E+01	  0.066893786	-9.579000E+00
236	  0.067094192	-6.231000E+00	  0.067094192	-1.563490E+02	  0.067094192	1.786400E+01	  0.067094192	-9.181000E+00
237	  0.067294590	-6.232000E+00	  0.067294590	-1.573720E+02	  0.067294590	1.781100E+01	  0.067294590	-8.777000E+00
238	  0.067494988	-6.235000E+00	  0.067494988	-1.583810E+02	  0.067494988	1.776500E+01	  0.067494988	-8.378000E+00
239	  0.067695394	-6.233000E+00	  0.067695394	-1.594010E+02	  0.067695394	1.770700E+01	  0.067695394	-7.978000E+00
240	  0.067895792	-6.239000E+00	  0.067895792	-1.603680E+02	  0.067895792	1.767600E+01	  0.067895792	-7.597000E+00
241	  0.068096191	-6.241000E+00	  0.068096191	-1.613790E+02	  0.068096191	1.763600E+01	  0.068096191	-7.200000E+00
242	  0.068296596	-6.244000E+00	  0.068296596	-1.623540E+02	  0.068296596	1.760200E+01	  0.068296596	-6.818000E+00
243	  0.068496995	-6.247000E+00	  0.068496995	-1.633020E+02	  0.068496995	1.757100E+01	  0.068496995	-6.448000E+00
244	  0.068697393	-6.254000E+00	  0.068697393	-1.642560E+02	  0.068697393	1.755100E+01	  0.068697393	-6.075000E+00
245	  0.068897791	-6.259000E+00	  0.068897791	-1.652410E+02	  0.068897791	1.752900E+01	  0.068897791	-5.691000E+00
246	  0.069098189	-6.265000E+00	  0.069098189	-1.661970E+02	  0.069098189	1.751100E+01	  0.069098189	-5.318000E+00
247	  0.069298595	-6.272000E+00	  0.069298595	-1.671490E+02	  0.069298595	1.750000E+01	  0.069298595	-4.948000E+00
248	  0.069498993	-6.282000E+00	  0.069498993	-1.681260E+02	  0.069498993	1.749700E+01	  0.069498993	-4.568000E+00
249	  0.069699399	-6.292000E+00	  0.069699399	-1.690930E+02	  0.069699399	1.749800E+01	  0.069699399	-4.193000E+00
250	  0.069899797	-6.306000E+00	  0.069899797	-1.700370E+02	  0.069899797	1.750900E+01	  0.069899797	-3.826000E+00
251	  0.070100196	-6.315000E+00	  0.070100196	-1.710020E+02	  0.070100196	1.751200E+01	  0.070100196	-3.453000E+00
252	  0.070300601	-6.327000E+00	  0.070300601	-1.719480E+02	  0.070300601	1.752300E+01	  0.070300601	-3.088000E+00
253	  0.070501000	-6.335000E+00	  0.070501000	-1.729330E+02	  0.070501000	1.752600E+01	  0.070501000	-2.709000E+00
254	  0.070701398	-6.340000E+00	  0.070701398	-1.739030E+02	  0.070701398	1.752300E+01	  0.070701398	-2.336000E+00
255	  0.070901804	-6.350000E+00	  0.070901804	-1.748560E+02	  0.070901804	1.753600E+01	  0.070901804	-1.970000E+00
256	  0.071102202	-6.365000E+00	  0.071102202	-1.758270E+02	  0.071102202	1.756400E+01	  0.071102202	-1.596000E+00
257	  0.071302600	-6.373000E+00	  0.071302600	-1.768250E+02	  0.071302600	1.757400E+01	  0.071302600	-1.214000E+00
258	  0.071503006	-6.388000E+00	  0.071503006	-1.777960E+02	  0.071503006	1.760600E+01	  0.071503006	-8.420000E-01
259	  0.071703404	-6.396000E+00	  0.071703404	-1.787580E+02	  0.071703404	1.762300E+01	  0.071703404	-4.740000E-01
260	  0.071903802	-6.405000E+00	  0.071903802	-1.797240E+02	  0.071903802	1.764300E+01	  0.071903802	-1.050000E-01
261	  0.072104208	-6.414000E+00	  0.072104208	1.792970E+02	  0.072104208	1.766600E+01	  0.072104208	2.680000E-01
262	  0.072304606	-6.421000E+00	  0.072304606	1.783630E+02	  0.072304606	1.768600E+01	  0.072304606	6.240000E-01
263	  0.072505005	-6.427000E+00	  0.072505005	1.774050E+02	  0.072505005	1.770800E+01	  0.072505005	9.900000E-01
264	  0.072705410	-6.439000E+00	  0.072705410	1.764490E+02	  0.072705410	1.774400E+01	  0.072705410	1.354000E+00
265	  0.072905809	-6.444000E+00	  0.072905809	1.754560E+02	  0.072905809	1.776600E+01	  0.072905809	1.733000E+00
266	  0.073106214	-6.449000E+00	  0.073106214	1.745000E+02	  0.073106214	1.779000E+01	  0.073106214	2.097000E+00
267	  0.073306613	-6.455000E+00	  0.073306613	1.735690E+02	  0.073306613	1.781900E+01	  0.073306613	2.453000E+00
268	  0.073507011	-6.457000E+00	  0.073507011	1.726120E+02	  0.073507011	1.783900E+01	  0.073507011	2.818000E+00
269	  0.073707417	-6.463000E+00	  0.073707417	1.716440E+02	  0.073707417	1.787200E+01	  0.073707417	3.187000E+00
270	  0.073907815	-6.465000E+00	  0.073907815	1.707110E+02	  0.073907815	1.789800E+01	  0.073907815	3.544000E+00
271	  0.074108213	-6.464000E+00	  0.074108213	1.698100E+02	  0.074108213	1.791600E+01	  0.074108213	3.889000E+00
272	  0.074308619	-6.465000E+00	  0.074308619	1.688770E+02	  0.074308619	1.794300E+01	  0.074308619	4.246000E+00
273	  0.074509017	-6.465000E+00	  0.074509017	1.679280E+02	  0.074509017	1.796900E+01	  0.074509017	4.610000E+00
274	  0.074709415	-6.468000E+00	  0.074709415	1.670200E+02	  0.074709415	1.800400E+01	  0.074709415	4.958000E+00
275	  0.074909821	-6.470000E+00	  0.074909821	1.661110E+02	  0.074909821	1.803700E+01	  0.074909821	5.307000E+00
276	  0.075110219	-6.474000E+00	  0.075110219	1.652030E+02	  0.075110219	1.807900E+01	  0.075110219	5.655000E+00
277	  0.075310618	-6.475000E+00	  0.075310618	1.643150E+02	  0.075310618	1.811500E+01	  0.075310618	5.997000E+00
278	  0.075511023	-6.476000E+00	  0.075511023	1.634500E+02	  0.075511023	1.815100E+01	  0.075511023	6.330000E+00
279	  0.075711422	-6.478000E+00	  0.075711422	1.625860E+02	  0.075711422	1.819000E+01	  0.075711422	6.663000E+00
280	  0.075911827	-6.477000E+00	  0.075911827	1.617230E+02	  0.075911827	1.822500E+01	  0.075911827	6.997000E+00
281	  0.076112226	-6.480000E+00	  0.076112226	1.608690E+02	  0.076112226	1.827200E+01	  0.076112226	7.327000E+00
282	  0.076312624	-6.482000E+00	  0.076312624	1.599800E+02	  0.076312624	1.832000E+01	  0.076312624	7.671000E+00
283	  0.076513030	-6.488000E+00	  0.076513030	1.591230E+02	  0.076513030	1.838000E+01	  0.076513030	8.002000E+00
284	  0.076713428	-6.490000E+00	  0.076713428	1.582630E+02	  0.076713428	1.842800E+01	  0.076713428	8.336000E+00
285	  0.076913826	-6.497000E+00	  0.076913826	1.574300E+02	  0.076913826	1.849400E+01	  0.076913826	8.657000E+00
286	  0.077114232	-6.498000E+00	  0.077114232	1.565920E+02	  0.077114232	1.854300E+01	  0.077114232	8.984000E+00
287	  0.077314630	-6.502000E+00	  0.077314630	1.558120E+02	  0.077314630	1.859900E+01	  0.077314630	9.287000E+00
288	  0.077515028	-6.508000E+00	  0.077515028	1.549990E+02	  0.077515028	1.866600E+01	  0.077515028	9.603000E+00
289	  0.077715434	-6.516000E+00	  0.077715434	1.541910E+02	  0.077715434	1.873800E+01	  0.077715434	9.916000E+00
290	  0.077915832	-6.530000E+00	  0.077915832	1.533350E+02	  0.077915832	1.882900E+01	  0.077915832	1.024600E+01
291	  0.078116231	-6.540000E+00	  0.078116231	1.525720E+02	  0.078116231	1.890700E+01	  0.078116231	1.054200E+01
292	  0.078316636	-6.553000E+00	  0.078316636	1.517760E+02	  0.078316636	1.899800E+01	  0.078316636	1.084900E+01
293	  0.078517035	-6.572000E+00	  0.078517035	1.509610E+02	  0.078517035	1.910600E+01	  0.078517035	1.116100E+01
294	  0.078717433	-6.587000E+00	  0.078717433	1.501660E+02	  0.078717433	1.920700E+01	  0.078717433	1.146700E+01
295	  0.078917839	-6.606000E+00	  0.078917839	1.493790E+02	  0.078917839	1.931800E+01	  0.078917839	1.176800E+01
296	  0.079118237	-6.630000E+00	  0.079118237	1.485810E+02	  0.079118237	1.944300E+01	  0.079118237	1.207100E+01
297	  0.079318643	-6.653000E+00	  0.079318643	1.477830E+02	  0.079318643	1.957000E+01	  0.079318643	1.237400E+01
298	  0.079519041	-6.675000E+00	  0.079519041	1.469900E+02	  0.079519041	1.969700E+01	  0.079519041	1.267600E+01
299	  0.079719439	-6.697000E+00	  0.079719439	1.461930E+02	  0.079719439	1.982500E+01	  0.079719439	1.298000E+01
300	  0.079919845	-6.721000E+00	  0.079919845	1.453590E+02	  0.079919845	1.996300E+01	  0.079919845	1.329700E+01
301	  0.080120243	-6.745000E+00	  0.080120243	1.445730E+02	  0.080120243	2.009900E+01	  0.080120243	1.359500E+01
302	  0.080320641	-6.773000E+00	  0.080320641	1.437390E+02	  0.080320641	2.025400E+01	  0.080320641	1.390900E+01
303	  0.080521047	-6.791000E+00	  0.080521047	1.429210E+02	  0.080521047	2.038500E+01	  0.080521047	1.422300E+01
304	  0.080721445	-6.818000E+00	  0.080721445	1.420870E+02	  0.080721445	2.054200E+01	  0.080721445	1.453800E+01
305	  0.080921844	-6.848000E+00	  0.080921844	1.412700E+02	  0.080921844	2.070600E+01	  0.080921844	1.484400E+01
306	  0.081122249	-6.869000E+00	  0.081122249	1.404360E+02	  0.081122249	2.085100E+01	  0.081122249	1.516300E+01
307	  0.081322648	-6.891000E+00	  0.081322648	1.396160E+02	  0.081322648	2.100200E+01	  0.081322648	1.547500E+01
308	  0.081523046	-6.915000E+00	  0.081523046	1.387680E+02	  0.081523046	2.116200E+01	  0.081523046	1.579700E+01
309	  0.081723452	-6.936000E+00	  0.081723452	1.379510E+02	  0.081723452	2.131500E+01	  0.081723452	1.610900E+01
310	  0.081923850	-6.959000E+00	  0.081923850	1.371590E+02	  0.081923850	2.147300E+01	  0.081923850	1.640900E+01
311	  0.082124248	-6.978000E+00	  0.082124248	1.363600E+02	  0.082124248	2.162300E+01	  0.082124248	1.671600E+01
312	  0.082324654	-6.997000E+00	  0.082324654	1.355350E+02	  0.082324654	2.178000E+01	  0.082324654	1.703300E+01
313	  0.082525052	-7.018000E+00	  0.082525052	1.347100E+02	  0.082525052	2.194200E+01	  0.082525052	1.734900E+01
314	  0.082725458	-7.037000E+00	  0.082725458	1.339440E+02	  0.082725458	2.209700E+01	  0.082725458	1.764200E+01
315	  0.082925856	-7.057000E+00	  0.082925856	1.331470E+02	  0.082925856	2.226000E+01	  0.082925856	1.794700E+01
316	  0.083126254	-7.077000E+00	  0.083126254	1.323260E+02	  0.083126254	2.242900E+01	  0.083126254	1.826200E+01
317	  0.083326660	-7.089000E+00	  0.083326660	1.315050E+02	  0.083326660	2.258000E+01	  0.083326660	1.858600E+01
318	  0.083527058	-7.107000E+00	  0.083527058	1.307190E+02	  0.083527058	2.274600E+01	  0.083527058	1.888800E+01
319	  0.083727457	-7.116000E+00	  0.083727457	1.299480E+02	  0.083727457	2.288700E+01	  0.083727457	1.919400E+01
320	  0.083927862	-7.125000E+00	  0.083927862	1.291750E+02	  0.083927862	2.303100E+01	  0.083927862	1.950200E+01
321	  0.084128261	-7.142000E+00	  0.084128261	1.284440E+02	  0.084128261	2.319300E+01	  0.084128261	1.978400E+01
322	  0.084328659	-7.151000E+00	  0.084328659	1.276900E+02	  0.084328659	2.334100E+01	  0.084328659	2.008400E+01
323	  0.084529065	-7.160000E+00	  0.084529065	1.269830E+02	  0.084529065	2.348000E+01	  0.084529065	2.036600E+01
324	  0.084729463	-7.177000E+00	  0.084729463	1.262700E+02	  0.084729463	2.364800E+01	  0.084729463	2.064100E+01
325	  0.084929861	-7.188000E+00	  0.084929861	1.255490E+02	  0.084929861	2.380100E+01	  0.084929861	2.092800E+01
326	  0.085130267	-7.198000E+00	  0.085130267	1.248470E+02	  0.085130267	2.395300E+01	  0.085130267	2.120600E+01
327	  0.085330658	-7.212000E+00	  0.085330658	1.241860E+02	  0.085330658	2.410800E+01	  0.085330658	2.146400E+01
328	  0.085531056	-7.229000E+00	  0.085531056	1.235200E+02	  0.085531056	2.427600E+01	  0.085531056	2.172100E+01
329	  0.085731462	-7.248000E+00	  0.085731462	1.228490E+02	  0.085731462	2.445300E+01	  0.085731462	2.197700E+01
330	  0.085931860	-7.265000E+00	  0.085931860	1.222120E+02	  0.085931860	2.462200E+01	  0.085931860	2.222000E+01
331	  0.086132258	-7.287000E+00	  0.086132258	1.215690E+02	  0.086132258	2.480600E+01	  0.086132258	2.246000E+01
332	  0.086332664	-7.308000E+00	  0.086332664	1.209350E+02	  0.086332664	2.498800E+01	  0.086332664	2.269700E+01
333	  0.086533062	-7.335000E+00	  0.086533062	1.203140E+02	  0.086533062	2.518600E+01	  0.086533062	2.292200E+01
334	  0.086733460	-7.357000E+00	  0.086733460	1.196560E+02	  0.086733460	2.538100E+01	  0.086733460	2.316600E+01
335	  0.086933866	-7.377000E+00	  0.086933866	1.190170E+02	  0.086933866	2.556700E+01	  0.086933866	2.340600E+01
336	  0.087134264	-7.401000E+00	  0.087134264	1.183710E+02	  0.087134264	2.577000E+01	  0.087134264	2.364300E+01
337	  0.087334670	-7.430000E+00	  0.087334670	1.177390E+02	  0.087334670	2.598600E+01	  0.087334670	2.386600E+01
338	  0.087535068	-7.458000E+00	  0.087535068	1.171050E+02	  0.087535068	2.620300E+01	  0.087535068	2.409000E+01
339	  0.087735467	-7.487000E+00	  0.087735467	1.164940E+02	  0.087735467	2.641600E+01	  0.087735467	2.430400E+01
340	  0.087935872	-7.512000E+00	  0.087935872	1.158610E+02	  0.087935872	2.662900E+01	  0.087935872	2.453000E+01
341	  0.088136271	-7.549000E+00	  0.088136271	1.152640E+02	  0.088136271	2.686700E+01	  0.088136271	2.472400E+01
342	  0.088336669	-7.576000E+00	  0.088336669	1.146450E+02	  0.088336669	2.708700E+01	  0.088336669	2.494000E+01
343	  0.088537075	-7.611000E+00	  0.088537075	1.140140E+02	  0.088537075	2.733300E+01	  0.088537075	2.514800E+01
344	  0.088737473	-7.642000E+00	  0.088737473	1.133850E+02	  0.088737473	2.757000E+01	  0.088737473	2.536000E+01
345	  0.088937871	-7.675000E+00	  0.088937871	1.127960E+02	  0.088937871	2.780500E+01	  0.088937871	2.555200E+01
346	  0.089138277	-7.711000E+00	  0.089138277	1.121850E+02	  0.089138277	2.805700E+01	  0.089138277	2.574600E+01
347	  0.089338675	-7.742000E+00	  0.089338675	1.116240E+02	  0.089338675	2.828600E+01	  0.089338675	2.592500E+01
348	  0.089539073	-7.786000E+00	  0.089539073	1.110170E+02	  0.089539073	2.856200E+01	  0.089539073	2.610100E+01
349	  0.089739479	-7.820000E+00	  0.089739479	1.103860E+02	  0.089739479	2.882000E+01	  0.089739479	2.630300E+01
350	  0.089939877	-7.862000E+00	  0.089939877	1.097830E+02	  0.089939877	2.909400E+01	  0.089939877	2.647800E+01
351	  0.090140276	-7.893000E+00	  0.090140276	1.090970E+02	  0.090140276	2.936600E+01	  0.090140276	2.670300E+01
352	  0.090340681	-7.930000E+00	  0.090340681	1.085260E+02	  0.090340681	2.962200E+01	  0.090340681	2.687000E+01
353	  0.090541080	-7.963000E+00	  0.090541080	1.078830E+02	  0.090541080	2.989200E+01	  0.090541080	2.707200E+01
354	  0.090741485	-7.998000E+00	  0.090741485	1.072770E+02	  0.090741485	3.015800E+01	  0.090741485	2.725300E+01
355	  0.090941884	-8.035000E+00	  0.090941884	1.066340E+02	  0.090941884	3.044300E+01	  0.090941884	2.744500E+01
356	  0.091142282	-8.068000E+00	  0.091142282	1.060060E+02	  0.091142282	3.071700E+01	  0.091142282	2.763500E+01
357	  0.091342688	-8.100000E+00	  0.091342688	1.053940E+02	  0.091342688	3.098500E+01	  0.091342688	2.781900E+01
358	  0.091543086	-8.125000E+00	  0.091543086	1.047970E+02	  0.091543086	3.123100E+01	  0.091543086	2.801100E+01
359	  0.091743484	-8.160000E+00	  0.091743484	1.041830E+02	  0.091743484	3.151400E+01	  0.091743484	2.818600E+01
360	  0.091943890	-8.185000E+00	  0.091943890	1.035890E+02	  0.091943890	3.176600E+01	  0.091943890	2.837200E+01
361	  0.092144288	-8.209000E+00	  0.092144288	1.029930E+02	  0.092144288	3.201800E+01	  0.092144288	2.856100E+01
362	  0.092344686	-8.234000E+00	  0.092344686	1.023800E+02	  0.092344686	3.228200E+01	  0.092344686	2.875300E+01
363	  0.092545092	-8.262000E+00	  0.092545092	1.018110E+02	  0.092545092	3.253900E+01	  0.092545092	2.892000E+01
364	  0.092745490	-8.290000E+00	  0.092745490	1.012360E+02	  0.092745490	3.280200E+01	  0.092745490	2.908800E+01
365	  0.092945889	-8.315000E+00	  0.092945889	1.006540E+02	  0.092945889	3.306400E+01	  0.092945889	2.926200E+01
366	  0.093146294	-8.340000E+00	  0.093146294	1.000740E+02	  0.093146294	3.332500E+01	  0.093146294	2.943500E+01
367	  0.093346693	-8.359000E+00	  0.093346693	9.952200E+01	  0.093346693	3.356700E+01	  0.093346693	2.960700E+01
368	  0.093547091	-8.381000E+00	  0.093547091	9.899000E+01	  0.093547091	3.380900E+01	  0.093547091	2.976500E+01
369	  0.093747497	-8.392000E+00	  0.093747497	9.844200E+01	  0.093747497	3.403100E+01	  0.093747497	2.995400E+01
370	  0.093947895	-8.418000E+00	  0.093947895	9.782300E+01	  0.093947895	3.431800E+01	  0.093947895	3.013500E+01
371	  0.094148301	-8.430000E+00	  0.094148301	9.728000E+01	  0.094148301	3.454600E+01	  0.094148301	3.031800E+01
372	  0.094348699	-8.450000E+00	  0.094348699	9.677400E+01	  0.094348699	3.478500E+01	  0.094348699	3.046400E+01
373	  0.094549097	-8.462000E+00	  0.094549097	9.624900E+01	  0.094549097	3.501100E+01	  0.094549097	3.063800E+01
374	  0.094749503	-8.473000E+00	  0.094749503	9.577400E+01	  0.094749503	3.521700E+01	  0.094749503	3.079400E+01
375	  0.094949901	-8.483000E+00	  0.094949901	9.526900E+01	  0.094949901	3.543500E+01	  0.094949901	3.096200E+01
376	  0.095150299	-8.489000E+00	  0.095150299	9.482800E+01	  0.095150299	3.562000E+01	  0.095150299	3.111700E+01
377	  0.095350705	-8.496000E+00	  0.095350705	9.436900E+01	  0.095350705	3.581600E+01	  0.095350705	3.127500E+01
378	  0.095551103	-8.506000E+00	  0.095551103	9.389000E+01	  0.095551103	3.602900E+01	  0.095551103	3.143300E+01
379	  0.095751502	-8.512000E+00	  0.095751502	9.346200E+01	  0.095751502	3.621500E+01	  0.095751502	3.158000E+01
380	  0.095951907	-8.521000E+00	  0.095951907	9.306900E+01	  0.095951907	3.639400E+01	  0.095951907	3.170800E+01
381	  0.096152306	-8.537000E+00	  0.096152306	9.266400E+01	  0.096152306	3.660000E+01	  0.096152306	3.181700E+01
382	  0.096352704	-8.546000E+00	  0.096352704	9.228800E+01	  0.096352704	3.677500E+01	  0.096352704	3.193600E+01
383	  0.096553110	-8.553000E+00	  0.096553110	9.193500E+01	  0.096553110	3.693800E+01	  0.096553110	3.204900E+01
384	  0.096753508	-8.563000E+00	  0.096753508	9.155600E+01	  0.096753508	3.712100E+01	  0.096753508	3.216500E+01
385	  0.096953906	-8.575000E+00	  0.096953906	9.122600E+01	  0.096953906	3.728700E+01	  0.096953906	3.225800E+01
386	  0.097154312	-8.589000E+00	  0.097154312	9.087400E+01	  0.097154312	3.747100E+01	  0.097154312	3.235000E+01
387	  0.097354710	-8.596000E+00	  0.097354710	9.055200E+01	  0.097354710	3.762400E+01	  0.097354710	3.245100E+01
388	  0.097555116	-8.611000E+00	  0.097555116	9.020900E+01	  0.097555116	3.780900E+01	  0.097555116	3.253500E+01
389	  0.097755514	-8.622000E+00	  0.097755514	8.990700E+01	  0.097755514	3.796600E+01	  0.097755514	3.261600E+01
390	  0.097955912	-8.646000E+00	  0.097955912	8.957900E+01	  0.097955912	3.816600E+01	  0.097955912	3.266900E+01
391	  0.098156318	-8.658000E+00	  0.098156318	8.926900E+01	  0.098156318	3.833000E+01	  0.098156318	3.274900E+01
392	  0.098356716	-8.673000E+00	  0.098356716	8.896200E+01	  0.098356716	3.850200E+01	  0.098356716	3.281700E+01
393	  0.098557115	-8.684000E+00	  0.098557115	8.862200E+01	  0.098557115	3.867900E+01	  0.098557115	3.290900E+01
394	  0.098757520	-8.705000E+00	  0.098757520	8.827900E+01	  0.098757520	3.888100E+01	  0.098757520	3.297400E+01
395	  0.098957919	-8.722000E+00	  0.098957919	8.794500E+01	  0.098957919	3.907200E+01	  0.098957919	3.304300E+01
396	  0.099158317	-8.741000E+00	  0.099158317	8.760600E+01	  0.099158317	3.927100E+01	  0.099158317	3.310700E+01
397	  0.099358723	-8.756000E+00	  0.099358723	8.728400E+01	  0.099358723	3.945200E+01	  0.099358723	3.317900E+01
398	  0.099559121	-8.772000E+00	  0.099559121	8.691900E+01	  0.099559121	3.965900E+01	  0.099559121	3.325800E+01
399	  0.099759519	-8.793000E+00	  0.099759519	8.657400E+01	  0.099759519	3.986700E+01	  0.099759519	3.331700E+01
400	  0.099959925	-8.823000E+00	  0.099959925	8.621700E+01	  0.099959925	4.010200E+01	  0.099959925	3.335000E+01
401	  0.100160323	-8.835000E+00	  0.100160323	8.582000E+01	  0.100160323	4.031600E+01	  0.100160323	3.345100E+01
402	  0.100360721	-8.852000E+00	  0.100360721	8.544400E+01	  0.100360721	4.053200E+01	  0.100360721	3.353100E+01
403	  0.100561127	-8.871000E+00	  0.100561127	8.495100E+01	  0.100561127	4.081000E+01	  0.100561127	3.364000E+01
404	  0.100761525	-8.887000E+00	  0.100761525	8.453800E+01	  0.100761525	4.104600E+01	  0.100761525	3.372900E+01
405	  0.100961931	-8.896000E+00	  0.100961931	8.405600E+01	  0.100961931	4.130000E+01	  0.100961931	3.386300E+01
406	  0.101162329	-8.915000E+00	  0.101162329	8.366000E+01	  0.101162329	4.153600E+01	  0.101162329	3.393700E+01
407	  0.101362728	-8.918000E+00	  0.101362728	8.308100E+01	  0.101362728	4.183000E+01	  0.101362728	3.412000E+01
408	  0.101563133	-8.916000E+00	  0.101563133	8.262200E+01	  0.101563133	4.205500E+01	  0.101563133	3.428100E+01
409	  0.101763532	-8.919000E+00	  0.101763532	8.214200E+01	  0.101763532	4.230300E+01	  0.101763532	3.443200E+01
410	  0.101963930	-8.927000E+00	  0.101963930	8.157500E+01	  0.101963930	4.261100E+01	  0.101963930	3.459200E+01
411	  0.102164336	-8.904000E+00	  0.102164336	8.104200E+01	  0.102164336	4.283700E+01	  0.102164336	3.484500E+01
412	  0.102364734	-8.915000E+00	  0.102364734	8.051000E+01	  0.102364734	4.314000E+01	  0.102364734	3.497900E+01
413	  0.102565132	-8.901000E+00	  0.102565132	7.999800E+01	  0.102565132	4.338200E+01	  0.102565132	3.519300E+01
414	  0.102765530	-8.885000E+00	  0.102765530	7.949800E+01	  0.102765530	4.361500E+01	  0.102765530	3.541300E+01
415	  0.102965929	-8.864000E+00	  0.102965929	7.896200E+01	  0.102965929	4.386100E+01	  0.102965929	3.566200E+01
416	  0.103166327	-8.855000E+00	  0.103166327	7.843900E+01	  0.103166327	4.413100E+01	  0.103166327	3.586100E+01
417	  0.103366733	-8.834000E+00	  0.103366733	7.793100E+01	  0.103366733	4.436700E+01	  0.103366733	3.610300E+01
418	  0.103567131	-8.806000E+00	  0.103567131	7.740900E+01	  0.103567131	4.460100E+01	  0.103567131	3.637400E+01
419	  0.103767529	-8.777000E+00	  0.103767529	7.685000E+01	  0.103767529	4.486000E+01	  0.103767529	3.666000E+01
420	  0.103967935	-8.764000E+00	  0.103967935	7.635600E+01	  0.103967935	4.511700E+01	  0.103967935	3.686800E+01
421	  0.104168333	-8.730000E+00	  0.104168333	7.588200E+01	  0.104168333	4.532200E+01	  0.104168333	3.715000E+01
422	  0.104368731	-8.703000E+00	  0.104368731	7.545200E+01	  0.104368731	4.552100E+01	  0.104368731	3.739100E+01
423	  0.104569137	-8.678000E+00	  0.104569137	7.495300E+01	  0.104569137	4.576700E+01	  0.104569137	3.764800E+01
424	  0.104769535	-8.646000E+00	  0.104769535	7.445000E+01	  0.104769535	4.600300E+01	  0.104769535	3.793900E+01
425	  0.104969934	-8.610000E+00	  0.104969934	7.394700E+01	  0.104969934	4.623600E+01	  0.104969934	3.824300E+01
426	  0.105170339	-8.577000E+00	  0.105170339	7.346300E+01	  0.105170339	4.646900E+01	  0.105170339	3.853100E+01
427	  0.105370738	-8.547000E+00	  0.105370738	7.303900E+01	  0.105370738	4.667100E+01	  0.105370738	3.879100E+01
428	  0.105571143	-8.519000E+00	  0.105571143	7.258100E+01	  0.105571143	4.690400E+01	  0.105571143	3.905500E+01
429	  0.105771542	-8.484000E+00	  0.105771542	7.208600E+01	  0.105771542	4.714800E+01	  0.105771542	3.936200E+01
430	  0.105971940	-8.467000E+00	  0.105971940	7.164200E+01	  0.105971940	4.740200E+01	  0.105971940	3.957600E+01
431	  0.106172346	-8.425000E+00	  0.106172346	7.120700E+01	  0.106172346	4.760000E+01	  0.106172346	3.989800E+01
432	  0.106372744	-8.421000E+00	  0.106372744	7.074800E+01	  0.106372744	4.789600E+01	  0.106372744	4.006300E+01
433	  0.106573142	-8.384000E+00	  0.106573142	7.026600E+01	  0.106573142	4.814500E+01	  0.106573142	4.037700E+01
434	  0.106773548	-8.364000E+00	  0.106773548	6.980200E+01	  0.106773548	4.842000E+01	  0.106773548	4.061400E+01
435	  0.106973946	-8.349000E+00	  0.106973946	6.928300E+01	  0.106973946	4.874800E+01	  0.106973946	4.084400E+01
436	  0.107174344	-8.332000E+00	  0.107174344	6.877700E+01	  0.107174344	4.906800E+01	  0.107174344	4.107900E+01
437	  0.107374750	-8.320000E+00	  0.107374750	6.827000E+01	  0.107374750	4.940200E+01	  0.107374750	4.129400E+01
438	  0.107575148	-8.303000E+00	  0.107575148	6.771000E+01	  0.107575148	4.976800E+01	  0.107575148	4.154600E+01
439	  0.107775547	-8.296000E+00	  0.107775547	6.721600E+01	  0.107775547	5.011300E+01	  0.107775547	4.173000E+01
440	  0.107975952	-8.286000E+00	  0.107975952	6.662700E+01	  0.107975952	5.052500E+01	  0.107975952	4.195700E+01
441	  0.108176351	-8.283000E+00	  0.108176351	6.603700E+01	  0.108176351	5.095900E+01	  0.108176351	4.214600E+01
442	  0.108376749	-8.274000E+00	  0.108376749	6.545400E+01	  0.108376749	5.138200E+01	  0.108376749	4.236000E+01
443	  0.108577155	-8.272000E+00	  0.108577155	6.480900E+01	  0.108577155	5.187200E+01	  0.108577155	4.255400E+01
444	  0.108777553	-8.273000E+00	  0.108777553	6.423700E+01	  0.108777553	5.231800E+01	  0.108777553	4.270600E+01
445	  0.108977959	-8.266000E+00	  0.108977959	6.355400E+01	  0.108977959	5.284100E+01	  0.108977959	4.293300E+01
446	  0.109178357	-8.266000E+00	  0.109178357	6.289000E+01	  0.109178357	5.337100E+01	  0.109178357	4.310900E+01
447	  0.109378755	-8.259000E+00	  0.109378755	6.224100E+01	  0.109378755	5.388500E+01	  0.109378755	4.331300E+01
448	  0.109579161	-8.257000E+00	  0.109579161	6.153500E+01	  0.109579161	5.446000E+01	  0.109579161	4.350700E+01
449	  0.109779559	-8.259000E+00	  0.109779559	6.086500E+01	  0.109779559	5.502000E+01	  0.109779559	4.365900E+01
450	  0.109979957	-8.263000E+00	  0.109979957	6.012300E+01	  0.109979957	5.565400E+01	  0.109979957	4.381300E+01
451	  0.110180363	-8.262000E+00	  0.110180363	5.939000E+01	  0.110180363	5.628100E+01	  0.110180363	4.398400E+01
452	  0.110380761	-8.262000E+00	  0.110380761	5.869300E+01	  0.110380761	5.688900E+01	  0.110380761	4.413000E+01
453	  0.110581160	-8.264000E+00	  0.110581160	5.792200E+01	  0.110581160	5.757100E+01	  0.110581160	4.428000E+01
454	  0.110781565	-8.253000E+00	  0.110781565	5.711400E+01	  0.110781565	5.828400E+01	  0.110781565	4.450000E+01
455	  0.110981964	-8.261000E+00	  0.110981964	5.634000E+01	  0.110981964	5.899900E+01	  0.110981964	4.459300E+01
456	  0.111182362	-8.251000E+00	  0.111182362	5.558000E+01	  0.111182362	5.969100E+01	  0.111182362	4.478800E+01
457	  0.111382768	-8.253000E+00	  0.111382768	5.480600E+01	  0.111382768	6.042000E+01	  0.111382768	4.489200E+01
458	  0.111583166	-8.248000E+00	  0.111583166	5.402400E+01	  0.111583166	6.116100E+01	  0.111583166	4.504100E+01
459	  0.111783572	-8.248000E+00	  0.111783572	5.321300E+01	  0.111783572	6.194700E+01	  0.111783572	4.514800E+01
460	  0.111983970	-8.245000E+00	  0.111983970	5.241800E+01	  0.111983970	6.272700E+01	  0.111983970	4.525300E+01
461	  0.112184368	-8.238000E+00	  0.112184368	5.157400E+01	  0.112184368	6.356600E+01	  0.112184368	4.538500E+01
462	  0.112384774	-8.239000E+00	  0.112384774	5.075600E+01	  0.112384774	6.439500E+01	  0.112384774	4.544600E+01
463	  0.112585172	-8.244000E+00	  0.112585172	4.990800E+01	  0.112585172	6.527100E+01	  0.112585172	4.546700E+01
464	  0.112785570	-8.227000E+00	  0.112785570	4.905200E+01	  0.112785570	6.615900E+01	  0.112785570	4.561800E+01
465	  0.112985976	-8.229000E+00	  0.112985976	4.820700E+01	  0.112985976	6.705600E+01	  0.112985976	4.562700E+01
466	  0.113186374	-8.230000E+00	  0.113186374	4.738600E+01	  0.113186374	6.793900E+01	  0.113186374	4.562500E+01
467	  0.113386773	-8.220000E+00	  0.113386773	4.651200E+01	  0.113386773	6.889300E+01	  0.113386773	4.567800E+01
468	  0.113587178	-8.229000E+00	  0.113587178	4.559100E+01	  0.113587178	6.990900E+01	  0.113587178	4.558000E+01
469	  0.113787577	-8.223000E+00	  0.113787577	4.474600E+01	  0.113787577	7.085800E+01	  0.113787577	4.556900E+01
470	  0.113987975	-8.224000E+00	  0.113987975	4.385200E+01	  0.113987975	7.187000E+01	  0.113987975	4.547600E+01
471	  0.114188381	-8.225000E+00	  0.114188381	4.298100E+01	  0.114188381	7.286900E+01	  0.114188381	4.536800E+01
472	  0.114388779	-8.218000E+00	  0.114388779	4.204600E+01	  0.114388779	7.396300E+01	  0.114388779	4.528600E+01
473	  0.114589177	-8.224000E+00	  0.114589177	4.120200E+01	  0.114589177	7.494700E+01	  0.114589177	4.509100E+01
474	  0.114789583	-8.223000E+00	  0.114789583	4.023000E+01	  0.114789583	7.610100E+01	  0.114789583	4.490200E+01
475	  0.114989981	-8.230000E+00	  0.114989981	3.931500E+01	  0.114989981	7.718600E+01	  0.114989981	4.462800E+01
476	  0.115190387	-8.238000E+00	  0.115190387	3.844100E+01	  0.115190387	7.822500E+01	  0.115190387	4.432000E+01
477	  0.115390785	-8.243000E+00	  0.115390785	3.749500E+01	  0.115390785	7.936400E+01	  0.115390785	4.399200E+01
478	  0.115591183	-8.253000E+00	  0.115591183	3.656400E+01	  0.115591183	8.048100E+01	  0.115591183	4.359600E+01
479	  0.115791589	-8.262000E+00	  0.115791589	3.557700E+01	  0.115791589	8.166900E+01	  0.115791589	4.314500E+01
480	  0.115991987	-8.273000E+00	  0.115991987	3.465300E+01	  0.115991987	8.277600E+01	  0.115991987	4.266300E+01
481	  0.116192386	-8.289000E+00	  0.116192386	3.368400E+01	  0.116192386	8.392100E+01	  0.116192386	4.208400E+01
482	  0.116392791	-8.306000E+00	  0.116392791	3.270200E+01	  0.116392791	8.507400E+01	  0.116392791	4.144700E+01
483	  0.116593190	-8.323000E+00	  0.116593190	3.177400E+01	  0.116593190	8.615500E+01	  0.116593190	4.080500E+01
484	  0.116793588	-8.349000E+00	  0.116793588	3.075600E+01	  0.116793588	8.729700E+01	  0.116793588	3.999100E+01
485	  0.116993994	-8.378000E+00	  0.116993994	2.979000E+01	  0.116993994	8.834800E+01	  0.116993994	3.914500E+01
486	  0.117194392	-8.407000E+00	  0.117194392	2.875300E+01	  0.117194392	8.946400E+01	  0.117194392	3.821100E+01
487	  0.117394790	-8.435000E+00	  0.117394790	2.780400E+01	  0.117394790	9.045000E+01	  0.117394790	3.729600E+01
488	  0.117595196	-8.474000E+00	  0.117595196	2.678200E+01	  0.117595196	9.144400E+01	  0.117595196	3.620600E+01
489	  0.117795594	-8.515000E+00	  0.117795594	2.578100E+01	  0.117795594	9.236900E+01	  0.117795594	3.508100E+01
490	  0.117995992	-8.560000E+00	  0.117995992	2.473800E+01	  0.117995992	9.328200E+01	  0.117995992	3.385700E+01
491	  0.118196398	-8.609000E+00	  0.118196398	2.368300E+01	  0.118196398	9.413800E+01	  0.118196398	3.255200E+01
492	  0.118396796	-8.662000E+00	  0.118396796	2.261100E+01	  0.118396796	9.493200E+01	  0.118396796	3.117000E+01
493	  0.118597202	-8.722000E+00	  0.118597202	2.153600E+01	  0.118597202	9.562900E+01	  0.118597202	2.970600E+01
494	  0.118797600	-8.786000E+00	  0.118797600	2.039600E+01	  0.118797600	9.629800E+01	  0.118797600	2.812700E+01
495	  0.118997999	-8.857000E+00	  0.118997999	1.928400E+01	  0.118997999	9.682800E+01	  0.118997999	2.651700E+01
496	  0.119198404	-8.931000E+00	  0.119198404	1.811200E+01	  0.119198404	9.731500E+01	  0.119198404	2.481200E+01
497	  0.119398803	-9.010000E+00	  0.119398803	1.699400E+01	  0.119398803	9.763700E+01	  0.119398803	2.313000E+01
498	  0.119599201	-9.093000E+00	  0.119599201	1.578000E+01	  0.119599201	9.793300E+01	  0.119599201	2.132400E+01
499	  0.119799607	-9.182000E+00	  0.119799607	1.454900E+01	  0.119799607	9.810600E+01	  0.119799607	1.947500E+01
500	  0.120000005	-9.275000E+00	  0.120000005	1.329100E+01	  0.120000005	9.818100E+01	  0.120000005	1.759700E+01
