! Anritsu VNA Master:             	Model: MS2036C/10/77
! SN:             	1601066
! /bd0/18may09/254.ew.m4.txt
! Existing Calibration Information:
! TYPE:             	Current Settings	Active Cal Settings
! TIME:             	05/09/2018 10:16:41 AM	05/09/2018 10:08:40 AM
! INTERNAL TEMP:    	48.8 C	48.0 C
! # POINTS:         	500	500
! START FREQ:       	20.000 MHz	20.000 MHz
! STOP FREQ:        	120.000 MHz	120.000 MHz
! SOURCE POWER:     	High	High
! IFBW:             	50 Hz	50 Hz
! AVG FACTOR:       	  1 	  1 
! REF PLANE 1:      	0 mm	0 mm
! REF PLANE 2:      	0 mm	0 mm
! CAL TYPE:         	Full S11	Full S11
! CAL METHOD:       	SOLT	SOLT
! CAL LINE TYPE:    	Coax	Coax
! DUT PORT 1:       	K-Conn(F)	K-Conn(F)
! DUT PORT 2:       	K-Conn(F)	K-Conn(F)
! CAL STATUS:       	OK: Accuracy High	--
! PROP-V:       	0.700
! CABLE LOSS:       	0.000 dB/m
! REF IMPEDANCE:       	50.0
! Trace Specific Parameters:	TR1	TR2	TR3	TR4
! TRACE.#.Y (GRAPH TYPE)	LOG MAG	PHASE	REAL IMPEDANCE	IMAGINARY IMPEDANCE
! TRACE.#.X 	FREQ.GHZ	FREQ.GHZ	FREQ.GHZ	FREQ.GHZ
! S-PARAMETER	S11	S11	S11	S11
! SMOOTH/APERTURE %	0	0	0	0
! WINDOW	NSL	NSL	NSL	NSL
! GATING	OFF	OFF	OFF	OFF
! FGTD	OFF	OFF	OFF	OFF
Marker Information per Trace:	TR1	TR2	TR3	TR4
!MK1	--	"MK1 TR2:  20.000 MHz,PH:-125.09°"	--	--
!MK2	--	--	"MK2 TR3:  70.100 200 MHz,Z:(15.957 ohm, -3.337 ohm)"	--
!MK3	--	--	--	--
!MK4	--	--	--	--
!MK5	--	--	--	--
!MK6	--	--	--	--
!MK7	--	--	--	--
!MK8	--	--	--	--
PNT	TR1.FREQ.GHZ	TR1.LOG MAG.dB	TR2.FREQ.GHZ	TR2.PHASE.deg	TR3.FREQ.GHZ	TR3.REAL IMPEDANCE.ohm	TR4.FREQ.GHZ	TR4.IMAGINARY IMPEDANCE.ohm
1	  0.020000000	-6.140000E-01	  0.020000000	-1.250940E+02	  0.020000000	2.244000E+00	  0.020000000	-2.593400E+01
2	  0.020200402	-6.110000E-01	  0.020200402	-1.265410E+02	  0.020200402	2.205000E+00	  0.020200402	-2.514000E+01
3	  0.020400802	-6.110000E-01	  0.020400802	-1.279890E+02	  0.020400802	2.179000E+00	  0.020400802	-2.435500E+01
4	  0.020601204	-6.110000E-01	  0.020601204	-1.294610E+02	  0.020601204	2.149000E+00	  0.020601204	-2.356600E+01
5	  0.020801604	-6.140000E-01	  0.020801604	-1.309450E+02	  0.020801604	2.136000E+00	  0.020801604	-2.278000E+01
6	  0.021002004	-6.190000E-01	  0.021002004	-1.324580E+02	  0.021002004	2.128000E+00	  0.021002004	-2.198800E+01
7	  0.021202406	-6.250000E-01	  0.021202406	-1.339900E+02	  0.021202406	2.122000E+00	  0.021202406	-2.119600E+01
8	  0.021402806	-6.300000E-01	  0.021402806	-1.355220E+02	  0.021402806	2.117000E+00	  0.021402806	-2.041200E+01
9	  0.021603208	-6.320000E-01	  0.021603208	-1.370510E+02	  0.021603208	2.100000E+00	  0.021603208	-1.963900E+01
10	  0.021803608	-6.360000E-01	  0.021803608	-1.385880E+02	  0.021803608	2.092000E+00	  0.021803608	-1.887000E+01
11	  0.022004008	-6.410000E-01	  0.022004008	-1.401240E+02	  0.022004008	2.088000E+00	  0.022004008	-1.810900E+01
12	  0.022204408	-6.490000E-01	  0.022204408	-1.416740E+02	  0.022204408	2.095000E+00	  0.022204408	-1.734800E+01
13	  0.022404809	-6.540000E-01	  0.022404809	-1.432390E+02	  0.022404809	2.088000E+00	  0.022404809	-1.658700E+01
14	  0.022605211	-6.540000E-01	  0.022605211	-1.448480E+02	  0.022605211	2.070000E+00	  0.022605211	-1.581200E+01
15	  0.022805611	-6.580000E-01	  0.022805611	-1.464300E+02	  0.022805611	2.065000E+00	  0.022805611	-1.505700E+01
16	  0.023006011	-6.630000E-01	  0.023006011	-1.480120E+02	  0.023006011	2.066000E+00	  0.023006011	-1.430800E+01
17	  0.023206413	-6.640000E-01	  0.023206413	-1.495830E+02	  0.023206413	2.052000E+00	  0.023206413	-1.357100E+01
18	  0.023406813	-6.660000E-01	  0.023406813	-1.511600E+02	  0.023406813	2.044000E+00	  0.023406813	-1.283500E+01
19	  0.023607215	-6.690000E-01	  0.023607215	-1.527650E+02	  0.023607215	2.039000E+00	  0.023607215	-1.209300E+01
20	  0.023807615	-6.750000E-01	  0.023807615	-1.543550E+02	  0.023807615	2.044000E+00	  0.023807615	-1.136200E+01
21	  0.024008015	-6.830000E-01	  0.024008015	-1.559770E+02	  0.024008015	2.055000E+00	  0.024008015	-1.062000E+01
22	  0.024208417	-6.910000E-01	  0.024208417	-1.576120E+02	  0.024208417	2.067000E+00	  0.024208417	-9.878000E+00
23	  0.024408817	-6.980000E-01	  0.024408817	-1.592560E+02	  0.024408817	2.077000E+00	  0.024408817	-9.136000E+00
24	  0.024609219	-7.050000E-01	  0.024609219	-1.608890E+02	  0.024609219	2.087000E+00	  0.024609219	-8.402000E+00
25	  0.024809619	-7.140000E-01	  0.024809619	-1.625470E+02	  0.024809619	2.102000E+00	  0.024809619	-7.661000E+00
26	  0.025010020	-7.210000E-01	  0.025010020	-1.641990E+02	  0.025010020	2.116000E+00	  0.025010020	-6.926000E+00
27	  0.025210422	-7.330000E-01	  0.025210422	-1.658580E+02	  0.025210422	2.143000E+00	  0.025210422	-6.190000E+00
28	  0.025410822	-7.440000E-01	  0.025410822	-1.675280E+02	  0.025410822	2.167000E+00	  0.025410822	-5.453000E+00
29	  0.025611224	-7.560000E-01	  0.025611224	-1.692210E+02	  0.025611224	2.195000E+00	  0.025611224	-4.707000E+00
30	  0.025811624	-7.660000E-01	  0.025811624	-1.709370E+02	  0.025811624	2.217000E+00	  0.025811624	-3.954000E+00
31	  0.026012026	-7.750000E-01	  0.026012026	-1.726640E+02	  0.026012026	2.239000E+00	  0.026012026	-3.198000E+00
32	  0.026212426	-7.850000E-01	  0.026212426	-1.743840E+02	  0.026212426	2.264000E+00	  0.026212426	-2.447000E+00
33	  0.026412826	-7.970000E-01	  0.026412826	-1.761100E+02	  0.026412826	2.295000E+00	  0.026412826	-1.694000E+00
34	  0.026613226	-8.090000E-01	  0.026613226	-1.778500E+02	  0.026613226	2.330000E+00	  0.026613226	-9.350000E-01
35	  0.026813626	-8.220000E-01	  0.026813626	-1.796080E+02	  0.026813626	2.365000E+00	  0.026813626	-1.700000E-01
36	  0.027014028	-8.380000E-01	  0.027014028	1.786260E+02	  0.027014028	2.412000E+00	  0.027014028	5.970000E-01
37	  0.027214428	-8.510000E-01	  0.027214428	1.768520E+02	  0.027214428	2.451000E+00	  0.027214428	1.370000E+00
38	  0.027414829	-8.670000E-01	  0.027414829	1.750630E+02	  0.027414829	2.499000E+00	  0.027414829	2.149000E+00
39	  0.027615231	-8.810000E-01	  0.027615231	1.732630E+02	  0.027615231	2.542000E+00	  0.027615231	2.934000E+00
40	  0.027815631	-8.990000E-01	  0.027815631	1.714680E+02	  0.027815631	2.601000E+00	  0.027815631	3.719000E+00
41	  0.028016033	-9.190000E-01	  0.028016033	1.696330E+02	  0.028016033	2.665000E+00	  0.028016033	4.522000E+00
42	  0.028216433	-9.380000E-01	  0.028216433	1.678050E+02	  0.028216433	2.729000E+00	  0.028216433	5.325000E+00
43	  0.028416833	-9.580000E-01	  0.028416833	1.659700E+02	  0.028416833	2.796000E+00	  0.028416833	6.133000E+00
44	  0.028617235	-9.750000E-01	  0.028617235	1.641330E+02	  0.028617235	2.859000E+00	  0.028617235	6.945000E+00
45	  0.028817635	-9.920000E-01	  0.028817635	1.623000E+02	  0.028817635	2.922000E+00	  0.028817635	7.759000E+00
46	  0.029018037	-1.010000E+00	  0.029018037	1.604700E+02	  0.029018037	2.990000E+00	  0.029018037	8.575000E+00
47	  0.029218437	-1.029000E+00	  0.029218437	1.586450E+02	  0.029218437	3.065000E+00	  0.029218437	9.392000E+00
48	  0.029418837	-1.050000E+00	  0.029418837	1.568140E+02	  0.029418837	3.147000E+00	  0.029418837	1.021700E+01
49	  0.029619239	-1.075000E+00	  0.029619239	1.549750E+02	  0.029619239	3.242000E+00	  0.029619239	1.105100E+01
50	  0.029819639	-1.101000E+00	  0.029819639	1.531050E+02	  0.029819639	3.347000E+00	  0.029819639	1.190400E+01
51	  0.030020041	-1.130000E+00	  0.030020041	1.512040E+02	  0.030020041	3.462000E+00	  0.030020041	1.277800E+01
52	  0.030220442	-1.158000E+00	  0.030220442	1.492850E+02	  0.030220442	3.578000E+00	  0.030220442	1.366600E+01
53	  0.030420844	-1.183000E+00	  0.030420844	1.473620E+02	  0.030420844	3.691000E+00	  0.030420844	1.456500E+01
54	  0.030621244	-1.213000E+00	  0.030621244	1.454570E+02	  0.030621244	3.823000E+00	  0.030621244	1.546200E+01
55	  0.030821644	-1.244000E+00	  0.030821644	1.435450E+02	  0.030821644	3.960000E+00	  0.030821644	1.637200E+01
56	  0.031022044	-1.276000E+00	  0.031022044	1.416220E+02	  0.031022044	4.107000E+00	  0.031022044	1.729500E+01
57	  0.031222444	-1.305000E+00	  0.031222444	1.396920E+02	  0.031222444	4.253000E+00	  0.031222444	1.823300E+01
58	  0.031422846	-1.340000E+00	  0.031422846	1.377250E+02	  0.031422846	4.422000E+00	  0.031422846	1.919900E+01
59	  0.031623244	-1.374000E+00	  0.031623244	1.357340E+02	  0.031623244	4.596000E+00	  0.031623244	2.018800E+01
60	  0.031823646	-1.407000E+00	  0.031823646	1.337480E+02	  0.031823646	4.773000E+00	  0.031823646	2.118800E+01
61	  0.032024048	-1.439000E+00	  0.032024048	1.317460E+02	  0.032024048	4.954000E+00	  0.032024048	2.221000E+01
62	  0.032224450	-1.471000E+00	  0.032224450	1.297610E+02	  0.032224450	5.145000E+00	  0.032224450	2.323800E+01
63	  0.032424849	-1.502000E+00	  0.032424849	1.277840E+02	  0.032424849	5.339000E+00	  0.032424849	2.427700E+01
64	  0.032625251	-1.532000E+00	  0.032625251	1.258220E+02	  0.032625251	5.537000E+00	  0.032625251	2.532400E+01
65	  0.032825653	-1.565000E+00	  0.032825653	1.238400E+02	  0.032825653	5.761000E+00	  0.032825653	2.639800E+01
66	  0.033026051	-1.605000E+00	  0.033026051	1.218630E+02	  0.033026051	6.017000E+00	  0.033026051	2.748500E+01
67	  0.033226453	-1.646000E+00	  0.033226453	1.198850E+02	  0.033226453	6.289000E+00	  0.033226453	2.859000E+01
68	  0.033426855	-1.694000E+00	  0.033426855	1.179060E+02	  0.033426855	6.601000E+00	  0.033426855	2.971100E+01
69	  0.033627257	-1.741000E+00	  0.033627257	1.158870E+02	  0.033627257	6.926000E+00	  0.033627257	3.087800E+01
70	  0.033827655	-1.789000E+00	  0.033827655	1.138530E+02	  0.033827655	7.275000E+00	  0.033827655	3.207400E+01
71	  0.034028057	-1.838000E+00	  0.034028057	1.117770E+02	  0.034028057	7.653000E+00	  0.034028057	3.331900E+01
72	  0.034228459	-1.880000E+00	  0.034228459	1.096540E+02	  0.034228459	8.023000E+00	  0.034228459	3.462500E+01
73	  0.034428857	-1.928000E+00	  0.034428857	1.075440E+02	  0.034428857	8.440000E+00	  0.034428857	3.594800E+01
74	  0.034629259	-1.973000E+00	  0.034629259	1.054090E+02	  0.034629259	8.873000E+00	  0.034629259	3.731800E+01
75	  0.034829661	-2.012000E+00	  0.034829661	1.032870E+02	  0.034829661	9.300000E+00	  0.034829661	3.871800E+01
76	  0.035030060	-2.054000E+00	  0.035030060	1.011610E+02	  0.035030060	9.770000E+00	  0.035030060	4.015300E+01
77	  0.035230462	-2.095000E+00	  0.035230462	9.906700E+01	  0.035230462	1.026100E+01	  0.035230462	4.160200E+01
78	  0.035430863	-2.135000E+00	  0.035430863	9.697800E+01	  0.035430863	1.077900E+01	  0.035430863	4.308600E+01
79	  0.035631265	-2.173000E+00	  0.035631265	9.488600E+01	  0.035631265	1.132200E+01	  0.035631265	4.461400E+01
80	  0.035831664	-2.213000E+00	  0.035831664	9.282700E+01	  0.035831664	1.190300E+01	  0.035831664	4.615500E+01
81	  0.036032066	-2.256000E+00	  0.036032066	9.076400E+01	  0.036032066	1.254400E+01	  0.036032066	4.773700E+01
82	  0.036232468	-2.298000E+00	  0.036232468	8.871700E+01	  0.036232468	1.321800E+01	  0.036232468	4.935300E+01
83	  0.036432866	-2.347000E+00	  0.036432866	8.669000E+01	  0.036432866	1.397200E+01	  0.036432866	5.098600E+01
84	  0.036633268	-2.397000E+00	  0.036633268	8.464800E+01	  0.036633268	1.478900E+01	  0.036633268	5.267400E+01
85	  0.036833670	-2.450000E+00	  0.036833670	8.263000E+01	  0.036833670	1.567700E+01	  0.036833670	5.438300E+01
86	  0.037034072	-2.507000E+00	  0.037034072	8.057500E+01	  0.037034072	1.666300E+01	  0.037034072	5.616600E+01
87	  0.037234470	-2.565000E+00	  0.037234470	7.851600E+01	  0.037234470	1.773800E+01	  0.037234470	5.799600E+01
88	  0.037434869	-2.624000E+00	  0.037434869	7.641200E+01	  0.037434869	1.890900E+01	  0.037434869	5.992300E+01
89	  0.037635271	-2.679000E+00	  0.037635271	7.430600E+01	  0.037635271	2.015200E+01	  0.037635271	6.191500E+01
90	  0.037835669	-2.738000E+00	  0.037835669	7.215000E+01	  0.037835669	2.155400E+01	  0.037835669	6.400400E+01
91	  0.038036071	-2.797000E+00	  0.038036071	6.999600E+01	  0.038036071	2.306600E+01	  0.038036071	6.615200E+01
92	  0.038236473	-2.855000E+00	  0.038236473	6.786100E+01	  0.038236473	2.469500E+01	  0.038236473	6.834100E+01
93	  0.038436871	-2.908000E+00	  0.038436871	6.570800E+01	  0.038436871	2.643500E+01	  0.038436871	7.063300E+01
94	  0.038637273	-2.961000E+00	  0.038637273	6.359500E+01	  0.038637273	2.830500E+01	  0.038637273	7.293900E+01
95	  0.038837675	-3.004000E+00	  0.038837675	6.149200E+01	  0.038837675	3.025100E+01	  0.038837675	7.534600E+01
96	  0.039038073	-3.048000E+00	  0.039038073	5.943700E+01	  0.039038073	3.234900E+01	  0.039038073	7.774700E+01
97	  0.039238475	-3.094000E+00	  0.039238475	5.739200E+01	  0.039238475	3.463300E+01	  0.039238475	8.018800E+01
98	  0.039438877	-3.143000E+00	  0.039438877	5.537300E+01	  0.039438877	3.713700E+01	  0.039438877	8.261900E+01
99	  0.039639279	-3.193000E+00	  0.039639279	5.337800E+01	  0.039639279	3.984400E+01	  0.039639279	8.505300E+01
100	  0.039839678	-3.250000E+00	  0.039839678	5.135500E+01	  0.039839678	4.290700E+01	  0.039839678	8.748700E+01
101	  0.040040080	-3.308000E+00	  0.040040080	4.931400E+01	  0.040040080	4.628600E+01	  0.040040080	8.994400E+01
102	  0.040240481	-3.364000E+00	  0.040240481	4.728000E+01	  0.040240481	4.994100E+01	  0.040240481	9.240100E+01
103	  0.040440880	-3.424000E+00	  0.040440880	4.520600E+01	  0.040440880	5.405900E+01	  0.040440880	9.482500E+01
104	  0.040641282	-3.481000E+00	  0.040641282	4.316100E+01	  0.040641282	5.847000E+01	  0.040641282	9.717600E+01
105	  0.040841684	-3.538000E+00	  0.040841684	4.108600E+01	  0.040841684	6.336800E+01	  0.040841684	9.944500E+01
106	  0.041042086	-3.592000E+00	  0.041042086	3.904800E+01	  0.041042086	6.859200E+01	  0.041042086	1.015640E+02
107	  0.041242484	-3.644000E+00	  0.041242484	3.698500E+01	  0.041242484	7.434500E+01	  0.041242484	1.035330E+02
108	  0.041442886	-3.697000E+00	  0.041442886	3.493100E+01	  0.041442886	8.059400E+01	  0.041442886	1.052000E+02
109	  0.041643288	-3.750000E+00	  0.041643288	3.285700E+01	  0.041643288	8.743600E+01	  0.041643288	1.065300E+02
110	  0.041843686	-3.798000E+00	  0.041843686	3.080500E+01	  0.041843686	9.473000E+01	  0.041843686	1.074820E+02
111	  0.042044088	-3.845000E+00	  0.042044088	2.876800E+01	  0.042044088	1.025230E+02	  0.042044088	1.078750E+02
112	  0.042244490	-3.894000E+00	  0.042244490	2.674200E+01	  0.042244490	1.108050E+02	  0.042244490	1.075570E+02
113	  0.042444889	-3.941000E+00	  0.042444889	2.474400E+01	  0.042444889	1.194360E+02	  0.042444889	1.064700E+02
114	  0.042645290	-3.990000E+00	  0.042645290	2.274000E+01	  0.042645290	1.284830E+02	  0.042645290	1.043860E+02
115	  0.042845692	-4.037000E+00	  0.042845692	2.074700E+01	  0.042845692	1.377650E+02	  0.042845692	1.013010E+02
116	  0.043046094	-4.083000E+00	  0.043046094	1.875400E+01	  0.043046094	1.471870E+02	  0.043046094	9.704600E+01
117	  0.043246493	-4.132000E+00	  0.043246493	1.675900E+01	  0.043246493	1.564990E+02	  0.043246493	9.136900E+01
118	  0.043446895	-4.178000E+00	  0.043446895	1.477100E+01	  0.043446895	1.654980E+02	  0.043446895	8.441700E+01
119	  0.043647297	-4.221000E+00	  0.043647297	1.277800E+01	  0.043647297	1.740120E+02	  0.043647297	7.615900E+01
120	  0.043847695	-4.269000E+00	  0.043847695	1.081900E+01	  0.043847695	1.813530E+02	  0.043847695	6.653800E+01
121	  0.044048097	-4.317000E+00	  0.044048097	8.854000E+00	  0.044048097	1.875890E+02	  0.044048097	5.576900E+01
122	  0.044248499	-4.364000E+00	  0.044248499	6.870000E+00	  0.044248499	1.924670E+02	  0.044248499	4.394700E+01
123	  0.044448901	-4.410000E+00	  0.044448901	4.934000E+00	  0.044448901	1.956310E+02	  0.044448901	3.175100E+01
124	  0.044649299	-4.454000E+00	  0.044649299	2.988000E+00	  0.044649299	1.972570E+02	  0.044649299	1.919800E+01
125	  0.044849701	-4.494000E+00	  0.044849701	1.035000E+00	  0.044849701	1.973200E+02	  0.044849701	6.596000E+00
126	  0.045050103	-4.532000E+00	  0.045050103	-8.950000E-01	  0.045050103	1.958080E+02	  0.045050103	-5.605000E+00
127	  0.045250501	-4.571000E+00	  0.045250501	-2.817000E+00	  0.045250501	1.927300E+02	  0.045250501	-1.719500E+01
128	  0.045450903	-4.611000E+00	  0.045450903	-4.710000E+00	  0.045450903	1.883280E+02	  0.045450903	-2.780300E+01
129	  0.045651305	-4.652000E+00	  0.045651305	-6.598000E+00	  0.045651305	1.829050E+02	  0.045651305	-3.742600E+01
130	  0.045851704	-4.691000E+00	  0.045851704	-8.464000E+00	  0.045851704	1.767350E+02	  0.045851704	-4.589800E+01
131	  0.046052106	-4.728000E+00	  0.046052106	-1.032900E+01	  0.046052106	1.700510E+02	  0.046052106	-5.333500E+01
132	  0.046252504	-4.766000E+00	  0.046252504	-1.219000E+01	  0.046252504	1.629790E+02	  0.046252504	-5.967600E+01
133	  0.046452906	-4.800000E+00	  0.046452906	-1.403100E+01	  0.046452906	1.558350E+02	  0.046452906	-6.500000E+01
134	  0.046653304	-4.833000E+00	  0.046653304	-1.589000E+01	  0.046653304	1.485780E+02	  0.046653304	-6.946400E+01
135	  0.046853706	-4.866000E+00	  0.046853706	-1.771600E+01	  0.046853706	1.414780E+02	  0.046853706	-7.296100E+01
136	  0.047054108	-4.896000E+00	  0.047054108	-1.953200E+01	  0.047054108	1.345890E+02	  0.047054108	-7.574300E+01
137	  0.047254506	-4.926000E+00	  0.047254506	-2.134100E+01	  0.047254506	1.279120E+02	  0.047254506	-7.782800E+01
138	  0.047454908	-4.955000E+00	  0.047454908	-2.313200E+01	  0.047454908	1.215560E+02	  0.047454908	-7.933000E+01
139	  0.047655310	-4.984000E+00	  0.047655310	-2.490600E+01	  0.047655310	1.155200E+02	  0.047655310	-8.028900E+01
140	  0.047855709	-5.012000E+00	  0.047855709	-2.664600E+01	  0.047855709	1.098890E+02	  0.047855709	-8.084200E+01
141	  0.048056111	-5.041000E+00	  0.048056111	-2.837400E+01	  0.048056111	1.045720E+02	  0.048056111	-8.100400E+01
142	  0.048256513	-5.072000E+00	  0.048256513	-3.010200E+01	  0.048256513	9.954200E+01	  0.048256513	-8.081100E+01
143	  0.048456915	-5.100000E+00	  0.048456915	-3.182400E+01	  0.048456915	9.481900E+01	  0.048456915	-8.044700E+01
144	  0.048657313	-5.128000E+00	  0.048657313	-3.353700E+01	  0.048657313	9.039200E+01	  0.048657313	-7.985200E+01
145	  0.048857715	-5.154000E+00	  0.048857715	-3.526200E+01	  0.048857715	8.619600E+01	  0.048857715	-7.913000E+01
146	  0.049058117	-5.181000E+00	  0.049058117	-3.697100E+01	  0.049058117	8.229100E+01	  0.049058117	-7.824100E+01
147	  0.049258515	-5.203000E+00	  0.049258515	-3.865400E+01	  0.049258515	7.866700E+01	  0.049258515	-7.731700E+01
148	  0.049458917	-5.227000E+00	  0.049458917	-4.034900E+01	  0.049458917	7.523900E+01	  0.049458917	-7.626100E+01
149	  0.049659319	-5.251000E+00	  0.049659319	-4.202100E+01	  0.049659319	7.206400E+01	  0.049659319	-7.512900E+01
150	  0.049859721	-5.276000E+00	  0.049859721	-4.368900E+01	  0.049859721	6.908900E+01	  0.049859721	-7.393400E+01
151	  0.050060119	-5.300000E+00	  0.050060119	-4.535800E+01	  0.050060119	6.629000E+01	  0.050060119	-7.269400E+01
152	  0.050260521	-5.320000E+00	  0.050260521	-4.703900E+01	  0.050260521	6.362500E+01	  0.050260521	-7.145700E+01
153	  0.050460923	-5.340000E+00	  0.050460923	-4.869700E+01	  0.050460923	6.114800E+01	  0.050460923	-7.021000E+01
154	  0.050661322	-5.358000E+00	  0.050661322	-5.036100E+01	  0.050661322	5.880200E+01	  0.050661322	-6.894700E+01
155	  0.050861724	-5.373000E+00	  0.050861724	-5.198000E+01	  0.050861724	5.664000E+01	  0.050861724	-6.772700E+01
156	  0.051062126	-5.388000E+00	  0.051062126	-5.362200E+01	  0.051062126	5.457000E+01	  0.051062126	-6.647700E+01
157	  0.051262524	-5.400000E+00	  0.051262524	-5.520900E+01	  0.051262524	5.267100E+01	  0.051262524	-6.527600E+01
158	  0.051462926	-5.414000E+00	  0.051462926	-5.676700E+01	  0.051462926	5.090900E+01	  0.051462926	-6.408700E+01
159	  0.051663328	-5.424000E+00	  0.051663328	-5.831400E+01	  0.051663328	4.924200E+01	  0.051663328	-6.292000E+01
160	  0.051863730	-5.440000E+00	  0.051863730	-5.985600E+01	  0.051863730	4.768700E+01	  0.051863730	-6.172800E+01
161	  0.052064128	-5.457000E+00	  0.052064128	-6.139400E+01	  0.052064128	4.622600E+01	  0.052064128	-6.053300E+01
162	  0.052264530	-5.470000E+00	  0.052264530	-6.292400E+01	  0.052264530	4.482900E+01	  0.052264530	-5.937600E+01
163	  0.052464932	-5.487000E+00	  0.052464932	-6.446300E+01	  0.052464932	4.351400E+01	  0.052464932	-5.819600E+01
164	  0.052665330	-5.501000E+00	  0.052665330	-6.600800E+01	  0.052665330	4.224500E+01	  0.052665330	-5.704500E+01
165	  0.052865732	-5.515000E+00	  0.052865732	-6.753300E+01	  0.052865732	4.105700E+01	  0.052865732	-5.591600E+01
166	  0.053066134	-5.527000E+00	  0.053066134	-6.906000E+01	  0.053066134	3.991900E+01	  0.053066134	-5.480500E+01
167	  0.053266536	-5.538000E+00	  0.053266536	-7.058500E+01	  0.053266536	3.883000E+01	  0.053266536	-5.371500E+01
168	  0.053466935	-5.545000E+00	  0.053466935	-7.208400E+01	  0.053466935	3.779400E+01	  0.053466935	-5.267200E+01
169	  0.053667337	-5.552000E+00	  0.053667337	-7.359000E+01	  0.053667337	3.680300E+01	  0.053667337	-5.163400E+01
170	  0.053867739	-5.557000E+00	  0.053867739	-7.508200E+01	  0.053867739	3.585700E+01	  0.053867739	-5.062500E+01
171	  0.054068137	-5.560000E+00	  0.054068137	-7.655900E+01	  0.054068137	3.495500E+01	  0.054068137	-4.964300E+01
172	  0.054268539	-5.563000E+00	  0.054268539	-7.802200E+01	  0.054268539	3.409800E+01	  0.054268539	-4.868300E+01
173	  0.054468941	-5.567000E+00	  0.054468941	-7.944800E+01	  0.054468941	3.330600E+01	  0.054468941	-4.775000E+01
174	  0.054669339	-5.569000E+00	  0.054669339	-8.086900E+01	  0.054669339	3.254400E+01	  0.054669339	-4.683500E+01
175	  0.054869737	-5.574000E+00	  0.054869737	-8.225800E+01	  0.054869737	3.184200E+01	  0.054869737	-4.594100E+01
176	  0.055070139	-5.578000E+00	  0.055070139	-8.364600E+01	  0.055070139	3.116300E+01	  0.055070139	-4.506200E+01
177	  0.055270538	-5.587000E+00	  0.055270538	-8.502100E+01	  0.055270538	3.054000E+01	  0.055270538	-4.418300E+01
178	  0.055470940	-5.593000E+00	  0.055470940	-8.640400E+01	  0.055470940	2.992600E+01	  0.055470940	-4.331900E+01
179	  0.055671342	-5.599000E+00	  0.055671342	-8.778800E+01	  0.055671342	2.933400E+01	  0.055671342	-4.246600E+01
180	  0.055871744	-5.605000E+00	  0.055871744	-8.919800E+01	  0.055871744	2.875800E+01	  0.055871744	-4.160700E+01
181	  0.056072142	-5.615000E+00	  0.056072142	-9.054700E+01	  0.056072142	2.824300E+01	  0.056072142	-4.078400E+01
182	  0.056272544	-5.619000E+00	  0.056272544	-9.193300E+01	  0.056272544	2.771200E+01	  0.056272544	-3.996300E+01
183	  0.056472946	-5.625000E+00	  0.056472946	-9.330700E+01	  0.056472946	2.721400E+01	  0.056472946	-3.915400E+01
184	  0.056673344	-5.629000E+00	  0.056673344	-9.469300E+01	  0.056673344	2.672400E+01	  0.056673344	-3.835200E+01
185	  0.056873746	-5.632000E+00	  0.056873746	-9.604900E+01	  0.056873746	2.625800E+01	  0.056873746	-3.757900E+01
186	  0.057074148	-5.633000E+00	  0.057074148	-9.741600E+01	  0.057074148	2.580200E+01	  0.057074148	-3.681000E+01
187	  0.057274550	-5.637000E+00	  0.057274550	-9.879200E+01	  0.057274550	2.536700E+01	  0.057274550	-3.604200E+01
188	  0.057474948	-5.637000E+00	  0.057474948	-1.001290E+02	  0.057474948	2.494900E+01	  0.057474948	-3.530900E+01
189	  0.057675350	-5.636000E+00	  0.057675350	-1.014840E+02	  0.057675350	2.453500E+01	  0.057675350	-3.457600E+01
190	  0.057875752	-5.635000E+00	  0.057875752	-1.027990E+02	  0.057875752	2.415200E+01	  0.057875752	-3.387000E+01
191	  0.058076151	-5.639000E+00	  0.058076151	-1.040820E+02	  0.058076151	2.380300E+01	  0.058076151	-3.318100E+01
192	  0.058276553	-5.639000E+00	  0.058276553	-1.053740E+02	  0.058276553	2.345600E+01	  0.058276553	-3.249900E+01
193	  0.058476955	-5.638000E+00	  0.058476955	-1.066230E+02	  0.058476955	2.312400E+01	  0.058476955	-3.184900E+01
194	  0.058677353	-5.642000E+00	  0.058677353	-1.079110E+02	  0.058677353	2.281100E+01	  0.058677353	-3.117600E+01
195	  0.058877755	-5.648000E+00	  0.058877755	-1.091810E+02	  0.058877755	2.252100E+01	  0.058877755	-3.051600E+01
196	  0.059078157	-5.652000E+00	  0.059078157	-1.104390E+02	  0.059078157	2.223800E+01	  0.059078157	-2.986900E+01
197	  0.059278559	-5.653000E+00	  0.059278559	-1.117010E+02	  0.059278559	2.195500E+01	  0.059278559	-2.923200E+01
198	  0.059478957	-5.657000E+00	  0.059478957	-1.129600E+02	  0.059478957	2.169100E+01	  0.059478957	-2.859800E+01
199	  0.059679359	-5.666000E+00	  0.059679359	-1.142130E+02	  0.059679359	2.145300E+01	  0.059679359	-2.796500E+01
200	  0.059879761	-5.665000E+00	  0.059879761	-1.154920E+02	  0.059879761	2.118700E+01	  0.059879761	-2.733900E+01
201	  0.060080159	-5.668000E+00	  0.060080159	-1.167220E+02	  0.060080159	2.095100E+01	  0.060080159	-2.673700E+01
202	  0.060280561	-5.667000E+00	  0.060280561	-1.179770E+02	  0.060280561	2.070800E+01	  0.060280561	-2.613200E+01
203	  0.060480963	-5.672000E+00	  0.060480963	-1.191980E+02	  0.060480963	2.049700E+01	  0.060480963	-2.554200E+01
204	  0.060681365	-5.673000E+00	  0.060681365	-1.204310E+02	  0.060681365	2.027800E+01	  0.060681365	-2.495500E+01
205	  0.060881764	-5.671000E+00	  0.060881764	-1.216550E+02	  0.060881764	2.005900E+01	  0.060881764	-2.438100E+01
206	  0.061082166	-5.672000E+00	  0.061082166	-1.228650E+02	  0.061082166	1.986000E+01	  0.061082166	-2.381200E+01
207	  0.061282568	-5.669000E+00	  0.061282568	-1.240880E+02	  0.061282568	1.965300E+01	  0.061282568	-2.324700E+01
208	  0.061482966	-5.669000E+00	  0.061482966	-1.252660E+02	  0.061482966	1.946600E+01	  0.061482966	-2.270400E+01
209	  0.061683368	-5.668000E+00	  0.061683368	-1.264210E+02	  0.061683368	1.928800E+01	  0.061683368	-2.217500E+01
210	  0.061883770	-5.668000E+00	  0.061883770	-1.276090E+02	  0.061883770	1.911500E+01	  0.061883770	-2.163300E+01
211	  0.062084168	-5.669000E+00	  0.062084168	-1.287530E+02	  0.062084168	1.895600E+01	  0.062084168	-2.111400E+01
212	  0.062284570	-5.671000E+00	  0.062284570	-1.299160E+02	  0.062284570	1.880100E+01	  0.062284570	-2.058900E+01
213	  0.062484972	-5.663000E+00	  0.062484972	-1.309910E+02	  0.062484972	1.863300E+01	  0.062484972	-2.011600E+01
214	  0.062685370	-5.671000E+00	  0.062685370	-1.321470E+02	  0.062685370	1.851000E+01	  0.062685370	-1.959400E+01
215	  0.062885776	-5.672000E+00	  0.062885776	-1.333070E+02	  0.062885776	1.836700E+01	  0.062885776	-1.908100E+01
216	  0.063086174	-5.675000E+00	  0.063086174	-1.344580E+02	  0.063086174	1.823700E+01	  0.063086174	-1.857200E+01
217	  0.063286573	-5.674000E+00	  0.063286573	-1.356120E+02	  0.063286573	1.809900E+01	  0.063286573	-1.806800E+01
218	  0.063486971	-5.675000E+00	  0.063486971	-1.367750E+02	  0.063486971	1.797400E+01	  0.063486971	-1.756100E+01
219	  0.063687377	-5.675000E+00	  0.063687377	-1.379020E+02	  0.063687377	1.785000E+01	  0.063687377	-1.707400E+01
220	  0.063887775	-5.674000E+00	  0.063887775	-1.390550E+02	  0.063887775	1.772700E+01	  0.063887775	-1.657800E+01
221	  0.064088173	-5.673000E+00	  0.064088173	-1.401900E+02	  0.064088173	1.760900E+01	  0.064088173	-1.609300E+01
222	  0.064288579	-5.671000E+00	  0.064288579	-1.413360E+02	  0.064288579	1.749300E+01	  0.064288579	-1.560500E+01
223	  0.064488977	-5.671000E+00	  0.064488977	-1.424550E+02	  0.064488977	1.738800E+01	  0.064488977	-1.513000E+01
224	  0.064689375	-5.670000E+00	  0.064689375	-1.435400E+02	  0.064689375	1.728700E+01	  0.064689375	-1.467200E+01
225	  0.064889781	-5.667000E+00	  0.064889781	-1.446500E+02	  0.064889781	1.718300E+01	  0.064889781	-1.420700E+01
226	  0.065090179	-5.667000E+00	  0.065090179	-1.457350E+02	  0.065090179	1.709300E+01	  0.065090179	-1.375200E+01
227	  0.065290578	-5.667000E+00	  0.065290578	-1.468000E+02	  0.065290578	1.700600E+01	  0.065290578	-1.330700E+01
228	  0.065490983	-5.668000E+00	  0.065490983	-1.478710E+02	  0.065490983	1.692700E+01	  0.065490983	-1.286100E+01
229	  0.065691382	-5.667000E+00	  0.065691382	-1.489440E+02	  0.065691382	1.684400E+01	  0.065691382	-1.241700E+01
230	  0.065891780	-5.670000E+00	  0.065891780	-1.500300E+02	  0.065891780	1.677400E+01	  0.065891780	-1.196700E+01
231	  0.066092186	-5.670000E+00	  0.066092186	-1.510800E+02	  0.066092186	1.670400E+01	  0.066092186	-1.153500E+01
232	  0.066292584	-5.671000E+00	  0.066292584	-1.521570E+02	  0.066292584	1.663500E+01	  0.066292584	-1.109300E+01
233	  0.066492982	-5.673000E+00	  0.066492982	-1.531920E+02	  0.066492982	1.657400E+01	  0.066492982	-1.066900E+01
234	  0.066693388	-5.672000E+00	  0.066693388	-1.542500E+02	  0.066693388	1.650900E+01	  0.066693388	-1.023800E+01
235	  0.066893786	-5.675000E+00	  0.066893786	-1.553100E+02	  0.066893786	1.645400E+01	  0.066893786	-9.806000E+00
236	  0.067094192	-5.674000E+00	  0.067094192	-1.563570E+02	  0.067094192	1.639400E+01	  0.067094192	-9.382000E+00
237	  0.067294590	-5.679000E+00	  0.067294590	-1.573890E+02	  0.067294590	1.635300E+01	  0.067294590	-8.963000E+00
238	  0.067494988	-5.678000E+00	  0.067494988	-1.584330E+02	  0.067494988	1.629800E+01	  0.067494988	-8.542000E+00
239	  0.067695394	-5.678000E+00	  0.067695394	-1.594750E+02	  0.067695394	1.625000E+01	  0.067695394	-8.123000E+00
240	  0.067895792	-5.680000E+00	  0.067895792	-1.605170E+02	  0.067895792	1.620900E+01	  0.067895792	-7.704000E+00
241	  0.068096191	-5.683000E+00	  0.068096191	-1.615270E+02	  0.068096191	1.617500E+01	  0.068096191	-7.299000E+00
242	  0.068296596	-5.687000E+00	  0.068296596	-1.625450E+02	  0.068296596	1.614400E+01	  0.068296596	-6.891000E+00
243	  0.068496995	-5.688000E+00	  0.068496995	-1.635690E+02	  0.068496995	1.610800E+01	  0.068496995	-6.483000E+00
244	  0.068697393	-5.684000E+00	  0.068697393	-1.645640E+02	  0.068697393	1.606200E+01	  0.068697393	-6.088000E+00
245	  0.068897791	-5.694000E+00	  0.068897791	-1.655890E+02	  0.068897791	1.605500E+01	  0.068897791	-5.678000E+00
246	  0.069098189	-5.695000E+00	  0.069098189	-1.665690E+02	  0.069098189	1.602600E+01	  0.069098189	-5.289000E+00
247	  0.069298595	-5.690000E+00	  0.069298595	-1.675610E+02	  0.069298595	1.598500E+01	  0.069298595	-4.897000E+00
248	  0.069498993	-5.696000E+00	  0.069498993	-1.685660E+02	  0.069498993	1.597500E+01	  0.069498993	-4.498000E+00
249	  0.069699399	-5.701000E+00	  0.069699399	-1.695790E+02	  0.069699399	1.596400E+01	  0.069699399	-4.097000E+00
250	  0.069899797	-5.705000E+00	  0.069899797	-1.705460E+02	  0.069899797	1.595400E+01	  0.069899797	-3.715000E+00
251	  0.070100196	-5.714000E+00	  0.070100196	-1.715040E+02	  0.070100196	1.595600E+01	  0.070100196	-3.337000E+00
252	  0.070300601	-5.711000E+00	  0.070300601	-1.724970E+02	  0.070300601	1.593100E+01	  0.070300601	-2.946000E+00
253	  0.070501000	-5.714000E+00	  0.070501000	-1.734820E+02	  0.070501000	1.592500E+01	  0.070501000	-2.558000E+00
254	  0.070701398	-5.718000E+00	  0.070701398	-1.744430E+02	  0.070701398	1.592200E+01	  0.070701398	-2.181000E+00
255	  0.070901804	-5.719000E+00	  0.070901804	-1.754280E+02	  0.070901804	1.591500E+01	  0.070901804	-1.793000E+00
256	  0.071102202	-5.723000E+00	  0.071102202	-1.764120E+02	  0.071102202	1.591500E+01	  0.071102202	-1.407000E+00
257	  0.071302600	-5.734000E+00	  0.071302600	-1.773680E+02	  0.071302600	1.593700E+01	  0.071302600	-1.031000E+00
258	  0.071503006	-5.732000E+00	  0.071503006	-1.783150E+02	  0.071503006	1.592800E+01	  0.071503006	-6.600000E-01
259	  0.071703404	-5.742000E+00	  0.071703404	-1.792740E+02	  0.071703404	1.595200E+01	  0.071703404	-2.840000E-01
260	  0.071903802	-5.747000E+00	  0.071903802	1.797770E+02	  0.071903802	1.596400E+01	  0.071903802	8.700000E-02
261	  0.072104208	-5.751000E+00	  0.072104208	1.788240E+02	  0.072104208	1.597500E+01	  0.072104208	4.600000E-01
262	  0.072304606	-5.755000E+00	  0.072304606	1.778860E+02	  0.072304606	1.598900E+01	  0.072304606	8.270000E-01
263	  0.072505005	-5.762000E+00	  0.072505005	1.769450E+02	  0.072505005	1.601200E+01	  0.072505005	1.196000E+00
264	  0.072705410	-5.769000E+00	  0.072705410	1.760180E+02	  0.072705410	1.603700E+01	  0.072705410	1.559000E+00
265	  0.072905809	-5.774000E+00	  0.072905809	1.750930E+02	  0.072905809	1.606100E+01	  0.072905809	1.921000E+00
266	  0.073106214	-5.778000E+00	  0.073106214	1.741730E+02	  0.073106214	1.608200E+01	  0.073106214	2.281000E+00
267	  0.073306613	-5.786000E+00	  0.073306613	1.732230E+02	  0.073306613	1.611500E+01	  0.073306613	2.653000E+00
268	  0.073507011	-5.792000E+00	  0.073507011	1.723250E+02	  0.073507011	1.614500E+01	  0.073507011	3.005000E+00
269	  0.073707417	-5.799000E+00	  0.073707417	1.713790E+02	  0.073707417	1.618000E+01	  0.073707417	3.375000E+00
270	  0.073907815	-5.802000E+00	  0.073907815	1.704780E+02	  0.073907815	1.620600E+01	  0.073907815	3.729000E+00
271	  0.074108213	-5.811000E+00	  0.074108213	1.695720E+02	  0.074108213	1.624900E+01	  0.074108213	4.084000E+00
272	  0.074308619	-5.811000E+00	  0.074308619	1.686630E+02	  0.074308619	1.627200E+01	  0.074308619	4.441000E+00
273	  0.074509017	-5.820000E+00	  0.074509017	1.677190E+02	  0.074509017	1.631800E+01	  0.074509017	4.812000E+00
274	  0.074709415	-5.822000E+00	  0.074709415	1.668260E+02	  0.074709415	1.635100E+01	  0.074709415	5.163000E+00
275	  0.074909821	-5.831000E+00	  0.074909821	1.659500E+02	  0.074909821	1.640100E+01	  0.074909821	5.507000E+00
276	  0.075110219	-5.838000E+00	  0.075110219	1.650610E+02	  0.075110219	1.644800E+01	  0.075110219	5.856000E+00
277	  0.075310618	-5.844000E+00	  0.075310618	1.641540E+02	  0.075310618	1.649600E+01	  0.075310618	6.213000E+00
278	  0.075511023	-5.852000E+00	  0.075511023	1.632740E+02	  0.075511023	1.654700E+01	  0.075511023	6.560000E+00
279	  0.075711422	-5.855000E+00	  0.075711422	1.624230E+02	  0.075711422	1.658800E+01	  0.075711422	6.896000E+00
280	  0.075911827	-5.866000E+00	  0.075911827	1.615430E+02	  0.075911827	1.665400E+01	  0.075911827	7.242000E+00
281	  0.076112226	-5.873000E+00	  0.076112226	1.606250E+02	  0.076112226	1.671300E+01	  0.076112226	7.605000E+00
282	  0.076312624	-5.877000E+00	  0.076312624	1.597650E+02	  0.076312624	1.676000E+01	  0.076312624	7.946000E+00
283	  0.076513030	-5.885000E+00	  0.076513030	1.588710E+02	  0.076513030	1.682600E+01	  0.076513030	8.300000E+00
284	  0.076713428	-5.892000E+00	  0.076713428	1.579930E+02	  0.076713428	1.688700E+01	  0.076713428	8.649000E+00
285	  0.076913826	-5.900000E+00	  0.076913826	1.571070E+02	  0.076913826	1.695400E+01	  0.076913826	9.000000E+00
286	  0.077114232	-5.901000E+00	  0.077114232	1.562530E+02	  0.077114232	1.700400E+01	  0.077114232	9.342000E+00
287	  0.077314630	-5.909000E+00	  0.077314630	1.553910E+02	  0.077314630	1.707300E+01	  0.077314630	9.685000E+00
288	  0.077515028	-5.916000E+00	  0.077515028	1.545680E+02	  0.077515028	1.714000E+01	  0.077515028	1.001300E+01
289	  0.077715434	-5.921000E+00	  0.077715434	1.536990E+02	  0.077715434	1.720800E+01	  0.077715434	1.036200E+01
290	  0.077915832	-5.931000E+00	  0.077915832	1.528560E+02	  0.077915832	1.728600E+01	  0.077915832	1.069800E+01
291	  0.078116231	-5.941000E+00	  0.078116231	1.520170E+02	  0.078116231	1.736800E+01	  0.078116231	1.103300E+01
292	  0.078316636	-5.950000E+00	  0.078316636	1.511530E+02	  0.078316636	1.745000E+01	  0.078316636	1.137900E+01
293	  0.078517035	-5.964000E+00	  0.078517035	1.502980E+02	  0.078517035	1.754800E+01	  0.078517035	1.172000E+01
294	  0.078717433	-5.974000E+00	  0.078717433	1.494540E+02	  0.078717433	1.763700E+01	  0.078717433	1.205900E+01
295	  0.078917839	-5.983000E+00	  0.078917839	1.486160E+02	  0.078917839	1.772600E+01	  0.078917839	1.239500E+01
296	  0.079118237	-5.999000E+00	  0.079118237	1.477800E+02	  0.079118237	1.783400E+01	  0.079118237	1.272900E+01
297	  0.079318643	-6.011000E+00	  0.079318643	1.469120E+02	  0.079318643	1.793500E+01	  0.079318643	1.307800E+01
298	  0.079519041	-6.024000E+00	  0.079519041	1.460720E+02	  0.079519041	1.804000E+01	  0.079519041	1.341600E+01
299	  0.079719439	-6.033000E+00	  0.079719439	1.452220E+02	  0.079719439	1.813700E+01	  0.079719439	1.376100E+01
300	  0.079919845	-6.050000E+00	  0.079919845	1.443980E+02	  0.079919845	1.825800E+01	  0.079919845	1.409000E+01
301	  0.080120243	-6.061000E+00	  0.080120243	1.435210E+02	  0.080120243	1.836700E+01	  0.080120243	1.444600E+01
302	  0.080320641	-6.069000E+00	  0.080320641	1.426450E+02	  0.080320641	1.847300E+01	  0.080320641	1.480400E+01
303	  0.080521047	-6.084000E+00	  0.080521047	1.418120E+02	  0.080521047	1.859200E+01	  0.080521047	1.514100E+01
304	  0.080721445	-6.093000E+00	  0.080721445	1.409520E+02	  0.080721445	1.870600E+01	  0.080721445	1.549300E+01
305	  0.080921844	-6.109000E+00	  0.080921844	1.401130E+02	  0.080921844	1.883500E+01	  0.080921844	1.583300E+01
306	  0.081122249	-6.117000E+00	  0.081122249	1.392680E+02	  0.081122249	1.894700E+01	  0.081122249	1.618100E+01
307	  0.081322648	-6.129000E+00	  0.081322648	1.384340E+02	  0.081322648	1.906900E+01	  0.081322648	1.652300E+01
308	  0.081523046	-6.141000E+00	  0.081523046	1.375820E+02	  0.081523046	1.919900E+01	  0.081523046	1.687200E+01
309	  0.081723452	-6.151000E+00	  0.081723452	1.367330E+02	  0.081723452	1.932400E+01	  0.081723452	1.722300E+01
310	  0.081923850	-6.167000E+00	  0.081923850	1.358880E+02	  0.081923850	1.946600E+01	  0.081923850	1.756900E+01
311	  0.082124248	-6.178000E+00	  0.082124248	1.350990E+02	  0.082124248	1.959300E+01	  0.082124248	1.789600E+01
312	  0.082324654	-6.189000E+00	  0.082324654	1.342890E+02	  0.082324654	1.972300E+01	  0.082324654	1.823200E+01
313	  0.082525052	-6.203000E+00	  0.082525052	1.334710E+02	  0.082525052	1.986800E+01	  0.082525052	1.856900E+01
314	  0.082725458	-6.217000E+00	  0.082725458	1.326900E+02	  0.082725458	2.000800E+01	  0.082725458	1.889200E+01
315	  0.082925856	-6.236000E+00	  0.082925856	1.318750E+02	  0.082925856	2.017200E+01	  0.082925856	1.922400E+01
316	  0.083126254	-6.250000E+00	  0.083126254	1.310490E+02	  0.083126254	2.032600E+01	  0.083126254	1.956700E+01
317	  0.083326660	-6.262000E+00	  0.083326660	1.302400E+02	  0.083326660	2.047400E+01	  0.083326660	1.990500E+01
318	  0.083527058	-6.277000E+00	  0.083527058	1.294180E+02	  0.083527058	2.063500E+01	  0.083527058	2.024700E+01
319	  0.083727457	-6.294000E+00	  0.083727457	1.285840E+02	  0.083727457	2.080700E+01	  0.083727457	2.059200E+01
320	  0.083927862	-6.305000E+00	  0.083927862	1.277900E+02	  0.083927862	2.095700E+01	  0.083927862	2.092800E+01
321	  0.084128261	-6.321000E+00	  0.084128261	1.269950E+02	  0.084128261	2.112800E+01	  0.084128261	2.125800E+01
322	  0.084328659	-6.335000E+00	  0.084328659	1.262300E+02	  0.084328659	2.128900E+01	  0.084328659	2.157800E+01
323	  0.084529065	-6.349000E+00	  0.084529065	1.254330E+02	  0.084529065	2.145900E+01	  0.084529065	2.191400E+01
324	  0.084729463	-6.369000E+00	  0.084729463	1.246960E+02	  0.084729463	2.163900E+01	  0.084729463	2.221600E+01
325	  0.084929861	-6.387000E+00	  0.084929861	1.238820E+02	  0.084929861	2.182900E+01	  0.084929861	2.255600E+01
326	  0.085130267	-6.405000E+00	  0.085130267	1.231060E+02	  0.085130267	2.201600E+01	  0.085130267	2.287800E+01
327	  0.085330658	-6.424000E+00	  0.085330658	1.223220E+02	  0.085330658	2.221200E+01	  0.085330658	2.320400E+01
328	  0.085531056	-6.446000E+00	  0.085531056	1.215780E+02	  0.085531056	2.241200E+01	  0.085531056	2.350800E+01
329	  0.085731462	-6.466000E+00	  0.085731462	1.208030E+02	  0.085731462	2.261600E+01	  0.085731462	2.382800E+01
330	  0.085931860	-6.489000E+00	  0.085931860	1.200440E+02	  0.085931860	2.282600E+01	  0.085931860	2.413900E+01
331	  0.086132258	-6.514000E+00	  0.086132258	1.192850E+02	  0.086132258	2.304800E+01	  0.086132258	2.444700E+01
332	  0.086332664	-6.535000E+00	  0.086332664	1.185170E+02	  0.086332664	2.326500E+01	  0.086332664	2.476300E+01
333	  0.086533062	-6.563000E+00	  0.086533062	1.177440E+02	  0.086533062	2.350500E+01	  0.086533062	2.507200E+01
334	  0.086733460	-6.582000E+00	  0.086733460	1.169310E+02	  0.086733460	2.373000E+01	  0.086733460	2.541300E+01
335	  0.086933866	-6.606000E+00	  0.086933866	1.161790E+02	  0.086933866	2.396000E+01	  0.086933866	2.571900E+01
336	  0.087134264	-6.630000E+00	  0.087134264	1.153700E+02	  0.087134264	2.421000E+01	  0.087134264	2.604900E+01
337	  0.087334670	-6.655000E+00	  0.087334670	1.145790E+02	  0.087334670	2.446000E+01	  0.087334670	2.637100E+01
338	  0.087535068	-6.677000E+00	  0.087535068	1.138060E+02	  0.087535068	2.470000E+01	  0.087535068	2.668900E+01
339	  0.087735467	-6.698000E+00	  0.087735467	1.130230E+02	  0.087735467	2.494600E+01	  0.087735467	2.701300E+01
340	  0.087935872	-6.724000E+00	  0.087935872	1.122650E+02	  0.087935872	2.520300E+01	  0.087935872	2.731800E+01
341	  0.088136271	-6.747000E+00	  0.088136271	1.114900E+02	  0.088136271	2.546200E+01	  0.088136271	2.763400E+01
342	  0.088336669	-6.768000E+00	  0.088336669	1.107300E+02	  0.088336669	2.571300E+01	  0.088336669	2.794700E+01
343	  0.088537075	-6.797000E+00	  0.088537075	1.099760E+02	  0.088537075	2.599300E+01	  0.088537075	2.824300E+01
344	  0.088737473	-6.811000E+00	  0.088737473	1.092300E+02	  0.088737473	2.622800E+01	  0.088737473	2.856100E+01
345	  0.088937871	-6.838000E+00	  0.088937871	1.084670E+02	  0.088937871	2.651100E+01	  0.088937871	2.886400E+01
346	  0.089138277	-6.861000E+00	  0.089138277	1.077310E+02	  0.089138277	2.677900E+01	  0.089138277	2.916100E+01
347	  0.089338675	-6.886000E+00	  0.089338675	1.069870E+02	  0.089338675	2.706200E+01	  0.089338675	2.945700E+01
348	  0.089539073	-6.913000E+00	  0.089539073	1.062740E+02	  0.089539073	2.734400E+01	  0.089539073	2.973500E+01
349	  0.089739479	-6.945000E+00	  0.089739479	1.055400E+02	  0.089739479	2.765000E+01	  0.089739479	3.001300E+01
350	  0.089939877	-6.969000E+00	  0.089939877	1.048130E+02	  0.089939877	2.793600E+01	  0.089939877	3.030100E+01
351	  0.090140276	-7.003000E+00	  0.090140276	1.040530E+02	  0.090140276	2.826700E+01	  0.090140276	3.058400E+01
352	  0.090340681	-7.029000E+00	  0.090340681	1.033340E+02	  0.090340681	2.856400E+01	  0.090340681	3.086300E+01
353	  0.090541080	-7.056000E+00	  0.090541080	1.025860E+02	  0.090541080	2.888000E+01	  0.090541080	3.115000E+01
354	  0.090741485	-7.091000E+00	  0.090741485	1.018580E+02	  0.090741485	2.921700E+01	  0.090741485	3.141200E+01
355	  0.090941884	-7.119000E+00	  0.090941884	1.011620E+02	  0.090941884	2.952600E+01	  0.090941884	3.167200E+01
356	  0.091142282	-7.154000E+00	  0.091142282	1.004570E+02	  0.091142282	2.986500E+01	  0.091142282	3.192000E+01
357	  0.091342688	-7.184000E+00	  0.091342688	9.971100E+01	  0.091342688	3.020600E+01	  0.091342688	3.219500E+01
358	  0.091543086	-7.223000E+00	  0.091543086	9.902000E+01	  0.091543086	3.056100E+01	  0.091543086	3.242200E+01
359	  0.091743484	-7.251000E+00	  0.091743484	9.830500E+01	  0.091743484	3.089500E+01	  0.091743484	3.268500E+01
360	  0.091943890	-7.290000E+00	  0.091943890	9.764100E+01	  0.091943890	3.124700E+01	  0.091943890	3.289600E+01
361	  0.092144288	-7.322000E+00	  0.092144288	9.697800E+01	  0.092144288	3.158500E+01	  0.092144288	3.312000E+01
362	  0.092344686	-7.359000E+00	  0.092344686	9.628000E+01	  0.092344686	3.195100E+01	  0.092344686	3.334700E+01
363	  0.092545092	-7.398000E+00	  0.092545092	9.562400E+01	  0.092545092	3.231400E+01	  0.092545092	3.354600E+01
364	  0.092745490	-7.436000E+00	  0.092745490	9.496300E+01	  0.092745490	3.267800E+01	  0.092745490	3.374900E+01
365	  0.092945889	-7.480000E+00	  0.092945889	9.433300E+01	  0.092945889	3.305300E+01	  0.092945889	3.391700E+01
366	  0.093146294	-7.520000E+00	  0.093146294	9.365700E+01	  0.093146294	3.343600E+01	  0.093146294	3.411500E+01
367	  0.093346693	-7.563000E+00	  0.093346693	9.298100E+01	  0.093346693	3.383300E+01	  0.093346693	3.430200E+01
368	  0.093547091	-7.603000E+00	  0.093547091	9.231900E+01	  0.093547091	3.422200E+01	  0.093547091	3.448300E+01
369	  0.093747497	-7.649000E+00	  0.093747497	9.164600E+01	  0.093747497	3.463300E+01	  0.093747497	3.465300E+01
370	  0.093947895	-7.686000E+00	  0.093947895	9.097700E+01	  0.093947895	3.502100E+01	  0.093947895	3.484200E+01
371	  0.094148301	-7.732000E+00	  0.094148301	9.035000E+01	  0.094148301	3.542200E+01	  0.094148301	3.498300E+01
372	  0.094348699	-7.773000E+00	  0.094348699	8.968900E+01	  0.094348699	3.582800E+01	  0.094348699	3.514800E+01
373	  0.094549097	-7.824000E+00	  0.094549097	8.907700E+01	  0.094549097	3.624200E+01	  0.094549097	3.526000E+01
374	  0.094749503	-7.857000E+00	  0.094749503	8.840600E+01	  0.094749503	3.663600E+01	  0.094749503	3.544500E+01
375	  0.094949901	-7.900000E+00	  0.094949901	8.779200E+01	  0.094949901	3.703500E+01	  0.094949901	3.557400E+01
376	  0.095150299	-7.933000E+00	  0.095150299	8.718000E+01	  0.095150299	3.741000E+01	  0.095150299	3.572600E+01
377	  0.095350705	-7.982000E+00	  0.095350705	8.657100E+01	  0.095350705	3.782900E+01	  0.095350705	3.582700E+01
378	  0.095551103	-8.020000E+00	  0.095551103	8.597000E+01	  0.095551103	3.821600E+01	  0.095551103	3.595400E+01
379	  0.095751502	-8.058000E+00	  0.095751502	8.538200E+01	  0.095751502	3.860300E+01	  0.095751502	3.607000E+01
380	  0.095951907	-8.101000E+00	  0.095951907	8.480500E+01	  0.095951907	3.899800E+01	  0.095951907	3.616500E+01
381	  0.096152306	-8.145000E+00	  0.096152306	8.426500E+01	  0.096152306	3.938100E+01	  0.096152306	3.623500E+01
382	  0.096352704	-8.188000E+00	  0.096352704	8.370500E+01	  0.096352704	3.977300E+01	  0.096352704	3.631300E+01
383	  0.096553110	-8.228000E+00	  0.096553110	8.316800E+01	  0.096553110	4.014700E+01	  0.096553110	3.638800E+01
384	  0.096753508	-8.269000E+00	  0.096753508	8.264000E+01	  0.096753508	4.052200E+01	  0.096753508	3.645100E+01
385	  0.096953906	-8.313000E+00	  0.096953906	8.212700E+01	  0.096953906	4.090000E+01	  0.096953906	3.649300E+01
386	  0.097154312	-8.357000E+00	  0.097154312	8.159900E+01	  0.097154312	4.128300E+01	  0.097154312	3.654200E+01
387	  0.097354710	-8.396000E+00	  0.097354710	8.105800E+01	  0.097354710	4.166600E+01	  0.097354710	3.660300E+01
388	  0.097555116	-8.446000E+00	  0.097555116	8.059300E+01	  0.097555116	4.203500E+01	  0.097555116	3.659700E+01
389	  0.097755514	-8.487000E+00	  0.097755514	8.006800E+01	  0.097755514	4.241500E+01	  0.097755514	3.663900E+01
390	  0.097955912	-8.531000E+00	  0.097955912	7.957900E+01	  0.097955912	4.278300E+01	  0.097955912	3.665500E+01
391	  0.098156318	-8.577000E+00	  0.098156318	7.911200E+01	  0.098156318	4.314700E+01	  0.098156318	3.665000E+01
392	  0.098356716	-8.616000E+00	  0.098356716	7.863400E+01	  0.098356716	4.350000E+01	  0.098356716	3.667200E+01
393	  0.098557115	-8.656000E+00	  0.098557115	7.819400E+01	  0.098557115	4.383500E+01	  0.098557115	3.667300E+01
394	  0.098757520	-8.702000E+00	  0.098757520	7.771100E+01	  0.098757520	4.420800E+01	  0.098757520	3.666300E+01
395	  0.098957919	-8.747000E+00	  0.098957919	7.726200E+01	  0.098957919	4.455900E+01	  0.098957919	3.664300E+01
396	  0.099158317	-8.790000E+00	  0.099158317	7.683700E+01	  0.099158317	4.489500E+01	  0.099158317	3.661400E+01
397	  0.099358723	-8.839000E+00	  0.099358723	7.641100E+01	  0.099358723	4.524100E+01	  0.099358723	3.656600E+01
398	  0.099559121	-8.882000E+00	  0.099559121	7.597600E+01	  0.099559121	4.558000E+01	  0.099559121	3.653600E+01
399	  0.099759519	-8.925000E+00	  0.099759519	7.557900E+01	  0.099759519	4.589800E+01	  0.099759519	3.649100E+01
400	  0.099959925	-8.972000E+00	  0.099959925	7.516600E+01	  0.099959925	4.623400E+01	  0.099959925	3.643100E+01
401	  0.100160323	-9.026000E+00	  0.100160323	7.475200E+01	  0.100160323	4.658100E+01	  0.100160323	3.634200E+01
402	  0.100360721	-9.059000E+00	  0.100360721	7.433700E+01	  0.100360721	4.688900E+01	  0.100360721	3.633100E+01
403	  0.100561127	-9.113000E+00	  0.100561127	7.391900E+01	  0.100561127	4.723800E+01	  0.100561127	3.623800E+01
404	  0.100761525	-9.144000E+00	  0.100761525	7.351900E+01	  0.100761525	4.753300E+01	  0.100761525	3.622400E+01
405	  0.100961931	-9.188000E+00	  0.100961931	7.308200E+01	  0.100961931	4.787400E+01	  0.100961931	3.616700E+01
406	  0.101162329	-9.227000E+00	  0.101162329	7.272300E+01	  0.101162329	4.815900E+01	  0.101162329	3.610500E+01
407	  0.101362728	-9.261000E+00	  0.101362728	7.237800E+01	  0.101362728	4.842700E+01	  0.101362728	3.605500E+01
408	  0.101563133	-9.304000E+00	  0.101563133	7.195000E+01	  0.101563133	4.876000E+01	  0.101563133	3.598800E+01
409	  0.101763532	-9.343000E+00	  0.101763532	7.162500E+01	  0.101763532	4.902300E+01	  0.101763532	3.591000E+01
410	  0.101963930	-9.366000E+00	  0.101963930	7.121900E+01	  0.101963930	4.930800E+01	  0.101963930	3.591600E+01
411	  0.102164336	-9.409000E+00	  0.102164336	7.079700E+01	  0.102164336	4.963700E+01	  0.102164336	3.583700E+01
412	  0.102364734	-9.436000E+00	  0.102364734	7.048400E+01	  0.102364734	4.987300E+01	  0.102364734	3.579600E+01
413	  0.102565132	-9.463000E+00	  0.102565132	7.009800E+01	  0.102565132	5.015300E+01	  0.102565132	3.577200E+01
414	  0.102765530	-9.481000E+00	  0.102765530	6.981400E+01	  0.102765530	5.035700E+01	  0.102765530	3.576000E+01
415	  0.102965929	-9.516000E+00	  0.102965929	6.948000E+01	  0.102965929	5.061700E+01	  0.102965929	3.568600E+01
416	  0.103166327	-9.538000E+00	  0.103166327	6.914100E+01	  0.103166327	5.086200E+01	  0.103166327	3.566400E+01
417	  0.103366733	-9.564000E+00	  0.103366733	6.886300E+01	  0.103366733	5.107300E+01	  0.103366733	3.561300E+01
418	  0.103567131	-9.578000E+00	  0.103567131	6.852900E+01	  0.103567131	5.130400E+01	  0.103567131	3.562100E+01
419	  0.103767529	-9.609000E+00	  0.103767529	6.822700E+01	  0.103767529	5.153600E+01	  0.103767529	3.555200E+01
420	  0.103967935	-9.631000E+00	  0.103967935	6.789500E+01	  0.103967935	5.177600E+01	  0.103967935	3.552300E+01
421	  0.104168333	-9.647000E+00	  0.104168333	6.766400E+01	  0.104168333	5.194600E+01	  0.104168333	3.549600E+01
422	  0.104368731	-9.663000E+00	  0.104368731	6.736600E+01	  0.104368731	5.215800E+01	  0.104368731	3.548100E+01
423	  0.104569137	-9.690000E+00	  0.104569137	6.708400E+01	  0.104569137	5.237000E+01	  0.104569137	3.542000E+01
424	  0.104769535	-9.695000E+00	  0.104769535	6.680400E+01	  0.104769535	5.255800E+01	  0.104769535	3.544600E+01
425	  0.104969934	-9.707000E+00	  0.104969934	6.654800E+01	  0.104969934	5.273900E+01	  0.104969934	3.543700E+01
426	  0.105170339	-9.725000E+00	  0.105170339	6.622700E+01	  0.105170339	5.296800E+01	  0.105170339	3.541500E+01
427	  0.105370738	-9.725000E+00	  0.105370738	6.599500E+01	  0.105370738	5.312100E+01	  0.105370738	3.545300E+01
428	  0.105571143	-9.736000E+00	  0.105571143	6.566000E+01	  0.105571143	5.335400E+01	  0.105571143	3.545800E+01
429	  0.105771542	-9.751000E+00	  0.105771542	6.538700E+01	  0.105771542	5.355000E+01	  0.105771542	3.543500E+01
430	  0.105971940	-9.754000E+00	  0.105971940	6.515600E+01	  0.105971940	5.370500E+01	  0.105971940	3.546000E+01
431	  0.106172346	-9.767000E+00	  0.106172346	6.480700E+01	  0.106172346	5.395000E+01	  0.106172346	3.545600E+01
432	  0.106372744	-9.773000E+00	  0.106372744	6.459600E+01	  0.106372744	5.409800E+01	  0.106372744	3.545700E+01
433	  0.106573142	-9.787000E+00	  0.106573142	6.420800E+01	  0.106573142	5.437200E+01	  0.106573142	3.544900E+01
434	  0.106773548	-9.795000E+00	  0.106773548	6.399000E+01	  0.106773548	5.452500E+01	  0.106773548	3.544700E+01
435	  0.106973946	-9.796000E+00	  0.106973946	6.367800E+01	  0.106973946	5.473800E+01	  0.106973946	3.548200E+01
436	  0.107174344	-9.790000E+00	  0.107174344	6.336900E+01	  0.107174344	5.494300E+01	  0.107174344	3.555100E+01
437	  0.107374750	-9.796000E+00	  0.107374750	6.300900E+01	  0.107374750	5.519300E+01	  0.107374750	3.557100E+01
438	  0.107575148	-9.792000E+00	  0.107575148	6.268500E+01	  0.107575148	5.541300E+01	  0.107575148	3.563000E+01
439	  0.107775547	-9.789000E+00	  0.107775547	6.238100E+01	  0.107775547	5.562100E+01	  0.107775547	3.568100E+01
440	  0.107975952	-9.785000E+00	  0.107975952	6.197600E+01	  0.107975952	5.589900E+01	  0.107975952	3.574500E+01
441	  0.108176351	-9.788000E+00	  0.108176351	6.165000E+01	  0.108176351	5.612900E+01	  0.108176351	3.576800E+01
442	  0.108376749	-9.783000E+00	  0.108376749	6.127100E+01	  0.108376749	5.639200E+01	  0.108376749	3.583200E+01
443	  0.108577155	-9.776000E+00	  0.108577155	6.088600E+01	  0.108577155	5.666000E+01	  0.108577155	3.590200E+01
444	  0.108777553	-9.766000E+00	  0.108777553	6.042300E+01	  0.108777553	5.698400E+01	  0.108777553	3.599800E+01
445	  0.108977959	-9.755000E+00	  0.108977959	6.003200E+01	  0.108977959	5.725800E+01	  0.108977959	3.608300E+01
446	  0.109178357	-9.746000E+00	  0.109178357	5.960700E+01	  0.109178357	5.756000E+01	  0.109178357	3.616400E+01
447	  0.109378755	-9.727000E+00	  0.109378755	5.916000E+01	  0.109378755	5.787600E+01	  0.109378755	3.629500E+01
448	  0.109579161	-9.721000E+00	  0.109579161	5.869600E+01	  0.109579161	5.821400E+01	  0.109579161	3.636000E+01
449	  0.109779559	-9.699000E+00	  0.109779559	5.831000E+01	  0.109779559	5.849000E+01	  0.109779559	3.649500E+01
450	  0.109979957	-9.684000E+00	  0.109979957	5.783400E+01	  0.109979957	5.884000E+01	  0.109979957	3.660200E+01
451	  0.110180363	-9.667000E+00	  0.110180363	5.735400E+01	  0.110180363	5.919500E+01	  0.110180363	3.671900E+01
452	  0.110380761	-9.648000E+00	  0.110380761	5.686900E+01	  0.110380761	5.955700E+01	  0.110380761	3.684200E+01
453	  0.110581160	-9.630000E+00	  0.110581160	5.640300E+01	  0.110581160	5.991000E+01	  0.110581160	3.695400E+01
454	  0.110781565	-9.602000E+00	  0.110781565	5.589000E+01	  0.110781565	6.030000E+01	  0.110781565	3.712400E+01
455	  0.110981964	-9.591000E+00	  0.110981964	5.535600E+01	  0.110981964	6.071700E+01	  0.110981964	3.720100E+01
456	  0.111182362	-9.566000E+00	  0.111182362	5.483700E+01	  0.111182362	6.112300E+01	  0.111182362	3.734500E+01
457	  0.111382768	-9.546000E+00	  0.111382768	5.433000E+01	  0.111382768	6.152600E+01	  0.111382768	3.746700E+01
458	  0.111583166	-9.525000E+00	  0.111583166	5.380100E+01	  0.111583166	6.195100E+01	  0.111583166	3.758800E+01
459	  0.111783572	-9.510000E+00	  0.111783572	5.326400E+01	  0.111783572	6.238900E+01	  0.111783572	3.767400E+01
460	  0.111983970	-9.484000E+00	  0.111983970	5.266900E+01	  0.111983970	6.288000E+01	  0.111983970	3.781100E+01
461	  0.112184368	-9.468000E+00	  0.112184368	5.211300E+01	  0.112184368	6.334400E+01	  0.112184368	3.789900E+01
462	  0.112384774	-9.447000E+00	  0.112384774	5.154700E+01	  0.112384774	6.382400E+01	  0.112384774	3.800100E+01
463	  0.112585172	-9.429000E+00	  0.112585172	5.087900E+01	  0.112585172	6.439600E+01	  0.112585172	3.808800E+01
464	  0.112785570	-9.411000E+00	  0.112785570	5.023100E+01	  0.112785570	6.495800E+01	  0.112785570	3.816400E+01
465	  0.112985976	-9.390000E+00	  0.112985976	4.960600E+01	  0.112985976	6.550900E+01	  0.112985976	3.824900E+01
466	  0.113186374	-9.373000E+00	  0.113186374	4.896800E+01	  0.113186374	6.607800E+01	  0.113186374	3.831000E+01
467	  0.113386773	-9.358000E+00	  0.113386773	4.832600E+01	  0.113386773	6.665400E+01	  0.113386773	3.834600E+01
468	  0.113587178	-9.344000E+00	  0.113587178	4.761100E+01	  0.113587178	6.730500E+01	  0.113587178	3.836700E+01
469	  0.113787577	-9.335000E+00	  0.113787577	4.689400E+01	  0.113787577	6.795900E+01	  0.113787577	3.834100E+01
470	  0.113987975	-9.324000E+00	  0.113987975	4.616500E+01	  0.113987975	6.863500E+01	  0.113987975	3.831900E+01
471	  0.114188381	-9.303000E+00	  0.114188381	4.543400E+01	  0.114188381	6.932900E+01	  0.114188381	3.835100E+01
472	  0.114388779	-9.294000E+00	  0.114388779	4.466800E+01	  0.114388779	7.005200E+01	  0.114388779	3.828500E+01
473	  0.114589177	-9.278000E+00	  0.114589177	4.391100E+01	  0.114589177	7.078300E+01	  0.114589177	3.825600E+01
474	  0.114789583	-9.268000E+00	  0.114789583	4.312800E+01	  0.114789583	7.153800E+01	  0.114789583	3.816400E+01
475	  0.114989981	-9.258000E+00	  0.114989981	4.234500E+01	  0.114989981	7.230200E+01	  0.114989981	3.806300E+01
476	  0.115190387	-9.258000E+00	  0.115190387	4.151500E+01	  0.115190387	7.310000E+01	  0.115190387	3.786400E+01
477	  0.115390785	-9.249000E+00	  0.115390785	4.062400E+01	  0.115390785	7.398000E+01	  0.115390785	3.769300E+01
478	  0.115591183	-9.243000E+00	  0.115591183	3.977400E+01	  0.115591183	7.482300E+01	  0.115591183	3.749500E+01
479	  0.115791589	-9.239000E+00	  0.115791589	3.884400E+01	  0.115791589	7.574300E+01	  0.115791589	3.723100E+01
480	  0.115991987	-9.236000E+00	  0.115991987	3.796700E+01	  0.115991987	7.661500E+01	  0.115991987	3.695400E+01
481	  0.116192386	-9.236000E+00	  0.116192386	3.706300E+01	  0.116192386	7.751000E+01	  0.116192386	3.662500E+01
482	  0.116392791	-9.233000E+00	  0.116392791	3.612400E+01	  0.116392791	7.844900E+01	  0.116392791	3.627700E+01
483	  0.116593190	-9.234000E+00	  0.116593190	3.514700E+01	  0.116593190	7.941700E+01	  0.116593190	3.585500E+01
484	  0.116793588	-9.237000E+00	  0.116793588	3.418300E+01	  0.116793588	8.036600E+01	  0.116793588	3.539800E+01
485	  0.116993994	-9.244000E+00	  0.116993994	3.317400E+01	  0.116993994	8.134400E+01	  0.116993994	3.485800E+01
486	  0.117194392	-9.250000E+00	  0.117194392	3.217200E+01	  0.117194392	8.231200E+01	  0.117194392	3.429300E+01
487	  0.117394790	-9.258000E+00	  0.117394790	3.110900E+01	  0.117394790	8.332600E+01	  0.117394790	3.364400E+01
488	  0.117595196	-9.274000E+00	  0.117595196	3.012000E+01	  0.117595196	8.422900E+01	  0.117595196	3.295700E+01
489	  0.117795594	-9.282000E+00	  0.117795594	2.904100E+01	  0.117795594	8.523600E+01	  0.117795594	3.222500E+01
490	  0.117995992	-9.300000E+00	  0.117995992	2.796000E+01	  0.117995992	8.618300E+01	  0.117995992	3.138600E+01
491	  0.118196398	-9.323000E+00	  0.118196398	2.693200E+01	  0.118196398	8.703900E+01	  0.118196398	3.052000E+01
492	  0.118396796	-9.338000E+00	  0.118396796	2.579500E+01	  0.118396796	8.800900E+01	  0.118396796	2.958300E+01
493	  0.118597202	-9.369000E+00	  0.118597202	2.464100E+01	  0.118597202	8.888400E+01	  0.118597202	2.849700E+01
494	  0.118797600	-9.388000E+00	  0.118797600	2.349900E+01	  0.118797600	8.977700E+01	  0.118797600	2.745200E+01
495	  0.118997999	-9.421000E+00	  0.118997999	2.229200E+01	  0.118997999	9.061200E+01	  0.118997999	2.623400E+01
496	  0.119198404	-9.459000E+00	  0.119198404	2.111200E+01	  0.119198404	9.134600E+01	  0.119198404	2.497400E+01
497	  0.119398803	-9.498000E+00	  0.119398803	1.992600E+01	  0.119398803	9.203100E+01	  0.119398803	2.367300E+01
498	  0.119599201	-9.538000E+00	  0.119599201	1.866900E+01	  0.119599201	9.270700E+01	  0.119599201	2.226900E+01
499	  0.119799607	-9.576000E+00	  0.119799607	1.743700E+01	  0.119799607	9.332600E+01	  0.119799607	2.087400E+01
500	  0.120000005	-9.631000E+00	  0.120000005	1.614300E+01	  0.120000005	9.380100E+01	  0.120000005	1.931200E+01
