! Anritsu VNA Master:             	Model: MS2036C/10/77
! SN:             	1601066
! /bd0/18may09/254.ew.m8.txt
! Existing Calibration Information:
! TYPE:             	Current Settings	Active Cal Settings
! TIME:             	05/09/2018 12:00:05 PM	05/09/2018 11:52:33 AM
! INTERNAL TEMP:    	54.3 C	53.5 C
! # POINTS:         	494	494
! START FREQ:       	20.000 MHz	20.000 MHz
! STOP FREQ:        	118.797 594 MHz	118.797 594 MHz
! SOURCE POWER:     	High	High
! IFBW:             	50 Hz	50 Hz
! AVG FACTOR:       	  1 	  1 
! REF PLANE 1:      	0 mm	0 mm
! REF PLANE 2:      	0 mm	0 mm
! CAL TYPE:         	Full S22	Full S22
! CAL METHOD:       	SOLT	SOLT
! CAL LINE TYPE:    	Coax	Coax
! DUT PORT 1:       	K-Conn(M)	K-Conn(M)
! DUT PORT 2:       	K-Conn(M)	K-Conn(M)
! CAL STATUS:       	OK: Accuracy High	--
! PROP-V:       	0.700
! CABLE LOSS:       	0.000 dB/m
! REF IMPEDANCE:       	50.0
! Trace Specific Parameters:	TR1	TR2	TR3	TR4
! TRACE.#.Y (GRAPH TYPE)	LOG MAG	PHASE	REAL IMPEDANCE	IMAGINARY IMPEDANCE
! TRACE.#.X 	FREQ.GHZ	FREQ.GHZ	FREQ.GHZ	FREQ.GHZ
! S-PARAMETER	S22	S22	S22	S22
! SMOOTH/APERTURE %	0	0	0	0
! WINDOW	NSL	NSL	NSL	NSL
! GATING	OFF	OFF	OFF	OFF
! FGTD	OFF	OFF	OFF	OFF
Marker Information per Trace:	TR1	TR2	TR3	TR4
!MK1	--	"MK1 TR2:  20.000 MHz,PH:-126.60°"	--	--
!MK2	--	--	"MK2 TR3:  70.100 200 MHz,Z:(16.123 ohm, -1.012 ohm)"	--
!MK3	--	--	--	--
!MK4	--	--	--	--
!MK5	--	--	--	--
!MK6	--	--	--	--
!MK7	--	--	--	--
!MK8	--	--	--	--
PNT	TR1.FREQ.GHZ	TR1.LOG MAG.dB	TR2.FREQ.GHZ	TR2.PHASE.deg	TR3.FREQ.GHZ	TR3.REAL IMPEDANCE.ohm	TR4.FREQ.GHZ	TR4.IMAGINARY IMPEDANCE.ohm
1	  0.020000000	-6.420000E-01	  0.020000000	-1.265960E+02	  0.020000000	2.314000E+00	  0.020000000	-2.510600E+01
2	  0.020200402	-6.420000E-01	  0.020200402	-1.280710E+02	  0.020200402	2.285000E+00	  0.020200402	-2.430600E+01
3	  0.020400802	-6.460000E-01	  0.020400802	-1.295470E+02	  0.020400802	2.270000E+00	  0.020400802	-2.351600E+01
4	  0.020601204	-6.480000E-01	  0.020601204	-1.310480E+02	  0.020601204	2.250000E+00	  0.020601204	-2.272200E+01
5	  0.020801604	-6.500000E-01	  0.020801604	-1.325850E+02	  0.020801604	2.231000E+00	  0.020801604	-2.191900E+01
6	  0.021002004	-6.510000E-01	  0.021002004	-1.341340E+02	  0.021002004	2.207000E+00	  0.021002004	-2.111900E+01
7	  0.021202406	-6.540000E-01	  0.021202406	-1.356840E+02	  0.021202406	2.193000E+00	  0.021202406	-2.032700E+01
8	  0.021402806	-6.580000E-01	  0.021402806	-1.372240E+02	  0.021402806	2.185000E+00	  0.021402806	-1.955000E+01
9	  0.021603208	-6.580000E-01	  0.021603208	-1.387510E+02	  0.021603208	2.163000E+00	  0.021603208	-1.878700E+01
10	  0.021803608	-6.620000E-01	  0.021803608	-1.403000E+02	  0.021803608	2.154000E+00	  0.021803608	-1.802000E+01
11	  0.022004008	-6.670000E-01	  0.022004008	-1.418530E+02	  0.022004008	2.148000E+00	  0.022004008	-1.725900E+01
12	  0.022204408	-6.710000E-01	  0.022204408	-1.434260E+02	  0.022204408	2.142000E+00	  0.022204408	-1.649500E+01
13	  0.022404809	-6.790000E-01	  0.022404809	-1.449970E+02	  0.022404809	2.148000E+00	  0.022404809	-1.573900E+01
14	  0.022605211	-6.820000E-01	  0.022605211	-1.465950E+02	  0.022605211	2.138000E+00	  0.022605211	-1.497700E+01
15	  0.022805611	-6.810000E-01	  0.022805611	-1.481930E+02	  0.022805611	2.119000E+00	  0.022805611	-1.422200E+01
16	  0.023006011	-6.850000E-01	  0.023006011	-1.497870E+02	  0.023006011	2.115000E+00	  0.023006011	-1.347400E+01
17	  0.023206413	-6.890000E-01	  0.023206413	-1.513640E+02	  0.023206413	2.113000E+00	  0.023206413	-1.274000E+01
18	  0.023406813	-6.960000E-01	  0.023406813	-1.529440E+02	  0.023406813	2.118000E+00	  0.023406813	-1.200900E+01
19	  0.023607215	-7.030000E-01	  0.023607215	-1.545240E+02	  0.023607215	2.126000E+00	  0.023607215	-1.128300E+01
20	  0.023807615	-7.110000E-01	  0.023807615	-1.561230E+02	  0.023807615	2.136000E+00	  0.023807615	-1.055300E+01
21	  0.024008015	-7.170000E-01	  0.024008015	-1.577570E+02	  0.024008015	2.143000E+00	  0.024008015	-9.811000E+00
22	  0.024208417	-7.230000E-01	  0.024208417	-1.593980E+02	  0.024208417	2.149000E+00	  0.024208417	-9.070000E+00
23	  0.024408817	-7.280000E-01	  0.024408817	-1.610440E+02	  0.024408817	2.154000E+00	  0.024408817	-8.331000E+00
24	  0.024609219	-7.350000E-01	  0.024609219	-1.626910E+02	  0.024609219	2.163000E+00	  0.024609219	-7.596000E+00
25	  0.024809619	-7.430000E-01	  0.024809619	-1.643510E+02	  0.024809619	2.178000E+00	  0.024809619	-6.858000E+00
26	  0.025010020	-7.520000E-01	  0.025010020	-1.660100E+02	  0.025010020	2.195000E+00	  0.025010020	-6.122000E+00
27	  0.025210422	-7.620000E-01	  0.025210422	-1.676860E+02	  0.025210422	2.219000E+00	  0.025210422	-5.383000E+00
28	  0.025410822	-7.720000E-01	  0.025410822	-1.693670E+02	  0.025410822	2.240000E+00	  0.025410822	-4.643000E+00
29	  0.025611224	-7.830000E-01	  0.025611224	-1.710710E+02	  0.025611224	2.265000E+00	  0.025611224	-3.895000E+00
30	  0.025811624	-7.940000E-01	  0.025811624	-1.727830E+02	  0.025811624	2.294000E+00	  0.025811624	-3.146000E+00
31	  0.026012026	-8.040000E-01	  0.026012026	-1.745080E+02	  0.026012026	2.320000E+00	  0.026012026	-2.392000E+00
32	  0.026212426	-8.170000E-01	  0.026212426	-1.762500E+02	  0.026212426	2.352000E+00	  0.026212426	-1.633000E+00
33	  0.026412826	-8.300000E-01	  0.026412826	-1.779980E+02	  0.026412826	2.389000E+00	  0.026412826	-8.710000E-01
34	  0.026613226	-8.440000E-01	  0.026613226	-1.797600E+02	  0.026613226	2.427000E+00	  0.026613226	-1.040000E-01
35	  0.026813626	-8.580000E-01	  0.026813626	1.784630E+02	  0.026813626	2.468000E+00	  0.026813626	6.680000E-01
36	  0.027014028	-8.730000E-01	  0.027014028	1.766890E+02	  0.027014028	2.513000E+00	  0.027014028	1.441000E+00
37	  0.027214428	-8.890000E-01	  0.027214428	1.749100E+02	  0.027214428	2.564000E+00	  0.027214428	2.216000E+00
38	  0.027414829	-9.050000E-01	  0.027414829	1.731150E+02	  0.027414829	2.613000E+00	  0.027414829	2.999000E+00
39	  0.027615231	-9.220000E-01	  0.027615231	1.713020E+02	  0.027615231	2.667000E+00	  0.027615231	3.791000E+00
40	  0.027815631	-9.390000E-01	  0.027815631	1.694840E+02	  0.027815631	2.723000E+00	  0.027815631	4.587000E+00
41	  0.028016033	-9.570000E-01	  0.028016033	1.676550E+02	  0.028016033	2.784000E+00	  0.028016033	5.390000E+00
42	  0.028216433	-9.750000E-01	  0.028216433	1.658040E+02	  0.028216433	2.848000E+00	  0.028216433	6.205000E+00
43	  0.028416833	-9.930000E-01	  0.028416833	1.639640E+02	  0.028416833	2.914000E+00	  0.028416833	7.019000E+00
44	  0.028617235	-1.013000E+00	  0.028617235	1.621130E+02	  0.028617235	2.986000E+00	  0.028617235	7.841000E+00
45	  0.028817635	-1.033000E+00	  0.028817635	1.602730E+02	  0.028817635	3.059000E+00	  0.028817635	8.661000E+00
46	  0.029018037	-1.055000E+00	  0.029018037	1.584250E+02	  0.029018037	3.143000E+00	  0.029018037	9.490000E+00
47	  0.029218437	-1.076000E+00	  0.029218437	1.565550E+02	  0.029218437	3.227000E+00	  0.029218437	1.033300E+01
48	  0.029418837	-1.101000E+00	  0.029418837	1.546670E+02	  0.029418837	3.325000E+00	  0.029418837	1.118900E+01
49	  0.029619239	-1.124000E+00	  0.029619239	1.527960E+02	  0.029619239	3.419000E+00	  0.029619239	1.204400E+01
50	  0.029819639	-1.148000E+00	  0.029819639	1.508990E+02	  0.029819639	3.523000E+00	  0.029819639	1.291700E+01
51	  0.030020041	-1.174000E+00	  0.030020041	1.490010E+02	  0.030020041	3.632000E+00	  0.030020041	1.379700E+01
52	  0.030220442	-1.198000E+00	  0.030220442	1.471090E+02	  0.030220442	3.742000E+00	  0.030220442	1.468200E+01
53	  0.030420844	-1.225000E+00	  0.030420844	1.452120E+02	  0.030420844	3.864000E+00	  0.030420844	1.557700E+01
54	  0.030621244	-1.253000E+00	  0.030621244	1.433130E+02	  0.030621244	3.994000E+00	  0.030621244	1.648200E+01
55	  0.030821642	-1.283000E+00	  0.030821642	1.414090E+02	  0.030821642	4.135000E+00	  0.030821642	1.739800E+01
56	  0.031022044	-1.312000E+00	  0.031022044	1.394870E+02	  0.031022044	4.282000E+00	  0.031022044	1.833300E+01
57	  0.031222444	-1.337000E+00	  0.031222444	1.375660E+02	  0.031222444	4.416000E+00	  0.031222444	1.927800E+01
58	  0.031422846	-1.370000E+00	  0.031422846	1.356070E+02	  0.031422846	4.588000E+00	  0.031422846	2.025300E+01
59	  0.031623244	-1.403000E+00	  0.031623244	1.336340E+02	  0.031623244	4.765000E+00	  0.031623244	2.124700E+01
60	  0.031823646	-1.437000E+00	  0.031823646	1.316620E+02	  0.031823646	4.953000E+00	  0.031823646	2.225400E+01
61	  0.032024048	-1.472000E+00	  0.032024048	1.296730E+02	  0.032024048	5.151000E+00	  0.032024048	2.328400E+01
62	  0.032224450	-1.506000E+00	  0.032224450	1.276980E+02	  0.032224450	5.359000E+00	  0.032224450	2.432200E+01
63	  0.032424849	-1.543000E+00	  0.032424849	1.257120E+02	  0.032424849	5.583000E+00	  0.032424849	2.538000E+01
64	  0.032625251	-1.580000E+00	  0.032625251	1.236970E+02	  0.032625251	5.822000E+00	  0.032625251	2.647200E+01
65	  0.032825653	-1.618000E+00	  0.032825653	1.216610E+02	  0.032825653	6.077000E+00	  0.032825653	2.759300E+01
66	  0.033026051	-1.653000E+00	  0.033026051	1.196230E+02	  0.033026051	6.329000E+00	  0.033026051	2.873700E+01
67	  0.033226453	-1.692000E+00	  0.033226453	1.175790E+02	  0.033226453	6.616000E+00	  0.033226453	2.990300E+01
68	  0.033426855	-1.730000E+00	  0.033426855	1.155430E+02	  0.033426855	6.911000E+00	  0.033426855	3.108800E+01
69	  0.033627257	-1.768000E+00	  0.033627257	1.134940E+02	  0.033627257	7.221000E+00	  0.033627257	3.230400E+01
70	  0.033827655	-1.810000E+00	  0.033827655	1.114610E+02	  0.033827655	7.563000E+00	  0.033827655	3.353300E+01
71	  0.034028057	-1.847000E+00	  0.034028057	1.093910E+02	  0.034028057	7.910000E+00	  0.034028057	3.481300E+01
72	  0.034228459	-1.889000E+00	  0.034228459	1.073260E+02	  0.034228459	8.296000E+00	  0.034228459	3.611600E+01
73	  0.034428857	-1.932000E+00	  0.034428857	1.052420E+02	  0.034428857	8.711000E+00	  0.034428857	3.746100E+01
74	  0.034629259	-1.973000E+00	  0.034629259	1.031610E+02	  0.034629259	9.142000E+00	  0.034629259	3.883600E+01
75	  0.034829661	-2.018000E+00	  0.034829661	1.010860E+02	  0.034829661	9.615000E+00	  0.034829661	4.023700E+01
76	  0.035030060	-2.062000E+00	  0.035030060	9.901600E+01	  0.035030060	1.011500E+01	  0.035030060	4.167000E+01
77	  0.035230462	-2.108000E+00	  0.035230462	9.693100E+01	  0.035230462	1.065400E+01	  0.035230462	4.314900E+01
78	  0.035430863	-2.155000E+00	  0.035430863	9.486000E+01	  0.035430863	1.123600E+01	  0.035430863	4.465400E+01
79	  0.035631265	-2.201000E+00	  0.035631265	9.277800E+01	  0.035631265	1.185000E+01	  0.035631265	4.620900E+01
80	  0.035831664	-2.251000E+00	  0.035831664	9.070900E+01	  0.035831664	1.253000E+01	  0.035831664	4.778900E+01
81	  0.036032066	-2.298000E+00	  0.036032066	8.862500E+01	  0.036032066	1.323400E+01	  0.036032066	4.943000E+01
82	  0.036232468	-2.347000E+00	  0.036232468	8.654400E+01	  0.036232468	1.401000E+01	  0.036232468	5.111100E+01
83	  0.036432866	-2.397000E+00	  0.036432866	8.444100E+01	  0.036432866	1.484300E+01	  0.036432866	5.285900E+01
84	  0.036633268	-2.449000E+00	  0.036633268	8.236900E+01	  0.036633268	1.574600E+01	  0.036633268	5.462400E+01
85	  0.036833670	-2.500000E+00	  0.036833670	8.029200E+01	  0.036833670	1.671600E+01	  0.036833670	5.644600E+01
86	  0.037034072	-2.553000E+00	  0.037034072	7.821300E+01	  0.037034072	1.776600E+01	  0.037034072	5.832000E+01
87	  0.037234470	-2.606000E+00	  0.037234470	7.613100E+01	  0.037234470	1.890600E+01	  0.037234470	6.024900E+01
88	  0.037434869	-2.661000E+00	  0.037434869	7.405200E+01	  0.037434869	2.014000E+01	  0.037434869	6.223000E+01
89	  0.037635271	-2.713000E+00	  0.037635271	7.197800E+01	  0.037635271	2.145700E+01	  0.037635271	6.426900E+01
90	  0.037835669	-2.767000E+00	  0.037835669	6.986100E+01	  0.037835669	2.291600E+01	  0.037835669	6.640800E+01
91	  0.038036071	-2.824000E+00	  0.038036071	6.774000E+01	  0.038036071	2.452800E+01	  0.038036071	6.860200E+01
92	  0.038236473	-2.879000E+00	  0.038236473	6.562900E+01	  0.038236473	2.625800E+01	  0.038236473	7.085300E+01
93	  0.038436871	-2.939000E+00	  0.038436871	6.351100E+01	  0.038436871	2.818400E+01	  0.038436871	7.314900E+01
94	  0.038637273	-2.997000E+00	  0.038637273	6.140300E+01	  0.038637273	3.026300E+01	  0.038637273	7.549600E+01
95	  0.038837675	-3.050000E+00	  0.038837675	5.929200E+01	  0.038837675	3.249000E+01	  0.038837675	7.792800E+01
96	  0.039038073	-3.105000E+00	  0.039038073	5.718500E+01	  0.039038073	3.493200E+01	  0.039038073	8.039800E+01
97	  0.039238475	-3.159000E+00	  0.039238475	5.509500E+01	  0.039238475	3.757900E+01	  0.039238475	8.289500E+01
98	  0.039438877	-3.212000E+00	  0.039438877	5.299700E+01	  0.039438877	4.048100E+01	  0.039438877	8.544200E+01
99	  0.039639279	-3.267000E+00	  0.039639279	5.089900E+01	  0.039639279	4.367500E+01	  0.039639279	8.800200E+01
100	  0.039839678	-3.320000E+00	  0.039839678	4.878000E+01	  0.039839678	4.718800E+01	  0.039839678	9.061900E+01
101	  0.040040080	-3.373000E+00	  0.040040080	4.667800E+01	  0.040040080	5.101500E+01	  0.040040080	9.320400E+01
102	  0.040240481	-3.424000E+00	  0.040240481	4.456400E+01	  0.040240481	5.522700E+01	  0.040240481	9.578700E+01
103	  0.040440880	-3.474000E+00	  0.040440880	4.248000E+01	  0.040440880	5.977700E+01	  0.040440880	9.828600E+01
104	  0.040641282	-3.523000E+00	  0.040641282	4.041300E+01	  0.040641282	6.472900E+01	  0.040641282	1.006530E+02
105	  0.040841684	-3.576000E+00	  0.040841684	3.834000E+01	  0.040841684	7.020100E+01	  0.040841684	1.028240E+02
106	  0.041042086	-3.629000E+00	  0.041042086	3.627100E+01	  0.041042086	7.616600E+01	  0.041042086	1.047650E+02
107	  0.041242484	-3.681000E+00	  0.041242484	3.421100E+01	  0.041242484	8.263500E+01	  0.041242484	1.064030E+02
108	  0.041442886	-3.731000E+00	  0.041442886	3.214300E+01	  0.041442886	8.967200E+01	  0.041442886	1.076940E+02
109	  0.041643288	-3.781000E+00	  0.041643288	3.007800E+01	  0.041643288	9.726600E+01	  0.041643288	1.085020E+02
110	  0.041843686	-3.829000E+00	  0.041843686	2.801100E+01	  0.041843686	1.054320E+02	  0.041843686	1.087600E+02
111	  0.042044088	-3.878000E+00	  0.042044088	2.596500E+01	  0.042044088	1.140640E+02	  0.042044088	1.082070E+02
112	  0.042244490	-3.928000E+00	  0.042244490	2.393500E+01	  0.042244490	1.231020E+02	  0.042244490	1.067480E+02
113	  0.042444889	-3.977000E+00	  0.042444889	2.191500E+01	  0.042444889	1.324610E+02	  0.042444889	1.042840E+02
114	  0.042645290	-4.028000E+00	  0.042645290	1.988100E+01	  0.042645290	1.421070E+02	  0.042645290	1.005540E+02
115	  0.042845692	-4.079000E+00	  0.042845692	1.788400E+01	  0.042845692	1.516080E+02	  0.042845692	9.558100E+01
116	  0.043046094	-4.127000E+00	  0.043046094	1.585600E+01	  0.043046094	1.610970E+02	  0.043046094	8.923200E+01
117	  0.043246493	-4.179000E+00	  0.043246493	1.382900E+01	  0.043246493	1.700420E+02	  0.043246493	8.129600E+01
118	  0.043446895	-4.226000E+00	  0.043446895	1.183800E+01	  0.043446895	1.781590E+02	  0.043446895	7.222900E+01
119	  0.043647297	-4.273000E+00	  0.043647297	9.830000E+00	  0.043647297	1.853190E+02	  0.043647297	6.179100E+01
120	  0.043847695	-4.320000E+00	  0.043847695	7.867000E+00	  0.043847695	1.909460E+02	  0.043847695	5.044500E+01
121	  0.044048097	-4.368000E+00	  0.044048097	5.876000E+00	  0.044048097	1.950550E+02	  0.044048097	3.808100E+01
122	  0.044248499	-4.418000E+00	  0.044248499	3.902000E+00	  0.044248499	1.973440E+02	  0.044248499	2.530000E+01
123	  0.044448901	-4.465000E+00	  0.044448901	1.951000E+00	  0.044448901	1.979200E+02	  0.044448901	1.255100E+01
124	  0.044649299	-4.511000E+00	  0.044649299	-1.700000E-02	  0.044649299	1.968200E+02	  0.044649299	-1.110000E-01
125	  0.044849701	-4.556000E+00	  0.044849701	-1.958000E+00	  0.044849701	1.941800E+02	  0.044849701	-1.209000E+01
126	  0.045050103	-4.598000E+00	  0.045050103	-3.910000E+00	  0.045050103	1.901720E+02	  0.045050103	-2.338600E+01
127	  0.045250501	-4.641000E+00	  0.045250501	-5.872000E+00	  0.045250501	1.849280E+02	  0.045250501	-3.377700E+01
128	  0.045450903	-4.682000E+00	  0.045450903	-7.815000E+00	  0.045450903	1.788170E+02	  0.045450903	-4.299400E+01
129	  0.045651305	-4.720000E+00	  0.045651305	-9.736000E+00	  0.045651305	1.721230E+02	  0.045651305	-5.100900E+01
130	  0.045851704	-4.762000E+00	  0.045851704	-1.164200E+01	  0.045851704	1.649000E+02	  0.045851704	-5.774800E+01
131	  0.046052102	-4.803000E+00	  0.046052102	-1.353800E+01	  0.046052102	1.575040E+02	  0.046052102	-6.338700E+01
132	  0.046252504	-4.844000E+00	  0.046252504	-1.541700E+01	  0.046252504	1.500710E+02	  0.046252504	-6.794800E+01
133	  0.046452906	-4.880000E+00	  0.046452906	-1.727300E+01	  0.046452906	1.428680E+02	  0.046452906	-7.167200E+01
134	  0.046653304	-4.919000E+00	  0.046653304	-1.913600E+01	  0.046653304	1.357160E+02	  0.046653304	-7.449800E+01
135	  0.046853706	-4.956000E+00	  0.046853706	-2.100500E+01	  0.046853706	1.288070E+02	  0.046853706	-7.668800E+01
136	  0.047054108	-4.990000E+00	  0.047054108	-2.283600E+01	  0.047054108	1.223010E+02	  0.047054108	-7.824200E+01
137	  0.047254506	-5.023000E+00	  0.047254506	-2.469100E+01	  0.047254506	1.160110E+02	  0.047254506	-7.929100E+01
138	  0.047454908	-5.054000E+00	  0.047454908	-2.652100E+01	  0.047454908	1.101220E+02	  0.047454908	-7.990600E+01
139	  0.047655310	-5.086000E+00	  0.047655310	-2.833500E+01	  0.047655310	1.045840E+02	  0.047655310	-8.010100E+01
140	  0.047855709	-5.118000E+00	  0.047855709	-3.011300E+01	  0.047855709	9.946200E+01	  0.047855709	-7.997100E+01
141	  0.048056111	-5.151000E+00	  0.048056111	-3.188300E+01	  0.048056111	9.465700E+01	  0.048056111	-7.955300E+01
142	  0.048256513	-5.181000E+00	  0.048256513	-3.365800E+01	  0.048256513	9.012800E+01	  0.048256513	-7.896900E+01
143	  0.048456915	-5.214000E+00	  0.048456915	-3.540500E+01	  0.048456915	8.594800E+01	  0.048456915	-7.816400E+01
144	  0.048657313	-5.244000E+00	  0.048657313	-3.716800E+01	  0.048657313	8.198200E+01	  0.048657313	-7.725900E+01
145	  0.048857715	-5.271000E+00	  0.048857715	-3.891700E+01	  0.048857715	7.828800E+01	  0.048857715	-7.627100E+01
146	  0.049058117	-5.297000E+00	  0.049058117	-4.067800E+01	  0.049058117	7.479700E+01	  0.049058117	-7.519400E+01
147	  0.049258515	-5.323000E+00	  0.049258515	-4.238700E+01	  0.049258515	7.162000E+01	  0.049258515	-7.405400E+01
148	  0.049458917	-5.349000E+00	  0.049458917	-4.409000E+01	  0.049458917	6.864700E+01	  0.049458917	-7.285800E+01
149	  0.049659319	-5.375000E+00	  0.049659319	-4.578700E+01	  0.049659319	6.586700E+01	  0.049659319	-7.161700E+01
150	  0.049859721	-5.404000E+00	  0.049859721	-4.747500E+01	  0.049859721	6.327900E+01	  0.049859721	-7.031900E+01
151	  0.050060119	-5.428000E+00	  0.050060119	-4.914700E+01	  0.050060119	6.084900E+01	  0.050060119	-6.906300E+01
152	  0.050260521	-5.451000E+00	  0.050260521	-5.084400E+01	  0.050260521	5.852700E+01	  0.050260521	-6.777300E+01
153	  0.050460923	-5.473000E+00	  0.050460923	-5.252400E+01	  0.050460923	5.636000E+01	  0.050460923	-6.648800E+01
154	  0.050661322	-5.494000E+00	  0.050661322	-5.417500E+01	  0.050661322	5.434800E+01	  0.050661322	-6.522900E+01
155	  0.050861724	-5.514000E+00	  0.050861724	-5.584200E+01	  0.050861724	5.243000E+01	  0.050861724	-6.395800E+01
156	  0.051062126	-5.534000E+00	  0.051062126	-5.749300E+01	  0.051062126	5.064000E+01	  0.051062126	-6.269500E+01
157	  0.051262524	-5.554000E+00	  0.051262524	-5.909800E+01	  0.051262524	4.899700E+01	  0.051262524	-6.146600E+01
158	  0.051462926	-5.575000E+00	  0.051462926	-6.068900E+01	  0.051462926	4.746100E+01	  0.051462926	-6.024700E+01
159	  0.051663328	-5.591000E+00	  0.051663328	-6.231100E+01	  0.051663328	4.595400E+01	  0.051663328	-5.904900E+01
160	  0.051863730	-5.610000E+00	  0.051863730	-6.388200E+01	  0.051863730	4.458700E+01	  0.051863730	-5.787300E+01
161	  0.052064128	-5.625000E+00	  0.052064128	-6.546900E+01	  0.052064128	4.325800E+01	  0.052064128	-5.672000E+01
162	  0.052264530	-5.634000E+00	  0.052264530	-6.704700E+01	  0.052264530	4.198300E+01	  0.052264530	-5.560900E+01
163	  0.052464932	-5.646000E+00	  0.052464932	-6.859000E+01	  0.052464932	4.080700E+01	  0.052464932	-5.452000E+01
164	  0.052665330	-5.659000E+00	  0.052665330	-7.013400E+01	  0.052665330	3.969300E+01	  0.052665330	-5.343100E+01
165	  0.052865732	-5.671000E+00	  0.052865732	-7.164600E+01	  0.052865732	3.865000E+01	  0.052865732	-5.238200E+01
166	  0.053066134	-5.681000E+00	  0.053066134	-7.315000E+01	  0.053066134	3.765600E+01	  0.053066134	-5.135500E+01
167	  0.053266536	-5.692000E+00	  0.053266536	-7.464800E+01	  0.053266536	3.671400E+01	  0.053266536	-5.033900E+01
168	  0.053466935	-5.702000E+00	  0.053466935	-7.613900E+01	  0.053466935	3.581600E+01	  0.053466935	-4.934200E+01
169	  0.053667337	-5.711000E+00	  0.053667337	-7.763700E+01	  0.053667337	3.495100E+01	  0.053667337	-4.835500E+01
170	  0.053867739	-5.718000E+00	  0.053867739	-7.909300E+01	  0.053867739	3.413600E+01	  0.053867739	-4.741700E+01
171	  0.054068137	-5.724000E+00	  0.054068137	-8.058000E+01	  0.054068137	3.334100E+01	  0.054068137	-4.646700E+01
172	  0.054268539	-5.728000E+00	  0.054268539	-8.205200E+01	  0.054268539	3.257900E+01	  0.054268539	-4.554500E+01
173	  0.054468941	-5.738000E+00	  0.054468941	-8.346900E+01	  0.054468941	3.189800E+01	  0.054468941	-4.465000E+01
174	  0.054669335	-5.747000E+00	  0.054669335	-8.490800E+01	  0.054669335	3.123400E+01	  0.054669335	-4.375100E+01
175	  0.054869737	-5.755000E+00	  0.054869737	-8.634900E+01	  0.054869737	3.059100E+01	  0.054869737	-4.286700E+01
176	  0.055070139	-5.760000E+00	  0.055070139	-8.776500E+01	  0.055070139	2.997600E+01	  0.055070139	-4.201500E+01
177	  0.055270538	-5.767000E+00	  0.055270538	-8.917900E+01	  0.055270538	2.939200E+01	  0.055270538	-4.117000E+01
178	  0.055470940	-5.776000E+00	  0.055470940	-9.059200E+01	  0.055470940	2.884200E+01	  0.055470940	-4.032800E+01
179	  0.055671342	-5.779000E+00	  0.055671342	-9.201900E+01	  0.055671342	2.828500E+01	  0.055671342	-3.950500E+01
180	  0.055871744	-5.786000E+00	  0.055871744	-9.344400E+01	  0.055871744	2.776700E+01	  0.055871744	-3.868000E+01
181	  0.056072142	-5.789000E+00	  0.056072142	-9.484000E+01	  0.056072142	2.726500E+01	  0.056072142	-3.789100E+01
182	  0.056272544	-5.796000E+00	  0.056272544	-9.624300E+01	  0.056272544	2.679500E+01	  0.056272544	-3.709600E+01
183	  0.056472946	-5.803000E+00	  0.056472946	-9.765000E+01	  0.056472946	2.634100E+01	  0.056472946	-3.631000E+01
184	  0.056673344	-5.803000E+00	  0.056673344	-9.903000E+01	  0.056673344	2.588900E+01	  0.056673344	-3.556000E+01
185	  0.056873746	-5.811000E+00	  0.056873746	-1.004090E+02	  0.056873746	2.548000E+01	  0.056873746	-3.480400E+01
186	  0.057074148	-5.812000E+00	  0.057074148	-1.017970E+02	  0.057074148	2.506500E+01	  0.057074148	-3.406200E+01
187	  0.057274550	-5.816000E+00	  0.057274550	-1.031800E+02	  0.057274550	2.467200E+01	  0.057274550	-3.332700E+01
188	  0.057474948	-5.817000E+00	  0.057474948	-1.045490E+02	  0.057474948	2.429200E+01	  0.057474948	-3.261100E+01
189	  0.057675350	-5.821000E+00	  0.057675350	-1.059070E+02	  0.057675350	2.393600E+01	  0.057675350	-3.190200E+01
190	  0.057875752	-5.820000E+00	  0.057875752	-1.072670E+02	  0.057875752	2.357800E+01	  0.057875752	-3.120800E+01
191	  0.058076151	-5.825000E+00	  0.058076151	-1.086340E+02	  0.058076151	2.324800E+01	  0.058076151	-3.050800E+01
192	  0.058276553	-5.824000E+00	  0.058276553	-1.099800E+02	  0.058276553	2.291800E+01	  0.058276553	-2.983300E+01
193	  0.058476955	-5.824000E+00	  0.058476955	-1.112850E+02	  0.058476955	2.261200E+01	  0.058476955	-2.918300E+01
194	  0.058677353	-5.823000E+00	  0.058677353	-1.126260E+02	  0.058677353	2.230600E+01	  0.058677353	-2.852300E+01
195	  0.058877755	-5.822000E+00	  0.058877755	-1.139390E+02	  0.058877755	2.201400E+01	  0.058877755	-2.788300E+01
196	  0.059078157	-5.817000E+00	  0.059078157	-1.152350E+02	  0.059078157	2.172700E+01	  0.059078157	-2.725900E+01
197	  0.059278559	-5.817000E+00	  0.059278559	-1.165380E+02	  0.059278559	2.146200E+01	  0.059278559	-2.663200E+01
198	  0.059478957	-5.815000E+00	  0.059478957	-1.178050E+02	  0.059478957	2.120600E+01	  0.059478957	-2.602900E+01
199	  0.059679359	-5.812000E+00	  0.059679359	-1.190960E+02	  0.059679359	2.095300E+01	  0.059679359	-2.542100E+01
200	  0.059879761	-5.811000E+00	  0.059879761	-1.203370E+02	  0.059879761	2.072400E+01	  0.059879761	-2.483700E+01
201	  0.060080159	-5.809000E+00	  0.060080159	-1.215840E+02	  0.060080159	2.049800E+01	  0.060080159	-2.425700E+01
202	  0.060280561	-5.806000E+00	  0.060280561	-1.228370E+02	  0.060280561	2.027600E+01	  0.060280561	-2.367800E+01
203	  0.060480963	-5.807000E+00	  0.060480963	-1.240530E+02	  0.060480963	2.007800E+01	  0.060480963	-2.311700E+01
204	  0.060681365	-5.806000E+00	  0.060681365	-1.252700E+02	  0.060681365	1.988000E+01	  0.060681365	-2.256100E+01
205	  0.060881764	-5.803000E+00	  0.060881764	-1.264830E+02	  0.060881764	1.968400E+01	  0.060881764	-2.201300E+01
206	  0.061082166	-5.802000E+00	  0.061082166	-1.277150E+02	  0.061082166	1.949900E+01	  0.061082166	-2.145700E+01
207	  0.061282568	-5.800000E+00	  0.061282568	-1.289280E+02	  0.061282568	1.931900E+01	  0.061282568	-2.091400E+01
208	  0.061482966	-5.802000E+00	  0.061482966	-1.301240E+02	  0.061482966	1.915800E+01	  0.061482966	-2.037900E+01
209	  0.061683368	-5.803000E+00	  0.061683368	-1.313200E+02	  0.061683368	1.900000E+01	  0.061683368	-1.984800E+01
210	  0.061883770	-5.804000E+00	  0.061883770	-1.324940E+02	  0.061883770	1.885300E+01	  0.061883770	-1.933000E+01
211	  0.062084168	-5.805000E+00	  0.062084168	-1.336750E+02	  0.062084168	1.870800E+01	  0.062084168	-1.881100E+01
212	  0.062284570	-5.806000E+00	  0.062284570	-1.348600E+02	  0.062284570	1.856800E+01	  0.062284570	-1.829400E+01
213	  0.062484972	-5.797000E+00	  0.062484972	-1.360290E+02	  0.062484972	1.840500E+01	  0.062484972	-1.779400E+01
214	  0.062685370	-5.799000E+00	  0.062685370	-1.372010E+02	  0.062685370	1.827900E+01	  0.062685370	-1.728700E+01
215	  0.062885776	-5.799000E+00	  0.062885776	-1.383720E+02	  0.062885776	1.815200E+01	  0.062885776	-1.678500E+01
216	  0.063086174	-5.796000E+00	  0.063086174	-1.395800E+02	  0.063086174	1.801900E+01	  0.063086174	-1.627100E+01
217	  0.063286573	-5.798000E+00	  0.063286573	-1.407310E+02	  0.063286573	1.790700E+01	  0.063286573	-1.578100E+01
218	  0.063486971	-5.799000E+00	  0.063486971	-1.418930E+02	  0.063486971	1.779900E+01	  0.063486971	-1.528800E+01
219	  0.063687377	-5.796000E+00	  0.063687377	-1.430500E+02	  0.063687377	1.768200E+01	  0.063687377	-1.480400E+01
220	  0.063887775	-5.793000E+00	  0.063887775	-1.442110E+02	  0.063887775	1.757100E+01	  0.063887775	-1.431800E+01
221	  0.064088173	-5.794000E+00	  0.064088173	-1.453710E+02	  0.064088173	1.747300E+01	  0.064088173	-1.383400E+01
222	  0.064288579	-5.791000E+00	  0.064288579	-1.465630E+02	  0.064288579	1.736500E+01	  0.064288579	-1.334000E+01
223	  0.064488977	-5.791000E+00	  0.064488977	-1.476950E+02	  0.064488977	1.727500E+01	  0.064488977	-1.287200E+01
224	  0.064689375	-5.788000E+00	  0.064689375	-1.488320E+02	  0.064689375	1.718100E+01	  0.064689375	-1.240400E+01
225	  0.064889781	-5.788000E+00	  0.064889781	-1.499910E+02	  0.064889781	1.709800E+01	  0.064889781	-1.192800E+01
226	  0.065090179	-5.785000E+00	  0.065090179	-1.511100E+02	  0.065090179	1.701100E+01	  0.065090179	-1.147100E+01
227	  0.065290578	-5.784000E+00	  0.065290578	-1.522340E+02	  0.065290578	1.693300E+01	  0.065290578	-1.101300E+01
228	  0.065490983	-5.781000E+00	  0.065490983	-1.533370E+02	  0.065490983	1.685400E+01	  0.065490983	-1.056600E+01
229	  0.065691382	-5.776000E+00	  0.065691382	-1.544620E+02	  0.065691382	1.677300E+01	  0.065691382	-1.011100E+01
230	  0.065891780	-5.772000E+00	  0.065891780	-1.555840E+02	  0.065891780	1.669800E+01	  0.065891780	-9.659000E+00
231	  0.066092186	-5.772000E+00	  0.066092186	-1.566350E+02	  0.066092186	1.664000E+01	  0.066092186	-9.235000E+00
232	  0.066292584	-5.770000E+00	  0.066292584	-1.577250E+02	  0.066292584	1.657800E+01	  0.066292584	-8.797000E+00
233	  0.066492982	-5.766000E+00	  0.066492982	-1.588340E+02	  0.066492982	1.651400E+01	  0.066492982	-8.353000E+00
234	  0.066693388	-5.765000E+00	  0.066693388	-1.598790E+02	  0.066693388	1.646000E+01	  0.066693388	-7.935000E+00
235	  0.066893786	-5.765000E+00	  0.066893786	-1.609310E+02	  0.066893786	1.641600E+01	  0.066893786	-7.515000E+00
236	  0.067094192	-5.761000E+00	  0.067094192	-1.619810E+02	  0.067094192	1.636000E+01	  0.067094192	-7.097000E+00
237	  0.067294590	-5.762000E+00	  0.067294590	-1.630380E+02	  0.067294590	1.632000E+01	  0.067294590	-6.676000E+00
238	  0.067494988	-5.765000E+00	  0.067494988	-1.640590E+02	  0.067494988	1.629200E+01	  0.067494988	-6.270000E+00
239	  0.067695394	-5.763000E+00	  0.067695394	-1.651050E+02	  0.067695394	1.625000E+01	  0.067695394	-5.856000E+00
240	  0.067895792	-5.767000E+00	  0.067895792	-1.661290E+02	  0.067895792	1.622700E+01	  0.067895792	-5.449000E+00
241	  0.068096191	-5.767000E+00	  0.068096191	-1.671810E+02	  0.068096191	1.619700E+01	  0.068096191	-5.033000E+00
242	  0.068296596	-5.772000E+00	  0.068296596	-1.682350E+02	  0.068296596	1.618200E+01	  0.068296596	-4.616000E+00
243	  0.068496995	-5.775000E+00	  0.068496995	-1.692210E+02	  0.068496995	1.616400E+01	  0.068496995	-4.227000E+00
244	  0.068697393	-5.777000E+00	  0.068697393	-1.702470E+02	  0.068697393	1.614700E+01	  0.068697393	-3.823000E+00
245	  0.068897791	-5.779000E+00	  0.068897791	-1.712640E+02	  0.068897791	1.613100E+01	  0.068897791	-3.423000E+00
246	  0.069098189	-5.782000E+00	  0.069098189	-1.722830E+02	  0.069098189	1.612000E+01	  0.069098189	-3.023000E+00
247	  0.069298595	-5.789000E+00	  0.069298595	-1.732950E+02	  0.069298595	1.612100E+01	  0.069298595	-2.625000E+00
248	  0.069498993	-5.789000E+00	  0.069498993	-1.743340E+02	  0.069498993	1.610800E+01	  0.069498993	-2.217000E+00
249	  0.069699399	-5.797000E+00	  0.069699399	-1.753590E+02	  0.069699399	1.611500E+01	  0.069699399	-1.815000E+00
250	  0.069899797	-5.803000E+00	  0.069899797	-1.763670E+02	  0.069899797	1.612200E+01	  0.069899797	-1.420000E+00
251	  0.070100196	-5.806000E+00	  0.070100196	-1.774110E+02	  0.070100196	1.612300E+01	  0.070100196	-1.012000E+00
252	  0.070300601	-5.808000E+00	  0.070300601	-1.784150E+02	  0.070300601	1.612400E+01	  0.070300601	-6.190000E-01
253	  0.070501000	-5.815000E+00	  0.070501000	-1.794070E+02	  0.070501000	1.614100E+01	  0.070501000	-2.310000E-01
254	  0.070701398	-5.817000E+00	  0.070701398	1.795580E+02	  0.070701398	1.614500E+01	  0.070701398	1.720000E-01
255	  0.070901804	-5.818000E+00	  0.070901804	1.785590E+02	  0.070901804	1.615000E+01	  0.070901804	5.630000E-01
256	  0.071102202	-5.821000E+00	  0.071102202	1.775290E+02	  0.071102202	1.616000E+01	  0.071102202	9.650000E-01
257	  0.071302600	-5.827000E+00	  0.071302600	1.765370E+02	  0.071302600	1.618400E+01	  0.071302600	1.353000E+00
258	  0.071503006	-5.832000E+00	  0.071503006	1.755500E+02	  0.071503006	1.620500E+01	  0.071503006	1.738000E+00
259	  0.071703404	-5.835000E+00	  0.071703404	1.745610E+02	  0.071703404	1.622500E+01	  0.071703404	2.125000E+00
260	  0.071903802	-5.839000E+00	  0.071903802	1.735650E+02	  0.071903802	1.624600E+01	  0.071903802	2.514000E+00
261	  0.072104208	-5.843000E+00	  0.072104208	1.725950E+02	  0.072104208	1.627300E+01	  0.072104208	2.894000E+00
262	  0.072304606	-5.844000E+00	  0.072304606	1.716110E+02	  0.072304606	1.629300E+01	  0.072304606	3.279000E+00
263	  0.072505005	-5.847000E+00	  0.072505005	1.706430E+02	  0.072505005	1.631900E+01	  0.072505005	3.658000E+00
264	  0.072705410	-5.850000E+00	  0.072705410	1.696800E+02	  0.072705410	1.634700E+01	  0.072705410	4.035000E+00
265	  0.072905809	-5.849000E+00	  0.072905809	1.687240E+02	  0.072905809	1.636800E+01	  0.072905809	4.411000E+00
266	  0.073106214	-5.854000E+00	  0.073106214	1.677580E+02	  0.073106214	1.640700E+01	  0.073106214	4.790000E+00
267	  0.073306613	-5.859000E+00	  0.073306613	1.668590E+02	  0.073306613	1.644500E+01	  0.073306613	5.143000E+00
268	  0.073507011	-5.864000E+00	  0.073507011	1.658920E+02	  0.073507011	1.648900E+01	  0.073507011	5.523000E+00
269	  0.073707417	-5.869000E+00	  0.073707417	1.649720E+02	  0.073707417	1.653100E+01	  0.073707417	5.884000E+00
270	  0.073907815	-5.872000E+00	  0.073907815	1.640510E+02	  0.073907815	1.657200E+01	  0.073907815	6.247000E+00
271	  0.074108213	-5.874000E+00	  0.074108213	1.631570E+02	  0.074108213	1.661000E+01	  0.074108213	6.600000E+00
272	  0.074308619	-5.878000E+00	  0.074308619	1.622550E+02	  0.074308619	1.665700E+01	  0.074308619	6.957000E+00
273	  0.074509017	-5.884000E+00	  0.074509017	1.613320E+02	  0.074509017	1.671000E+01	  0.074509017	7.321000E+00
274	  0.074709415	-5.885000E+00	  0.074709415	1.604490E+02	  0.074709415	1.675100E+01	  0.074709415	7.672000E+00
275	  0.074909821	-5.896000E+00	  0.074909821	1.595510E+02	  0.074909821	1.682100E+01	  0.074909821	8.026000E+00
276	  0.075110219	-5.899000E+00	  0.075110219	1.586390E+02	  0.075110219	1.687400E+01	  0.075110219	8.388000E+00
277	  0.075310618	-5.904000E+00	  0.075310618	1.577590E+02	  0.075310618	1.693100E+01	  0.075310618	8.738000E+00
278	  0.075511023	-5.911000E+00	  0.075511023	1.568900E+02	  0.075511023	1.699400E+01	  0.075511023	9.083000E+00
279	  0.075711422	-5.919000E+00	  0.075711422	1.559940E+02	  0.075711422	1.706400E+01	  0.075711422	9.439000E+00
280	  0.075911827	-5.929000E+00	  0.075911827	1.551160E+02	  0.075911827	1.714300E+01	  0.075911827	9.788000E+00
281	  0.076112226	-5.934000E+00	  0.076112226	1.542360E+02	  0.076112226	1.720900E+01	  0.076112226	1.014000E+01
282	  0.076312624	-5.938000E+00	  0.076312624	1.533580E+02	  0.076312624	1.727400E+01	  0.076312624	1.049200E+01
283	  0.076513030	-5.953000E+00	  0.076513030	1.524540E+02	  0.076513030	1.737100E+01	  0.076513030	1.085100E+01
284	  0.076713428	-5.959000E+00	  0.076713428	1.515510E+02	  0.076713428	1.744800E+01	  0.076713428	1.121400E+01
285	  0.076913826	-5.969000E+00	  0.076913826	1.506520E+02	  0.076913826	1.753600E+01	  0.076913826	1.157400E+01
286	  0.077114232	-5.975000E+00	  0.077114232	1.497850E+02	  0.077114232	1.761500E+01	  0.077114232	1.192300E+01
287	  0.077314630	-5.981000E+00	  0.077314630	1.488810E+02	  0.077314630	1.770000E+01	  0.077314630	1.228800E+01
288	  0.077515028	-5.990000E+00	  0.077515028	1.480280E+02	  0.077515028	1.779000E+01	  0.077515028	1.263200E+01
289	  0.077715434	-6.001000E+00	  0.077715434	1.471290E+02	  0.077715434	1.789000E+01	  0.077715434	1.299500E+01
290	  0.077915832	-6.010000E+00	  0.077915832	1.462280E+02	  0.077915832	1.799100E+01	  0.077915832	1.335900E+01
291	  0.078116231	-6.014000E+00	  0.078116231	1.453740E+02	  0.078116231	1.807400E+01	  0.078116231	1.370900E+01
292	  0.078316636	-6.025000E+00	  0.078316636	1.444350E+02	  0.078316636	1.818700E+01	  0.078316636	1.409000E+01
293	  0.078517035	-6.031000E+00	  0.078517035	1.435510E+02	  0.078517035	1.828400E+01	  0.078517035	1.445200E+01
294	  0.078717433	-6.039000E+00	  0.078717433	1.426470E+02	  0.078717433	1.838900E+01	  0.078717433	1.482300E+01
295	  0.078917839	-6.047000E+00	  0.078917839	1.417800E+02	  0.078917839	1.849500E+01	  0.078917839	1.517800E+01
296	  0.079118237	-6.056000E+00	  0.079118237	1.409550E+02	  0.079118237	1.860100E+01	  0.079118237	1.551700E+01
297	  0.079318643	-6.066000E+00	  0.079318643	1.400460E+02	  0.079318643	1.872400E+01	  0.079318643	1.589000E+01
298	  0.079519041	-6.069000E+00	  0.079519041	1.391830E+02	  0.079519041	1.882300E+01	  0.079519041	1.625000E+01
299	  0.079719439	-6.081000E+00	  0.079719439	1.383220E+02	  0.079719439	1.894800E+01	  0.079719439	1.660500E+01
300	  0.079919845	-6.091000E+00	  0.079919845	1.374670E+02	  0.079919845	1.907100E+01	  0.079919845	1.695900E+01
301	  0.080120243	-6.098000E+00	  0.080120243	1.365910E+02	  0.080120243	1.919200E+01	  0.080120243	1.732400E+01
302	  0.080320641	-6.105000E+00	  0.080320641	1.357020E+02	  0.080320641	1.931600E+01	  0.080320641	1.769700E+01
303	  0.080521047	-6.115000E+00	  0.080521047	1.348860E+02	  0.080521047	1.944200E+01	  0.080521047	1.803700E+01
304	  0.080721445	-6.124000E+00	  0.080721445	1.340080E+02	  0.080721445	1.957600E+01	  0.080721445	1.840500E+01
305	  0.080921844	-6.133000E+00	  0.080921844	1.331880E+02	  0.080921844	1.970800E+01	  0.080921844	1.874900E+01
306	  0.081122249	-6.145000E+00	  0.081122249	1.323530E+02	  0.081122249	1.985000E+01	  0.081122249	1.909900E+01
307	  0.081322648	-6.157000E+00	  0.081322648	1.315260E+02	  0.081322648	1.999500E+01	  0.081322648	1.944500E+01
308	  0.081523046	-6.166000E+00	  0.081523046	1.306820E+02	  0.081523046	2.013800E+01	  0.081523046	1.980200E+01
309	  0.081723452	-6.174000E+00	  0.081723452	1.298510E+02	  0.081723452	2.027700E+01	  0.081723452	2.015700E+01
310	  0.081923850	-6.187000E+00	  0.081923850	1.290160E+02	  0.081923850	2.043400E+01	  0.081923850	2.050900E+01
311	  0.082124248	-6.195000E+00	  0.082124248	1.281870E+02	  0.082124248	2.058000E+01	  0.082124248	2.086400E+01
312	  0.082324654	-6.210000E+00	  0.082324654	1.273960E+02	  0.082324654	2.074300E+01	  0.082324654	2.119600E+01
313	  0.082525052	-6.219000E+00	  0.082525052	1.265670E+02	  0.082525052	2.090000E+01	  0.082525052	2.155100E+01
314	  0.082725458	-6.235000E+00	  0.082725458	1.257750E+02	  0.082725458	2.107000E+01	  0.082725458	2.188500E+01
315	  0.082925856	-6.252000E+00	  0.082925856	1.249570E+02	  0.082925856	2.125300E+01	  0.082925856	2.223000E+01
316	  0.083126254	-6.264000E+00	  0.083126254	1.241650E+02	  0.083126254	2.142300E+01	  0.083126254	2.256700E+01
317	  0.083326660	-6.277000E+00	  0.083326660	1.233430E+02	  0.083326660	2.160100E+01	  0.083326660	2.291900E+01
318	  0.083527058	-6.293000E+00	  0.083527058	1.225460E+02	  0.083527058	2.178600E+01	  0.083527058	2.325800E+01
319	  0.083727457	-6.307000E+00	  0.083727457	1.217370E+02	  0.083727457	2.197400E+01	  0.083727457	2.360300E+01
320	  0.083927862	-6.325000E+00	  0.083927862	1.209360E+02	  0.083927862	2.217400E+01	  0.083927862	2.394200E+01
321	  0.084128261	-6.346000E+00	  0.084128261	1.201080E+02	  0.084128261	2.239200E+01	  0.084128261	2.429000E+01
322	  0.084328659	-6.361000E+00	  0.084328659	1.193280E+02	  0.084328659	2.258500E+01	  0.084328659	2.462400E+01
323	  0.084529065	-6.378000E+00	  0.084529065	1.185020E+02	  0.084529065	2.279900E+01	  0.084529065	2.497700E+01
324	  0.084729463	-6.397000E+00	  0.084729463	1.177230E+02	  0.084729463	2.301200E+01	  0.084729463	2.530700E+01
325	  0.084929854	-6.415000E+00	  0.084929854	1.168870E+02	  0.084929854	2.323800E+01	  0.084929854	2.566400E+01
326	  0.085130259	-6.430000E+00	  0.085130259	1.160470E+02	  0.085130259	2.346200E+01	  0.085130259	2.602700E+01
327	  0.085330658	-6.450000E+00	  0.085330658	1.152570E+02	  0.085330658	2.369100E+01	  0.085330658	2.636200E+01
328	  0.085531056	-6.469000E+00	  0.085531056	1.144270E+02	  0.085531056	2.393200E+01	  0.085531056	2.671600E+01
329	  0.085731462	-6.487000E+00	  0.085731462	1.136160E+02	  0.085731462	2.416900E+01	  0.085731462	2.706400E+01
330	  0.085931860	-6.505000E+00	  0.085931860	1.128350E+02	  0.085931860	2.440500E+01	  0.085931860	2.739800E+01
331	  0.086132258	-6.528000E+00	  0.086132258	1.120420E+02	  0.086132258	2.466300E+01	  0.086132258	2.773000E+01
332	  0.086332664	-6.541000E+00	  0.086332664	1.112430E+02	  0.086332664	2.489700E+01	  0.086332664	2.808000E+01
333	  0.086533062	-6.561000E+00	  0.086533062	1.104450E+02	  0.086533062	2.515600E+01	  0.086533062	2.841900E+01
334	  0.086733460	-6.580000E+00	  0.086733460	1.096390E+02	  0.086733460	2.541700E+01	  0.086733460	2.876500E+01
335	  0.086933866	-6.600000E+00	  0.086933866	1.088470E+02	  0.086933866	2.568300E+01	  0.086933866	2.910200E+01
336	  0.087134264	-6.618000E+00	  0.087134264	1.080620E+02	  0.087134264	2.594400E+01	  0.087134264	2.944000E+01
337	  0.087334670	-6.639000E+00	  0.087334670	1.072320E+02	  0.087334670	2.623500E+01	  0.087334670	2.979200E+01
338	  0.087535068	-6.661000E+00	  0.087535068	1.064700E+02	  0.087535068	2.651300E+01	  0.087535068	3.011200E+01
339	  0.087735467	-6.680000E+00	  0.087735467	1.057060E+02	  0.087735467	2.678800E+01	  0.087735467	3.043700E+01
340	  0.087935872	-6.702000E+00	  0.087935872	1.049400E+02	  0.087935872	2.707500E+01	  0.087935872	3.075900E+01
341	  0.088136271	-6.722000E+00	  0.088136271	1.041230E+02	  0.088136271	2.737800E+01	  0.088136271	3.110700E+01
342	  0.088336669	-6.744000E+00	  0.088336669	1.033630E+02	  0.088336669	2.767500E+01	  0.088336669	3.142400E+01
343	  0.088537075	-6.762000E+00	  0.088537075	1.025720E+02	  0.088537075	2.797400E+01	  0.088537075	3.176400E+01
344	  0.088737473	-6.784000E+00	  0.088737473	1.018090E+02	  0.088737473	2.828500E+01	  0.088737473	3.208100E+01
345	  0.088937871	-6.802000E+00	  0.088937871	1.010100E+02	  0.088937871	2.859700E+01	  0.088937871	3.242300E+01
346	  0.089138277	-6.832000E+00	  0.089138277	1.002610E+02	  0.089138277	2.893500E+01	  0.089138277	3.271700E+01
347	  0.089338675	-6.846000E+00	  0.089338675	9.950600E+01	  0.089338675	2.923300E+01	  0.089338675	3.304500E+01
348	  0.089539073	-6.875000E+00	  0.089539073	9.874000E+01	  0.089539073	2.958500E+01	  0.089539073	3.334600E+01
349	  0.089739479	-6.896000E+00	  0.089739479	9.799700E+01	  0.089739479	2.990700E+01	  0.089739479	3.365500E+01
350	  0.089939877	-6.927000E+00	  0.089939877	9.723800E+01	  0.089939877	3.027500E+01	  0.089939877	3.394400E+01
351	  0.090140276	-6.948000E+00	  0.090140276	9.648100E+01	  0.090140276	3.061700E+01	  0.090140276	3.425500E+01
352	  0.090340681	-6.976000E+00	  0.090340681	9.576300E+01	  0.090340681	3.097100E+01	  0.090340681	3.452800E+01
353	  0.090541080	-7.003000E+00	  0.090541080	9.500300E+01	  0.090541080	3.134200E+01	  0.090541080	3.482400E+01
354	  0.090741485	-7.026000E+00	  0.090741485	9.424000E+01	  0.090741485	3.170800E+01	  0.090741485	3.512900E+01
355	  0.090941884	-7.068000E+00	  0.090941884	9.352600E+01	  0.090941884	3.211900E+01	  0.090941884	3.536000E+01
356	  0.091142282	-7.093000E+00	  0.091142282	9.281400E+01	  0.091142282	3.248400E+01	  0.091142282	3.563100E+01
357	  0.091342688	-7.131000E+00	  0.091342688	9.207500E+01	  0.091342688	3.290300E+01	  0.091342688	3.587900E+01
358	  0.091543086	-7.164000E+00	  0.091543086	9.136200E+01	  0.091543086	3.330300E+01	  0.091543086	3.612300E+01
359	  0.091743484	-7.195000E+00	  0.091743484	9.060000E+01	  0.091743484	3.372300E+01	  0.091743484	3.639500E+01
360	  0.091943890	-7.227000E+00	  0.091943890	8.991200E+01	  0.091943890	3.411800E+01	  0.091943890	3.662600E+01
361	  0.092144288	-7.267000E+00	  0.092144288	8.915900E+01	  0.092144288	3.457200E+01	  0.092144288	3.686200E+01
362	  0.092344686	-7.301000E+00	  0.092344686	8.846300E+01	  0.092344686	3.498800E+01	  0.092344686	3.708500E+01
363	  0.092545092	-7.334000E+00	  0.092545092	8.776300E+01	  0.092545092	3.540900E+01	  0.092545092	3.730700E+01
364	  0.092745490	-7.373000E+00	  0.092745490	8.707600E+01	  0.092745490	3.584700E+01	  0.092745490	3.750300E+01
365	  0.092945889	-7.413000E+00	  0.092945889	8.638000E+01	  0.092945889	3.629600E+01	  0.092945889	3.769500E+01
366	  0.093146294	-7.451000E+00	  0.093146294	8.569400E+01	  0.093146294	3.674100E+01	  0.093146294	3.788500E+01
367	  0.093346693	-7.486000E+00	  0.093346693	8.502900E+01	  0.093346693	3.717000E+01	  0.093346693	3.807200E+01
368	  0.093547091	-7.527000E+00	  0.093547091	8.436400E+01	  0.093547091	3.762300E+01	  0.093547091	3.823100E+01
369	  0.093747497	-7.565000E+00	  0.093747497	8.367900E+01	  0.093747497	3.807900E+01	  0.093747497	3.841100E+01
370	  0.093947895	-7.607000E+00	  0.093947895	8.301100E+01	  0.093947895	3.854500E+01	  0.093947895	3.856100E+01
371	  0.094148301	-7.647000E+00	  0.094148301	8.234600E+01	  0.094148301	3.900800E+01	  0.094148301	3.871100E+01
372	  0.094348699	-7.691000E+00	  0.094348699	8.169000E+01	  0.094348699	3.948000E+01	  0.094348699	3.883900E+01
373	  0.094549097	-7.732000E+00	  0.094549097	8.103800E+01	  0.094549097	3.994900E+01	  0.094549097	3.896800E+01
374	  0.094749503	-7.773000E+00	  0.094749503	8.044500E+01	  0.094749503	4.038500E+01	  0.094749503	3.907300E+01
375	  0.094949901	-7.812000E+00	  0.094949901	7.983200E+01	  0.094949901	4.083200E+01	  0.094949901	3.918400E+01
376	  0.095150299	-7.855000E+00	  0.095150299	7.921000E+01	  0.095150299	4.129900E+01	  0.095150299	3.928000E+01
377	  0.095350705	-7.897000E+00	  0.095350705	7.857100E+01	  0.095350705	4.177600E+01	  0.095350705	3.938000E+01
378	  0.095551103	-7.934000E+00	  0.095551103	7.793700E+01	  0.095551103	4.224000E+01	  0.095551103	3.949400E+01
379	  0.095751502	-7.981000E+00	  0.095751502	7.731700E+01	  0.095751502	4.272500E+01	  0.095751502	3.955600E+01
380	  0.095951907	-8.022000E+00	  0.095951907	7.673000E+01	  0.095951907	4.318000E+01	  0.095951907	3.962100E+01
381	  0.096152306	-8.062000E+00	  0.096152306	7.613300E+01	  0.096152306	4.363900E+01	  0.096152306	3.969000E+01
382	  0.096352704	-8.105000E+00	  0.096352704	7.552400E+01	  0.096352704	4.411400E+01	  0.096352704	3.974900E+01
383	  0.096553110	-8.148000E+00	  0.096553110	7.494700E+01	  0.096553110	4.457600E+01	  0.096553110	3.978500E+01
384	  0.096753508	-8.193000E+00	  0.096753508	7.439100E+01	  0.096753508	4.502900E+01	  0.096753508	3.980300E+01
385	  0.096953906	-8.237000E+00	  0.096953906	7.381700E+01	  0.096953906	4.549400E+01	  0.096953906	3.982300E+01
386	  0.097154312	-8.280000E+00	  0.097154312	7.323100E+01	  0.097154312	4.596600E+01	  0.097154312	3.984700E+01
387	  0.097354710	-8.323000E+00	  0.097354710	7.270300E+01	  0.097354710	4.640100E+01	  0.097354710	3.984400E+01
388	  0.097555116	-8.372000E+00	  0.097555116	7.214300E+01	  0.097555116	4.687200E+01	  0.097555116	3.982200E+01
389	  0.097755514	-8.416000E+00	  0.097755514	7.162500E+01	  0.097755514	4.730600E+01	  0.097755514	3.980100E+01
390	  0.097955912	-8.459000E+00	  0.097955912	7.109200E+01	  0.097955912	4.774800E+01	  0.097955912	3.978300E+01
391	  0.098156318	-8.501000E+00	  0.098156318	7.054900E+01	  0.098156318	4.819500E+01	  0.098156318	3.977100E+01
392	  0.098356716	-8.548000E+00	  0.098356716	7.005900E+01	  0.098356716	4.861800E+01	  0.098356716	3.971100E+01
393	  0.098557115	-8.597000E+00	  0.098557115	6.958300E+01	  0.098557115	4.903500E+01	  0.098557115	3.963200E+01
394	  0.098757520	-8.636000E+00	  0.098757520	6.907600E+01	  0.098757520	4.945500E+01	  0.098757520	3.960000E+01
395	  0.098957919	-8.684000E+00	  0.098957919	6.859000E+01	  0.098957919	4.987600E+01	  0.098957919	3.952200E+01
396	  0.099158317	-8.729000E+00	  0.099158317	6.811100E+01	  0.099158317	5.028600E+01	  0.099158317	3.944700E+01
397	  0.099358723	-8.769000E+00	  0.099358723	6.762400E+01	  0.099358723	5.069500E+01	  0.099358723	3.938800E+01
398	  0.099559121	-8.814000E+00	  0.099559121	6.720400E+01	  0.099559121	5.106300E+01	  0.099559121	3.929000E+01
399	  0.099759519	-8.851000E+00	  0.099759519	6.673700E+01	  0.099759519	5.145200E+01	  0.099759519	3.923400E+01
400	  0.099959925	-8.896000E+00	  0.099959925	6.629800E+01	  0.099959925	5.183300E+01	  0.099959925	3.912700E+01
401	  0.100160323	-8.919000E+00	  0.100160323	6.585000E+01	  0.100160323	5.218700E+01	  0.100160323	3.912400E+01
402	  0.100360721	-8.969000E+00	  0.100360721	6.544800E+01	  0.100360721	5.254700E+01	  0.100360721	3.897900E+01
403	  0.100561127	-9.013000E+00	  0.100561127	6.498000E+01	  0.100561127	5.294600E+01	  0.100561127	3.886900E+01
404	  0.100761525	-9.048000E+00	  0.100761525	6.459100E+01	  0.100761525	5.327300E+01	  0.100761525	3.878300E+01
405	  0.100961931	-9.083000E+00	  0.100961931	6.416700E+01	  0.100961931	5.362600E+01	  0.100961931	3.870400E+01
406	  0.101162329	-9.126000E+00	  0.101162329	6.375400E+01	  0.101162329	5.397900E+01	  0.101162329	3.857800E+01
407	  0.101362728	-9.168000E+00	  0.101362728	6.335200E+01	  0.101362728	5.432300E+01	  0.101362728	3.845000E+01
408	  0.101563133	-9.191000E+00	  0.101563133	6.297200E+01	  0.101563133	5.462700E+01	  0.101563133	3.840700E+01
409	  0.101763532	-9.234000E+00	  0.101763532	6.267100E+01	  0.101763532	5.489600E+01	  0.101763532	3.824800E+01
410	  0.101963930	-9.266000E+00	  0.101963930	6.222700E+01	  0.101963930	5.525600E+01	  0.101963930	3.816500E+01
411	  0.102164328	-9.296000E+00	  0.102164328	6.187600E+01	  0.102164328	5.554500E+01	  0.102164328	3.807400E+01
412	  0.102364726	-9.326000E+00	  0.102364726	6.151700E+01	  0.102364726	5.584000E+01	  0.102364726	3.798100E+01
413	  0.102565125	-9.360000E+00	  0.102565125	6.118500E+01	  0.102565125	5.611800E+01	  0.102565125	3.785800E+01
414	  0.102765530	-9.383000E+00	  0.102765530	6.081100E+01	  0.102765530	5.641500E+01	  0.102765530	3.779700E+01
415	  0.102965929	-9.408000E+00	  0.102965929	6.047400E+01	  0.102965929	5.668800E+01	  0.102965929	3.771800E+01
416	  0.103166327	-9.438000E+00	  0.103166327	6.015900E+01	  0.103166327	5.694700E+01	  0.103166327	3.760900E+01
417	  0.103366733	-9.452000E+00	  0.103366733	5.983900E+01	  0.103366733	5.719800E+01	  0.103366733	3.757200E+01
418	  0.103567131	-9.487000E+00	  0.103567131	5.951600E+01	  0.103567131	5.746500E+01	  0.103567131	3.743400E+01
419	  0.103767529	-9.505000E+00	  0.103767529	5.917900E+01	  0.103767529	5.773000E+01	  0.103767529	3.738100E+01
420	  0.103967935	-9.536000E+00	  0.103967935	5.883000E+01	  0.103967935	5.801300E+01	  0.103967935	3.726100E+01
421	  0.104168333	-9.559000E+00	  0.104168333	5.855100E+01	  0.104168333	5.823700E+01	  0.104168333	3.717100E+01
422	  0.104368731	-9.571000E+00	  0.104368731	5.822700E+01	  0.104368731	5.848900E+01	  0.104368731	3.713800E+01
423	  0.104569137	-9.591000E+00	  0.104569137	5.791800E+01	  0.104569137	5.873300E+01	  0.104569137	3.706200E+01
424	  0.104769535	-9.603000E+00	  0.104769535	5.768200E+01	  0.104769535	5.891900E+01	  0.104769535	3.701900E+01
425	  0.104969934	-9.625000E+00	  0.104969934	5.734000E+01	  0.104969934	5.918900E+01	  0.104969934	3.693100E+01
426	  0.105170339	-9.634000E+00	  0.105170339	5.703600E+01	  0.105170339	5.942500E+01	  0.105170339	3.690200E+01
427	  0.105370738	-9.651000E+00	  0.105370738	5.673100E+01	  0.105370738	5.966500E+01	  0.105370738	3.683400E+01
428	  0.105571143	-9.650000E+00	  0.105571143	5.643200E+01	  0.105571143	5.989400E+01	  0.105571143	3.685500E+01
429	  0.105771542	-9.662000E+00	  0.105771542	5.606600E+01	  0.105771542	6.018000E+01	  0.105771542	3.680700E+01
430	  0.105971940	-9.676000E+00	  0.105971940	5.576300E+01	  0.105971940	6.041800E+01	  0.105971940	3.675000E+01
431	  0.106172346	-9.681000E+00	  0.106172346	5.545600E+01	  0.106172346	6.065700E+01	  0.106172346	3.673400E+01
432	  0.106372744	-9.691000E+00	  0.106372744	5.514400E+01	  0.106372744	6.090300E+01	  0.106372744	3.668900E+01
433	  0.106573142	-9.689000E+00	  0.106573142	5.481500E+01	  0.106573142	6.115900E+01	  0.106573142	3.670500E+01
434	  0.106773548	-9.701000E+00	  0.106773548	5.452600E+01	  0.106773548	6.138700E+01	  0.106773548	3.664700E+01
435	  0.106973946	-9.696000E+00	  0.106973946	5.420000E+01	  0.106973946	6.164400E+01	  0.106973946	3.667700E+01
436	  0.107174344	-9.697000E+00	  0.107174344	5.382200E+01	  0.107174344	6.194200E+01	  0.107174344	3.667400E+01
437	  0.107374750	-9.696000E+00	  0.107374750	5.344600E+01	  0.107374750	6.224100E+01	  0.107374750	3.667900E+01
438	  0.107575148	-9.698000E+00	  0.107575148	5.315000E+01	  0.107575148	6.247800E+01	  0.107575148	3.666900E+01
439	  0.107775547	-9.680000E+00	  0.107775547	5.275000E+01	  0.107775547	6.280000E+01	  0.107775547	3.675700E+01
440	  0.107975952	-9.671000E+00	  0.107975952	5.246200E+01	  0.107975952	6.303400E+01	  0.107975952	3.680200E+01
441	  0.108176351	-9.668000E+00	  0.108176351	5.202500E+01	  0.108176351	6.339000E+01	  0.108176351	3.680700E+01
442	  0.108376749	-9.659000E+00	  0.108376749	5.163400E+01	  0.108376749	6.371100E+01	  0.108376749	3.684000E+01
443	  0.108577155	-9.658000E+00	  0.108577155	5.125100E+01	  0.108577155	6.402600E+01	  0.108577155	3.683300E+01
444	  0.108777553	-9.645000E+00	  0.108777553	5.084500E+01	  0.108777553	6.436500E+01	  0.108777553	3.688500E+01
445	  0.108977959	-9.630000E+00	  0.108977959	5.044100E+01	  0.108977959	6.470600E+01	  0.108977959	3.694300E+01
446	  0.109178357	-9.619000E+00	  0.109178357	5.002700E+01	  0.109178357	6.505700E+01	  0.109178357	3.698000E+01
447	  0.109378755	-9.602000E+00	  0.109378755	4.963600E+01	  0.109378755	6.539400E+01	  0.109378755	3.704800E+01
448	  0.109579161	-9.592000E+00	  0.109579161	4.915100E+01	  0.109579161	6.581000E+01	  0.109579161	3.706800E+01
449	  0.109779559	-9.562000E+00	  0.109779559	4.867200E+01	  0.109779559	6.623700E+01	  0.109779559	3.719800E+01
450	  0.109979957	-9.555000E+00	  0.109979957	4.821200E+01	  0.109979957	6.663800E+01	  0.109979957	3.719300E+01
451	  0.110180363	-9.533000E+00	  0.110180363	4.773600E+01	  0.110180363	6.706700E+01	  0.110180363	3.727500E+01
452	  0.110380761	-9.517000E+00	  0.110380761	4.724300E+01	  0.110380761	6.751000E+01	  0.110380761	3.731200E+01
453	  0.110581160	-9.499000E+00	  0.110581160	4.674600E+01	  0.110581160	6.796300E+01	  0.110581160	3.735200E+01
454	  0.110781565	-9.477000E+00	  0.110781565	4.624700E+01	  0.110781565	6.842600E+01	  0.110781565	3.742000E+01
455	  0.110981964	-9.464000E+00	  0.110981964	4.572900E+01	  0.110981964	6.890300E+01	  0.110981964	3.742300E+01
456	  0.111182362	-9.444000E+00	  0.111182362	4.524800E+01	  0.111182362	6.935800E+01	  0.111182362	3.746900E+01
457	  0.111382768	-9.410000E+00	  0.111382768	4.464900E+01	  0.111382768	6.994100E+01	  0.111382768	3.757300E+01
458	  0.111583166	-9.395000E+00	  0.111583166	4.411400E+01	  0.111583166	7.045100E+01	  0.111583166	3.756800E+01
459	  0.111783572	-9.381000E+00	  0.111783572	4.353600E+01	  0.111783572	7.100500E+01	  0.111783572	3.754700E+01
460	  0.111983970	-9.362000E+00	  0.111983970	4.299400E+01	  0.111983970	7.153700E+01	  0.111983970	3.754900E+01
461	  0.112184368	-9.344000E+00	  0.112184368	4.241700E+01	  0.112184368	7.210600E+01	  0.112184368	3.753900E+01
462	  0.112384774	-9.326000E+00	  0.112384774	4.175100E+01	  0.112384774	7.276500E+01	  0.112384774	3.749400E+01
463	  0.112585172	-9.304000E+00	  0.112585172	4.112700E+01	  0.112585172	7.339900E+01	  0.112585172	3.747900E+01
464	  0.112785570	-9.288000E+00	  0.112785570	4.046300E+01	  0.112785570	7.406700E+01	  0.112785570	3.740400E+01
465	  0.112985976	-9.267000E+00	  0.112985976	3.986000E+01	  0.112985976	7.469100E+01	  0.112985976	3.736400E+01
466	  0.113186374	-9.250000E+00	  0.113186374	3.917900E+01	  0.113186374	7.539100E+01	  0.113186374	3.726300E+01
467	  0.113386773	-9.241000E+00	  0.113386773	3.853400E+01	  0.113386773	7.604400E+01	  0.113386773	3.711600E+01
468	  0.113587178	-9.225000E+00	  0.113587178	3.785100E+01	  0.113587178	7.675400E+01	  0.113587178	3.698400E+01
469	  0.113787577	-9.208000E+00	  0.113787577	3.707200E+01	  0.113787577	7.757000E+01	  0.113787577	3.681400E+01
470	  0.113987975	-9.193000E+00	  0.113987975	3.636100E+01	  0.113987975	7.832000E+01	  0.113987975	3.663600E+01
471	  0.114188381	-9.178000E+00	  0.114188381	3.561600E+01	  0.114188381	7.910800E+01	  0.114188381	3.642800E+01
472	  0.114388779	-9.164000E+00	  0.114388779	3.482200E+01	  0.114388779	7.994800E+01	  0.114388779	3.617300E+01
473	  0.114589177	-9.157000E+00	  0.114589177	3.404700E+01	  0.114589177	8.075500E+01	  0.114589177	3.586300E+01
474	  0.114789583	-9.148000E+00	  0.114789583	3.326300E+01	  0.114789583	8.157500E+01	  0.114789583	3.553600E+01
475	  0.114989981	-9.140000E+00	  0.114989981	3.242800E+01	  0.114989981	8.244900E+01	  0.114989981	3.515800E+01
476	  0.115190387	-9.131000E+00	  0.115190387	3.156900E+01	  0.115190387	8.334800E+01	  0.115190387	3.474300E+01
477	  0.115390785	-9.121000E+00	  0.115390785	3.067500E+01	  0.115390785	8.428900E+01	  0.115390785	3.428700E+01
478	  0.115591183	-9.122000E+00	  0.115591183	2.978600E+01	  0.115591183	8.517800E+01	  0.115591183	3.373400E+01
479	  0.115791589	-9.117000E+00	  0.115791589	2.888300E+01	  0.115791589	8.610600E+01	  0.115791589	3.318400E+01
480	  0.115991987	-9.112000E+00	  0.115991987	2.795800E+01	  0.115991987	8.704500E+01	  0.115991987	3.258100E+01
481	  0.116192386	-9.105000E+00	  0.116192386	2.705200E+01	  0.116192386	8.797500E+01	  0.116192386	3.198000E+01
482	  0.116392791	-9.106000E+00	  0.116392791	2.607600E+01	  0.116392791	8.891900E+01	  0.116392791	3.123400E+01
483	  0.116593190	-9.111000E+00	  0.116593190	2.510800E+01	  0.116593190	8.982400E+01	  0.116593190	3.043500E+01
484	  0.116793588	-9.106000E+00	  0.116793588	2.408200E+01	  0.116793588	9.082500E+01	  0.116793588	2.961600E+01
485	  0.116993994	-9.111000E+00	  0.116993994	2.309200E+01	  0.116993994	9.171700E+01	  0.116993994	2.872500E+01
486	  0.117194392	-9.114000E+00	  0.117194392	2.206900E+01	  0.117194392	9.262700E+01	  0.117194392	2.777900E+01
487	  0.117394790	-9.121000E+00	  0.117394790	2.106100E+01	  0.117394790	9.347700E+01	  0.117394790	2.678500E+01
488	  0.117595196	-9.128000E+00	  0.117595196	2.001400E+01	  0.117595196	9.433500E+01	  0.117595196	2.571900E+01
489	  0.117795594	-9.146000E+00	  0.117795594	1.893600E+01	  0.117795594	9.511000E+01	  0.117795594	2.452100E+01
490	  0.117995992	-9.159000E+00	  0.117995992	1.784800E+01	  0.117995992	9.588300E+01	  0.117995992	2.330100E+01
491	  0.118196398	-9.170000E+00	  0.118196398	1.676800E+01	  0.118196398	9.663200E+01	  0.118196398	2.207100E+01
492	  0.118396796	-9.191000E+00	  0.118396796	1.564700E+01	  0.118396796	9.728300E+01	  0.118396796	2.070600E+01
493	  0.118597202	-9.209000E+00	  0.118597202	1.450200E+01	  0.118597202	9.793100E+01	  0.118597202	1.930400E+01
494	  0.118797600	-9.236000E+00	  0.118797600	1.335000E+01	  0.118797600	9.845300E+01	  0.118797600	1.782500E+01
