! Anritsu VNA Master:             	Model: MS2036C/10/77
! SN:             	1601066
! /bd0/18may09/254.ew.m11.txt
! Existing Calibration Information:
! TYPE:             	Current Settings	Active Cal Settings
! TIME:             	05/09/2018 12:11:43 PM	05/09/2018 12:08:51 PM
! INTERNAL TEMP:    	55.0 C	54.8 C
! # POINTS:         	494	494
! START FREQ:       	20.000 MHz	20.000 MHz
! STOP FREQ:        	118.797 594 MHz	118.797 594 MHz
! SOURCE POWER:     	High	High
! IFBW:             	50 Hz	50 Hz
! AVG FACTOR:       	  1 	  1 
! REF PLANE 1:      	0 mm	0 mm
! REF PLANE 2:      	0 mm	0 mm
! CAL TYPE:         	Full S22	Full S22
! CAL METHOD:       	SOLT	SOLT
! CAL LINE TYPE:    	Coax	Coax
! DUT PORT 1:       	K-Conn(M)	K-Conn(M)
! DUT PORT 2:       	K-Conn(M)	K-Conn(M)
! CAL STATUS:       	OK: Accuracy High	--
! PROP-V:       	0.700
! CABLE LOSS:       	0.000 dB/m
! REF IMPEDANCE:       	50.0
! Trace Specific Parameters:	TR1	TR2	TR3	TR4
! TRACE.#.Y (GRAPH TYPE)	LOG MAG	PHASE	REAL IMPEDANCE	IMAGINARY IMPEDANCE
! TRACE.#.X 	FREQ.GHZ	FREQ.GHZ	FREQ.GHZ	FREQ.GHZ
! S-PARAMETER	S22	S22	S22	S22
! SMOOTH/APERTURE %	0	0	0	0
! WINDOW	NSL	NSL	NSL	NSL
! GATING	OFF	OFF	OFF	OFF
! FGTD	OFF	OFF	OFF	OFF
Marker Information per Trace:	TR1	TR2	TR3	TR4
!MK1	--	"MK1 TR2:  20.000 MHz,PH:-126.76°"	--	--
!MK2	--	--	"MK2 TR3:  70.100 200 MHz,Z:(16.134 ohm, -0.806 ohm)"	--
!MK3	--	--	--	--
!MK4	--	--	--	--
!MK5	--	--	--	--
!MK6	--	--	--	--
!MK7	--	--	--	--
!MK8	--	--	--	--
PNT	TR1.FREQ.GHZ	TR1.LOG MAG.dB	TR2.FREQ.GHZ	TR2.PHASE.deg	TR3.FREQ.GHZ	TR3.REAL IMPEDANCE.ohm	TR4.FREQ.GHZ	TR4.IMAGINARY IMPEDANCE.ohm
1	  0.020000000	-6.310000E-01	  0.020000000	-1.267610E+02	  0.020000000	2.273000E+00	  0.020000000	-2.501700E+01
2	  0.020200402	-6.320000E-01	  0.020200402	-1.282360E+02	  0.020200402	2.248000E+00	  0.020200402	-2.421900E+01
3	  0.020400802	-6.340000E-01	  0.020400802	-1.297060E+02	  0.020400802	2.227000E+00	  0.020400802	-2.343300E+01
4	  0.020601204	-6.380000E-01	  0.020601204	-1.312110E+02	  0.020601204	2.213000E+00	  0.020601204	-2.263700E+01
5	  0.020801604	-6.390000E-01	  0.020801604	-1.327420E+02	  0.020801604	2.192000E+00	  0.020801604	-2.183800E+01
6	  0.021002004	-6.420000E-01	  0.021002004	-1.342780E+02	  0.021002004	2.177000E+00	  0.021002004	-2.104600E+01
7	  0.021202406	-6.450000E-01	  0.021202406	-1.358140E+02	  0.021202406	2.163000E+00	  0.021202406	-2.026200E+01
8	  0.021402806	-6.470000E-01	  0.021402806	-1.373610E+02	  0.021402806	2.146000E+00	  0.021402806	-1.948200E+01
9	  0.021603208	-6.510000E-01	  0.021603208	-1.388890E+02	  0.021603208	2.137000E+00	  0.021603208	-1.871900E+01
10	  0.021803608	-6.550000E-01	  0.021803608	-1.404200E+02	  0.021803608	2.129000E+00	  0.021803608	-1.796100E+01
11	  0.022004008	-6.600000E-01	  0.022004008	-1.419510E+02	  0.022004008	2.124000E+00	  0.022004008	-1.721200E+01
12	  0.022204408	-6.660000E-01	  0.022204408	-1.435300E+02	  0.022204408	2.123000E+00	  0.022204408	-1.644500E+01
13	  0.022404809	-6.720000E-01	  0.022404809	-1.451030E+02	  0.022404809	2.125000E+00	  0.022404809	-1.568900E+01
14	  0.022605211	-6.750000E-01	  0.022605211	-1.467020E+02	  0.022605211	2.116000E+00	  0.022605211	-1.492700E+01
15	  0.022805611	-6.790000E-01	  0.022805611	-1.483000E+02	  0.022805611	2.110000E+00	  0.022805611	-1.417200E+01
16	  0.023006011	-6.860000E-01	  0.023006011	-1.498910E+02	  0.023006011	2.116000E+00	  0.023006011	-1.342500E+01
17	  0.023206413	-6.900000E-01	  0.023206413	-1.514740E+02	  0.023206413	2.115000E+00	  0.023206413	-1.268800E+01
18	  0.023406813	-6.950000E-01	  0.023406813	-1.530610E+02	  0.023406813	2.113000E+00	  0.023406813	-1.195500E+01
19	  0.023607215	-7.020000E-01	  0.023607215	-1.546690E+02	  0.023607215	2.121000E+00	  0.023607215	-1.121600E+01
20	  0.023807615	-7.100000E-01	  0.023807615	-1.562760E+02	  0.023807615	2.133000E+00	  0.023807615	-1.048300E+01
21	  0.024008015	-7.180000E-01	  0.024008015	-1.579180E+02	  0.024008015	2.146000E+00	  0.024008015	-9.738000E+00
22	  0.024208417	-7.240000E-01	  0.024208417	-1.595720E+02	  0.024208417	2.150000E+00	  0.024208417	-8.992000E+00
23	  0.024408817	-7.320000E-01	  0.024408817	-1.612340E+02	  0.024408817	2.163000E+00	  0.024408817	-8.246000E+00
24	  0.024609219	-7.370000E-01	  0.024609219	-1.628940E+02	  0.024609219	2.170000E+00	  0.024609219	-7.505000E+00
25	  0.024809619	-7.460000E-01	  0.024809619	-1.645670E+02	  0.024809619	2.186000E+00	  0.024809619	-6.761000E+00
26	  0.025010020	-7.550000E-01	  0.025010020	-1.662240E+02	  0.025010020	2.204000E+00	  0.025010020	-6.028000E+00
27	  0.025210422	-7.640000E-01	  0.025210422	-1.679150E+02	  0.025210422	2.224000E+00	  0.025210422	-5.282000E+00
28	  0.025410822	-7.750000E-01	  0.025410822	-1.696070E+02	  0.025410822	2.249000E+00	  0.025410822	-4.538000E+00
29	  0.025611224	-7.860000E-01	  0.025611224	-1.713090E+02	  0.025611224	2.276000E+00	  0.025611224	-3.791000E+00
30	  0.025811624	-7.970000E-01	  0.025811624	-1.730300E+02	  0.025811624	2.301000E+00	  0.025811624	-3.038000E+00
31	  0.026012026	-8.070000E-01	  0.026012026	-1.747600E+02	  0.026012026	2.327000E+00	  0.026012026	-2.282000E+00
32	  0.026212426	-8.180000E-01	  0.026212426	-1.765030E+02	  0.026212426	2.354000E+00	  0.026212426	-1.522000E+00
33	  0.026412826	-8.310000E-01	  0.026412826	-1.782410E+02	  0.026412826	2.392000E+00	  0.026412826	-7.650000E-01
34	  0.026613226	-8.450000E-01	  0.026613226	1.799910E+02	  0.026613226	2.431000E+00	  0.026613226	3.000000E-03
35	  0.026813626	-8.590000E-01	  0.026813626	1.782270E+02	  0.026813626	2.472000E+00	  0.026813626	7.710000E-01
36	  0.027014028	-8.750000E-01	  0.027014028	1.764520E+02	  0.027014028	2.519000E+00	  0.027014028	1.544000E+00
37	  0.027214428	-8.900000E-01	  0.027214428	1.746750E+02	  0.027214428	2.566000E+00	  0.027214428	2.318000E+00
38	  0.027414829	-9.060000E-01	  0.027414829	1.728900E+02	  0.027414829	2.615000E+00	  0.027414829	3.097000E+00
39	  0.027615231	-9.220000E-01	  0.027615231	1.710930E+02	  0.027615231	2.668000E+00	  0.027615231	3.883000E+00
40	  0.027815631	-9.380000E-01	  0.027815631	1.692870E+02	  0.027815631	2.723000E+00	  0.027815631	4.674000E+00
41	  0.028016033	-9.560000E-01	  0.028016033	1.674720E+02	  0.028016033	2.781000E+00	  0.028016033	5.471000E+00
42	  0.028216433	-9.740000E-01	  0.028216433	1.656310E+02	  0.028216433	2.847000E+00	  0.028216433	6.282000E+00
43	  0.028416833	-9.940000E-01	  0.028416833	1.637940E+02	  0.028416833	2.916000E+00	  0.028416833	7.094000E+00
44	  0.028617235	-1.014000E+00	  0.028617235	1.619490E+02	  0.028617235	2.989000E+00	  0.028617235	7.914000E+00
45	  0.028817635	-1.033000E+00	  0.028817635	1.601120E+02	  0.028817635	3.063000E+00	  0.028817635	8.734000E+00
46	  0.029018037	-1.054000E+00	  0.029018037	1.582620E+02	  0.029018037	3.144000E+00	  0.029018037	9.563000E+00
47	  0.029218437	-1.079000E+00	  0.029218437	1.563970E+02	  0.029218437	3.236000E+00	  0.029218437	1.040400E+01
48	  0.029418837	-1.101000E+00	  0.029418837	1.545100E+02	  0.029418837	3.328000E+00	  0.029418837	1.126100E+01
49	  0.029619239	-1.127000E+00	  0.029619239	1.526220E+02	  0.029619239	3.430000E+00	  0.029619239	1.212400E+01
50	  0.029819639	-1.151000E+00	  0.029819639	1.507200E+02	  0.029819639	3.534000E+00	  0.029819639	1.299900E+01
51	  0.030020041	-1.176000E+00	  0.030020041	1.488120E+02	  0.030020041	3.642000E+00	  0.030020041	1.388500E+01
52	  0.030220442	-1.201000E+00	  0.030220442	1.469100E+02	  0.030220442	3.755000E+00	  0.030220442	1.477500E+01
53	  0.030420844	-1.228000E+00	  0.030420844	1.450010E+02	  0.030420844	3.877000E+00	  0.030420844	1.567700E+01
54	  0.030621244	-1.255000E+00	  0.030621244	1.431030E+02	  0.030621244	4.007000E+00	  0.030621244	1.658300E+01
55	  0.030821642	-1.286000E+00	  0.030821642	1.411880E+02	  0.030821642	4.150000E+00	  0.030821642	1.750500E+01
56	  0.031022044	-1.315000E+00	  0.031022044	1.392490E+02	  0.031022044	4.298000E+00	  0.031022044	1.844900E+01
57	  0.031222444	-1.339000E+00	  0.031222444	1.373120E+02	  0.031222444	4.432000E+00	  0.031222444	1.940500E+01
58	  0.031422846	-1.369000E+00	  0.031422846	1.353430E+02	  0.031422846	4.591000E+00	  0.031422846	2.038600E+01
59	  0.031623244	-1.403000E+00	  0.031623244	1.333850E+02	  0.031623244	4.772000E+00	  0.031623244	2.137400E+01
60	  0.031823646	-1.435000E+00	  0.031823646	1.313980E+02	  0.031823646	4.954000E+00	  0.031823646	2.239200E+01
61	  0.032024048	-1.469000E+00	  0.032024048	1.294230E+02	  0.032024048	5.152000E+00	  0.032024048	2.341700E+01
62	  0.032224450	-1.505000E+00	  0.032224450	1.274460E+02	  0.032224450	5.364000E+00	  0.032224450	2.445700E+01
63	  0.032424849	-1.539000E+00	  0.032424849	1.254530E+02	  0.032424849	5.582000E+00	  0.032424849	2.552300E+01
64	  0.032625251	-1.577000E+00	  0.032625251	1.234460E+02	  0.032625251	5.825000E+00	  0.032625251	2.661100E+01
65	  0.032825653	-1.609000E+00	  0.032825653	1.214050E+02	  0.032825653	6.057000E+00	  0.032825653	2.774100E+01
66	  0.033026051	-1.648000E+00	  0.033026051	1.193830E+02	  0.033026051	6.329000E+00	  0.033026051	2.887700E+01
67	  0.033226453	-1.684000E+00	  0.033226453	1.173460E+02	  0.033226453	6.600000E+00	  0.033226453	3.004300E+01
68	  0.033426855	-1.724000E+00	  0.033426855	1.153140E+02	  0.033426855	6.902000E+00	  0.033426855	3.122800E+01
69	  0.033627257	-1.761000E+00	  0.033627257	1.132980E+02	  0.033627257	7.211000E+00	  0.033627257	3.242700E+01
70	  0.033827655	-1.801000E+00	  0.033827655	1.112490E+02	  0.033827655	7.548000E+00	  0.033827655	3.367000E+01
71	  0.034028057	-1.839000E+00	  0.034028057	1.092060E+02	  0.034028057	7.892000E+00	  0.034028057	3.493700E+01
72	  0.034228459	-1.882000E+00	  0.034228459	1.071530E+02	  0.034228459	8.283000E+00	  0.034228459	3.623400E+01
73	  0.034428857	-1.923000E+00	  0.034428857	1.050910E+02	  0.034428857	8.686000E+00	  0.034428857	3.756900E+01
74	  0.034629259	-1.965000E+00	  0.034629259	1.030090E+02	  0.034629259	9.123000E+00	  0.034629259	3.894700E+01
75	  0.034829661	-2.009000E+00	  0.034829661	1.009520E+02	  0.034829661	9.592000E+00	  0.034829661	4.033900E+01
76	  0.035030060	-2.056000E+00	  0.035030060	9.885400E+01	  0.035030060	1.010700E+01	  0.035030060	4.179400E+01
77	  0.035230462	-2.101000E+00	  0.035230462	9.678800E+01	  0.035230462	1.064300E+01	  0.035230462	4.326200E+01
78	  0.035430863	-2.148000E+00	  0.035430863	9.470800E+01	  0.035430863	1.122600E+01	  0.035430863	4.477800E+01
79	  0.035631265	-2.195000E+00	  0.035631265	9.263300E+01	  0.035631265	1.184900E+01	  0.035631265	4.633000E+01
80	  0.035831664	-2.242000E+00	  0.035831664	9.054000E+01	  0.035831664	1.251500E+01	  0.035831664	4.793800E+01
81	  0.036032066	-2.291000E+00	  0.036032066	8.845300E+01	  0.036032066	1.324000E+01	  0.036032066	4.958300E+01
82	  0.036232468	-2.341000E+00	  0.036232468	8.637000E+01	  0.036232468	1.401900E+01	  0.036232468	5.127000E+01
83	  0.036432866	-2.391000E+00	  0.036432866	8.424900E+01	  0.036432866	1.486300E+01	  0.036432866	5.303900E+01
84	  0.036633268	-2.441000E+00	  0.036633268	8.217600E+01	  0.036633268	1.575700E+01	  0.036633268	5.481700E+01
85	  0.036833670	-2.492000E+00	  0.036833670	8.007300E+01	  0.036833670	1.673400E+01	  0.036833670	5.667200E+01
86	  0.037034072	-2.546000E+00	  0.037034072	7.798200E+01	  0.037034072	1.780500E+01	  0.037034072	5.856200E+01
87	  0.037234470	-2.597000E+00	  0.037234470	7.588600E+01	  0.037234470	1.894200E+01	  0.037234470	6.052200E+01
88	  0.037434869	-2.649000E+00	  0.037434869	7.379900E+01	  0.037434869	2.017100E+01	  0.037434869	6.252800E+01
89	  0.037635271	-2.700000E+00	  0.037635271	7.171100E+01	  0.037635271	2.149500E+01	  0.037635271	6.459700E+01
90	  0.037835669	-2.755000E+00	  0.037835669	6.961400E+01	  0.037835669	2.296200E+01	  0.037835669	6.672500E+01
91	  0.038036071	-2.808000E+00	  0.038036071	6.748600E+01	  0.038036071	2.456100E+01	  0.038036071	6.895500E+01
92	  0.038236473	-2.865000E+00	  0.038236473	6.538300E+01	  0.038236473	2.630800E+01	  0.038236473	7.120600E+01
93	  0.038436871	-2.920000E+00	  0.038436871	6.324700E+01	  0.038436871	2.822500E+01	  0.038436871	7.356300E+01
94	  0.038637273	-2.977000E+00	  0.038637273	6.113600E+01	  0.038637273	3.031200E+01	  0.038637273	7.593900E+01
95	  0.038837675	-3.032000E+00	  0.038837675	5.904500E+01	  0.038837675	3.254900E+01	  0.038837675	7.836100E+01
96	  0.039038073	-3.084000E+00	  0.039038073	5.695400E+01	  0.039038073	3.497300E+01	  0.039038073	8.084800E+01
97	  0.039238475	-3.137000E+00	  0.039238475	5.486900E+01	  0.039238475	3.762900E+01	  0.039238475	8.336400E+01
98	  0.039438877	-3.192000E+00	  0.039438877	5.280400E+01	  0.039438877	4.052200E+01	  0.039438877	8.588000E+01
99	  0.039639279	-3.241000E+00	  0.039639279	5.070600E+01	  0.039639279	4.368300E+01	  0.039639279	8.851400E+01
100	  0.039839678	-3.297000E+00	  0.039839678	4.860200E+01	  0.039839678	4.722900E+01	  0.039839678	9.111000E+01
101	  0.040040080	-3.349000E+00	  0.040040080	4.651000E+01	  0.040040080	5.105700E+01	  0.040040080	9.372000E+01
102	  0.040240481	-3.400000E+00	  0.040240481	4.441900E+01	  0.040240481	5.525900E+01	  0.040240481	9.630000E+01
103	  0.040440880	-3.453000E+00	  0.040440880	4.234200E+01	  0.040440880	5.985600E+01	  0.040440880	9.877200E+01
104	  0.040641282	-3.505000E+00	  0.040641282	4.027600E+01	  0.040641282	6.486500E+01	  0.040641282	1.011280E+02
105	  0.040841684	-3.554000E+00	  0.040841684	3.821700E+01	  0.040841684	7.030300E+01	  0.040841684	1.033640E+02
106	  0.041042086	-3.608000E+00	  0.041042086	3.618200E+01	  0.041042086	7.622900E+01	  0.041042086	1.052680E+02
107	  0.041242484	-3.662000E+00	  0.041242484	3.410800E+01	  0.041242484	8.280000E+01	  0.041242484	1.069070E+02
108	  0.041442886	-3.712000E+00	  0.041442886	3.205800E+01	  0.041442886	8.982100E+01	  0.041442886	1.082160E+02
109	  0.041643288	-3.763000E+00	  0.041643288	2.998700E+01	  0.041643288	9.750500E+01	  0.041643288	1.090160E+02
110	  0.041843686	-3.813000E+00	  0.041843686	2.793100E+01	  0.041843686	1.056970E+02	  0.041843686	1.092160E+02
111	  0.042044088	-3.864000E+00	  0.042044088	2.588700E+01	  0.042044088	1.143820E+02	  0.042044088	1.086310E+02
112	  0.042244490	-3.915000E+00	  0.042244490	2.384200E+01	  0.042244490	1.235450E+02	  0.042244490	1.071160E+02
113	  0.042444889	-3.963000E+00	  0.042444889	2.181700E+01	  0.042444889	1.330030E+02	  0.042444889	1.046560E+02
114	  0.042645290	-4.017000E+00	  0.042645290	1.978900E+01	  0.042645290	1.426650E+02	  0.042645290	1.007850E+02
115	  0.042845692	-4.067000E+00	  0.042845692	1.777800E+01	  0.042845692	1.523030E+02	  0.042845692	9.577700E+01
116	  0.043046094	-4.117000E+00	  0.043046094	1.575700E+01	  0.043046094	1.617800E+02	  0.043046094	8.929900E+01
117	  0.043246493	-4.166000E+00	  0.043246493	1.372600E+01	  0.043246493	1.708360E+02	  0.043246493	8.134300E+01
118	  0.043446895	-4.212000E+00	  0.043446895	1.173300E+01	  0.043446895	1.790200E+02	  0.043446895	7.219900E+01
119	  0.043647297	-4.260000E+00	  0.043647297	9.726000E+00	  0.043647297	1.861510E+02	  0.043647297	6.162400E+01
120	  0.043847695	-4.308000E+00	  0.043847695	7.731000E+00	  0.043847695	1.918280E+02	  0.043847695	4.995000E+01
121	  0.044048097	-4.354000E+00	  0.044048097	5.743000E+00	  0.044048097	1.959440E+02	  0.044048097	3.751700E+01
122	  0.044248499	-4.402000E+00	  0.044248499	3.763000E+00	  0.044248499	1.982460E+02	  0.044248499	2.460800E+01
123	  0.044448901	-4.448000E+00	  0.044448901	1.817000E+00	  0.044448901	1.987440E+02	  0.044448901	1.178500E+01
124	  0.044649299	-4.495000E+00	  0.044649299	-1.460000E-01	  0.044649299	1.975100E+02	  0.044649299	-9.320000E-01
125	  0.044849701	-4.538000E+00	  0.044849701	-2.076000E+00	  0.044849701	1.947850E+02	  0.044849701	-1.291200E+01
126	  0.045050103	-4.582000E+00	  0.045050103	-4.033000E+00	  0.045050103	1.905920E+02	  0.045050103	-2.426500E+01
127	  0.045250501	-4.625000E+00	  0.045250501	-5.978000E+00	  0.045250501	1.852700E+02	  0.045250501	-3.457900E+01
128	  0.045450903	-4.668000E+00	  0.045450903	-7.883000E+00	  0.045450903	1.790780E+02	  0.045450903	-4.357500E+01
129	  0.045651305	-4.709000E+00	  0.045651305	-9.811000E+00	  0.045651305	1.722180E+02	  0.045651305	-5.156700E+01
130	  0.045851704	-4.749000E+00	  0.045851704	-1.169800E+01	  0.045851704	1.650390E+02	  0.045851704	-5.824900E+01
131	  0.046052102	-4.788000E+00	  0.046052102	-1.359200E+01	  0.046052102	1.576310E+02	  0.046052102	-6.391200E+01
132	  0.046252504	-4.827000E+00	  0.046252504	-1.547400E+01	  0.046252504	1.501800E+02	  0.046252504	-6.851200E+01
133	  0.046452906	-4.865000E+00	  0.046452906	-1.732800E+01	  0.046452906	1.428900E+02	  0.046452906	-7.214400E+01
134	  0.046653304	-4.905000E+00	  0.046653304	-1.919100E+01	  0.046653304	1.356980E+02	  0.046653304	-7.494100E+01
135	  0.046853706	-4.941000E+00	  0.046853706	-2.104500E+01	  0.046853706	1.288020E+02	  0.046853706	-7.707200E+01
136	  0.047054108	-4.975000E+00	  0.047054108	-2.289200E+01	  0.047054108	1.222250E+02	  0.047054108	-7.863100E+01
137	  0.047254506	-5.012000E+00	  0.047254506	-2.473200E+01	  0.047254506	1.159420E+02	  0.047254506	-7.956600E+01
138	  0.047454908	-5.045000E+00	  0.047454908	-2.657600E+01	  0.047454908	1.099850E+02	  0.047454908	-8.013100E+01
139	  0.047655310	-5.079000E+00	  0.047655310	-2.837200E+01	  0.047655310	1.044940E+02	  0.047655310	-8.025700E+01
140	  0.047855709	-5.112000E+00	  0.047855709	-3.016400E+01	  0.047855709	9.932700E+01	  0.047855709	-8.008500E+01
141	  0.048056111	-5.147000E+00	  0.048056111	-3.193800E+01	  0.048056111	9.451300E+01	  0.048056111	-7.963300E+01
142	  0.048256513	-5.178000E+00	  0.048256513	-3.369900E+01	  0.048256513	9.002500E+01	  0.048256513	-7.901200E+01
143	  0.048456915	-5.210000E+00	  0.048456915	-3.546300E+01	  0.048456915	8.580400E+01	  0.048456915	-7.821500E+01
144	  0.048657313	-5.239000E+00	  0.048657313	-3.725200E+01	  0.048657313	8.178700E+01	  0.048657313	-7.730100E+01
145	  0.048857715	-5.268000E+00	  0.048857715	-3.898600E+01	  0.048857715	7.813900E+01	  0.048857715	-7.627500E+01
146	  0.049058117	-5.293000E+00	  0.049058117	-4.074900E+01	  0.049058117	7.464600E+01	  0.049058117	-7.521100E+01
147	  0.049258515	-5.321000E+00	  0.049258515	-4.249200E+01	  0.049258515	7.142000E+01	  0.049258515	-7.402500E+01
148	  0.049458917	-5.345000E+00	  0.049458917	-4.420000E+01	  0.049458917	6.844000E+01	  0.049458917	-7.284700E+01
149	  0.049659319	-5.374000E+00	  0.049659319	-4.589800E+01	  0.049659319	6.568000E+01	  0.049659319	-7.156700E+01
150	  0.049859721	-5.399000E+00	  0.049859721	-4.758800E+01	  0.049859721	6.308400E+01	  0.049859721	-7.030300E+01
151	  0.050060119	-5.424000E+00	  0.050060119	-4.927000E+01	  0.050060119	6.065500E+01	  0.050060119	-6.902000E+01
152	  0.050260521	-5.445000E+00	  0.050260521	-5.096800E+01	  0.050260521	5.833200E+01	  0.050260521	-6.774500E+01
153	  0.050460923	-5.467000E+00	  0.050460923	-5.263900E+01	  0.050460923	5.618400E+01	  0.050460923	-6.646400E+01
154	  0.050661322	-5.485000E+00	  0.050661322	-5.430000E+01	  0.050661322	5.415700E+01	  0.050661322	-6.521500E+01
155	  0.050861724	-5.506000E+00	  0.050861724	-5.595300E+01	  0.050861724	5.226800E+01	  0.050861724	-6.394100E+01
156	  0.051062126	-5.530000E+00	  0.051062126	-5.758400E+01	  0.051062126	5.052100E+01	  0.051062126	-6.266400E+01
157	  0.051262524	-5.550000E+00	  0.051262524	-5.919800E+01	  0.051262524	4.887400E+01	  0.051262524	-6.142700E+01
158	  0.051462926	-5.569000E+00	  0.051462926	-6.078900E+01	  0.051462926	4.733600E+01	  0.051462926	-6.021800E+01
159	  0.051663328	-5.589000E+00	  0.051663328	-6.239600E+01	  0.051663328	4.586500E+01	  0.051663328	-5.900400E+01
160	  0.051863730	-5.604000E+00	  0.051863730	-6.398600E+01	  0.051863730	4.446600E+01	  0.051863730	-5.783800E+01
161	  0.052064128	-5.621000E+00	  0.052064128	-6.556300E+01	  0.052064128	4.316200E+01	  0.052064128	-5.667700E+01
162	  0.052264530	-5.632000E+00	  0.052264530	-6.713500E+01	  0.052264530	4.190000E+01	  0.052264530	-5.556500E+01
163	  0.052464932	-5.644000E+00	  0.052464932	-6.867800E+01	  0.052464932	4.072900E+01	  0.052464932	-5.447100E+01
164	  0.052665330	-5.658000E+00	  0.052665330	-7.022700E+01	  0.052665330	3.962200E+01	  0.052665330	-5.337300E+01
165	  0.052865732	-5.673000E+00	  0.052865732	-7.173900E+01	  0.052865732	3.859400E+01	  0.052865732	-5.231200E+01
166	  0.053066134	-5.688000E+00	  0.053066134	-7.325300E+01	  0.053066134	3.761400E+01	  0.053066134	-5.125900E+01
167	  0.053266536	-5.696000E+00	  0.053266536	-7.474400E+01	  0.053266536	3.667000E+01	  0.053266536	-5.026000E+01
168	  0.053466935	-5.709000E+00	  0.053466935	-7.625900E+01	  0.053466935	3.577000E+01	  0.053466935	-4.923900E+01
169	  0.053667337	-5.718000E+00	  0.053667337	-7.775700E+01	  0.053667337	3.490800E+01	  0.053667337	-4.825300E+01
170	  0.053867739	-5.728000E+00	  0.053867739	-7.922400E+01	  0.053867739	3.410500E+01	  0.053867739	-4.729600E+01
171	  0.054068137	-5.736000E+00	  0.054068137	-8.072300E+01	  0.054068137	3.331000E+01	  0.054068137	-4.633800E+01
172	  0.054268539	-5.742000E+00	  0.054268539	-8.217800E+01	  0.054268539	3.256900E+01	  0.054268539	-4.542200E+01
173	  0.054468941	-5.749000E+00	  0.054468941	-8.363700E+01	  0.054468941	3.186000E+01	  0.054468941	-4.451000E+01
174	  0.054669335	-5.759000E+00	  0.054669335	-8.511400E+01	  0.054669335	3.118400E+01	  0.054669335	-4.359000E+01
175	  0.054869737	-5.770000E+00	  0.054869737	-8.653900E+01	  0.054869737	3.056300E+01	  0.054869737	-4.270900E+01
176	  0.055070139	-5.777000E+00	  0.055070139	-8.798600E+01	  0.055070139	2.994500E+01	  0.055070139	-4.183600E+01
177	  0.055270538	-5.780000E+00	  0.055270538	-8.941700E+01	  0.055270538	2.934400E+01	  0.055270538	-4.099400E+01
178	  0.055470940	-5.790000E+00	  0.055470940	-9.084500E+01	  0.055470940	2.879100E+01	  0.055470940	-4.014700E+01
179	  0.055671342	-5.791000E+00	  0.055671342	-9.229900E+01	  0.055671342	2.822300E+01	  0.055671342	-3.931300E+01
180	  0.055871744	-5.794000E+00	  0.055871744	-9.373200E+01	  0.055871744	2.769000E+01	  0.055871744	-3.849800E+01
181	  0.056072142	-5.798000E+00	  0.056072142	-9.512900E+01	  0.056072142	2.719200E+01	  0.056072142	-3.770900E+01
182	  0.056272544	-5.801000E+00	  0.056272544	-9.652700E+01	  0.056272544	2.671400E+01	  0.056272544	-3.692900E+01
183	  0.056472946	-5.806000E+00	  0.056472946	-9.793200E+01	  0.056472946	2.625600E+01	  0.056472946	-3.615000E+01
184	  0.056673344	-5.811000E+00	  0.056673344	-9.932500E+01	  0.056673344	2.582300E+01	  0.056673344	-3.538400E+01
185	  0.056873746	-5.811000E+00	  0.056873746	-1.006970E+02	  0.056873746	2.539400E+01	  0.056873746	-3.464900E+01
186	  0.057074148	-5.816000E+00	  0.057074148	-1.020780E+02	  0.057074148	2.499300E+01	  0.057074148	-3.390800E+01
187	  0.057274550	-5.817000E+00	  0.057274550	-1.034670E+02	  0.057274550	2.459500E+01	  0.057274550	-3.317500E+01
188	  0.057474948	-5.818000E+00	  0.057474948	-1.048190E+02	  0.057474948	2.422000E+01	  0.057474948	-3.247000E+01
189	  0.057675350	-5.818000E+00	  0.057675350	-1.061690E+02	  0.057675350	2.385800E+01	  0.057675350	-3.177300E+01
190	  0.057875752	-5.820000E+00	  0.057875752	-1.075390E+02	  0.057875752	2.350500E+01	  0.057875752	-3.107100E+01
191	  0.058076151	-5.825000E+00	  0.058076151	-1.088860E+02	  0.058076151	2.318500E+01	  0.058076151	-3.038100E+01
192	  0.058276553	-5.822000E+00	  0.058276553	-1.102030E+02	  0.058276553	2.285900E+01	  0.058276553	-2.972400E+01
193	  0.058476955	-5.822000E+00	  0.058476955	-1.115080E+02	  0.058476955	2.255400E+01	  0.058476955	-2.907600E+01
194	  0.058677353	-5.821000E+00	  0.058677353	-1.128480E+02	  0.058677353	2.225100E+01	  0.058677353	-2.841600E+01
195	  0.058877755	-5.821000E+00	  0.058877755	-1.141440E+02	  0.058877755	2.196900E+01	  0.058877755	-2.778300E+01
196	  0.059078157	-5.818000E+00	  0.059078157	-1.154410E+02	  0.059078157	2.168900E+01	  0.059078157	-2.715800E+01
197	  0.059278559	-5.821000E+00	  0.059278559	-1.167450E+02	  0.059278559	2.143400E+01	  0.059278559	-2.652700E+01
198	  0.059478957	-5.820000E+00	  0.059478957	-1.180080E+02	  0.059478957	2.118300E+01	  0.059478957	-2.592600E+01
199	  0.059679359	-5.817000E+00	  0.059679359	-1.192780E+02	  0.059679359	2.093600E+01	  0.059679359	-2.532800E+01
200	  0.059879761	-5.816000E+00	  0.059879761	-1.205560E+02	  0.059879761	2.070000E+01	  0.059879761	-2.472900E+01
201	  0.060080159	-5.818000E+00	  0.060080159	-1.217770E+02	  0.060080159	2.049000E+01	  0.060080159	-2.415700E+01
202	  0.060280561	-5.816000E+00	  0.060280561	-1.230450E+02	  0.060280561	2.027100E+01	  0.060280561	-2.357100E+01
203	  0.060480963	-5.817000E+00	  0.060480963	-1.242770E+02	  0.060480963	2.007100E+01	  0.060480963	-2.300400E+01
204	  0.060681365	-5.821000E+00	  0.060681365	-1.255090E+02	  0.060681365	1.988700E+01	  0.060681365	-2.243700E+01
205	  0.060881764	-5.818000E+00	  0.060881764	-1.267310E+02	  0.060881764	1.969100E+01	  0.060881764	-2.188600E+01
206	  0.061082166	-5.818000E+00	  0.061082166	-1.279720E+02	  0.061082166	1.950700E+01	  0.061082166	-2.132700E+01
207	  0.061282568	-5.818000E+00	  0.061282568	-1.291920E+02	  0.061282568	1.933300E+01	  0.061282568	-2.078000E+01
208	  0.061482966	-5.816000E+00	  0.061482966	-1.303840E+02	  0.061482966	1.916400E+01	  0.061482966	-2.025100E+01
209	  0.061683368	-5.818000E+00	  0.061683368	-1.316000E+02	  0.061683368	1.900800E+01	  0.061683368	-1.971100E+01
210	  0.061883770	-5.819000E+00	  0.061883770	-1.327980E+02	  0.061883770	1.885800E+01	  0.061883770	-1.918300E+01
211	  0.062084168	-5.819000E+00	  0.062084168	-1.339870E+02	  0.062084168	1.871000E+01	  0.062084168	-1.866400E+01
212	  0.062284570	-5.817000E+00	  0.062284570	-1.351840E+02	  0.062284570	1.856100E+01	  0.062284570	-1.814500E+01
213	  0.062484972	-5.810000E+00	  0.062484972	-1.363200E+02	  0.062484972	1.840800E+01	  0.062484972	-1.765900E+01
214	  0.062685370	-5.811000E+00	  0.062685370	-1.375090E+02	  0.062685370	1.828000E+01	  0.062685370	-1.714600E+01
215	  0.062885776	-5.810000E+00	  0.062885776	-1.386930E+02	  0.062885776	1.815000E+01	  0.062885776	-1.663900E+01
216	  0.063086174	-5.807000E+00	  0.063086174	-1.398850E+02	  0.063086174	1.801800E+01	  0.063086174	-1.613400E+01
217	  0.063286573	-5.805000E+00	  0.063286573	-1.410690E+02	  0.063286573	1.789300E+01	  0.063286573	-1.563300E+01
218	  0.063486971	-5.808000E+00	  0.063486971	-1.422210E+02	  0.063486971	1.779300E+01	  0.063486971	-1.514500E+01
219	  0.063687377	-5.802000E+00	  0.063687377	-1.433710E+02	  0.063687377	1.766800E+01	  0.063687377	-1.466600E+01
220	  0.063887775	-5.801000E+00	  0.063887775	-1.445090E+02	  0.063887775	1.756500E+01	  0.063887775	-1.419000E+01
221	  0.064088173	-5.801000E+00	  0.064088173	-1.456660E+02	  0.064088173	1.746800E+01	  0.064088173	-1.370700E+01
222	  0.064288579	-5.798000E+00	  0.064288579	-1.468580E+02	  0.064288579	1.736200E+01	  0.064288579	-1.321400E+01
223	  0.064488977	-5.801000E+00	  0.064488977	-1.479890E+02	  0.064488977	1.728100E+01	  0.064488977	-1.274500E+01
224	  0.064689375	-5.797000E+00	  0.064689375	-1.491310E+02	  0.064689375	1.718400E+01	  0.064689375	-1.227700E+01
225	  0.064889781	-5.795000E+00	  0.064889781	-1.502950E+02	  0.064889781	1.709500E+01	  0.064889781	-1.180000E+01
226	  0.065090179	-5.795000E+00	  0.065090179	-1.513890E+02	  0.065090179	1.702000E+01	  0.065090179	-1.135300E+01
227	  0.065290578	-5.791000E+00	  0.065290578	-1.524970E+02	  0.065290578	1.693600E+01	  0.065290578	-1.090300E+01
228	  0.065490983	-5.791000E+00	  0.065490983	-1.536370E+02	  0.065490983	1.686300E+01	  0.065490983	-1.044000E+01
229	  0.065691382	-5.792000E+00	  0.065691382	-1.547370E+02	  0.065691382	1.679900E+01	  0.065691382	-9.994000E+00
230	  0.065891780	-5.790000E+00	  0.065891780	-1.558680E+02	  0.065891780	1.673000E+01	  0.065891780	-9.537000E+00
231	  0.066092186	-5.786000E+00	  0.066092186	-1.569460E+02	  0.066092186	1.666000E+01	  0.066092186	-9.105000E+00
232	  0.066292584	-5.785000E+00	  0.066292584	-1.580490E+02	  0.066292584	1.660200E+01	  0.066292584	-8.662000E+00
233	  0.066492982	-5.786000E+00	  0.066492982	-1.591420E+02	  0.066492982	1.655000E+01	  0.066492982	-8.223000E+00
234	  0.066693388	-5.785000E+00	  0.066693388	-1.602350E+02	  0.066693388	1.649900E+01	  0.066693388	-7.786000E+00
235	  0.066893786	-5.785000E+00	  0.066893786	-1.612940E+02	  0.066893786	1.645300E+01	  0.066893786	-7.364000E+00
236	  0.067094192	-5.783000E+00	  0.067094192	-1.623580E+02	  0.067094192	1.640200E+01	  0.067094192	-6.941000E+00
237	  0.067294590	-5.784000E+00	  0.067294590	-1.634130E+02	  0.067294590	1.636500E+01	  0.067294590	-6.522000E+00
238	  0.067494988	-5.786000E+00	  0.067494988	-1.644530E+02	  0.067494988	1.633300E+01	  0.067494988	-6.108000E+00
239	  0.067695394	-5.786000E+00	  0.067695394	-1.655480E+02	  0.067695394	1.629500E+01	  0.067695394	-5.675000E+00
240	  0.067895792	-5.785000E+00	  0.067895792	-1.665770E+02	  0.067895792	1.626000E+01	  0.067895792	-5.269000E+00
241	  0.068096191	-5.790000E+00	  0.068096191	-1.676380E+02	  0.068096191	1.624500E+01	  0.068096191	-4.849000E+00
242	  0.068296596	-5.794000E+00	  0.068296596	-1.686990E+02	  0.068296596	1.622600E+01	  0.068296596	-4.430000E+00
243	  0.068496995	-5.791000E+00	  0.068496995	-1.697100E+02	  0.068496995	1.619500E+01	  0.068496995	-4.032000E+00
244	  0.068697393	-5.792000E+00	  0.068697393	-1.707610E+02	  0.068697393	1.617300E+01	  0.068697393	-3.619000E+00
245	  0.068897791	-5.793000E+00	  0.068897791	-1.717990E+02	  0.068897791	1.615700E+01	  0.068897791	-3.211000E+00
246	  0.069098189	-5.796000E+00	  0.069098189	-1.728060E+02	  0.069098189	1.614800E+01	  0.069098189	-2.816000E+00
247	  0.069298595	-5.797000E+00	  0.069298595	-1.738500E+02	  0.069298595	1.613500E+01	  0.069298595	-2.406000E+00
248	  0.069498993	-5.799000E+00	  0.069498993	-1.748740E+02	  0.069498993	1.612700E+01	  0.069498993	-2.005000E+00
249	  0.069699399	-5.805000E+00	  0.069699399	-1.759200E+02	  0.069699399	1.613100E+01	  0.069699399	-1.595000E+00
250	  0.069899797	-5.808000E+00	  0.069899797	-1.769300E+02	  0.069899797	1.613100E+01	  0.069899797	-1.200000E+00
251	  0.070100196	-5.811000E+00	  0.070100196	-1.779380E+02	  0.070100196	1.613300E+01	  0.070100196	-8.050000E-01
252	  0.070300601	-5.814000E+00	  0.070300601	-1.789530E+02	  0.070300601	1.613800E+01	  0.070300601	-4.090000E-01
253	  0.070501000	-5.816000E+00	  0.070501000	-1.799550E+02	  0.070501000	1.614100E+01	  0.070501000	-1.700000E-02
254	  0.070701398	-5.815000E+00	  0.070701398	1.790490E+02	  0.070701398	1.614100E+01	  0.070701398	3.710000E-01
255	  0.070901804	-5.821000E+00	  0.070901804	1.780430E+02	  0.070901804	1.615800E+01	  0.070901804	7.640000E-01
256	  0.071102202	-5.825000E+00	  0.071102202	1.770370E+02	  0.071102202	1.617500E+01	  0.071102202	1.157000E+00
257	  0.071302600	-5.826000E+00	  0.071302600	1.760370E+02	  0.071302600	1.618500E+01	  0.071302600	1.548000E+00
258	  0.071503006	-5.828000E+00	  0.071503006	1.750570E+02	  0.071503006	1.619900E+01	  0.071503006	1.931000E+00
259	  0.071703404	-5.837000E+00	  0.071703404	1.740780E+02	  0.071703404	1.623400E+01	  0.071703404	2.314000E+00
260	  0.071903802	-5.836000E+00	  0.071903802	1.731020E+02	  0.071903802	1.624700E+01	  0.071903802	2.695000E+00
261	  0.072104208	-5.844000E+00	  0.072104208	1.721130E+02	  0.072104208	1.628400E+01	  0.072104208	3.082000E+00
262	  0.072304606	-5.847000E+00	  0.072304606	1.711520E+02	  0.072304606	1.630800E+01	  0.072304606	3.458000E+00
263	  0.072505005	-5.848000E+00	  0.072505005	1.701810E+02	  0.072505005	1.633200E+01	  0.072505005	3.839000E+00
264	  0.072705410	-5.852000E+00	  0.072705410	1.692320E+02	  0.072705410	1.636400E+01	  0.072705410	4.211000E+00
265	  0.072905809	-5.857000E+00	  0.072905809	1.682670E+02	  0.072905809	1.640000E+01	  0.072905809	4.589000E+00
266	  0.073106214	-5.860000E+00	  0.073106214	1.673110E+02	  0.073106214	1.643400E+01	  0.073106214	4.965000E+00
267	  0.073306613	-5.865000E+00	  0.073306613	1.663750E+02	  0.073306613	1.647600E+01	  0.073306613	5.332000E+00
268	  0.073507011	-5.872000E+00	  0.073507011	1.654280E+02	  0.073507011	1.652300E+01	  0.073507011	5.704000E+00
269	  0.073707417	-5.877000E+00	  0.073707417	1.644830E+02	  0.073707417	1.656800E+01	  0.073707417	6.076000E+00
270	  0.073907815	-5.880000E+00	  0.073907815	1.635720E+02	  0.073907815	1.661100E+01	  0.073907815	6.435000E+00
271	  0.074108213	-5.884000E+00	  0.074108213	1.626430E+02	  0.074108213	1.665700E+01	  0.074108213	6.801000E+00
272	  0.074308619	-5.888000E+00	  0.074308619	1.617260E+02	  0.074308619	1.670400E+01	  0.074308619	7.164000E+00
273	  0.074509017	-5.893000E+00	  0.074509017	1.608080E+02	  0.074509017	1.675500E+01	  0.074509017	7.527000E+00
274	  0.074709415	-5.896000E+00	  0.074709415	1.599150E+02	  0.074709415	1.680400E+01	  0.074709415	7.881000E+00
275	  0.074909821	-5.899000E+00	  0.074909821	1.589780E+02	  0.074909821	1.685500E+01	  0.074909821	8.253000E+00
276	  0.075110219	-5.907000E+00	  0.075110219	1.580630E+02	  0.075110219	1.692300E+01	  0.075110219	8.615000E+00
277	  0.075310618	-5.910000E+00	  0.075310618	1.571600E+02	  0.075310618	1.697900E+01	  0.075310618	8.975000E+00
278	  0.075511023	-5.918000E+00	  0.075511023	1.562620E+02	  0.075511023	1.704900E+01	  0.075511023	9.332000E+00
279	  0.075711422	-5.921000E+00	  0.075711422	1.553920E+02	  0.075711422	1.710400E+01	  0.075711422	9.680000E+00
280	  0.075911827	-5.928000E+00	  0.075911827	1.544860E+02	  0.075911827	1.717700E+01	  0.075911827	1.004200E+01
281	  0.076112226	-5.934000E+00	  0.076112226	1.535730E+02	  0.076112226	1.725000E+01	  0.076112226	1.040700E+01
282	  0.076312624	-5.939000E+00	  0.076312624	1.527150E+02	  0.076312624	1.731600E+01	  0.076312624	1.075100E+01
283	  0.076513030	-5.946000E+00	  0.076513030	1.518130E+02	  0.076513030	1.739500E+01	  0.076513030	1.111300E+01
284	  0.076713428	-5.953000E+00	  0.076713428	1.509100E+02	  0.076713428	1.747600E+01	  0.076713428	1.147600E+01
285	  0.076913826	-5.959000E+00	  0.076913826	1.500170E+02	  0.076913826	1.755600E+01	  0.076913826	1.183600E+01
286	  0.077114232	-5.964000E+00	  0.077114232	1.491330E+02	  0.077114232	1.763600E+01	  0.077114232	1.219400E+01
287	  0.077314630	-5.973000E+00	  0.077314630	1.482560E+02	  0.077314630	1.772600E+01	  0.077314630	1.254800E+01
288	  0.077515028	-5.980000E+00	  0.077515028	1.474000E+02	  0.077515028	1.781200E+01	  0.077515028	1.289500E+01
289	  0.077715434	-5.987000E+00	  0.077715434	1.465140E+02	  0.077715434	1.790500E+01	  0.077715434	1.325400E+01
290	  0.077915832	-5.993000E+00	  0.077915832	1.456230E+02	  0.077915832	1.799600E+01	  0.077915832	1.361800E+01
291	  0.078116231	-5.997000E+00	  0.078116231	1.447440E+02	  0.078116231	1.808300E+01	  0.078116231	1.397800E+01
292	  0.078316636	-6.005000E+00	  0.078316636	1.438700E+02	  0.078316636	1.818200E+01	  0.078316636	1.433600E+01
293	  0.078517035	-6.014000E+00	  0.078517035	1.429720E+02	  0.078517035	1.829000E+01	  0.078517035	1.470300E+01
294	  0.078717433	-6.021000E+00	  0.078717433	1.420950E+02	  0.078717433	1.839400E+01	  0.078717433	1.506300E+01
295	  0.078917839	-6.028000E+00	  0.078917839	1.412380E+02	  0.078917839	1.849700E+01	  0.078917839	1.541700E+01
296	  0.079118237	-6.034000E+00	  0.079118237	1.403730E+02	  0.079118237	1.860200E+01	  0.079118237	1.577500E+01
297	  0.079318643	-6.047000E+00	  0.079318643	1.395150E+02	  0.079318643	1.872500E+01	  0.079318643	1.612700E+01
298	  0.079519041	-6.050000E+00	  0.079519041	1.386710E+02	  0.079519041	1.882400E+01	  0.079519041	1.648000E+01
299	  0.079719439	-6.059000E+00	  0.079719439	1.377960E+02	  0.079719439	1.894500E+01	  0.079719439	1.684300E+01
300	  0.079919845	-6.072000E+00	  0.079919845	1.369280E+02	  0.079919845	1.907900E+01	  0.079919845	1.720200E+01
301	  0.080120243	-6.079000E+00	  0.080120243	1.360700E+02	  0.080120243	1.920000E+01	  0.080120243	1.756000E+01
302	  0.080320641	-6.088000E+00	  0.080320641	1.352140E+02	  0.080320641	1.932500E+01	  0.080320641	1.791900E+01
303	  0.080521047	-6.100000E+00	  0.080521047	1.343890E+02	  0.080521047	1.946200E+01	  0.080521047	1.826200E+01
304	  0.080721445	-6.109000E+00	  0.080721445	1.335250E+02	  0.080721445	1.959500E+01	  0.080721445	1.862500E+01
305	  0.080921844	-6.120000E+00	  0.080921844	1.326930E+02	  0.080921844	1.973400E+01	  0.080921844	1.897400E+01
306	  0.081122249	-6.127000E+00	  0.081122249	1.318580E+02	  0.081122249	1.986400E+01	  0.081122249	1.932900E+01
307	  0.081322648	-6.140000E+00	  0.081322648	1.310320E+02	  0.081322648	2.001500E+01	  0.081322648	1.967500E+01
308	  0.081523046	-6.151000E+00	  0.081523046	1.301670E+02	  0.081523046	2.016700E+01	  0.081523046	2.004000E+01
309	  0.081723452	-6.162000E+00	  0.081723452	1.293680E+02	  0.081723452	2.031000E+01	  0.081723452	2.037900E+01
310	  0.081923850	-6.164000E+00	  0.081923850	1.285120E+02	  0.081923850	2.044200E+01	  0.081923850	2.075100E+01
311	  0.082124248	-6.180000E+00	  0.082124248	1.276960E+02	  0.082124248	2.061100E+01	  0.082124248	2.109400E+01
312	  0.082324654	-6.192000E+00	  0.082324654	1.268770E+02	  0.082324654	2.077200E+01	  0.082324654	2.144300E+01
313	  0.082525052	-6.207000E+00	  0.082525052	1.260620E+02	  0.082525052	2.094300E+01	  0.082525052	2.178800E+01
314	  0.082725458	-6.218000E+00	  0.082725458	1.252520E+02	  0.082725458	2.110600E+01	  0.082725458	2.213500E+01
315	  0.082925856	-6.234000E+00	  0.082925856	1.244300E+02	  0.082925856	2.128900E+01	  0.082925856	2.248300E+01
316	  0.083126254	-6.247000E+00	  0.083126254	1.236060E+02	  0.083126254	2.146700E+01	  0.083126254	2.283600E+01
317	  0.083326660	-6.260000E+00	  0.083326660	1.227940E+02	  0.083326660	2.164500E+01	  0.083326660	2.318500E+01
318	  0.083527058	-6.274000E+00	  0.083527058	1.219870E+02	  0.083527058	2.182900E+01	  0.083527058	2.353100E+01
319	  0.083727457	-6.286000E+00	  0.083727457	1.211950E+02	  0.083727457	2.200900E+01	  0.083727457	2.387400E+01
320	  0.083927862	-6.306000E+00	  0.083927862	1.203400E+02	  0.083927862	2.222700E+01	  0.083927862	2.423600E+01
321	  0.084128261	-6.318000E+00	  0.084128261	1.195560E+02	  0.084128261	2.241300E+01	  0.084128261	2.457500E+01
322	  0.084328659	-6.335000E+00	  0.084328659	1.187560E+02	  0.084328659	2.262100E+01	  0.084328659	2.491700E+01
323	  0.084529065	-6.356000E+00	  0.084529065	1.179800E+02	  0.084529065	2.283800E+01	  0.084529065	2.524300E+01
324	  0.084729463	-6.371000E+00	  0.084729463	1.171340E+02	  0.084729463	2.305400E+01	  0.084729463	2.561100E+01
325	  0.084929854	-6.390000E+00	  0.084929854	1.163210E+02	  0.084929854	2.328000E+01	  0.084929854	2.595800E+01
326	  0.085130259	-6.403000E+00	  0.085130259	1.155060E+02	  0.085130259	2.349600E+01	  0.085130259	2.631400E+01
327	  0.085330658	-6.417000E+00	  0.085330658	1.146980E+02	  0.085330658	2.371400E+01	  0.085330658	2.666700E+01
328	  0.085531056	-6.439000E+00	  0.085531056	1.138760E+02	  0.085531056	2.396400E+01	  0.085531056	2.701500E+01
329	  0.085731462	-6.455000E+00	  0.085731462	1.130830E+02	  0.085731462	2.419500E+01	  0.085731462	2.735900E+01
330	  0.085931860	-6.474000E+00	  0.085931860	1.122750E+02	  0.085931860	2.444300E+01	  0.085931860	2.770500E+01
331	  0.086132258	-6.492000E+00	  0.086132258	1.114870E+02	  0.086132258	2.468400E+01	  0.086132258	2.804600E+01
332	  0.086332664	-6.505000E+00	  0.086332664	1.107290E+02	  0.086332664	2.491200E+01	  0.086332664	2.837900E+01
333	  0.086533062	-6.525000E+00	  0.086533062	1.099200E+02	  0.086533062	2.517500E+01	  0.086533062	2.872500E+01
334	  0.086733460	-6.542000E+00	  0.086733460	1.091200E+02	  0.086733460	2.543300E+01	  0.086733460	2.907200E+01
335	  0.086933866	-6.564000E+00	  0.086933866	1.083330E+02	  0.086933866	2.570600E+01	  0.086933866	2.940600E+01
336	  0.087134264	-6.582000E+00	  0.087134264	1.075480E+02	  0.087134264	2.597100E+01	  0.087134264	2.974500E+01
337	  0.087334670	-6.601000E+00	  0.087334670	1.067630E+02	  0.087334670	2.624500E+01	  0.087334670	3.008300E+01
338	  0.087535068	-6.621000E+00	  0.087535068	1.059940E+02	  0.087535068	2.652000E+01	  0.087535068	3.041200E+01
339	  0.087735467	-6.643000E+00	  0.087735467	1.052470E+02	  0.087735467	2.680200E+01	  0.087735467	3.072500E+01
340	  0.087935872	-6.660000E+00	  0.087935872	1.044510E+02	  0.087935872	2.708900E+01	  0.087935872	3.107100E+01
341	  0.088136271	-6.685000E+00	  0.088136271	1.037060E+02	  0.088136271	2.738900E+01	  0.088136271	3.137700E+01
342	  0.088336669	-6.703000E+00	  0.088336669	1.029330E+02	  0.088336669	2.768000E+01	  0.088336669	3.171000E+01
343	  0.088537075	-6.725000E+00	  0.088537075	1.021690E+02	  0.088537075	2.798400E+01	  0.088537075	3.203200E+01
344	  0.088737473	-6.746000E+00	  0.088737473	1.014130E+02	  0.088737473	2.829100E+01	  0.088737473	3.234900E+01
345	  0.088937871	-6.764000E+00	  0.088937871	1.006420E+02	  0.088937871	2.859700E+01	  0.088937871	3.268100E+01
346	  0.089138277	-6.788000E+00	  0.089138277	9.987500E+01	  0.089138277	2.892500E+01	  0.089138277	3.299700E+01
347	  0.089338675	-6.815000E+00	  0.089338675	9.914100E+01	  0.089338675	2.925600E+01	  0.089338675	3.329100E+01
348	  0.089539073	-6.837000E+00	  0.089539073	9.838200E+01	  0.089539073	2.958900E+01	  0.089539073	3.360400E+01
349	  0.089739479	-6.867000E+00	  0.089739479	9.765800E+01	  0.089739479	2.993700E+01	  0.089739479	3.388300E+01
350	  0.089939877	-6.893000E+00	  0.089939877	9.689000E+01	  0.089939877	3.029500E+01	  0.089939877	3.419000E+01
351	  0.090140276	-6.921000E+00	  0.090140276	9.616500E+01	  0.090140276	3.064600E+01	  0.090140276	3.447200E+01
352	  0.090340681	-6.948000E+00	  0.090340681	9.539200E+01	  0.090340681	3.102200E+01	  0.090340681	3.477500E+01
353	  0.090541080	-6.981000E+00	  0.090541080	9.465800E+01	  0.090541080	3.140400E+01	  0.090541080	3.504500E+01
354	  0.090741485	-7.008000E+00	  0.090741485	9.391200E+01	  0.090741485	3.177800E+01	  0.090741485	3.533300E+01
355	  0.090941884	-7.042000E+00	  0.090941884	9.319600E+01	  0.090941884	3.216900E+01	  0.090941884	3.558600E+01
356	  0.091142282	-7.077000E+00	  0.091142282	9.244300E+01	  0.091142282	3.258400E+01	  0.091142282	3.585100E+01
357	  0.091342688	-7.111000E+00	  0.091342688	9.172100E+01	  0.091342688	3.298600E+01	  0.091342688	3.610100E+01
358	  0.091543086	-7.145000E+00	  0.091543086	9.097200E+01	  0.091543086	3.340700E+01	  0.091543086	3.636100E+01
359	  0.091743484	-7.181000E+00	  0.091743484	9.024000E+01	  0.091743484	3.383400E+01	  0.091743484	3.660400E+01
360	  0.091943890	-7.216000E+00	  0.091943890	8.950500E+01	  0.091943890	3.426200E+01	  0.091943890	3.684900E+01
361	  0.092144288	-7.251000E+00	  0.092144288	8.874500E+01	  0.092144288	3.470800E+01	  0.092144288	3.710200E+01
362	  0.092344686	-7.287000E+00	  0.092344686	8.805600E+01	  0.092344686	3.513100E+01	  0.092344686	3.731500E+01
363	  0.092545092	-7.321000E+00	  0.092545092	8.731700E+01	  0.092545092	3.557600E+01	  0.092545092	3.755300E+01
364	  0.092745490	-7.363000E+00	  0.092745490	8.662600E+01	  0.092745490	3.603000E+01	  0.092745490	3.773900E+01
365	  0.092945889	-7.400000E+00	  0.092945889	8.592800E+01	  0.092945889	3.647500E+01	  0.092945889	3.794200E+01
366	  0.093146294	-7.434000E+00	  0.093146294	8.521200E+01	  0.093146294	3.692600E+01	  0.093146294	3.815800E+01
367	  0.093346693	-7.472000E+00	  0.093346693	8.455900E+01	  0.093346693	3.736200E+01	  0.093346693	3.832800E+01
368	  0.093547091	-7.512000E+00	  0.093547091	8.385700E+01	  0.093547091	3.783400E+01	  0.093547091	3.851000E+01
369	  0.093747497	-7.546000E+00	  0.093747497	8.318400E+01	  0.093747497	3.828000E+01	  0.093747497	3.869100E+01
370	  0.093947895	-7.585000E+00	  0.093947895	8.250500E+01	  0.093947895	3.874500E+01	  0.093947895	3.885800E+01
371	  0.094148301	-7.625000E+00	  0.094148301	8.183800E+01	  0.094148301	3.921500E+01	  0.094148301	3.900600E+01
372	  0.094348699	-7.666000E+00	  0.094348699	8.116300E+01	  0.094348699	3.969300E+01	  0.094348699	3.915500E+01
373	  0.094549097	-7.706000E+00	  0.094549097	8.055600E+01	  0.094549097	4.013800E+01	  0.094549097	3.926800E+01
374	  0.094749503	-7.748000E+00	  0.094749503	7.991400E+01	  0.094749503	4.061200E+01	  0.094749503	3.938400E+01
375	  0.094949901	-7.786000E+00	  0.094949901	7.927900E+01	  0.094949901	4.107200E+01	  0.094949901	3.950900E+01
376	  0.095150299	-7.827000E+00	  0.095150299	7.864600E+01	  0.095150299	4.154500E+01	  0.095150299	3.961600E+01
377	  0.095350705	-7.862000E+00	  0.095350705	7.803400E+01	  0.095350705	4.199400E+01	  0.095350705	3.973000E+01
378	  0.095551103	-7.912000E+00	  0.095551103	7.741000E+01	  0.095551103	4.249000E+01	  0.095551103	3.978800E+01
379	  0.095751502	-7.944000E+00	  0.095751502	7.683300E+01	  0.095751502	4.291700E+01	  0.095751502	3.989000E+01
380	  0.095951907	-7.986000E+00	  0.095951907	7.623300E+01	  0.095951907	4.338600E+01	  0.095951907	3.995700E+01
381	  0.096152306	-8.032000E+00	  0.096152306	7.562900E+01	  0.096152306	4.386900E+01	  0.096152306	4.000500E+01
382	  0.096352704	-8.074000E+00	  0.096352704	7.507600E+01	  0.096352704	4.431400E+01	  0.096352704	4.004300E+01
383	  0.096553110	-8.117000E+00	  0.096553110	7.452800E+01	  0.096553110	4.476100E+01	  0.096553110	4.006800E+01
384	  0.096753508	-8.160000E+00	  0.096753508	7.396600E+01	  0.096753508	4.521700E+01	  0.096753508	4.009400E+01
385	  0.096953906	-8.205000E+00	  0.096953906	7.344200E+01	  0.096953906	4.565700E+01	  0.096953906	4.009200E+01
386	  0.097154312	-8.245000E+00	  0.097154312	7.290600E+01	  0.097154312	4.609400E+01	  0.097154312	4.010700E+01
387	  0.097354710	-8.295000E+00	  0.097354710	7.234800E+01	  0.097354710	4.656800E+01	  0.097354710	4.008700E+01
388	  0.097555116	-8.338000E+00	  0.097555116	7.182800E+01	  0.097555116	4.700300E+01	  0.097555116	4.007600E+01
389	  0.097755514	-8.386000E+00	  0.097755514	7.131000E+01	  0.097755514	4.745000E+01	  0.097755514	4.003400E+01
390	  0.097955912	-8.429000E+00	  0.097955912	7.079400E+01	  0.097955912	4.788300E+01	  0.097955912	4.001200E+01
391	  0.098156318	-8.471000E+00	  0.098156318	7.029500E+01	  0.098156318	4.830500E+01	  0.098156318	3.998000E+01
392	  0.098356716	-8.521000E+00	  0.098356716	6.980300E+01	  0.098356716	4.873800E+01	  0.098356716	3.990600E+01
393	  0.098557115	-8.563000E+00	  0.098557115	6.931300E+01	  0.098557115	4.915400E+01	  0.098557115	3.986300E+01
394	  0.098757520	-8.613000E+00	  0.098757520	6.880600E+01	  0.098757520	4.959700E+01	  0.098757520	3.978200E+01
395	  0.098957919	-8.657000E+00	  0.098957919	6.830300E+01	  0.098957919	5.002600E+01	  0.098957919	3.972100E+01
396	  0.099158317	-8.700000E+00	  0.099158317	6.782900E+01	  0.099158317	5.043200E+01	  0.099158317	3.965300E+01
397	  0.099358723	-8.741000E+00	  0.099358723	6.735600E+01	  0.099358723	5.083500E+01	  0.099358723	3.958800E+01
398	  0.099559121	-8.790000E+00	  0.099559121	6.690200E+01	  0.099559121	5.123600E+01	  0.099559121	3.947600E+01
399	  0.099759519	-8.833000E+00	  0.099759519	6.646300E+01	  0.099759519	5.161700E+01	  0.099759519	3.938400E+01
400	  0.099959925	-8.869000E+00	  0.099959925	6.600700E+01	  0.099959925	5.199700E+01	  0.099959925	3.932400E+01
401	  0.100160323	-8.910000E+00	  0.100160323	6.557800E+01	  0.100160323	5.236700E+01	  0.100160323	3.923000E+01
402	  0.100360721	-8.953000E+00	  0.100360721	6.514200E+01	  0.100360721	5.274300E+01	  0.100360721	3.912300E+01
403	  0.100561127	-8.991000E+00	  0.100561127	6.469700E+01	  0.100561127	5.311900E+01	  0.100561127	3.903400E+01
404	  0.100761525	-9.030000E+00	  0.100761525	6.426900E+01	  0.100761525	5.348200E+01	  0.100761525	3.893500E+01
405	  0.100961931	-9.076000E+00	  0.100961931	6.391600E+01	  0.100961931	5.379900E+01	  0.100961931	3.878500E+01
406	  0.101162329	-9.107000E+00	  0.101162329	6.350600E+01	  0.101162329	5.413700E+01	  0.101162329	3.871300E+01
407	  0.101362728	-9.146000E+00	  0.101362728	6.306700E+01	  0.101362728	5.450600E+01	  0.101362728	3.860400E+01
408	  0.101563133	-9.184000E+00	  0.101563133	6.274600E+01	  0.101563133	5.478500E+01	  0.101563133	3.848000E+01
409	  0.101763532	-9.214000E+00	  0.101763532	6.234600E+01	  0.101763532	5.511400E+01	  0.101763532	3.839700E+01
410	  0.101963930	-9.252000E+00	  0.101963930	6.195600E+01	  0.101963930	5.544200E+01	  0.101963930	3.827400E+01
411	  0.102164328	-9.279000E+00	  0.102164328	6.158200E+01	  0.102164328	5.574700E+01	  0.102164328	3.819800E+01
412	  0.102364726	-9.319000E+00	  0.102364726	6.123700E+01	  0.102364726	5.604100E+01	  0.102364726	3.805500E+01
413	  0.102565125	-9.348000E+00	  0.102565125	6.091300E+01	  0.102565125	5.630900E+01	  0.102565125	3.795500E+01
414	  0.102765530	-9.372000E+00	  0.102765530	6.051900E+01	  0.102765530	5.662500E+01	  0.102765530	3.788700E+01
415	  0.102965929	-9.407000E+00	  0.102965929	6.022800E+01	  0.102965929	5.687100E+01	  0.102965929	3.775100E+01
416	  0.103166327	-9.428000E+00	  0.103166327	5.989900E+01	  0.103166327	5.713400E+01	  0.103166327	3.768800E+01
417	  0.103366733	-9.458000E+00	  0.103366733	5.958000E+01	  0.103366733	5.739700E+01	  0.103366733	3.757100E+01
418	  0.103567131	-9.481000E+00	  0.103567131	5.924300E+01	  0.103567131	5.766600E+01	  0.103567131	3.749300E+01
419	  0.103767529	-9.502000E+00	  0.103767529	5.888700E+01	  0.103767529	5.794900E+01	  0.103767529	3.742200E+01
420	  0.103967935	-9.533000E+00	  0.103967935	5.859600E+01	  0.103967935	5.818800E+01	  0.103967935	3.729500E+01
421	  0.104168333	-9.532000E+00	  0.104168333	5.818600E+01	  0.104168333	5.849900E+01	  0.104168333	3.733500E+01
422	  0.104368731	-9.557000E+00	  0.104368731	5.783900E+01	  0.104368731	5.877700E+01	  0.104368731	3.723800E+01
423	  0.104569137	-9.578000E+00	  0.104569137	5.755500E+01	  0.104569137	5.900400E+01	  0.104569137	3.715400E+01
424	  0.104769535	-9.594000E+00	  0.104769535	5.728300E+01	  0.104769535	5.921900E+01	  0.104769535	3.708800E+01
425	  0.104969934	-9.614000E+00	  0.104969934	5.695700E+01	  0.104969934	5.947800E+01	  0.104969934	3.700800E+01
426	  0.105170339	-9.630000E+00	  0.105170339	5.663400E+01	  0.105170339	5.973200E+01	  0.105170339	3.694300E+01
427	  0.105370738	-9.651000E+00	  0.105370738	5.633900E+01	  0.105370738	5.996600E+01	  0.105370738	3.685100E+01
428	  0.105571143	-9.671000E+00	  0.105571143	5.599500E+01	  0.105571143	6.023700E+01	  0.105571143	3.676300E+01
429	  0.105771542	-9.687000E+00	  0.105771542	5.570100E+01	  0.105771542	6.046800E+01	  0.105771542	3.669600E+01
430	  0.105971940	-9.697000E+00	  0.105971940	5.543000E+01	  0.105971940	6.068100E+01	  0.105971940	3.665100E+01
431	  0.106172346	-9.705000E+00	  0.106172346	5.507500E+01	  0.106172346	6.095800E+01	  0.106172346	3.661800E+01
432	  0.106372744	-9.715000E+00	  0.106372744	5.481100E+01	  0.106372744	6.116500E+01	  0.106372744	3.657500E+01
433	  0.106573142	-9.710000E+00	  0.106573142	5.451300E+01	  0.106573142	6.139800E+01	  0.106573142	3.660300E+01
434	  0.106773548	-9.713000E+00	  0.106773548	5.421300E+01	  0.106773548	6.163400E+01	  0.106773548	3.658800E+01
435	  0.106973946	-9.721000E+00	  0.106973946	5.388600E+01	  0.106973946	6.189200E+01	  0.106973946	3.655000E+01
436	  0.107174344	-9.714000E+00	  0.107174344	5.353800E+01	  0.107174344	6.216700E+01	  0.107174344	3.658700E+01
437	  0.107374750	-9.714000E+00	  0.107374750	5.323900E+01	  0.107374750	6.240500E+01	  0.107374750	3.658500E+01
438	  0.107575148	-9.698000E+00	  0.107575148	5.287200E+01	  0.107575148	6.270000E+01	  0.107575148	3.666100E+01
439	  0.107775547	-9.693000E+00	  0.107775547	5.255200E+01	  0.107775547	6.295800E+01	  0.107775547	3.668200E+01
440	  0.107975952	-9.689000E+00	  0.107975952	5.214100E+01	  0.107975952	6.329100E+01	  0.107975952	3.669500E+01
441	  0.108176351	-9.673000E+00	  0.108176351	5.184000E+01	  0.108176351	6.353900E+01	  0.108176351	3.677100E+01
442	  0.108376749	-9.661000E+00	  0.108376749	5.140600E+01	  0.108376749	6.389700E+01	  0.108376749	3.682200E+01
443	  0.108577155	-9.647000E+00	  0.108577155	5.099000E+01	  0.108577155	6.424500E+01	  0.108577155	3.688100E+01
444	  0.108777553	-9.631000E+00	  0.108777553	5.058100E+01	  0.108777553	6.458900E+01	  0.108777553	3.694900E+01
445	  0.108977959	-9.619000E+00	  0.108977959	5.016600E+01	  0.108977959	6.494000E+01	  0.108977959	3.699000E+01
446	  0.109178357	-9.607000E+00	  0.109178357	4.977000E+01	  0.109178357	6.527800E+01	  0.109178357	3.702800E+01
447	  0.109378755	-9.582000E+00	  0.109378755	4.930700E+01	  0.109378755	6.568300E+01	  0.109378755	3.713700E+01
448	  0.109579161	-9.566000E+00	  0.109579161	4.882000E+01	  0.109579161	6.610700E+01	  0.109579161	3.718700E+01
449	  0.109779559	-9.551000E+00	  0.109779559	4.838300E+01	  0.109779559	6.649300E+01	  0.109779559	3.723600E+01
450	  0.109979957	-9.536000E+00	  0.109979957	4.792900E+01	  0.109979957	6.689600E+01	  0.109979957	3.727500E+01
451	  0.110180363	-9.517000E+00	  0.110180363	4.741700E+01	  0.110180363	6.735700E+01	  0.110180363	3.733100E+01
452	  0.110380761	-9.504000E+00	  0.110380761	4.690800E+01	  0.110380761	6.781500E+01	  0.110380761	3.734400E+01
453	  0.110581160	-9.481000E+00	  0.110581160	4.637500E+01	  0.110581160	6.830800E+01	  0.110581160	3.741200E+01
454	  0.110781565	-9.471000E+00	  0.110781565	4.585600E+01	  0.110781565	6.878200E+01	  0.110781565	3.739900E+01
455	  0.110981964	-9.458000E+00	  0.110981964	4.531600E+01	  0.110981964	6.928200E+01	  0.110981964	3.739600E+01
456	  0.111182362	-9.436000E+00	  0.111182362	4.485400E+01	  0.111182362	6.972400E+01	  0.111182362	3.745000E+01
457	  0.111382768	-9.418000E+00	  0.111382768	4.431200E+01	  0.111382768	7.024100E+01	  0.111382768	3.746300E+01
458	  0.111583166	-9.407000E+00	  0.111583166	4.371700E+01	  0.111583166	7.080400E+01	  0.111583166	3.742200E+01
459	  0.111783572	-9.390000E+00	  0.111783572	4.316300E+01	  0.111783572	7.133900E+01	  0.111783572	3.741200E+01
460	  0.111983970	-9.378000E+00	  0.111983970	4.261300E+01	  0.111983970	7.187200E+01	  0.111983970	3.737300E+01
461	  0.112184368	-9.358000E+00	  0.112184368	4.200800E+01	  0.112184368	7.247000E+01	  0.112184368	3.735300E+01
462	  0.112384774	-9.350000E+00	  0.112384774	4.137500E+01	  0.112384774	7.308400E+01	  0.112384774	3.725300E+01
463	  0.112585172	-9.329000E+00	  0.112585172	4.076800E+01	  0.112585172	7.369900E+01	  0.112585172	3.722500E+01
464	  0.112785570	-9.305000E+00	  0.112785570	4.012800E+01	  0.112785570	7.435900E+01	  0.112785570	3.720100E+01
465	  0.112985976	-9.289000E+00	  0.112985976	3.950900E+01	  0.112985976	7.498900E+01	  0.112985976	3.711600E+01
466	  0.113186374	-9.267000E+00	  0.113186374	3.884100E+01	  0.113186374	7.568500E+01	  0.113186374	3.704500E+01
467	  0.113386773	-9.259000E+00	  0.113386773	3.816500E+01	  0.113386773	7.636900E+01	  0.113386773	3.687700E+01
468	  0.113587178	-9.240000E+00	  0.113587178	3.751700E+01	  0.113587178	7.705100E+01	  0.113587178	3.677100E+01
469	  0.113787577	-9.220000E+00	  0.113787577	3.675200E+01	  0.113787577	7.785900E+01	  0.113787577	3.661400E+01
470	  0.113987975	-9.204000E+00	  0.113987975	3.601000E+01	  0.113987975	7.864000E+01	  0.113987975	3.641800E+01
471	  0.114188381	-9.186000E+00	  0.114188381	3.526300E+01	  0.114188381	7.943900E+01	  0.114188381	3.622100E+01
472	  0.114388779	-9.173000E+00	  0.114388779	3.450500E+01	  0.114388779	8.024000E+01	  0.114388779	3.596700E+01
473	  0.114589177	-9.158000E+00	  0.114589177	3.367000E+01	  0.114589177	8.113100E+01	  0.114589177	3.567300E+01
474	  0.114789583	-9.144000E+00	  0.114789583	3.288700E+01	  0.114789583	8.196900E+01	  0.114789583	3.537000E+01
475	  0.114989981	-9.135000E+00	  0.114989981	3.207700E+01	  0.114989981	8.282100E+01	  0.114989981	3.500100E+01
476	  0.115190387	-9.122000E+00	  0.115190387	3.120100E+01	  0.115190387	8.375500E+01	  0.115190387	3.459300E+01
477	  0.115390785	-9.114000E+00	  0.115390785	3.032400E+01	  0.115390785	8.467200E+01	  0.115390785	3.412400E+01
478	  0.115591183	-9.100000E+00	  0.115591183	2.943100E+01	  0.115591183	8.563000E+01	  0.115591183	3.365500E+01
479	  0.115791589	-9.091000E+00	  0.115791589	2.852800E+01	  0.115791589	8.657600E+01	  0.115791589	3.311600E+01
480	  0.115991987	-9.095000E+00	  0.115991987	2.760000E+01	  0.115991987	8.748100E+01	  0.115991987	3.244200E+01
481	  0.116192386	-9.089000E+00	  0.116192386	2.671200E+01	  0.116192386	8.838600E+01	  0.116192386	3.182800E+01
482	  0.116392791	-9.089000E+00	  0.116392791	2.577900E+01	  0.116392791	8.929600E+01	  0.116392791	3.111200E+01
483	  0.116593190	-9.096000E+00	  0.116593190	2.480700E+01	  0.116593190	9.019300E+01	  0.116593190	3.028500E+01
484	  0.116793588	-9.095000E+00	  0.116793588	2.381500E+01	  0.116793588	9.114000E+01	  0.116793588	2.945800E+01
485	  0.116993994	-9.106000E+00	  0.116993994	2.280900E+01	  0.116993994	9.200700E+01	  0.116993994	2.850500E+01
486	  0.117194392	-9.119000E+00	  0.117194392	2.182800E+01	  0.117194392	9.281500E+01	  0.117194392	2.752700E+01
487	  0.117394790	-9.122000E+00	  0.117394790	2.078000E+01	  0.117394790	9.371700E+01	  0.117394790	2.650700E+01
488	  0.117595196	-9.143000E+00	  0.117595196	1.977900E+01	  0.117595196	9.443300E+01	  0.117595196	2.539800E+01
489	  0.117795594	-9.154000E+00	  0.117795594	1.871600E+01	  0.117795594	9.523200E+01	  0.117795594	2.424900E+01
490	  0.117995992	-9.172000E+00	  0.117995992	1.765600E+01	  0.117995992	9.594200E+01	  0.117995992	2.302900E+01
491	  0.118196398	-9.197000E+00	  0.118196398	1.656700E+01	  0.118196398	9.657900E+01	  0.118196398	2.171400E+01
492	  0.118396796	-9.222000E+00	  0.118396796	1.545900E+01	  0.118396796	9.718000E+01	  0.118396796	2.035000E+01
493	  0.118597202	-9.237000E+00	  0.118597202	1.431000E+01	  0.118597202	9.784000E+01	  0.118597202	1.895800E+01
494	  0.118797600	-9.272000E+00	  0.118797600	1.316600E+01	  0.118797600	9.827500E+01	  0.118797600	1.745700E+01
