! Anritsu VNA Master:             	Model: MS2036C/10/77
! SN:             	1601066
! /bd0/18may09/254.ew.m15.txt
! Existing Calibration Information:
! TYPE:             	Current Settings	Active Cal Settings
! TIME:             	05/09/2018 12:17:41 PM	05/09/2018 12:08:51 PM
! INTERNAL TEMP:    	55.5 C	54.8 C
! # POINTS:         	494	494
! START FREQ:       	20.000 MHz	20.000 MHz
! STOP FREQ:        	118.797 594 MHz	118.797 594 MHz
! SOURCE POWER:     	High	High
! IFBW:             	50 Hz	50 Hz
! AVG FACTOR:       	  1 	  1 
! REF PLANE 1:      	0 mm	0 mm
! REF PLANE 2:      	0 mm	0 mm
! CAL TYPE:         	Full S22	Full S22
! CAL METHOD:       	SOLT	SOLT
! CAL LINE TYPE:    	Coax	Coax
! DUT PORT 1:       	K-Conn(M)	K-Conn(M)
! DUT PORT 2:       	K-Conn(M)	K-Conn(M)
! CAL STATUS:       	OK: Accuracy High	--
! PROP-V:       	0.700
! CABLE LOSS:       	0.000 dB/m
! REF IMPEDANCE:       	50.0
! Trace Specific Parameters:	TR1	TR2	TR3	TR4
! TRACE.#.Y (GRAPH TYPE)	LOG MAG	PHASE	REAL IMPEDANCE	IMAGINARY IMPEDANCE
! TRACE.#.X 	FREQ.GHZ	FREQ.GHZ	FREQ.GHZ	FREQ.GHZ
! S-PARAMETER	S22	S22	S22	S22
! SMOOTH/APERTURE %	0	0	0	0
! WINDOW	NSL	NSL	NSL	NSL
! GATING	OFF	OFF	OFF	OFF
! FGTD	OFF	OFF	OFF	OFF
Marker Information per Trace:	TR1	TR2	TR3	TR4
!MK1	--	"MK1 TR2:  20.000 MHz,PH:-126.78°"	--	--
!MK2	--	--	"MK2 TR3:  70.100 200 MHz,Z:(16.172 ohm, -0.809 ohm)"	--
!MK3	--	--	--	--
!MK4	--	--	--	--
!MK5	--	--	--	--
!MK6	--	--	--	--
!MK7	--	--	--	--
!MK8	--	--	--	--
PNT	TR1.FREQ.GHZ	TR1.LOG MAG.dB	TR2.FREQ.GHZ	TR2.PHASE.deg	TR3.FREQ.GHZ	TR3.REAL IMPEDANCE.ohm	TR4.FREQ.GHZ	TR4.IMAGINARY IMPEDANCE.ohm
1	  0.020000000	-6.520000E-01	  0.020000000	-1.267800E+02	  0.020000000	2.348000E+00	  0.020000000	-2.500400E+01
2	  0.020200402	-6.540000E-01	  0.020200402	-1.282480E+02	  0.020200402	2.324000E+00	  0.020200402	-2.421000E+01
3	  0.020400802	-6.540000E-01	  0.020400802	-1.297240E+02	  0.020400802	2.298000E+00	  0.020400802	-2.342100E+01
4	  0.020601204	-6.580000E-01	  0.020601204	-1.312340E+02	  0.020601204	2.283000E+00	  0.020601204	-2.262300E+01
5	  0.020801604	-6.610000E-01	  0.020801604	-1.327580E+02	  0.020801604	2.264000E+00	  0.020801604	-2.182800E+01
6	  0.021002004	-6.630000E-01	  0.021002004	-1.342980E+02	  0.021002004	2.246000E+00	  0.021002004	-2.103400E+01
7	  0.021202406	-6.660000E-01	  0.021202406	-1.358380E+02	  0.021202406	2.231000E+00	  0.021202406	-2.024800E+01
8	  0.021402806	-6.680000E-01	  0.021402806	-1.373780E+02	  0.021402806	2.213000E+00	  0.021402806	-1.947100E+01
9	  0.021603208	-6.720000E-01	  0.021603208	-1.389070E+02	  0.021603208	2.206000E+00	  0.021603208	-1.870800E+01
10	  0.021803608	-6.760000E-01	  0.021803608	-1.404340E+02	  0.021803608	2.195000E+00	  0.021803608	-1.795300E+01
11	  0.022004008	-6.810000E-01	  0.022004008	-1.419770E+02	  0.022004008	2.193000E+00	  0.022004008	-1.719700E+01
12	  0.022204408	-6.870000E-01	  0.022204408	-1.435470E+02	  0.022204408	2.192000E+00	  0.022204408	-1.643600E+01
13	  0.022404809	-6.910000E-01	  0.022404809	-1.451290E+02	  0.022404809	2.185000E+00	  0.022404809	-1.567500E+01
14	  0.022605211	-6.940000E-01	  0.022605211	-1.467280E+02	  0.022605211	2.175000E+00	  0.022605211	-1.491300E+01
15	  0.022805611	-7.000000E-01	  0.022805611	-1.483150E+02	  0.022805611	2.176000E+00	  0.022805611	-1.416300E+01
16	  0.023006011	-7.070000E-01	  0.023006011	-1.499050E+02	  0.023006011	2.183000E+00	  0.023006011	-1.341700E+01
17	  0.023206413	-7.120000E-01	  0.023206413	-1.514890E+02	  0.023206413	2.180000E+00	  0.023206413	-1.268000E+01
18	  0.023406813	-7.160000E-01	  0.023406813	-1.530740E+02	  0.023406813	2.177000E+00	  0.023406813	-1.194800E+01
19	  0.023607215	-7.210000E-01	  0.023607215	-1.546810E+02	  0.023607215	2.181000E+00	  0.023607215	-1.121000E+01
20	  0.023807615	-7.310000E-01	  0.023807615	-1.562920E+02	  0.023807615	2.195000E+00	  0.023807615	-1.047500E+01
21	  0.024008015	-7.380000E-01	  0.024008015	-1.579340E+02	  0.024008015	2.204000E+00	  0.024008015	-9.730000E+00
22	  0.024208417	-7.450000E-01	  0.024208417	-1.595750E+02	  0.024208417	2.214000E+00	  0.024208417	-8.990000E+00
23	  0.024408817	-7.510000E-01	  0.024408817	-1.612390E+02	  0.024408817	2.221000E+00	  0.024408817	-8.244000E+00
24	  0.024609219	-7.570000E-01	  0.024609219	-1.628990E+02	  0.024609219	2.229000E+00	  0.024609219	-7.502000E+00
25	  0.024809619	-7.660000E-01	  0.024809619	-1.645770E+02	  0.024809619	2.243000E+00	  0.024809619	-6.756000E+00
26	  0.025010020	-7.750000E-01	  0.025010020	-1.662350E+02	  0.025010020	2.262000E+00	  0.025010020	-6.022000E+00
27	  0.025210422	-7.840000E-01	  0.025210422	-1.679210E+02	  0.025210422	2.282000E+00	  0.025210422	-5.279000E+00
28	  0.025410822	-7.950000E-01	  0.025410822	-1.696130E+02	  0.025410822	2.307000E+00	  0.025410822	-4.534000E+00
29	  0.025611224	-8.060000E-01	  0.025611224	-1.713120E+02	  0.025611224	2.331000E+00	  0.025611224	-3.789000E+00
30	  0.025811624	-8.160000E-01	  0.025811624	-1.730240E+02	  0.025811624	2.357000E+00	  0.025811624	-3.040000E+00
31	  0.026012026	-8.270000E-01	  0.026012026	-1.747590E+02	  0.026012026	2.384000E+00	  0.026012026	-2.282000E+00
32	  0.026212426	-8.370000E-01	  0.026212426	-1.764900E+02	  0.026212426	2.410000E+00	  0.026212426	-1.528000E+00
33	  0.026412826	-8.510000E-01	  0.026412826	-1.782390E+02	  0.026412826	2.449000E+00	  0.026412826	-7.660000E-01
34	  0.026613226	-8.650000E-01	  0.026613226	-1.799930E+02	  0.026613226	2.489000E+00	  0.026613226	-2.000000E-03
35	  0.026813626	-8.800000E-01	  0.026813626	1.782430E+02	  0.026813626	2.532000E+00	  0.026813626	7.640000E-01
36	  0.027014028	-8.950000E-01	  0.027014028	1.764760E+02	  0.027014028	2.576000E+00	  0.027014028	1.533000E+00
37	  0.027214428	-9.110000E-01	  0.027214428	1.746920E+02	  0.027214428	2.625000E+00	  0.027214428	2.311000E+00
38	  0.027414829	-9.260000E-01	  0.027414829	1.729130E+02	  0.027414829	2.675000E+00	  0.027414829	3.087000E+00
39	  0.027615231	-9.430000E-01	  0.027615231	1.711110E+02	  0.027615231	2.729000E+00	  0.027615231	3.874000E+00
40	  0.027815631	-9.590000E-01	  0.027815631	1.693050E+02	  0.027815631	2.784000E+00	  0.027815631	4.665000E+00
41	  0.028016033	-9.770000E-01	  0.028016033	1.674870E+02	  0.028016033	2.844000E+00	  0.028016033	5.464000E+00
42	  0.028216433	-9.970000E-01	  0.028216433	1.656480E+02	  0.028216433	2.913000E+00	  0.028216433	6.274000E+00
43	  0.028416833	-1.016000E+00	  0.028416833	1.638070E+02	  0.028416833	2.981000E+00	  0.028416833	7.087000E+00
44	  0.028617235	-1.036000E+00	  0.028617235	1.619570E+02	  0.028617235	3.055000E+00	  0.028617235	7.909000E+00
45	  0.028817635	-1.056000E+00	  0.028817635	1.601190E+02	  0.028817635	3.131000E+00	  0.028817635	8.729000E+00
46	  0.029018037	-1.078000E+00	  0.029018037	1.582620E+02	  0.029018037	3.213000E+00	  0.029018037	9.562000E+00
47	  0.029218437	-1.101000E+00	  0.029218437	1.563970E+02	  0.029218437	3.302000E+00	  0.029218437	1.040300E+01
48	  0.029418837	-1.125000E+00	  0.029418837	1.545070E+02	  0.029418837	3.398000E+00	  0.029418837	1.126000E+01
49	  0.029619239	-1.149000E+00	  0.029619239	1.526120E+02	  0.029619239	3.500000E+00	  0.029619239	1.212600E+01
50	  0.029819639	-1.174000E+00	  0.029819639	1.507070E+02	  0.029819639	3.605000E+00	  0.029819639	1.300300E+01
51	  0.030020041	-1.199000E+00	  0.030020041	1.487990E+02	  0.030020041	3.713000E+00	  0.030020041	1.388900E+01
52	  0.030220442	-1.223000E+00	  0.030220442	1.468960E+02	  0.030220442	3.824000E+00	  0.030220442	1.477900E+01
53	  0.030420844	-1.249000E+00	  0.030420844	1.449840E+02	  0.030420844	3.945000E+00	  0.030420844	1.568300E+01
54	  0.030621244	-1.278000E+00	  0.030621244	1.430810E+02	  0.030621244	4.078000E+00	  0.030621244	1.659000E+01
55	  0.030821642	-1.307000E+00	  0.030821642	1.411630E+02	  0.030821642	4.218000E+00	  0.030821642	1.751400E+01
56	  0.031022044	-1.337000E+00	  0.031022044	1.392250E+02	  0.031022044	4.367000E+00	  0.031022044	1.845700E+01
57	  0.031222444	-1.361000E+00	  0.031222444	1.372920E+02	  0.031222444	4.505000E+00	  0.031222444	1.941000E+01
58	  0.031422846	-1.390000E+00	  0.031422846	1.353260E+02	  0.031422846	4.663000E+00	  0.031422846	2.039000E+01
59	  0.031623244	-1.424000E+00	  0.031623244	1.333590E+02	  0.031623244	4.844000E+00	  0.031623244	2.138300E+01
60	  0.031823646	-1.456000E+00	  0.031823646	1.313770E+02	  0.031823646	5.028000E+00	  0.031823646	2.239700E+01
61	  0.032024048	-1.488000E+00	  0.032024048	1.294210E+02	  0.032024048	5.219000E+00	  0.032024048	2.341200E+01
62	  0.032224450	-1.524000E+00	  0.032224450	1.274460E+02	  0.032224450	5.434000E+00	  0.032224450	2.445100E+01
63	  0.032424849	-1.557000E+00	  0.032424849	1.254620E+02	  0.032424849	5.647000E+00	  0.032424849	2.551100E+01
64	  0.032625251	-1.595000E+00	  0.032625251	1.234600E+02	  0.032625251	5.888000E+00	  0.032625251	2.659800E+01
65	  0.032825653	-1.628000E+00	  0.032825653	1.214290E+02	  0.032825653	6.128000E+00	  0.032825653	2.772000E+01
66	  0.033026051	-1.665000E+00	  0.033026051	1.194210E+02	  0.033026051	6.391000E+00	  0.033026051	2.884800E+01
67	  0.033226453	-1.702000E+00	  0.033226453	1.173940E+02	  0.033226453	6.667000E+00	  0.033226453	3.000700E+01
68	  0.033426855	-1.741000E+00	  0.033426855	1.153640E+02	  0.033426855	6.966000E+00	  0.033426855	3.119000E+01
69	  0.033627257	-1.782000E+00	  0.033627257	1.133580E+02	  0.033627257	7.287000E+00	  0.033627257	3.238000E+01
70	  0.033827655	-1.818000E+00	  0.033827655	1.113090E+02	  0.033827655	7.612000E+00	  0.033827655	3.362200E+01
71	  0.034028057	-1.858000E+00	  0.034028057	1.092870E+02	  0.034028057	7.964000E+00	  0.034028057	3.487300E+01
72	  0.034228459	-1.901000E+00	  0.034228459	1.072370E+02	  0.034228459	8.355000E+00	  0.034228459	3.616700E+01
73	  0.034428857	-1.942000E+00	  0.034428857	1.051730E+02	  0.034428857	8.760000E+00	  0.034428857	3.749900E+01
74	  0.034629259	-1.987000E+00	  0.034629259	1.031060E+02	  0.034629259	9.208000E+00	  0.034629259	3.886300E+01
75	  0.034829661	-2.030000E+00	  0.034829661	1.010480E+02	  0.034829661	9.676000E+00	  0.034829661	4.025300E+01
76	  0.035030060	-2.076000E+00	  0.035030060	9.895000E+01	  0.035030060	1.019100E+01	  0.035030060	4.170400E+01
77	  0.035230462	-2.122000E+00	  0.035230462	9.687200E+01	  0.035230462	1.073500E+01	  0.035230462	4.317800E+01
78	  0.035430863	-2.170000E+00	  0.035430863	9.479600E+01	  0.035430863	1.132100E+01	  0.035430863	4.468600E+01
79	  0.035631265	-2.218000E+00	  0.035631265	9.271200E+01	  0.035631265	1.195300E+01	  0.035631265	4.623900E+01
80	  0.035831664	-2.266000E+00	  0.035831664	9.060800E+01	  0.035831664	1.263100E+01	  0.035831664	4.784900E+01
81	  0.036032066	-2.314000E+00	  0.036032066	8.852100E+01	  0.036032066	1.335100E+01	  0.036032066	4.949200E+01
82	  0.036232468	-2.365000E+00	  0.036232468	8.641200E+01	  0.036232468	1.414300E+01	  0.036232468	5.119500E+01
83	  0.036432866	-2.414000E+00	  0.036432866	8.430200E+01	  0.036432866	1.498400E+01	  0.036432866	5.294900E+01
84	  0.036633268	-2.466000E+00	  0.036633268	8.221400E+01	  0.036633268	1.589700E+01	  0.036633268	5.473100E+01
85	  0.036833670	-2.515000E+00	  0.036833670	8.010400E+01	  0.036833670	1.687300E+01	  0.036833670	5.659000E+01
86	  0.037034072	-2.571000E+00	  0.037034072	7.799500E+01	  0.037034072	1.796100E+01	  0.037034072	5.849000E+01
87	  0.037234470	-2.622000E+00	  0.037234470	7.590400E+01	  0.037234470	1.910300E+01	  0.037234470	6.043700E+01
88	  0.037434869	-2.672000E+00	  0.037434869	7.381300E+01	  0.037434869	2.032700E+01	  0.037434869	6.244500E+01
89	  0.037635271	-2.723000E+00	  0.037635271	7.172400E+01	  0.037635271	2.165400E+01	  0.037635271	6.450900E+01
90	  0.037835669	-2.777000E+00	  0.037835669	6.961300E+01	  0.037835669	2.312400E+01	  0.037835669	6.664900E+01
91	  0.038036071	-2.830000E+00	  0.038036071	6.748200E+01	  0.038036071	2.473200E+01	  0.038036071	6.887400E+01
92	  0.038236473	-2.886000E+00	  0.038236473	6.537200E+01	  0.038236473	2.648300E+01	  0.038236473	7.112900E+01
93	  0.038436871	-2.941000E+00	  0.038436871	6.324000E+01	  0.038436871	2.840000E+01	  0.038436871	7.347300E+01
94	  0.038637273	-2.996000E+00	  0.038637273	6.113700E+01	  0.038637273	3.047000E+01	  0.038637273	7.583900E+01
95	  0.038837675	-3.052000E+00	  0.038837675	5.904100E+01	  0.038837675	3.272800E+01	  0.038837675	7.824800E+01
96	  0.039038073	-3.100000E+00	  0.039038073	5.695000E+01	  0.039038073	3.512400E+01	  0.039038073	8.074500E+01
97	  0.039238475	-3.155000E+00	  0.039238475	5.488200E+01	  0.039238475	3.777700E+01	  0.039238475	8.321800E+01
98	  0.039438877	-3.210000E+00	  0.039438877	5.281200E+01	  0.039438877	4.068400E+01	  0.039438877	8.572500E+01
99	  0.039639279	-3.259000E+00	  0.039639279	5.071300E+01	  0.039639279	4.385100E+01	  0.039639279	8.834200E+01
100	  0.039839678	-3.315000E+00	  0.039839678	4.860800E+01	  0.039839678	4.739500E+01	  0.039839678	9.092500E+01
101	  0.040040080	-3.368000E+00	  0.040040080	4.651800E+01	  0.040040080	5.123200E+01	  0.040040080	9.349800E+01
102	  0.040240481	-3.416000E+00	  0.040240481	4.443600E+01	  0.040240481	5.537900E+01	  0.040240481	9.608600E+01
103	  0.040440880	-3.470000E+00	  0.040440880	4.236700E+01	  0.040440880	5.996800E+01	  0.040440880	9.851200E+01
104	  0.040641282	-3.521000E+00	  0.040641282	4.030300E+01	  0.040641282	6.496200E+01	  0.040641282	1.008430E+02
105	  0.040841684	-3.572000E+00	  0.040841684	3.824900E+01	  0.040841684	7.039100E+01	  0.040841684	1.030210E+02
106	  0.041042086	-3.625000E+00	  0.041042086	3.619600E+01	  0.041042086	7.634400E+01	  0.041042086	1.049300E+02
107	  0.041242484	-3.680000E+00	  0.041242484	3.413400E+01	  0.041242484	8.285900E+01	  0.041242484	1.065220E+02
108	  0.041442886	-3.730000E+00	  0.041442886	3.208300E+01	  0.041442886	8.986000E+01	  0.041442886	1.078000E+02
109	  0.041643288	-3.781000E+00	  0.041643288	3.001600E+01	  0.041643288	9.749600E+01	  0.041643288	1.085510E+02
110	  0.041843686	-3.832000E+00	  0.041843686	2.794700E+01	  0.041843686	1.056980E+02	  0.041843686	1.087190E+02
111	  0.042044088	-3.882000E+00	  0.042044088	2.589900E+01	  0.042044088	1.143570E+02	  0.042044088	1.081100E+02
112	  0.042244490	-3.933000E+00	  0.042244490	2.386000E+01	  0.042244490	1.234360E+02	  0.042244490	1.065820E+02
113	  0.042444889	-3.983000E+00	  0.042444889	2.182300E+01	  0.042444889	1.328750E+02	  0.042444889	1.040220E+02
114	  0.042645290	-4.035000E+00	  0.042645290	1.978700E+01	  0.042645290	1.425150E+02	  0.042645290	1.002040E+02
115	  0.042845692	-4.085000E+00	  0.042845692	1.777500E+01	  0.042845692	1.520680E+02	  0.042845692	9.514400E+01
116	  0.043046094	-4.137000E+00	  0.043046094	1.574400E+01	  0.043046094	1.614800E+02	  0.043046094	8.859200E+01
117	  0.043246493	-4.184000E+00	  0.043246493	1.372600E+01	  0.043246493	1.704250E+02	  0.043246493	8.077200E+01
118	  0.043446895	-4.231000E+00	  0.043446895	1.172000E+01	  0.043446895	1.785520E+02	  0.043446895	7.158600E+01
119	  0.043647297	-4.278000E+00	  0.043647297	9.715000E+00	  0.043647297	1.855910E+02	  0.043647297	6.107900E+01
120	  0.043847695	-4.326000E+00	  0.043847695	7.711000E+00	  0.043847695	1.912340E+02	  0.043847695	4.944500E+01
121	  0.044048097	-4.373000E+00	  0.044048097	5.731000E+00	  0.044048097	1.952240E+02	  0.044048097	3.712500E+01
122	  0.044248499	-4.419000E+00	  0.044248499	3.743000E+00	  0.044248499	1.975650E+02	  0.044248499	2.428900E+01
123	  0.044448901	-4.465000E+00	  0.044448901	1.792000E+00	  0.044448901	1.980430E+02	  0.044448901	1.153100E+01
124	  0.044649299	-4.508000E+00	  0.044649299	-1.770000E-01	  0.044649299	1.969520E+02	  0.044649299	-1.126000E+00
125	  0.044849701	-4.555000E+00	  0.044849701	-2.107000E+00	  0.044849701	1.941000E+02	  0.044849701	-1.300500E+01
126	  0.045050103	-4.599000E+00	  0.045050103	-4.060000E+00	  0.045050103	1.899050E+02	  0.045050103	-2.424200E+01
127	  0.045250501	-4.642000E+00	  0.045250501	-5.987000E+00	  0.045250501	1.846440E+02	  0.045250501	-3.437300E+01
128	  0.045450903	-4.687000E+00	  0.045450903	-7.909000E+00	  0.045450903	1.784020E+02	  0.045450903	-4.335400E+01
129	  0.045651305	-4.729000E+00	  0.045651305	-9.840000E+00	  0.045651305	1.715610E+02	  0.045651305	-5.127900E+01
130	  0.045851704	-4.769000E+00	  0.045851704	-1.173600E+01	  0.045851704	1.644370E+02	  0.045851704	-5.795800E+01
131	  0.046052102	-4.808000E+00	  0.046052102	-1.363100E+01	  0.046052102	1.570820E+02	  0.046052102	-6.357700E+01
132	  0.046252504	-4.848000E+00	  0.046252504	-1.551300E+01	  0.046252504	1.496700E+02	  0.046252504	-6.812400E+01
133	  0.046452906	-4.885000E+00	  0.046452906	-1.737500E+01	  0.046452906	1.424350E+02	  0.046452906	-7.178900E+01
134	  0.046653304	-4.922000E+00	  0.046653304	-1.926000E+01	  0.046653304	1.352500E+02	  0.046653304	-7.466300E+01
135	  0.046853706	-4.960000E+00	  0.046853706	-2.113300E+01	  0.046853706	1.283290E+02	  0.046853706	-7.677700E+01
136	  0.047054108	-4.994000E+00	  0.047054108	-2.298400E+01	  0.047054108	1.217800E+02	  0.047054108	-7.830900E+01
137	  0.047254506	-5.031000E+00	  0.047254506	-2.483500E+01	  0.047254506	1.155120E+02	  0.047254506	-7.925000E+01
138	  0.047454908	-5.064000E+00	  0.047454908	-2.666500E+01	  0.047454908	1.096450E+02	  0.047454908	-7.979300E+01
139	  0.047655310	-5.095000E+00	  0.047655310	-2.848900E+01	  0.047655310	1.041170E+02	  0.047655310	-7.998400E+01
140	  0.047855709	-5.130000E+00	  0.047855709	-3.029300E+01	  0.047855709	9.895100E+01	  0.047855709	-7.978900E+01
141	  0.048056111	-5.162000E+00	  0.048056111	-3.208000E+01	  0.048056111	9.414100E+01	  0.048056111	-7.937100E+01
142	  0.048256513	-5.191000E+00	  0.048256513	-3.384800E+01	  0.048256513	8.966800E+01	  0.048256513	-7.877900E+01
143	  0.048456915	-5.223000E+00	  0.048456915	-3.562100E+01	  0.048456915	8.545600E+01	  0.048456915	-7.797100E+01
144	  0.048657313	-5.252000E+00	  0.048657313	-3.740200E+01	  0.048657313	8.148400E+01	  0.048657313	-7.706900E+01
145	  0.048857715	-5.279000E+00	  0.048857715	-3.914000E+01	  0.048857715	7.784700E+01	  0.048857715	-7.606900E+01
146	  0.049058117	-5.301000E+00	  0.049058117	-4.090500E+01	  0.049058117	7.436700E+01	  0.049058117	-7.503300E+01
147	  0.049258515	-5.328000E+00	  0.049258515	-4.263600E+01	  0.049258515	7.117800E+01	  0.049258515	-7.386500E+01
148	  0.049458917	-5.351000E+00	  0.049458917	-4.433900E+01	  0.049458917	6.822000E+01	  0.049458917	-7.270700E+01
149	  0.049659319	-5.378000E+00	  0.049659319	-4.603000E+01	  0.049659319	6.547800E+01	  0.049659319	-7.145000E+01
150	  0.049859721	-5.403000E+00	  0.049859721	-4.772100E+01	  0.049859721	6.289400E+01	  0.049859721	-7.018300E+01
151	  0.050060119	-5.427000E+00	  0.050060119	-4.938600E+01	  0.050060119	6.049500E+01	  0.050060119	-6.892600E+01
152	  0.050260521	-5.447000E+00	  0.050260521	-5.106500E+01	  0.050260521	5.820500E+01	  0.050260521	-6.766900E+01
153	  0.050460923	-5.470000E+00	  0.050460923	-5.273100E+01	  0.050460923	5.607900E+01	  0.050460923	-6.637700E+01
154	  0.050661322	-5.489000E+00	  0.050661322	-5.437200E+01	  0.050661322	5.408500E+01	  0.050661322	-6.513600E+01
155	  0.050861724	-5.508000E+00	  0.050861724	-5.599900E+01	  0.050861724	5.222200E+01	  0.050861724	-6.389600E+01
156	  0.051062126	-5.533000E+00	  0.051062126	-5.762500E+01	  0.051062126	5.048900E+01	  0.051062126	-6.261400E+01
157	  0.051262524	-5.554000E+00	  0.051262524	-5.922500E+01	  0.051262524	4.886100E+01	  0.051262524	-6.138400E+01
158	  0.051462926	-5.574000E+00	  0.051462926	-6.080400E+01	  0.051462926	4.734300E+01	  0.051462926	-6.017500E+01
159	  0.051663328	-5.596000E+00	  0.051663328	-6.239500E+01	  0.051663328	4.589600E+01	  0.051663328	-5.896200E+01
160	  0.051863730	-5.610000E+00	  0.051863730	-6.399200E+01	  0.051863730	4.448800E+01	  0.051863730	-5.779900E+01
161	  0.052064128	-5.631000E+00	  0.052064128	-6.555300E+01	  0.052064128	4.321400E+01	  0.052064128	-5.662700E+01
162	  0.052264530	-5.643000E+00	  0.052264530	-6.713000E+01	  0.052264530	4.195500E+01	  0.052264530	-5.550500E+01
163	  0.052464932	-5.656000E+00	  0.052464932	-6.867000E+01	  0.052464932	4.079100E+01	  0.052464932	-5.441300E+01
164	  0.052665330	-5.674000E+00	  0.052665330	-7.021800E+01	  0.052665330	3.969400E+01	  0.052665330	-5.330500E+01
165	  0.052865732	-5.688000E+00	  0.052865732	-7.173700E+01	  0.052865732	3.865900E+01	  0.052865732	-5.224400E+01
166	  0.053066134	-5.704000E+00	  0.053066134	-7.326900E+01	  0.053066134	3.767500E+01	  0.053066134	-5.117400E+01
167	  0.053266536	-5.714000E+00	  0.053266536	-7.475600E+01	  0.053266536	3.673600E+01	  0.053266536	-5.017700E+01
168	  0.053466935	-5.727000E+00	  0.053466935	-7.629400E+01	  0.053466935	3.582300E+01	  0.053466935	-4.914400E+01
169	  0.053667337	-5.738000E+00	  0.053667337	-7.779200E+01	  0.053667337	3.497200E+01	  0.053667337	-4.815200E+01
170	  0.053867739	-5.749000E+00	  0.053867739	-7.929400E+01	  0.053867739	3.415200E+01	  0.053867739	-4.717400E+01
171	  0.054068137	-5.755000E+00	  0.054068137	-8.080300E+01	  0.054068137	3.334700E+01	  0.054068137	-4.621900E+01
172	  0.054268539	-5.761000E+00	  0.054268539	-8.226800E+01	  0.054268539	3.259900E+01	  0.054268539	-4.530200E+01
173	  0.054468941	-5.769000E+00	  0.054468941	-8.376000E+01	  0.054468941	3.187800E+01	  0.054468941	-4.437200E+01
174	  0.054669335	-5.779000E+00	  0.054669335	-8.523700E+01	  0.054669335	3.120200E+01	  0.054669335	-4.345600E+01
175	  0.054869737	-5.786000E+00	  0.054869737	-8.668400E+01	  0.054869737	3.056000E+01	  0.054869737	-4.257600E+01
176	  0.055070139	-5.790000E+00	  0.055070139	-8.811900E+01	  0.055070139	2.993700E+01	  0.055070139	-4.172200E+01
177	  0.055270538	-5.792000E+00	  0.055270538	-8.956100E+01	  0.055270538	2.932900E+01	  0.055270538	-4.087800E+01
178	  0.055470940	-5.799000E+00	  0.055470940	-9.100200E+01	  0.055470940	2.876400E+01	  0.055470940	-4.003100E+01
179	  0.055671342	-5.797000E+00	  0.055671342	-9.243900E+01	  0.055671342	2.819100E+01	  0.055671342	-3.921900E+01
180	  0.055871744	-5.798000E+00	  0.055871744	-9.386300E+01	  0.055871744	2.765500E+01	  0.055871744	-3.841400E+01
181	  0.056072142	-5.799000E+00	  0.056072142	-9.525500E+01	  0.056072142	2.715200E+01	  0.056072142	-3.763600E+01
182	  0.056272544	-5.802000E+00	  0.056272544	-9.663600E+01	  0.056272544	2.668100E+01	  0.056272544	-3.686600E+01
183	  0.056472946	-5.804000E+00	  0.056472946	-9.803300E+01	  0.056472946	2.621700E+01	  0.056472946	-3.609900E+01
184	  0.056673344	-5.807000E+00	  0.056673344	-9.941200E+01	  0.056673344	2.578000E+01	  0.056673344	-3.534600E+01
185	  0.056873746	-5.808000E+00	  0.056873746	-1.007490E+02	  0.056873746	2.536600E+01	  0.056873746	-3.462800E+01
186	  0.057074148	-5.812000E+00	  0.057074148	-1.021130E+02	  0.057074148	2.496900E+01	  0.057074148	-3.389700E+01
187	  0.057274550	-5.812000E+00	  0.057274550	-1.034670E+02	  0.057274550	2.457700E+01	  0.057274550	-3.318500E+01
188	  0.057474948	-5.811000E+00	  0.057474948	-1.047910E+02	  0.057474948	2.420500E+01	  0.057474948	-3.249600E+01
189	  0.057675350	-5.813000E+00	  0.057675350	-1.061340E+02	  0.057675350	2.385000E+01	  0.057675350	-3.180000E+01
190	  0.057875752	-5.816000E+00	  0.057875752	-1.074720E+02	  0.057875752	2.350900E+01	  0.057875752	-3.111200E+01
191	  0.058076151	-5.821000E+00	  0.058076151	-1.087940E+02	  0.058076151	2.319600E+01	  0.058076151	-3.043300E+01
192	  0.058276553	-5.823000E+00	  0.058276553	-1.100890E+02	  0.058276553	2.288700E+01	  0.058276553	-2.978100E+01
193	  0.058476955	-5.823000E+00	  0.058476955	-1.113770E+02	  0.058476955	2.258800E+01	  0.058476955	-2.913900E+01
194	  0.058677353	-5.826000E+00	  0.058677353	-1.127120E+02	  0.058677353	2.229600E+01	  0.058677353	-2.847600E+01
195	  0.058877755	-5.829000E+00	  0.058877755	-1.139970E+02	  0.058877755	2.202400E+01	  0.058877755	-2.784400E+01
196	  0.059078157	-5.828000E+00	  0.059078157	-1.152880E+02	  0.059078157	2.175000E+01	  0.059078157	-2.721900E+01
197	  0.059278559	-5.832000E+00	  0.059278559	-1.165750E+02	  0.059278559	2.150100E+01	  0.059278559	-2.659500E+01
198	  0.059478957	-5.833000E+00	  0.059478957	-1.178490E+02	  0.059478957	2.125500E+01	  0.059478957	-2.598600E+01
199	  0.059679359	-5.835000E+00	  0.059679359	-1.191360E+02	  0.059679359	2.101700E+01	  0.059679359	-2.537400E+01
200	  0.059879761	-5.838000E+00	  0.059879761	-1.204190E+02	  0.059879761	2.079200E+01	  0.059879761	-2.476700E+01
201	  0.060080159	-5.841000E+00	  0.060080159	-1.216540E+02	  0.060080159	2.058200E+01	  0.060080159	-2.418800E+01
202	  0.060280561	-5.842000E+00	  0.060280561	-1.229530E+02	  0.060280561	2.036400E+01	  0.060280561	-2.358500E+01
203	  0.060480963	-5.842000E+00	  0.060480963	-1.241990E+02	  0.060480963	2.015900E+01	  0.060480963	-2.301300E+01
204	  0.060681365	-5.846000E+00	  0.060681365	-1.254560E+02	  0.060681365	1.997300E+01	  0.060681365	-2.243500E+01
205	  0.060881764	-5.845000E+00	  0.060881764	-1.266910E+02	  0.060881764	1.977900E+01	  0.060881764	-2.187700E+01
206	  0.061082166	-5.843000E+00	  0.061082166	-1.279450E+02	  0.061082166	1.958500E+01	  0.061082166	-2.131500E+01
207	  0.061282568	-5.843000E+00	  0.061282568	-1.291910E+02	  0.061282568	1.940900E+01	  0.061282568	-2.075700E+01
208	  0.061482966	-5.841000E+00	  0.061482966	-1.304150E+02	  0.061482966	1.923400E+01	  0.061482966	-2.021500E+01
209	  0.061683368	-5.842000E+00	  0.061683368	-1.316340E+02	  0.061683368	1.907300E+01	  0.061683368	-1.967600E+01
210	  0.061883770	-5.843000E+00	  0.061883770	-1.328560E+02	  0.061883770	1.891800E+01	  0.061883770	-1.913800E+01
211	  0.062084168	-5.838000E+00	  0.062084168	-1.340680E+02	  0.062084168	1.875400E+01	  0.062084168	-1.861300E+01
212	  0.062284570	-5.836000E+00	  0.062284570	-1.352570E+02	  0.062284570	1.860700E+01	  0.062284570	-1.809800E+01
213	  0.062484972	-5.826000E+00	  0.062484972	-1.363840E+02	  0.062484972	1.844700E+01	  0.062484972	-1.761900E+01
214	  0.062685370	-5.825000E+00	  0.062685370	-1.375860E+02	  0.062685370	1.831200E+01	  0.062685370	-1.710300E+01
215	  0.062885776	-5.824000E+00	  0.062885776	-1.387810E+02	  0.062885776	1.817800E+01	  0.062885776	-1.659300E+01
216	  0.063086174	-5.814000E+00	  0.063086174	-1.399370E+02	  0.063086174	1.803300E+01	  0.063086174	-1.610700E+01
217	  0.063286573	-5.814000E+00	  0.063286573	-1.410990E+02	  0.063286573	1.791800E+01	  0.063286573	-1.561400E+01
218	  0.063486971	-5.817000E+00	  0.063486971	-1.422650E+02	  0.063486971	1.781300E+01	  0.063486971	-1.512100E+01
219	  0.063687377	-5.810000E+00	  0.063687377	-1.433760E+02	  0.063687377	1.769100E+01	  0.063687377	-1.465800E+01
220	  0.063887775	-5.807000E+00	  0.063887775	-1.444890E+02	  0.063887775	1.758500E+01	  0.063887775	-1.419400E+01
221	  0.064088173	-5.809000E+00	  0.064088173	-1.456530E+02	  0.064088173	1.748900E+01	  0.064088173	-1.370900E+01
222	  0.064288579	-5.803000E+00	  0.064288579	-1.468140E+02	  0.064288579	1.737900E+01	  0.064288579	-1.323000E+01
223	  0.064488977	-5.804000E+00	  0.064488977	-1.479320E+02	  0.064488977	1.729300E+01	  0.064488977	-1.276700E+01
224	  0.064689375	-5.806000E+00	  0.064689375	-1.490580E+02	  0.064689375	1.721500E+01	  0.064689375	-1.230200E+01
225	  0.064889781	-5.805000E+00	  0.064889781	-1.501890E+02	  0.064889781	1.712900E+01	  0.064889781	-1.183900E+01
226	  0.065090179	-5.805000E+00	  0.065090179	-1.512850E+02	  0.065090179	1.705200E+01	  0.065090179	-1.139100E+01
227	  0.065290578	-5.803000E+00	  0.065290578	-1.523610E+02	  0.065290578	1.697600E+01	  0.065290578	-1.095300E+01
228	  0.065490983	-5.805000E+00	  0.065490983	-1.534870E+02	  0.065490983	1.691000E+01	  0.065490983	-1.049500E+01
229	  0.065691382	-5.805000E+00	  0.065691382	-1.546080E+02	  0.065691382	1.684200E+01	  0.065691382	-1.004100E+01
230	  0.065891780	-5.807000E+00	  0.065891780	-1.557140E+02	  0.065891780	1.678500E+01	  0.065891780	-9.593000E+00
231	  0.066092186	-5.805000E+00	  0.066092186	-1.568220E+02	  0.066092186	1.671900E+01	  0.066092186	-9.148000E+00
232	  0.066292584	-5.810000E+00	  0.066292584	-1.579360E+02	  0.066292584	1.667300E+01	  0.066292584	-8.699000E+00
233	  0.066492982	-5.810000E+00	  0.066492982	-1.590240E+02	  0.066492982	1.661900E+01	  0.066492982	-8.263000E+00
234	  0.066693388	-5.812000E+00	  0.066693388	-1.601180E+02	  0.066693388	1.657400E+01	  0.066693388	-7.825000E+00
235	  0.066893786	-5.814000E+00	  0.066893786	-1.611980E+02	  0.066893786	1.653100E+01	  0.066893786	-7.394000E+00
236	  0.067094192	-5.812000E+00	  0.067094192	-1.622720E+02	  0.067094192	1.648100E+01	  0.067094192	-6.968000E+00
237	  0.067294590	-5.813000E+00	  0.067294590	-1.633560E+02	  0.067294590	1.644200E+01	  0.067294590	-6.537000E+00
238	  0.067494988	-5.815000E+00	  0.067494988	-1.644220E+02	  0.067494988	1.640900E+01	  0.067494988	-6.114000E+00
239	  0.067695394	-5.817000E+00	  0.067695394	-1.655030E+02	  0.067695394	1.637800E+01	  0.067695394	-5.686000E+00
240	  0.067895792	-5.812000E+00	  0.067895792	-1.665850E+02	  0.067895792	1.633100E+01	  0.067895792	-5.260000E+00
241	  0.068096191	-5.818000E+00	  0.068096191	-1.676480E+02	  0.068096191	1.631700E+01	  0.068096191	-4.840000E+00
242	  0.068296596	-5.821000E+00	  0.068296596	-1.687050E+02	  0.068296596	1.629600E+01	  0.068296596	-4.423000E+00
243	  0.068496995	-5.816000E+00	  0.068496995	-1.697540E+02	  0.068496995	1.625900E+01	  0.068496995	-4.011000E+00
244	  0.068697393	-5.818000E+00	  0.068697393	-1.707910E+02	  0.068697393	1.624000E+01	  0.068697393	-3.604000E+00
245	  0.068897791	-5.816000E+00	  0.068897791	-1.718360E+02	  0.068897791	1.621600E+01	  0.068897791	-3.194000E+00
246	  0.069098189	-5.817000E+00	  0.069098189	-1.728410E+02	  0.069098189	1.620100E+01	  0.069098189	-2.800000E+00
247	  0.069298595	-5.816000E+00	  0.069298595	-1.738950E+02	  0.069298595	1.618200E+01	  0.069298595	-2.387000E+00
248	  0.069498993	-5.818000E+00	  0.069498993	-1.749130E+02	  0.069498993	1.617500E+01	  0.069498993	-1.988000E+00
249	  0.069699399	-5.818000E+00	  0.069699399	-1.759170E+02	  0.069699399	1.616500E+01	  0.069699399	-1.596000E+00
250	  0.069899797	-5.819000E+00	  0.069899797	-1.769530E+02	  0.069899797	1.616000E+01	  0.069899797	-1.190000E+00
251	  0.070100196	-5.826000E+00	  0.070100196	-1.779280E+02	  0.070100196	1.617100E+01	  0.070100196	-8.090000E-01
252	  0.070300601	-5.825000E+00	  0.070300601	-1.789180E+02	  0.070300601	1.616700E+01	  0.070300601	-4.220000E-01
253	  0.070501000	-5.825000E+00	  0.070501000	-1.799140E+02	  0.070501000	1.616400E+01	  0.070501000	-3.300000E-02
254	  0.070701398	-5.826000E+00	  0.070701398	1.791010E+02	  0.070701398	1.616900E+01	  0.070701398	3.500000E-01
255	  0.070901804	-5.833000E+00	  0.070901804	1.781110E+02	  0.070901804	1.618900E+01	  0.070901804	7.370000E-01
256	  0.071102202	-5.837000E+00	  0.071102202	1.771290E+02	  0.071102202	1.620600E+01	  0.071102202	1.121000E+00
257	  0.071302600	-5.842000E+00	  0.071302600	1.761550E+02	  0.071302600	1.622500E+01	  0.071302600	1.501000E+00
258	  0.071503006	-5.844000E+00	  0.071503006	1.751630E+02	  0.071503006	1.624100E+01	  0.071503006	1.889000E+00
259	  0.071703404	-5.853000E+00	  0.071703404	1.742140E+02	  0.071703404	1.627500E+01	  0.071703404	2.259000E+00
260	  0.071903802	-5.860000E+00	  0.071903802	1.732410E+02	  0.071903802	1.630600E+01	  0.071903802	2.639000E+00
261	  0.072104208	-5.866000E+00	  0.072104208	1.722600E+02	  0.072104208	1.633800E+01	  0.072104208	3.022000E+00
262	  0.072304606	-5.873000E+00	  0.072304606	1.712770E+02	  0.072304606	1.637400E+01	  0.072304606	3.406000E+00
263	  0.072505005	-5.878000E+00	  0.072505005	1.703290E+02	  0.072505005	1.640500E+01	  0.072505005	3.776000E+00
264	  0.072705410	-5.886000E+00	  0.072705410	1.693610E+02	  0.072705410	1.644700E+01	  0.072705410	4.155000E+00
265	  0.072905809	-5.890000E+00	  0.072905809	1.683780E+02	  0.072905809	1.648400E+01	  0.072905809	4.540000E+00
266	  0.073106214	-5.897000E+00	  0.073106214	1.674040E+02	  0.073106214	1.652700E+01	  0.073106214	4.921000E+00
267	  0.073306613	-5.905000E+00	  0.073306613	1.664630E+02	  0.073306613	1.657700E+01	  0.073306613	5.289000E+00
268	  0.073507011	-5.910000E+00	  0.073507011	1.654900E+02	  0.073507011	1.662100E+01	  0.073507011	5.671000E+00
269	  0.073707417	-5.916000E+00	  0.073707417	1.645270E+02	  0.073707417	1.666800E+01	  0.073707417	6.049000E+00
270	  0.073907815	-5.921000E+00	  0.073907815	1.635500E+02	  0.073907815	1.671800E+01	  0.073907815	6.433000E+00
271	  0.074108213	-5.925000E+00	  0.074108213	1.626340E+02	  0.074108213	1.676300E+01	  0.074108213	6.794000E+00
272	  0.074308619	-5.930000E+00	  0.074308619	1.616860E+02	  0.074308619	1.681400E+01	  0.074308619	7.168000E+00
273	  0.074509017	-5.932000E+00	  0.074509017	1.607180E+02	  0.074509017	1.686200E+01	  0.074509017	7.551000E+00
274	  0.074709415	-5.935000E+00	  0.074709415	1.598130E+02	  0.074709415	1.691100E+01	  0.074709415	7.909000E+00
275	  0.074909821	-5.938000E+00	  0.074909821	1.588740E+02	  0.074909821	1.696400E+01	  0.074909821	8.282000E+00
276	  0.075110219	-5.945000E+00	  0.075110219	1.579470E+02	  0.075110219	1.702800E+01	  0.075110219	8.649000E+00
277	  0.075310618	-5.945000E+00	  0.075310618	1.570080E+02	  0.075310618	1.707900E+01	  0.075310618	9.024000E+00
278	  0.075511023	-5.948000E+00	  0.075511023	1.561090E+02	  0.075511023	1.713600E+01	  0.075511023	9.382000E+00
279	  0.075711422	-5.948000E+00	  0.075711422	1.552450E+02	  0.075711422	1.718600E+01	  0.075711422	9.728000E+00
280	  0.075911827	-5.952000E+00	  0.075911827	1.543410E+02	  0.075911827	1.724900E+01	  0.075911827	1.009000E+01
281	  0.076112226	-5.955000E+00	  0.076112226	1.534370E+02	  0.076112226	1.731500E+01	  0.076112226	1.045300E+01
282	  0.076312624	-5.958000E+00	  0.076312624	1.525780E+02	  0.076312624	1.737700E+01	  0.076312624	1.079900E+01
283	  0.076513030	-5.959000E+00	  0.076513030	1.516820E+02	  0.076513030	1.744000E+01	  0.076513030	1.116000E+01
284	  0.076713428	-5.967000E+00	  0.076713428	1.508090E+02	  0.076713428	1.752100E+01	  0.076713428	1.151100E+01
285	  0.076913826	-5.970000E+00	  0.076913826	1.499500E+02	  0.076913826	1.759100E+01	  0.076913826	1.185800E+01
286	  0.077114232	-5.973000E+00	  0.077114232	1.490720E+02	  0.077114232	1.766400E+01	  0.077114232	1.221400E+01
287	  0.077314630	-5.984000E+00	  0.077314630	1.482380E+02	  0.077314630	1.775700E+01	  0.077314630	1.254900E+01
288	  0.077515028	-5.988000E+00	  0.077515028	1.473990E+02	  0.077515028	1.783500E+01	  0.077515028	1.289100E+01
289	  0.077715434	-5.995000E+00	  0.077715434	1.465430E+02	  0.077715434	1.792400E+01	  0.077715434	1.323800E+01
290	  0.077915832	-6.005000E+00	  0.077915832	1.456630E+02	  0.077915832	1.802600E+01	  0.077915832	1.359400E+01
291	  0.078116231	-6.013000E+00	  0.078116231	1.448180E+02	  0.078116231	1.811900E+01	  0.078116231	1.393900E+01
292	  0.078316636	-6.020000E+00	  0.078316636	1.439350E+02	  0.078316636	1.821700E+01	  0.078316636	1.430000E+01
293	  0.078517035	-6.028000E+00	  0.078517035	1.430770E+02	  0.078517035	1.831900E+01	  0.078517035	1.465000E+01
294	  0.078717433	-6.039000E+00	  0.078717433	1.422180E+02	  0.078717433	1.843000E+01	  0.078717433	1.500100E+01
295	  0.078917839	-6.065000E+00	  0.078917839	1.414540E+02	  0.078917839	1.857700E+01	  0.078917839	1.530200E+01
296	  0.079118237	-6.073000E+00	  0.079118237	1.406220E+02	  0.079118237	1.868200E+01	  0.079118237	1.564500E+01
297	  0.079318643	-6.081000E+00	  0.079318643	1.397640E+02	  0.079318643	1.879400E+01	  0.079318643	1.599800E+01
298	  0.079519041	-6.091000E+00	  0.079519041	1.388920E+02	  0.079519041	1.891400E+01	  0.079519041	1.635700E+01
299	  0.079719439	-6.098000E+00	  0.079719439	1.380190E+02	  0.079719439	1.902900E+01	  0.079719439	1.672000E+01
300	  0.079919845	-6.111000E+00	  0.079919845	1.371610E+02	  0.079919845	1.916100E+01	  0.079919845	1.707300E+01
301	  0.080120243	-6.118000E+00	  0.080120243	1.362560E+02	  0.080120243	1.928600E+01	  0.080120243	1.745200E+01
302	  0.080320641	-6.126000E+00	  0.080320641	1.353750E+02	  0.080320641	1.941400E+01	  0.080320641	1.781900E+01
303	  0.080521047	-6.139000E+00	  0.080521047	1.345060E+02	  0.080521047	1.955700E+01	  0.080521047	1.818000E+01
304	  0.080721445	-6.145000E+00	  0.080721445	1.336090E+02	  0.080721445	1.968700E+01	  0.080721445	1.855900E+01
305	  0.080921844	-6.155000E+00	  0.080921844	1.327420E+02	  0.080921844	1.982800E+01	  0.080921844	1.892200E+01
306	  0.081122249	-6.161000E+00	  0.081122249	1.318680E+02	  0.081122249	1.996100E+01	  0.081122249	1.929400E+01
307	  0.081322648	-6.172000E+00	  0.081322648	1.309840E+02	  0.081322648	2.011100E+01	  0.081322648	1.966700E+01
308	  0.081523046	-6.180000E+00	  0.081523046	1.301050E+02	  0.081523046	2.025700E+01	  0.081523046	2.004100E+01
309	  0.081723452	-6.187000E+00	  0.081723452	1.292220E+02	  0.081723452	2.040500E+01	  0.081723452	2.041900E+01
310	  0.081923850	-6.190000E+00	  0.081923850	1.283560E+02	  0.081923850	2.054000E+01	  0.081923850	2.079500E+01
311	  0.082124248	-6.200000E+00	  0.082124248	1.274880E+02	  0.082124248	2.070100E+01	  0.082124248	2.116500E+01
312	  0.082324654	-6.208000E+00	  0.082324654	1.266480E+02	  0.082324654	2.085600E+01	  0.082324654	2.152700E+01
313	  0.082525052	-6.221000E+00	  0.082525052	1.258090E+02	  0.082525052	2.102400E+01	  0.082525052	2.188500E+01
314	  0.082725458	-6.228000E+00	  0.082725458	1.249890E+02	  0.082725458	2.118000E+01	  0.082725458	2.224000E+01
315	  0.082925856	-6.243000E+00	  0.082925856	1.241520E+02	  0.082925856	2.136300E+01	  0.082925856	2.259700E+01
316	  0.083126254	-6.256000E+00	  0.083126254	1.233270E+02	  0.083126254	2.154200E+01	  0.083126254	2.295000E+01
317	  0.083326660	-6.265000E+00	  0.083326660	1.225000E+02	  0.083326660	2.171100E+01	  0.083326660	2.331100E+01
318	  0.083527058	-6.278000E+00	  0.083527058	1.217050E+02	  0.083527058	2.189300E+01	  0.083527058	2.365300E+01
319	  0.083727457	-6.295000E+00	  0.083727457	1.209130E+02	  0.083727457	2.208900E+01	  0.083727457	2.398900E+01
320	  0.083927862	-6.311000E+00	  0.083927862	1.200880E+02	  0.083927862	2.229200E+01	  0.083927862	2.434300E+01
321	  0.084128261	-6.327000E+00	  0.084128261	1.193210E+02	  0.084128261	2.248500E+01	  0.084128261	2.467100E+01
322	  0.084328659	-6.342000E+00	  0.084328659	1.185420E+02	  0.084328659	2.268200E+01	  0.084328659	2.500600E+01
323	  0.084529065	-6.364000E+00	  0.084529065	1.177930E+02	  0.084529065	2.289900E+01	  0.084529065	2.531900E+01
324	  0.084729463	-6.382000E+00	  0.084729463	1.169900E+02	  0.084729463	2.311900E+01	  0.084729463	2.566100E+01
325	  0.084929854	-6.402000E+00	  0.084929854	1.162050E+02	  0.084929854	2.334300E+01	  0.084929854	2.599400E+01
326	  0.085130259	-6.422000E+00	  0.085130259	1.154370E+02	  0.085130259	2.356700E+01	  0.085130259	2.631900E+01
327	  0.085330658	-6.439000E+00	  0.085330658	1.146490E+02	  0.085330658	2.379000E+01	  0.085330658	2.665800E+01
328	  0.085531056	-6.463000E+00	  0.085531056	1.138780E+02	  0.085531056	2.403800E+01	  0.085531056	2.697800E+01
329	  0.085731462	-6.480000E+00	  0.085731462	1.131070E+02	  0.085731462	2.426700E+01	  0.085731462	2.730900E+01
330	  0.085931860	-6.504000E+00	  0.085931860	1.123240E+02	  0.085931860	2.452200E+01	  0.085931860	2.763600E+01
331	  0.086132258	-6.524000E+00	  0.086132258	1.115870E+02	  0.086132258	2.476100E+01	  0.086132258	2.794700E+01
332	  0.086332664	-6.542000E+00	  0.086332664	1.108250E+02	  0.086332664	2.500100E+01	  0.086332664	2.827400E+01
333	  0.086533062	-6.562000E+00	  0.086533062	1.100450E+02	  0.086533062	2.525800E+01	  0.086533062	2.860500E+01
334	  0.086733460	-6.579000E+00	  0.086733460	1.092710E+02	  0.086733460	2.550800E+01	  0.086733460	2.893900E+01
335	  0.086933866	-6.605000E+00	  0.086933866	1.084610E+02	  0.086933866	2.579800E+01	  0.086933866	2.927500E+01
336	  0.087134264	-6.621000E+00	  0.087134264	1.076820E+02	  0.087134264	2.605500E+01	  0.087134264	2.961400E+01
337	  0.087334670	-6.641000E+00	  0.087334670	1.068920E+02	  0.087334670	2.633300E+01	  0.087334670	2.995000E+01
338	  0.087535068	-6.657000E+00	  0.087535068	1.061160E+02	  0.087535068	2.659900E+01	  0.087535068	3.028700E+01
339	  0.087735467	-6.679000E+00	  0.087735467	1.053280E+02	  0.087735467	2.689300E+01	  0.087735467	3.061800E+01
340	  0.087935872	-6.698000E+00	  0.087935872	1.045210E+02	  0.087935872	2.718600E+01	  0.087935872	3.096500E+01
341	  0.088136271	-6.719000E+00	  0.088136271	1.037450E+02	  0.088136271	2.748300E+01	  0.088136271	3.129100E+01
342	  0.088336669	-6.734000E+00	  0.088336669	1.029260E+02	  0.088336669	2.778000E+01	  0.088336669	3.165100E+01
343	  0.088537075	-6.750000E+00	  0.088537075	1.021560E+02	  0.088537075	2.806600E+01	  0.088537075	3.198700E+01
344	  0.088737473	-6.771000E+00	  0.088737473	1.013760E+02	  0.088737473	2.838000E+01	  0.088737473	3.231500E+01
345	  0.088937871	-6.786000E+00	  0.088937871	1.005620E+02	  0.088937871	2.869200E+01	  0.088937871	3.267200E+01
346	  0.089138277	-6.802000E+00	  0.089138277	9.978200E+01	  0.089138277	2.900200E+01	  0.089138277	3.301000E+01
347	  0.089338675	-6.826000E+00	  0.089338675	9.905200E+01	  0.089338675	2.932100E+01	  0.089338675	3.330900E+01
348	  0.089539073	-6.844000E+00	  0.089539073	9.827100E+01	  0.089539073	2.964900E+01	  0.089539073	3.364200E+01
349	  0.089739479	-6.871000E+00	  0.089739479	9.751600E+01	  0.089739479	2.999900E+01	  0.089739479	3.394300E+01
350	  0.089939877	-6.890000E+00	  0.089939877	9.675300E+01	  0.089939877	3.033300E+01	  0.089939877	3.426500E+01
351	  0.090140276	-6.915000E+00	  0.090140276	9.602900E+01	  0.090140276	3.068000E+01	  0.090140276	3.455000E+01
352	  0.090340681	-6.944000E+00	  0.090340681	9.526900E+01	  0.090340681	3.105500E+01	  0.090340681	3.484400E+01
353	  0.090541080	-6.971000E+00	  0.090541080	9.450500E+01	  0.090541080	3.143200E+01	  0.090541080	3.514300E+01
354	  0.090741485	-7.001000E+00	  0.090741485	9.379100E+01	  0.090741485	3.180500E+01	  0.090741485	3.540800E+01
355	  0.090941884	-7.029000E+00	  0.090941884	9.309400E+01	  0.090941884	3.216800E+01	  0.090941884	3.567000E+01
356	  0.091142282	-7.068000E+00	  0.091142282	9.235700E+01	  0.091142282	3.259100E+01	  0.091142282	3.591500E+01
357	  0.091342688	-7.102000E+00	  0.091342688	9.165000E+01	  0.091342688	3.298900E+01	  0.091342688	3.615900E+01
358	  0.091543086	-7.135000E+00	  0.091543086	9.093800E+01	  0.091543086	3.339200E+01	  0.091543086	3.640400E+01
359	  0.091743484	-7.175000E+00	  0.091743484	9.023600E+01	  0.091743484	3.381700E+01	  0.091743484	3.662300E+01
360	  0.091943890	-7.213000E+00	  0.091943890	8.954100E+01	  0.091943890	3.423800E+01	  0.091943890	3.684000E+01
361	  0.092144288	-7.250000E+00	  0.092144288	8.881200E+01	  0.092144288	3.467400E+01	  0.092144288	3.707500E+01
362	  0.092344686	-7.289000E+00	  0.092344686	8.814500E+01	  0.092344686	3.509600E+01	  0.092344686	3.726800E+01
363	  0.092545092	-7.324000E+00	  0.092545092	8.745800E+01	  0.092545092	3.552100E+01	  0.092545092	3.747700E+01
364	  0.092745490	-7.371000E+00	  0.092745490	8.678500E+01	  0.092745490	3.597700E+01	  0.092745490	3.764300E+01
365	  0.092945889	-7.411000E+00	  0.092945889	8.610100E+01	  0.092945889	3.642400E+01	  0.092945889	3.782800E+01
366	  0.093146294	-7.449000E+00	  0.093146294	8.539400E+01	  0.093146294	3.688100E+01	  0.093146294	3.802800E+01
367	  0.093346693	-7.491000E+00	  0.093346693	8.474200E+01	  0.093346693	3.732600E+01	  0.093346693	3.818500E+01
368	  0.093547091	-7.532000E+00	  0.093547091	8.407500E+01	  0.093547091	3.778200E+01	  0.093547091	3.834500E+01
369	  0.093747497	-7.574000E+00	  0.093747497	8.338600E+01	  0.093747497	3.825700E+01	  0.093747497	3.850700E+01
370	  0.093947895	-7.610000E+00	  0.093947895	8.270500E+01	  0.093947895	3.871300E+01	  0.093947895	3.868300E+01
371	  0.094148301	-7.655000E+00	  0.094148301	8.205300E+01	  0.094148301	3.918500E+01	  0.094148301	3.881000E+01
372	  0.094348699	-7.693000E+00	  0.094348699	8.135200E+01	  0.094348699	3.966900E+01	  0.094348699	3.897500E+01
373	  0.094549097	-7.737000E+00	  0.094549097	8.073600E+01	  0.094549097	4.012800E+01	  0.094549097	3.907800E+01
374	  0.094749503	-7.780000E+00	  0.094749503	8.005400E+01	  0.094749503	4.062000E+01	  0.094749503	3.921000E+01
375	  0.094949901	-7.815000E+00	  0.094949901	7.940600E+01	  0.094949901	4.108000E+01	  0.094949901	3.934900E+01
376	  0.095150299	-7.859000E+00	  0.095150299	7.876400E+01	  0.095150299	4.156200E+01	  0.095150299	3.944800E+01
377	  0.095350705	-7.890000E+00	  0.095350705	7.810200E+01	  0.095350705	4.202900E+01	  0.095350705	3.959400E+01
378	  0.095551103	-7.934000E+00	  0.095551103	7.745900E+01	  0.095551103	4.252000E+01	  0.095551103	3.968100E+01
379	  0.095751502	-7.968000E+00	  0.095751502	7.684100E+01	  0.095751502	4.297400E+01	  0.095751502	3.979300E+01
380	  0.095951907	-8.004000E+00	  0.095951907	7.621800E+01	  0.095951907	4.344000E+01	  0.095951907	3.989200E+01
381	  0.096152306	-8.048000E+00	  0.096152306	7.560300E+01	  0.096152306	4.392500E+01	  0.096152306	3.995000E+01
382	  0.096352704	-8.085000E+00	  0.096352704	7.501000E+01	  0.096352704	4.438200E+01	  0.096352704	4.002100E+01
383	  0.096553110	-8.122000E+00	  0.096553110	7.444100E+01	  0.096553110	4.482900E+01	  0.096553110	4.007700E+01
384	  0.096753508	-8.163000E+00	  0.096753508	7.385900E+01	  0.096753508	4.529300E+01	  0.096753508	4.011900E+01
385	  0.096953906	-8.206000E+00	  0.096953906	7.331100E+01	  0.096953906	4.574400E+01	  0.096953906	4.013100E+01
386	  0.097154312	-8.249000E+00	  0.097154312	7.276500E+01	  0.097154312	4.619300E+01	  0.097154312	4.014300E+01
387	  0.097354710	-8.286000E+00	  0.097354710	7.223600E+01	  0.097354710	4.662200E+01	  0.097354710	4.016100E+01
388	  0.097555116	-8.330000E+00	  0.097555116	7.171800E+01	  0.097555116	4.705900E+01	  0.097555116	4.014400E+01
389	  0.097755514	-8.375000E+00	  0.097755514	7.121500E+01	  0.097755514	4.749000E+01	  0.097755514	4.011200E+01
390	  0.097955912	-8.416000E+00	  0.097955912	7.074300E+01	  0.097955912	4.789000E+01	  0.097955912	4.008400E+01
391	  0.098156318	-8.458000E+00	  0.098156318	7.024400E+01	  0.098156318	4.831300E+01	  0.098156318	4.005300E+01
392	  0.098356716	-8.506000E+00	  0.098356716	6.978700E+01	  0.098356716	4.871900E+01	  0.098356716	3.997900E+01
393	  0.098557115	-8.549000E+00	  0.098557115	6.930900E+01	  0.098557115	4.913000E+01	  0.098557115	3.992500E+01
394	  0.098757520	-8.601000E+00	  0.098757520	6.884000E+01	  0.098757520	4.955200E+01	  0.098757520	3.982600E+01
395	  0.098957919	-8.643000E+00	  0.098957919	6.838400E+01	  0.098957919	4.994400E+01	  0.098957919	3.976400E+01
396	  0.099158317	-8.684000E+00	  0.099158317	6.793500E+01	  0.099158317	5.032900E+01	  0.099158317	3.970000E+01
397	  0.099358723	-8.730000E+00	  0.099358723	6.749900E+01	  0.099358723	5.071500E+01	  0.099358723	3.960200E+01
398	  0.099559121	-8.780000E+00	  0.099559121	6.706100E+01	  0.099559121	5.110700E+01	  0.099559121	3.948300E+01
399	  0.099759519	-8.825000E+00	  0.099759519	6.662000E+01	  0.099759519	5.149300E+01	  0.099759519	3.938000E+01
400	  0.099959925	-8.860000E+00	  0.099959925	6.615800E+01	  0.099959925	5.187500E+01	  0.099959925	3.933200E+01
401	  0.100160323	-8.906000E+00	  0.100160323	6.580000E+01	  0.100160323	5.220300E+01	  0.100160323	3.919600E+01
402	  0.100360721	-8.953000E+00	  0.100360721	6.537400E+01	  0.100360721	5.257700E+01	  0.100360721	3.907000E+01
403	  0.100561127	-9.000000E+00	  0.100561127	6.495000E+01	  0.100561127	5.294900E+01	  0.100561127	3.893700E+01
404	  0.100761525	-9.041000E+00	  0.100761525	6.451600E+01	  0.100761525	5.331700E+01	  0.100761525	3.883400E+01
405	  0.100961931	-9.088000E+00	  0.100961931	6.410500E+01	  0.100961931	5.367700E+01	  0.100961931	3.869100E+01
406	  0.101162329	-9.125000E+00	  0.101162329	6.369500E+01	  0.101162329	5.402200E+01	  0.101162329	3.859100E+01
407	  0.101362728	-9.162000E+00	  0.101362728	6.325600E+01	  0.101362728	5.438600E+01	  0.101362728	3.849400E+01
408	  0.101563133	-9.196000E+00	  0.101563133	6.290000E+01	  0.101563133	5.468600E+01	  0.101563133	3.839300E+01
409	  0.101763532	-9.236000E+00	  0.101763532	6.248700E+01	  0.101763532	5.503400E+01	  0.101763532	3.826800E+01
410	  0.101963930	-9.270000E+00	  0.101963930	6.207000E+01	  0.101963930	5.537600E+01	  0.101963930	3.816800E+01
411	  0.102164328	-9.307000E+00	  0.102164328	6.167500E+01	  0.102164328	5.570500E+01	  0.102164328	3.804900E+01
412	  0.102364726	-9.340000E+00	  0.102364726	6.128900E+01	  0.102364726	5.602200E+01	  0.102364726	3.794100E+01
413	  0.102565125	-9.374000E+00	  0.102565125	6.095400E+01	  0.102565125	5.630200E+01	  0.102565125	3.782000E+01
414	  0.102765530	-9.397000E+00	  0.102765530	6.052500E+01	  0.102765530	5.664000E+01	  0.102765530	3.776700E+01
415	  0.102965929	-9.426000E+00	  0.102965929	6.018100E+01	  0.102965929	5.692100E+01	  0.102965929	3.766400E+01
416	  0.103166327	-9.455000E+00	  0.103166327	5.986900E+01	  0.103166327	5.717700E+01	  0.103166327	3.755600E+01
417	  0.103366733	-9.475000E+00	  0.103366733	5.950200E+01	  0.103366733	5.746700E+01	  0.103366733	3.749700E+01
418	  0.103567131	-9.502000E+00	  0.103567131	5.909800E+01	  0.103567131	5.778900E+01	  0.103567131	3.740400E+01
419	  0.103767529	-9.525000E+00	  0.103767529	5.875400E+01	  0.103767529	5.806300E+01	  0.103767529	3.732400E+01
420	  0.103967935	-9.543000E+00	  0.103967935	5.843700E+01	  0.103967935	5.831400E+01	  0.103967935	3.726200E+01
421	  0.104168333	-9.561000E+00	  0.104168333	5.812600E+01	  0.104168333	5.856000E+01	  0.104168333	3.719400E+01
422	  0.104368731	-9.584000E+00	  0.104368731	5.778100E+01	  0.104368731	5.883400E+01	  0.104368731	3.710800E+01
423	  0.104569137	-9.591000E+00	  0.104569137	5.746100E+01	  0.104569137	5.908200E+01	  0.104569137	3.709100E+01
424	  0.104769535	-9.601000E+00	  0.104769535	5.721000E+01	  0.104769535	5.927900E+01	  0.104769535	3.705700E+01
425	  0.104969934	-9.621000E+00	  0.104969934	5.687500E+01	  0.104969934	5.954300E+01	  0.104969934	3.698000E+01
426	  0.105170339	-9.628000E+00	  0.105170339	5.657400E+01	  0.105170339	5.977800E+01	  0.105170339	3.695900E+01
427	  0.105370738	-9.643000E+00	  0.105370738	5.628600E+01	  0.105370738	6.000400E+01	  0.105370738	3.689400E+01
428	  0.105571143	-9.657000E+00	  0.105571143	5.594400E+01	  0.105571143	6.027300E+01	  0.105571143	3.684000E+01
429	  0.105771542	-9.662000E+00	  0.105771542	5.564700E+01	  0.105771542	6.050500E+01	  0.105771542	3.682300E+01
430	  0.105971940	-9.674000E+00	  0.105971940	5.537500E+01	  0.105971940	6.071900E+01	  0.105971940	3.677200E+01
431	  0.106172346	-9.678000E+00	  0.106172346	5.506100E+01	  0.106172346	6.096500E+01	  0.106172346	3.675900E+01
432	  0.106372744	-9.687000E+00	  0.106372744	5.476700E+01	  0.106372744	6.119600E+01	  0.106372744	3.671600E+01
433	  0.106573142	-9.684000E+00	  0.106573142	5.448500E+01	  0.106573142	6.141800E+01	  0.106573142	3.673600E+01
434	  0.106773548	-9.679000E+00	  0.106773548	5.412400E+01	  0.106773548	6.170200E+01	  0.106773548	3.676700E+01
435	  0.106973946	-9.693000E+00	  0.106973946	5.382500E+01	  0.106973946	6.194000E+01	  0.106973946	3.669700E+01
436	  0.107174344	-9.685000E+00	  0.107174344	5.357800E+01	  0.107174344	6.213600E+01	  0.107174344	3.673700E+01
437	  0.107374750	-9.681000E+00	  0.107374750	5.318900E+01	  0.107374750	6.244700E+01	  0.107374750	3.675800E+01
438	  0.107575148	-9.676000E+00	  0.107575148	5.288600E+01	  0.107575148	6.269100E+01	  0.107575148	3.678200E+01
439	  0.107775547	-9.667000E+00	  0.107775547	5.249000E+01	  0.107775547	6.301200E+01	  0.107775547	3.681900E+01
440	  0.107975952	-9.670000E+00	  0.107975952	5.209800E+01	  0.107975952	6.332900E+01	  0.107975952	3.679600E+01
441	  0.108176351	-9.661000E+00	  0.108176351	5.178900E+01	  0.108176351	6.358300E+01	  0.108176351	3.683400E+01
442	  0.108376749	-9.656000E+00	  0.108376749	5.141700E+01	  0.108376749	6.388900E+01	  0.108376749	3.685000E+01
443	  0.108577155	-9.644000E+00	  0.108577155	5.100600E+01	  0.108577155	6.423100E+01	  0.108577155	3.689600E+01
444	  0.108777553	-9.636000E+00	  0.108777553	5.054800E+01	  0.108777553	6.461500E+01	  0.108777553	3.691800E+01
445	  0.108977959	-9.626000E+00	  0.108977959	5.016100E+01	  0.108977959	6.494100E+01	  0.108977959	3.694900E+01
446	  0.109178357	-9.615000E+00	  0.109178357	4.980700E+01	  0.109178357	6.524300E+01	  0.109178357	3.698600E+01
447	  0.109378755	-9.605000E+00	  0.109378755	4.933700E+01	  0.109378755	6.564500E+01	  0.109378755	3.701000E+01
448	  0.109579161	-9.581000E+00	  0.109579161	4.885100E+01	  0.109579161	6.607300E+01	  0.109579161	3.710600E+01
449	  0.109779559	-9.570000E+00	  0.109779559	4.844300E+01	  0.109779559	6.642900E+01	  0.109779559	3.713100E+01
450	  0.109979957	-9.554000E+00	  0.109979957	4.796300E+01	  0.109979957	6.685500E+01	  0.109979957	3.717400E+01
451	  0.110180363	-9.539000E+00	  0.110180363	4.749300E+01	  0.110180363	6.727400E+01	  0.110180363	3.721000E+01
452	  0.110380761	-9.528000E+00	  0.110380761	4.695800E+01	  0.110380761	6.775200E+01	  0.110380761	3.721300E+01
453	  0.110581160	-9.505000E+00	  0.110581160	4.647900E+01	  0.110581160	6.819500E+01	  0.110581160	3.728600E+01
454	  0.110781565	-9.492000E+00	  0.110781565	4.594200E+01	  0.110781565	6.868500E+01	  0.110781565	3.728400E+01
455	  0.110981964	-9.472000E+00	  0.110981964	4.541600E+01	  0.110981964	6.917700E+01	  0.110981964	3.732800E+01
456	  0.111182362	-9.454000E+00	  0.111182362	4.493300E+01	  0.111182362	6.963300E+01	  0.111182362	3.735500E+01
457	  0.111382768	-9.432000E+00	  0.111382768	4.439700E+01	  0.111382768	7.014700E+01	  0.111382768	3.739700E+01
458	  0.111583166	-9.416000E+00	  0.111583166	4.377200E+01	  0.111583166	7.074100E+01	  0.111583166	3.738000E+01
459	  0.111783572	-9.397000E+00	  0.111783572	4.321700E+01	  0.111783572	7.128100E+01	  0.111783572	3.738300E+01
460	  0.111983970	-9.380000E+00	  0.111983970	4.263300E+01	  0.111983970	7.184900E+01	  0.111983970	3.735900E+01
461	  0.112184368	-9.363000E+00	  0.112184368	4.201400E+01	  0.112184368	7.245800E+01	  0.112184368	3.732700E+01
462	  0.112384774	-9.341000E+00	  0.112384774	4.136400E+01	  0.112384774	7.310800E+01	  0.112384774	3.730100E+01
463	  0.112585172	-9.327000E+00	  0.112585172	4.077600E+01	  0.112585172	7.369600E+01	  0.112585172	3.724100E+01
464	  0.112785570	-9.305000E+00	  0.112785570	4.009000E+01	  0.112785570	7.439600E+01	  0.112785570	3.718900E+01
465	  0.112985976	-9.284000E+00	  0.112985976	3.944000E+01	  0.112985976	7.506600E+01	  0.112985976	3.712500E+01
466	  0.113186374	-9.264000E+00	  0.113186374	3.875900E+01	  0.113186374	7.577300E+01	  0.113186374	3.703900E+01
467	  0.113386773	-9.251000E+00	  0.113386773	3.811500E+01	  0.113386773	7.643300E+01	  0.113386773	3.690600E+01
468	  0.113587178	-9.234000E+00	  0.113587178	3.742100E+01	  0.113587178	7.716100E+01	  0.113587178	3.677500E+01
469	  0.113787577	-9.214000E+00	  0.113787577	3.667100E+01	  0.113787577	7.795500E+01	  0.113787577	3.662100E+01
470	  0.113987975	-9.196000E+00	  0.113987975	3.592300E+01	  0.113987975	7.874900E+01	  0.113987975	3.643600E+01
471	  0.114188381	-9.178000E+00	  0.114188381	3.514400E+01	  0.114188381	7.958200E+01	  0.114188381	3.622100E+01
472	  0.114388779	-9.170000E+00	  0.114388779	3.440300E+01	  0.114388779	8.035400E+01	  0.114388779	3.594300E+01
473	  0.114589177	-9.158000E+00	  0.114589177	3.356600E+01	  0.114589177	8.123700E+01	  0.114589177	3.562300E+01
474	  0.114789583	-9.136000E+00	  0.114789583	3.279300E+01	  0.114789583	8.209200E+01	  0.114789583	3.537400E+01
475	  0.114989981	-9.131000E+00	  0.114989981	3.197800E+01	  0.114989981	8.293600E+01	  0.114989981	3.497400E+01
476	  0.115190387	-9.125000E+00	  0.115190387	3.112100E+01	  0.115190387	8.382400E+01	  0.115190387	3.452600E+01
477	  0.115390785	-9.108000E+00	  0.115390785	3.025000E+01	  0.115390785	8.477300E+01	  0.115390785	3.412000E+01
478	  0.115591183	-9.103000E+00	  0.115591183	2.938200E+01	  0.115591183	8.566700E+01	  0.115591183	3.360400E+01
479	  0.115791589	-9.087000E+00	  0.115791589	2.850400E+01	  0.115791589	8.661800E+01	  0.115791589	3.312800E+01
480	  0.115991987	-9.088000E+00	  0.115991987	2.762100E+01	  0.115991987	8.749100E+01	  0.115991987	3.250000E+01
481	  0.116192386	-9.087000E+00	  0.116192386	2.672400E+01	  0.116192386	8.838500E+01	  0.116192386	3.185200E+01
482	  0.116392791	-9.084000E+00	  0.116392791	2.581600E+01	  0.116392791	8.928800E+01	  0.116392791	3.117700E+01
483	  0.116593190	-9.090000E+00	  0.116593190	2.485700E+01	  0.116593190	9.018100E+01	  0.116593190	3.036700E+01
484	  0.116793588	-9.092000E+00	  0.116793588	2.388100E+01	  0.116793588	9.109300E+01	  0.116793588	2.953200E+01
485	  0.116993994	-9.094000E+00	  0.116993994	2.288800E+01	  0.116993994	9.200500E+01	  0.116993994	2.864700E+01
486	  0.117194392	-9.109000E+00	  0.117194392	2.189200E+01	  0.117194392	9.281800E+01	  0.117194392	2.764500E+01
487	  0.117394790	-9.106000E+00	  0.117394790	2.086100E+01	  0.117394790	9.374800E+01	  0.117394790	2.667800E+01
488	  0.117595196	-9.127000E+00	  0.117595196	1.984600E+01	  0.117595196	9.448300E+01	  0.117595196	2.555400E+01
489	  0.117795594	-9.137000E+00	  0.117795594	1.879300E+01	  0.117795594	9.528500E+01	  0.117795594	2.441800E+01
490	  0.117995992	-9.159000E+00	  0.117995992	1.773400E+01	  0.117995992	9.597700E+01	  0.117995992	2.318300E+01
491	  0.118196398	-9.178000E+00	  0.118196398	1.666700E+01	  0.118196398	9.664300E+01	  0.118196398	2.191600E+01
492	  0.118396796	-9.203000E+00	  0.118396796	1.553900E+01	  0.118396796	9.727100E+01	  0.118396796	2.053000E+01
493	  0.118597202	-9.223000E+00	  0.118597202	1.439800E+01	  0.118597202	9.788800E+01	  0.118597202	1.911900E+01
494	  0.118797600	-9.253000E+00	  0.118797600	1.324600E+01	  0.118797600	9.837800E+01	  0.118797600	1.762900E+01
