! Anritsu VNA Master:             	Model: MS2036C/10/77
! SN:             	1601066
! /bd0/18may8/255.ew.m9.txt
! Existing Calibration Information:
! TYPE:             	Current Settings	Active Cal Settings
! TIME:             	05/08/2018 10:31:02 AM	05/08/2018 10:22:10 AM
! INTERNAL TEMP:    	48.0 C	47.5 C
! # POINTS:         	500	500
! START FREQ:       	20.000 MHz	20.000 MHz
! STOP FREQ:        	120.000 MHz	120.000 MHz
! SOURCE POWER:     	High	High
! IFBW:             	50 Hz	50 Hz
! AVG FACTOR:       	  1 	  1 
! REF PLANE 1:      	0 mm	0 mm
! REF PLANE 2:      	0 mm	0 mm
! CAL TYPE:         	Full S11	Full S11
! CAL METHOD:       	SOLT	SOLT
! CAL LINE TYPE:    	Coax	Coax
! DUT PORT 1:       	K-Conn(F)	K-Conn(F)
! DUT PORT 2:       	K-Conn(F)	K-Conn(F)
! CAL STATUS:       	OK: Accuracy High	--
! PROP-V:       	0.700
! CABLE LOSS:       	0.000 dB/m
! REF IMPEDANCE:       	50.0
! Trace Specific Parameters:	TR1	TR2	TR3	TR4
! TRACE.#.Y (GRAPH TYPE)	LOG MAG	PHASE	REAL IMPEDANCE	IMAGINARY IMPEDANCE
! TRACE.#.X 	FREQ.GHZ	FREQ.GHZ	FREQ.GHZ	FREQ.GHZ
! S-PARAMETER	S11	S11	S11	S11
! SMOOTH/APERTURE %	0	0	0	0
! WINDOW	NSL	NSL	NSL	NSL
! GATING	OFF	OFF	OFF	OFF
! FGTD	OFF	OFF	OFF	OFF
Marker Information per Trace:	TR1	TR2	TR3	TR4
!MK1	--	"MK1 TR2:  20.000 MHz,PH:-124.32°"	--	--
!MK2	--	--	"MK2 TR3:  70.100 200 MHz,Z:(16.783 ohm, -3.279 ohm)"	--
!MK3	--	--	--	--
!MK4	--	--	--	--
!MK5	--	--	--	--
!MK6	--	--	--	--
!MK7	--	--	--	--
!MK8	--	--	--	--
PNT	TR1.FREQ.GHZ	TR1.LOG MAG.dB	TR2.FREQ.GHZ	TR2.PHASE.deg	TR3.FREQ.GHZ	TR3.REAL IMPEDANCE.ohm	TR4.FREQ.GHZ	TR4.IMAGINARY IMPEDANCE.ohm
1	  0.020000000	-8.990000E-01	  0.020000000	-1.243170E+02	  0.020000000	3.305000E+00	  0.020000000	-2.631700E+01
2	  0.020200402	-9.060000E-01	  0.020200402	-1.257410E+02	  0.020200402	3.287000E+00	  0.020200402	-2.553000E+01
3	  0.020400802	-9.120000E-01	  0.020400802	-1.271600E+02	  0.020400802	3.269000E+00	  0.020400802	-2.475600E+01
4	  0.020601204	-9.200000E-01	  0.020601204	-1.285960E+02	  0.020601204	3.258000E+00	  0.020601204	-2.398200E+01
5	  0.020801604	-9.310000E-01	  0.020801604	-1.300510E+02	  0.020801604	3.257000E+00	  0.020801604	-2.320600E+01
6	  0.021002004	-9.450000E-01	  0.021002004	-1.315540E+02	  0.021002004	3.266000E+00	  0.021002004	-2.241400E+01
7	  0.021202406	-9.570000E-01	  0.021202406	-1.330350E+02	  0.021202406	3.272000E+00	  0.021202406	-2.164300E+01
8	  0.021402806	-9.670000E-01	  0.021402806	-1.345410E+02	  0.021402806	3.268000E+00	  0.021402806	-2.086900E+01
9	  0.021603208	-9.780000E-01	  0.021603208	-1.360330E+02	  0.021603208	3.271000E+00	  0.021603208	-2.010900E+01
10	  0.021803608	-9.880000E-01	  0.021803608	-1.375260E+02	  0.021803608	3.269000E+00	  0.021803608	-1.935800E+01
11	  0.022004008	-1.000000E+00	  0.022004008	-1.390160E+02	  0.022004008	3.276000E+00	  0.022004008	-1.861500E+01
12	  0.022204408	-1.012000E+00	  0.022204408	-1.405420E+02	  0.022204408	3.284000E+00	  0.022204408	-1.786200E+01
13	  0.022404809	-1.024000E+00	  0.022404809	-1.420690E+02	  0.022404809	3.291000E+00	  0.022404809	-1.711500E+01
14	  0.022605211	-1.034000E+00	  0.022605211	-1.436010E+02	  0.022605211	3.293000E+00	  0.022605211	-1.637300E+01
15	  0.022805611	-1.044000E+00	  0.022805611	-1.451710E+02	  0.022805611	3.297000E+00	  0.022805611	-1.562000E+01
16	  0.023006011	-1.053000E+00	  0.023006011	-1.467110E+02	  0.023006011	3.298000E+00	  0.023006011	-1.488700E+01
17	  0.023206413	-1.061000E+00	  0.023206413	-1.482460E+02	  0.023206413	3.297000E+00	  0.023206413	-1.416300E+01
18	  0.023406813	-1.068000E+00	  0.023406813	-1.497780E+02	  0.023406813	3.293000E+00	  0.023406813	-1.344600E+01
19	  0.023607215	-1.076000E+00	  0.023607215	-1.513180E+02	  0.023607215	3.294000E+00	  0.023607215	-1.273000E+01
20	  0.023807615	-1.088000E+00	  0.023807615	-1.528740E+02	  0.023807615	3.309000E+00	  0.023807615	-1.201200E+01
21	  0.024008015	-1.102000E+00	  0.024008015	-1.544400E+02	  0.024008015	3.331000E+00	  0.024008015	-1.129300E+01
22	  0.024208417	-1.113000E+00	  0.024208417	-1.560290E+02	  0.024208417	3.345000E+00	  0.024208417	-1.056800E+01
23	  0.024408817	-1.127000E+00	  0.024408817	-1.576240E+02	  0.024408817	3.366000E+00	  0.024408817	-9.846000E+00
24	  0.024609219	-1.139000E+00	  0.024609219	-1.592270E+02	  0.024609219	3.385000E+00	  0.024609219	-9.123000E+00
25	  0.024809619	-1.152000E+00	  0.024809619	-1.608270E+02	  0.024809619	3.406000E+00	  0.024809619	-8.406000E+00
26	  0.025010020	-1.166000E+00	  0.025010020	-1.624400E+02	  0.025010020	3.432000E+00	  0.025010020	-7.686000E+00
27	  0.025210422	-1.180000E+00	  0.025210422	-1.640510E+02	  0.025210422	3.459000E+00	  0.025210422	-6.971000E+00
28	  0.025410822	-1.199000E+00	  0.025410822	-1.656890E+02	  0.025410822	3.499000E+00	  0.025410822	-6.246000E+00
29	  0.025611224	-1.215000E+00	  0.025611224	-1.673360E+02	  0.025611224	3.535000E+00	  0.025611224	-5.520000E+00
30	  0.025811624	-1.232000E+00	  0.025811624	-1.690090E+02	  0.025811624	3.573000E+00	  0.025811624	-4.785000E+00
31	  0.026012026	-1.246000E+00	  0.026012026	-1.706960E+02	  0.026012026	3.603000E+00	  0.026012026	-4.047000E+00
32	  0.026212426	-1.260000E+00	  0.026212426	-1.723820E+02	  0.026212426	3.636000E+00	  0.026212426	-3.311000E+00
33	  0.026412826	-1.275000E+00	  0.026412826	-1.740750E+02	  0.026412826	3.674000E+00	  0.026412826	-2.573000E+00
34	  0.026613226	-1.294000E+00	  0.026613226	-1.757840E+02	  0.026613226	3.722000E+00	  0.026613226	-1.830000E+00
35	  0.026813626	-1.314000E+00	  0.026813626	-1.774990E+02	  0.026813626	3.776000E+00	  0.026813626	-1.084000E+00
36	  0.027014028	-1.335000E+00	  0.027014028	-1.792150E+02	  0.027014028	3.835000E+00	  0.027014028	-3.400000E-01
37	  0.027214428	-1.355000E+00	  0.027214428	1.790430E+02	  0.027214428	3.893000E+00	  0.027214428	4.140000E-01
38	  0.027414829	-1.376000E+00	  0.027414829	1.772960E+02	  0.027414829	3.954000E+00	  0.027414829	1.172000E+00
39	  0.027615231	-1.397000E+00	  0.027615231	1.755380E+02	  0.027615231	4.019000E+00	  0.027615231	1.934000E+00
40	  0.027815631	-1.423000E+00	  0.027815631	1.737660E+02	  0.027815631	4.100000E+00	  0.027815631	2.704000E+00
41	  0.028016033	-1.448000E+00	  0.028016033	1.719750E+02	  0.028016033	4.179000E+00	  0.028016033	3.482000E+00
42	  0.028216433	-1.476000E+00	  0.028216433	1.701780E+02	  0.028216433	4.270000E+00	  0.028216433	4.264000E+00
43	  0.028416833	-1.500000E+00	  0.028416833	1.683780E+02	  0.028416833	4.353000E+00	  0.028416833	5.050000E+00
44	  0.028617235	-1.527000E+00	  0.028617235	1.665790E+02	  0.028617235	4.444000E+00	  0.028617235	5.836000E+00
45	  0.028817635	-1.552000E+00	  0.028817635	1.647810E+02	  0.028817635	4.535000E+00	  0.028817635	6.625000E+00
46	  0.029018037	-1.577000E+00	  0.029018037	1.629880E+02	  0.029018037	4.629000E+00	  0.029018037	7.415000E+00
47	  0.029218437	-1.603000E+00	  0.029218437	1.611950E+02	  0.029218437	4.728000E+00	  0.029218437	8.207000E+00
48	  0.029418837	-1.632000E+00	  0.029418837	1.593980E+02	  0.029418837	4.839000E+00	  0.029418837	9.004000E+00
49	  0.029619239	-1.663000E+00	  0.029619239	1.575810E+02	  0.029619239	4.958000E+00	  0.029619239	9.814000E+00
50	  0.029819639	-1.696000E+00	  0.029819639	1.557480E+02	  0.029819639	5.089000E+00	  0.029819639	1.063500E+01
51	  0.030020041	-1.731000E+00	  0.030020041	1.538930E+02	  0.030020041	5.230000E+00	  0.030020041	1.147200E+01
52	  0.030220442	-1.763000E+00	  0.030220442	1.520060E+02	  0.030220442	5.370000E+00	  0.030220442	1.232700E+01
53	  0.030420844	-1.796000E+00	  0.030420844	1.501140E+02	  0.030420844	5.516000E+00	  0.030420844	1.319200E+01
54	  0.030621244	-1.832000E+00	  0.030621244	1.482460E+02	  0.030621244	5.673000E+00	  0.030621244	1.405100E+01
55	  0.030821644	-1.867000E+00	  0.030821644	1.463620E+02	  0.030821644	5.838000E+00	  0.030821644	1.492400E+01
56	  0.031022044	-1.904000E+00	  0.031022044	1.444730E+02	  0.031022044	6.012000E+00	  0.031022044	1.580700E+01
57	  0.031222444	-1.937000E+00	  0.031222444	1.425810E+02	  0.031222444	6.181000E+00	  0.031222444	1.670000E+01
58	  0.031422846	-1.979000E+00	  0.031422846	1.406330E+02	  0.031422846	6.388000E+00	  0.031422846	1.762700E+01
59	  0.031623244	-2.017000E+00	  0.031623244	1.386730E+02	  0.031623244	6.590000E+00	  0.031623244	1.856900E+01
60	  0.031823646	-2.055000E+00	  0.031823646	1.366960E+02	  0.031823646	6.801000E+00	  0.031823646	1.953000E+01
61	  0.032024048	-2.092000E+00	  0.032024048	1.347320E+02	  0.032024048	7.018000E+00	  0.032024048	2.049600E+01
62	  0.032224450	-2.128000E+00	  0.032224450	1.327500E+02	  0.032224450	7.242000E+00	  0.032224450	2.148300E+01
63	  0.032424849	-2.163000E+00	  0.032424849	1.307840E+02	  0.032424849	7.470000E+00	  0.032424849	2.247600E+01
64	  0.032625251	-2.200000E+00	  0.032625251	1.288290E+02	  0.032625251	7.714000E+00	  0.032625251	2.347400E+01
65	  0.032825653	-2.237000E+00	  0.032825653	1.268560E+02	  0.032825653	7.975000E+00	  0.032825653	2.449600E+01
66	  0.033026051	-2.278000E+00	  0.033026051	1.249000E+02	  0.033026051	8.255000E+00	  0.033026051	2.552100E+01
67	  0.033226453	-2.325000E+00	  0.033226453	1.229320E+02	  0.033226453	8.576000E+00	  0.033226453	2.656500E+01
68	  0.033426855	-2.373000E+00	  0.033426855	1.209680E+02	  0.033426855	8.914000E+00	  0.033426855	2.762100E+01
69	  0.033627257	-2.425000E+00	  0.033627257	1.189810E+02	  0.033627257	9.281000E+00	  0.033627257	2.870400E+01
70	  0.033827655	-2.476000E+00	  0.033827655	1.169440E+02	  0.033827655	9.671000E+00	  0.033827655	2.983300E+01
71	  0.034028057	-2.529000E+00	  0.034028057	1.148930E+02	  0.034028057	1.008800E+01	  0.034028057	3.098700E+01
72	  0.034228459	-2.581000E+00	  0.034228459	1.127880E+02	  0.034228459	1.053000E+01	  0.034228459	3.219400E+01
73	  0.034428857	-2.629000E+00	  0.034428857	1.106950E+02	  0.034428857	1.097900E+01	  0.034428857	3.342000E+01
74	  0.034629259	-2.676000E+00	  0.034629259	1.085710E+02	  0.034629259	1.145300E+01	  0.034629259	3.468800E+01
75	  0.034829661	-2.723000E+00	  0.034829661	1.064810E+02	  0.034829661	1.195100E+01	  0.034829661	3.596100E+01
76	  0.035030060	-2.767000E+00	  0.035030060	1.043660E+02	  0.035030060	1.246700E+01	  0.035030060	3.727800E+01
77	  0.035230462	-2.810000E+00	  0.035230462	1.022730E+02	  0.035230462	1.300900E+01	  0.035230462	3.861000E+01
78	  0.035430863	-2.851000E+00	  0.035430863	1.001930E+02	  0.035430863	1.357200E+01	  0.035430863	3.996400E+01
79	  0.035631265	-2.891000E+00	  0.035631265	9.813300E+01	  0.035631265	1.415800E+01	  0.035631265	4.133700E+01
80	  0.035831664	-2.934000E+00	  0.035831664	9.606800E+01	  0.035831664	1.479900E+01	  0.035831664	4.273800E+01
81	  0.036032066	-2.975000E+00	  0.036032066	9.402600E+01	  0.036032066	1.546100E+01	  0.036032066	4.415900E+01
82	  0.036232468	-3.020000E+00	  0.036232468	9.199000E+01	  0.036232468	1.618900E+01	  0.036232468	4.560000E+01
83	  0.036432866	-3.066000E+00	  0.036432866	8.995500E+01	  0.036432866	1.696700E+01	  0.036432866	4.707100E+01
84	  0.036633268	-3.110000E+00	  0.036633268	8.793600E+01	  0.036633268	1.777900E+01	  0.036633268	4.856800E+01
85	  0.036833670	-3.160000E+00	  0.036833670	8.591300E+01	  0.036833670	1.867600E+01	  0.036833670	5.009000E+01
86	  0.037034072	-3.207000E+00	  0.037034072	8.383400E+01	  0.037034072	1.963900E+01	  0.037034072	5.169800E+01
87	  0.037234470	-3.254000E+00	  0.037234470	8.174300E+01	  0.037234470	2.067600E+01	  0.037234470	5.335400E+01
88	  0.037434869	-3.298000E+00	  0.037434869	7.958400E+01	  0.037434869	2.179400E+01	  0.037434869	5.511900E+01
89	  0.037635271	-3.340000E+00	  0.037635271	7.734500E+01	  0.037635271	2.302400E+01	  0.037635271	5.700700E+01
90	  0.037835669	-3.390000E+00	  0.037835669	7.498700E+01	  0.037835669	2.446600E+01	  0.037835669	5.902800E+01
91	  0.038036071	-3.456000E+00	  0.038036071	7.260000E+01	  0.038036071	2.615000E+01	  0.038036071	6.107300E+01
92	  0.038236473	-3.537000E+00	  0.038236473	7.022800E+01	  0.038236473	2.806400E+01	  0.038236473	6.308700E+01
93	  0.038436871	-3.618000E+00	  0.038436871	6.793600E+01	  0.038436871	3.009000E+01	  0.038436871	6.504600E+01
94	  0.038637273	-3.695000E+00	  0.038637273	6.577000E+01	  0.038637273	3.216400E+01	  0.038637273	6.690600E+01
95	  0.038837675	-3.760000E+00	  0.038837675	6.367400E+01	  0.038837675	3.426100E+01	  0.038837675	6.876300E+01
96	  0.039038073	-3.817000E+00	  0.039038073	6.158800E+01	  0.039038073	3.646000E+01	  0.039038073	7.066300E+01
97	  0.039238475	-3.869000E+00	  0.039238475	5.954700E+01	  0.039238475	3.874800E+01	  0.039238475	7.255400E+01
98	  0.039438877	-3.925000E+00	  0.039438877	5.751800E+01	  0.039438877	4.123800E+01	  0.039438877	7.440500E+01
99	  0.039639279	-3.980000E+00	  0.039639279	5.549200E+01	  0.039639279	4.390700E+01	  0.039639279	7.625000E+01
100	  0.039839678	-4.038000E+00	  0.039839678	5.343400E+01	  0.039839678	4.684700E+01	  0.039839678	7.808200E+01
101	  0.040040080	-4.097000E+00	  0.040040080	5.136400E+01	  0.040040080	5.004800E+01	  0.040040080	7.986900E+01
102	  0.040240481	-4.156000E+00	  0.040240481	4.930200E+01	  0.040240481	5.348100E+01	  0.040240481	8.159000E+01
103	  0.040440880	-4.213000E+00	  0.040440880	4.717700E+01	  0.040440880	5.727600E+01	  0.040440880	8.330200E+01
104	  0.040641282	-4.270000E+00	  0.040641282	4.509300E+01	  0.040641282	6.130000E+01	  0.040641282	8.485000E+01
105	  0.040841684	-4.325000E+00	  0.040841684	4.296400E+01	  0.040841684	6.570800E+01	  0.040841684	8.630900E+01
106	  0.041042086	-4.380000E+00	  0.041042086	4.087200E+01	  0.041042086	7.036800E+01	  0.041042086	8.755400E+01
107	  0.041242484	-4.432000E+00	  0.041242484	3.876400E+01	  0.041242484	7.538700E+01	  0.041242484	8.860600E+01
108	  0.041442886	-4.485000E+00	  0.041442886	3.665600E+01	  0.041442886	8.076200E+01	  0.041442886	8.935000E+01
109	  0.041643288	-4.534000E+00	  0.041643288	3.452800E+01	  0.041643288	8.652900E+01	  0.041643288	8.981900E+01
110	  0.041843686	-4.581000E+00	  0.041843686	3.241300E+01	  0.041843686	9.261100E+01	  0.041843686	8.989400E+01
111	  0.042044088	-4.627000E+00	  0.042044088	3.033400E+01	  0.042044088	9.891800E+01	  0.042044088	8.948100E+01
112	  0.042244490	-4.670000E+00	  0.042244490	2.825400E+01	  0.042244490	1.055270E+02	  0.042244490	8.856500E+01
113	  0.042444889	-4.716000E+00	  0.042444889	2.619600E+01	  0.042444889	1.123090E+02	  0.042444889	8.697000E+01
114	  0.042645290	-4.761000E+00	  0.042645290	2.416700E+01	  0.042645290	1.191680E+02	  0.042645290	8.469200E+01
115	  0.042845692	-4.805000E+00	  0.042845692	2.211200E+01	  0.042845692	1.262090E+02	  0.042845692	8.164600E+01
116	  0.043046094	-4.850000E+00	  0.043046094	2.008500E+01	  0.043046094	1.331100E+02	  0.043046094	7.775200E+01
117	  0.043246493	-4.894000E+00	  0.043246493	1.804300E+01	  0.043246493	1.399220E+02	  0.043246493	7.298300E+01
118	  0.043446895	-4.938000E+00	  0.043446895	1.602300E+01	  0.043446895	1.463430E+02	  0.043446895	6.735800E+01
119	  0.043647297	-4.980000E+00	  0.043647297	1.399900E+01	  0.043647297	1.523530E+02	  0.043647297	6.088000E+01
120	  0.043847695	-5.024000E+00	  0.043847695	1.198300E+01	  0.043847695	1.576870E+02	  0.043847695	5.355800E+01
121	  0.044048097	-5.068000E+00	  0.044048097	9.986000E+00	  0.044048097	1.621850E+02	  0.044048097	4.557300E+01
122	  0.044248499	-5.110000E+00	  0.044248499	7.985000E+00	  0.044248499	1.658040E+02	  0.044248499	3.697500E+01
123	  0.044448901	-5.150000E+00	  0.044448901	5.990000E+00	  0.044448901	1.684630E+02	  0.044448901	2.797700E+01
124	  0.044649299	-5.194000E+00	  0.044649299	4.007000E+00	  0.044649299	1.699250E+02	  0.044649299	1.872300E+01
125	  0.044849701	-5.231000E+00	  0.044849701	2.037000E+00	  0.044849701	1.704290E+02	  0.044849701	9.474000E+00
126	  0.045050103	-5.266000E+00	  0.045050103	5.000000E-02	  0.045050103	1.699610E+02	  0.045050103	2.320000E-01
127	  0.045250501	-5.301000E+00	  0.045250501	-1.942000E+00	  0.045250501	1.684000E+02	  0.045250501	-8.797000E+00
128	  0.045450903	-5.333000E+00	  0.045450903	-3.872000E+00	  0.045450903	1.659930E+02	  0.045450903	-1.716000E+01
129	  0.045651305	-5.367000E+00	  0.045651305	-5.820000E+00	  0.045651305	1.626930E+02	  0.045651305	-2.507200E+01
130	  0.045851704	-5.401000E+00	  0.045851704	-7.750000E+00	  0.045851704	1.586970E+02	  0.045851704	-3.229200E+01
131	  0.046052106	-5.433000E+00	  0.046052106	-9.682000E+00	  0.046052106	1.541680E+02	  0.046052106	-3.886400E+01
132	  0.046252504	-5.464000E+00	  0.046252504	-1.159600E+01	  0.046252504	1.492510E+02	  0.046252504	-4.468000E+01
133	  0.046452906	-5.493000E+00	  0.046452906	-1.349900E+01	  0.046452906	1.440970E+02	  0.046452906	-4.980000E+01
134	  0.046653304	-5.520000E+00	  0.046653304	-1.541000E+01	  0.046653304	1.387130E+02	  0.046653304	-5.426300E+01
135	  0.046853706	-5.548000E+00	  0.046853706	-1.730100E+01	  0.046853706	1.332650E+02	  0.046853706	-5.801800E+01
136	  0.047054108	-5.575000E+00	  0.047054108	-1.920900E+01	  0.047054108	1.277410E+02	  0.047054108	-6.118900E+01
137	  0.047254506	-5.597000E+00	  0.047254506	-2.108600E+01	  0.047254506	1.223800E+02	  0.047254506	-6.381300E+01
138	  0.047454908	-5.620000E+00	  0.047454908	-2.295400E+01	  0.047454908	1.171130E+02	  0.047454908	-6.588900E+01
139	  0.047655310	-5.641000E+00	  0.047655310	-2.480800E+01	  0.047655310	1.120170E+02	  0.047655310	-6.752100E+01
140	  0.047855709	-5.664000E+00	  0.047855709	-2.661700E+01	  0.047855709	1.071760E+02	  0.047855709	-6.866600E+01
141	  0.048056111	-5.684000E+00	  0.048056111	-2.841600E+01	  0.048056111	1.025390E+02	  0.048056111	-6.949500E+01
142	  0.048256513	-5.705000E+00	  0.048256513	-3.023000E+01	  0.048256513	9.804400E+01	  0.048256513	-7.000200E+01
143	  0.048456915	-5.728000E+00	  0.048456915	-3.201200E+01	  0.048456915	9.381200E+01	  0.048456915	-7.020500E+01
144	  0.048657313	-5.747000E+00	  0.048657313	-3.381500E+01	  0.048657313	8.973500E+01	  0.048657313	-7.023400E+01
145	  0.048857715	-5.766000E+00	  0.048857715	-3.558800E+01	  0.048857715	8.591600E+01	  0.048857715	-7.004800E+01
146	  0.049058117	-5.784000E+00	  0.049058117	-3.737800E+01	  0.049058117	8.225100E+01	  0.049058117	-6.971000E+01
147	  0.049258515	-5.799000E+00	  0.049258515	-3.914300E+01	  0.049258515	7.881800E+01	  0.049258515	-6.925900E+01
148	  0.049458917	-5.815000E+00	  0.049458917	-4.087400E+01	  0.049458917	7.562500E+01	  0.049458917	-6.866600E+01
149	  0.049659319	-5.830000E+00	  0.049659319	-4.262200E+01	  0.049659319	7.256400E+01	  0.049659319	-6.798200E+01
150	  0.049859721	-5.847000E+00	  0.049859721	-4.434300E+01	  0.049859721	6.971500E+01	  0.049859721	-6.719300E+01
151	  0.050060119	-5.859000E+00	  0.050060119	-4.604300E+01	  0.050060119	6.703800E+01	  0.050060119	-6.638000E+01
152	  0.050260521	-5.871000E+00	  0.050260521	-4.779700E+01	  0.050260521	6.441900E+01	  0.050260521	-6.548700E+01
153	  0.050460923	-5.884000E+00	  0.050460923	-4.950100E+01	  0.050460923	6.201600E+01	  0.050460923	-6.455200E+01
154	  0.050661322	-5.893000E+00	  0.050661322	-5.121600E+01	  0.050661322	5.971200E+01	  0.050661322	-6.360200E+01
155	  0.050861724	-5.898000E+00	  0.050861724	-5.288500E+01	  0.050861724	5.757200E+01	  0.050861724	-6.267200E+01
156	  0.051062126	-5.903000E+00	  0.051062126	-5.454000E+01	  0.051062126	5.555700E+01	  0.051062126	-6.171600E+01
157	  0.051262524	-5.909000E+00	  0.051262524	-5.615700E+01	  0.051262524	5.369200E+01	  0.051262524	-6.074800E+01
158	  0.051462926	-5.915000E+00	  0.051462926	-5.776100E+01	  0.051462926	5.193100E+01	  0.051462926	-5.977300E+01
159	  0.051663328	-5.919000E+00	  0.051663328	-5.932400E+01	  0.051663328	5.029600E+01	  0.051663328	-5.881100E+01
160	  0.051863730	-5.930000E+00	  0.051863730	-6.091800E+01	  0.051863730	4.873100E+01	  0.051863730	-5.778300E+01
161	  0.052064128	-5.935000E+00	  0.052064128	-6.249100E+01	  0.052064128	4.724300E+01	  0.052064128	-5.679400E+01
162	  0.052264530	-5.946000E+00	  0.052264530	-6.403800E+01	  0.052264530	4.587200E+01	  0.052264530	-5.578300E+01
163	  0.052464932	-5.955000E+00	  0.052464932	-6.556900E+01	  0.052464932	4.457100E+01	  0.052464932	-5.479400E+01
164	  0.052665330	-5.964000E+00	  0.052665330	-6.715400E+01	  0.052665330	4.329200E+01	  0.052665330	-5.376800E+01
165	  0.052865732	-5.975000E+00	  0.052865732	-6.870100E+01	  0.052865732	4.210400E+01	  0.052865732	-5.276600E+01
166	  0.053066134	-5.981000E+00	  0.053066134	-7.023200E+01	  0.053066134	4.097000E+01	  0.053066134	-5.179600E+01
167	  0.053266536	-5.994000E+00	  0.053266536	-7.178400E+01	  0.053266536	3.989700E+01	  0.053266536	-5.078800E+01
168	  0.053466935	-5.998000E+00	  0.053466935	-7.331100E+01	  0.053466935	3.886100E+01	  0.053466935	-4.983900E+01
169	  0.053667337	-6.000000E+00	  0.053667337	-7.482100E+01	  0.053667337	3.786800E+01	  0.053667337	-4.891900E+01
170	  0.053867739	-6.005000E+00	  0.053867739	-7.633900E+01	  0.053867739	3.692600E+01	  0.053867739	-4.798500E+01
171	  0.054068137	-6.003000E+00	  0.054068137	-7.783700E+01	  0.054068137	3.601500E+01	  0.054068137	-4.709300E+01
172	  0.054268539	-6.009000E+00	  0.054268539	-7.931200E+01	  0.054268539	3.518400E+01	  0.054268539	-4.619300E+01
173	  0.054468941	-6.012000E+00	  0.054468941	-8.073800E+01	  0.054468941	3.440300E+01	  0.054468941	-4.534000E+01
174	  0.054669339	-6.016000E+00	  0.054669339	-8.216000E+01	  0.054669339	3.365800E+01	  0.054669339	-4.449300E+01
175	  0.054869737	-6.023000E+00	  0.054869737	-8.360800E+01	  0.054869737	3.294500E+01	  0.054869737	-4.362700E+01
176	  0.055070139	-6.029000E+00	  0.055070139	-8.496600E+01	  0.055070139	3.229900E+01	  0.055070139	-4.282400E+01
177	  0.055270538	-6.034000E+00	  0.055270538	-8.636700E+01	  0.055270538	3.165500E+01	  0.055270538	-4.200700E+01
178	  0.055470940	-6.044000E+00	  0.055470940	-8.776300E+01	  0.055470940	3.105600E+01	  0.055470940	-4.118600E+01
179	  0.055671342	-6.049000E+00	  0.055671342	-8.914800E+01	  0.055671342	3.046800E+01	  0.055671342	-4.039400E+01
180	  0.055871744	-6.056000E+00	  0.055871744	-9.054200E+01	  0.055871744	2.990500E+01	  0.055871744	-3.960000E+01
181	  0.056072142	-6.064000E+00	  0.056072142	-9.192800E+01	  0.056072142	2.937200E+01	  0.056072142	-3.881400E+01
182	  0.056272544	-6.069000E+00	  0.056272544	-9.328700E+01	  0.056272544	2.885800E+01	  0.056272544	-3.805900E+01
183	  0.056472946	-6.074000E+00	  0.056472946	-9.469000E+01	  0.056472946	2.835000E+01	  0.056472946	-3.728600E+01
184	  0.056673344	-6.073000E+00	  0.056673344	-9.605200E+01	  0.056673344	2.785400E+01	  0.056673344	-3.655800E+01
185	  0.056873746	-6.074000E+00	  0.056873746	-9.739600E+01	  0.056873746	2.738900E+01	  0.056873746	-3.584000E+01
186	  0.057074148	-6.072000E+00	  0.057074148	-9.876300E+01	  0.057074148	2.692000E+01	  0.057074148	-3.512600E+01
187	  0.057274550	-6.069000E+00	  0.057274550	-1.001120E+02	  0.057274550	2.647400E+01	  0.057274550	-3.442500E+01
188	  0.057474948	-6.062000E+00	  0.057474948	-1.014480E+02	  0.057474948	2.603300E+01	  0.057474948	-3.374600E+01
189	  0.057675350	-6.057000E+00	  0.057675350	-1.027630E+02	  0.057675350	2.562000E+01	  0.057675350	-3.308000E+01
190	  0.057875752	-6.050000E+00	  0.057875752	-1.040550E+02	  0.057875752	2.521900E+01	  0.057875752	-3.243300E+01
191	  0.058076151	-6.045000E+00	  0.058076151	-1.053430E+02	  0.058076151	2.484100E+01	  0.058076151	-3.179000E+01
192	  0.058276553	-6.038000E+00	  0.058276553	-1.066100E+02	  0.058276553	2.447400E+01	  0.058276553	-3.116500E+01
193	  0.058476955	-6.031000E+00	  0.058476955	-1.078730E+02	  0.058476955	2.412000E+01	  0.058476955	-3.054600E+01
194	  0.058677353	-6.022000E+00	  0.058677353	-1.091280E+02	  0.058677353	2.377400E+01	  0.058677353	-2.993900E+01
195	  0.058877755	-6.019000E+00	  0.058877755	-1.103720E+02	  0.058877755	2.346000E+01	  0.058877755	-2.933200E+01
196	  0.059078157	-6.015000E+00	  0.059078157	-1.116050E+02	  0.059078157	2.315500E+01	  0.059078157	-2.873500E+01
197	  0.059278559	-6.008000E+00	  0.059278559	-1.128760E+02	  0.059278559	2.284400E+01	  0.059278559	-2.812900E+01
198	  0.059478957	-6.001000E+00	  0.059478957	-1.141310E+02	  0.059478957	2.254400E+01	  0.059478957	-2.753500E+01
199	  0.059679359	-5.998000E+00	  0.059679359	-1.153730E+02	  0.059679359	2.227100E+01	  0.059679359	-2.694500E+01
200	  0.059879761	-5.994000E+00	  0.059879761	-1.166230E+02	  0.059879761	2.200100E+01	  0.059879761	-2.635700E+01
201	  0.060080159	-5.990000E+00	  0.060080159	-1.178400E+02	  0.060080159	2.174500E+01	  0.060080159	-2.578900E+01
202	  0.060280561	-5.983000E+00	  0.060280561	-1.190830E+02	  0.060280561	2.148400E+01	  0.060280561	-2.521500E+01
203	  0.060480963	-5.979000E+00	  0.060480963	-1.202940E+02	  0.060480963	2.124900E+01	  0.060480963	-2.465600E+01
204	  0.060681365	-5.974000E+00	  0.060681365	-1.214950E+02	  0.060681365	2.101700E+01	  0.060681365	-2.410700E+01
205	  0.060881764	-5.969000E+00	  0.060881764	-1.227060E+02	  0.060881764	2.079000E+01	  0.060881764	-2.355800E+01
206	  0.061082166	-5.962000E+00	  0.061082166	-1.239050E+02	  0.061082166	2.056900E+01	  0.061082166	-2.301700E+01
207	  0.061282568	-5.956000E+00	  0.061282568	-1.251040E+02	  0.061282568	2.035600E+01	  0.061282568	-2.248000E+01
208	  0.061482966	-5.952000E+00	  0.061482966	-1.262810E+02	  0.061482966	2.015800E+01	  0.061482966	-2.195400E+01
209	  0.061683368	-5.950000E+00	  0.061683368	-1.274500E+02	  0.061683368	1.997500E+01	  0.061683368	-2.143200E+01
210	  0.061883770	-5.947000E+00	  0.061883770	-1.285990E+02	  0.061883770	1.979800E+01	  0.061883770	-2.092300E+01
211	  0.062084168	-5.944000E+00	  0.062084168	-1.297530E+02	  0.062084168	1.962500E+01	  0.062084168	-2.041400E+01
212	  0.062284570	-5.943000E+00	  0.062284570	-1.308850E+02	  0.062284570	1.946500E+01	  0.062284570	-1.991700E+01
213	  0.062484972	-5.936000E+00	  0.062484972	-1.319890E+02	  0.062484972	1.929800E+01	  0.062484972	-1.943900E+01
214	  0.062685370	-5.939000E+00	  0.062685370	-1.331240E+02	  0.062685370	1.916200E+01	  0.062685370	-1.894100E+01
215	  0.062885776	-5.942000E+00	  0.062885776	-1.342750E+02	  0.062885776	1.902600E+01	  0.062885776	-1.843900E+01
216	  0.063086174	-5.942000E+00	  0.063086174	-1.354380E+02	  0.063086174	1.888600E+01	  0.063086174	-1.793800E+01
217	  0.063286573	-5.943000E+00	  0.063286573	-1.365830E+02	  0.063286573	1.875700E+01	  0.063286573	-1.744500E+01
218	  0.063486971	-5.949000E+00	  0.063486971	-1.377540E+02	  0.063486971	1.864100E+01	  0.063486971	-1.694200E+01
219	  0.063687377	-5.945000E+00	  0.063687377	-1.388720E+02	  0.063687377	1.851100E+01	  0.063687377	-1.646900E+01
220	  0.063887775	-5.944000E+00	  0.063887775	-1.399850E+02	  0.063887775	1.839100E+01	  0.063887775	-1.599900E+01
221	  0.064088173	-5.940000E+00	  0.064088173	-1.411350E+02	  0.064088173	1.826400E+01	  0.064088173	-1.551700E+01
222	  0.064288579	-5.939000E+00	  0.064288579	-1.422560E+02	  0.064288579	1.815200E+01	  0.064288579	-1.504800E+01
223	  0.064488977	-5.940000E+00	  0.064488977	-1.433750E+02	  0.064488977	1.805100E+01	  0.064488977	-1.458000E+01
224	  0.064689375	-5.941000E+00	  0.064689375	-1.444810E+02	  0.064689375	1.795400E+01	  0.064689375	-1.412000E+01
225	  0.064889781	-5.942000E+00	  0.064889781	-1.455620E+02	  0.064889781	1.786200E+01	  0.064889781	-1.367200E+01
226	  0.065090179	-5.938000E+00	  0.065090179	-1.466160E+02	  0.065090179	1.776100E+01	  0.065090179	-1.323900E+01
227	  0.065290578	-5.941000E+00	  0.065290578	-1.476880E+02	  0.065290578	1.768500E+01	  0.065290578	-1.279700E+01
228	  0.065490983	-5.944000E+00	  0.065490983	-1.487450E+02	  0.065490983	1.761200E+01	  0.065490983	-1.236200E+01
229	  0.065691382	-5.942000E+00	  0.065691382	-1.498200E+02	  0.065691382	1.752600E+01	  0.065691382	-1.192500E+01
230	  0.065891780	-5.946000E+00	  0.065891780	-1.508830E+02	  0.065891780	1.746000E+01	  0.065891780	-1.149000E+01
231	  0.066092186	-5.951000E+00	  0.066092186	-1.519290E+02	  0.066092186	1.740200E+01	  0.066092186	-1.106400E+01
232	  0.066292584	-5.952000E+00	  0.066292584	-1.529530E+02	  0.066292584	1.733700E+01	  0.066292584	-1.064900E+01
233	  0.066492982	-5.957000E+00	  0.066492982	-1.539910E+02	  0.066492982	1.728400E+01	  0.066492982	-1.022900E+01
234	  0.066693388	-5.960000E+00	  0.066693388	-1.550290E+02	  0.066693388	1.723100E+01	  0.066693388	-9.810000E+00
235	  0.066893786	-5.961000E+00	  0.066893786	-1.560300E+02	  0.066893786	1.717500E+01	  0.066893786	-9.409000E+00
236	  0.067094192	-5.966000E+00	  0.067094192	-1.570350E+02	  0.067094192	1.713200E+01	  0.067094192	-9.006000E+00
237	  0.067294590	-5.969000E+00	  0.067294590	-1.580550E+02	  0.067294590	1.708600E+01	  0.067294590	-8.598000E+00
238	  0.067494988	-5.976000E+00	  0.067494988	-1.590530E+02	  0.067494988	1.705500E+01	  0.067494988	-8.198000E+00
239	  0.067695394	-5.978000E+00	  0.067695394	-1.600450E+02	  0.067695394	1.701400E+01	  0.067695394	-7.804000E+00
240	  0.067895792	-5.983000E+00	  0.067895792	-1.610510E+02	  0.067895792	1.698100E+01	  0.067895792	-7.404000E+00
241	  0.068096191	-5.987000E+00	  0.068096191	-1.620300E+02	  0.068096191	1.694900E+01	  0.068096191	-7.016000E+00
242	  0.068296596	-5.995000E+00	  0.068296596	-1.630000E+02	  0.068296596	1.693100E+01	  0.068296596	-6.632000E+00
243	  0.068496995	-5.996000E+00	  0.068496995	-1.639920E+02	  0.068496995	1.689700E+01	  0.068496995	-6.241000E+00
244	  0.068697393	-6.004000E+00	  0.068697393	-1.649340E+02	  0.068697393	1.688200E+01	  0.068697393	-5.869000E+00
245	  0.068897791	-6.010000E+00	  0.068897791	-1.658740E+02	  0.068897791	1.686800E+01	  0.068897791	-5.499000E+00
246	  0.069098189	-6.010000E+00	  0.069098189	-1.668300E+02	  0.069098189	1.683800E+01	  0.069098189	-5.124000E+00
247	  0.069298595	-6.011000E+00	  0.069298595	-1.677900E+02	  0.069298595	1.681200E+01	  0.069298595	-4.749000E+00
248	  0.069498993	-6.020000E+00	  0.069498993	-1.687160E+02	  0.069498993	1.681100E+01	  0.069498993	-4.385000E+00
249	  0.069699399	-6.027000E+00	  0.069699399	-1.696750E+02	  0.069699399	1.680400E+01	  0.069699399	-4.010000E+00
250	  0.069899797	-6.029000E+00	  0.069899797	-1.706060E+02	  0.069899797	1.679000E+01	  0.069899797	-3.647000E+00
251	  0.070100196	-6.034000E+00	  0.070100196	-1.715500E+02	  0.070100196	1.678300E+01	  0.070100196	-3.279000E+00
252	  0.070300601	-6.037000E+00	  0.070300601	-1.724820E+02	  0.070300601	1.677400E+01	  0.070300601	-2.916000E+00
253	  0.070501000	-6.039000E+00	  0.070501000	-1.734270E+02	  0.070501000	1.676200E+01	  0.070501000	-2.549000E+00
254	  0.070701398	-6.037000E+00	  0.070701398	-1.743450E+02	  0.070701398	1.674700E+01	  0.070701398	-2.192000E+00
255	  0.070901804	-6.037000E+00	  0.070901804	-1.752750E+02	  0.070901804	1.673400E+01	  0.070901804	-1.832000E+00
256	  0.071102202	-6.039000E+00	  0.071102202	-1.762120E+02	  0.071102202	1.673100E+01	  0.071102202	-1.468000E+00
257	  0.071302600	-6.044000E+00	  0.071302600	-1.771360E+02	  0.071302600	1.673600E+01	  0.071302600	-1.109000E+00
258	  0.071503006	-6.043000E+00	  0.071503006	-1.780510E+02	  0.071503006	1.672900E+01	  0.071503006	-7.550000E-01
259	  0.071703404	-6.044000E+00	  0.071703404	-1.789420E+02	  0.071703404	1.672800E+01	  0.071703404	-4.090000E-01
260	  0.071903802	-6.044000E+00	  0.071903802	-1.798490E+02	  0.071903802	1.672700E+01	  0.071903802	-5.800000E-02
261	  0.072104208	-6.045000E+00	  0.072104208	1.792500E+02	  0.072104208	1.673100E+01	  0.072104208	2.900000E-01
262	  0.072304606	-6.046000E+00	  0.072304606	1.783330E+02	  0.072304606	1.673600E+01	  0.072304606	6.450000E-01
263	  0.072505005	-6.047000E+00	  0.072505005	1.774500E+02	  0.072505005	1.674400E+01	  0.072505005	9.880000E-01
264	  0.072705410	-6.051000E+00	  0.072705410	1.765500E+02	  0.072705410	1.675800E+01	  0.072705410	1.336000E+00
265	  0.072905809	-6.050000E+00	  0.072905809	1.756350E+02	  0.072905809	1.676300E+01	  0.072905809	1.691000E+00
266	  0.073106214	-6.049000E+00	  0.073106214	1.747660E+02	  0.073106214	1.677200E+01	  0.073106214	2.028000E+00
267	  0.073306613	-6.052000E+00	  0.073306613	1.738870E+02	  0.073306613	1.679000E+01	  0.073306613	2.369000E+00
268	  0.073507011	-6.057000E+00	  0.073507011	1.730100E+02	  0.073507011	1.681600E+01	  0.073507011	2.709000E+00
269	  0.073707417	-6.058000E+00	  0.073707417	1.721350E+02	  0.073707417	1.683400E+01	  0.073707417	3.048000E+00
270	  0.073907815	-6.062000E+00	  0.073907815	1.712460E+02	  0.073907815	1.686100E+01	  0.073907815	3.393000E+00
271	  0.074108213	-6.063000E+00	  0.074108213	1.703790E+02	  0.074108213	1.688200E+01	  0.074108213	3.730000E+00
272	  0.074308619	-6.063000E+00	  0.074308619	1.694990E+02	  0.074308619	1.690100E+01	  0.074308619	4.073000E+00
273	  0.074509017	-6.073000E+00	  0.074509017	1.685970E+02	  0.074509017	1.695000E+01	  0.074509017	4.423000E+00
274	  0.074709415	-6.075000E+00	  0.074709415	1.677450E+02	  0.074709415	1.697800E+01	  0.074709415	4.754000E+00
275	  0.074909821	-6.080000E+00	  0.074909821	1.668990E+02	  0.074909821	1.701700E+01	  0.074909821	5.083000E+00
276	  0.075110219	-6.091000E+00	  0.075110219	1.660230E+02	  0.075110219	1.707200E+01	  0.075110219	5.423000E+00
277	  0.075310618	-6.096000E+00	  0.075310618	1.651730E+02	  0.075310618	1.711200E+01	  0.075310618	5.755000E+00
278	  0.075511023	-6.104000E+00	  0.075511023	1.643180E+02	  0.075511023	1.716300E+01	  0.075511023	6.087000E+00
279	  0.075711422	-6.109000E+00	  0.075711422	1.634980E+02	  0.075711422	1.720600E+01	  0.075711422	6.407000E+00
280	  0.075911827	-6.117000E+00	  0.075911827	1.626310E+02	  0.075911827	1.726300E+01	  0.075911827	6.744000E+00
281	  0.076112226	-6.125000E+00	  0.076112226	1.617640E+02	  0.076112226	1.731800E+01	  0.076112226	7.083000E+00
282	  0.076312624	-6.137000E+00	  0.076312624	1.608870E+02	  0.076312624	1.738800E+01	  0.076312624	7.424000E+00
283	  0.076513030	-6.145000E+00	  0.076513030	1.600500E+02	  0.076513030	1.744700E+01	  0.076513030	7.751000E+00
284	  0.076713428	-6.153000E+00	  0.076713428	1.591700E+02	  0.076713428	1.751200E+01	  0.076713428	8.095000E+00
285	  0.076913826	-6.168000E+00	  0.076913826	1.583060E+02	  0.076913826	1.759300E+01	  0.076913826	8.431000E+00
286	  0.077114232	-6.174000E+00	  0.077114232	1.574420E+02	  0.077114232	1.765400E+01	  0.077114232	8.770000E+00
287	  0.077314630	-6.181000E+00	  0.077314630	1.566000E+02	  0.077314630	1.772000E+01	  0.077314630	9.100000E+00
288	  0.077515028	-6.190000E+00	  0.077515028	1.558010E+02	  0.077515028	1.779000E+01	  0.077515028	9.414000E+00
289	  0.077715434	-6.197000E+00	  0.077715434	1.549310E+02	  0.077715434	1.785900E+01	  0.077715434	9.757000E+00
290	  0.077915832	-6.210000E+00	  0.077915832	1.540950E+02	  0.077915832	1.794500E+01	  0.077915832	1.008300E+01
291	  0.078116231	-6.220000E+00	  0.078116231	1.532490E+02	  0.078116231	1.802600E+01	  0.078116231	1.041600E+01
292	  0.078316636	-6.231000E+00	  0.078316636	1.524240E+02	  0.078316636	1.811100E+01	  0.078316636	1.074000E+01
293	  0.078517035	-6.244000E+00	  0.078517035	1.515800E+02	  0.078517035	1.820400E+01	  0.078517035	1.107100E+01
294	  0.078717433	-6.258000E+00	  0.078717433	1.507640E+02	  0.078717433	1.829800E+01	  0.078717433	1.139100E+01
295	  0.078917839	-6.267000E+00	  0.078917839	1.499160E+02	  0.078917839	1.838500E+01	  0.078917839	1.172700E+01
296	  0.079118237	-6.283000E+00	  0.079118237	1.491190E+02	  0.079118237	1.848900E+01	  0.079118237	1.203900E+01
297	  0.079318643	-6.297000E+00	  0.079318643	1.483040E+02	  0.079318643	1.858900E+01	  0.079318643	1.236000E+01
298	  0.079519041	-6.311000E+00	  0.079519041	1.474940E+02	  0.079519041	1.869300E+01	  0.079519041	1.267900E+01
299	  0.079719439	-6.322000E+00	  0.079719439	1.466730E+02	  0.079719439	1.879100E+01	  0.079719439	1.300400E+01
300	  0.079919845	-6.335000E+00	  0.079919845	1.458750E+02	  0.079919845	1.889400E+01	  0.079919845	1.332000E+01
301	  0.080120243	-6.349000E+00	  0.080120243	1.450370E+02	  0.080120243	1.900600E+01	  0.080120243	1.365100E+01
302	  0.080320641	-6.358000E+00	  0.080320641	1.442350E+02	  0.080320641	1.910400E+01	  0.080320641	1.397200E+01
303	  0.080521047	-6.375000E+00	  0.080521047	1.434390E+02	  0.080521047	1.922700E+01	  0.080521047	1.428500E+01
304	  0.080721445	-6.385000E+00	  0.080721445	1.426560E+02	  0.080721445	1.932900E+01	  0.080721445	1.459800E+01
305	  0.080921844	-6.400000E+00	  0.080921844	1.418780E+02	  0.080921844	1.944700E+01	  0.080921844	1.490600E+01
306	  0.081122249	-6.415000E+00	  0.081122249	1.411280E+02	  0.081122249	1.956500E+01	  0.081122249	1.520200E+01
307	  0.081322648	-6.429000E+00	  0.081322648	1.403370E+02	  0.081322648	1.968600E+01	  0.081322648	1.551800E+01
308	  0.081523046	-6.445000E+00	  0.081523046	1.395410E+02	  0.081523046	1.981500E+01	  0.081523046	1.583400E+01
309	  0.081723452	-6.458000E+00	  0.081723452	1.387850E+02	  0.081723452	1.993300E+01	  0.081723452	1.613500E+01
310	  0.081923850	-6.468000E+00	  0.081923850	1.380210E+02	  0.081923850	2.004900E+01	  0.081923850	1.644300E+01
311	  0.082124248	-6.485000E+00	  0.082124248	1.372820E+02	  0.082124248	2.018100E+01	  0.082124248	1.673600E+01
312	  0.082324654	-6.506000E+00	  0.082324654	1.365400E+02	  0.082324654	2.032700E+01	  0.082324654	1.702700E+01
313	  0.082525052	-6.521000E+00	  0.082525052	1.358140E+02	  0.082525052	2.045800E+01	  0.082525052	1.731600E+01
314	  0.082725458	-6.537000E+00	  0.082725458	1.350780E+02	  0.082725458	2.059400E+01	  0.082725458	1.760900E+01
315	  0.082925856	-6.560000E+00	  0.082925856	1.343660E+02	  0.082925856	2.074800E+01	  0.082925856	1.788600E+01
316	  0.083126254	-6.583000E+00	  0.083126254	1.336070E+02	  0.083126254	2.091000E+01	  0.083126254	1.818300E+01
317	  0.083326660	-6.597000E+00	  0.083326660	1.328650E+02	  0.083326660	2.104700E+01	  0.083326660	1.848200E+01
318	  0.083527058	-6.617000E+00	  0.083527058	1.321160E+02	  0.083527058	2.120600E+01	  0.083527058	1.877700E+01
319	  0.083727457	-6.639000E+00	  0.083727457	1.313780E+02	  0.083727457	2.137200E+01	  0.083727457	1.906600E+01
320	  0.083927862	-6.656000E+00	  0.083927862	1.306340E+02	  0.083927862	2.152600E+01	  0.083927862	1.936300E+01
321	  0.084128261	-6.675000E+00	  0.084128261	1.299090E+02	  0.084128261	2.168500E+01	  0.084128261	1.965000E+01
322	  0.084328659	-6.692000E+00	  0.084328659	1.292100E+02	  0.084328659	2.183700E+01	  0.084328659	1.992800E+01
323	  0.084529065	-6.711000E+00	  0.084529065	1.285060E+02	  0.084529065	2.199800E+01	  0.084529065	2.020700E+01
324	  0.084729463	-6.733000E+00	  0.084729463	1.277930E+02	  0.084729463	2.217200E+01	  0.084729463	2.048600E+01
325	  0.084929861	-6.755000E+00	  0.084929861	1.270690E+02	  0.084929861	2.234800E+01	  0.084929861	2.077000E+01
326	  0.085130267	-6.776000E+00	  0.085130267	1.263420E+02	  0.085130267	2.252700E+01	  0.085130267	2.105600E+01
327	  0.085330658	-6.795000E+00	  0.085330658	1.256630E+02	  0.085330658	2.269300E+01	  0.085330658	2.132400E+01
328	  0.085531056	-6.817000E+00	  0.085531056	1.249630E+02	  0.085531056	2.287500E+01	  0.085531056	2.159700E+01
329	  0.085731462	-6.846000E+00	  0.085731462	1.242460E+02	  0.085731462	2.308100E+01	  0.085731462	2.187000E+01
330	  0.085931860	-6.866000E+00	  0.085931860	1.235590E+02	  0.085931860	2.326100E+01	  0.085931860	2.214000E+01
331	  0.086132258	-6.889000E+00	  0.086132258	1.228700E+02	  0.086132258	2.345000E+01	  0.086132258	2.240700E+01
332	  0.086332664	-6.916000E+00	  0.086332664	1.221940E+02	  0.086332664	2.365100E+01	  0.086332664	2.266400E+01
333	  0.086533062	-6.939000E+00	  0.086533062	1.214880E+02	  0.086533062	2.385100E+01	  0.086533062	2.293700E+01
334	  0.086733460	-6.963000E+00	  0.086733460	1.207760E+02	  0.086733460	2.405700E+01	  0.086733460	2.321200E+01
335	  0.086933866	-6.988000E+00	  0.086933866	1.200660E+02	  0.086933866	2.426700E+01	  0.086933866	2.348400E+01
336	  0.087134264	-7.008000E+00	  0.087134264	1.193780E+02	  0.087134264	2.446200E+01	  0.087134264	2.375400E+01
337	  0.087334670	-7.032000E+00	  0.087334670	1.186970E+02	  0.087334670	2.466800E+01	  0.087334670	2.401500E+01
338	  0.087535068	-7.056000E+00	  0.087535068	1.179900E+02	  0.087535068	2.488600E+01	  0.087535068	2.428600E+01
339	  0.087735467	-7.076000E+00	  0.087735467	1.173060E+02	  0.087735467	2.508600E+01	  0.087735467	2.455400E+01
340	  0.087935872	-7.100000E+00	  0.087935872	1.166180E+02	  0.087935872	2.530600E+01	  0.087935872	2.481600E+01
341	  0.088136271	-7.120000E+00	  0.088136271	1.159690E+02	  0.088136271	2.550700E+01	  0.088136271	2.506700E+01
342	  0.088336669	-7.145000E+00	  0.088336669	1.152930E+02	  0.088336669	2.572900E+01	  0.088336669	2.532400E+01
343	  0.088537075	-7.168000E+00	  0.088537075	1.146230E+02	  0.088537075	2.594900E+01	  0.088537075	2.557800E+01
344	  0.088737473	-7.184000E+00	  0.088737473	1.139890E+02	  0.088737473	2.614200E+01	  0.088737473	2.582900E+01
345	  0.088937871	-7.207000E+00	  0.088937871	1.133600E+02	  0.088937871	2.635700E+01	  0.088937871	2.606600E+01
346	  0.089138277	-7.231000E+00	  0.089138277	1.127060E+02	  0.089138277	2.658600E+01	  0.089138277	2.630900E+01
347	  0.089338675	-7.256000E+00	  0.089338675	1.121020E+02	  0.089338675	2.680500E+01	  0.089338675	2.653200E+01
348	  0.089539073	-7.277000E+00	  0.089539073	1.114820E+02	  0.089539073	2.702100E+01	  0.089539073	2.676600E+01
349	  0.089739479	-7.306000E+00	  0.089739479	1.108460E+02	  0.089739479	2.726700E+01	  0.089739479	2.699200E+01
350	  0.089939877	-7.331000E+00	  0.089939877	1.101890E+02	  0.089939877	2.750700E+01	  0.089939877	2.723600E+01
351	  0.090140276	-7.356000E+00	  0.090140276	1.095730E+02	  0.090140276	2.774000E+01	  0.090140276	2.746000E+01
352	  0.090340681	-7.380000E+00	  0.090340681	1.089790E+02	  0.090340681	2.796900E+01	  0.090340681	2.767400E+01
353	  0.090541080	-7.406000E+00	  0.090541080	1.083160E+02	  0.090541080	2.822500E+01	  0.090541080	2.791500E+01
354	  0.090741485	-7.432000E+00	  0.090741485	1.077080E+02	  0.090741485	2.846700E+01	  0.090741485	2.813100E+01
355	  0.090941884	-7.455000E+00	  0.090941884	1.071090E+02	  0.090941884	2.870000E+01	  0.090941884	2.834800E+01
356	  0.091142282	-7.485000E+00	  0.091142282	1.064990E+02	  0.091142282	2.896200E+01	  0.091142282	2.855400E+01
357	  0.091342688	-7.508000E+00	  0.091342688	1.059010E+02	  0.091342688	2.920000E+01	  0.091342688	2.876900E+01
358	  0.091543086	-7.537000E+00	  0.091543086	1.053100E+02	  0.091543086	2.945800E+01	  0.091543086	2.896800E+01
359	  0.091743484	-7.558000E+00	  0.091743484	1.047110E+02	  0.091743484	2.969900E+01	  0.091743484	2.918400E+01
360	  0.091943890	-7.582000E+00	  0.091943890	1.041240E+02	  0.091943890	2.994600E+01	  0.091943890	2.938800E+01
361	  0.092144288	-7.614000E+00	  0.092144288	1.035330E+02	  0.092144288	3.021800E+01	  0.092144288	2.957800E+01
362	  0.092344686	-7.639000E+00	  0.092344686	1.029750E+02	  0.092344686	3.046600E+01	  0.092344686	2.976500E+01
363	  0.092545092	-7.667000E+00	  0.092545092	1.024340E+02	  0.092545092	3.071700E+01	  0.092545092	2.993800E+01
364	  0.092745490	-7.700000E+00	  0.092745490	1.018480E+02	  0.092745490	3.099900E+01	  0.092745490	3.011900E+01
365	  0.092945889	-7.730000E+00	  0.092945889	1.013030E+02	  0.092945889	3.126200E+01	  0.092945889	3.028700E+01
366	  0.093146294	-7.758000E+00	  0.093146294	1.007580E+02	  0.093146294	3.152300E+01	  0.093146294	3.045600E+01
367	  0.093346693	-7.795000E+00	  0.093346693	1.001950E+02	  0.093346693	3.181600E+01	  0.093346693	3.061300E+01
368	  0.093547091	-7.820000E+00	  0.093547091	9.965700E+01	  0.093547091	3.207100E+01	  0.093547091	3.078200E+01
369	  0.093747497	-7.853000E+00	  0.093747497	9.911300E+01	  0.093747497	3.235100E+01	  0.093747497	3.093700E+01
370	  0.093947895	-7.881000E+00	  0.093947895	9.856400E+01	  0.093947895	3.262100E+01	  0.093947895	3.110300E+01
371	  0.094148301	-7.912000E+00	  0.094148301	9.798900E+01	  0.094148301	3.291300E+01	  0.094148301	3.126900E+01
372	  0.094348699	-7.943000E+00	  0.094348699	9.747100E+01	  0.094348699	3.318400E+01	  0.094348699	3.141400E+01
373	  0.094549097	-7.974000E+00	  0.094549097	9.698000E+01	  0.094549097	3.345100E+01	  0.094549097	3.154100E+01
374	  0.094749503	-8.006000E+00	  0.094749503	9.644400E+01	  0.094749503	3.373400E+01	  0.094749503	3.168600E+01
375	  0.094949901	-8.032000E+00	  0.094949901	9.591100E+01	  0.094949901	3.400600E+01	  0.094949901	3.184100E+01
376	  0.095150299	-8.058000E+00	  0.095150299	9.543900E+01	  0.095150299	3.425700E+01	  0.095150299	3.196900E+01
377	  0.095350705	-8.082000E+00	  0.095350705	9.491400E+01	  0.095350705	3.452300E+01	  0.095350705	3.212300E+01
378	  0.095551103	-8.111000E+00	  0.095551103	9.442700E+01	  0.095551103	3.479000E+01	  0.095551103	3.224800E+01
379	  0.095751502	-8.137000E+00	  0.095751502	9.394800E+01	  0.095751502	3.504900E+01	  0.095751502	3.237300E+01
380	  0.095951907	-8.161000E+00	  0.095951907	9.351500E+01	  0.095951907	3.528600E+01	  0.095951907	3.248500E+01
381	  0.096152306	-8.194000E+00	  0.096152306	9.306000E+01	  0.096152306	3.555500E+01	  0.096152306	3.258200E+01
382	  0.096352704	-8.216000E+00	  0.096352704	9.260900E+01	  0.096352704	3.579800E+01	  0.096352704	3.270200E+01
383	  0.096553110	-8.243000E+00	  0.096553110	9.215300E+01	  0.096553110	3.605600E+01	  0.096553110	3.281000E+01
384	  0.096753508	-8.271000E+00	  0.096753508	9.172500E+01	  0.096753508	3.630500E+01	  0.096753508	3.290500E+01
385	  0.096953906	-8.297000E+00	  0.096953906	9.126800E+01	  0.096953906	3.656600E+01	  0.096953906	3.301200E+01
386	  0.097154312	-8.320000E+00	  0.097154312	9.082700E+01	  0.097154312	3.681300E+01	  0.097154312	3.312000E+01
387	  0.097354710	-8.346000E+00	  0.097354710	9.038200E+01	  0.097354710	3.706800E+01	  0.097354710	3.322300E+01
388	  0.097555116	-8.367000E+00	  0.097555116	8.994600E+01	  0.097555116	3.731100E+01	  0.097555116	3.333100E+01
389	  0.097755514	-8.390000E+00	  0.097755514	8.952700E+01	  0.097755514	3.755300E+01	  0.097755514	3.342500E+01
390	  0.097955912	-8.417000E+00	  0.097955912	8.910800E+01	  0.097955912	3.780500E+01	  0.097955912	3.350800E+01
391	  0.098156318	-8.439000E+00	  0.098156318	8.868600E+01	  0.098156318	3.804900E+01	  0.098156318	3.360400E+01
392	  0.098356716	-8.458000E+00	  0.098356716	8.824600E+01	  0.098356716	3.829300E+01	  0.098356716	3.371600E+01
393	  0.098557115	-8.478000E+00	  0.098557115	8.786700E+01	  0.098557115	3.851400E+01	  0.098557115	3.380100E+01
394	  0.098757520	-8.497000E+00	  0.098757520	8.743900E+01	  0.098757520	3.875800E+01	  0.098757520	3.390300E+01
395	  0.098957919	-8.515000E+00	  0.098957919	8.700000E+01	  0.098957919	3.900400E+01	  0.098957919	3.401200E+01
396	  0.099158317	-8.530000E+00	  0.099158317	8.662000E+01	  0.099158317	3.921800E+01	  0.099158317	3.410800E+01
397	  0.099358723	-8.552000E+00	  0.099358723	8.619500E+01	  0.099358723	3.946900E+01	  0.099358723	3.419800E+01
398	  0.099559121	-8.570000E+00	  0.099559121	8.579500E+01	  0.099559121	3.970200E+01	  0.099559121	3.429000E+01
399	  0.099759519	-8.587000E+00	  0.099759519	8.543000E+01	  0.099759519	3.991800E+01	  0.099759519	3.436800E+01
400	  0.099959925	-8.597000E+00	  0.099959925	8.502100E+01	  0.099959925	4.014000E+01	  0.099959925	3.448300E+01
401	  0.100160323	-8.623000E+00	  0.100160323	8.462700E+01	  0.100160323	4.039200E+01	  0.100160323	3.454400E+01
402	  0.100360721	-8.633000E+00	  0.100360721	8.421800E+01	  0.100360721	4.061600E+01	  0.100360721	3.465800E+01
403	  0.100561127	-8.646000E+00	  0.100561127	8.377600E+01	  0.100561127	4.086500E+01	  0.100561127	3.477300E+01
404	  0.100761525	-8.654000E+00	  0.100761525	8.339400E+01	  0.100761525	4.107300E+01	  0.100761525	3.488400E+01
405	  0.100961931	-8.671000E+00	  0.100961931	8.301300E+01	  0.100961931	4.130400E+01	  0.100961931	3.496200E+01
406	  0.101162329	-8.681000E+00	  0.101162329	8.257800E+01	  0.101162329	4.154900E+01	  0.101162329	3.508000E+01
407	  0.101362728	-8.694000E+00	  0.101362728	8.221100E+01	  0.101362728	4.176600E+01	  0.101362728	3.516500E+01
408	  0.101563133	-8.698000E+00	  0.101563133	8.174700E+01	  0.101563133	4.201300E+01	  0.101563133	3.531300E+01
409	  0.101763532	-8.707000E+00	  0.101763532	8.138200E+01	  0.101763532	4.222500E+01	  0.101763532	3.540600E+01
410	  0.101963930	-8.708000E+00	  0.101963930	8.096300E+01	  0.101963930	4.244600E+01	  0.101963930	3.554700E+01
411	  0.102164336	-8.719000E+00	  0.102164336	8.046300E+01	  0.102164336	4.273500E+01	  0.102164336	3.567900E+01
412	  0.102364734	-8.722000E+00	  0.102364734	8.007800E+01	  0.102364734	4.294700E+01	  0.102364734	3.580200E+01
413	  0.102565132	-8.724000E+00	  0.102565132	7.965400E+01	  0.102565132	4.318000E+01	  0.102565132	3.593700E+01
414	  0.102765530	-8.732000E+00	  0.102765530	7.922600E+01	  0.102765530	4.343100E+01	  0.102765530	3.605000E+01
415	  0.102965929	-8.731000E+00	  0.102965929	7.883800E+01	  0.102965929	4.364200E+01	  0.102965929	3.618400E+01
416	  0.103166327	-8.723000E+00	  0.103166327	7.842500E+01	  0.103166327	4.385300E+01	  0.103166327	3.634900E+01
417	  0.103366733	-8.737000E+00	  0.103366733	7.804500E+01	  0.103366733	4.409700E+01	  0.103366733	3.642200E+01
418	  0.103567131	-8.729000E+00	  0.103567131	7.759500E+01	  0.103567131	4.433300E+01	  0.103567131	3.659900E+01
419	  0.103767529	-8.730000E+00	  0.103767529	7.714600E+01	  0.103767529	4.459100E+01	  0.103767529	3.674100E+01
420	  0.103967935	-8.729000E+00	  0.103967935	7.675900E+01	  0.103967935	4.481000E+01	  0.103967935	3.687200E+01
421	  0.104168333	-8.732000E+00	  0.104168333	7.631900E+01	  0.104168333	4.507000E+01	  0.104168333	3.700400E+01
422	  0.104368731	-8.731000E+00	  0.104368731	7.582000E+01	  0.104368731	4.536000E+01	  0.104368731	3.716800E+01
423	  0.104569137	-8.731000E+00	  0.104569137	7.550000E+01	  0.104569137	4.555000E+01	  0.104569137	3.726700E+01
424	  0.104769535	-8.737000E+00	  0.104769535	7.503000E+01	  0.104769535	4.584400E+01	  0.104769535	3.739100E+01
425	  0.104969934	-8.726000E+00	  0.104969934	7.460700E+01	  0.104969934	4.607400E+01	  0.104969934	3.756800E+01
426	  0.105170339	-8.734000E+00	  0.105170339	7.415200E+01	  0.105170339	4.636700E+01	  0.105170339	3.767700E+01
427	  0.105370738	-8.726000E+00	  0.105370738	7.367700E+01	  0.105370738	4.664200E+01	  0.105370738	3.785500E+01
428	  0.105571143	-8.721000E+00	  0.105571143	7.326200E+01	  0.105571143	4.689000E+01	  0.105571143	3.800100E+01
429	  0.105771542	-8.721000E+00	  0.105771542	7.274600E+01	  0.105771542	4.721100E+01	  0.105771542	3.815900E+01
430	  0.105971940	-8.722000E+00	  0.105971940	7.235400E+01	  0.105971940	4.746000E+01	  0.105971940	3.827400E+01
431	  0.106172346	-8.720000E+00	  0.106172346	7.184300E+01	  0.106172346	4.778300E+01	  0.106172346	3.843300E+01
432	  0.106372744	-8.728000E+00	  0.106372744	7.136300E+01	  0.106372744	4.810800E+01	  0.106372744	3.853900E+01
433	  0.106573142	-8.723000E+00	  0.106573142	7.093300E+01	  0.106573142	4.837700E+01	  0.106573142	3.868800E+01
434	  0.106773548	-8.721000E+00	  0.106773548	7.045400E+01	  0.106773548	4.868900E+01	  0.106773548	3.883200E+01
435	  0.106973946	-8.730000E+00	  0.106973946	6.999600E+01	  0.106973946	4.900800E+01	  0.106973946	3.892500E+01
436	  0.107174344	-8.728000E+00	  0.107174344	6.947900E+01	  0.107174344	4.935100E+01	  0.107174344	3.907700E+01
437	  0.107374750	-8.727000E+00	  0.107374750	6.899700E+01	  0.107374750	4.967500E+01	  0.107374750	3.921600E+01
438	  0.107575148	-8.720000E+00	  0.107575148	6.848800E+01	  0.107575148	5.001100E+01	  0.107575148	3.938600E+01
439	  0.107775547	-8.720000E+00	  0.107775547	6.799400E+01	  0.107775547	5.035300E+01	  0.107775547	3.951700E+01
440	  0.107975952	-8.722000E+00	  0.107975952	6.744300E+01	  0.107975952	5.074000E+01	  0.107975952	3.965500E+01
441	  0.108176351	-8.719000E+00	  0.108176351	6.698100E+01	  0.108176351	5.106200E+01	  0.108176351	3.978700E+01
442	  0.108376749	-8.718000E+00	  0.108376749	6.644100E+01	  0.108376749	5.144500E+01	  0.108376749	3.993100E+01
443	  0.108577155	-8.712000E+00	  0.108577155	6.592400E+01	  0.108577155	5.180800E+01	  0.108577155	4.008800E+01
444	  0.108777553	-8.715000E+00	  0.108777553	6.543000E+01	  0.108777553	5.217300E+01	  0.108777553	4.019400E+01
445	  0.108977959	-8.711000E+00	  0.108977959	6.481700E+01	  0.108977959	5.261800E+01	  0.108977959	4.036200E+01
446	  0.109178357	-8.705000E+00	  0.109178357	6.428000E+01	  0.109178357	5.300900E+01	  0.109178357	4.051700E+01
447	  0.109378755	-8.698000E+00	  0.109378755	6.370700E+01	  0.109378755	5.343100E+01	  0.109378755	4.068400E+01
448	  0.109579161	-8.694000E+00	  0.109579161	6.315900E+01	  0.109579161	5.384300E+01	  0.109579161	4.082600E+01
449	  0.109779559	-8.688000E+00	  0.109779559	6.254900E+01	  0.109779559	5.430500E+01	  0.109779559	4.099300E+01
450	  0.109979957	-8.687000E+00	  0.109979957	6.199600E+01	  0.109979957	5.473600E+01	  0.109979957	4.111200E+01
451	  0.110180363	-8.670000E+00	  0.110180363	6.139300E+01	  0.110180363	5.519000E+01	  0.110180363	4.132400E+01
452	  0.110380761	-8.672000E+00	  0.110380761	6.083300E+01	  0.110380761	5.564000E+01	  0.110380761	4.142700E+01
453	  0.110581160	-8.668000E+00	  0.110581160	6.019700E+01	  0.110581160	5.615000E+01	  0.110581160	4.157000E+01
454	  0.110781565	-8.658000E+00	  0.110781565	5.963000E+01	  0.110781565	5.660300E+01	  0.110781565	4.172600E+01
455	  0.110981964	-8.655000E+00	  0.110981964	5.900400E+01	  0.110981964	5.711800E+01	  0.110981964	4.185700E+01
456	  0.111182362	-8.646000E+00	  0.111182362	5.836700E+01	  0.111182362	5.764400E+01	  0.111182362	4.201200E+01
457	  0.111382768	-8.637000E+00	  0.111382768	5.775500E+01	  0.111382768	5.815500E+01	  0.111382768	4.216300E+01
458	  0.111583166	-8.639000E+00	  0.111583166	5.713000E+01	  0.111583166	5.869500E+01	  0.111583166	4.224300E+01
459	  0.111783572	-8.634000E+00	  0.111783572	5.648100E+01	  0.111783572	5.925500E+01	  0.111783572	4.236200E+01
460	  0.111983970	-8.630000E+00	  0.111983970	5.585200E+01	  0.111983970	5.980600E+01	  0.111983970	4.247100E+01
461	  0.112184368	-8.627000E+00	  0.112184368	5.515400E+01	  0.112184368	6.042700E+01	  0.112184368	4.257100E+01
462	  0.112384774	-8.624000E+00	  0.112384774	5.449900E+01	  0.112384774	6.101600E+01	  0.112384774	4.266500E+01
463	  0.112585172	-8.620000E+00	  0.112585172	5.384500E+01	  0.112585172	6.161100E+01	  0.112585172	4.275300E+01
464	  0.112785570	-8.617000E+00	  0.112785570	5.318100E+01	  0.112785570	6.222400E+01	  0.112785570	4.282500E+01
465	  0.112985976	-8.620000E+00	  0.112985976	5.248900E+01	  0.112985976	6.287300E+01	  0.112985976	4.286100E+01
466	  0.113186374	-8.617000E+00	  0.113186374	5.177900E+01	  0.113186374	6.354300E+01	  0.113186374	4.292000E+01
467	  0.113386773	-8.623000E+00	  0.113386773	5.106300E+01	  0.113386773	6.423100E+01	  0.113386773	4.291500E+01
468	  0.113587178	-8.624000E+00	  0.113587178	5.038000E+01	  0.113587178	6.489200E+01	  0.113587178	4.293300E+01
469	  0.113787577	-8.624000E+00	  0.113787577	4.966300E+01	  0.113787577	6.559200E+01	  0.113787577	4.294000E+01
470	  0.113987975	-8.636000E+00	  0.113987975	4.889600E+01	  0.113987975	6.635000E+01	  0.113987975	4.285900E+01
471	  0.114188381	-8.637000E+00	  0.114188381	4.816300E+01	  0.114188381	6.708100E+01	  0.114188381	4.283800E+01
472	  0.114388779	-8.651000E+00	  0.114388779	4.742100E+01	  0.114388779	6.782600E+01	  0.114388779	4.272000E+01
473	  0.114589177	-8.650000E+00	  0.114589177	4.665100E+01	  0.114589177	6.860800E+01	  0.114589177	4.268000E+01
474	  0.114789583	-8.660000E+00	  0.114789583	4.588900E+01	  0.114789583	6.938600E+01	  0.114789583	4.255300E+01
475	  0.114989981	-8.671000E+00	  0.114989981	4.511600E+01	  0.114989981	7.017800E+01	  0.114989981	4.240500E+01
476	  0.115190387	-8.684000E+00	  0.115190387	4.434600E+01	  0.115190387	7.097100E+01	  0.115190387	4.221900E+01
477	  0.115390785	-8.704000E+00	  0.115390785	4.351800E+01	  0.115390785	7.182100E+01	  0.115390785	4.196200E+01
478	  0.115591183	-8.717000E+00	  0.115591183	4.269300E+01	  0.115591183	7.267700E+01	  0.115591183	4.173100E+01
479	  0.115791589	-8.733000E+00	  0.115791589	4.184500E+01	  0.115791589	7.355700E+01	  0.115791589	4.145900E+01
480	  0.115991987	-8.755000E+00	  0.115991987	4.101700E+01	  0.115991987	7.440700E+01	  0.115991987	4.111500E+01
481	  0.116192386	-8.774000E+00	  0.116192386	4.016300E+01	  0.116192386	7.528900E+01	  0.116192386	4.077100E+01
482	  0.116392791	-8.796000E+00	  0.116392791	3.929600E+01	  0.116392791	7.617900E+01	  0.116392791	4.037200E+01
483	  0.116593190	-8.820000E+00	  0.116593190	3.840900E+01	  0.116593190	7.708300E+01	  0.116593190	3.993100E+01
484	  0.116793588	-8.849000E+00	  0.116793588	3.751600E+01	  0.116793588	7.797700E+01	  0.116793588	3.942300E+01
485	  0.116993994	-8.878000E+00	  0.116993994	3.653600E+01	  0.116993994	7.895900E+01	  0.116993994	3.886100E+01
486	  0.117194392	-8.910000E+00	  0.117194392	3.564400E+01	  0.117194392	7.982600E+01	  0.117194392	3.827100E+01
487	  0.117394790	-8.943000E+00	  0.117394790	3.469800E+01	  0.117394790	8.073700E+01	  0.117394790	3.762700E+01
488	  0.117595196	-8.986000E+00	  0.117595196	3.377100E+01	  0.117595196	8.158300E+01	  0.117595196	3.689200E+01
489	  0.117795594	-9.026000E+00	  0.117795594	3.282500E+01	  0.117795594	8.243700E+01	  0.117795594	3.613600E+01
490	  0.117995992	-9.065000E+00	  0.117995992	3.182900E+01	  0.117995992	8.332800E+01	  0.117995992	3.533200E+01
491	  0.118196398	-9.116000E+00	  0.118196398	3.081900E+01	  0.118196398	8.416300E+01	  0.118196398	3.440500E+01
492	  0.118396796	-9.168000E+00	  0.118396796	2.986000E+01	  0.118396796	8.491700E+01	  0.118396796	3.348200E+01
493	  0.118597202	-9.220000E+00	  0.118597202	2.878300E+01	  0.118597202	8.575400E+01	  0.118597202	3.245000E+01
494	  0.118797600	-9.278000E+00	  0.118797600	2.773800E+01	  0.118797600	8.649300E+01	  0.118797600	3.136900E+01
495	  0.118997999	-9.337000E+00	  0.118997999	2.665200E+01	  0.118997999	8.723000E+01	  0.118997999	3.023000E+01
496	  0.119198404	-9.404000E+00	  0.119198404	2.559700E+01	  0.119198404	8.785700E+01	  0.119198404	2.904300E+01
497	  0.119398803	-9.474000E+00	  0.119398803	2.450500E+01	  0.119398803	8.845300E+01	  0.119398803	2.778900E+01
498	  0.119599201	-9.550000E+00	  0.119599201	2.339100E+01	  0.119599201	8.897900E+01	  0.119599201	2.646100E+01
499	  0.119799607	-9.625000E+00	  0.119799607	2.222800E+01	  0.119799607	8.950200E+01	  0.119799607	2.509300E+01
500	  0.120000005	-9.709000E+00	  0.120000005	2.104300E+01	  0.120000005	8.992500E+01	  0.120000005	2.364400E+01
