! Anritsu VNA Master:             	Model: MS2036C/10/77
! SN:             	1601066
! /bd0/18may8/255.ew.m7.txt
! Existing Calibration Information:
! TYPE:             	Current Settings	Active Cal Settings
! TIME:             	05/08/2018 10:26:11 AM	05/08/2018 10:22:10 AM
! INTERNAL TEMP:    	47.8 C	47.5 C
! # POINTS:         	500	500
! START FREQ:       	20.000 MHz	20.000 MHz
! STOP FREQ:        	120.000 MHz	120.000 MHz
! SOURCE POWER:     	High	High
! IFBW:             	50 Hz	50 Hz
! AVG FACTOR:       	  1 	  1 
! REF PLANE 1:      	0 mm	0 mm
! REF PLANE 2:      	0 mm	0 mm
! CAL TYPE:         	Full S11	Full S11
! CAL METHOD:       	SOLT	SOLT
! CAL LINE TYPE:    	Coax	Coax
! DUT PORT 1:       	K-Conn(F)	K-Conn(F)
! DUT PORT 2:       	K-Conn(F)	K-Conn(F)
! CAL STATUS:       	OK: Accuracy High	--
! PROP-V:       	0.700
! CABLE LOSS:       	0.000 dB/m
! REF IMPEDANCE:       	50.0
! Trace Specific Parameters:	TR1	TR2	TR3	TR4
! TRACE.#.Y (GRAPH TYPE)	LOG MAG	PHASE	REAL IMPEDANCE	IMAGINARY IMPEDANCE
! TRACE.#.X 	FREQ.GHZ	FREQ.GHZ	FREQ.GHZ	FREQ.GHZ
! S-PARAMETER	S11	S11	S11	S11
! SMOOTH/APERTURE %	0	0	0	0
! WINDOW	NSL	NSL	NSL	NSL
! GATING	OFF	OFF	OFF	OFF
! FGTD	OFF	OFF	OFF	OFF
Marker Information per Trace:	TR1	TR2	TR3	TR4
!MK1	--	"MK1 TR2:  20.000 MHz,PH:-124.40°"	--	--
!MK2	--	--	"MK2 TR3:  70.100 200 MHz,Z:(16.744 ohm, -3.169 ohm)"	--
!MK3	--	--	--	--
!MK4	--	--	--	--
!MK5	--	--	--	--
!MK6	--	--	--	--
!MK7	--	--	--	--
!MK8	--	--	--	--
PNT	TR1.FREQ.GHZ	TR1.LOG MAG.dB	TR2.FREQ.GHZ	TR2.PHASE.deg	TR3.FREQ.GHZ	TR3.REAL IMPEDANCE.ohm	TR4.FREQ.GHZ	TR4.IMAGINARY IMPEDANCE.ohm
1	  0.020000000	-8.910000E-01	  0.020000000	-1.243950E+02	  0.020000000	3.274000E+00	  0.020000000	-2.627500E+01
2	  0.020200402	-8.970000E-01	  0.020200402	-1.258170E+02	  0.020200402	3.255000E+00	  0.020200402	-2.549000E+01
3	  0.020400802	-9.040000E-01	  0.020400802	-1.272360E+02	  0.020400802	3.237000E+00	  0.020400802	-2.471600E+01
4	  0.020601204	-9.110000E-01	  0.020601204	-1.286760E+02	  0.020601204	3.223000E+00	  0.020601204	-2.394100E+01
5	  0.020801604	-9.230000E-01	  0.020801604	-1.301210E+02	  0.020801604	3.228000E+00	  0.020801604	-2.317100E+01
6	  0.021002004	-9.350000E-01	  0.021002004	-1.316240E+02	  0.021002004	3.230000E+00	  0.021002004	-2.238000E+01
7	  0.021202406	-9.490000E-01	  0.021202406	-1.330950E+02	  0.021202406	3.242000E+00	  0.021202406	-2.161400E+01
8	  0.021402806	-9.580000E-01	  0.021402806	-1.346040E+02	  0.021402806	3.237000E+00	  0.021402806	-2.083800E+01
9	  0.021603208	-9.690000E-01	  0.021603208	-1.360850E+02	  0.021603208	3.237000E+00	  0.021603208	-2.008400E+01
10	  0.021803608	-9.790000E-01	  0.021803608	-1.375780E+02	  0.021803608	3.237000E+00	  0.021803608	-1.933300E+01
11	  0.022004008	-9.910000E-01	  0.022004008	-1.390790E+02	  0.022004008	3.244000E+00	  0.022004008	-1.858500E+01
12	  0.022204408	-1.002000E+00	  0.022204408	-1.405860E+02	  0.022204408	3.251000E+00	  0.022204408	-1.784200E+01
13	  0.022404809	-1.014000E+00	  0.022404809	-1.421200E+02	  0.022404809	3.259000E+00	  0.022404809	-1.709200E+01
14	  0.022605211	-1.024000E+00	  0.022605211	-1.436440E+02	  0.022605211	3.260000E+00	  0.022605211	-1.635400E+01
15	  0.022805611	-1.034000E+00	  0.022805611	-1.452020E+02	  0.022805611	3.264000E+00	  0.022805611	-1.560700E+01
16	  0.023006011	-1.043000E+00	  0.023006011	-1.467510E+02	  0.023006011	3.267000E+00	  0.023006011	-1.487000E+01
17	  0.023206413	-1.050000E+00	  0.023206413	-1.482800E+02	  0.023206413	3.263000E+00	  0.023206413	-1.414800E+01
18	  0.023406813	-1.058000E+00	  0.023406813	-1.498040E+02	  0.023406813	3.264000E+00	  0.023406813	-1.343500E+01
19	  0.023607215	-1.068000E+00	  0.023607215	-1.513440E+02	  0.023607215	3.271000E+00	  0.023607215	-1.271900E+01
20	  0.023807615	-1.079000E+00	  0.023807615	-1.528950E+02	  0.023807615	3.282000E+00	  0.023807615	-1.200300E+01
21	  0.024008015	-1.093000E+00	  0.024008015	-1.544670E+02	  0.024008015	3.304000E+00	  0.024008015	-1.128100E+01
22	  0.024208417	-1.106000E+00	  0.024208417	-1.560510E+02	  0.024208417	3.323000E+00	  0.024208417	-1.055900E+01
23	  0.024408817	-1.119000E+00	  0.024408817	-1.576510E+02	  0.024408817	3.342000E+00	  0.024408817	-9.834000E+00
24	  0.024609219	-1.133000E+00	  0.024609219	-1.592570E+02	  0.024609219	3.366000E+00	  0.024609219	-9.110000E+00
25	  0.024809619	-1.146000E+00	  0.024809619	-1.608500E+02	  0.024809619	3.388000E+00	  0.024809619	-8.396000E+00
26	  0.025010020	-1.160000E+00	  0.025010020	-1.624650E+02	  0.025010020	3.414000E+00	  0.025010020	-7.675000E+00
27	  0.025210422	-1.173000E+00	  0.025210422	-1.640880E+02	  0.025210422	3.439000E+00	  0.025210422	-6.955000E+00
28	  0.025410822	-1.192000E+00	  0.025410822	-1.657250E+02	  0.025410822	3.480000E+00	  0.025410822	-6.231000E+00
29	  0.025611224	-1.209000E+00	  0.025611224	-1.673790E+02	  0.025611224	3.519000E+00	  0.025611224	-5.501000E+00
30	  0.025811624	-1.225000E+00	  0.025811624	-1.690530E+02	  0.025811624	3.553000E+00	  0.025811624	-4.767000E+00
31	  0.026012026	-1.241000E+00	  0.026012026	-1.707490E+02	  0.026012026	3.589000E+00	  0.026012026	-4.024000E+00
32	  0.026212426	-1.255000E+00	  0.026212426	-1.724320E+02	  0.026212426	3.623000E+00	  0.026212426	-3.289000E+00
33	  0.026412826	-1.271000E+00	  0.026412826	-1.741250E+02	  0.026412826	3.663000E+00	  0.026412826	-2.551000E+00
34	  0.026613226	-1.287000E+00	  0.026613226	-1.758350E+02	  0.026613226	3.704000E+00	  0.026613226	-1.807000E+00
35	  0.026813626	-1.307000E+00	  0.026813626	-1.775510E+02	  0.026813626	3.758000E+00	  0.026813626	-1.062000E+00
36	  0.027014028	-1.329000E+00	  0.027014028	-1.792720E+02	  0.027014028	3.818000E+00	  0.027014028	-3.150000E-01
37	  0.027214428	-1.349000E+00	  0.027214428	1.789840E+02	  0.027214428	3.876000E+00	  0.027214428	4.400000E-01
38	  0.027414829	-1.369000E+00	  0.027414829	1.772370E+02	  0.027414829	3.936000E+00	  0.027414829	1.198000E+00
39	  0.027615231	-1.391000E+00	  0.027615231	1.754680E+02	  0.027615231	4.002000E+00	  0.027615231	1.965000E+00
40	  0.027815631	-1.415000E+00	  0.027815631	1.736950E+02	  0.027815631	4.076000E+00	  0.027815631	2.735000E+00
41	  0.028016033	-1.440000E+00	  0.028016033	1.719060E+02	  0.028016033	4.157000E+00	  0.028016033	3.513000E+00
42	  0.028216433	-1.468000E+00	  0.028216433	1.701160E+02	  0.028216433	4.248000E+00	  0.028216433	4.292000E+00
43	  0.028416833	-1.493000E+00	  0.028416833	1.683110E+02	  0.028416833	4.333000E+00	  0.028416833	5.079000E+00
44	  0.028617235	-1.519000E+00	  0.028617235	1.665120E+02	  0.028617235	4.421000E+00	  0.028617235	5.866000E+00
45	  0.028817635	-1.543000E+00	  0.028817635	1.647200E+02	  0.028817635	4.510000E+00	  0.028817635	6.653000E+00
46	  0.029018037	-1.568000E+00	  0.029018037	1.629280E+02	  0.029018037	4.603000E+00	  0.029018037	7.442000E+00
47	  0.029218437	-1.594000E+00	  0.029218437	1.611380E+02	  0.029218437	4.702000E+00	  0.029218437	8.233000E+00
48	  0.029418837	-1.622000E+00	  0.029418837	1.593420E+02	  0.029418837	4.809000E+00	  0.029418837	9.030000E+00
49	  0.029619239	-1.652000E+00	  0.029619239	1.575310E+02	  0.029619239	4.927000E+00	  0.029619239	9.838000E+00
50	  0.029819639	-1.685000E+00	  0.029819639	1.557010E+02	  0.029819639	5.059000E+00	  0.029819639	1.065800E+01
51	  0.030020041	-1.720000E+00	  0.030020041	1.538410E+02	  0.030020041	5.198000E+00	  0.030020041	1.149700E+01
52	  0.030220442	-1.752000E+00	  0.030220442	1.519640E+02	  0.030220442	5.335000E+00	  0.030220442	1.234900E+01
53	  0.030420844	-1.785000E+00	  0.030420844	1.500760E+02	  0.030420844	5.484000E+00	  0.030420844	1.321100E+01
54	  0.030621244	-1.821000E+00	  0.030621244	1.481980E+02	  0.030621244	5.641000E+00	  0.030621244	1.407500E+01
55	  0.030821644	-1.856000E+00	  0.030821644	1.463200E+02	  0.030821644	5.806000E+00	  0.030821644	1.494600E+01
56	  0.031022044	-1.893000E+00	  0.031022044	1.444360E+02	  0.031022044	5.980000E+00	  0.031022044	1.582700E+01
57	  0.031222444	-1.926000E+00	  0.031222444	1.425420E+02	  0.031222444	6.148000E+00	  0.031222444	1.672100E+01
58	  0.031422846	-1.968000E+00	  0.031422846	1.405890E+02	  0.031422846	6.355000E+00	  0.031422846	1.765000E+01
59	  0.031623244	-2.007000E+00	  0.031623244	1.386430E+02	  0.031623244	6.559000E+00	  0.031623244	1.858700E+01
60	  0.031823646	-2.045000E+00	  0.031823646	1.366650E+02	  0.031823646	6.770000E+00	  0.031823646	1.954800E+01
61	  0.032024048	-2.083000E+00	  0.032024048	1.346940E+02	  0.032024048	6.990000E+00	  0.032024048	2.051800E+01
62	  0.032224450	-2.118000E+00	  0.032224450	1.327240E+02	  0.032224450	7.210000E+00	  0.032224450	2.150000E+01
63	  0.032424849	-2.156000E+00	  0.032424849	1.307430E+02	  0.032424849	7.447000E+00	  0.032424849	2.250000E+01
64	  0.032625251	-2.190000E+00	  0.032625251	1.287850E+02	  0.032625251	7.686000E+00	  0.032625251	2.350100E+01
65	  0.032825653	-2.229000E+00	  0.032825653	1.268190E+02	  0.032825653	7.947000E+00	  0.032825653	2.451900E+01
66	  0.033026051	-2.271000E+00	  0.033026051	1.248630E+02	  0.033026051	8.234000E+00	  0.033026051	2.554500E+01
67	  0.033226453	-2.318000E+00	  0.033226453	1.228900E+02	  0.033226453	8.552000E+00	  0.033226453	2.659200E+01
68	  0.033426855	-2.366000E+00	  0.033426855	1.209280E+02	  0.033426855	8.888000E+00	  0.033426855	2.764700E+01
69	  0.033627257	-2.418000E+00	  0.033627257	1.189290E+02	  0.033627257	9.260000E+00	  0.033627257	2.873700E+01
70	  0.033827655	-2.470000E+00	  0.033827655	1.168980E+02	  0.033827655	9.654000E+00	  0.033827655	2.986300E+01
71	  0.034028057	-2.522000E+00	  0.034028057	1.148390E+02	  0.034028057	1.006800E+01	  0.034028057	3.102300E+01
72	  0.034228459	-2.576000E+00	  0.034228459	1.127390E+02	  0.034228459	1.051700E+01	  0.034228459	3.222800E+01
73	  0.034428857	-2.623000E+00	  0.034428857	1.106350E+02	  0.034428857	1.096500E+01	  0.034428857	3.346100E+01
74	  0.034629259	-2.670000E+00	  0.034629259	1.085180E+02	  0.034629259	1.143700E+01	  0.034629259	3.472700E+01
75	  0.034829661	-2.716000E+00	  0.034829661	1.064200E+02	  0.034829661	1.193300E+01	  0.034829661	3.600600E+01
76	  0.035030060	-2.760000E+00	  0.035030060	1.043140E+02	  0.035030060	1.244700E+01	  0.035030060	3.731900E+01
77	  0.035230462	-2.803000E+00	  0.035230462	1.022140E+02	  0.035230462	1.298700E+01	  0.035230462	3.865800E+01
78	  0.035430863	-2.845000E+00	  0.035430863	1.001270E+02	  0.035430863	1.355500E+01	  0.035430863	4.001700E+01
79	  0.035631265	-2.884000E+00	  0.035631265	9.806300E+01	  0.035631265	1.414200E+01	  0.035631265	4.139500E+01
80	  0.035831664	-2.928000E+00	  0.035831664	9.600400E+01	  0.035831664	1.478200E+01	  0.035831664	4.279300E+01
81	  0.036032066	-2.967000E+00	  0.036032066	9.396700E+01	  0.036032066	1.543800E+01	  0.036032066	4.421500E+01
82	  0.036232468	-3.013000E+00	  0.036232468	9.192900E+01	  0.036232468	1.616900E+01	  0.036232468	4.565800E+01
83	  0.036432866	-3.060000E+00	  0.036432866	8.989800E+01	  0.036432866	1.695100E+01	  0.036432866	4.712700E+01
84	  0.036633268	-3.102000E+00	  0.036633268	8.787400E+01	  0.036633268	1.775600E+01	  0.036633268	4.863200E+01
85	  0.036833670	-3.153000E+00	  0.036833670	8.584800E+01	  0.036833670	1.865900E+01	  0.036833670	5.015800E+01
86	  0.037034072	-3.197000E+00	  0.037034072	8.377600E+01	  0.037034072	1.960700E+01	  0.037034072	5.176900E+01
87	  0.037234470	-3.246000E+00	  0.037234470	8.167700E+01	  0.037234470	2.065700E+01	  0.037234470	5.343100E+01
88	  0.037434869	-3.288000E+00	  0.037434869	7.951700E+01	  0.037434869	2.176800E+01	  0.037434869	5.520400E+01
89	  0.037635271	-3.331000E+00	  0.037635271	7.727700E+01	  0.037635271	2.300600E+01	  0.037635271	5.709300E+01
90	  0.037835669	-3.382000E+00	  0.037835669	7.491600E+01	  0.037835669	2.445300E+01	  0.037835669	5.912200E+01
91	  0.038036071	-3.448000E+00	  0.038036071	7.251900E+01	  0.038036071	2.614000E+01	  0.038036071	6.118400E+01
92	  0.038236473	-3.528000E+00	  0.038236473	7.015800E+01	  0.038236473	2.805200E+01	  0.038236473	6.319300E+01
93	  0.038436871	-3.611000E+00	  0.038436871	6.787900E+01	  0.038436871	3.008100E+01	  0.038436871	6.513500E+01
94	  0.038637273	-3.689000E+00	  0.038637273	6.570800E+01	  0.038637273	3.217000E+01	  0.038637273	6.700000E+01
95	  0.038837675	-3.753000E+00	  0.038837675	6.361200E+01	  0.038837675	3.426500E+01	  0.038837675	6.886600E+01
96	  0.039038073	-3.812000E+00	  0.039038073	6.152800E+01	  0.039038073	3.647300E+01	  0.039038073	7.076100E+01
97	  0.039238475	-3.865000E+00	  0.039238475	5.948900E+01	  0.039238475	3.877400E+01	  0.039238475	7.264600E+01
98	  0.039438877	-3.919000E+00	  0.039438877	5.747300E+01	  0.039438877	4.124000E+01	  0.039438877	7.449900E+01
99	  0.039639279	-3.976000E+00	  0.039639279	5.544600E+01	  0.039639279	4.392600E+01	  0.039639279	7.633700E+01
100	  0.039839678	-4.034000E+00	  0.039839678	5.337500E+01	  0.039839678	4.689400E+01	  0.039839678	7.818200E+01
101	  0.040040080	-4.094000E+00	  0.040040080	5.130600E+01	  0.040040080	5.010100E+01	  0.040040080	7.996800E+01
102	  0.040240481	-4.154000E+00	  0.040240481	4.923800E+01	  0.040240481	5.356300E+01	  0.040240481	8.168200E+01
103	  0.040440880	-4.213000E+00	  0.040440880	4.712300E+01	  0.040440880	5.736500E+01	  0.040440880	8.336100E+01
104	  0.040641282	-4.269000E+00	  0.040641282	4.502900E+01	  0.040641282	6.141000E+01	  0.040641282	8.492900E+01
105	  0.040841684	-4.324000E+00	  0.040841684	4.289200E+01	  0.040841684	6.584600E+01	  0.040841684	8.639300E+01
106	  0.041042086	-4.378000E+00	  0.041042086	4.080300E+01	  0.041042086	7.050700E+01	  0.041042086	8.763600E+01
107	  0.041242484	-4.433000E+00	  0.041242484	3.868800E+01	  0.041242484	7.557100E+01	  0.041242484	8.865100E+01
108	  0.041442886	-4.483000E+00	  0.041442886	3.657300E+01	  0.041442886	8.096600E+01	  0.041442886	8.942900E+01
109	  0.041643288	-4.535000E+00	  0.041643288	3.444400E+01	  0.041643288	8.676300E+01	  0.041643288	8.983800E+01
110	  0.041843686	-4.582000E+00	  0.041843686	3.232800E+01	  0.041843686	9.285900E+01	  0.041843686	8.989500E+01
111	  0.042044088	-4.628000E+00	  0.042044088	3.024400E+01	  0.042044088	9.919800E+01	  0.042044088	8.946800E+01
112	  0.042244490	-4.670000E+00	  0.042244490	2.815000E+01	  0.042244490	1.058660E+02	  0.042244490	8.856400E+01
113	  0.042444889	-4.716000E+00	  0.042444889	2.609000E+01	  0.042444889	1.126710E+02	  0.042444889	8.691200E+01
114	  0.042645290	-4.764000E+00	  0.042645290	2.405500E+01	  0.042645290	1.195460E+02	  0.042645290	8.453700E+01
115	  0.042845692	-4.807000E+00	  0.042845692	2.199500E+01	  0.042845692	1.266100E+02	  0.042845692	8.145300E+01
116	  0.043046094	-4.853000E+00	  0.043046094	1.996700E+01	  0.043046094	1.335000E+02	  0.043046094	7.748300E+01
117	  0.043246493	-4.895000E+00	  0.043246493	1.792000E+01	  0.043246493	1.403400E+02	  0.043246493	7.269700E+01
118	  0.043446895	-4.938000E+00	  0.043446895	1.589000E+01	  0.043446895	1.468020E+02	  0.043446895	6.702200E+01
119	  0.043647297	-4.981000E+00	  0.043647297	1.386800E+01	  0.043647297	1.527580E+02	  0.043647297	6.046600E+01
120	  0.043847695	-5.024000E+00	  0.043847695	1.184400E+01	  0.043847695	1.580970E+02	  0.043847695	5.308600E+01
121	  0.044048097	-5.069000E+00	  0.044048097	9.841000E+00	  0.044048097	1.625200E+02	  0.044048097	4.499600E+01
122	  0.044248499	-5.110000E+00	  0.044248499	7.845000E+00	  0.044248499	1.661000E+02	  0.044248499	3.639500E+01
123	  0.044448901	-5.151000E+00	  0.044448901	5.844000E+00	  0.044448901	1.686660E+02	  0.044448901	2.732600E+01
124	  0.044649299	-5.194000E+00	  0.044649299	3.860000E+00	  0.044649299	1.700640E+02	  0.044649299	1.804800E+01
125	  0.044849701	-5.231000E+00	  0.044849701	1.875000E+00	  0.044849701	1.705340E+02	  0.044849701	8.727000E+00
126	  0.045050103	-5.266000E+00	  0.045050103	-1.020000E-01	  0.045050103	1.699440E+02	  0.045050103	-4.700000E-01
127	  0.045250501	-5.300000E+00	  0.045250501	-2.090000E+00	  0.045250501	1.683450E+02	  0.045250501	-9.466000E+00
128	  0.045450903	-5.329000E+00	  0.045450903	-4.035000E+00	  0.045450903	1.659360E+02	  0.045450903	-1.788500E+01
129	  0.045651305	-5.365000E+00	  0.045651305	-5.984000E+00	  0.045651305	1.625090E+02	  0.045651305	-2.575900E+01
130	  0.045851704	-5.397000E+00	  0.045851704	-7.918000E+00	  0.045851704	1.584790E+02	  0.045851704	-3.296900E+01
131	  0.046052106	-5.431000E+00	  0.046052106	-9.831000E+00	  0.046052106	1.539010E+02	  0.046052106	-3.940300E+01
132	  0.046252504	-5.464000E+00	  0.046252504	-1.176000E+01	  0.046252504	1.488840E+02	  0.046252504	-4.519500E+01
133	  0.046452906	-5.494000E+00	  0.046452906	-1.366400E+01	  0.046452906	1.436620E+02	  0.046452906	-5.023300E+01
134	  0.046653304	-5.521000E+00	  0.046653304	-1.557200E+01	  0.046653304	1.382800E+02	  0.046653304	-5.464100E+01
135	  0.046853706	-5.547000E+00	  0.046853706	-1.747800E+01	  0.046853706	1.327980E+02	  0.046853706	-5.840000E+01
136	  0.047054108	-5.573000E+00	  0.047054108	-1.937700E+01	  0.047054108	1.272970E+02	  0.047054108	-6.150900E+01
137	  0.047254506	-5.596000E+00	  0.047254506	-2.125600E+01	  0.047254506	1.219260E+02	  0.047254506	-6.407400E+01
138	  0.047454908	-5.620000E+00	  0.047454908	-2.312600E+01	  0.047454908	1.166460E+02	  0.047454908	-6.608700E+01
139	  0.047655310	-5.641000E+00	  0.047655310	-2.497600E+01	  0.047655310	1.115700E+02	  0.047655310	-6.766900E+01
140	  0.047855709	-5.661000E+00	  0.047855709	-2.679000E+01	  0.047855709	1.067430E+02	  0.047855709	-6.883700E+01
141	  0.048056111	-5.682000E+00	  0.048056111	-2.857800E+01	  0.048056111	1.021440E+02	  0.048056111	-6.961500E+01
142	  0.048256513	-5.706000E+00	  0.048256513	-3.041200E+01	  0.048256513	9.760700E+01	  0.048256513	-7.006000E+01
143	  0.048456915	-5.725000E+00	  0.048456915	-3.219500E+01	  0.048456915	9.339700E+01	  0.048456915	-7.028500E+01
144	  0.048657313	-5.746000E+00	  0.048657313	-3.398000E+01	  0.048657313	8.937500E+01	  0.048657313	-7.027000E+01
145	  0.048857715	-5.764000E+00	  0.048857715	-3.575800E+01	  0.048857715	8.556000E+01	  0.048857715	-7.008300E+01
146	  0.049058117	-5.781000E+00	  0.049058117	-3.754900E+01	  0.049058117	8.190800E+01	  0.049058117	-6.973200E+01
147	  0.049258515	-5.797000E+00	  0.049258515	-3.930700E+01	  0.049258515	7.850300E+01	  0.049258515	-6.924700E+01
148	  0.049458917	-5.812000E+00	  0.049458917	-4.103000E+01	  0.049458917	7.533500E+01	  0.049458917	-6.866900E+01
149	  0.049659319	-5.830000E+00	  0.049659319	-4.279300E+01	  0.049659319	7.227000E+01	  0.049659319	-6.792800E+01
150	  0.049859721	-5.845000E+00	  0.049859721	-4.450200E+01	  0.049859721	6.945000E+01	  0.049859721	-6.714900E+01
151	  0.050060119	-5.860000E+00	  0.050060119	-4.620300E+01	  0.050060119	6.679100E+01	  0.050060119	-6.630800E+01
152	  0.050260521	-5.873000E+00	  0.050260521	-4.795600E+01	  0.050260521	6.418900E+01	  0.050260521	-6.540200E+01
153	  0.050460923	-5.885000E+00	  0.050460923	-4.966600E+01	  0.050460923	6.178800E+01	  0.050460923	-6.446700E+01
154	  0.050661322	-5.893000E+00	  0.050661322	-5.137200E+01	  0.050661322	5.950400E+01	  0.050661322	-6.352100E+01
155	  0.050861724	-5.897000E+00	  0.050861724	-5.302900E+01	  0.050861724	5.738700E+01	  0.050861724	-6.260200E+01
156	  0.051062126	-5.905000E+00	  0.051062126	-5.469400E+01	  0.051062126	5.538200E+01	  0.051062126	-6.161200E+01
157	  0.051262524	-5.912000E+00	  0.051262524	-5.633100E+01	  0.051262524	5.350600E+01	  0.051262524	-6.062500E+01
158	  0.051462926	-5.917000E+00	  0.051462926	-5.791700E+01	  0.051462926	5.177200E+01	  0.051462926	-5.966200E+01
159	  0.051663328	-5.922000E+00	  0.051663328	-5.949300E+01	  0.051663328	5.013300E+01	  0.051663328	-5.869000E+01
160	  0.051863730	-5.931000E+00	  0.051863730	-6.108900E+01	  0.051863730	4.856800E+01	  0.051863730	-5.767300E+01
161	  0.052064128	-5.939000E+00	  0.052064128	-6.264200E+01	  0.052064128	4.711900E+01	  0.052064128	-5.667600E+01
162	  0.052264530	-5.948000E+00	  0.052264530	-6.421400E+01	  0.052264530	4.572300E+01	  0.052264530	-5.566500E+01
163	  0.052464932	-5.958000E+00	  0.052464932	-6.574200E+01	  0.052464932	4.443900E+01	  0.052464932	-5.466700E+01
164	  0.052665330	-5.970000E+00	  0.052665330	-6.735000E+01	  0.052665330	4.315600E+01	  0.052665330	-5.361700E+01
165	  0.052865732	-5.980000E+00	  0.052865732	-6.890200E+01	  0.052865732	4.197000E+01	  0.052865732	-5.261700E+01
166	  0.053066134	-5.988000E+00	  0.053066134	-7.044000E+01	  0.053066134	4.084300E+01	  0.053066134	-5.163700E+01
167	  0.053266536	-5.997000E+00	  0.053266536	-7.200400E+01	  0.053266536	3.975600E+01	  0.053266536	-5.063900E+01
168	  0.053466935	-6.004000E+00	  0.053466935	-7.353200E+01	  0.053466935	3.873400E+01	  0.053466935	-4.968100E+01
169	  0.053667337	-6.006000E+00	  0.053667337	-7.507400E+01	  0.053667337	3.773000E+01	  0.053667337	-4.874100E+01
170	  0.053867739	-6.006000E+00	  0.053867739	-7.658800E+01	  0.053867739	3.677900E+01	  0.053867739	-4.783000E+01
171	  0.054068137	-6.008000E+00	  0.054068137	-7.809300E+01	  0.054068137	3.588200E+01	  0.054068137	-4.692300E+01
172	  0.054268539	-6.011000E+00	  0.054268539	-7.958100E+01	  0.054268539	3.503700E+01	  0.054268539	-4.602800E+01
173	  0.054468941	-6.014000E+00	  0.054468941	-8.101800E+01	  0.054468941	3.425800E+01	  0.054468941	-4.516800E+01
174	  0.054669339	-6.019000E+00	  0.054669339	-8.245700E+01	  0.054669339	3.351500E+01	  0.054669339	-4.431000E+01
175	  0.054869737	-6.023000E+00	  0.054869737	-8.388800E+01	  0.054869737	3.280400E+01	  0.054869737	-4.346500E+01
176	  0.055070139	-6.029000E+00	  0.055070139	-8.525600E+01	  0.055070139	3.215800E+01	  0.055070139	-4.265900E+01
177	  0.055270538	-6.032000E+00	  0.055270538	-8.666500E+01	  0.055270538	3.150700E+01	  0.055270538	-4.184500E+01
178	  0.055470940	-6.043000E+00	  0.055470940	-8.806700E+01	  0.055470940	3.091600E+01	  0.055470940	-4.101900E+01
179	  0.055671342	-6.044000E+00	  0.055671342	-8.943800E+01	  0.055671342	3.032600E+01	  0.055671342	-4.024500E+01
180	  0.055871744	-6.050000E+00	  0.055871744	-9.083700E+01	  0.055871744	2.976100E+01	  0.055871744	-3.945300E+01
181	  0.056072142	-6.056000E+00	  0.056072142	-9.221600E+01	  0.056072142	2.922900E+01	  0.056072142	-3.867700E+01
182	  0.056272544	-6.061000E+00	  0.056272544	-9.358600E+01	  0.056272544	2.871800E+01	  0.056272544	-3.791600E+01
183	  0.056472946	-6.066000E+00	  0.056472946	-9.496500E+01	  0.056472946	2.822100E+01	  0.056472946	-3.715700E+01
184	  0.056673344	-6.068000E+00	  0.056673344	-9.632500E+01	  0.056673344	2.774000E+01	  0.056673344	-3.642300E+01
185	  0.056873746	-6.067000E+00	  0.056873746	-9.767800E+01	  0.056873746	2.726700E+01	  0.056873746	-3.570800E+01
186	  0.057074148	-6.065000E+00	  0.057074148	-9.903800E+01	  0.057074148	2.680600E+01	  0.057074148	-3.499500E+01
187	  0.057274550	-6.061000E+00	  0.057274550	-1.003690E+02	  0.057274550	2.636300E+01	  0.057274550	-3.430900E+01
188	  0.057474948	-6.054000E+00	  0.057474948	-1.017110E+02	  0.057474948	2.592300E+01	  0.057474948	-3.362800E+01
189	  0.057675350	-6.049000E+00	  0.057675350	-1.030180E+02	  0.057675350	2.551500E+01	  0.057675350	-3.296500E+01
190	  0.057875752	-6.043000E+00	  0.057875752	-1.042920E+02	  0.057875752	2.512900E+01	  0.057875752	-3.232500E+01
191	  0.058076151	-6.039000E+00	  0.058076151	-1.055730E+02	  0.058076151	2.475800E+01	  0.058076151	-3.168500E+01
192	  0.058276553	-6.030000E+00	  0.058276553	-1.068280E+02	  0.058276553	2.439200E+01	  0.058276553	-3.106800E+01
193	  0.058476955	-6.026000E+00	  0.058476955	-1.080930E+02	  0.058476955	2.405000E+01	  0.058476955	-3.044400E+01
194	  0.058677353	-6.019000E+00	  0.058677353	-1.093420E+02	  0.058677353	2.371200E+01	  0.058677353	-2.983700E+01
195	  0.058877755	-6.015000E+00	  0.058877755	-1.105850E+02	  0.058877755	2.339700E+01	  0.058877755	-2.923300E+01
196	  0.059078157	-6.011000E+00	  0.059078157	-1.118270E+02	  0.059078157	2.309300E+01	  0.059078157	-2.863200E+01
197	  0.059278559	-6.004000E+00	  0.059278559	-1.130930E+02	  0.059278559	2.278400E+01	  0.059278559	-2.802900E+01
198	  0.059478957	-6.001000E+00	  0.059478957	-1.143550E+02	  0.059478957	2.249800E+01	  0.059478957	-2.742700E+01
199	  0.059679359	-5.999000E+00	  0.059679359	-1.155950E+02	  0.059679359	2.222900E+01	  0.059679359	-2.683700E+01
200	  0.059879761	-5.991000E+00	  0.059879761	-1.168540E+02	  0.059879761	2.194600E+01	  0.059879761	-2.625100E+01
201	  0.060080159	-5.990000E+00	  0.060080159	-1.180700E+02	  0.060080159	2.170000E+01	  0.060080159	-2.568100E+01
202	  0.060280561	-5.984000E+00	  0.060280561	-1.193130E+02	  0.060280561	2.144500E+01	  0.060280561	-2.510700E+01
203	  0.060480963	-5.980000E+00	  0.060480963	-1.205330E+02	  0.060480963	2.120900E+01	  0.060480963	-2.454400E+01
204	  0.060681365	-5.972000E+00	  0.060681365	-1.217430E+02	  0.060681365	2.096800E+01	  0.060681365	-2.399500E+01
205	  0.060881764	-5.967000E+00	  0.060881764	-1.229520E+02	  0.060881764	2.074400E+01	  0.060881764	-2.344600E+01
206	  0.061082166	-5.963000E+00	  0.061082166	-1.241670E+02	  0.061082166	2.052900E+01	  0.061082166	-2.289800E+01
207	  0.061282568	-5.956000E+00	  0.061282568	-1.253810E+02	  0.061282568	2.031100E+01	  0.061282568	-2.235500E+01
208	  0.061482966	-5.950000E+00	  0.061482966	-1.265620E+02	  0.061482966	2.011000E+01	  0.061482966	-2.182900E+01
209	  0.061683368	-5.947000E+00	  0.061683368	-1.277240E+02	  0.061683368	1.992500E+01	  0.061683368	-2.131300E+01
210	  0.061883770	-5.942000E+00	  0.061883770	-1.288720E+02	  0.061883770	1.974500E+01	  0.061883770	-2.080600E+01
211	  0.062084168	-5.939000E+00	  0.062084168	-1.300270E+02	  0.062084168	1.957100E+01	  0.062084168	-2.029800E+01
212	  0.062284570	-5.936000E+00	  0.062284570	-1.311580E+02	  0.062284570	1.941000E+01	  0.062284570	-1.980200E+01
213	  0.062484972	-5.930000E+00	  0.062484972	-1.322780E+02	  0.062484972	1.924300E+01	  0.062484972	-1.931800E+01
214	  0.062685370	-5.932000E+00	  0.062685370	-1.333980E+02	  0.062685370	1.910700E+01	  0.062685370	-1.882800E+01
215	  0.062885776	-5.932000E+00	  0.062885776	-1.345780E+02	  0.062885776	1.896100E+01	  0.062885776	-1.831600E+01
216	  0.063086174	-5.935000E+00	  0.063086174	-1.357080E+02	  0.063086174	1.883400E+01	  0.063086174	-1.782700E+01
217	  0.063286573	-5.932000E+00	  0.063286573	-1.368550E+02	  0.063286573	1.869400E+01	  0.063286573	-1.733700E+01
218	  0.063486971	-5.937000E+00	  0.063486971	-1.380190E+02	  0.063486971	1.857900E+01	  0.063486971	-1.683700E+01
219	  0.063687377	-5.934000E+00	  0.063687377	-1.391380E+02	  0.063687377	1.845100E+01	  0.063687377	-1.636400E+01
220	  0.063887775	-5.931000E+00	  0.063887775	-1.402670E+02	  0.063887775	1.832500E+01	  0.063887775	-1.588900E+01
221	  0.064088173	-5.929000E+00	  0.064088173	-1.414090E+02	  0.064088173	1.820500E+01	  0.064088173	-1.541000E+01
222	  0.064288579	-5.931000E+00	  0.064288579	-1.425100E+02	  0.064288579	1.810600E+01	  0.064288579	-1.494700E+01
223	  0.064488977	-5.930000E+00	  0.064488977	-1.436270E+02	  0.064488977	1.799800E+01	  0.064488977	-1.448200E+01
224	  0.064689375	-5.930000E+00	  0.064689375	-1.447160E+02	  0.064689375	1.790200E+01	  0.064689375	-1.402900E+01
225	  0.064889781	-5.930000E+00	  0.064889781	-1.458090E+02	  0.064889781	1.780800E+01	  0.064889781	-1.357700E+01
226	  0.065090179	-5.930000E+00	  0.065090179	-1.468740E+02	  0.065090179	1.771900E+01	  0.065090179	-1.313800E+01
227	  0.065290578	-5.931000E+00	  0.065290578	-1.479320E+02	  0.065290578	1.763900E+01	  0.065290578	-1.270200E+01
228	  0.065490983	-5.937000E+00	  0.065490983	-1.490010E+02	  0.065490983	1.757300E+01	  0.065490983	-1.226100E+01
229	  0.065691382	-5.934000E+00	  0.065691382	-1.500620E+02	  0.065691382	1.748600E+01	  0.065691382	-1.183000E+01
230	  0.065891780	-5.938000E+00	  0.065891780	-1.511350E+02	  0.065891780	1.742100E+01	  0.065891780	-1.139200E+01
231	  0.066092186	-5.944000E+00	  0.066092186	-1.521870E+02	  0.066092186	1.736400E+01	  0.066092186	-1.096300E+01
232	  0.066292584	-5.944000E+00	  0.066292584	-1.532140E+02	  0.066292584	1.729800E+01	  0.066292584	-1.054800E+01
233	  0.066492982	-5.950000E+00	  0.066492982	-1.542770E+02	  0.066492982	1.724700E+01	  0.066492982	-1.011700E+01
234	  0.066693388	-5.953000E+00	  0.066693388	-1.552950E+02	  0.066693388	1.719500E+01	  0.066693388	-9.707000E+00
235	  0.066893786	-5.954000E+00	  0.066893786	-1.563050E+02	  0.066893786	1.714100E+01	  0.066893786	-9.301000E+00
236	  0.067094192	-5.956000E+00	  0.067094192	-1.573350E+02	  0.067094192	1.709100E+01	  0.067094192	-8.889000E+00
237	  0.067294590	-5.962000E+00	  0.067294590	-1.583350E+02	  0.067294590	1.705500E+01	  0.067294590	-8.489000E+00
238	  0.067494988	-5.966000E+00	  0.067494988	-1.593620E+02	  0.067494988	1.701400E+01	  0.067494988	-8.079000E+00
239	  0.067695394	-5.971000E+00	  0.067695394	-1.603420E+02	  0.067695394	1.698000E+01	  0.067695394	-7.689000E+00
240	  0.067895792	-5.976000E+00	  0.067895792	-1.613500E+02	  0.067895792	1.695000E+01	  0.067895792	-7.288000E+00
241	  0.068096191	-5.981000E+00	  0.068096191	-1.623320E+02	  0.068096191	1.692100E+01	  0.068096191	-6.899000E+00
242	  0.068296596	-5.985000E+00	  0.068296596	-1.633320E+02	  0.068296596	1.689300E+01	  0.068296596	-6.503000E+00
243	  0.068496995	-5.986000E+00	  0.068496995	-1.642960E+02	  0.068496995	1.685900E+01	  0.068496995	-6.124000E+00
244	  0.068697393	-5.994000E+00	  0.068697393	-1.652430E+02	  0.068697393	1.684500E+01	  0.068697393	-5.750000E+00
245	  0.068897791	-5.999000E+00	  0.068897791	-1.662050E+02	  0.068897791	1.682900E+01	  0.068897791	-5.371000E+00
246	  0.069098189	-6.001000E+00	  0.069098189	-1.671470E+02	  0.069098189	1.680500E+01	  0.069098189	-5.002000E+00
247	  0.069298595	-6.003000E+00	  0.069298595	-1.680850E+02	  0.069298595	1.678200E+01	  0.069298595	-4.635000E+00
248	  0.069498993	-6.011000E+00	  0.069498993	-1.690250E+02	  0.069498993	1.677900E+01	  0.069498993	-4.266000E+00
249	  0.069699399	-6.015000E+00	  0.069699399	-1.699790E+02	  0.069699399	1.676800E+01	  0.069699399	-3.893000E+00
250	  0.069899797	-6.018000E+00	  0.069899797	-1.709180E+02	  0.069899797	1.675500E+01	  0.069899797	-3.527000E+00
251	  0.070100196	-6.021000E+00	  0.070100196	-1.718380E+02	  0.070100196	1.674300E+01	  0.070100196	-3.168000E+00
252	  0.070300601	-6.024000E+00	  0.070300601	-1.727710E+02	  0.070300601	1.673500E+01	  0.070300601	-2.805000E+00
253	  0.070501000	-6.025000E+00	  0.070501000	-1.737050E+02	  0.070501000	1.672400E+01	  0.070501000	-2.442000E+00
254	  0.070701398	-6.023000E+00	  0.070701398	-1.746110E+02	  0.070701398	1.670700E+01	  0.070701398	-2.090000E+00
255	  0.070901804	-6.027000E+00	  0.070901804	-1.755450E+02	  0.070901804	1.670600E+01	  0.070901804	-1.727000E+00
256	  0.071102202	-6.027000E+00	  0.071102202	-1.764680E+02	  0.071102202	1.669700E+01	  0.071102202	-1.369000E+00
257	  0.071302600	-6.030000E+00	  0.071302600	-1.773760E+02	  0.071302600	1.669800E+01	  0.071302600	-1.017000E+00
258	  0.071503006	-6.031000E+00	  0.071503006	-1.782820E+02	  0.071503006	1.669600E+01	  0.071503006	-6.650000E-01
259	  0.071703404	-6.032000E+00	  0.071703404	-1.791830E+02	  0.071703404	1.669800E+01	  0.071703404	-3.160000E-01
260	  0.071903802	-6.032000E+00	  0.071903802	1.799120E+02	  0.071903802	1.669700E+01	  0.071903802	3.300000E-02
261	  0.072104208	-6.033000E+00	  0.072104208	1.790060E+02	  0.072104208	1.670000E+01	  0.072104208	3.850000E-01
262	  0.072304606	-6.036000E+00	  0.072304606	1.781030E+02	  0.072304606	1.671000E+01	  0.072304606	7.350000E-01
263	  0.072505005	-6.033000E+00	  0.072505005	1.772150E+02	  0.072505005	1.670700E+01	  0.072505005	1.079000E+00
264	  0.072705410	-6.040000E+00	  0.072705410	1.763180E+02	  0.072705410	1.673300E+01	  0.072705410	1.427000E+00
265	  0.072905809	-6.041000E+00	  0.072905809	1.754200E+02	  0.072905809	1.674400E+01	  0.072905809	1.775000E+00
266	  0.073106214	-6.040000E+00	  0.073106214	1.745290E+02	  0.073106214	1.675200E+01	  0.073106214	2.120000E+00
267	  0.073306613	-6.044000E+00	  0.073306613	1.736610E+02	  0.073306613	1.677400E+01	  0.073306613	2.457000E+00
268	  0.073507011	-6.048000E+00	  0.073507011	1.727740E+02	  0.073507011	1.679600E+01	  0.073507011	2.801000E+00
269	  0.073707417	-6.053000E+00	  0.073707417	1.718780E+02	  0.073707417	1.682500E+01	  0.073707417	3.149000E+00
270	  0.073907815	-6.054000E+00	  0.073907815	1.709730E+02	  0.073907815	1.684600E+01	  0.073907815	3.501000E+00
271	  0.074108213	-6.058000E+00	  0.074108213	1.701080E+02	  0.074108213	1.687500E+01	  0.074108213	3.837000E+00
272	  0.074308619	-6.060000E+00	  0.074308619	1.692450E+02	  0.074308619	1.689900E+01	  0.074308619	4.172000E+00
273	  0.074509017	-6.066000E+00	  0.074509017	1.683410E+02	  0.074509017	1.693800E+01	  0.074509017	4.524000E+00
274	  0.074709415	-6.070000E+00	  0.074709415	1.674710E+02	  0.074709415	1.697200E+01	  0.074709415	4.862000E+00
275	  0.074909821	-6.073000E+00	  0.074909821	1.665900E+02	  0.074909821	1.700700E+01	  0.074909821	5.206000E+00
276	  0.075110219	-6.084000E+00	  0.075110219	1.657120E+02	  0.075110219	1.706400E+01	  0.075110219	5.546000E+00
277	  0.075310618	-6.089000E+00	  0.075310618	1.648460E+02	  0.075310618	1.710700E+01	  0.075310618	5.884000E+00
278	  0.075511023	-6.097000E+00	  0.075511023	1.640120E+02	  0.075511023	1.715500E+01	  0.075511023	6.209000E+00
279	  0.075711422	-6.103000E+00	  0.075711422	1.631720E+02	  0.075711422	1.720400E+01	  0.075711422	6.536000E+00
280	  0.075911827	-6.109000E+00	  0.075911827	1.623110E+02	  0.075911827	1.725400E+01	  0.075911827	6.872000E+00
281	  0.076112226	-6.117000E+00	  0.076112226	1.614190E+02	  0.076112226	1.731300E+01	  0.076112226	7.220000E+00
282	  0.076312624	-6.127000E+00	  0.076312624	1.605490E+02	  0.076312624	1.737800E+01	  0.076312624	7.560000E+00
283	  0.076513030	-6.136000E+00	  0.076513030	1.597060E+02	  0.076513030	1.744100E+01	  0.076513030	7.889000E+00
284	  0.076713428	-6.144000E+00	  0.076713428	1.588380E+02	  0.076713428	1.750600E+01	  0.076713428	8.229000E+00
285	  0.076913826	-6.153000E+00	  0.076913826	1.579650E+02	  0.076913826	1.757200E+01	  0.076913826	8.571000E+00
286	  0.077114232	-6.162000E+00	  0.077114232	1.571210E+02	  0.077114232	1.764200E+01	  0.077114232	8.901000E+00
287	  0.077314630	-6.166000E+00	  0.077314630	1.562770E+02	  0.077314630	1.770100E+01	  0.077314630	9.234000E+00
288	  0.077515028	-6.174000E+00	  0.077515028	1.554880E+02	  0.077515028	1.776600E+01	  0.077515028	9.544000E+00
289	  0.077715434	-6.184000E+00	  0.077715434	1.546070E+02	  0.077715434	1.784700E+01	  0.077715434	9.890000E+00
290	  0.077915832	-6.193000E+00	  0.077915832	1.537720E+02	  0.077915832	1.792200E+01	  0.077915832	1.021900E+01
291	  0.078116231	-6.205000E+00	  0.078116231	1.529340E+02	  0.078116231	1.800900E+01	  0.078116231	1.054800E+01
292	  0.078316636	-6.214000E+00	  0.078316636	1.521220E+02	  0.078316636	1.808600E+01	  0.078316636	1.086800E+01
293	  0.078517035	-6.229000E+00	  0.078517035	1.512610E+02	  0.078517035	1.818600E+01	  0.078517035	1.120600E+01
294	  0.078717433	-6.241000E+00	  0.078717433	1.504780E+02	  0.078717433	1.827500E+01	  0.078717433	1.151400E+01
295	  0.078917839	-6.252000E+00	  0.078917839	1.496290E+02	  0.078917839	1.836700E+01	  0.078917839	1.185000E+01
296	  0.079118237	-6.264000E+00	  0.079118237	1.488360E+02	  0.079118237	1.846100E+01	  0.079118237	1.216200E+01
297	  0.079318643	-6.279000E+00	  0.079318643	1.480360E+02	  0.079318643	1.856300E+01	  0.079318643	1.247700E+01
298	  0.079519041	-6.293000E+00	  0.079519041	1.472200E+02	  0.079519041	1.866800E+01	  0.079519041	1.279900E+01
299	  0.079719439	-6.305000E+00	  0.079719439	1.463940E+02	  0.079719439	1.876900E+01	  0.079719439	1.312700E+01
300	  0.079919845	-6.315000E+00	  0.079919845	1.456060E+02	  0.079919845	1.886600E+01	  0.079919845	1.344000E+01
301	  0.080120243	-6.332000E+00	  0.080120243	1.447710E+02	  0.080120243	1.898600E+01	  0.080120243	1.376900E+01
302	  0.080320641	-6.341000E+00	  0.080320641	1.439570E+02	  0.080320641	1.908500E+01	  0.080320641	1.409500E+01
303	  0.080521047	-6.360000E+00	  0.080521047	1.431820E+02	  0.080521047	1.920900E+01	  0.080521047	1.439900E+01
304	  0.080721445	-6.369000E+00	  0.080721445	1.424000E+02	  0.080721445	1.931200E+01	  0.080721445	1.471300E+01
305	  0.080921844	-6.382000E+00	  0.080921844	1.416180E+02	  0.080921844	1.942500E+01	  0.080921844	1.502400E+01
306	  0.081122249	-6.399000E+00	  0.081122249	1.408390E+02	  0.081122249	1.955100E+01	  0.081122249	1.533200E+01
307	  0.081322648	-6.411000E+00	  0.081322648	1.400870E+02	  0.081322648	1.966400E+01	  0.081322648	1.563300E+01
308	  0.081523046	-6.427000E+00	  0.081523046	1.392820E+02	  0.081523046	1.979600E+01	  0.081523046	1.595300E+01
309	  0.081723452	-6.443000E+00	  0.081723452	1.385200E+02	  0.081723452	1.992300E+01	  0.081723452	1.625600E+01
310	  0.081923850	-6.452000E+00	  0.081923850	1.377640E+02	  0.081923850	2.003500E+01	  0.081923850	1.656200E+01
311	  0.082124248	-6.469000E+00	  0.082124248	1.370080E+02	  0.082124248	2.016800E+01	  0.082124248	1.686200E+01
312	  0.082324654	-6.489000E+00	  0.082324654	1.362840E+02	  0.082324654	2.031100E+01	  0.082324654	1.714700E+01
313	  0.082525052	-6.505000E+00	  0.082525052	1.355340E+02	  0.082525052	2.044700E+01	  0.082525052	1.744600E+01
314	  0.082725458	-6.521000E+00	  0.082725458	1.348160E+02	  0.082725458	2.058100E+01	  0.082725458	1.773200E+01
315	  0.082925856	-6.546000E+00	  0.082925856	1.340870E+02	  0.082925856	2.074400E+01	  0.082925856	1.801500E+01
316	  0.083126254	-6.568000E+00	  0.083126254	1.333220E+02	  0.083126254	2.090500E+01	  0.083126254	1.831700E+01
317	  0.083326660	-6.584000E+00	  0.083326660	1.325640E+02	  0.083326660	2.105200E+01	  0.083326660	1.862000E+01
318	  0.083527058	-6.603000E+00	  0.083527058	1.318320E+02	  0.083527058	2.120600E+01	  0.083527058	1.890900E+01
319	  0.083727457	-6.621000E+00	  0.083727457	1.310730E+02	  0.083727457	2.136500E+01	  0.083727457	1.921100E+01
320	  0.083927862	-6.640000E+00	  0.083927862	1.303400E+02	  0.083927862	2.152300E+01	  0.083927862	1.950300E+01
321	  0.084128261	-6.657000E+00	  0.084128261	1.296220E+02	  0.084128261	2.167800E+01	  0.084128261	1.978900E+01
322	  0.084328659	-6.674000E+00	  0.084328659	1.288980E+02	  0.084328659	2.183500E+01	  0.084328659	2.007800E+01
323	  0.084529065	-6.695000E+00	  0.084529065	1.282350E+02	  0.084529065	2.199500E+01	  0.084529065	2.033800E+01
324	  0.084729463	-6.718000E+00	  0.084729463	1.274990E+02	  0.084729463	2.217500E+01	  0.084729463	2.062700E+01
325	  0.084929861	-6.738000E+00	  0.084929861	1.267650E+02	  0.084929861	2.235100E+01	  0.084929861	2.091700E+01
326	  0.085130267	-6.761000E+00	  0.085130267	1.260530E+02	  0.085130267	2.253400E+01	  0.085130267	2.119500E+01
327	  0.085330658	-6.777000E+00	  0.085330658	1.253470E+02	  0.085330658	2.269600E+01	  0.085330658	2.147900E+01
328	  0.085531056	-6.801000E+00	  0.085531056	1.246530E+02	  0.085531056	2.288400E+01	  0.085531056	2.174800E+01
329	  0.085731462	-6.827000E+00	  0.085731462	1.239420E+02	  0.085731462	2.308100E+01	  0.085731462	2.202200E+01
330	  0.085931860	-6.848000E+00	  0.085931860	1.232640E+02	  0.085931860	2.326100E+01	  0.085931860	2.228800E+01
331	  0.086132258	-6.867000E+00	  0.086132258	1.225820E+02	  0.086132258	2.344100E+01	  0.086132258	2.255700E+01
332	  0.086332664	-6.897000E+00	  0.086332664	1.219040E+02	  0.086332664	2.365200E+01	  0.086332664	2.281100E+01
333	  0.086533062	-6.922000E+00	  0.086533062	1.211850E+02	  0.086533062	2.385900E+01	  0.086533062	2.308900E+01
334	  0.086733460	-6.946000E+00	  0.086733460	1.204760E+02	  0.086733460	2.406500E+01	  0.086733460	2.336400E+01
335	  0.086933866	-6.967000E+00	  0.086933866	1.197760E+02	  0.086933866	2.426400E+01	  0.086933866	2.363700E+01
336	  0.087134264	-6.988000E+00	  0.087134264	1.190910E+02	  0.087134264	2.446200E+01	  0.087134264	2.390500E+01
337	  0.087334670	-7.012000E+00	  0.087334670	1.183970E+02	  0.087334670	2.467500E+01	  0.087334670	2.417100E+01
338	  0.087535068	-7.037000E+00	  0.087535068	1.176870E+02	  0.087535068	2.489300E+01	  0.087535068	2.444500E+01
339	  0.087735467	-7.054000E+00	  0.087735467	1.170220E+02	  0.087735467	2.508700E+01	  0.087735467	2.470800E+01
340	  0.087935872	-7.078000E+00	  0.087935872	1.163320E+02	  0.087935872	2.530500E+01	  0.087935872	2.497200E+01
341	  0.088136271	-7.103000E+00	  0.088136271	1.156850E+02	  0.088136271	2.551900E+01	  0.088136271	2.521700E+01
342	  0.088336669	-7.122000E+00	  0.088336669	1.150180E+02	  0.088336669	2.572800E+01	  0.088336669	2.547600E+01
343	  0.088537075	-7.145000E+00	  0.088537075	1.143510E+02	  0.088537075	2.594600E+01	  0.088537075	2.573200E+01
344	  0.088737473	-7.161000E+00	  0.088737473	1.137190E+02	  0.088737473	2.614100E+01	  0.088737473	2.598100E+01
345	  0.088937871	-7.184000E+00	  0.088937871	1.130690E+02	  0.088937871	2.636200E+01	  0.088937871	2.622800E+01
346	  0.089138277	-7.208000E+00	  0.089138277	1.124400E+02	  0.089138277	2.658500E+01	  0.089138277	2.646200E+01
347	  0.089338675	-7.232000E+00	  0.089338675	1.118120E+02	  0.089338675	2.680800E+01	  0.089338675	2.669700E+01
348	  0.089539073	-7.255000E+00	  0.089539073	1.112150E+02	  0.089539073	2.702400E+01	  0.089539073	2.692000E+01
349	  0.089739479	-7.280000E+00	  0.089739479	1.105780E+02	  0.089739479	2.726200E+01	  0.089739479	2.715300E+01
350	  0.089939877	-7.307000E+00	  0.089939877	1.099270E+02	  0.089939877	2.750800E+01	  0.089939877	2.739100E+01
351	  0.090140276	-7.332000E+00	  0.090140276	1.092960E+02	  0.090140276	2.774600E+01	  0.090140276	2.762200E+01
352	  0.090340681	-7.356000E+00	  0.090340681	1.087120E+02	  0.090340681	2.797200E+01	  0.090340681	2.783400E+01
353	  0.090541080	-7.383000E+00	  0.090541080	1.080800E+02	  0.090541080	2.822500E+01	  0.090541080	2.805800E+01
354	  0.090741485	-7.406000E+00	  0.090741485	1.074590E+02	  0.090741485	2.846300E+01	  0.090741485	2.828600E+01
355	  0.090941884	-7.433000E+00	  0.090941884	1.068460E+02	  0.090941884	2.871200E+01	  0.090941884	2.850400E+01
356	  0.091142282	-7.457000E+00	  0.091142282	1.062460E+02	  0.091142282	2.895400E+01	  0.091142282	2.871800E+01
357	  0.091342688	-7.482000E+00	  0.091342688	1.056520E+02	  0.091342688	2.920100E+01	  0.091342688	2.892700E+01
358	  0.091543086	-7.510000E+00	  0.091543086	1.050580E+02	  0.091543086	2.945800E+01	  0.091543086	2.912900E+01
359	  0.091743484	-7.532000E+00	  0.091743484	1.044610E+02	  0.091743484	2.970100E+01	  0.091743484	2.934300E+01
360	  0.091943890	-7.558000E+00	  0.091943890	1.038670E+02	  0.091943890	2.995600E+01	  0.091943890	2.954800E+01
361	  0.092144288	-7.588000E+00	  0.092144288	1.033080E+02	  0.092144288	3.021400E+01	  0.092144288	2.972900E+01
362	  0.092344686	-7.613000E+00	  0.092344686	1.027460E+02	  0.092344686	3.046300E+01	  0.092344686	2.991900E+01
363	  0.092545092	-7.640000E+00	  0.092545092	1.021910E+02	  0.092545092	3.071700E+01	  0.092545092	3.010000E+01
364	  0.092745490	-7.674000E+00	  0.092745490	1.016270E+02	  0.092745490	3.100000E+01	  0.092745490	3.026800E+01
365	  0.092945889	-7.705000E+00	  0.092945889	1.010800E+02	  0.092945889	3.126600E+01	  0.092945889	3.043600E+01
366	  0.093146294	-7.736000E+00	  0.093146294	1.005400E+02	  0.093146294	3.153300E+01	  0.093146294	3.059800E+01
367	  0.093346693	-7.768000E+00	  0.093346693	9.998100E+01	  0.093346693	3.181300E+01	  0.093346693	3.076400E+01
368	  0.093547091	-7.797000E+00	  0.093547091	9.942500E+01	  0.093547091	3.208600E+01	  0.093547091	3.093300E+01
369	  0.093747497	-7.831000E+00	  0.093747497	9.888400E+01	  0.093747497	3.237000E+01	  0.093747497	3.108400E+01
370	  0.093947895	-7.861000E+00	  0.093947895	9.833600E+01	  0.093947895	3.264800E+01	  0.093947895	3.124400E+01
371	  0.094148301	-7.888000E+00	  0.094148301	9.777300E+01	  0.094148301	3.292400E+01	  0.094148301	3.141700E+01
372	  0.094348699	-7.924000E+00	  0.094348699	9.727400E+01	  0.094348699	3.320400E+01	  0.094348699	3.154100E+01
373	  0.094549097	-7.953000E+00	  0.094549097	9.674900E+01	  0.094549097	3.347700E+01	  0.094549097	3.168900E+01
374	  0.094749503	-7.983000E+00	  0.094749503	9.620800E+01	  0.094749503	3.376200E+01	  0.094749503	3.183900E+01
375	  0.094949901	-8.013000E+00	  0.094949901	9.570200E+01	  0.094949901	3.403500E+01	  0.094949901	3.197300E+01
376	  0.095150299	-8.036000E+00	  0.095150299	9.521400E+01	  0.095150299	3.428400E+01	  0.095150299	3.211600E+01
377	  0.095350705	-8.066000E+00	  0.095350705	9.469700E+01	  0.095350705	3.456400E+01	  0.095350705	3.225200E+01
378	  0.095551103	-8.092000E+00	  0.095551103	9.420100E+01	  0.095551103	3.482900E+01	  0.095551103	3.238700E+01
379	  0.095751502	-8.119000E+00	  0.095751502	9.371800E+01	  0.095751502	3.509300E+01	  0.095751502	3.251300E+01
380	  0.095951907	-8.144000E+00	  0.095951907	9.324500E+01	  0.095951907	3.534900E+01	  0.095951907	3.264000E+01
381	  0.096152306	-8.175000E+00	  0.096152306	9.278800E+01	  0.096152306	3.561600E+01	  0.096152306	3.274000E+01
382	  0.096352704	-8.199000E+00	  0.096352704	9.232900E+01	  0.096352704	3.586700E+01	  0.096352704	3.286000E+01
383	  0.096553110	-8.226000E+00	  0.096553110	9.190400E+01	  0.096553110	3.611300E+01	  0.096553110	3.295700E+01
384	  0.096753508	-8.251000E+00	  0.096753508	9.142200E+01	  0.096753508	3.638000E+01	  0.096753508	3.308000E+01
385	  0.096953906	-8.282000E+00	  0.096953906	9.098900E+01	  0.096953906	3.664500E+01	  0.096953906	3.316300E+01
386	  0.097154312	-8.305000E+00	  0.097154312	9.052200E+01	  0.097154312	3.690200E+01	  0.097154312	3.328400E+01
387	  0.097354710	-8.329000E+00	  0.097354710	9.008600E+01	  0.097354710	3.715300E+01	  0.097354710	3.338500E+01
388	  0.097555116	-8.348000E+00	  0.097555116	8.963100E+01	  0.097555116	3.740000E+01	  0.097555116	3.350700E+01
389	  0.097755514	-8.373000E+00	  0.097755514	8.922300E+01	  0.097755514	3.764200E+01	  0.097755514	3.359400E+01
390	  0.097955912	-8.394000E+00	  0.097955912	8.877700E+01	  0.097955912	3.789300E+01	  0.097955912	3.370400E+01
391	  0.098156318	-8.417000E+00	  0.098156318	8.834600E+01	  0.098156318	3.814500E+01	  0.098156318	3.380000E+01
392	  0.098356716	-8.434000E+00	  0.098356716	8.790600E+01	  0.098356716	3.838600E+01	  0.098356716	3.391800E+01
393	  0.098557115	-8.451000E+00	  0.098557115	8.750900E+01	  0.098557115	3.861000E+01	  0.098557115	3.401700E+01
394	  0.098757520	-8.472000E+00	  0.098757520	8.710000E+01	  0.098757520	3.885100E+01	  0.098757520	3.410700E+01
395	  0.098957919	-8.485000E+00	  0.098957919	8.666700E+01	  0.098957919	3.908500E+01	  0.098957919	3.422900E+01
396	  0.099158317	-8.504000E+00	  0.099158317	8.625800E+01	  0.099158317	3.932200E+01	  0.099158317	3.432400E+01
397	  0.099358723	-8.518000E+00	  0.099358723	8.584500E+01	  0.099358723	3.955200E+01	  0.099358723	3.443400E+01
398	  0.099559121	-8.534000E+00	  0.099559121	8.543800E+01	  0.099559121	3.978700E+01	  0.099559121	3.453200E+01
399	  0.099759519	-8.554000E+00	  0.099759519	8.509200E+01	  0.099759519	4.000100E+01	  0.099759519	3.459600E+01
400	  0.099959925	-8.563000E+00	  0.099959925	8.468500E+01	  0.099959925	4.022100E+01	  0.099959925	3.471500E+01
401	  0.100160323	-8.580000E+00	  0.100160323	8.431900E+01	  0.100160323	4.044100E+01	  0.100160323	3.479300E+01
402	  0.100360721	-8.596000E+00	  0.100360721	8.388800E+01	  0.100360721	4.069100E+01	  0.100360721	3.489700E+01
403	  0.100561127	-8.602000E+00	  0.100561127	8.346800E+01	  0.100561127	4.091400E+01	  0.100561127	3.502900E+01
404	  0.100761525	-8.610000E+00	  0.100761525	8.307500E+01	  0.100761525	4.113000E+01	  0.100761525	3.514400E+01
405	  0.100961931	-8.630000E+00	  0.100961931	8.266100E+01	  0.100961931	4.138600E+01	  0.100961931	3.522500E+01
406	  0.101162329	-8.635000E+00	  0.101162329	8.224100E+01	  0.101162329	4.161400E+01	  0.101162329	3.535400E+01
407	  0.101362728	-8.646000E+00	  0.101362728	8.186700E+01	  0.101362728	4.183100E+01	  0.101362728	3.544900E+01
408	  0.101563133	-8.659000E+00	  0.101563133	8.144800E+01	  0.101563133	4.207900E+01	  0.101563133	3.555000E+01
409	  0.101763532	-8.658000E+00	  0.101763532	8.103600E+01	  0.101763532	4.229400E+01	  0.101763532	3.569500E+01
410	  0.101963930	-8.659000E+00	  0.101963930	8.062400E+01	  0.101963930	4.251500E+01	  0.101963930	3.583400E+01
411	  0.102164336	-8.671000E+00	  0.102164336	8.017500E+01	  0.102164336	4.278200E+01	  0.102164336	3.594600E+01
412	  0.102364734	-8.674000E+00	  0.102364734	7.976100E+01	  0.102364734	4.301000E+01	  0.102364734	3.607900E+01
413	  0.102565132	-8.678000E+00	  0.102565132	7.933100E+01	  0.102565132	4.325400E+01	  0.102565132	3.621000E+01
414	  0.102765530	-8.686000E+00	  0.102765530	7.892000E+01	  0.102765530	4.349700E+01	  0.102765530	3.632000E+01
415	  0.102965929	-8.688000E+00	  0.102965929	7.853800E+01	  0.102965929	4.371300E+01	  0.102965929	3.644100E+01
416	  0.103166327	-8.684000E+00	  0.103166327	7.811300E+01	  0.103166327	4.394200E+01	  0.103166327	3.659800E+01
417	  0.103366733	-8.693000E+00	  0.103366733	7.771000E+01	  0.103366733	4.418900E+01	  0.103366733	3.669800E+01
418	  0.103567131	-8.693000E+00	  0.103567131	7.727600E+01	  0.103567131	4.443500E+01	  0.103567131	3.684000E+01
419	  0.103767529	-8.694000E+00	  0.103767529	7.685000E+01	  0.103767529	4.468300E+01	  0.103767529	3.697600E+01
420	  0.103967935	-8.697000E+00	  0.103967935	7.639900E+01	  0.103967935	4.495100E+01	  0.103967935	3.711000E+01
421	  0.104168333	-8.693000E+00	  0.104168333	7.590400E+01	  0.104168333	4.523200E+01	  0.104168333	3.728600E+01
422	  0.104368731	-8.695000E+00	  0.104368731	7.550100E+01	  0.104368731	4.547400E+01	  0.104368731	3.740900E+01
423	  0.104569137	-8.695000E+00	  0.104569137	7.511500E+01	  0.104569137	4.570400E+01	  0.104569137	3.753100E+01
424	  0.104769535	-8.702000E+00	  0.104769535	7.463500E+01	  0.104769535	4.600800E+01	  0.104769535	3.765500E+01
425	  0.104969934	-8.697000E+00	  0.104969934	7.422900E+01	  0.104969934	4.624400E+01	  0.104969934	3.780300E+01
426	  0.105170339	-8.702000E+00	  0.105170339	7.375100E+01	  0.105170339	4.654800E+01	  0.105170339	3.793000E+01
427	  0.105370738	-8.697000E+00	  0.105370738	7.326500E+01	  0.105370738	4.683800E+01	  0.105370738	3.810100E+01
428	  0.105571143	-8.693000E+00	  0.105571143	7.282000E+01	  0.105571143	4.710800E+01	  0.105571143	3.825500E+01
429	  0.105771542	-8.691000E+00	  0.105771542	7.235300E+01	  0.105771542	4.739900E+01	  0.105771542	3.840500E+01
430	  0.105971940	-8.691000E+00	  0.105971940	7.186700E+01	  0.105971940	4.771100E+01	  0.105971940	3.854800E+01
431	  0.106172346	-8.690000E+00	  0.106172346	7.138900E+01	  0.106172346	4.801700E+01	  0.106172346	3.869500E+01
432	  0.106372744	-8.694000E+00	  0.106372744	7.091300E+01	  0.106372744	4.833500E+01	  0.106372744	3.881800E+01
433	  0.106573142	-8.693000E+00	  0.106573142	7.045900E+01	  0.106573142	4.863200E+01	  0.106573142	3.895400E+01
434	  0.106773548	-8.690000E+00	  0.106773548	6.997600E+01	  0.106773548	4.894700E+01	  0.106773548	3.910500E+01
435	  0.106973946	-8.694000E+00	  0.106973946	6.950900E+01	  0.106973946	4.926800E+01	  0.106973946	3.922100E+01
436	  0.107174344	-8.690000E+00	  0.107174344	6.903400E+01	  0.107174344	4.958200E+01	  0.107174344	3.937200E+01
437	  0.107374750	-8.686000E+00	  0.107374750	6.854200E+01	  0.107374750	4.991300E+01	  0.107374750	3.952400E+01
438	  0.107575148	-8.683000E+00	  0.107575148	6.804100E+01	  0.107575148	5.025400E+01	  0.107575148	3.967500E+01
439	  0.107775547	-8.681000E+00	  0.107775547	6.756100E+01	  0.107775547	5.058700E+01	  0.107775547	3.981200E+01
440	  0.107975952	-8.678000E+00	  0.107975952	6.701800E+01	  0.107975952	5.096400E+01	  0.107975952	3.997100E+01
441	  0.108176351	-8.678000E+00	  0.108176351	6.656800E+01	  0.108176351	5.128600E+01	  0.108176351	4.008800E+01
442	  0.108376749	-8.674000E+00	  0.108376749	6.598800E+01	  0.108376749	5.169900E+01	  0.108376749	4.025200E+01
443	  0.108577155	-8.672000E+00	  0.108577155	6.554200E+01	  0.108577155	5.202100E+01	  0.108577155	4.037400E+01
444	  0.108777553	-8.674000E+00	  0.108777553	6.499800E+01	  0.108777553	5.242500E+01	  0.108777553	4.049900E+01
445	  0.108977959	-8.677000E+00	  0.108977959	6.445000E+01	  0.108977959	5.283800E+01	  0.108977959	4.061600E+01
446	  0.109178357	-8.664000E+00	  0.109178357	6.389600E+01	  0.109178357	5.323600E+01	  0.109178357	4.081000E+01
447	  0.109378755	-8.657000E+00	  0.109378755	6.334500E+01	  0.109378755	5.364500E+01	  0.109378755	4.097400E+01
448	  0.109579161	-8.657000E+00	  0.109579161	6.280600E+01	  0.109579161	5.406000E+01	  0.109579161	4.109500E+01
449	  0.109779559	-8.642000E+00	  0.109779559	6.220000E+01	  0.109779559	5.451300E+01	  0.109779559	4.130100E+01
450	  0.109979957	-8.646000E+00	  0.109979957	6.163800E+01	  0.109979957	5.496200E+01	  0.109979957	4.140200E+01
451	  0.110180363	-8.637000E+00	  0.110180363	6.105100E+01	  0.110180363	5.542000E+01	  0.110180363	4.156800E+01
452	  0.110380761	-8.637000E+00	  0.110380761	6.048700E+01	  0.110380761	5.587600E+01	  0.110380761	4.167800E+01
453	  0.110581160	-8.631000E+00	  0.110581160	5.986300E+01	  0.110581160	5.637800E+01	  0.110581160	4.183400E+01
454	  0.110781565	-8.622000E+00	  0.110781565	5.929700E+01	  0.110781565	5.683600E+01	  0.110781565	4.198700E+01
455	  0.110981964	-8.626000E+00	  0.110981964	5.865400E+01	  0.110981964	5.738000E+01	  0.110981964	4.207400E+01
456	  0.111182362	-8.616000E+00	  0.111182362	5.806100E+01	  0.111182362	5.787200E+01	  0.111182362	4.222800E+01
457	  0.111382768	-8.613000E+00	  0.111382768	5.742200E+01	  0.111382768	5.841600E+01	  0.111382768	4.235100E+01
458	  0.111583166	-8.608000E+00	  0.111583166	5.682900E+01	  0.111583166	5.892700E+01	  0.111583166	4.246400E+01
459	  0.111783572	-8.605000E+00	  0.111783572	5.620000E+01	  0.111783572	5.947600E+01	  0.111783572	4.257400E+01
460	  0.111983970	-8.601000E+00	  0.111983970	5.552400E+01	  0.111983970	6.007500E+01	  0.111983970	4.268100E+01
461	  0.112184368	-8.597000E+00	  0.112184368	5.480600E+01	  0.112184368	6.071800E+01	  0.112184368	4.279200E+01
462	  0.112384774	-8.599000E+00	  0.112384774	5.415400E+01	  0.112384774	6.131400E+01	  0.112384774	4.285200E+01
463	  0.112585172	-8.594000E+00	  0.112585172	5.347900E+01	  0.112585172	6.193400E+01	  0.112585172	4.294500E+01
464	  0.112785570	-8.592000E+00	  0.112785570	5.282800E+01	  0.112785570	6.254100E+01	  0.112785570	4.300700E+01
465	  0.112985976	-8.596000E+00	  0.112985976	5.212000E+01	  0.112985976	6.321100E+01	  0.112985976	4.303300E+01
466	  0.113186374	-8.593000E+00	  0.113186374	5.144100E+01	  0.113186374	6.385800E+01	  0.113186374	4.309000E+01
467	  0.113386773	-8.601000E+00	  0.113386773	5.069200E+01	  0.113386773	6.458400E+01	  0.113386773	4.306800E+01
468	  0.113587178	-8.603000E+00	  0.113587178	5.003600E+01	  0.113587178	6.522500E+01	  0.113587178	4.307600E+01
469	  0.113787577	-8.600000E+00	  0.113787577	4.931400E+01	  0.113787577	6.593700E+01	  0.113787577	4.309900E+01
470	  0.113987975	-8.613000E+00	  0.113987975	4.853900E+01	  0.113987975	6.670800E+01	  0.113987975	4.300600E+01
471	  0.114188381	-8.614000E+00	  0.114188381	4.781000E+01	  0.114188381	6.744200E+01	  0.114188381	4.298500E+01
472	  0.114388779	-8.621000E+00	  0.114388779	4.705700E+01	  0.114388779	6.820600E+01	  0.114388779	4.290300E+01
473	  0.114589177	-8.628000E+00	  0.114589177	4.628700E+01	  0.114589177	6.899300E+01	  0.114589177	4.280600E+01
474	  0.114789583	-8.641000E+00	  0.114789583	4.552300E+01	  0.114789583	6.977600E+01	  0.114789583	4.265000E+01
475	  0.114989981	-8.651000E+00	  0.114989981	4.476500E+01	  0.114989981	7.055900E+01	  0.114989981	4.250100E+01
476	  0.115190387	-8.663000E+00	  0.115190387	4.395400E+01	  0.115190387	7.140200E+01	  0.115190387	4.231400E+01
477	  0.115390785	-8.683000E+00	  0.115390785	4.311500E+01	  0.115390785	7.226800E+01	  0.115390785	4.204200E+01
478	  0.115591183	-8.699000E+00	  0.115591183	4.230900E+01	  0.115591183	7.310700E+01	  0.115591183	4.179000E+01
479	  0.115791589	-8.718000E+00	  0.115791589	4.146000E+01	  0.115791589	7.398900E+01	  0.115791589	4.148000E+01
480	  0.115991987	-8.737000E+00	  0.115991987	4.063300E+01	  0.115991987	7.484700E+01	  0.115991987	4.115300E+01
481	  0.116192386	-8.756000E+00	  0.116192386	3.978200E+01	  0.116192386	7.573100E+01	  0.116192386	4.079800E+01
482	  0.116392791	-8.781000E+00	  0.116392791	3.888300E+01	  0.116392791	7.665400E+01	  0.116392791	4.035900E+01
483	  0.116593190	-8.802000E+00	  0.116593190	3.801300E+01	  0.116593190	7.754900E+01	  0.116593190	3.992800E+01
484	  0.116793588	-8.833000E+00	  0.116793588	3.711000E+01	  0.116793588	7.845400E+01	  0.116793588	3.939600E+01
485	  0.116993994	-8.861000E+00	  0.116993994	3.614400E+01	  0.116993994	7.942400E+01	  0.116993994	3.882500E+01
486	  0.117194392	-8.896000E+00	  0.117194392	3.522900E+01	  0.117194392	8.030900E+01	  0.117194392	3.819100E+01
487	  0.117394790	-8.928000E+00	  0.117394790	3.428000E+01	  0.117394790	8.122700E+01	  0.117394790	3.754000E+01
488	  0.117595196	-8.972000E+00	  0.117595196	3.331700E+01	  0.117595196	8.210700E+01	  0.117595196	3.676500E+01
489	  0.117795594	-9.009000E+00	  0.117795594	3.237900E+01	  0.117795594	8.296200E+01	  0.117795594	3.601700E+01
490	  0.117995992	-9.046000E+00	  0.117995992	3.135500E+01	  0.117995992	8.388500E+01	  0.117995992	3.519100E+01
491	  0.118196398	-9.102000E+00	  0.118196398	3.036800E+01	  0.118196398	8.467700E+01	  0.118196398	3.423300E+01
492	  0.118396796	-9.150000E+00	  0.118396796	2.932200E+01	  0.118396796	8.552500E+01	  0.118396796	3.325500E+01
493	  0.118597202	-9.200000E+00	  0.118597202	2.832000E+01	  0.118597202	8.629200E+01	  0.118597202	3.226700E+01
494	  0.118797600	-9.257000E+00	  0.118797600	2.723500E+01	  0.118797600	8.706800E+01	  0.118797600	3.114400E+01
495	  0.118997999	-9.318000E+00	  0.118997999	2.614500E+01	  0.118997999	8.778900E+01	  0.118997999	2.996900E+01
496	  0.119198404	-9.380000E+00	  0.119198404	2.506000E+01	  0.119198404	8.845500E+01	  0.119198404	2.876500E+01
497	  0.119398803	-9.443000E+00	  0.119398803	2.397900E+01	  0.119398803	8.906500E+01	  0.119398803	2.753700E+01
498	  0.119599201	-9.513000E+00	  0.119599201	2.284600E+01	  0.119599201	8.963100E+01	  0.119599201	2.620800E+01
499	  0.119799607	-9.588000E+00	  0.119799607	2.167500E+01	  0.119799607	9.014300E+01	  0.119799607	2.480600E+01
500	  0.120000005	-9.673000E+00	  0.120000005	2.049500E+01	  0.120000005	9.054400E+01	  0.120000005	2.333400E+01
