! Anritsu VNA Master:             	Model: MS2036C/10/77
! SN:             	1601066
! /bd0/18may8/255.ew.m1.txt
! Existing Calibration Information:
! TYPE:             	Current Settings	Active Cal Settings
! TIME:             	05/08/2018 10:01:09 AM	05/08/2018 09:57:41 AM
! INTERNAL TEMP:    	46.8 C	46.8 C
! # POINTS:         	500	500
! START FREQ:       	20.000 MHz	20.000 MHz
! STOP FREQ:        	120.000 MHz	120.000 MHz
! SOURCE POWER:     	High	High
! IFBW:             	50 Hz	50 Hz
! AVG FACTOR:       	  1 	  1 
! REF PLANE 1:      	0 mm	0 mm
! REF PLANE 2:      	0 mm	0 mm
! CAL TYPE:         	Full S11	Full S11
! CAL METHOD:       	SOLT	SOLT
! CAL LINE TYPE:    	Coax	Coax
! DUT PORT 1:       	K-Conn(F)	K-Conn(F)
! DUT PORT 2:       	K-Conn(F)	K-Conn(F)
! CAL STATUS:       	OK: Accuracy High	--
! PROP-V:       	0.700
! CABLE LOSS:       	0.000 dB/m
! REF IMPEDANCE:       	50.0
! Trace Specific Parameters:	TR1	TR2	TR3	TR4
! TRACE.#.Y (GRAPH TYPE)	LOG MAG	PHASE	REAL IMPEDANCE	IMAGINARY IMPEDANCE
! TRACE.#.X 	FREQ.GHZ	FREQ.GHZ	FREQ.GHZ	FREQ.GHZ
! S-PARAMETER	S11	S11	S11	S11
! SMOOTH/APERTURE %	0	0	0	0
! WINDOW	NSL	NSL	NSL	NSL
! GATING	OFF	OFF	OFF	OFF
! FGTD	OFF	OFF	OFF	OFF
Marker Information per Trace:	TR1	TR2	TR3	TR4
!MK1	--	"MK1 TR2:  20.000 MHz,PH:-124.32°"	--	--
!MK2	--	--	"MK2 TR3:  70.100 200 MHz,Z:(16.697 ohm, -3.224 ohm)"	--
!MK3	--	--	--	--
!MK4	--	--	--	--
!MK5	--	--	--	--
!MK6	--	--	--	--
!MK7	--	--	--	--
!MK8	--	--	--	--
PNT	TR1.FREQ.GHZ	TR1.LOG MAG.dB	TR2.FREQ.GHZ	TR2.PHASE.deg	TR3.FREQ.GHZ	TR3.REAL IMPEDANCE.ohm	TR4.FREQ.GHZ	TR4.IMAGINARY IMPEDANCE.ohm
1	  0.020000000	-8.870000E-01	  0.020000000	-1.243170E+02	  0.020000000	3.260000E+00	  0.020000000	-2.632000E+01
2	  0.020200402	-8.910000E-01	  0.020200402	-1.257350E+02	  0.020200402	3.235000E+00	  0.020200402	-2.553700E+01
3	  0.020400802	-9.000000E-01	  0.020400802	-1.271570E+02	  0.020400802	3.228000E+00	  0.020400802	-2.476000E+01
4	  0.020601204	-9.050000E-01	  0.020601204	-1.285810E+02	  0.020601204	3.206000E+00	  0.020601204	-2.399200E+01
5	  0.020801604	-9.160000E-01	  0.020801604	-1.300600E+02	  0.020801604	3.204000E+00	  0.020801604	-2.320400E+01
6	  0.021002004	-9.290000E-01	  0.021002004	-1.315380E+02	  0.021002004	3.211000E+00	  0.021002004	-2.242600E+01
7	  0.021202406	-9.410000E-01	  0.021202406	-1.330230E+02	  0.021202406	3.216000E+00	  0.021202406	-2.165200E+01
8	  0.021402806	-9.510000E-01	  0.021402806	-1.345230E+02	  0.021402806	3.215000E+00	  0.021402806	-2.088000E+01
9	  0.021603208	-9.610000E-01	  0.021603208	-1.360090E+02	  0.021603208	3.213000E+00	  0.021603208	-2.012400E+01
10	  0.021803608	-9.730000E-01	  0.021803608	-1.375160E+02	  0.021803608	3.219000E+00	  0.021803608	-1.936500E+01
11	  0.022004008	-9.830000E-01	  0.022004008	-1.390060E+02	  0.022004008	3.220000E+00	  0.022004008	-1.862300E+01
12	  0.022204408	-9.980000E-01	  0.022204408	-1.405070E+02	  0.022204408	3.237000E+00	  0.022204408	-1.788100E+01
13	  0.022404809	-1.009000E+00	  0.022404809	-1.420350E+02	  0.022404809	3.243000E+00	  0.022404809	-1.713400E+01
14	  0.022605211	-1.017000E+00	  0.022605211	-1.435880E+02	  0.022605211	3.241000E+00	  0.022605211	-1.638200E+01
15	  0.022805611	-1.026000E+00	  0.022805611	-1.451390E+02	  0.022805611	3.240000E+00	  0.022805611	-1.563700E+01
16	  0.023006011	-1.036000E+00	  0.023006011	-1.466800E+02	  0.023006011	3.245000E+00	  0.023006011	-1.490400E+01
17	  0.023206413	-1.046000E+00	  0.023206413	-1.482070E+02	  0.023206413	3.250000E+00	  0.023206413	-1.418300E+01
18	  0.023406813	-1.052000E+00	  0.023406813	-1.497490E+02	  0.023406813	3.246000E+00	  0.023406813	-1.346100E+01
19	  0.023607215	-1.061000E+00	  0.023607215	-1.512850E+02	  0.023607215	3.251000E+00	  0.023607215	-1.274700E+01
20	  0.023807615	-1.072000E+00	  0.023807615	-1.528270E+02	  0.023807615	3.261000E+00	  0.023807615	-1.203400E+01
21	  0.024008015	-1.087000E+00	  0.024008015	-1.544010E+02	  0.024008015	3.285000E+00	  0.024008015	-1.131200E+01
22	  0.024208417	-1.099000E+00	  0.024208417	-1.559890E+02	  0.024208417	3.303000E+00	  0.024208417	-1.058800E+01
23	  0.024408817	-1.113000E+00	  0.024408817	-1.575800E+02	  0.024408817	3.326000E+00	  0.024408817	-9.866000E+00
24	  0.024609219	-1.126000E+00	  0.024609219	-1.591790E+02	  0.024609219	3.345000E+00	  0.024609219	-9.146000E+00
25	  0.024809619	-1.139000E+00	  0.024809619	-1.607870E+02	  0.024809619	3.367000E+00	  0.024809619	-8.425000E+00
26	  0.025010020	-1.152000E+00	  0.025010020	-1.623840E+02	  0.025010020	3.392000E+00	  0.025010020	-7.712000E+00
27	  0.025210422	-1.168000E+00	  0.025210422	-1.639970E+02	  0.025210422	3.425000E+00	  0.025210422	-6.996000E+00
28	  0.025410822	-1.186000E+00	  0.025410822	-1.656350E+02	  0.025410822	3.463000E+00	  0.025410822	-6.271000E+00
29	  0.025611224	-1.205000E+00	  0.025611224	-1.672940E+02	  0.025611224	3.505000E+00	  0.025611224	-5.539000E+00
30	  0.025811624	-1.220000E+00	  0.025811624	-1.689650E+02	  0.025811624	3.539000E+00	  0.025811624	-4.805000E+00
31	  0.026012026	-1.234000E+00	  0.026012026	-1.706560E+02	  0.026012026	3.570000E+00	  0.026012026	-4.065000E+00
32	  0.026212426	-1.248000E+00	  0.026212426	-1.723430E+02	  0.026212426	3.603000E+00	  0.026212426	-3.328000E+00
33	  0.026412826	-1.265000E+00	  0.026412826	-1.740250E+02	  0.026412826	3.644000E+00	  0.026412826	-2.595000E+00
34	  0.026613226	-1.282000E+00	  0.026613226	-1.757340E+02	  0.026613226	3.690000E+00	  0.026613226	-1.851000E+00
35	  0.026813626	-1.302000E+00	  0.026813626	-1.774530E+02	  0.026813626	3.744000E+00	  0.026813626	-1.105000E+00
36	  0.027014028	-1.321000E+00	  0.027014028	-1.791780E+02	  0.027014028	3.797000E+00	  0.027014028	-3.560000E-01
37	  0.027214428	-1.343000E+00	  0.027214428	1.790810E+02	  0.027214428	3.859000E+00	  0.027214428	3.980000E-01
38	  0.027414829	-1.364000E+00	  0.027414829	1.773170E+02	  0.027414829	3.920000E+00	  0.027414829	1.163000E+00
39	  0.027615231	-1.384000E+00	  0.027615231	1.755630E+02	  0.027615231	3.982000E+00	  0.027615231	1.924000E+00
40	  0.027815631	-1.409000E+00	  0.027815631	1.737880E+02	  0.027815631	4.058000E+00	  0.027815631	2.695000E+00
41	  0.028016033	-1.434000E+00	  0.028016033	1.719880E+02	  0.028016033	4.140000E+00	  0.028016033	3.477000E+00
42	  0.028216433	-1.462000E+00	  0.028216433	1.701960E+02	  0.028216433	4.229000E+00	  0.028216433	4.257000E+00
43	  0.028416833	-1.488000E+00	  0.028416833	1.683970E+02	  0.028416833	4.316000E+00	  0.028416833	5.042000E+00
44	  0.028617235	-1.512000E+00	  0.028617235	1.666040E+02	  0.028617235	4.402000E+00	  0.028617235	5.826000E+00
45	  0.028817635	-1.537000E+00	  0.028817635	1.648050E+02	  0.028817635	4.491000E+00	  0.028817635	6.616000E+00
46	  0.029018037	-1.563000E+00	  0.029018037	1.630140E+02	  0.029018037	4.586000E+00	  0.029018037	7.404000E+00
47	  0.029218437	-1.588000E+00	  0.029218437	1.612170E+02	  0.029218437	4.683000E+00	  0.029218437	8.199000E+00
48	  0.029418837	-1.617000E+00	  0.029418837	1.594260E+02	  0.029418837	4.793000E+00	  0.029418837	8.993000E+00
49	  0.029619239	-1.647000E+00	  0.029619239	1.576120E+02	  0.029619239	4.911000E+00	  0.029619239	9.802000E+00
50	  0.029819639	-1.680000E+00	  0.029819639	1.557800E+02	  0.029819639	5.040000E+00	  0.029819639	1.062300E+01
51	  0.030020041	-1.714000E+00	  0.030020041	1.539220E+02	  0.030020041	5.180000E+00	  0.030020041	1.146100E+01
52	  0.030220442	-1.748000E+00	  0.030220442	1.520390E+02	  0.030220442	5.321000E+00	  0.030220442	1.231500E+01
53	  0.030420844	-1.780000E+00	  0.030420844	1.501540E+02	  0.030420844	5.466000E+00	  0.030420844	1.317600E+01
54	  0.030621244	-1.815000E+00	  0.030621244	1.482810E+02	  0.030621244	5.620000E+00	  0.030621244	1.403800E+01
55	  0.030821644	-1.851000E+00	  0.030821644	1.464170E+02	  0.030821644	5.785000E+00	  0.030821644	1.490200E+01
56	  0.031022044	-1.888000E+00	  0.031022044	1.445240E+02	  0.031022044	5.961000E+00	  0.031022044	1.578700E+01
57	  0.031222444	-1.922000E+00	  0.031222444	1.426470E+02	  0.031222444	6.132000E+00	  0.031222444	1.667200E+01
58	  0.031422846	-1.963000E+00	  0.031422846	1.406920E+02	  0.031422846	6.334000E+00	  0.031422846	1.760200E+01
59	  0.031623244	-2.003000E+00	  0.031623244	1.387420E+02	  0.031623244	6.543000E+00	  0.031623244	1.853900E+01
60	  0.031823646	-2.040000E+00	  0.031823646	1.367770E+02	  0.031823646	6.749000E+00	  0.031823646	1.949400E+01
61	  0.032024048	-2.075000E+00	  0.032024048	1.348110E+02	  0.032024048	6.957000E+00	  0.032024048	2.046200E+01
62	  0.032224450	-2.112000E+00	  0.032224450	1.328490E+02	  0.032224450	7.181000E+00	  0.032224450	2.143900E+01
63	  0.032424849	-2.149000E+00	  0.032424849	1.308880E+02	  0.032424849	7.416000E+00	  0.032424849	2.242700E+01
64	  0.032625251	-2.186000E+00	  0.032625251	1.289180E+02	  0.032625251	7.660000E+00	  0.032625251	2.343300E+01
65	  0.032825653	-2.225000E+00	  0.032825653	1.269700E+02	  0.032825653	7.923000E+00	  0.032825653	2.444100E+01
66	  0.033026051	-2.268000E+00	  0.033026051	1.250080E+02	  0.033026051	8.214000E+00	  0.033026051	2.546800E+01
67	  0.033226453	-2.314000E+00	  0.033226453	1.230380E+02	  0.033226453	8.528000E+00	  0.033226453	2.651300E+01
68	  0.033426855	-2.362000E+00	  0.033426855	1.210910E+02	  0.033426855	8.863000E+00	  0.033426855	2.755900E+01
69	  0.033627257	-2.417000E+00	  0.033627257	1.190840E+02	  0.033627257	9.242000E+00	  0.033627257	2.865100E+01
70	  0.033827655	-2.470000E+00	  0.033827655	1.170470E+02	  0.033827655	9.638000E+00	  0.033827655	2.977700E+01
71	  0.034028057	-2.521000E+00	  0.034028057	1.149860E+02	  0.034028057	1.004600E+01	  0.034028057	3.093900E+01
72	  0.034228459	-2.572000E+00	  0.034228459	1.128910E+02	  0.034228459	1.048500E+01	  0.034228459	3.213900E+01
73	  0.034428857	-2.620000E+00	  0.034428857	1.107710E+02	  0.034428857	1.093400E+01	  0.034428857	3.338000E+01
74	  0.034629259	-2.669000E+00	  0.034629259	1.086540E+02	  0.034629259	1.141600E+01	  0.034629259	3.464200E+01
75	  0.034829661	-2.713000E+00	  0.034829661	1.065360E+02	  0.034829661	1.190000E+01	  0.034829661	3.593600E+01
76	  0.035030060	-2.757000E+00	  0.035030060	1.044280E+02	  0.035030060	1.241800E+01	  0.035030060	3.724800E+01
77	  0.035230462	-2.802000E+00	  0.035230462	1.023420E+02	  0.035230462	1.296200E+01	  0.035230462	3.857400E+01
78	  0.035430863	-2.843000E+00	  0.035430863	1.002650E+02	  0.035430863	1.352100E+01	  0.035430863	3.992500E+01
79	  0.035631265	-2.884000E+00	  0.035631265	9.818300E+01	  0.035631265	1.411400E+01	  0.035631265	4.131200E+01
80	  0.035831664	-2.927000E+00	  0.035831664	9.612000E+01	  0.035831664	1.475500E+01	  0.035831664	4.271100E+01
81	  0.036032066	-2.968000E+00	  0.036032066	9.406900E+01	  0.036032066	1.541900E+01	  0.036032066	4.413800E+01
82	  0.036232468	-3.012000E+00	  0.036232468	9.202300E+01	  0.036232468	1.614000E+01	  0.036232468	4.558900E+01
83	  0.036432866	-3.056000E+00	  0.036432866	9.000200E+01	  0.036432866	1.690400E+01	  0.036432866	4.705300E+01
84	  0.036633268	-3.102000E+00	  0.036633268	8.797800E+01	  0.036633268	1.772600E+01	  0.036633268	4.855000E+01
85	  0.036833670	-3.151000E+00	  0.036833670	8.594500E+01	  0.036833670	1.861900E+01	  0.036833670	5.008300E+01
86	  0.037034072	-3.199000E+00	  0.037034072	8.387500E+01	  0.037034072	1.958200E+01	  0.037034072	5.168200E+01
87	  0.037234470	-3.246000E+00	  0.037234470	8.177600E+01	  0.037234470	2.062000E+01	  0.037234470	5.334500E+01
88	  0.037434869	-3.289000E+00	  0.037434869	7.962100E+01	  0.037434869	2.172700E+01	  0.037434869	5.511000E+01
89	  0.037635271	-3.332000E+00	  0.037635271	7.737000E+01	  0.037635271	2.296700E+01	  0.037635271	5.700600E+01
90	  0.037835669	-3.381000E+00	  0.037835669	7.502500E+01	  0.037835669	2.439300E+01	  0.037835669	5.902200E+01
91	  0.038036071	-3.444000E+00	  0.038036071	7.262200E+01	  0.038036071	2.605800E+01	  0.038036071	6.109800E+01
92	  0.038236473	-3.525000E+00	  0.038236473	7.027100E+01	  0.038236473	2.795700E+01	  0.038236473	6.309500E+01
93	  0.038436871	-3.607000E+00	  0.038436871	6.799800E+01	  0.038436871	2.997500E+01	  0.038436871	6.503100E+01
94	  0.038637273	-3.683000E+00	  0.038637273	6.582900E+01	  0.038637273	3.203900E+01	  0.038637273	6.690300E+01
95	  0.038837675	-3.748000E+00	  0.038837675	6.373100E+01	  0.038837675	3.413200E+01	  0.038837675	6.876700E+01
96	  0.039038073	-3.807000E+00	  0.039038073	6.168300E+01	  0.039038073	3.630000E+01	  0.039038073	7.062200E+01
97	  0.039238475	-3.861000E+00	  0.039238475	5.963300E+01	  0.039238475	3.860300E+01	  0.039238475	7.251600E+01
98	  0.039438877	-3.917000E+00	  0.039438877	5.761800E+01	  0.039438877	4.107200E+01	  0.039438877	7.435200E+01
99	  0.039639279	-3.970000E+00	  0.039639279	5.558600E+01	  0.039639279	4.372200E+01	  0.039639279	7.622300E+01
100	  0.039839678	-4.029000E+00	  0.039839678	5.353700E+01	  0.039839678	4.665300E+01	  0.039839678	7.804000E+01
101	  0.040040080	-4.089000E+00	  0.040040080	5.147800E+01	  0.040040080	4.982500E+01	  0.040040080	7.982200E+01
102	  0.040240481	-4.150000E+00	  0.040240481	4.939400E+01	  0.040240481	5.329700E+01	  0.040240481	8.154900E+01
103	  0.040440880	-4.208000E+00	  0.040440880	4.728100E+01	  0.040440880	5.707400E+01	  0.040440880	8.323800E+01
104	  0.040641282	-4.268000E+00	  0.040641282	4.517500E+01	  0.040641282	6.114300E+01	  0.040641282	8.478100E+01
105	  0.040841684	-4.323000E+00	  0.040841684	4.306200E+01	  0.040841684	6.550100E+01	  0.040841684	8.624300E+01
106	  0.041042086	-4.379000E+00	  0.041042086	4.097300E+01	  0.041042086	7.014300E+01	  0.041042086	8.747700E+01
107	  0.041242484	-4.432000E+00	  0.041242484	3.884200E+01	  0.041242484	7.521000E+01	  0.041242484	8.853200E+01
108	  0.041442886	-4.485000E+00	  0.041442886	3.672500E+01	  0.041442886	8.059300E+01	  0.041442886	8.929200E+01
109	  0.041643288	-4.536000E+00	  0.041643288	3.461200E+01	  0.041643288	8.631100E+01	  0.041643288	8.973300E+01
110	  0.041843686	-4.584000E+00	  0.041843686	3.247000E+01	  0.041843686	9.245200E+01	  0.041843686	8.981200E+01
111	  0.042044088	-4.630000E+00	  0.042044088	3.040300E+01	  0.042044088	9.870700E+01	  0.042044088	8.940300E+01
112	  0.042244490	-4.674000E+00	  0.042244490	2.829700E+01	  0.042244490	1.053850E+02	  0.042244490	8.849700E+01
113	  0.042444889	-4.723000E+00	  0.042444889	2.625100E+01	  0.042444889	1.121030E+02	  0.042444889	8.682900E+01
114	  0.042645290	-4.768000E+00	  0.042645290	2.418400E+01	  0.042645290	1.190700E+02	  0.042645290	8.454600E+01
115	  0.042845692	-4.810000E+00	  0.042845692	2.213600E+01	  0.042845692	1.260780E+02	  0.042845692	8.155000E+01
116	  0.043046094	-4.855000E+00	  0.043046094	2.009800E+01	  0.043046094	1.330050E+02	  0.043046094	7.764600E+01
117	  0.043246493	-4.898000E+00	  0.043246493	1.804100E+01	  0.043246493	1.398710E+02	  0.043246493	7.288000E+01
118	  0.043446895	-4.941000E+00	  0.043446895	1.601200E+01	  0.043446895	1.463400E+02	  0.043446895	6.726900E+01
119	  0.043647297	-4.985000E+00	  0.043647297	1.397700E+01	  0.043647297	1.523420E+02	  0.043647297	6.072300E+01
120	  0.043847695	-5.026000E+00	  0.043847695	1.195100E+01	  0.043847695	1.577310E+02	  0.043847695	5.340900E+01
121	  0.044048097	-5.070000E+00	  0.044048097	9.946000E+00	  0.044048097	1.622260E+02	  0.044048097	4.537600E+01
122	  0.044248499	-5.110000E+00	  0.044248499	7.925000E+00	  0.044248499	1.659340E+02	  0.044248499	3.672800E+01
123	  0.044448901	-5.153000E+00	  0.044448901	5.926000E+00	  0.044448901	1.684950E+02	  0.044448901	2.766900E+01
124	  0.044649299	-5.192000E+00	  0.044649299	3.943000E+00	  0.044649299	1.700390E+02	  0.044649299	1.844100E+01
125	  0.044849701	-5.232000E+00	  0.044849701	1.932000E+00	  0.044849701	1.704560E+02	  0.044849701	8.987000E+00
126	  0.045050103	-5.264000E+00	  0.045050103	-5.000000E-02	  0.045050103	1.699950E+02	  0.045050103	-2.340000E-01
127	  0.045250501	-5.297000E+00	  0.045250501	-2.034000E+00	  0.045250501	1.684720E+02	  0.045250501	-9.224000E+00
128	  0.045450903	-5.330000E+00	  0.045450903	-3.963000E+00	  0.045450903	1.659840E+02	  0.045450903	-1.756800E+01
129	  0.045651305	-5.363000E+00	  0.045651305	-5.923000E+00	  0.045651305	1.626450E+02	  0.045651305	-2.552800E+01
130	  0.045851704	-5.398000E+00	  0.045851704	-7.844000E+00	  0.045851704	1.586030E+02	  0.045851704	-3.268400E+01
131	  0.046052106	-5.429000E+00	  0.046052106	-9.799000E+00	  0.046052106	1.540090E+02	  0.046052106	-3.931900E+01
132	  0.046252504	-5.458000E+00	  0.046252504	-1.170800E+01	  0.046252504	1.491220E+02	  0.046252504	-4.512500E+01
133	  0.046452906	-5.492000E+00	  0.046452906	-1.361500E+01	  0.046452906	1.438280E+02	  0.046452906	-5.014000E+01
134	  0.046653304	-5.517000E+00	  0.046653304	-1.553200E+01	  0.046653304	1.384540E+02	  0.046653304	-5.462300E+01
135	  0.046853706	-5.543000E+00	  0.046853706	-1.744900E+01	  0.046853706	1.329280E+02	  0.046853706	-5.840800E+01
136	  0.047054108	-5.569000E+00	  0.047054108	-1.933000E+01	  0.047054108	1.274780E+02	  0.047054108	-6.150700E+01
137	  0.047254506	-5.590000E+00	  0.047254506	-2.121600E+01	  0.047254506	1.220950E+02	  0.047254506	-6.413100E+01
138	  0.047454908	-5.614000E+00	  0.047454908	-2.308000E+01	  0.047454908	1.168230E+02	  0.047454908	-6.615000E+01
139	  0.047655310	-5.635000E+00	  0.047655310	-2.493300E+01	  0.047655310	1.117240E+02	  0.047655310	-6.774100E+01
140	  0.047855709	-5.655000E+00	  0.047855709	-2.675400E+01	  0.047855709	1.068620E+02	  0.047855709	-6.890300E+01
141	  0.048056111	-5.679000E+00	  0.048056111	-2.856400E+01	  0.048056111	1.021900E+02	  0.048056111	-6.965600E+01
142	  0.048256513	-5.697000E+00	  0.048256513	-3.036000E+01	  0.048256513	9.775100E+01	  0.048256513	-7.017500E+01
143	  0.048456915	-5.722000E+00	  0.048456915	-3.214600E+01	  0.048456915	9.351500E+01	  0.048456915	-7.032600E+01
144	  0.048657313	-5.739000E+00	  0.048657313	-3.391900E+01	  0.048657313	8.951200E+01	  0.048657313	-7.035300E+01
145	  0.048857715	-5.756000E+00	  0.048857715	-3.571900E+01	  0.048857715	8.563900E+01	  0.048857715	-7.018300E+01
146	  0.049058117	-5.775000E+00	  0.049058117	-3.748600E+01	  0.049058117	8.202800E+01	  0.049058117	-6.982200E+01
147	  0.049258515	-5.788000E+00	  0.049258515	-3.925600E+01	  0.049258515	7.858900E+01	  0.049258515	-6.936700E+01
148	  0.049458917	-5.805000E+00	  0.049458917	-4.098400E+01	  0.049458917	7.540800E+01	  0.049458917	-6.876000E+01
149	  0.049659319	-5.823000E+00	  0.049659319	-4.272200E+01	  0.049659319	7.237800E+01	  0.049659319	-6.802800E+01
150	  0.049859721	-5.840000E+00	  0.049859721	-4.445500E+01	  0.049859721	6.951500E+01	  0.049859721	-6.722200E+01
151	  0.050060119	-5.854000E+00	  0.050060119	-4.618300E+01	  0.050060119	6.680500E+01	  0.050060119	-6.638000E+01
152	  0.050260521	-5.865000E+00	  0.050260521	-4.789100E+01	  0.050260521	6.426100E+01	  0.050260521	-6.551000E+01
153	  0.050460923	-5.878000E+00	  0.050460923	-4.961500E+01	  0.050460923	6.183700E+01	  0.050460923	-6.454900E+01
154	  0.050661322	-5.885000E+00	  0.050661322	-5.130900E+01	  0.050661322	5.956200E+01	  0.050661322	-6.362200E+01
155	  0.050861724	-5.892000E+00	  0.050861724	-5.297500E+01	  0.050861724	5.743800E+01	  0.050861724	-6.267100E+01
156	  0.051062126	-5.901000E+00	  0.051062126	-5.464100E+01	  0.051062126	5.542800E+01	  0.051062126	-6.167800E+01
157	  0.051262524	-5.905000E+00	  0.051262524	-5.627100E+01	  0.051262524	5.354600E+01	  0.051262524	-6.071500E+01
158	  0.051462926	-5.913000E+00	  0.051462926	-5.786700E+01	  0.051462926	5.181000E+01	  0.051462926	-5.972100E+01
159	  0.051663328	-5.917000E+00	  0.051663328	-5.945400E+01	  0.051663328	5.015400E+01	  0.051663328	-5.874700E+01
160	  0.051863730	-5.927000E+00	  0.051863730	-6.103700E+01	  0.051863730	4.860200E+01	  0.051863730	-5.773200E+01
161	  0.052064128	-5.939000E+00	  0.052064128	-6.259800E+01	  0.052064128	4.715900E+01	  0.052064128	-5.670600E+01
162	  0.052264530	-5.948000E+00	  0.052264530	-6.418200E+01	  0.052264530	4.575100E+01	  0.052264530	-5.568500E+01
163	  0.052464932	-5.955000E+00	  0.052464932	-6.573500E+01	  0.052464932	4.443100E+01	  0.052464932	-5.469100E+01
164	  0.052665330	-5.966000E+00	  0.052665330	-6.732000E+01	  0.052665330	4.316300E+01	  0.052665330	-5.365700E+01
165	  0.052865732	-5.977000E+00	  0.052865732	-6.888300E+01	  0.052865732	4.197100E+01	  0.052865732	-5.264400E+01
166	  0.053066134	-5.989000E+00	  0.053066134	-7.042500E+01	  0.053066134	4.086100E+01	  0.053066134	-5.163800E+01
167	  0.053266536	-5.990000E+00	  0.053266536	-7.200000E+01	  0.053266536	3.972900E+01	  0.053266536	-5.067600E+01
168	  0.053466935	-6.000000E+00	  0.053466935	-7.354900E+01	  0.053466935	3.870800E+01	  0.053466935	-4.968700E+01
169	  0.053667337	-6.001000E+00	  0.053667337	-7.508000E+01	  0.053667337	3.770500E+01	  0.053667337	-4.876000E+01
170	  0.053867739	-5.999000E+00	  0.053867739	-7.660600E+01	  0.053867739	3.674100E+01	  0.053867739	-4.784800E+01
171	  0.054068137	-6.002000E+00	  0.054068137	-7.809100E+01	  0.054068137	3.585800E+01	  0.054068137	-4.694900E+01
172	  0.054268539	-6.004000E+00	  0.054268539	-7.960400E+01	  0.054268539	3.500000E+01	  0.054268539	-4.603900E+01
173	  0.054468941	-6.006000E+00	  0.054468941	-8.105000E+01	  0.054468941	3.420800E+01	  0.054468941	-4.518000E+01
174	  0.054669339	-6.007000E+00	  0.054669339	-8.248400E+01	  0.054669339	3.345700E+01	  0.054669339	-4.433300E+01
175	  0.054869737	-6.012000E+00	  0.054869737	-8.390500E+01	  0.054869737	3.275300E+01	  0.054869737	-4.349200E+01
176	  0.055070139	-6.017000E+00	  0.055070139	-8.528400E+01	  0.055070139	3.209900E+01	  0.055070139	-4.268100E+01
177	  0.055270538	-6.020000E+00	  0.055270538	-8.668900E+01	  0.055270538	3.145000E+01	  0.055270538	-4.186800E+01
178	  0.055470940	-6.029000E+00	  0.055470940	-8.806900E+01	  0.055470940	3.086500E+01	  0.055470940	-4.105700E+01
179	  0.055671342	-6.030000E+00	  0.055671342	-8.947600E+01	  0.055671342	3.025900E+01	  0.055671342	-4.026400E+01
180	  0.055871744	-6.034000E+00	  0.055871744	-9.084200E+01	  0.055871744	2.970000E+01	  0.055871744	-3.949300E+01
181	  0.056072142	-6.040000E+00	  0.056072142	-9.222800E+01	  0.056072142	2.916700E+01	  0.056072142	-3.871100E+01
182	  0.056272544	-6.044000E+00	  0.056272544	-9.358500E+01	  0.056272544	2.865500E+01	  0.056272544	-3.796000E+01
183	  0.056472946	-6.044000E+00	  0.056472946	-9.496800E+01	  0.056472946	2.814200E+01	  0.056472946	-3.720900E+01
184	  0.056673344	-6.046000E+00	  0.056673344	-9.632700E+01	  0.056673344	2.766100E+01	  0.056673344	-3.647400E+01
185	  0.056873746	-6.047000E+00	  0.056873746	-9.767800E+01	  0.056873746	2.719500E+01	  0.056873746	-3.575300E+01
186	  0.057074148	-6.043000E+00	  0.057074148	-9.902600E+01	  0.057074148	2.673300E+01	  0.057074148	-3.505000E+01
187	  0.057274550	-6.041000E+00	  0.057274550	-1.003430E+02	  0.057274550	2.630200E+01	  0.057274550	-3.436400E+01
188	  0.057474948	-6.033000E+00	  0.057474948	-1.016560E+02	  0.057474948	2.587000E+01	  0.057474948	-3.369700E+01
189	  0.057675350	-6.026000E+00	  0.057675350	-1.029620E+02	  0.057675350	2.545500E+01	  0.057675350	-3.303800E+01
190	  0.057875752	-6.024000E+00	  0.057875752	-1.042300E+02	  0.057875752	2.508100E+01	  0.057875752	-3.239400E+01
191	  0.058076151	-6.018000E+00	  0.058076151	-1.055260E+02	  0.058076151	2.470100E+01	  0.058076151	-3.174600E+01
192	  0.058276553	-6.009000E+00	  0.058276553	-1.067680E+02	  0.058276553	2.433700E+01	  0.058276553	-3.113600E+01
193	  0.058476955	-6.007000E+00	  0.058476955	-1.080080E+02	  0.058476955	2.400700E+01	  0.058476955	-3.052000E+01
194	  0.058677353	-6.003000E+00	  0.058677353	-1.092560E+02	  0.058677353	2.368000E+01	  0.058677353	-2.990700E+01
195	  0.058877755	-5.996000E+00	  0.058877755	-1.105110E+02	  0.058877755	2.335400E+01	  0.058877755	-2.929900E+01
196	  0.059078157	-5.993000E+00	  0.059078157	-1.117430E+02	  0.059078157	2.305500E+01	  0.059078157	-2.870100E+01
197	  0.059278559	-5.987000E+00	  0.059278559	-1.129940E+02	  0.059278559	2.275200E+01	  0.059278559	-2.810200E+01
198	  0.059478957	-5.984000E+00	  0.059478957	-1.142570E+02	  0.059478957	2.246600E+01	  0.059478957	-2.749700E+01
199	  0.059679359	-5.982000E+00	  0.059679359	-1.155100E+02	  0.059679359	2.219100E+01	  0.059679359	-2.690200E+01
200	  0.059879761	-5.980000E+00	  0.059879761	-1.167400E+02	  0.059879761	2.193500E+01	  0.059879761	-2.631900E+01
201	  0.060080159	-5.972000E+00	  0.060080159	-1.179970E+02	  0.060080159	2.165900E+01	  0.060080159	-2.573800E+01
202	  0.060280561	-5.969000E+00	  0.060280561	-1.192390E+02	  0.060280561	2.141400E+01	  0.060280561	-2.515900E+01
203	  0.060480963	-5.967000E+00	  0.060480963	-1.204580E+02	  0.060480963	2.118200E+01	  0.060480963	-2.459500E+01
204	  0.060681365	-5.962000E+00	  0.060681365	-1.216710E+02	  0.060681365	2.094800E+01	  0.060681365	-2.404100E+01
205	  0.060881764	-5.952000E+00	  0.060881764	-1.228920E+02	  0.060881764	2.070800E+01	  0.060881764	-2.349100E+01
206	  0.061082166	-5.952000E+00	  0.061082166	-1.241140E+02	  0.061082166	2.050400E+01	  0.061082166	-2.293400E+01
207	  0.061282568	-5.946000E+00	  0.061282568	-1.253260E+02	  0.061282568	2.028900E+01	  0.061282568	-2.239100E+01
208	  0.061482966	-5.938000E+00	  0.061482966	-1.265020E+02	  0.061482966	2.008500E+01	  0.061482966	-2.186800E+01
209	  0.061683368	-5.935000E+00	  0.061683368	-1.276810E+02	  0.061683368	1.989700E+01	  0.061683368	-2.134300E+01
210	  0.061883770	-5.932000E+00	  0.061883770	-1.288270E+02	  0.061883770	1.972200E+01	  0.061883770	-2.083500E+01
211	  0.062084168	-5.926000E+00	  0.062084168	-1.299590E+02	  0.062084168	1.954500E+01	  0.062084168	-2.034000E+01
212	  0.062284570	-5.924000E+00	  0.062284570	-1.311220E+02	  0.062284570	1.938000E+01	  0.062284570	-1.982900E+01
213	  0.062484972	-5.914000E+00	  0.062484972	-1.322270E+02	  0.062484972	1.920500E+01	  0.062484972	-1.935300E+01
214	  0.062685370	-5.913000E+00	  0.062685370	-1.333600E+02	  0.062685370	1.905800E+01	  0.062685370	-1.886000E+01
215	  0.062885776	-5.921000E+00	  0.062885776	-1.345010E+02	  0.062885776	1.893800E+01	  0.062885776	-1.835900E+01
216	  0.063086174	-5.916000E+00	  0.063086174	-1.356400E+02	  0.063086174	1.878900E+01	  0.063086174	-1.787100E+01
217	  0.063286573	-5.921000E+00	  0.063286573	-1.367930E+02	  0.063286573	1.866900E+01	  0.063286573	-1.737300E+01
218	  0.063486971	-5.917000E+00	  0.063486971	-1.379550E+02	  0.063486971	1.853000E+01	  0.063486971	-1.687900E+01
219	  0.063687377	-5.920000E+00	  0.063687377	-1.390810E+02	  0.063687377	1.841800E+01	  0.063687377	-1.639800E+01
220	  0.063887775	-5.914000E+00	  0.063887775	-1.402190E+02	  0.063887775	1.828300E+01	  0.063887775	-1.592000E+01
221	  0.064088173	-5.910000E+00	  0.064088173	-1.413550E+02	  0.064088173	1.815800E+01	  0.064088173	-1.544500E+01
222	  0.064288579	-5.913000E+00	  0.064288579	-1.424460E+02	  0.064288579	1.806100E+01	  0.064288579	-1.498500E+01
223	  0.064488977	-5.908000E+00	  0.064488977	-1.435570E+02	  0.064488977	1.794400E+01	  0.064488977	-1.452400E+01
224	  0.064689375	-5.913000E+00	  0.064689375	-1.446490E+02	  0.064689375	1.786000E+01	  0.064689375	-1.406700E+01
225	  0.064889781	-5.913000E+00	  0.064889781	-1.457470E+02	  0.064889781	1.776600E+01	  0.064889781	-1.361200E+01
226	  0.065090179	-5.908000E+00	  0.065090179	-1.467790E+02	  0.065090179	1.766800E+01	  0.065090179	-1.318800E+01
227	  0.065290578	-5.912000E+00	  0.065290578	-1.478770E+02	  0.065290578	1.759000E+01	  0.065290578	-1.273500E+01
228	  0.065490983	-5.915000E+00	  0.065490983	-1.489090E+02	  0.065490983	1.751900E+01	  0.065490983	-1.231000E+01
229	  0.065691382	-5.912000E+00	  0.065691382	-1.499880E+02	  0.065691382	1.743300E+01	  0.065691382	-1.187100E+01
230	  0.065891780	-5.917000E+00	  0.065891780	-1.510300E+02	  0.065891780	1.737100E+01	  0.065891780	-1.144400E+01
231	  0.066092186	-5.923000E+00	  0.066092186	-1.520670E+02	  0.066092186	1.731800E+01	  0.066092186	-1.102000E+01
232	  0.066292584	-5.925000E+00	  0.066292584	-1.531130E+02	  0.066292584	1.725400E+01	  0.066292584	-1.059600E+01
233	  0.066492982	-5.929000E+00	  0.066492982	-1.541670E+02	  0.066492982	1.719800E+01	  0.066492982	-1.017000E+01
234	  0.066693388	-5.932000E+00	  0.066693388	-1.551730E+02	  0.066693388	1.714600E+01	  0.066693388	-9.764000E+00
235	  0.066893786	-5.934000E+00	  0.066893786	-1.562010E+02	  0.066893786	1.709300E+01	  0.066893786	-9.351000E+00
236	  0.067094192	-5.938000E+00	  0.067094192	-1.571850E+02	  0.067094192	1.705100E+01	  0.067094192	-8.955000E+00
237	  0.067294590	-5.942000E+00	  0.067294590	-1.582180E+02	  0.067294590	1.700700E+01	  0.067294590	-8.542000E+00
238	  0.067494988	-5.950000E+00	  0.067494988	-1.592200E+02	  0.067494988	1.697900E+01	  0.067494988	-8.140000E+00
239	  0.067695394	-5.952000E+00	  0.067695394	-1.602630E+02	  0.067695394	1.693400E+01	  0.067695394	-7.726000E+00
240	  0.067895792	-5.957000E+00	  0.067895792	-1.612250E+02	  0.067895792	1.690600E+01	  0.067895792	-7.343000E+00
241	  0.068096191	-5.965000E+00	  0.068096191	-1.622240E+02	  0.068096191	1.688400E+01	  0.068096191	-6.946000E+00
242	  0.068296596	-5.968000E+00	  0.068296596	-1.632020E+02	  0.068296596	1.685300E+01	  0.068296596	-6.559000E+00
243	  0.068496995	-5.970000E+00	  0.068496995	-1.641700E+02	  0.068496995	1.682100E+01	  0.068496995	-6.177000E+00
244	  0.068697393	-5.977000E+00	  0.068697393	-1.651400E+02	  0.068697393	1.680600E+01	  0.068697393	-5.794000E+00
245	  0.068897791	-5.977000E+00	  0.068897791	-1.661040E+02	  0.068897791	1.677400E+01	  0.068897791	-5.416000E+00
246	  0.069098189	-5.982000E+00	  0.069098189	-1.670390E+02	  0.069098189	1.675800E+01	  0.069098189	-5.048000E+00
247	  0.069298595	-5.984000E+00	  0.069298595	-1.679770E+02	  0.069298595	1.673800E+01	  0.069298595	-4.680000E+00
248	  0.069498993	-5.989000E+00	  0.069498993	-1.689140E+02	  0.069498993	1.672400E+01	  0.069498993	-4.313000E+00
249	  0.069699399	-5.994000E+00	  0.069699399	-1.698550E+02	  0.069699399	1.671700E+01	  0.069699399	-3.945000E+00
250	  0.069899797	-5.996000E+00	  0.069899797	-1.707920E+02	  0.069899797	1.669900E+01	  0.069899797	-3.579000E+00
251	  0.070100196	-6.002000E+00	  0.070100196	-1.717030E+02	  0.070100196	1.669700E+01	  0.070100196	-3.223000E+00
252	  0.070300601	-6.002000E+00	  0.070300601	-1.726400E+02	  0.070300601	1.668200E+01	  0.070300601	-2.859000E+00
253	  0.070501000	-6.006000E+00	  0.070501000	-1.735470E+02	  0.070501000	1.667600E+01	  0.070501000	-2.505000E+00
254	  0.070701398	-6.006000E+00	  0.070701398	-1.744710E+02	  0.070701398	1.666500E+01	  0.070701398	-2.146000E+00
255	  0.070901804	-6.006000E+00	  0.070901804	-1.753970E+02	  0.070901804	1.665400E+01	  0.070901804	-1.786000E+00
256	  0.071102202	-6.008000E+00	  0.071102202	-1.763200E+02	  0.071102202	1.664900E+01	  0.071102202	-1.428000E+00
257	  0.071302600	-6.007000E+00	  0.071302600	-1.772400E+02	  0.071302600	1.664200E+01	  0.071302600	-1.071000E+00
258	  0.071503006	-6.016000E+00	  0.071503006	-1.781380E+02	  0.071503006	1.665900E+01	  0.071503006	-7.220000E-01
259	  0.071703404	-6.013000E+00	  0.071703404	-1.790290E+02	  0.071703404	1.664900E+01	  0.071703404	-3.760000E-01
260	  0.071903802	-6.014000E+00	  0.071903802	-1.799230E+02	  0.071903802	1.665100E+01	  0.071903802	-2.900000E-02
261	  0.072104208	-6.016000E+00	  0.072104208	1.791830E+02	  0.072104208	1.665800E+01	  0.072104208	3.160000E-01
262	  0.072304606	-6.019000E+00	  0.072304606	1.782940E+02	  0.072304606	1.666600E+01	  0.072304606	6.610000E-01
263	  0.072505005	-6.020000E+00	  0.072505005	1.773790E+02	  0.072505005	1.667300E+01	  0.072505005	1.016000E+00
264	  0.072705410	-6.024000E+00	  0.072705410	1.764770E+02	  0.072705410	1.669000E+01	  0.072705410	1.366000E+00
265	  0.072905809	-6.026000E+00	  0.072905809	1.755670E+02	  0.072905809	1.670400E+01	  0.072905809	1.719000E+00
266	  0.073106214	-6.028000E+00	  0.073106214	1.746930E+02	  0.073106214	1.671800E+01	  0.073106214	2.058000E+00
267	  0.073306613	-6.033000E+00	  0.073306613	1.738010E+02	  0.073306613	1.674200E+01	  0.073306613	2.404000E+00
268	  0.073507011	-6.035000E+00	  0.073507011	1.729070E+02	  0.073507011	1.676000E+01	  0.073507011	2.751000E+00
269	  0.073707417	-6.038000E+00	  0.073707417	1.720140E+02	  0.073707417	1.678400E+01	  0.073707417	3.098000E+00
270	  0.073907815	-6.037000E+00	  0.073907815	1.711410E+02	  0.073907815	1.679800E+01	  0.073907815	3.438000E+00
271	  0.074108213	-6.045000E+00	  0.074108213	1.702440E+02	  0.074108213	1.683700E+01	  0.074108213	3.786000E+00
272	  0.074308619	-6.047000E+00	  0.074308619	1.693820E+02	  0.074308619	1.686200E+01	  0.074308619	4.121000E+00
273	  0.074509017	-6.052000E+00	  0.074509017	1.684550E+02	  0.074509017	1.690000E+01	  0.074509017	4.482000E+00
274	  0.074709415	-6.056000E+00	  0.074709415	1.676100E+02	  0.074709415	1.693200E+01	  0.074709415	4.811000E+00
275	  0.074909821	-6.060000E+00	  0.074909821	1.666970E+02	  0.074909821	1.697100E+01	  0.074909821	5.166000E+00
276	  0.075110219	-6.068000E+00	  0.075110219	1.658490E+02	  0.075110219	1.701800E+01	  0.075110219	5.496000E+00
277	  0.075310618	-6.071000E+00	  0.075310618	1.649890E+02	  0.075310618	1.705400E+01	  0.075310618	5.832000E+00
278	  0.075511023	-6.080000E+00	  0.075511023	1.641520E+02	  0.075511023	1.710700E+01	  0.075511023	6.158000E+00
279	  0.075711422	-6.089000E+00	  0.075711422	1.632830E+02	  0.075711422	1.716200E+01	  0.075711422	6.496000E+00
280	  0.075911827	-6.093000E+00	  0.075911827	1.624320E+02	  0.075911827	1.720900E+01	  0.075911827	6.829000E+00
281	  0.076112226	-6.102000E+00	  0.076112226	1.615700E+02	  0.076112226	1.726800E+01	  0.076112226	7.165000E+00
282	  0.076312624	-6.110000E+00	  0.076312624	1.607100E+02	  0.076312624	1.732700E+01	  0.076312624	7.501000E+00
283	  0.076513030	-6.119000E+00	  0.076513030	1.598190E+02	  0.076513030	1.739100E+01	  0.076513030	7.850000E+00
284	  0.076713428	-6.126000E+00	  0.076713428	1.589870E+02	  0.076713428	1.744900E+01	  0.076713428	8.176000E+00
285	  0.076913826	-6.133000E+00	  0.076913826	1.581040E+02	  0.076913826	1.751300E+01	  0.076913826	8.523000E+00
286	  0.077114232	-6.138000E+00	  0.077114232	1.572630E+02	  0.077114232	1.757200E+01	  0.077114232	8.853000E+00
287	  0.077314630	-6.145000E+00	  0.077314630	1.564510E+02	  0.077314630	1.763400E+01	  0.077314630	9.173000E+00
288	  0.077515028	-6.154000E+00	  0.077515028	1.556210E+02	  0.077515028	1.770600E+01	  0.077515028	9.499000E+00
289	  0.077715434	-6.163000E+00	  0.077715434	1.547910E+02	  0.077715434	1.778000E+01	  0.077715434	9.825000E+00
290	  0.077915832	-6.171000E+00	  0.077915832	1.539750E+02	  0.077915832	1.785100E+01	  0.077915832	1.014700E+01
291	  0.078116231	-6.181000E+00	  0.078116231	1.531540E+02	  0.078116231	1.793000E+01	  0.078116231	1.047100E+01
292	  0.078316636	-6.195000E+00	  0.078316636	1.523150E+02	  0.078316636	1.802200E+01	  0.078316636	1.080000E+01
293	  0.078517035	-6.206000E+00	  0.078517035	1.514920E+02	  0.078517035	1.810900E+01	  0.078517035	1.112400E+01
294	  0.078717433	-6.220000E+00	  0.078717433	1.506870E+02	  0.078717433	1.820400E+01	  0.078717433	1.144100E+01
295	  0.078917839	-6.234000E+00	  0.078917839	1.498590E+02	  0.078917839	1.830100E+01	  0.078917839	1.176600E+01
296	  0.079118237	-6.248000E+00	  0.079118237	1.490830E+02	  0.079118237	1.839700E+01	  0.079118237	1.207200E+01
297	  0.079318643	-6.258000E+00	  0.079318643	1.482910E+02	  0.079318643	1.848800E+01	  0.079318643	1.238500E+01
298	  0.079519041	-6.271000E+00	  0.079519041	1.474670E+02	  0.079519041	1.858700E+01	  0.079519041	1.271100E+01
299	  0.079719439	-6.289000E+00	  0.079719439	1.466780E+02	  0.079719439	1.870400E+01	  0.079719439	1.302000E+01
300	  0.079919845	-6.302000E+00	  0.079919845	1.458880E+02	  0.079919845	1.880700E+01	  0.079919845	1.333300E+01
301	  0.080120243	-6.316000E+00	  0.080120243	1.450670E+02	  0.080120243	1.891500E+01	  0.080120243	1.365800E+01
302	  0.080320641	-6.328000E+00	  0.080320641	1.442580E+02	  0.080320641	1.902200E+01	  0.080320641	1.398100E+01
303	  0.080521047	-6.343000E+00	  0.080521047	1.434830E+02	  0.080521047	1.913600E+01	  0.080521047	1.428700E+01
304	  0.080721445	-6.356000E+00	  0.080721445	1.427070E+02	  0.080721445	1.924600E+01	  0.080721445	1.459600E+01
305	  0.080921844	-6.371000E+00	  0.080921844	1.419120E+02	  0.080921844	1.936500E+01	  0.080921844	1.491100E+01
306	  0.081122249	-6.387000E+00	  0.081122249	1.411250E+02	  0.081122249	1.948900E+01	  0.081122249	1.522300E+01
307	  0.081322648	-6.400000E+00	  0.081322648	1.403370E+02	  0.081322648	1.960700E+01	  0.081322648	1.553800E+01
308	  0.081523046	-6.418000E+00	  0.081523046	1.395860E+02	  0.081523046	1.973700E+01	  0.081523046	1.583400E+01
309	  0.081723452	-6.430000E+00	  0.081723452	1.388090E+02	  0.081723452	1.985700E+01	  0.081723452	1.614600E+01
310	  0.081923850	-6.446000E+00	  0.081923850	1.380280E+02	  0.081923850	1.998700E+01	  0.081923850	1.645700E+01
311	  0.082124248	-6.465000E+00	  0.082124248	1.373070E+02	  0.082124248	2.012200E+01	  0.082124248	1.674100E+01
312	  0.082324654	-6.480000E+00	  0.082324654	1.365500E+02	  0.082324654	2.025300E+01	  0.082324654	1.704400E+01
313	  0.082525052	-6.502000E+00	  0.082525052	1.358130E+02	  0.082525052	2.040500E+01	  0.082525052	1.733200E+01
314	  0.082725458	-6.519000E+00	  0.082725458	1.350800E+02	  0.082725458	2.054300E+01	  0.082725458	1.762300E+01
315	  0.082925856	-6.541000E+00	  0.082925856	1.343350E+02	  0.082925856	2.069800E+01	  0.082925856	1.791600E+01
316	  0.083126254	-6.560000E+00	  0.083126254	1.335690E+02	  0.083126254	2.085100E+01	  0.083126254	1.822000E+01
317	  0.083326660	-6.577000E+00	  0.083326660	1.327890E+02	  0.083326660	2.100300E+01	  0.083326660	1.853100E+01
318	  0.083527058	-6.597000E+00	  0.083527058	1.320430E+02	  0.083527058	2.116100E+01	  0.083527058	1.882600E+01
319	  0.083727457	-6.614000E+00	  0.083727457	1.313020E+02	  0.083727457	2.131200E+01	  0.083727457	1.912200E+01
320	  0.083927862	-6.632000E+00	  0.083927862	1.305620E+02	  0.083927862	2.146900E+01	  0.083927862	1.941600E+01
321	  0.084128261	-6.648000E+00	  0.084128261	1.298260E+02	  0.084128261	2.162100E+01	  0.084128261	1.971200E+01
322	  0.084328659	-6.668000E+00	  0.084328659	1.291030E+02	  0.084328659	2.178600E+01	  0.084328659	1.999800E+01
323	  0.084529065	-6.685000E+00	  0.084529065	1.284250E+02	  0.084529065	2.193900E+01	  0.084529065	2.026700E+01
324	  0.084729463	-6.708000E+00	  0.084729463	1.276980E+02	  0.084729463	2.211500E+01	  0.084729463	2.055300E+01
325	  0.084929861	-6.725000E+00	  0.084929861	1.269890E+02	  0.084929861	2.227900E+01	  0.084929861	2.083600E+01
326	  0.085130267	-6.746000E+00	  0.085130267	1.262560E+02	  0.085130267	2.245800E+01	  0.085130267	2.112500E+01
327	  0.085330658	-6.768000E+00	  0.085330658	1.255650E+02	  0.085330658	2.263500E+01	  0.085330658	2.139600E+01
328	  0.085531056	-6.793000E+00	  0.085531056	1.248970E+02	  0.085531056	2.281800E+01	  0.085531056	2.165300E+01
329	  0.085731462	-6.811000E+00	  0.085731462	1.241770E+02	  0.085731462	2.299500E+01	  0.085731462	2.194000E+01
330	  0.085931860	-6.833000E+00	  0.085931860	1.235180E+02	  0.085931860	2.317500E+01	  0.085931860	2.219600E+01
331	  0.086132258	-6.860000E+00	  0.086132258	1.228530E+02	  0.086132258	2.337200E+01	  0.086132258	2.244900E+01
332	  0.086332664	-6.880000E+00	  0.086332664	1.221510E+02	  0.086332664	2.355800E+01	  0.086332664	2.272700E+01
333	  0.086533062	-6.906000E+00	  0.086533062	1.214810E+02	  0.086533062	2.375900E+01	  0.086533062	2.298200E+01
334	  0.086733460	-6.931000E+00	  0.086733460	1.207570E+02	  0.086733460	2.396800E+01	  0.086733460	2.326200E+01
335	  0.086933866	-6.953000E+00	  0.086933866	1.200850E+02	  0.086933866	2.416200E+01	  0.086933866	2.352300E+01
336	  0.087134264	-6.978000E+00	  0.087134264	1.193710E+02	  0.087134264	2.437700E+01	  0.087134264	2.379800E+01
337	  0.087334670	-6.998000E+00	  0.087334670	1.187060E+02	  0.087334670	2.457000E+01	  0.087334670	2.405700E+01
338	  0.087535068	-7.023000E+00	  0.087535068	1.180080E+02	  0.087535068	2.478800E+01	  0.087535068	2.432400E+01
339	  0.087735467	-7.047000E+00	  0.087735467	1.173430E+02	  0.087735467	2.499700E+01	  0.087735467	2.457900E+01
340	  0.087935872	-7.071000E+00	  0.087935872	1.166860E+02	  0.087935872	2.520800E+01	  0.087935872	2.482900E+01
341	  0.088136271	-7.095000E+00	  0.088136271	1.160210E+02	  0.088136271	2.542300E+01	  0.088136271	2.508200E+01
342	  0.088336669	-7.118000E+00	  0.088336669	1.153810E+02	  0.088336669	2.563100E+01	  0.088336669	2.532600E+01
343	  0.088537075	-7.138000E+00	  0.088537075	1.147160E+02	  0.088537075	2.584200E+01	  0.088537075	2.558400E+01
344	  0.088737473	-7.161000E+00	  0.088737473	1.140790E+02	  0.088737473	2.605600E+01	  0.088737473	2.582500E+01
345	  0.088937871	-7.183000E+00	  0.088937871	1.134030E+02	  0.088937871	2.627900E+01	  0.088937871	2.608400E+01
346	  0.089138277	-7.211000E+00	  0.089138277	1.128060E+02	  0.089138277	2.650500E+01	  0.089138277	2.629800E+01
347	  0.089338675	-7.237000E+00	  0.089338675	1.121790E+02	  0.089338675	2.673200E+01	  0.089338675	2.652900E+01
348	  0.089539073	-7.261000E+00	  0.089539073	1.115560E+02	  0.089539073	2.695600E+01	  0.089539073	2.676100E+01
349	  0.089739479	-7.289000E+00	  0.089739479	1.109280E+02	  0.089739479	2.719400E+01	  0.089739479	2.698700E+01
350	  0.089939877	-7.315000E+00	  0.089939877	1.102860E+02	  0.089939877	2.743700E+01	  0.089939877	2.722000E+01
351	  0.090140276	-7.336000E+00	  0.090140276	1.096350E+02	  0.090140276	2.766800E+01	  0.090140276	2.746700E+01
352	  0.090340681	-7.364000E+00	  0.090340681	1.090360E+02	  0.090340681	2.790700E+01	  0.090340681	2.767800E+01
353	  0.090541080	-7.391000E+00	  0.090541080	1.083900E+02	  0.090541080	2.816200E+01	  0.090541080	2.790900E+01
354	  0.090741485	-7.415000E+00	  0.090741485	1.077510E+02	  0.090741485	2.840800E+01	  0.090741485	2.814200E+01
355	  0.090941884	-7.440000E+00	  0.090941884	1.071170E+02	  0.090941884	2.865700E+01	  0.090941884	2.837100E+01
356	  0.091142282	-7.468000E+00	  0.091142282	1.065450E+02	  0.091142282	2.890100E+01	  0.091142282	2.856600E+01
357	  0.091342688	-7.493000E+00	  0.091342688	1.059250E+02	  0.091342688	2.915200E+01	  0.091342688	2.878700E+01
358	  0.091543086	-7.521000E+00	  0.091543086	1.053160E+02	  0.091543086	2.941000E+01	  0.091543086	2.899600E+01
359	  0.091743484	-7.542000E+00	  0.091743484	1.047090E+02	  0.091743484	2.965400E+01	  0.091743484	2.921600E+01
360	  0.091943890	-7.565000E+00	  0.091943890	1.041270E+02	  0.091943890	2.989700E+01	  0.091943890	2.942100E+01
361	  0.092144288	-7.592000E+00	  0.092144288	1.035610E+02	  0.092144288	3.014700E+01	  0.092144288	2.961100E+01
362	  0.092344686	-7.616000E+00	  0.092344686	1.029840E+02	  0.092344686	3.039800E+01	  0.092344686	2.980800E+01
363	  0.092545092	-7.645000E+00	  0.092545092	1.024170E+02	  0.092545092	3.066000E+01	  0.092545092	2.999200E+01
364	  0.092745490	-7.671000E+00	  0.092745490	1.018940E+02	  0.092745490	3.090300E+01	  0.092745490	3.016000E+01
365	  0.092945889	-7.705000E+00	  0.092945889	1.013210E+02	  0.092945889	3.118600E+01	  0.092945889	3.033300E+01
366	  0.093146294	-7.736000E+00	  0.093146294	1.007630E+02	  0.093146294	3.146000E+01	  0.093146294	3.050200E+01
367	  0.093346693	-7.767000E+00	  0.093346693	1.002250E+02	  0.093346693	3.172700E+01	  0.093346693	3.066300E+01
368	  0.093547091	-7.793000E+00	  0.093547091	9.969000E+01	  0.093547091	3.198500E+01	  0.093547091	3.082900E+01
369	  0.093747497	-7.826000E+00	  0.093747497	9.913000E+01	  0.093747497	3.227000E+01	  0.093747497	3.099100E+01
370	  0.093947895	-7.856000E+00	  0.093947895	9.859100E+01	  0.093947895	3.254200E+01	  0.093947895	3.115000E+01
371	  0.094148301	-7.887000E+00	  0.094148301	9.805200E+01	  0.094148301	3.282100E+01	  0.094148301	3.130300E+01
372	  0.094348699	-7.913000E+00	  0.094348699	9.753000E+01	  0.094348699	3.308000E+01	  0.094348699	3.146100E+01
373	  0.094549097	-7.950000E+00	  0.094549097	9.700600E+01	  0.094549097	3.337400E+01	  0.094549097	3.158900E+01
374	  0.094749503	-7.980000E+00	  0.094749503	9.651500E+01	  0.094749503	3.363700E+01	  0.094749503	3.172100E+01
375	  0.094949901	-8.008000E+00	  0.094949901	9.600400E+01	  0.094949901	3.390700E+01	  0.094949901	3.186100E+01
376	  0.095150299	-8.035000E+00	  0.095150299	9.553400E+01	  0.095150299	3.415800E+01	  0.095150299	3.198800E+01
377	  0.095350705	-8.062000E+00	  0.095350705	9.503100E+01	  0.095350705	3.442500E+01	  0.095350705	3.212500E+01
378	  0.095551103	-8.089000E+00	  0.095551103	9.452900E+01	  0.095551103	3.469200E+01	  0.095551103	3.226200E+01
379	  0.095751502	-8.117000E+00	  0.095751502	9.405200E+01	  0.095751502	3.495400E+01	  0.095751502	3.238400E+01
380	  0.095951907	-8.143000E+00	  0.095951907	9.359900E+01	  0.095951907	3.520300E+01	  0.095951907	3.250000E+01
381	  0.096152306	-8.174000E+00	  0.096152306	9.314000E+01	  0.096152306	3.547000E+01	  0.096152306	3.260300E+01
382	  0.096352704	-8.201000E+00	  0.096352704	9.268400E+01	  0.096352704	3.572700E+01	  0.096352704	3.271200E+01
383	  0.096553110	-8.223000E+00	  0.096553110	9.222200E+01	  0.096553110	3.597500E+01	  0.096553110	3.283700E+01
384	  0.096753508	-8.254000E+00	  0.096753508	9.179100E+01	  0.096753508	3.623400E+01	  0.096753508	3.292500E+01
385	  0.096953906	-8.278000E+00	  0.096953906	9.135300E+01	  0.096953906	3.648000E+01	  0.096953906	3.303100E+01
386	  0.097154312	-8.302000E+00	  0.097154312	9.088000E+01	  0.097154312	3.674200E+01	  0.097154312	3.315100E+01
387	  0.097354710	-8.326000E+00	  0.097354710	9.040900E+01	  0.097354710	3.700600E+01	  0.097354710	3.326800E+01
388	  0.097555116	-8.350000E+00	  0.097555116	8.998800E+01	  0.097555116	3.724800E+01	  0.097555116	3.336400E+01
389	  0.097755514	-8.375000E+00	  0.097755514	8.955400E+01	  0.097755514	3.750200E+01	  0.097755514	3.346000E+01
390	  0.097955912	-8.398000E+00	  0.097955912	8.914300E+01	  0.097955912	3.774100E+01	  0.097955912	3.355200E+01
391	  0.098156318	-8.414000E+00	  0.098156318	8.871200E+01	  0.098156318	3.797200E+01	  0.098156318	3.367100E+01
392	  0.098356716	-8.433000E+00	  0.098356716	8.827700E+01	  0.098356716	3.821700E+01	  0.098356716	3.377800E+01
393	  0.098557115	-8.450000E+00	  0.098557115	8.787900E+01	  0.098557115	3.843900E+01	  0.098557115	3.388000E+01
394	  0.098757520	-8.464000E+00	  0.098757520	8.744300E+01	  0.098757520	3.867400E+01	  0.098757520	3.400100E+01
395	  0.098957919	-8.479000E+00	  0.098957919	8.701200E+01	  0.098957919	3.890900E+01	  0.098957919	3.411900E+01
396	  0.099158317	-8.497000E+00	  0.099158317	8.659800E+01	  0.099158317	3.914500E+01	  0.099158317	3.422000E+01
397	  0.099358723	-8.512000E+00	  0.099358723	8.621300E+01	  0.099358723	3.936500E+01	  0.099358723	3.431400E+01
398	  0.099559121	-8.522000E+00	  0.099559121	8.583300E+01	  0.099559121	3.956800E+01	  0.099559121	3.442400E+01
399	  0.099759519	-8.542000E+00	  0.099759519	8.541400E+01	  0.099759519	3.981600E+01	  0.099759519	3.451700E+01
400	  0.099959925	-8.553000E+00	  0.099959925	8.505800E+01	  0.099959925	4.001500E+01	  0.099959925	3.461100E+01
401	  0.100160323	-8.566000E+00	  0.100160323	8.457300E+01	  0.100160323	4.028300E+01	  0.100160323	3.474600E+01
402	  0.100360721	-8.574000E+00	  0.100360721	8.425300E+01	  0.100360721	4.045800E+01	  0.100360721	3.483800E+01
403	  0.100561127	-8.587000E+00	  0.100561127	8.377900E+01	  0.100561127	4.072400E+01	  0.100561127	3.496600E+01
404	  0.100761525	-8.603000E+00	  0.100761525	8.340100E+01	  0.100761525	4.094900E+01	  0.100761525	3.505100E+01
405	  0.100961931	-8.607000E+00	  0.100961931	8.299600E+01	  0.100961931	4.116400E+01	  0.100961931	3.518000E+01
406	  0.101162329	-8.619000E+00	  0.101162329	8.260400E+01	  0.101162329	4.139000E+01	  0.101162329	3.528200E+01
407	  0.101362728	-8.621000E+00	  0.101362728	8.218300E+01	  0.101362728	4.161100E+01	  0.101362728	3.542200E+01
408	  0.101563133	-8.631000E+00	  0.101563133	8.180700E+01	  0.101563133	4.182800E+01	  0.101563133	3.552100E+01
409	  0.101763532	-8.640000E+00	  0.101763532	8.133900E+01	  0.101763532	4.209300E+01	  0.101763532	3.565300E+01
410	  0.101963930	-8.649000E+00	  0.101963930	8.097000E+01	  0.101963930	4.230800E+01	  0.101963930	3.575100E+01
411	  0.102164336	-8.654000E+00	  0.102164336	8.050900E+01	  0.102164336	4.256300E+01	  0.102164336	3.589400E+01
412	  0.102364734	-8.652000E+00	  0.102364734	8.009900E+01	  0.102364734	4.278000E+01	  0.102364734	3.604000E+01
413	  0.102565132	-8.656000E+00	  0.102565132	7.965900E+01	  0.102565132	4.302600E+01	  0.102565132	3.617800E+01
414	  0.102765530	-8.662000E+00	  0.102765530	7.931800E+01	  0.102765530	4.322400E+01	  0.102765530	3.627400E+01
415	  0.102965929	-8.662000E+00	  0.102965929	7.888600E+01	  0.102965929	4.346400E+01	  0.102965929	3.641700E+01
416	  0.103166327	-8.669000E+00	  0.103166327	7.842800E+01	  0.103166327	4.373100E+01	  0.103166327	3.654900E+01
417	  0.103366733	-8.675000E+00	  0.103366733	7.800900E+01	  0.103366733	4.398000E+01	  0.103366733	3.666600E+01
418	  0.103567131	-8.671000E+00	  0.103567131	7.762600E+01	  0.103567131	4.418900E+01	  0.103567131	3.680700E+01
419	  0.103767529	-8.680000E+00	  0.103767529	7.708300E+01	  0.103767529	4.451900E+01	  0.103767529	3.695200E+01
420	  0.103967935	-8.682000E+00	  0.103967935	7.668300E+01	  0.103967935	4.475300E+01	  0.103967935	3.707500E+01
421	  0.104168333	-8.681000E+00	  0.104168333	7.627500E+01	  0.104168333	4.498900E+01	  0.104168333	3.721100E+01
422	  0.104368731	-8.686000E+00	  0.104368731	7.576400E+01	  0.104368731	4.529900E+01	  0.104368731	3.735900E+01
423	  0.104569137	-8.691000E+00	  0.104569137	7.530200E+01	  0.104569137	4.558400E+01	  0.104569137	3.748900E+01
424	  0.104769535	-8.694000E+00	  0.104769535	7.489100E+01	  0.104769535	4.583800E+01	  0.104769535	3.760500E+01
425	  0.104969934	-8.691000E+00	  0.104969934	7.439900E+01	  0.104969934	4.612800E+01	  0.104969934	3.777300E+01
426	  0.105170339	-8.692000E+00	  0.105170339	7.394500E+01	  0.105170339	4.640700E+01	  0.105170339	3.791200E+01
427	  0.105370738	-8.693000E+00	  0.105370738	7.345000E+01	  0.105370738	4.671600E+01	  0.105370738	3.805900E+01
428	  0.105571143	-8.691000E+00	  0.105571143	7.299000E+01	  0.105571143	4.699700E+01	  0.105571143	3.821000E+01
429	  0.105771542	-8.690000E+00	  0.105771542	7.254500E+01	  0.105771542	4.727700E+01	  0.105771542	3.834900E+01
430	  0.105971940	-8.695000E+00	  0.105971940	7.206500E+01	  0.105971940	4.759200E+01	  0.105971940	3.847300E+01
431	  0.106172346	-8.694000E+00	  0.106172346	7.161400E+01	  0.106172346	4.787900E+01	  0.106172346	3.861200E+01
432	  0.106372744	-8.691000E+00	  0.106372744	7.111200E+01	  0.106372744	4.820000E+01	  0.106372744	3.877100E+01
433	  0.106573142	-8.698000E+00	  0.106573142	7.061700E+01	  0.106573142	4.853600E+01	  0.106573142	3.888800E+01
434	  0.106773548	-8.703000E+00	  0.106773548	7.014200E+01	  0.106773548	4.886100E+01	  0.106773548	3.899900E+01
435	  0.106973946	-8.696000E+00	  0.106973946	6.963800E+01	  0.106973946	4.918500E+01	  0.106973946	3.917600E+01
436	  0.107174344	-8.695000E+00	  0.107174344	6.919900E+01	  0.107174344	4.947900E+01	  0.107174344	3.930300E+01
437	  0.107374750	-8.692000E+00	  0.107374750	6.870400E+01	  0.107374750	4.981200E+01	  0.107374750	3.945300E+01
438	  0.107575148	-8.697000E+00	  0.107575148	6.824500E+01	  0.107575148	5.013700E+01	  0.107575148	3.955600E+01
439	  0.107775547	-8.693000E+00	  0.107775547	6.772600E+01	  0.107775547	5.049100E+01	  0.107775547	3.971500E+01
440	  0.107975952	-8.693000E+00	  0.107975952	6.724800E+01	  0.107975952	5.082800E+01	  0.107975952	3.983800E+01
441	  0.108176351	-8.695000E+00	  0.108176351	6.672500E+01	  0.108176351	5.120400E+01	  0.108176351	3.996400E+01
442	  0.108376749	-8.691000E+00	  0.108376749	6.623800E+01	  0.108376749	5.154500E+01	  0.108376749	4.011000E+01
443	  0.108577155	-8.687000E+00	  0.108577155	6.569600E+01	  0.108577155	5.193300E+01	  0.108577155	4.026300E+01
444	  0.108777553	-8.677000E+00	  0.108777553	6.519200E+01	  0.108777553	5.228600E+01	  0.108777553	4.043800E+01
445	  0.108977959	-8.673000E+00	  0.108977959	6.464900E+01	  0.108977959	5.268200E+01	  0.108977959	4.059000E+01
446	  0.109178357	-8.669000E+00	  0.109178357	6.414300E+01	  0.109178357	5.305700E+01	  0.109178357	4.072700E+01
447	  0.109378755	-8.664000E+00	  0.109378755	6.356300E+01	  0.109378755	5.348900E+01	  0.109378755	4.088600E+01
448	  0.109579161	-8.657000E+00	  0.109579161	6.305600E+01	  0.109579161	5.386800E+01	  0.109579161	4.103500E+01
449	  0.109779559	-8.658000E+00	  0.109779559	6.245800E+01	  0.109779559	5.433300E+01	  0.109779559	4.116600E+01
450	  0.109979957	-8.648000E+00	  0.109979957	6.192800E+01	  0.109979957	5.473500E+01	  0.109979957	4.133200E+01
451	  0.110180363	-8.651000E+00	  0.110180363	6.132800E+01	  0.110180363	5.521500E+01	  0.110180363	4.144000E+01
452	  0.110380761	-8.641000E+00	  0.110380761	6.077900E+01	  0.110380761	5.564300E+01	  0.110380761	4.160300E+01
453	  0.110581160	-8.633000E+00	  0.110581160	6.017700E+01	  0.110581160	5.612300E+01	  0.110581160	4.176000E+01
454	  0.110781565	-8.626000E+00	  0.110781565	5.961900E+01	  0.110781565	5.657300E+01	  0.110781565	4.190500E+01
455	  0.110981964	-8.626000E+00	  0.110981964	5.896300E+01	  0.110981964	5.712000E+01	  0.110981964	4.202000E+01
456	  0.111182362	-8.615000E+00	  0.111182362	5.839800E+01	  0.111182362	5.758300E+01	  0.111182362	4.218300E+01
457	  0.111382768	-8.617000E+00	  0.111382768	5.776300E+01	  0.111382768	5.812800E+01	  0.111382768	4.227000E+01
458	  0.111583166	-8.622000E+00	  0.111583166	5.718700E+01	  0.111583166	5.862900E+01	  0.111583166	4.233100E+01
459	  0.111783572	-8.617000E+00	  0.111783572	5.652500E+01	  0.111783572	5.920100E+01	  0.111783572	4.245500E+01
460	  0.111983970	-8.608000E+00	  0.111983970	5.587600E+01	  0.111983970	5.976600E+01	  0.111983970	4.259700E+01
461	  0.112184368	-8.611000E+00	  0.112184368	5.524900E+01	  0.112184368	6.032900E+01	  0.112184368	4.265900E+01
462	  0.112384774	-8.611000E+00	  0.112384774	5.455100E+01	  0.112384774	6.096000E+01	  0.112384774	4.273700E+01
463	  0.112585172	-8.605000E+00	  0.112585172	5.387800E+01	  0.112585172	6.157200E+01	  0.112585172	4.283800E+01
464	  0.112785570	-8.608000E+00	  0.112785570	5.323700E+01	  0.112785570	6.216600E+01	  0.112785570	4.287800E+01
465	  0.112985976	-8.615000E+00	  0.112985976	5.254100E+01	  0.112985976	6.282200E+01	  0.112985976	4.288500E+01
466	  0.113186374	-8.612000E+00	  0.113186374	5.186000E+01	  0.113186374	6.346500E+01	  0.113186374	4.294800E+01
467	  0.113386773	-8.623000E+00	  0.113386773	5.115900E+01	  0.113386773	6.413900E+01	  0.113386773	4.291100E+01
468	  0.113587178	-8.624000E+00	  0.113587178	5.038800E+01	  0.113587178	6.488300E+01	  0.113587178	4.293200E+01
469	  0.113787577	-8.634000E+00	  0.113787577	4.968100E+01	  0.113787577	6.557500E+01	  0.113787577	4.287700E+01
470	  0.113987975	-8.639000E+00	  0.113987975	4.890500E+01	  0.113987975	6.634100E+01	  0.113987975	4.284300E+01
471	  0.114188381	-8.645000E+00	  0.114188381	4.819300E+01	  0.114188381	6.705000E+01	  0.114188381	4.279100E+01
472	  0.114388779	-8.652000E+00	  0.114388779	4.741500E+01	  0.114388779	6.783100E+01	  0.114388779	4.271000E+01
473	  0.114589177	-8.668000E+00	  0.114589177	4.669200E+01	  0.114589177	6.855900E+01	  0.114589177	4.256300E+01
474	  0.114789583	-8.672000E+00	  0.114789583	4.587600E+01	  0.114789583	6.939200E+01	  0.114789583	4.247100E+01
475	  0.114989981	-8.691000E+00	  0.114989981	4.510300E+01	  0.114989981	7.017800E+01	  0.114989981	4.226700E+01
476	  0.115190387	-8.703000E+00	  0.115190387	4.428500E+01	  0.115190387	7.101800E+01	  0.115190387	4.208400E+01
477	  0.115390785	-8.723000E+00	  0.115390785	4.345800E+01	  0.115390785	7.186300E+01	  0.115390785	4.182100E+01
478	  0.115591183	-8.740000E+00	  0.115591183	4.261700E+01	  0.115591183	7.272900E+01	  0.115591183	4.155700E+01
479	  0.115791589	-8.757000E+00	  0.115791589	4.171900E+01	  0.115791589	7.365800E+01	  0.115791589	4.126400E+01
480	  0.115991987	-8.774000E+00	  0.115991987	4.087800E+01	  0.115991987	7.452500E+01	  0.115991987	4.094900E+01
481	  0.116192386	-8.799000E+00	  0.116192386	3.999500E+01	  0.116192386	7.542600E+01	  0.116192386	4.055300E+01
482	  0.116392791	-8.817000E+00	  0.116392791	3.913700E+01	  0.116392791	7.630800E+01	  0.116392791	4.017800E+01
483	  0.116593190	-8.847000E+00	  0.116593190	3.821400E+01	  0.116593190	7.723500E+01	  0.116593190	3.968100E+01
484	  0.116793588	-8.881000E+00	  0.116793588	3.732200E+01	  0.116793588	7.810900E+01	  0.116793588	3.912800E+01
485	  0.116993994	-8.903000E+00	  0.116993994	3.634400E+01	  0.116993994	7.909700E+01	  0.116993994	3.860300E+01
486	  0.117194392	-8.938000E+00	  0.117194392	3.540800E+01	  0.117194392	8.000000E+01	  0.117194392	3.797700E+01
487	  0.117394790	-8.972000E+00	  0.117394790	3.446400E+01	  0.117394790	8.089700E+01	  0.117394790	3.731700E+01
488	  0.117595196	-9.005000E+00	  0.117595196	3.349500E+01	  0.117595196	8.181100E+01	  0.117595196	3.662600E+01
489	  0.117795594	-9.046000E+00	  0.117795594	3.251300E+01	  0.117795594	8.269200E+01	  0.117795594	3.583700E+01
490	  0.117995992	-9.089000E+00	  0.117995992	3.151900E+01	  0.117995992	8.355900E+01	  0.117995992	3.499900E+01
491	  0.118196398	-9.130000E+00	  0.118196398	3.050900E+01	  0.118196398	8.442100E+01	  0.118196398	3.412700E+01
492	  0.118396796	-9.175000E+00	  0.118396796	2.948500E+01	  0.118396796	8.525800E+01	  0.118396796	3.319600E+01
493	  0.118597202	-9.224000E+00	  0.118597202	2.840600E+01	  0.118597202	8.610200E+01	  0.118597202	3.217300E+01
494	  0.118797600	-9.281000E+00	  0.118797600	2.735400E+01	  0.118797600	8.684500E+01	  0.118797600	3.108300E+01
495	  0.118997999	-9.335000E+00	  0.118997999	2.626800E+01	  0.118997999	8.759400E+01	  0.118997999	2.995900E+01
496	  0.119198404	-9.403000E+00	  0.119198404	2.518000E+01	  0.119198404	8.823300E+01	  0.119198404	2.872800E+01
497	  0.119398803	-9.461000E+00	  0.119398803	2.410900E+01	  0.119398803	8.886100E+01	  0.119398803	2.754500E+01
498	  0.119599201	-9.532000E+00	  0.119599201	2.297800E+01	  0.119599201	8.941600E+01	  0.119599201	2.621600E+01
499	  0.119799607	-9.605000E+00	  0.119799607	2.186100E+01	  0.119799607	8.990100E+01	  0.119799607	2.488000E+01
500	  0.120000005	-9.680000E+00	  0.120000005	2.070300E+01	  0.120000005	9.034400E+01	  0.120000005	2.348300E+01
