! Anritsu VNA Master:             	Model: MS2036C/10/77
! SN:             	1601066
! /bd0/18may10/252.ns.m7.txt
! Existing Calibration Information:
! TYPE:             	Current Settings	Active Cal Settings
! TIME:             	05/10/2018 05:53:17 PM	05/10/2018 05:49:06 PM
! INTERNAL TEMP:    	59.5 C	59.5 C
! # POINTS:         	490	490
! START FREQ:       	20.000 MHz	20.000 MHz
! STOP FREQ:        	117.995 991 MHz	117.995 991 MHz
! SOURCE POWER:     	High	High
! IFBW:             	50 Hz	50 Hz
! AVG FACTOR:       	  1 	  1 
! REF PLANE 1:      	0 mm	0 mm
! REF PLANE 2:      	0 mm	0 mm
! CAL TYPE:         	Full S22	Full S22
! CAL METHOD:       	SOLT	SOLT
! CAL LINE TYPE:    	Coax	Coax
! DUT PORT 1:       	K-Conn(M)	K-Conn(M)
! DUT PORT 2:       	K-Conn(M)	K-Conn(M)
! CAL STATUS:       	OK: Accuracy High	--
! PROP-V:       	0.700
! CABLE LOSS:       	0.000 dB/m
! REF IMPEDANCE:       	50.0
! Trace Specific Parameters:	TR1	TR2	TR3	TR4
! TRACE.#.Y (GRAPH TYPE)	LOG MAG	PHASE	REAL IMPEDANCE	IMAGINARY IMPEDANCE
! TRACE.#.X 	FREQ.GHZ	FREQ.GHZ	FREQ.GHZ	FREQ.GHZ
! S-PARAMETER	S22	S22	S22	S22
! SMOOTH/APERTURE %	0	0	0	0
! WINDOW	NSL	NSL	NSL	NSL
! GATING	OFF	OFF	OFF	OFF
! FGTD	OFF	OFF	OFF	OFF
Marker Information per Trace:	TR1	TR2	TR3	TR4
!MK1	--	"MK1 TR2:  20.000 MHz,PH:-125.43°"	--	--
!MK2	--	--	"MK2 TR3:  70.100 200 MHz,Z:(16.679 ohm, -1.597 ohm)"	--
!MK3	--	--	--	--
!MK4	--	--	--	--
!MK5	--	--	--	--
!MK6	--	--	--	--
!MK7	--	--	--	--
!MK8	--	--	--	--
PNT	TR1.FREQ.GHZ	TR1.LOG MAG.dB	TR2.FREQ.GHZ	TR2.PHASE.deg	TR3.FREQ.GHZ	TR3.REAL IMPEDANCE.ohm	TR4.FREQ.GHZ	TR4.IMAGINARY IMPEDANCE.ohm
1	  0.020000000	-6.260000E-01	  0.020000000	-1.254320E+02	  0.020000000	2.282000E+00	  0.020000000	-2.574600E+01
2	  0.020200402	-6.300000E-01	  0.020200402	-1.268780E+02	  0.020200402	2.265000E+00	  0.020200402	-2.495400E+01
3	  0.020400802	-6.330000E-01	  0.020400802	-1.283310E+02	  0.020400802	2.250000E+00	  0.020400802	-2.416800E+01
4	  0.020601204	-6.370000E-01	  0.020601204	-1.297960E+02	  0.020601204	2.237000E+00	  0.020601204	-2.338400E+01
5	  0.020801604	-6.410000E-01	  0.020801604	-1.313010E+02	  0.020801604	2.222000E+00	  0.020801604	-2.259000E+01
6	  0.021002004	-6.440000E-01	  0.021002004	-1.328100E+02	  0.021002004	2.206000E+00	  0.021002004	-2.180300E+01
7	  0.021202406	-6.470000E-01	  0.021202406	-1.343280E+02	  0.021202406	2.192000E+00	  0.021202406	-2.102000E+01
8	  0.021402806	-6.500000E-01	  0.021402806	-1.358220E+02	  0.021402806	2.178000E+00	  0.021402806	-2.025800E+01
9	  0.021603208	-6.520000E-01	  0.021603208	-1.373300E+02	  0.021603208	2.164000E+00	  0.021603208	-1.949700E+01
10	  0.021803608	-6.570000E-01	  0.021803608	-1.388440E+02	  0.021803608	2.156000E+00	  0.021803608	-1.874100E+01
11	  0.022004008	-6.630000E-01	  0.022004008	-1.403410E+02	  0.022004008	2.157000E+00	  0.022004008	-1.800000E+01
12	  0.022204408	-6.690000E-01	  0.022204408	-1.418730E+02	  0.022204408	2.154000E+00	  0.022204408	-1.724900E+01
13	  0.022404809	-6.750000E-01	  0.022404809	-1.434170E+02	  0.022404809	2.156000E+00	  0.022404809	-1.649900E+01
14	  0.022605211	-6.800000E-01	  0.022605211	-1.449860E+02	  0.022605211	2.152000E+00	  0.022605211	-1.574400E+01
15	  0.022805611	-6.820000E-01	  0.022805611	-1.465510E+02	  0.022805611	2.139000E+00	  0.022805611	-1.499800E+01
16	  0.023006011	-6.860000E-01	  0.023006011	-1.481080E+02	  0.023006011	2.135000E+00	  0.023006011	-1.426200E+01
17	  0.023206413	-6.910000E-01	  0.023206413	-1.496730E+02	  0.023206413	2.133000E+00	  0.023206413	-1.352700E+01
18	  0.023406813	-6.950000E-01	  0.023406813	-1.512220E+02	  0.023406813	2.133000E+00	  0.023406813	-1.280500E+01
19	  0.023607215	-7.030000E-01	  0.023607215	-1.527940E+02	  0.023607215	2.143000E+00	  0.023607215	-1.207700E+01
20	  0.023807615	-7.120000E-01	  0.023807615	-1.543940E+02	  0.023807615	2.154000E+00	  0.023807615	-1.134200E+01
21	  0.024008015	-7.190000E-01	  0.024008015	-1.560010E+02	  0.024008015	2.163000E+00	  0.024008015	-1.060800E+01
22	  0.024208417	-7.260000E-01	  0.024208417	-1.576380E+02	  0.024208417	2.169000E+00	  0.024208417	-9.864000E+00
23	  0.024408817	-7.310000E-01	  0.024408817	-1.592740E+02	  0.024408817	2.175000E+00	  0.024408817	-9.126000E+00
24	  0.024609219	-7.380000E-01	  0.024609219	-1.609080E+02	  0.024609219	2.185000E+00	  0.024609219	-8.392000E+00
25	  0.024809619	-7.470000E-01	  0.024809619	-1.625560E+02	  0.024809619	2.201000E+00	  0.024809619	-7.656000E+00
26	  0.025010020	-7.560000E-01	  0.025010020	-1.642160E+02	  0.025010020	2.219000E+00	  0.025010020	-6.917000E+00
27	  0.025210422	-7.670000E-01	  0.025210422	-1.658790E+02	  0.025210422	2.240000E+00	  0.025210422	-6.180000E+00
28	  0.025410822	-7.770000E-01	  0.025410822	-1.675570E+02	  0.025410822	2.263000E+00	  0.025410822	-5.439000E+00
29	  0.025611224	-7.890000E-01	  0.025611224	-1.692440E+02	  0.025611224	2.291000E+00	  0.025611224	-4.697000E+00
30	  0.025811624	-8.000000E-01	  0.025811624	-1.709390E+02	  0.025811624	2.316000E+00	  0.025811624	-3.953000E+00
31	  0.026012026	-8.100000E-01	  0.026012026	-1.726550E+02	  0.026012026	2.339000E+00	  0.026012026	-3.202000E+00
32	  0.026212426	-8.210000E-01	  0.026212426	-1.743740E+02	  0.026212426	2.369000E+00	  0.026212426	-2.451000E+00
33	  0.026412826	-8.350000E-01	  0.026412826	-1.760970E+02	  0.026412826	2.404000E+00	  0.026412826	-1.699000E+00
34	  0.026613226	-8.490000E-01	  0.026613226	-1.778400E+02	  0.026613226	2.442000E+00	  0.026613226	-9.390000E-01
35	  0.026813626	-8.640000E-01	  0.026813626	-1.795860E+02	  0.026813626	2.486000E+00	  0.026813626	-1.790000E-01
36	  0.027014028	-8.790000E-01	  0.027014028	1.786560E+02	  0.027014028	2.530000E+00	  0.027014028	5.840000E-01
37	  0.027214428	-8.960000E-01	  0.027214428	1.769020E+02	  0.027214428	2.581000E+00	  0.027214428	1.348000E+00
38	  0.027414829	-9.140000E-01	  0.027414829	1.751250E+02	  0.027414829	2.635000E+00	  0.027414829	2.122000E+00
39	  0.027615231	-9.300000E-01	  0.027615231	1.733480E+02	  0.027615231	2.684000E+00	  0.027615231	2.897000E+00
40	  0.027815631	-9.510000E-01	  0.027815631	1.715620E+02	  0.027815631	2.751000E+00	  0.027815631	3.677000E+00
41	  0.028016033	-9.690000E-01	  0.028016033	1.697480E+02	  0.028016033	2.809000E+00	  0.028016033	4.470000E+00
42	  0.028216433	-9.910000E-01	  0.028216433	1.679390E+02	  0.028216433	2.882000E+00	  0.028216433	5.264000E+00
43	  0.028416833	-1.013000E+00	  0.028416833	1.661130E+02	  0.028416833	2.956000E+00	  0.028416833	6.067000E+00
44	  0.028617235	-1.035000E+00	  0.028617235	1.642860E+02	  0.028617235	3.034000E+00	  0.028617235	6.874000E+00
45	  0.028817635	-1.058000E+00	  0.028817635	1.624540E+02	  0.028817635	3.115000E+00	  0.028817635	7.686000E+00
46	  0.029018037	-1.083000E+00	  0.029018037	1.606220E+02	  0.029018037	3.205000E+00	  0.029018037	8.502000E+00
47	  0.029218437	-1.111000E+00	  0.029218437	1.587810E+02	  0.029218437	3.305000E+00	  0.029218437	9.326000E+00
48	  0.029418837	-1.137000E+00	  0.029418837	1.569060E+02	  0.029418837	3.406000E+00	  0.029418837	1.016900E+01
49	  0.029619239	-1.165000E+00	  0.029619239	1.550340E+02	  0.029619239	3.513000E+00	  0.029619239	1.101600E+01
50	  0.029819639	-1.194000E+00	  0.029819639	1.531570E+02	  0.029819639	3.626000E+00	  0.029819639	1.187200E+01
51	  0.030020041	-1.224000E+00	  0.030020041	1.512670E+02	  0.030020041	3.748000E+00	  0.030020041	1.273800E+01
52	  0.030220442	-1.254000E+00	  0.030220442	1.493860E+02	  0.030220442	3.871000E+00	  0.030220442	1.360800E+01
53	  0.030420844	-1.284000E+00	  0.030420844	1.475040E+02	  0.030420844	4.001000E+00	  0.030420844	1.448500E+01
54	  0.030621244	-1.317000E+00	  0.030621244	1.456350E+02	  0.030621244	4.143000E+00	  0.030621244	1.536300E+01
55	  0.030821642	-1.351000E+00	  0.030821642	1.437510E+02	  0.030821642	4.294000E+00	  0.030821642	1.625600E+01
56	  0.031022044	-1.384000E+00	  0.031022044	1.418400E+02	  0.031022044	4.447000E+00	  0.031022044	1.717200E+01
57	  0.031222444	-1.411000E+00	  0.031222444	1.399500E+02	  0.031222444	4.588000E+00	  0.031222444	1.808700E+01
58	  0.031422846	-1.445000E+00	  0.031422846	1.380420E+02	  0.031422846	4.755000E+00	  0.031422846	1.902000E+01
59	  0.031623244	-1.481000E+00	  0.031623244	1.360900E+02	  0.031623244	4.940000E+00	  0.031623244	1.998600E+01
60	  0.031823646	-1.514000E+00	  0.031823646	1.341560E+02	  0.031823646	5.119000E+00	  0.031823646	2.095400E+01
61	  0.032024048	-1.549000E+00	  0.032024048	1.322310E+02	  0.032024048	5.312000E+00	  0.032024048	2.193100E+01
62	  0.032224450	-1.584000E+00	  0.032224450	1.302880E+02	  0.032224450	5.513000E+00	  0.032224450	2.293000E+01
63	  0.032424849	-1.620000E+00	  0.032424849	1.283260E+02	  0.032424849	5.728000E+00	  0.032424849	2.395200E+01
64	  0.032625251	-1.655000E+00	  0.032625251	1.263610E+02	  0.032625251	5.949000E+00	  0.032625251	2.499200E+01
65	  0.032825653	-1.689000E+00	  0.032825653	1.243690E+02	  0.032825653	6.178000E+00	  0.032825653	2.606300E+01
66	  0.033026051	-1.723000E+00	  0.033026051	1.223580E+02	  0.033026051	6.422000E+00	  0.033026051	2.716100E+01
67	  0.033226453	-1.762000E+00	  0.033226453	1.203500E+02	  0.033226453	6.693000E+00	  0.033226453	2.827600E+01
68	  0.033426855	-1.797000E+00	  0.033426855	1.183550E+02	  0.033426855	6.963000E+00	  0.033426855	2.940400E+01
69	  0.033627257	-1.834000E+00	  0.033627257	1.163490E+02	  0.033627257	7.255000E+00	  0.033627257	3.055800E+01
70	  0.033827655	-1.874000E+00	  0.033827655	1.143390E+02	  0.033827655	7.575000E+00	  0.033827655	3.173400E+01
71	  0.034028057	-1.913000E+00	  0.034028057	1.123120E+02	  0.034028057	7.908000E+00	  0.034028057	3.294500E+01
72	  0.034228459	-1.955000E+00	  0.034228459	1.102700E+02	  0.034228459	8.273000E+00	  0.034228459	3.418800E+01
73	  0.034428857	-1.998000E+00	  0.034428857	1.082120E+02	  0.034428857	8.666000E+00	  0.034428857	3.546700E+01
74	  0.034629259	-2.038000E+00	  0.034629259	1.061530E+02	  0.034629259	9.067000E+00	  0.034629259	3.677600E+01
75	  0.034829661	-2.083000E+00	  0.034829661	1.040690E+02	  0.034829661	9.519000E+00	  0.034829661	3.812800E+01
76	  0.035030060	-2.132000E+00	  0.035030060	1.020210E+02	  0.035030060	1.001100E+01	  0.035030060	3.948300E+01
77	  0.035230462	-2.180000E+00	  0.035230462	9.995600E+01	  0.035230462	1.052800E+01	  0.035230462	4.088300E+01
78	  0.035430863	-2.228000E+00	  0.035430863	9.786900E+01	  0.035430863	1.108600E+01	  0.035430863	4.233200E+01
79	  0.035631265	-2.278000E+00	  0.035631265	9.579400E+01	  0.035631265	1.168300E+01	  0.035631265	4.380500E+01
80	  0.035831664	-2.327000E+00	  0.035831664	9.371500E+01	  0.035831664	1.231400E+01	  0.035831664	4.532100E+01
81	  0.036032066	-2.378000E+00	  0.036032066	9.161600E+01	  0.036032066	1.300800E+01	  0.036032066	4.688700E+01
82	  0.036232468	-2.428000E+00	  0.036232468	8.950600E+01	  0.036232468	1.374200E+01	  0.036232468	4.850600E+01
83	  0.036432866	-2.479000E+00	  0.036432866	8.739900E+01	  0.036432866	1.453300E+01	  0.036432866	5.016600E+01
84	  0.036633268	-2.531000E+00	  0.036633268	8.528500E+01	  0.036633268	1.538800E+01	  0.036633268	5.187500E+01
85	  0.036833670	-2.584000E+00	  0.036833670	8.318300E+01	  0.036833670	1.630800E+01	  0.036833670	5.361900E+01
86	  0.037034072	-2.640000E+00	  0.037034072	8.105700E+01	  0.037034072	1.732100E+01	  0.037034072	5.542700E+01
87	  0.037234470	-2.693000E+00	  0.037234470	7.893200E+01	  0.037234470	1.839500E+01	  0.037234470	5.729000E+01
88	  0.037434869	-2.748000E+00	  0.037434869	7.682300E+01	  0.037434869	1.956000E+01	  0.037434869	5.918600E+01
89	  0.037635271	-2.806000E+00	  0.037635271	7.469400E+01	  0.037635271	2.083900E+01	  0.037635271	6.114800E+01
90	  0.037835669	-2.868000E+00	  0.037835669	7.255300E+01	  0.037835669	2.226400E+01	  0.037835669	6.316100E+01
91	  0.038036071	-2.933000E+00	  0.038036071	7.042700E+01	  0.038036071	2.381700E+01	  0.038036071	6.519700E+01
92	  0.038236473	-2.998000E+00	  0.038236473	6.835700E+01	  0.038236473	2.546400E+01	  0.038236473	6.722200E+01
93	  0.038436871	-3.055000E+00	  0.038436871	6.627700E+01	  0.038436871	2.719400E+01	  0.038436871	6.933400E+01
94	  0.038637273	-3.109000E+00	  0.038637273	6.416200E+01	  0.038637273	2.907500E+01	  0.038637273	7.154900E+01
95	  0.038837675	-3.163000E+00	  0.038837675	6.205100E+01	  0.038837675	3.110600E+01	  0.038837675	7.381500E+01
96	  0.039038073	-3.216000E+00	  0.039038073	5.994100E+01	  0.039038073	3.332300E+01	  0.039038073	7.612400E+01
97	  0.039238475	-3.274000E+00	  0.039238475	5.785200E+01	  0.039238475	3.575600E+01	  0.039238475	7.842100E+01
98	  0.039438877	-3.329000E+00	  0.039438877	5.576100E+01	  0.039438877	3.837300E+01	  0.039438877	8.077700E+01
99	  0.039639279	-3.385000E+00	  0.039639279	5.368000E+01	  0.039639279	4.123600E+01	  0.039639279	8.312700E+01
100	  0.039839678	-3.442000E+00	  0.039839678	5.155600E+01	  0.039839678	4.442800E+01	  0.039839678	8.553300E+01
101	  0.040040080	-3.497000E+00	  0.040040080	4.943400E+01	  0.040040080	4.789200E+01	  0.040040080	8.795000E+01
102	  0.040240481	-3.553000E+00	  0.040240481	4.735500E+01	  0.040240481	5.162200E+01	  0.040240481	9.027200E+01
103	  0.040440880	-3.610000E+00	  0.040440880	4.525400E+01	  0.040440880	5.574000E+01	  0.040440880	9.255500E+01
104	  0.040641282	-3.665000E+00	  0.040641282	4.319900E+01	  0.040641282	6.013300E+01	  0.040641282	9.470700E+01
105	  0.040841684	-3.722000E+00	  0.040841684	4.111600E+01	  0.040841684	6.499700E+01	  0.040841684	9.673700E+01
106	  0.041042086	-3.778000E+00	  0.041042086	3.907700E+01	  0.041042086	7.017000E+01	  0.041042086	9.855600E+01
107	  0.041242484	-3.836000E+00	  0.041242484	3.699900E+01	  0.041242484	7.590800E+01	  0.041242484	1.001260E+02
108	  0.041442886	-3.892000E+00	  0.041442886	3.492900E+01	  0.041442886	8.207200E+01	  0.041442886	1.014270E+02
109	  0.041643288	-3.950000E+00	  0.041643288	3.286200E+01	  0.041643288	8.872000E+01	  0.041643288	1.022810E+02
110	  0.041843686	-4.004000E+00	  0.041843686	3.077800E+01	  0.041843686	9.588300E+01	  0.041843686	1.027430E+02
111	  0.042044088	-4.060000E+00	  0.042044088	2.873000E+01	  0.042044088	1.033970E+02	  0.042044088	1.025430E+02
112	  0.042244490	-4.115000E+00	  0.042244490	2.666200E+01	  0.042244490	1.114060E+02	  0.042244490	1.016700E+02
113	  0.042444889	-4.170000E+00	  0.042444889	2.463000E+01	  0.042444889	1.196250E+02	  0.042444889	9.995200E+01
114	  0.042645290	-4.227000E+00	  0.042645290	2.260000E+01	  0.042645290	1.280830E+02	  0.042645290	9.725400E+01
115	  0.042845692	-4.279000E+00	  0.042845692	2.055100E+01	  0.042845692	1.367690E+02	  0.042845692	9.361600E+01
116	  0.043046094	-4.334000E+00	  0.043046094	1.852700E+01	  0.043046094	1.452910E+02	  0.043046094	8.878300E+01
117	  0.043246493	-4.387000E+00	  0.043246493	1.647400E+01	  0.043246493	1.537230E+02	  0.043246493	8.272900E+01
118	  0.043446895	-4.440000E+00	  0.043446895	1.445900E+01	  0.043446895	1.615290E+02	  0.043446895	7.555500E+01
119	  0.043647297	-4.489000E+00	  0.043647297	1.244400E+01	  0.043647297	1.687330E+02	  0.043647297	6.731200E+01
120	  0.043847695	-4.540000E+00	  0.043847695	1.043800E+01	  0.043847695	1.749130E+02	  0.043847695	5.794500E+01
121	  0.044048097	-4.591000E+00	  0.044048097	8.442000E+00	  0.044048097	1.799250E+02	  0.044048097	4.771500E+01
122	  0.044248499	-4.642000E+00	  0.044248499	6.457000E+00	  0.044248499	1.835600E+02	  0.044248499	3.684100E+01
123	  0.044448901	-4.690000E+00	  0.044448901	4.487000E+00	  0.044448901	1.858540E+02	  0.044448901	2.566500E+01
124	  0.044649299	-4.738000E+00	  0.044649299	2.516000E+00	  0.044649299	1.866560E+02	  0.044649299	1.430100E+01
125	  0.044849701	-4.784000E+00	  0.044849701	5.570000E-01	  0.044849701	1.860460E+02	  0.044849701	3.128000E+00
126	  0.045050103	-4.829000E+00	  0.045050103	-1.387000E+00	  0.045050103	1.841060E+02	  0.045050103	-7.617000E+00
127	  0.045250501	-4.874000E+00	  0.045250501	-3.337000E+00	  0.045250501	1.809500E+02	  0.045250501	-1.782200E+01
128	  0.045450903	-4.916000E+00	  0.045450903	-5.253000E+00	  0.045450903	1.768490E+02	  0.045450903	-2.713500E+01
129	  0.045651305	-4.957000E+00	  0.045651305	-7.194000E+00	  0.045651305	1.718520E+02	  0.045651305	-3.573400E+01
130	  0.045851704	-4.997000E+00	  0.045851704	-9.095000E+00	  0.045851704	1.662840E+02	  0.045851704	-4.325700E+01
131	  0.046052102	-5.039000E+00	  0.046052102	-1.098900E+01	  0.046052102	1.601970E+02	  0.046052102	-4.979700E+01
132	  0.046252504	-5.078000E+00	  0.046252504	-1.287000E+01	  0.046252504	1.538980E+02	  0.046252504	-5.542100E+01
133	  0.046452906	-5.116000E+00	  0.046452906	-1.472400E+01	  0.046452906	1.475230E+02	  0.046452906	-6.012200E+01
134	  0.046653304	-5.154000E+00	  0.046653304	-1.659500E+01	  0.046653304	1.410300E+02	  0.046653304	-6.405300E+01
135	  0.046853706	-5.190000E+00	  0.046853706	-1.845500E+01	  0.046853706	1.346420E+02	  0.046853706	-6.725400E+01
136	  0.047054108	-5.225000E+00	  0.047054108	-2.031600E+01	  0.047054108	1.283810E+02	  0.047054108	-6.980500E+01
137	  0.047254506	-5.258000E+00	  0.047254506	-2.217800E+01	  0.047254506	1.223010E+02	  0.047254506	-7.179600E+01
138	  0.047454908	-5.288000E+00	  0.047454908	-2.400900E+01	  0.047454908	1.165370E+02	  0.047454908	-7.327500E+01
139	  0.047655310	-5.318000E+00	  0.047655310	-2.583900E+01	  0.047655310	1.110030E+02	  0.047655310	-7.428800E+01
140	  0.047855709	-5.349000E+00	  0.047855709	-2.764600E+01	  0.047855709	1.057700E+02	  0.047855709	-7.487000E+01
141	  0.048056111	-5.380000E+00	  0.048056111	-2.945200E+01	  0.048056111	1.007960E+02	  0.048056111	-7.510900E+01
142	  0.048256513	-5.411000E+00	  0.048256513	-3.123000E+01	  0.048256513	9.615000E+01	  0.048256513	-7.506000E+01
143	  0.048456915	-5.440000E+00	  0.048456915	-3.303100E+01	  0.048456915	9.170200E+01	  0.048456915	-7.482000E+01
144	  0.048657313	-5.465000E+00	  0.048657313	-3.479600E+01	  0.048657313	8.758200E+01	  0.048657313	-7.442300E+01
145	  0.048857715	-5.493000E+00	  0.048857715	-3.657900E+01	  0.048857715	8.365400E+01	  0.048857715	-7.380800E+01
146	  0.049058117	-5.516000E+00	  0.049058117	-3.836900E+01	  0.049058117	7.993300E+01	  0.049058117	-7.310600E+01
147	  0.049258515	-5.540000E+00	  0.049258515	-4.010000E+01	  0.049258515	7.654200E+01	  0.049258515	-7.228700E+01
148	  0.049458917	-5.560000E+00	  0.049458917	-4.185700E+01	  0.049458917	7.328800E+01	  0.049458917	-7.141300E+01
149	  0.049659319	-5.588000E+00	  0.049659319	-4.356800E+01	  0.049659319	7.032300E+01	  0.049659319	-7.037800E+01
150	  0.049859721	-5.611000E+00	  0.049859721	-4.526900E+01	  0.049859721	6.753400E+01	  0.049859721	-6.934100E+01
151	  0.050060119	-5.633000E+00	  0.050060119	-4.698000E+01	  0.050060119	6.488700E+01	  0.050060119	-6.825700E+01
152	  0.050260521	-5.653000E+00	  0.050260521	-4.869400E+01	  0.050260521	6.238100E+01	  0.050260521	-6.714700E+01
153	  0.050460923	-5.675000E+00	  0.050460923	-5.036800E+01	  0.050460923	6.007700E+01	  0.050460923	-6.601600E+01
154	  0.050661322	-5.688000E+00	  0.050661322	-5.207600E+01	  0.050661322	5.782700E+01	  0.050661322	-6.491100E+01
155	  0.050861724	-5.708000E+00	  0.050861724	-5.373900E+01	  0.050861724	5.578600E+01	  0.050861724	-6.375000E+01
156	  0.051062126	-5.725000E+00	  0.051062126	-5.541100E+01	  0.051062126	5.383100E+01	  0.051062126	-6.260100E+01
157	  0.051262524	-5.747000E+00	  0.051262524	-5.704000E+01	  0.051262524	5.205500E+01	  0.051262524	-6.142500E+01
158	  0.051462926	-5.763000E+00	  0.051462926	-5.865900E+01	  0.051462926	5.036000E+01	  0.051462926	-6.029700E+01
159	  0.051663328	-5.783000E+00	  0.051663328	-6.028200E+01	  0.051663328	4.876700E+01	  0.051663328	-5.913800E+01
160	  0.051863730	-5.800000E+00	  0.051863730	-6.190400E+01	  0.051863730	4.724400E+01	  0.051863730	-5.800400E+01
161	  0.052064128	-5.817000E+00	  0.052064128	-6.351400E+01	  0.052064128	4.581500E+01	  0.052064128	-5.687500E+01
162	  0.052264530	-5.823000E+00	  0.052264530	-6.512800E+01	  0.052264530	4.440900E+01	  0.052264530	-5.581400E+01
163	  0.052464932	-5.838000E+00	  0.052464932	-6.669800E+01	  0.052464932	4.314300E+01	  0.052464932	-5.473600E+01
164	  0.052665330	-5.853000E+00	  0.052665330	-6.828600E+01	  0.052665330	4.193100E+01	  0.052665330	-5.364800E+01
165	  0.052865732	-5.866000E+00	  0.052865732	-6.984100E+01	  0.052865732	4.079100E+01	  0.052865732	-5.260200E+01
166	  0.053066134	-5.884000E+00	  0.053066134	-7.140400E+01	  0.053066134	3.972300E+01	  0.053066134	-5.153600E+01
167	  0.053266536	-5.896000E+00	  0.053266536	-7.294700E+01	  0.053266536	3.869300E+01	  0.053266536	-5.052300E+01
168	  0.053466935	-5.911000E+00	  0.053466935	-7.448800E+01	  0.053466935	3.772500E+01	  0.053466935	-4.950400E+01
169	  0.053667337	-5.921000E+00	  0.053667337	-7.602600E+01	  0.053667337	3.678700E+01	  0.053667337	-4.851700E+01
170	  0.053867739	-5.933000E+00	  0.053867739	-7.755300E+01	  0.053867739	3.590600E+01	  0.053867739	-4.753800E+01
171	  0.054068137	-5.943000E+00	  0.054068137	-7.909600E+01	  0.054068137	3.504600E+01	  0.054068137	-4.657100E+01
172	  0.054268539	-5.953000E+00	  0.054268539	-8.059500E+01	  0.054268539	3.424700E+01	  0.054268539	-4.564000E+01
173	  0.054468941	-5.965000E+00	  0.054468941	-8.207600E+01	  0.054468941	3.350500E+01	  0.054468941	-4.471900E+01
174	  0.054669335	-5.978000E+00	  0.054669335	-8.355800E+01	  0.054669335	3.279600E+01	  0.054669335	-4.380600E+01
175	  0.054869737	-5.988000E+00	  0.054869737	-8.503500E+01	  0.054869737	3.210900E+01	  0.054869737	-4.291500E+01
176	  0.055070139	-6.000000E+00	  0.055070139	-8.650000E+01	  0.055070139	3.146500E+01	  0.055070139	-4.203500E+01
177	  0.055270538	-6.010000E+00	  0.055270538	-8.795200E+01	  0.055270538	3.084600E+01	  0.055270538	-4.117900E+01
178	  0.055470940	-6.019000E+00	  0.055470940	-8.937800E+01	  0.055470940	3.025700E+01	  0.055470940	-4.035100E+01
179	  0.055671342	-6.023000E+00	  0.055671342	-9.081000E+01	  0.055671342	2.967500E+01	  0.055671342	-3.953900E+01
180	  0.055871744	-6.026000E+00	  0.055871744	-9.221400E+01	  0.055871744	2.912200E+01	  0.055871744	-3.875500E+01
181	  0.056072142	-6.036000E+00	  0.056072142	-9.363000E+01	  0.056072142	2.861200E+01	  0.056072142	-3.795400E+01
182	  0.056272544	-6.042000E+00	  0.056272544	-9.501400E+01	  0.056272544	2.811600E+01	  0.056272544	-3.719000E+01
183	  0.056472946	-6.047000E+00	  0.056472946	-9.638500E+01	  0.056472946	2.764400E+01	  0.056472946	-3.644100E+01
184	  0.056673344	-6.051000E+00	  0.056673344	-9.772800E+01	  0.056673344	2.719500E+01	  0.056673344	-3.571700E+01
185	  0.056873746	-6.054000E+00	  0.056873746	-9.906300E+01	  0.056873746	2.676000E+01	  0.056873746	-3.500600E+01
186	  0.057074148	-6.056000E+00	  0.057074148	-1.003960E+02	  0.057074148	2.633800E+01	  0.057074148	-3.430500E+01
187	  0.057274550	-6.059000E+00	  0.057274550	-1.017360E+02	  0.057274550	2.593400E+01	  0.057274550	-3.360400E+01
188	  0.057474948	-6.057000E+00	  0.057474948	-1.030360E+02	  0.057474948	2.553700E+01	  0.057474948	-3.294100E+01
189	  0.057675350	-6.058000E+00	  0.057675350	-1.043460E+02	  0.057675350	2.516300E+01	  0.057675350	-3.227000E+01
190	  0.057875752	-6.059000E+00	  0.057875752	-1.056700E+02	  0.057875752	2.479800E+01	  0.057875752	-3.159900E+01
191	  0.058076151	-6.058000E+00	  0.058076151	-1.069620E+02	  0.058076151	2.444800E+01	  0.058076151	-3.095300E+01
192	  0.058276553	-6.054000E+00	  0.058276553	-1.082360E+02	  0.058276553	2.410200E+01	  0.058276553	-3.032700E+01
193	  0.058476955	-6.055000E+00	  0.058476955	-1.095210E+02	  0.058476955	2.378400E+01	  0.058476955	-2.969200E+01
194	  0.058677353	-6.052000E+00	  0.058677353	-1.108210E+02	  0.058677353	2.345900E+01	  0.058677353	-2.906000E+01
195	  0.058877755	-6.052000E+00	  0.058877755	-1.120960E+02	  0.058877755	2.316100E+01	  0.058877755	-2.844000E+01
196	  0.059078157	-6.046000E+00	  0.059078157	-1.133680E+02	  0.059078157	2.285400E+01	  0.059078157	-2.783600E+01
197	  0.059278559	-6.040000E+00	  0.059278559	-1.146460E+02	  0.059278559	2.255600E+01	  0.059278559	-2.723300E+01
198	  0.059478957	-6.035000E+00	  0.059478957	-1.159200E+02	  0.059478957	2.227200E+01	  0.059478957	-2.663500E+01
199	  0.059679359	-6.034000E+00	  0.059679359	-1.171910E+02	  0.059679359	2.201300E+01	  0.059679359	-2.603500E+01
200	  0.059879761	-6.031000E+00	  0.059879761	-1.184620E+02	  0.059879761	2.175300E+01	  0.059879761	-2.544400E+01
201	  0.060080159	-6.029000E+00	  0.060080159	-1.196990E+02	  0.060080159	2.151200E+01	  0.060080159	-2.487100E+01
202	  0.060280561	-6.027000E+00	  0.060280561	-1.209610E+02	  0.060280561	2.127300E+01	  0.060280561	-2.429100E+01
203	  0.060480963	-6.027000E+00	  0.060480963	-1.222170E+02	  0.060480963	2.105000E+01	  0.060480963	-2.371500E+01
204	  0.060681365	-6.023000E+00	  0.060681365	-1.234660E+02	  0.060681365	2.082500E+01	  0.060681365	-2.315000E+01
205	  0.060881764	-6.019000E+00	  0.060881764	-1.247170E+02	  0.060881764	2.060700E+01	  0.060881764	-2.258800E+01
206	  0.061082166	-6.017000E+00	  0.061082166	-1.259560E+02	  0.061082166	2.040100E+01	  0.061082166	-2.203300E+01
207	  0.061282568	-6.016000E+00	  0.061282568	-1.271980E+02	  0.061282568	2.020800E+01	  0.061282568	-2.147800E+01
208	  0.061482966	-6.014000E+00	  0.061482966	-1.284360E+02	  0.061482966	2.001600E+01	  0.061482966	-2.093100E+01
209	  0.061683368	-6.008000E+00	  0.061683368	-1.296620E+02	  0.061683368	1.982400E+01	  0.061683368	-2.039500E+01
210	  0.061883770	-6.010000E+00	  0.061883770	-1.308810E+02	  0.061883770	1.966200E+01	  0.061883770	-1.985800E+01
211	  0.062084168	-6.006000E+00	  0.062084168	-1.320730E+02	  0.062084168	1.948900E+01	  0.062084168	-1.934100E+01
212	  0.062284570	-6.006000E+00	  0.062284570	-1.333200E+02	  0.062284570	1.932800E+01	  0.062284570	-1.880000E+01
213	  0.062484972	-5.993000E+00	  0.062484972	-1.345020E+02	  0.062484972	1.914400E+01	  0.062484972	-1.830000E+01
214	  0.062685370	-5.991000E+00	  0.062685370	-1.356920E+02	  0.062685370	1.899400E+01	  0.062685370	-1.779100E+01
215	  0.062885776	-5.992000E+00	  0.062885776	-1.368900E+02	  0.062885776	1.886000E+01	  0.062885776	-1.727800E+01
216	  0.063086174	-5.987000E+00	  0.063086174	-1.380790E+02	  0.063086174	1.871200E+01	  0.063086174	-1.677600E+01
217	  0.063286573	-5.983000E+00	  0.063286573	-1.392670E+02	  0.063286573	1.857300E+01	  0.063286573	-1.627600E+01
218	  0.063486971	-5.979000E+00	  0.063486971	-1.404040E+02	  0.063486971	1.844600E+01	  0.063486971	-1.579900E+01
219	  0.063687377	-5.975000E+00	  0.063687377	-1.415550E+02	  0.063687377	1.832000E+01	  0.063687377	-1.531800E+01
220	  0.063887775	-5.973000E+00	  0.063887775	-1.427190E+02	  0.063887775	1.820200E+01	  0.063887775	-1.483400E+01
221	  0.064088173	-5.970000E+00	  0.064088173	-1.438820E+02	  0.064088173	1.808500E+01	  0.064088173	-1.435200E+01
222	  0.064288579	-5.967000E+00	  0.064288579	-1.450250E+02	  0.064288579	1.797500E+01	  0.064288579	-1.388000E+01
223	  0.064488977	-5.969000E+00	  0.064488977	-1.461740E+02	  0.064488977	1.788300E+01	  0.064488977	-1.340400E+01
224	  0.064689375	-5.970000E+00	  0.064689375	-1.472650E+02	  0.064689375	1.779700E+01	  0.064689375	-1.295500E+01
225	  0.064889781	-5.964000E+00	  0.064889781	-1.484180E+02	  0.064889781	1.769100E+01	  0.064889781	-1.248600E+01
226	  0.065090179	-5.968000E+00	  0.065090179	-1.495230E+02	  0.065090179	1.761600E+01	  0.065090179	-1.203300E+01
227	  0.065290578	-5.968000E+00	  0.065290578	-1.506280E+02	  0.065290578	1.753600E+01	  0.065290578	-1.158400E+01
228	  0.065490983	-5.968000E+00	  0.065490983	-1.517360E+02	  0.065490983	1.745900E+01	  0.065490983	-1.113500E+01
229	  0.065691382	-5.966000E+00	  0.065691382	-1.528480E+02	  0.065691382	1.738100E+01	  0.065691382	-1.068600E+01
230	  0.065891780	-5.965000E+00	  0.065891780	-1.539580E+02	  0.065891780	1.730700E+01	  0.065891780	-1.023900E+01
231	  0.066092186	-5.969000E+00	  0.066092186	-1.550300E+02	  0.066092186	1.725400E+01	  0.066092186	-9.807000E+00
232	  0.066292584	-5.968000E+00	  0.066292584	-1.561320E+02	  0.066292584	1.718700E+01	  0.066292584	-9.366000E+00
233	  0.066492982	-5.967000E+00	  0.066492982	-1.572120E+02	  0.066492982	1.712500E+01	  0.066492982	-8.935000E+00
234	  0.066693388	-5.971000E+00	  0.066693388	-1.582770E+02	  0.066693388	1.708100E+01	  0.066693388	-8.509000E+00
235	  0.066893786	-5.973000E+00	  0.066893786	-1.593340E+02	  0.066893786	1.703400E+01	  0.066893786	-8.088000E+00
236	  0.067094192	-5.974000E+00	  0.067094192	-1.604060E+02	  0.067094192	1.698600E+01	  0.067094192	-7.662000E+00
237	  0.067294590	-5.979000E+00	  0.067294590	-1.614660E+02	  0.067294590	1.695300E+01	  0.067294590	-7.241000E+00
238	  0.067494988	-5.978000E+00	  0.067494988	-1.625270E+02	  0.067494988	1.690400E+01	  0.067494988	-6.823000E+00
239	  0.067695394	-5.982000E+00	  0.067695394	-1.635840E+02	  0.067695394	1.687500E+01	  0.067695394	-6.405000E+00
240	  0.067895792	-5.987000E+00	  0.067895792	-1.646340E+02	  0.067895792	1.684800E+01	  0.067895792	-5.991000E+00
241	  0.068096191	-5.990000E+00	  0.068096191	-1.656900E+02	  0.068096191	1.682200E+01	  0.068096191	-5.575000E+00
242	  0.068296596	-5.991000E+00	  0.068296596	-1.667310E+02	  0.068296596	1.679200E+01	  0.068296596	-5.167000E+00
243	  0.068496995	-5.993000E+00	  0.068496995	-1.677600E+02	  0.068496995	1.676700E+01	  0.068496995	-4.764000E+00
244	  0.068697393	-6.001000E+00	  0.068697393	-1.687970E+02	  0.068697393	1.675900E+01	  0.068697393	-4.357000E+00
245	  0.068897791	-6.002000E+00	  0.068897791	-1.698060E+02	  0.068897791	1.673700E+01	  0.068897791	-3.963000E+00
246	  0.069098189	-6.001000E+00	  0.069098189	-1.708130E+02	  0.069098189	1.671300E+01	  0.069098189	-3.570000E+00
247	  0.069298595	-6.006000E+00	  0.069298595	-1.718470E+02	  0.069298595	1.670600E+01	  0.069298595	-3.167000E+00
248	  0.069498993	-6.004000E+00	  0.069498993	-1.728820E+02	  0.069498993	1.668300E+01	  0.069498993	-2.764000E+00
249	  0.069699399	-6.012000E+00	  0.069699399	-1.738930E+02	  0.069699399	1.668900E+01	  0.069699399	-2.370000E+00
250	  0.069899797	-6.017000E+00	  0.069899797	-1.748980E+02	  0.069899797	1.668600E+01	  0.069899797	-1.979000E+00
251	  0.070100196	-6.018000E+00	  0.070100196	-1.758840E+02	  0.070100196	1.667900E+01	  0.070100196	-1.596000E+00
252	  0.070300601	-6.020000E+00	  0.070300601	-1.768830E+02	  0.070300601	1.667800E+01	  0.070300601	-1.209000E+00
253	  0.070501000	-6.021000E+00	  0.070501000	-1.778580E+02	  0.070501000	1.667300E+01	  0.070501000	-8.300000E-01
254	  0.070701398	-6.024000E+00	  0.070701398	-1.788460E+02	  0.070701398	1.667900E+01	  0.070701398	-4.470000E-01
255	  0.070901804	-6.026000E+00	  0.070901804	-1.798290E+02	  0.070901804	1.668000E+01	  0.070901804	-6.600000E-02
256	  0.071102202	-6.034000E+00	  0.071102202	1.791890E+02	  0.071102202	1.670200E+01	  0.071102202	3.140000E-01
257	  0.071302600	-6.040000E+00	  0.071302600	1.782190E+02	  0.071302600	1.672000E+01	  0.071302600	6.900000E-01
258	  0.071503006	-6.042000E+00	  0.071503006	1.772460E+02	  0.071503006	1.673100E+01	  0.071503006	1.067000E+00
259	  0.071703404	-6.053000E+00	  0.071703404	1.762740E+02	  0.071703404	1.676500E+01	  0.071703404	1.443000E+00
260	  0.071903802	-6.053000E+00	  0.071903802	1.753180E+02	  0.071903802	1.677600E+01	  0.071903802	1.814000E+00
261	  0.072104208	-6.060000E+00	  0.072104208	1.743460E+02	  0.072104208	1.680400E+01	  0.072104208	2.190000E+00
262	  0.072304606	-6.066000E+00	  0.072304606	1.734030E+02	  0.072304606	1.683400E+01	  0.072304606	2.555000E+00
263	  0.072505005	-6.069000E+00	  0.072505005	1.724480E+02	  0.072505005	1.685700E+01	  0.072505005	2.926000E+00
264	  0.072705410	-6.077000E+00	  0.072705410	1.715010E+02	  0.072705410	1.689400E+01	  0.072705410	3.292000E+00
265	  0.072905809	-6.083000E+00	  0.072905809	1.705370E+02	  0.072905809	1.692900E+01	  0.072905809	3.666000E+00
266	  0.073106214	-6.089000E+00	  0.073106214	1.696040E+02	  0.073106214	1.696500E+01	  0.073106214	4.028000E+00
267	  0.073306613	-6.097000E+00	  0.073306613	1.686770E+02	  0.073306613	1.701000E+01	  0.073306613	4.387000E+00
268	  0.073507011	-6.106000E+00	  0.073507011	1.677130E+02	  0.073507011	1.706000E+01	  0.073507011	4.761000E+00
269	  0.073707417	-6.109000E+00	  0.073707417	1.668090E+02	  0.073707417	1.709300E+01	  0.073707417	5.113000E+00
270	  0.073907815	-6.117000E+00	  0.073907815	1.658830E+02	  0.073907815	1.714300E+01	  0.073907815	5.472000E+00
271	  0.074108213	-6.123000E+00	  0.074108213	1.649610E+02	  0.074108213	1.718900E+01	  0.074108213	5.831000E+00
272	  0.074308619	-6.129000E+00	  0.074308619	1.640490E+02	  0.074308619	1.723700E+01	  0.074308619	6.186000E+00
273	  0.074509017	-6.133000E+00	  0.074509017	1.630820E+02	  0.074509017	1.728700E+01	  0.074509017	6.563000E+00
274	  0.074709415	-6.140000E+00	  0.074709415	1.622050E+02	  0.074709415	1.733900E+01	  0.074709415	6.905000E+00
275	  0.074909821	-6.149000E+00	  0.074909821	1.612890E+02	  0.074909821	1.740200E+01	  0.074909821	7.262000E+00
276	  0.075110219	-6.158000E+00	  0.075110219	1.603890E+02	  0.075110219	1.746600E+01	  0.075110219	7.613000E+00
277	  0.075310618	-6.163000E+00	  0.075310618	1.594900E+02	  0.075310618	1.752200E+01	  0.075310618	7.965000E+00
278	  0.075511023	-6.171000E+00	  0.075511023	1.586120E+02	  0.075511023	1.758600E+01	  0.075511023	8.309000E+00
279	  0.075711422	-6.177000E+00	  0.075711422	1.577290E+02	  0.075711422	1.764700E+01	  0.075711422	8.655000E+00
280	  0.075911827	-6.185000E+00	  0.075911827	1.568540E+02	  0.075911827	1.771600E+01	  0.075911827	8.999000E+00
281	  0.076112226	-6.192000E+00	  0.076112226	1.559740E+02	  0.076112226	1.778400E+01	  0.076112226	9.344000E+00
282	  0.076312624	-6.201000E+00	  0.076312624	1.550640E+02	  0.076312624	1.786200E+01	  0.076312624	9.702000E+00
283	  0.076513030	-6.211000E+00	  0.076513030	1.542130E+02	  0.076513030	1.794000E+01	  0.076513030	1.003600E+01
284	  0.076713428	-6.220000E+00	  0.076713428	1.533340E+02	  0.076713428	1.802000E+01	  0.076713428	1.038200E+01
285	  0.076913826	-6.227000E+00	  0.076913826	1.524620E+02	  0.076913826	1.809700E+01	  0.076913826	1.072700E+01
286	  0.077114232	-6.236000E+00	  0.077114232	1.516060E+02	  0.077114232	1.818000E+01	  0.077114232	1.106500E+01
287	  0.077314630	-6.243000E+00	  0.077314630	1.507650E+02	  0.077314630	1.826000E+01	  0.077314630	1.139800E+01
288	  0.077515028	-6.258000E+00	  0.077515028	1.499180E+02	  0.077515028	1.836000E+01	  0.077515028	1.173100E+01
289	  0.077715434	-6.266000E+00	  0.077715434	1.490580E+02	  0.077715434	1.844700E+01	  0.077715434	1.207300E+01
290	  0.077915832	-6.274000E+00	  0.077915832	1.482220E+02	  0.077915832	1.853600E+01	  0.077915832	1.240500E+01
291	  0.078116231	-6.287000E+00	  0.078116231	1.473750E+02	  0.078116231	1.863900E+01	  0.078116231	1.274000E+01
292	  0.078316636	-6.299000E+00	  0.078316636	1.465050E+02	  0.078316636	1.874500E+01	  0.078316636	1.308500E+01
293	  0.078517035	-6.308000E+00	  0.078517035	1.456560E+02	  0.078517035	1.884200E+01	  0.078517035	1.342400E+01
294	  0.078717433	-6.323000E+00	  0.078717433	1.448240E+02	  0.078717433	1.895700E+01	  0.078717433	1.375300E+01
295	  0.078917839	-6.337000E+00	  0.078917839	1.439680E+02	  0.078917839	1.907300E+01	  0.078917839	1.409300E+01
296	  0.079118237	-6.347000E+00	  0.079118237	1.431500E+02	  0.079118237	1.917900E+01	  0.079118237	1.442000E+01
297	  0.079318643	-6.361000E+00	  0.079318643	1.423180E+02	  0.079318643	1.929900E+01	  0.079318643	1.475100E+01
298	  0.079519041	-6.373000E+00	  0.079519041	1.414760E+02	  0.079519041	1.941400E+01	  0.079519041	1.508900E+01
299	  0.079719439	-6.386000E+00	  0.079719439	1.406440E+02	  0.079719439	1.953600E+01	  0.079719439	1.542100E+01
300	  0.079919845	-6.400000E+00	  0.079919845	1.398070E+02	  0.079919845	1.966500E+01	  0.079919845	1.575600E+01
301	  0.080120243	-6.415000E+00	  0.080120243	1.389490E+02	  0.080120243	1.980000E+01	  0.080120243	1.609900E+01
302	  0.080320641	-6.431000E+00	  0.080320641	1.381260E+02	  0.080320641	1.993600E+01	  0.080320641	1.642800E+01
303	  0.080521047	-6.445000E+00	  0.080521047	1.373010E+02	  0.080521047	2.007000E+01	  0.080521047	1.675900E+01
304	  0.080721445	-6.459000E+00	  0.080721445	1.364780E+02	  0.080721445	2.020400E+01	  0.080721445	1.709000E+01
305	  0.080921844	-6.471000E+00	  0.080921844	1.356470E+02	  0.080921844	2.034000E+01	  0.080921844	1.742700E+01
306	  0.081122249	-6.486000E+00	  0.081122249	1.348440E+02	  0.081122249	2.048100E+01	  0.081122249	1.775000E+01
307	  0.081322648	-6.500000E+00	  0.081322648	1.340310E+02	  0.081322648	2.062400E+01	  0.081322648	1.807900E+01
308	  0.081523046	-6.515000E+00	  0.081523046	1.332160E+02	  0.081523046	2.077400E+01	  0.081523046	1.840700E+01
309	  0.081723452	-6.528000E+00	  0.081723452	1.323840E+02	  0.081723452	2.092100E+01	  0.081723452	1.874600E+01
310	  0.081923850	-6.541000E+00	  0.081923850	1.315790E+02	  0.081923850	2.107000E+01	  0.081923850	1.907300E+01
311	  0.082124248	-6.554000E+00	  0.082124248	1.307920E+02	  0.082124248	2.121800E+01	  0.082124248	1.939400E+01
312	  0.082324654	-6.568000E+00	  0.082324654	1.299840E+02	  0.082324654	2.137600E+01	  0.082324654	1.972300E+01
313	  0.082525052	-6.584000E+00	  0.082525052	1.292110E+02	  0.082525052	2.153400E+01	  0.082525052	2.003600E+01
314	  0.082725458	-6.602000E+00	  0.082725458	1.284550E+02	  0.082725458	2.170000E+01	  0.082725458	2.034000E+01
315	  0.082925856	-6.613000E+00	  0.082925856	1.276850E+02	  0.082925856	2.185000E+01	  0.082925856	2.065800E+01
316	  0.083126254	-6.636000E+00	  0.083126254	1.268950E+02	  0.083126254	2.204400E+01	  0.083126254	2.097100E+01
317	  0.083326660	-6.647000E+00	  0.083326660	1.261320E+02	  0.083326660	2.219900E+01	  0.083326660	2.128600E+01
318	  0.083527058	-6.664000E+00	  0.083527058	1.253600E+02	  0.083527058	2.237500E+01	  0.083527058	2.159900E+01
319	  0.083727457	-6.680000E+00	  0.083727457	1.246150E+02	  0.083727457	2.254700E+01	  0.083727457	2.190300E+01
320	  0.083927862	-6.699000E+00	  0.083927862	1.238440E+02	  0.083927862	2.273500E+01	  0.083927862	2.221400E+01
321	  0.084128261	-6.718000E+00	  0.084128261	1.231060E+02	  0.084128261	2.292200E+01	  0.084128261	2.251000E+01
322	  0.084328659	-6.740000E+00	  0.084328659	1.223720E+02	  0.084328659	2.311900E+01	  0.084328659	2.280200E+01
323	  0.084529065	-6.759000E+00	  0.084529065	1.216300E+02	  0.084529065	2.331100E+01	  0.084529065	2.310100E+01
324	  0.084729463	-6.781000E+00	  0.084729463	1.208600E+02	  0.084729463	2.352000E+01	  0.084729463	2.340800E+01
325	  0.084929854	-6.797000E+00	  0.084929854	1.201130E+02	  0.084929854	2.371200E+01	  0.084929854	2.371300E+01
326	  0.085130259	-6.819000E+00	  0.085130259	1.193640E+02	  0.085130259	2.392400E+01	  0.085130259	2.401200E+01
327	  0.085330658	-6.840000E+00	  0.085330658	1.186200E+02	  0.085330658	2.413600E+01	  0.085330658	2.430900E+01
328	  0.085531056	-6.862000E+00	  0.085531056	1.178470E+02	  0.085531056	2.435800E+01	  0.085531056	2.461800E+01
329	  0.085731462	-6.885000E+00	  0.085731462	1.171020E+02	  0.085731462	2.458200E+01	  0.085731462	2.491300E+01
330	  0.085931860	-6.905000E+00	  0.085931860	1.163960E+02	  0.085931860	2.479300E+01	  0.085931860	2.519400E+01
331	  0.086132258	-6.928000E+00	  0.086132258	1.157020E+02	  0.086132258	2.501100E+01	  0.086132258	2.546700E+01
332	  0.086332664	-6.952000E+00	  0.086332664	1.149190E+02	  0.086332664	2.525700E+01	  0.086332664	2.577600E+01
333	  0.086533062	-6.974000E+00	  0.086533062	1.141930E+02	  0.086533062	2.548800E+01	  0.086533062	2.606300E+01
334	  0.086733460	-6.997000E+00	  0.086733460	1.134970E+02	  0.086733460	2.571800E+01	  0.086733460	2.633500E+01
335	  0.086933866	-7.016000E+00	  0.086933866	1.127500E+02	  0.086933866	2.595300E+01	  0.086933866	2.663500E+01
336	  0.087134264	-7.038000E+00	  0.087134264	1.120130E+02	  0.087134264	2.619800E+01	  0.087134264	2.692600E+01
337	  0.087334670	-7.065000E+00	  0.087334670	1.113160E+02	  0.087334670	2.644800E+01	  0.087334670	2.719100E+01
338	  0.087535068	-7.092000E+00	  0.087535068	1.106090E+02	  0.087535068	2.670600E+01	  0.087535068	2.746000E+01
339	  0.087735467	-7.115000E+00	  0.087735467	1.098960E+02	  0.087735467	2.696000E+01	  0.087735467	2.773600E+01
340	  0.087935872	-7.146000E+00	  0.087935872	1.092040E+02	  0.087935872	2.723300E+01	  0.087935872	2.798900E+01
341	  0.088136271	-7.168000E+00	  0.088136271	1.085060E+02	  0.088136271	2.748300E+01	  0.088136271	2.826100E+01
342	  0.088336669	-7.192000E+00	  0.088336669	1.078260E+02	  0.088336669	2.774000E+01	  0.088336669	2.851900E+01
343	  0.088537075	-7.213000E+00	  0.088537075	1.071320E+02	  0.088537075	2.799500E+01	  0.088537075	2.878800E+01
344	  0.088737473	-7.242000E+00	  0.088737473	1.064370E+02	  0.088737473	2.827800E+01	  0.088737473	2.904300E+01
345	  0.088937871	-7.264000E+00	  0.088937871	1.057280E+02	  0.088937871	2.854700E+01	  0.088937871	2.931500E+01
346	  0.089138277	-7.297000E+00	  0.089138277	1.050580E+02	  0.089138277	2.884000E+01	  0.089138277	2.954900E+01
347	  0.089338675	-7.321000E+00	  0.089338675	1.044260E+02	  0.089338675	2.910100E+01	  0.089338675	2.978200E+01
348	  0.089539073	-7.352000E+00	  0.089539073	1.037910E+02	  0.089539073	2.938500E+01	  0.089539073	3.000100E+01
349	  0.089739479	-7.379000E+00	  0.089739479	1.031170E+02	  0.089739479	2.967300E+01	  0.089739479	3.024400E+01
350	  0.089939877	-7.408000E+00	  0.089939877	1.024850E+02	  0.089939877	2.995700E+01	  0.089939877	3.046300E+01
351	  0.090140276	-7.438000E+00	  0.090140276	1.018340E+02	  0.090140276	3.025400E+01	  0.090140276	3.068600E+01
352	  0.090340681	-7.464000E+00	  0.090340681	1.012420E+02	  0.090340681	3.052300E+01	  0.090340681	3.089100E+01
353	  0.090541080	-7.497000E+00	  0.090541080	1.005860E+02	  0.090541080	3.083700E+01	  0.090541080	3.110700E+01
354	  0.090741485	-7.525000E+00	  0.090741485	9.997200E+01	  0.090741485	3.112500E+01	  0.090741485	3.131400E+01
355	  0.090941884	-7.562000E+00	  0.090941884	9.937700E+01	  0.090941884	3.143600E+01	  0.090941884	3.149000E+01
356	  0.091142282	-7.595000E+00	  0.091142282	9.875400E+01	  0.091142282	3.174800E+01	  0.091142282	3.168700E+01
357	  0.091342688	-7.627000E+00	  0.091342688	9.815200E+01	  0.091342688	3.205300E+01	  0.091342688	3.187300E+01
358	  0.091543086	-7.658000E+00	  0.091543086	9.754100E+01	  0.091543086	3.236000E+01	  0.091543086	3.206600E+01
359	  0.091743484	-7.690000E+00	  0.091743484	9.694500E+01	  0.091743484	3.267000E+01	  0.091743484	3.224500E+01
360	  0.091943890	-7.720000E+00	  0.091943890	9.632700E+01	  0.091943890	3.298500E+01	  0.091943890	3.243800E+01
361	  0.092144288	-7.752000E+00	  0.092144288	9.573300E+01	  0.092144288	3.329900E+01	  0.092144288	3.261400E+01
362	  0.092344686	-7.784000E+00	  0.092344686	9.514300E+01	  0.092344686	3.361300E+01	  0.092344686	3.278700E+01
363	  0.092545092	-7.815000E+00	  0.092545092	9.453900E+01	  0.092545092	3.393600E+01	  0.092545092	3.296300E+01
364	  0.092745490	-7.849000E+00	  0.092745490	9.399000E+01	  0.092745490	3.424700E+01	  0.092745490	3.310800E+01
365	  0.092945889	-7.879000E+00	  0.092945889	9.343900E+01	  0.092945889	3.454900E+01	  0.092945889	3.326200E+01
366	  0.093146294	-7.916000E+00	  0.093146294	9.283400E+01	  0.093146294	3.489600E+01	  0.093146294	3.341800E+01
367	  0.093346693	-7.942000E+00	  0.093346693	9.228700E+01	  0.093346693	3.519200E+01	  0.093346693	3.357600E+01
368	  0.093547091	-7.975000E+00	  0.093547091	9.173600E+01	  0.093547091	3.551000E+01	  0.093547091	3.371600E+01
369	  0.093747497	-8.006000E+00	  0.093747497	9.119600E+01	  0.093747497	3.582200E+01	  0.093747497	3.385300E+01
370	  0.093947895	-8.034000E+00	  0.093947895	9.064200E+01	  0.093947895	3.613500E+01	  0.093947895	3.400100E+01
371	  0.094148301	-8.069000E+00	  0.094148301	9.009900E+01	  0.094148301	3.646400E+01	  0.094148301	3.412300E+01
372	  0.094348699	-8.093000E+00	  0.094348699	8.956100E+01	  0.094348699	3.676300E+01	  0.094348699	3.427300E+01
373	  0.094549097	-8.129000E+00	  0.094549097	8.905500E+01	  0.094549097	3.708200E+01	  0.094549097	3.437400E+01
374	  0.094749503	-8.153000E+00	  0.094749503	8.854500E+01	  0.094749503	3.737400E+01	  0.094749503	3.450700E+01
375	  0.094949901	-8.186000E+00	  0.094949901	8.805500E+01	  0.094949901	3.768300E+01	  0.094949901	3.460400E+01
376	  0.095150299	-8.209000E+00	  0.095150299	8.757500E+01	  0.095150299	3.796200E+01	  0.095150299	3.472500E+01
377	  0.095350705	-8.237000E+00	  0.095350705	8.707400E+01	  0.095350705	3.826900E+01	  0.095350705	3.483400E+01
378	  0.095551103	-8.267000E+00	  0.095551103	8.658900E+01	  0.095551103	3.857300E+01	  0.095551103	3.493200E+01
379	  0.095751502	-8.293000E+00	  0.095751502	8.607100E+01	  0.095751502	3.888400E+01	  0.095751502	3.505300E+01
380	  0.095951907	-8.323000E+00	  0.095951907	8.564400E+01	  0.095951907	3.916400E+01	  0.095951907	3.512200E+01
381	  0.096152306	-8.344000E+00	  0.096152306	8.515700E+01	  0.096152306	3.945200E+01	  0.096152306	3.524300E+01
382	  0.096352704	-8.374000E+00	  0.096352704	8.471800E+01	  0.096352704	3.974200E+01	  0.096352704	3.531100E+01
383	  0.096553110	-8.397000E+00	  0.096553110	8.429200E+01	  0.096553110	4.000800E+01	  0.096553110	3.539800E+01
384	  0.096753508	-8.422000E+00	  0.096753508	8.384500E+01	  0.096753508	4.029100E+01	  0.096753508	3.548500E+01
385	  0.096953906	-8.450000E+00	  0.096953906	8.341400E+01	  0.096953906	4.057600E+01	  0.096953906	3.555200E+01
386	  0.097154312	-8.473000E+00	  0.097154312	8.297100E+01	  0.097154312	4.085600E+01	  0.097154312	3.563800E+01
387	  0.097354710	-8.499000E+00	  0.097354710	8.257200E+01	  0.097354710	4.112200E+01	  0.097354710	3.569700E+01
388	  0.097555116	-8.526000E+00	  0.097555116	8.215400E+01	  0.097555116	4.140300E+01	  0.097555116	3.575400E+01
389	  0.097755514	-8.546000E+00	  0.097755514	8.173700E+01	  0.097755514	4.166500E+01	  0.097755514	3.583800E+01
390	  0.097955912	-8.568000E+00	  0.097955912	8.133200E+01	  0.097955912	4.193000E+01	  0.097955912	3.590400E+01
391	  0.098156318	-8.601000E+00	  0.098156318	8.092300E+01	  0.098156318	4.222200E+01	  0.098156318	3.593500E+01
392	  0.098356716	-8.618000E+00	  0.098356716	8.050200E+01	  0.098356716	4.248600E+01	  0.098356716	3.602200E+01
393	  0.098557115	-8.634000E+00	  0.098557115	8.011100E+01	  0.098557115	4.273200E+01	  0.098557115	3.610000E+01
394	  0.098757520	-8.655000E+00	  0.098757520	7.970200E+01	  0.098757520	4.300100E+01	  0.098757520	3.616500E+01
395	  0.098957919	-8.674000E+00	  0.098957919	7.930800E+01	  0.098957919	4.325700E+01	  0.098957919	3.623400E+01
396	  0.099158317	-8.693000E+00	  0.099158317	7.889100E+01	  0.099158317	4.352900E+01	  0.099158317	3.630400E+01
397	  0.099358723	-8.715000E+00	  0.099358723	7.848000E+01	  0.099358723	4.380500E+01	  0.099358723	3.636200E+01
398	  0.099559121	-8.731000E+00	  0.099559121	7.809900E+01	  0.099559121	4.405200E+01	  0.099559121	3.642800E+01
399	  0.099759519	-8.743000E+00	  0.099759519	7.767900E+01	  0.099759519	4.431500E+01	  0.099759519	3.652000E+01
400	  0.099959925	-8.757000E+00	  0.099959925	7.730800E+01	  0.099959925	4.455500E+01	  0.099959925	3.659000E+01
401	  0.100160323	-8.760000E+00	  0.100160323	7.691700E+01	  0.100160323	4.478500E+01	  0.100160323	3.670300E+01
402	  0.100360721	-8.777000E+00	  0.100360721	7.657200E+01	  0.100360721	4.501900E+01	  0.100360721	3.675100E+01
403	  0.100561127	-8.787000E+00	  0.100561127	7.606900E+01	  0.100561127	4.533200E+01	  0.100561127	3.687100E+01
404	  0.100761525	-8.797000E+00	  0.100761525	7.570000E+01	  0.100761525	4.557000E+01	  0.100761525	3.694700E+01
405	  0.100961931	-8.798000E+00	  0.100961931	7.530800E+01	  0.100961931	4.580300E+01	  0.100961931	3.706600E+01
406	  0.101162329	-8.804000E+00	  0.101162329	7.493900E+01	  0.101162329	4.603400E+01	  0.101162329	3.715600E+01
407	  0.101362728	-8.805000E+00	  0.101362728	7.453700E+01	  0.101362728	4.627700E+01	  0.101362728	3.727600E+01
408	  0.101563133	-8.817000E+00	  0.101563133	7.417600E+01	  0.101563133	4.651900E+01	  0.101563133	3.733900E+01
409	  0.101763532	-8.822000E+00	  0.101763532	7.375700E+01	  0.101763532	4.678400E+01	  0.101763532	3.744500E+01
410	  0.101963930	-8.817000E+00	  0.101963930	7.340300E+01	  0.101963930	4.699200E+01	  0.101963930	3.756800E+01
411	  0.102164328	-8.817000E+00	  0.102164328	7.295700E+01	  0.102164328	4.726900E+01	  0.102164328	3.770000E+01
412	  0.102364726	-8.820000E+00	  0.102364726	7.261300E+01	  0.102364726	4.748800E+01	  0.102364726	3.779100E+01
413	  0.102565125	-8.809000E+00	  0.102565125	7.213900E+01	  0.102565125	4.776500E+01	  0.102565125	3.797500E+01
414	  0.102765530	-8.810000E+00	  0.102765530	7.177400E+01	  0.102765530	4.800000E+01	  0.102765530	3.807400E+01
415	  0.102965929	-8.808000E+00	  0.102965929	7.141100E+01	  0.102965929	4.822900E+01	  0.102965929	3.818500E+01
416	  0.103166327	-8.792000E+00	  0.103166327	7.105700E+01	  0.103166327	4.842800E+01	  0.103166327	3.835300E+01
417	  0.103366733	-8.797000E+00	  0.103366733	7.062400E+01	  0.103366733	4.871800E+01	  0.103366733	3.845600E+01
418	  0.103567131	-8.791000E+00	  0.103567131	7.024200E+01	  0.103567131	4.895800E+01	  0.103567131	3.858800E+01
419	  0.103767529	-8.789000E+00	  0.103767529	6.982100E+01	  0.103767529	4.923300E+01	  0.103767529	3.871300E+01
420	  0.103967935	-8.776000E+00	  0.103967935	6.935400E+01	  0.103967935	4.952300E+01	  0.103967935	3.889600E+01
421	  0.104168333	-8.779000E+00	  0.104168333	6.898000E+01	  0.104168333	4.978000E+01	  0.104168333	3.898800E+01
422	  0.104368731	-8.764000E+00	  0.104368731	6.855000E+01	  0.104368731	5.004600E+01	  0.104368731	3.917000E+01
423	  0.104569137	-8.755000E+00	  0.104569137	6.813700E+01	  0.104569137	5.031500E+01	  0.104569137	3.932000E+01
424	  0.104769535	-8.745000E+00	  0.104769535	6.768000E+01	  0.104769535	5.061500E+01	  0.104769535	3.948300E+01
425	  0.104969934	-8.753000E+00	  0.104969934	6.725800E+01	  0.104969934	5.092400E+01	  0.104969934	3.955800E+01
426	  0.105170339	-8.739000E+00	  0.105170339	6.674900E+01	  0.105170339	5.126100E+01	  0.105170339	3.975200E+01
427	  0.105370738	-8.728000E+00	  0.105370738	6.632900E+01	  0.105370738	5.154200E+01	  0.105370738	3.990900E+01
428	  0.105571143	-8.720000E+00	  0.105571143	6.586100E+01	  0.105571143	5.186600E+01	  0.105571143	4.006600E+01
429	  0.105771542	-8.705000E+00	  0.105771542	6.540800E+01	  0.105771542	5.217300E+01	  0.105771542	4.024800E+01
430	  0.105971940	-8.704000E+00	  0.105971940	6.486900E+01	  0.105971940	5.256800E+01	  0.105971940	4.038400E+01
431	  0.106172346	-8.690000E+00	  0.106172346	6.442500E+01	  0.106172346	5.287700E+01	  0.106172346	4.055700E+01
432	  0.106372744	-8.690000E+00	  0.106372744	6.388100E+01	  0.106372744	5.328700E+01	  0.106372744	4.068300E+01
433	  0.106573142	-8.679000E+00	  0.106573142	6.337800E+01	  0.106573142	5.365200E+01	  0.106573142	4.085500E+01
434	  0.106773548	-8.677000E+00	  0.106773548	6.286700E+01	  0.106773548	5.404200E+01	  0.106773548	4.097900E+01
435	  0.106973946	-8.664000E+00	  0.106973946	6.235200E+01	  0.106973946	5.442500E+01	  0.106973946	4.115600E+01
436	  0.107174344	-8.655000E+00	  0.107174344	6.177500E+01	  0.107174344	5.486600E+01	  0.107174344	4.132400E+01
437	  0.107374750	-8.647000E+00	  0.107374750	6.127300E+01	  0.107374750	5.525500E+01	  0.107374750	4.147200E+01
438	  0.107575148	-8.634000E+00	  0.107575148	6.071300E+01	  0.107575148	5.568800E+01	  0.107575148	4.165500E+01
439	  0.107775547	-8.636000E+00	  0.107775547	6.018000E+01	  0.107775547	5.612400E+01	  0.107775547	4.174700E+01
440	  0.107975952	-8.617000E+00	  0.107975952	5.967200E+01	  0.107975952	5.651900E+01	  0.107975952	4.194200E+01
441	  0.108176351	-8.605000E+00	  0.108176351	5.918600E+01	  0.108176351	5.690900E+01	  0.108176351	4.209700E+01
442	  0.108376749	-8.595000E+00	  0.108376749	5.858300E+01	  0.108376749	5.740400E+01	  0.108376749	4.226100E+01
443	  0.108577155	-8.593000E+00	  0.108577155	5.807700E+01	  0.108577155	5.783200E+01	  0.108577155	4.235600E+01
444	  0.108777553	-8.578000E+00	  0.108777553	5.752000E+01	  0.108777553	5.829600E+01	  0.108777553	4.253100E+01
445	  0.108977959	-8.570000E+00	  0.108977959	5.695700E+01	  0.108977959	5.877800E+01	  0.108977959	4.266600E+01
446	  0.109178357	-8.564000E+00	  0.109178357	5.636500E+01	  0.109178357	5.929300E+01	  0.109178357	4.278700E+01
447	  0.109378755	-8.551000E+00	  0.109378755	5.587100E+01	  0.109378755	5.972100E+01	  0.109378755	4.293500E+01
448	  0.109579161	-8.548000E+00	  0.109579161	5.530100E+01	  0.109579161	6.023100E+01	  0.109579161	4.302800E+01
449	  0.109779559	-8.529000E+00	  0.109779559	5.476000E+01	  0.109779559	6.070800E+01	  0.109779559	4.320900E+01
450	  0.109979957	-8.525000E+00	  0.109979957	5.420000E+01	  0.109979957	6.122100E+01	  0.109979957	4.329500E+01
451	  0.110180363	-8.509000E+00	  0.110180363	5.363200E+01	  0.110180363	6.173900E+01	  0.110180363	4.345000E+01
452	  0.110380761	-8.495000E+00	  0.110380761	5.301900E+01	  0.110380761	6.230700E+01	  0.110380761	4.359700E+01
453	  0.110581160	-8.488000E+00	  0.110581160	5.241500E+01	  0.110581160	6.287900E+01	  0.110581160	4.369100E+01
454	  0.110781565	-8.481000E+00	  0.110781565	5.183700E+01	  0.110781565	6.343300E+01	  0.110781565	4.378100E+01
455	  0.110981964	-8.475000E+00	  0.110981964	5.118500E+01	  0.110981964	6.406700E+01	  0.110981964	4.385800E+01
456	  0.111182362	-8.465000E+00	  0.111182362	5.060800E+01	  0.111182362	6.463200E+01	  0.111182362	4.395600E+01
457	  0.111382768	-8.456000E+00	  0.111382768	4.996500E+01	  0.111382768	6.527200E+01	  0.111382768	4.403400E+01
458	  0.111583166	-8.447000E+00	  0.111583166	4.934400E+01	  0.111583166	6.589700E+01	  0.111583166	4.410900E+01
459	  0.111783572	-8.437000E+00	  0.111783572	4.870000E+01	  0.111783572	6.655300E+01	  0.111783572	4.418900E+01
460	  0.111983970	-8.431000E+00	  0.111983970	4.802400E+01	  0.111983970	6.725100E+01	  0.111983970	4.422200E+01
461	  0.112184368	-8.425000E+00	  0.112184368	4.732900E+01	  0.112184368	6.797800E+01	  0.112184368	4.425300E+01
462	  0.112384774	-8.418000E+00	  0.112384774	4.662100E+01	  0.112384774	6.872700E+01	  0.112384774	4.427300E+01
463	  0.112585172	-8.417000E+00	  0.112585172	4.593300E+01	  0.112585172	6.946200E+01	  0.112585172	4.424500E+01
464	  0.112785570	-8.412000E+00	  0.112785570	4.519800E+01	  0.112785570	7.025700E+01	  0.112785570	4.422600E+01
465	  0.112985976	-8.405000E+00	  0.112985976	4.447300E+01	  0.112985976	7.105200E+01	  0.112985976	4.421000E+01
466	  0.113186374	-8.404000E+00	  0.113186374	4.373200E+01	  0.113186374	7.186800E+01	  0.113186374	4.412700E+01
467	  0.113386773	-8.398000E+00	  0.113386773	4.300400E+01	  0.113386773	7.268400E+01	  0.113386773	4.407300E+01
468	  0.113587178	-8.393000E+00	  0.113587178	4.224000E+01	  0.113587178	7.354800E+01	  0.113587178	4.398800E+01
469	  0.113787577	-8.399000E+00	  0.113787577	4.143700E+01	  0.113787577	7.445200E+01	  0.113787577	4.379800E+01
470	  0.113987975	-8.389000E+00	  0.113987975	4.058100E+01	  0.113987975	7.544500E+01	  0.113987975	4.369400E+01
471	  0.114188381	-8.391000E+00	  0.114188381	3.981300E+01	  0.114188381	7.632900E+01	  0.114188381	4.349700E+01
472	  0.114388779	-8.396000E+00	  0.114388779	3.895000E+01	  0.114388779	7.732500E+01	  0.114388779	4.323100E+01
473	  0.114589177	-8.393000E+00	  0.114589177	3.819400E+01	  0.114589177	7.821500E+01	  0.114589177	4.303000E+01
474	  0.114789583	-8.398000E+00	  0.114789583	3.733900E+01	  0.114789583	7.921300E+01	  0.114789583	4.271800E+01
475	  0.114989981	-8.398000E+00	  0.114989981	3.647500E+01	  0.114989981	8.023500E+01	  0.114989981	4.240500E+01
476	  0.115190387	-8.401000E+00	  0.115190387	3.565500E+01	  0.115190387	8.120200E+01	  0.115190387	4.206000E+01
477	  0.115390785	-8.414000E+00	  0.115390785	3.472600E+01	  0.115390785	8.227500E+01	  0.115390785	4.156600E+01
478	  0.115591183	-8.411000E+00	  0.115591183	3.385400E+01	  0.115591183	8.332900E+01	  0.115591183	4.119100E+01
479	  0.115791589	-8.430000E+00	  0.115791589	3.301900E+01	  0.115791589	8.426500E+01	  0.115791589	4.062600E+01
480	  0.115991987	-8.441000E+00	  0.115991987	3.210700E+01	  0.115991987	8.531500E+01	  0.115991987	4.005000E+01
481	  0.116192386	-8.454000E+00	  0.116192386	3.118700E+01	  0.116192386	8.635900E+01	  0.116192386	3.941500E+01
482	  0.116392791	-8.473000E+00	  0.116392791	3.025300E+01	  0.116392791	8.738900E+01	  0.116392791	3.869400E+01
483	  0.116593190	-8.491000E+00	  0.116593190	2.932200E+01	  0.116593190	8.840600E+01	  0.116593190	3.794400E+01
484	  0.116793588	-8.509000E+00	  0.116793588	2.838900E+01	  0.116793588	8.941200E+01	  0.116793588	3.716000E+01
485	  0.116993994	-8.531000E+00	  0.116993994	2.741800E+01	  0.116993994	9.042200E+01	  0.116993994	3.626900E+01
486	  0.117194392	-8.560000E+00	  0.117194392	2.640100E+01	  0.117194392	9.142700E+01	  0.117194392	3.525500E+01
487	  0.117394790	-8.590000E+00	  0.117394790	2.547000E+01	  0.117394790	9.230500E+01	  0.117394790	3.427100E+01
488	  0.117595196	-8.625000E+00	  0.117595196	2.448900E+01	  0.117595196	9.317500E+01	  0.117595196	3.316800E+01
489	  0.117795594	-8.658000E+00	  0.117795594	2.348300E+01	  0.117795594	9.404800E+01	  0.117795594	3.202300E+01
490	  0.117995992	-8.696000E+00	  0.117995992	2.237600E+01	  0.117995992	9.495400E+01	  0.117995992	3.070800E+01
