! Anritsu VNA Master:             	Model: MS2036C/10/77
! SN:             	1601066
! /bd0/18may10/252.ns.m9.txt
! Existing Calibration Information:
! TYPE:             	Current Settings	Active Cal Settings
! TIME:             	05/10/2018 05:57:14 PM	05/10/2018 05:49:06 PM
! INTERNAL TEMP:    	59.8 C	59.5 C
! # POINTS:         	490	490
! START FREQ:       	20.000 MHz	20.000 MHz
! STOP FREQ:        	117.995 991 MHz	117.995 991 MHz
! SOURCE POWER:     	High	High
! IFBW:             	50 Hz	50 Hz
! AVG FACTOR:       	  1 	  1 
! REF PLANE 1:      	0 mm	0 mm
! REF PLANE 2:      	0 mm	0 mm
! CAL TYPE:         	Full S22	Full S22
! CAL METHOD:       	SOLT	SOLT
! CAL LINE TYPE:    	Coax	Coax
! DUT PORT 1:       	K-Conn(M)	K-Conn(M)
! DUT PORT 2:       	K-Conn(M)	K-Conn(M)
! CAL STATUS:       	OK: Accuracy High	--
! PROP-V:       	0.700
! CABLE LOSS:       	0.000 dB/m
! REF IMPEDANCE:       	50.0
! Trace Specific Parameters:	TR1	TR2	TR3	TR4
! TRACE.#.Y (GRAPH TYPE)	LOG MAG	PHASE	REAL IMPEDANCE	IMAGINARY IMPEDANCE
! TRACE.#.X 	FREQ.GHZ	FREQ.GHZ	FREQ.GHZ	FREQ.GHZ
! S-PARAMETER	S22	S22	S22	S22
! SMOOTH/APERTURE %	0	0	0	0
! WINDOW	NSL	NSL	NSL	NSL
! GATING	OFF	OFF	OFF	OFF
! FGTD	OFF	OFF	OFF	OFF
Marker Information per Trace:	TR1	TR2	TR3	TR4
!MK1	--	"MK1 TR2:  20.000 MHz,PH:-125.38°"	--	--
!MK2	--	--	"MK2 TR3:  70.100 200 MHz,Z:(16.689 ohm, -1.579 ohm)"	--
!MK3	--	--	--	--
!MK4	--	--	--	--
!MK5	--	--	--	--
!MK6	--	--	--	--
!MK7	--	--	--	--
!MK8	--	--	--	--
PNT	TR1.FREQ.GHZ	TR1.LOG MAG.dB	TR2.FREQ.GHZ	TR2.PHASE.deg	TR3.FREQ.GHZ	TR3.REAL IMPEDANCE.ohm	TR4.FREQ.GHZ	TR4.IMAGINARY IMPEDANCE.ohm
1	  0.020000000	-6.370000E-01	  0.020000000	-1.253750E+02	  0.020000000	2.323000E+00	  0.020000000	-2.577600E+01
2	  0.020200402	-6.420000E-01	  0.020200402	-1.268210E+02	  0.020200402	2.309000E+00	  0.020200402	-2.498300E+01
3	  0.020400802	-6.440000E-01	  0.020400802	-1.282760E+02	  0.020400802	2.289000E+00	  0.020400802	-2.419600E+01
4	  0.020601204	-6.490000E-01	  0.020601204	-1.297430E+02	  0.020601204	2.277000E+00	  0.020601204	-2.341200E+01
5	  0.020801604	-6.510000E-01	  0.020801604	-1.312520E+02	  0.020801604	2.257000E+00	  0.020801604	-2.261500E+01
6	  0.021002004	-6.540000E-01	  0.021002004	-1.327610E+02	  0.021002004	2.240000E+00	  0.021002004	-2.182700E+01
7	  0.021202406	-6.580000E-01	  0.021202406	-1.342790E+02	  0.021202406	2.229000E+00	  0.021202406	-2.104400E+01
8	  0.021402806	-6.600000E-01	  0.021402806	-1.357780E+02	  0.021402806	2.212000E+00	  0.021402806	-2.027900E+01
9	  0.021603208	-6.630000E-01	  0.021603208	-1.372910E+02	  0.021603208	2.200000E+00	  0.021603208	-1.951600E+01
10	  0.021803608	-6.670000E-01	  0.021803608	-1.387980E+02	  0.021803608	2.191000E+00	  0.021803608	-1.876200E+01
11	  0.022004008	-6.750000E-01	  0.022004008	-1.403090E+02	  0.022004008	2.194000E+00	  0.022004008	-1.801400E+01
12	  0.022204408	-6.790000E-01	  0.022204408	-1.418360E+02	  0.022204408	2.189000E+00	  0.022204408	-1.726600E+01
13	  0.022404809	-6.860000E-01	  0.022404809	-1.433830E+02	  0.022404809	2.189000E+00	  0.022404809	-1.651500E+01
14	  0.022605211	-6.870000E-01	  0.022605211	-1.449640E+02	  0.022605211	2.175000E+00	  0.022605211	-1.575400E+01
15	  0.022805611	-6.880000E-01	  0.022805611	-1.465400E+02	  0.022805611	2.159000E+00	  0.022805611	-1.500300E+01
16	  0.023006011	-6.940000E-01	  0.023006011	-1.480950E+02	  0.023006011	2.161000E+00	  0.023006011	-1.426700E+01
17	  0.023206413	-7.000000E-01	  0.023206413	-1.496500E+02	  0.023206413	2.164000E+00	  0.023206413	-1.353700E+01
18	  0.023406813	-7.050000E-01	  0.023406813	-1.512090E+02	  0.023406813	2.162000E+00	  0.023406813	-1.281000E+01
19	  0.023607215	-7.120000E-01	  0.023607215	-1.527840E+02	  0.023607215	2.169000E+00	  0.023607215	-1.208100E+01
20	  0.023807615	-7.190000E-01	  0.023807615	-1.543850E+02	  0.023807615	2.175000E+00	  0.023807615	-1.134500E+01
21	  0.024008015	-7.270000E-01	  0.024008015	-1.559880E+02	  0.024008015	2.187000E+00	  0.024008015	-1.061300E+01
22	  0.024208417	-7.330000E-01	  0.024208417	-1.576250E+02	  0.024208417	2.193000E+00	  0.024208417	-9.870000E+00
23	  0.024408817	-7.390000E-01	  0.024408817	-1.592620E+02	  0.024408817	2.198000E+00	  0.024408817	-9.131000E+00
24	  0.024609219	-7.470000E-01	  0.024609219	-1.609000E+02	  0.024609219	2.210000E+00	  0.024609219	-8.395000E+00
25	  0.024809619	-7.530000E-01	  0.024809619	-1.625510E+02	  0.024809619	2.218000E+00	  0.024809619	-7.657000E+00
26	  0.025010020	-7.620000E-01	  0.025010020	-1.642000E+02	  0.025010020	2.235000E+00	  0.025010020	-6.924000E+00
27	  0.025210422	-7.730000E-01	  0.025210422	-1.658660E+02	  0.025210422	2.258000E+00	  0.025210422	-6.185000E+00
28	  0.025410822	-7.820000E-01	  0.025410822	-1.675430E+02	  0.025410822	2.277000E+00	  0.025410822	-5.445000E+00
29	  0.025611224	-7.940000E-01	  0.025611224	-1.692250E+02	  0.025611224	2.304000E+00	  0.025611224	-4.705000E+00
30	  0.025811624	-8.050000E-01	  0.025811624	-1.709170E+02	  0.025811624	2.331000E+00	  0.025811624	-3.962000E+00
31	  0.026012026	-8.150000E-01	  0.026012026	-1.726250E+02	  0.026012026	2.354000E+00	  0.026012026	-3.215000E+00
32	  0.026212426	-8.260000E-01	  0.026212426	-1.743480E+02	  0.026212426	2.382000E+00	  0.026212426	-2.462000E+00
33	  0.026412826	-8.410000E-01	  0.026412826	-1.760670E+02	  0.026412826	2.421000E+00	  0.026412826	-1.712000E+00
34	  0.026613226	-8.530000E-01	  0.026613226	-1.778120E+02	  0.026613226	2.455000E+00	  0.026613226	-9.520000E-01
35	  0.026813626	-8.700000E-01	  0.026813626	-1.795500E+02	  0.026813626	2.503000E+00	  0.026813626	-1.950000E-01
36	  0.027014028	-8.840000E-01	  0.027014028	1.786930E+02	  0.027014028	2.545000E+00	  0.027014028	5.680000E-01
37	  0.027214428	-9.010000E-01	  0.027214428	1.769330E+02	  0.027214428	2.593000E+00	  0.027214428	1.334000E+00
38	  0.027414829	-9.190000E-01	  0.027414829	1.751620E+02	  0.027414829	2.648000E+00	  0.027414829	2.105000E+00
39	  0.027615231	-9.360000E-01	  0.027615231	1.733830E+02	  0.027615231	2.700000E+00	  0.027615231	2.881000E+00
40	  0.027815631	-9.560000E-01	  0.027815631	1.715950E+02	  0.027815631	2.764000E+00	  0.027815631	3.662000E+00
41	  0.028016033	-9.740000E-01	  0.028016033	1.697800E+02	  0.028016033	2.825000E+00	  0.028016033	4.456000E+00
42	  0.028216433	-9.960000E-01	  0.028216433	1.679700E+02	  0.028216433	2.896000E+00	  0.028216433	5.250000E+00
43	  0.028416833	-1.018000E+00	  0.028416833	1.661460E+02	  0.028416833	2.970000E+00	  0.028416833	6.053000E+00
44	  0.028617235	-1.040000E+00	  0.028617235	1.643100E+02	  0.028617235	3.048000E+00	  0.028617235	6.863000E+00
45	  0.028817635	-1.064000E+00	  0.028817635	1.624770E+02	  0.028817635	3.132000E+00	  0.028817635	7.676000E+00
46	  0.029018037	-1.088000E+00	  0.029018037	1.606470E+02	  0.029018037	3.220000E+00	  0.029018037	8.490000E+00
47	  0.029218437	-1.115000E+00	  0.029218437	1.588030E+02	  0.029218437	3.318000E+00	  0.029218437	9.315000E+00
48	  0.029418837	-1.143000E+00	  0.029418837	1.569300E+02	  0.029418837	3.423000E+00	  0.029418837	1.015800E+01
49	  0.029619239	-1.170000E+00	  0.029619239	1.550530E+02	  0.029619239	3.526000E+00	  0.029619239	1.100700E+01
50	  0.029819639	-1.199000E+00	  0.029819639	1.531760E+02	  0.029819639	3.641000E+00	  0.029819639	1.186200E+01
51	  0.030020041	-1.229000E+00	  0.030020041	1.512840E+02	  0.030020041	3.761000E+00	  0.030020041	1.273000E+01
52	  0.030220442	-1.257000E+00	  0.030220442	1.494000E+02	  0.030220442	3.881000E+00	  0.030220442	1.360100E+01
53	  0.030420844	-1.288000E+00	  0.030420844	1.475140E+02	  0.030420844	4.014000E+00	  0.030420844	1.448000E+01
54	  0.030621244	-1.321000E+00	  0.030621244	1.456390E+02	  0.030621244	4.156000E+00	  0.030621244	1.536100E+01
55	  0.030821642	-1.355000E+00	  0.030821642	1.437550E+02	  0.030821642	4.307000E+00	  0.030821642	1.625400E+01
56	  0.031022044	-1.387000E+00	  0.031022044	1.418510E+02	  0.031022044	4.459000E+00	  0.031022044	1.716500E+01
57	  0.031222444	-1.417000E+00	  0.031222444	1.399680E+02	  0.031222444	4.606000E+00	  0.031222444	1.807700E+01
58	  0.031422846	-1.451000E+00	  0.031422846	1.380490E+02	  0.031422846	4.774000E+00	  0.031422846	1.901500E+01
59	  0.031623244	-1.486000E+00	  0.031623244	1.361110E+02	  0.031623244	4.955000E+00	  0.031623244	1.997400E+01
60	  0.031823646	-1.520000E+00	  0.031823646	1.341800E+02	  0.031823646	5.137000E+00	  0.031823646	2.094100E+01
61	  0.032024048	-1.553000E+00	  0.032024048	1.322620E+02	  0.032024048	5.324000E+00	  0.032024048	2.191400E+01
62	  0.032224450	-1.590000E+00	  0.032224450	1.303210E+02	  0.032224450	5.532000E+00	  0.032224450	2.291100E+01
63	  0.032424849	-1.623000E+00	  0.032424849	1.283660E+02	  0.032424849	5.739000E+00	  0.032424849	2.393000E+01
64	  0.032625251	-1.658000E+00	  0.032625251	1.263960E+02	  0.032625251	5.960000E+00	  0.032625251	2.497100E+01
65	  0.032825653	-1.694000E+00	  0.032825653	1.244000E+02	  0.032825653	6.198000E+00	  0.032825653	2.604400E+01
66	  0.033026051	-1.728000E+00	  0.033026051	1.224040E+02	  0.033026051	6.439000E+00	  0.033026051	2.713300E+01
67	  0.033226453	-1.767000E+00	  0.033226453	1.204010E+02	  0.033226453	6.711000E+00	  0.033226453	2.824400E+01
68	  0.033426855	-1.800000E+00	  0.033426855	1.184030E+02	  0.033426855	6.970000E+00	  0.033426855	2.937500E+01
69	  0.033627257	-1.838000E+00	  0.033627257	1.163880E+02	  0.033627257	7.268000E+00	  0.033627257	3.053300E+01
70	  0.033827655	-1.880000E+00	  0.033827655	1.143900E+02	  0.033827655	7.594000E+00	  0.033827655	3.170000E+01
71	  0.034028057	-1.918000E+00	  0.034028057	1.123580E+02	  0.034028057	7.926000E+00	  0.034028057	3.291400E+01
72	  0.034228459	-1.959000E+00	  0.034228459	1.103250E+02	  0.034228459	8.286000E+00	  0.034228459	3.415100E+01
73	  0.034428857	-2.003000E+00	  0.034428857	1.082590E+02	  0.034428857	8.683000E+00	  0.034428857	3.543300E+01
74	  0.034629259	-2.044000E+00	  0.034629259	1.061920E+02	  0.034629259	9.090000E+00	  0.034629259	3.674600E+01
75	  0.034829661	-2.089000E+00	  0.034829661	1.041180E+02	  0.034829661	9.540000E+00	  0.034829661	3.809000E+01
76	  0.035030060	-2.136000E+00	  0.035030060	1.020250E+02	  0.035030060	1.002900E+01	  0.035030060	3.947700E+01
77	  0.035230462	-2.184000E+00	  0.035230462	9.995800E+01	  0.035230462	1.054900E+01	  0.035230462	4.087700E+01
78	  0.035430863	-2.232000E+00	  0.035430863	9.786600E+01	  0.035430863	1.110500E+01	  0.035430863	4.232900E+01
79	  0.035631265	-2.281000E+00	  0.035631265	9.578400E+01	  0.035631265	1.170000E+01	  0.035631265	4.380900E+01
80	  0.035831664	-2.330000E+00	  0.035831664	9.369200E+01	  0.035831664	1.233700E+01	  0.035831664	4.533400E+01
81	  0.036032066	-2.382000E+00	  0.036032066	9.159700E+01	  0.036032066	1.302900E+01	  0.036032066	4.689800E+01
82	  0.036232468	-2.432000E+00	  0.036232468	8.948300E+01	  0.036232468	1.376800E+01	  0.036232468	4.851900E+01
83	  0.036432866	-2.484000E+00	  0.036432866	8.738100E+01	  0.036432866	1.456100E+01	  0.036432866	5.017300E+01
84	  0.036633268	-2.535000E+00	  0.036633268	8.525800E+01	  0.036633268	1.541700E+01	  0.036633268	5.189100E+01
85	  0.036833670	-2.588000E+00	  0.036833670	8.314400E+01	  0.036833670	1.634000E+01	  0.036833670	5.364600E+01
86	  0.037034072	-2.642000E+00	  0.037034072	8.102700E+01	  0.037034072	1.734500E+01	  0.037034072	5.544900E+01
87	  0.037234470	-2.695000E+00	  0.037234470	7.890200E+01	  0.037234470	1.841800E+01	  0.037234470	5.731500E+01
88	  0.037434869	-2.751000E+00	  0.037434869	7.679100E+01	  0.037434869	1.958900E+01	  0.037434869	5.921100E+01
89	  0.037635271	-2.807000E+00	  0.037635271	7.466100E+01	  0.037635271	2.086400E+01	  0.037635271	6.117800E+01
90	  0.037835669	-2.869000E+00	  0.037835669	7.252200E+01	  0.037835669	2.228900E+01	  0.037835669	6.318800E+01
91	  0.038036071	-2.934000E+00	  0.038036071	7.040300E+01	  0.038036071	2.383700E+01	  0.038036071	6.522000E+01
92	  0.038236473	-3.000000E+00	  0.038236473	6.832700E+01	  0.038236473	2.549500E+01	  0.038236473	6.724800E+01
93	  0.038436871	-3.058000E+00	  0.038436871	6.626100E+01	  0.038436871	2.722500E+01	  0.038436871	6.934100E+01
94	  0.038637273	-3.112000E+00	  0.038637273	6.416100E+01	  0.038637273	2.909400E+01	  0.038637273	7.153800E+01
95	  0.038837675	-3.165000E+00	  0.038837675	6.205500E+01	  0.038837675	3.111900E+01	  0.038837675	7.379900E+01
96	  0.039038073	-3.218000E+00	  0.039038073	5.995100E+01	  0.039038073	3.332900E+01	  0.039038073	7.610100E+01
97	  0.039238475	-3.275000E+00	  0.039238475	5.786800E+01	  0.039238475	3.574200E+01	  0.039238475	7.840000E+01
98	  0.039438877	-3.331000E+00	  0.039438877	5.577100E+01	  0.039438877	3.838000E+01	  0.039438877	8.074900E+01
99	  0.039639279	-3.386000E+00	  0.039639279	5.369000E+01	  0.039639279	4.123300E+01	  0.039639279	8.310700E+01
100	  0.039839678	-3.445000E+00	  0.039839678	5.157300E+01	  0.039839678	4.442800E+01	  0.039839678	8.548900E+01
101	  0.040040080	-3.499000E+00	  0.040040080	4.946200E+01	  0.040040080	4.787000E+01	  0.040040080	8.789100E+01
102	  0.040240481	-3.556000E+00	  0.040240481	4.737600E+01	  0.040240481	5.161600E+01	  0.040240481	9.020900E+01
103	  0.040440880	-3.612000E+00	  0.040440880	4.527800E+01	  0.040440880	5.572000E+01	  0.040440880	9.249500E+01
104	  0.040641282	-3.669000E+00	  0.040641282	4.322700E+01	  0.040641282	6.011100E+01	  0.040641282	9.462100E+01
105	  0.040841684	-3.727000E+00	  0.040841684	4.113700E+01	  0.040841684	6.499400E+01	  0.040841684	9.663700E+01
106	  0.041042086	-3.785000E+00	  0.041042086	3.909200E+01	  0.041042086	7.019500E+01	  0.041042086	9.841700E+01
107	  0.041242484	-3.842000E+00	  0.041242484	3.701400E+01	  0.041242484	7.591500E+01	  0.041242484	1.000050E+02
108	  0.041442886	-3.899000E+00	  0.041442886	3.495300E+01	  0.041442886	8.204700E+01	  0.041442886	1.012770E+02
109	  0.041643288	-3.956000E+00	  0.041643288	3.286100E+01	  0.041643288	8.875500E+01	  0.041643288	1.021680E+02
110	  0.041843686	-4.012000E+00	  0.041843686	3.076100E+01	  0.041843686	9.597400E+01	  0.041843686	1.025850E+02
111	  0.042044088	-4.065000E+00	  0.042044088	2.871300E+01	  0.042044088	1.034760E+02	  0.042044088	1.024250E+02
112	  0.042244490	-4.121000E+00	  0.042244490	2.665200E+01	  0.042244490	1.114450E+02	  0.042244490	1.014970E+02
113	  0.042444889	-4.178000E+00	  0.042444889	2.460600E+01	  0.042444889	1.197110E+02	  0.042444889	9.973400E+01
114	  0.042645290	-4.234000E+00	  0.042645290	2.256500E+01	  0.042645290	1.281910E+02	  0.042645290	9.700400E+01
115	  0.042845692	-4.287000E+00	  0.042845692	2.052100E+01	  0.042845692	1.368350E+02	  0.042845692	9.334400E+01
116	  0.043046094	-4.340000E+00	  0.043046094	1.849400E+01	  0.043046094	1.453650E+02	  0.043046094	8.854300E+01
117	  0.043246493	-4.395000E+00	  0.043246493	1.643500E+01	  0.043246493	1.537710E+02	  0.043246493	8.241300E+01
118	  0.043446895	-4.446000E+00	  0.043446895	1.440500E+01	  0.043446895	1.616430E+02	  0.043446895	7.522900E+01
119	  0.043647297	-4.495000E+00	  0.043647297	1.239600E+01	  0.043647297	1.687710E+02	  0.043647297	6.696900E+01
120	  0.043847695	-4.545000E+00	  0.043847695	1.037500E+01	  0.043847695	1.749910E+02	  0.043847695	5.755400E+01
121	  0.044048097	-4.595000E+00	  0.044048097	8.400000E+00	  0.044048097	1.799190E+02	  0.044048097	4.743600E+01
122	  0.044248499	-4.646000E+00	  0.044248499	6.412000E+00	  0.044248499	1.835450E+02	  0.044248499	3.655500E+01
123	  0.044448901	-4.693000E+00	  0.044448901	4.443000E+00	  0.044448901	1.857950E+02	  0.044448901	2.538400E+01
124	  0.044649299	-4.742000E+00	  0.044649299	2.483000E+00	  0.044649299	1.865400E+02	  0.044649299	1.409600E+01
125	  0.044849701	-4.786000E+00	  0.044849701	5.240000E-01	  0.044849701	1.859800E+02	  0.044849701	2.941000E+00
126	  0.045050103	-4.830000E+00	  0.045050103	-1.414000E+00	  0.045050103	1.840560E+02	  0.045050103	-7.764000E+00
127	  0.045250501	-4.872000E+00	  0.045250501	-3.363000E+00	  0.045250501	1.809830E+02	  0.045250501	-1.797100E+01
128	  0.045450903	-4.915000E+00	  0.045450903	-5.287000E+00	  0.045450903	1.768080E+02	  0.045450903	-2.730600E+01
129	  0.045651305	-4.959000E+00	  0.045651305	-7.206000E+00	  0.045651305	1.717550E+02	  0.045651305	-3.575500E+01
130	  0.045851704	-4.999000E+00	  0.045851704	-9.094000E+00	  0.045851704	1.662450E+02	  0.045851704	-4.323000E+01
131	  0.046052102	-5.040000E+00	  0.046052102	-1.098300E+01	  0.046052102	1.601810E+02	  0.046052102	-4.974700E+01
132	  0.046252504	-5.081000E+00	  0.046252504	-1.285300E+01	  0.046252504	1.538870E+02	  0.046252504	-5.531200E+01
133	  0.046452906	-5.119000E+00	  0.046452906	-1.470400E+01	  0.046452906	1.475190E+02	  0.046452906	-5.999200E+01
134	  0.046653304	-5.158000E+00	  0.046653304	-1.655900E+01	  0.046653304	1.410810E+02	  0.046653304	-6.388300E+01
135	  0.046853706	-5.194000E+00	  0.046853706	-1.842400E+01	  0.046853706	1.346870E+02	  0.046853706	-6.710500E+01
136	  0.047054108	-5.229000E+00	  0.047054108	-2.029300E+01	  0.047054108	1.284120E+02	  0.047054108	-6.968900E+01
137	  0.047254506	-5.262000E+00	  0.047254506	-2.215200E+01	  0.047254506	1.223410E+02	  0.047254506	-7.167200E+01
138	  0.047454908	-5.294000E+00	  0.047454908	-2.398000E+01	  0.047454908	1.165810E+02	  0.047454908	-7.311100E+01
139	  0.047655310	-5.325000E+00	  0.047655310	-2.580700E+01	  0.047655310	1.110580E+02	  0.047655310	-7.412400E+01
140	  0.047855709	-5.356000E+00	  0.047855709	-2.762600E+01	  0.047855709	1.058000E+02	  0.047855709	-7.473100E+01
141	  0.048056111	-5.388000E+00	  0.048056111	-2.941800E+01	  0.048056111	1.008650E+02	  0.048056111	-7.495400E+01
142	  0.048256513	-5.421000E+00	  0.048256513	-3.121400E+01	  0.048256513	9.617900E+01	  0.048256513	-7.489500E+01
143	  0.048456915	-5.451000E+00	  0.048456915	-3.301300E+01	  0.048456915	9.174200E+01	  0.048456915	-7.463600E+01
144	  0.048657313	-5.478000E+00	  0.048657313	-3.478400E+01	  0.048657313	8.761500E+01	  0.048657313	-7.423200E+01
145	  0.048857715	-5.504000E+00	  0.048857715	-3.658200E+01	  0.048857715	8.366000E+01	  0.048857715	-7.364400E+01
146	  0.049058117	-5.527000E+00	  0.049058117	-3.836500E+01	  0.049058117	7.995900E+01	  0.049058117	-7.295500E+01
147	  0.049258515	-5.552000E+00	  0.049258515	-4.011900E+01	  0.049258515	7.653000E+01	  0.049258515	-7.213600E+01
148	  0.049458917	-5.573000E+00	  0.049458917	-4.187700E+01	  0.049458917	7.328300E+01	  0.049458917	-7.125000E+01
149	  0.049659319	-5.599000E+00	  0.049659319	-4.359800E+01	  0.049659319	7.030500E+01	  0.049659319	-7.023500E+01
150	  0.049859721	-5.622000E+00	  0.049859721	-4.532000E+01	  0.049859721	6.748600E+01	  0.049859721	-6.919900E+01
151	  0.050060119	-5.646000E+00	  0.050060119	-4.703800E+01	  0.050060119	6.484000E+01	  0.050060119	-6.809800E+01
152	  0.050260521	-5.664000E+00	  0.050260521	-4.875000E+01	  0.050260521	6.233800E+01	  0.050260521	-6.701300E+01
153	  0.050460923	-5.685000E+00	  0.050460923	-5.043900E+01	  0.050460923	6.001700E+01	  0.050460923	-6.588200E+01
154	  0.050661322	-5.701000E+00	  0.050661322	-5.214700E+01	  0.050661322	5.778400E+01	  0.050661322	-6.475600E+01
155	  0.050861724	-5.717000E+00	  0.050861724	-5.381400E+01	  0.050861724	5.572700E+01	  0.050861724	-6.363200E+01
156	  0.051062126	-5.733000E+00	  0.051062126	-5.548700E+01	  0.051062126	5.377600E+01	  0.051062126	-6.248900E+01
157	  0.051262524	-5.755000E+00	  0.051262524	-5.711700E+01	  0.051262524	5.200100E+01	  0.051262524	-6.132000E+01
158	  0.051462926	-5.772000E+00	  0.051462926	-5.874100E+01	  0.051462926	5.031100E+01	  0.051462926	-6.018100E+01
159	  0.051663328	-5.792000E+00	  0.051663328	-6.035700E+01	  0.051663328	4.872800E+01	  0.051663328	-5.903300E+01
160	  0.051863730	-5.804000E+00	  0.051863730	-6.197500E+01	  0.051863730	4.719300E+01	  0.051863730	-5.793300E+01
161	  0.052064128	-5.822000E+00	  0.052064128	-6.357200E+01	  0.052064128	4.578300E+01	  0.052064128	-5.680900E+01
162	  0.052264530	-5.843000E+00	  0.052264530	-6.508000E+01	  0.052264530	4.453400E+01	  0.052264530	-5.573000E+01
163	  0.052464932	-5.856000E+00	  0.052464932	-6.665800E+01	  0.052464932	4.325200E+01	  0.052464932	-5.466300E+01
164	  0.052665330	-5.868000E+00	  0.052665330	-6.823300E+01	  0.052665330	4.203500E+01	  0.052665330	-5.360300E+01
165	  0.052865732	-5.881000E+00	  0.052865732	-6.977800E+01	  0.052865732	4.090200E+01	  0.052865732	-5.256700E+01
166	  0.053066134	-5.897000E+00	  0.053066134	-7.132300E+01	  0.053066134	3.983600E+01	  0.053066134	-5.152400E+01
167	  0.053266536	-5.906000E+00	  0.053266536	-7.286400E+01	  0.053266536	3.879200E+01	  0.053266536	-5.052700E+01
168	  0.053466935	-5.919000E+00	  0.053466935	-7.439800E+01	  0.053466935	3.781700E+01	  0.053466935	-4.952500E+01
169	  0.053667337	-5.929000E+00	  0.053667337	-7.593500E+01	  0.053667337	3.687700E+01	  0.053667337	-4.853900E+01
170	  0.053867739	-5.937000E+00	  0.053867739	-7.746500E+01	  0.053867739	3.597500E+01	  0.053867739	-4.757600E+01
171	  0.054068137	-5.945000E+00	  0.054068137	-7.900400E+01	  0.054068137	3.510600E+01	  0.054068137	-4.661900E+01
172	  0.054268539	-5.956000E+00	  0.054268539	-8.050900E+01	  0.054268539	3.430600E+01	  0.054268539	-4.568000E+01
173	  0.054468941	-5.966000E+00	  0.054468941	-8.199600E+01	  0.054468941	3.355100E+01	  0.054468941	-4.476200E+01
174	  0.054669335	-5.976000E+00	  0.054669335	-8.348700E+01	  0.054669335	3.282300E+01	  0.054669335	-4.385400E+01
175	  0.054869737	-5.987000E+00	  0.054869737	-8.496900E+01	  0.054869737	3.213500E+01	  0.054869737	-4.295800E+01
176	  0.055070139	-5.999000E+00	  0.055070139	-8.642800E+01	  0.055070139	3.149300E+01	  0.055070139	-4.208000E+01
177	  0.055270538	-6.009000E+00	  0.055270538	-8.789800E+01	  0.055270538	3.086300E+01	  0.055270538	-4.121400E+01
178	  0.055470940	-6.016000E+00	  0.055470940	-8.933800E+01	  0.055470940	3.026600E+01	  0.055470940	-4.038000E+01
179	  0.055671342	-6.021000E+00	  0.055671342	-9.079200E+01	  0.055671342	2.967400E+01	  0.055671342	-3.955600E+01
180	  0.055871744	-6.023000E+00	  0.055871744	-9.219800E+01	  0.055871744	2.911500E+01	  0.055871744	-3.877300E+01
181	  0.056072142	-6.032000E+00	  0.056072142	-9.362400E+01	  0.056072142	2.860000E+01	  0.056072142	-3.796700E+01
182	  0.056272544	-6.038000E+00	  0.056272544	-9.501600E+01	  0.056272544	2.810100E+01	  0.056272544	-3.719900E+01
183	  0.056472946	-6.043000E+00	  0.056472946	-9.639900E+01	  0.056472946	2.762300E+01	  0.056472946	-3.644300E+01
184	  0.056673344	-6.046000E+00	  0.056673344	-9.773700E+01	  0.056673344	2.717300E+01	  0.056673344	-3.572400E+01
185	  0.056873746	-6.051000E+00	  0.056873746	-9.910600E+01	  0.056873746	2.673500E+01	  0.056873746	-3.499000E+01
186	  0.057074148	-6.053000E+00	  0.057074148	-1.004340E+02	  0.057074148	2.631500E+01	  0.057074148	-3.429200E+01
187	  0.057274550	-6.054000E+00	  0.057274550	-1.017760E+02	  0.057274550	2.590500E+01	  0.057274550	-3.359300E+01
188	  0.057474948	-6.053000E+00	  0.057474948	-1.031010E+02	  0.057474948	2.550500E+01	  0.057474948	-3.291500E+01
189	  0.057675350	-6.054000E+00	  0.057675350	-1.044080E+02	  0.057675350	2.513400E+01	  0.057675350	-3.224600E+01
190	  0.057875752	-6.054000E+00	  0.057875752	-1.057460E+02	  0.057875752	2.476200E+01	  0.057875752	-3.156900E+01
191	  0.058076151	-6.053000E+00	  0.058076151	-1.070440E+02	  0.058076151	2.441000E+01	  0.058076151	-3.092100E+01
192	  0.058276553	-6.052000E+00	  0.058276553	-1.083090E+02	  0.058276553	2.408000E+01	  0.058276553	-3.029300E+01
193	  0.058476955	-6.052000E+00	  0.058476955	-1.096050E+02	  0.058476955	2.375500E+01	  0.058476955	-2.965400E+01
194	  0.058677353	-6.050000E+00	  0.058677353	-1.109010E+02	  0.058677353	2.343500E+01	  0.058677353	-2.902300E+01
195	  0.058877755	-6.049000E+00	  0.058877755	-1.121770E+02	  0.058877755	2.313400E+01	  0.058877755	-2.840500E+01
196	  0.059078157	-6.043000E+00	  0.059078157	-1.134580E+02	  0.059078157	2.282700E+01	  0.059078157	-2.779700E+01
197	  0.059278559	-6.039000E+00	  0.059278559	-1.147370E+02	  0.059278559	2.253600E+01	  0.059278559	-2.719000E+01
198	  0.059478957	-6.038000E+00	  0.059478957	-1.160070E+02	  0.059478957	2.226600E+01	  0.059478957	-2.658800E+01
199	  0.059679359	-6.038000E+00	  0.059679359	-1.172800E+02	  0.059679359	2.200500E+01	  0.059679359	-2.598900E+01
200	  0.059879761	-6.036000E+00	  0.059879761	-1.185420E+02	  0.059879761	2.175200E+01	  0.059879761	-2.540100E+01
201	  0.060080159	-6.035000E+00	  0.060080159	-1.197740E+02	  0.060080159	2.151700E+01	  0.060080159	-2.482800E+01
202	  0.060280561	-6.033000E+00	  0.060280561	-1.210470E+02	  0.060280561	2.127700E+01	  0.060280561	-2.424400E+01
203	  0.060480963	-6.034000E+00	  0.060480963	-1.222920E+02	  0.060480963	2.105900E+01	  0.060480963	-2.367300E+01
204	  0.060681365	-6.030000E+00	  0.060681365	-1.235330E+02	  0.060681365	2.083500E+01	  0.060681365	-2.311200E+01
205	  0.060881764	-6.027000E+00	  0.060881764	-1.247730E+02	  0.060881764	2.062200E+01	  0.060881764	-2.255400E+01
206	  0.061082166	-6.024000E+00	  0.061082166	-1.260340E+02	  0.061082166	2.041200E+01	  0.061082166	-2.199000E+01
207	  0.061282568	-6.024000E+00	  0.061282568	-1.272560E+02	  0.061282568	2.022200E+01	  0.061282568	-2.144500E+01
208	  0.061482966	-6.022000E+00	  0.061482966	-1.284920E+02	  0.061482966	2.003300E+01	  0.061482966	-2.089800E+01
209	  0.061683368	-6.020000E+00	  0.061683368	-1.297210E+02	  0.061683368	1.985100E+01	  0.061683368	-2.035800E+01
210	  0.061883770	-6.022000E+00	  0.061883770	-1.309360E+02	  0.061883770	1.968800E+01	  0.061883770	-1.982300E+01
211	  0.062084168	-6.019000E+00	  0.062084168	-1.321250E+02	  0.062084168	1.951900E+01	  0.062084168	-1.930700E+01
212	  0.062284570	-6.016000E+00	  0.062284570	-1.333480E+02	  0.062284570	1.935400E+01	  0.062284570	-1.878000E+01
213	  0.062484972	-6.006000E+00	  0.062484972	-1.345300E+02	  0.062484972	1.917900E+01	  0.062484972	-1.827700E+01
214	  0.062685370	-6.002000E+00	  0.062685370	-1.357450E+02	  0.062685370	1.901900E+01	  0.062685370	-1.776000E+01
215	  0.062885776	-6.002000E+00	  0.062885776	-1.369140E+02	  0.062885776	1.888600E+01	  0.062885776	-1.726000E+01
216	  0.063086174	-5.998000E+00	  0.063086174	-1.381020E+02	  0.063086174	1.874000E+01	  0.063086174	-1.675800E+01
217	  0.063286573	-5.995000E+00	  0.063286573	-1.392860E+02	  0.063286573	1.860400E+01	  0.063286573	-1.625900E+01
218	  0.063486971	-5.992000E+00	  0.063486971	-1.404380E+02	  0.063486971	1.847700E+01	  0.063486971	-1.577600E+01
219	  0.063687377	-5.987000E+00	  0.063687377	-1.415860E+02	  0.063687377	1.834800E+01	  0.063687377	-1.529800E+01
220	  0.063887775	-5.986000E+00	  0.063887775	-1.427330E+02	  0.063887775	1.823500E+01	  0.063887775	-1.482000E+01
221	  0.064088173	-5.978000E+00	  0.064088173	-1.438850E+02	  0.064088173	1.810600E+01	  0.064088173	-1.434600E+01
222	  0.064288579	-5.976000E+00	  0.064288579	-1.450130E+02	  0.064288579	1.800100E+01	  0.064288579	-1.388000E+01
223	  0.064488977	-5.977000E+00	  0.064488977	-1.461770E+02	  0.064488977	1.790500E+01	  0.064488977	-1.339900E+01
224	  0.064689375	-5.977000E+00	  0.064689375	-1.472560E+02	  0.064689375	1.781800E+01	  0.064689375	-1.295500E+01
225	  0.064889781	-5.972000E+00	  0.064889781	-1.484150E+02	  0.064889781	1.771100E+01	  0.064889781	-1.248300E+01
226	  0.065090179	-5.971000E+00	  0.065090179	-1.495000E+02	  0.065090179	1.762600E+01	  0.065090179	-1.204100E+01
227	  0.065290578	-5.972000E+00	  0.065290578	-1.506200E+02	  0.065290578	1.754800E+01	  0.065290578	-1.158500E+01
228	  0.065490983	-5.970000E+00	  0.065490983	-1.516970E+02	  0.065490983	1.746800E+01	  0.065490983	-1.114900E+01
229	  0.065691382	-5.970000E+00	  0.065691382	-1.528090E+02	  0.065691382	1.739300E+01	  0.065691382	-1.070000E+01
230	  0.065891780	-5.968000E+00	  0.065891780	-1.539160E+02	  0.065891780	1.731900E+01	  0.065891780	-1.025500E+01
231	  0.066092186	-5.972000E+00	  0.066092186	-1.550030E+02	  0.066092186	1.726200E+01	  0.066092186	-9.817000E+00
232	  0.066292584	-5.969000E+00	  0.066292584	-1.561000E+02	  0.066292584	1.719100E+01	  0.066292584	-9.378000E+00
233	  0.066492982	-5.970000E+00	  0.066492982	-1.571930E+02	  0.066492982	1.713600E+01	  0.066492982	-8.941000E+00
234	  0.066693388	-5.974000E+00	  0.066693388	-1.582380E+02	  0.066693388	1.709000E+01	  0.066693388	-8.523000E+00
235	  0.066893786	-5.975000E+00	  0.066893786	-1.593120E+02	  0.066893786	1.703900E+01	  0.066893786	-8.096000E+00
236	  0.067094192	-5.976000E+00	  0.067094192	-1.603760E+02	  0.067094192	1.699200E+01	  0.067094192	-7.674000E+00
237	  0.067294590	-5.983000E+00	  0.067294590	-1.614280E+02	  0.067294590	1.696300E+01	  0.067294590	-7.255000E+00
238	  0.067494988	-5.980000E+00	  0.067494988	-1.624860E+02	  0.067494988	1.691400E+01	  0.067494988	-6.838000E+00
239	  0.067695394	-5.981000E+00	  0.067695394	-1.635750E+02	  0.067695394	1.687300E+01	  0.067695394	-6.409000E+00
240	  0.067895792	-5.989000E+00	  0.067895792	-1.646130E+02	  0.067895792	1.685600E+01	  0.067895792	-5.998000E+00
241	  0.068096191	-5.993000E+00	  0.068096191	-1.656680E+02	  0.068096191	1.683000E+01	  0.068096191	-5.583000E+00
242	  0.068296596	-5.997000E+00	  0.068296596	-1.667200E+02	  0.068296596	1.680600E+01	  0.068296596	-5.170000E+00
243	  0.068496995	-5.998000E+00	  0.068496995	-1.677630E+02	  0.068496995	1.677900E+01	  0.068496995	-4.761000E+00
244	  0.068697393	-6.006000E+00	  0.068697393	-1.687930E+02	  0.068697393	1.677200E+01	  0.068697393	-4.358000E+00
245	  0.068897791	-6.003000E+00	  0.068897791	-1.698070E+02	  0.068897791	1.674000E+01	  0.068897791	-3.962000E+00
246	  0.069098189	-6.006000E+00	  0.069098189	-1.708300E+02	  0.069098189	1.672400E+01	  0.069098189	-3.563000E+00
247	  0.069298595	-6.009000E+00	  0.069298595	-1.718600E+02	  0.069298595	1.671300E+01	  0.069298595	-3.161000E+00
248	  0.069498993	-6.007000E+00	  0.069498993	-1.728920E+02	  0.069498993	1.669100E+01	  0.069498993	-2.760000E+00
249	  0.069699399	-6.018000E+00	  0.069699399	-1.739330E+02	  0.069699399	1.670300E+01	  0.069699399	-2.354000E+00
250	  0.069899797	-6.019000E+00	  0.069899797	-1.749430E+02	  0.069899797	1.669300E+01	  0.069899797	-1.962000E+00
251	  0.070100196	-6.022000E+00	  0.070100196	-1.759300E+02	  0.070100196	1.668900E+01	  0.070100196	-1.578000E+00
252	  0.070300601	-6.024000E+00	  0.070300601	-1.769020E+02	  0.070300601	1.668700E+01	  0.070300601	-1.201000E+00
253	  0.070501000	-6.029000E+00	  0.070501000	-1.779120E+02	  0.070501000	1.669400E+01	  0.070501000	-8.090000E-01
254	  0.070701398	-6.029000E+00	  0.070701398	-1.788820E+02	  0.070701398	1.669000E+01	  0.070701398	-4.330000E-01
255	  0.070901804	-6.035000E+00	  0.070901804	-1.798730E+02	  0.070901804	1.670400E+01	  0.070901804	-4.800000E-02
256	  0.071102202	-6.040000E+00	  0.071102202	1.791500E+02	  0.071102202	1.671700E+01	  0.071102202	3.290000E-01
257	  0.071302600	-6.044000E+00	  0.071302600	1.781870E+02	  0.071302600	1.673100E+01	  0.071302600	7.020000E-01
258	  0.071503006	-6.048000E+00	  0.071503006	1.772110E+02	  0.071503006	1.674700E+01	  0.071503006	1.080000E+00
259	  0.071703404	-6.059000E+00	  0.071703404	1.762370E+02	  0.071703404	1.678300E+01	  0.071703404	1.457000E+00
260	  0.071903802	-6.060000E+00	  0.071903802	1.752670E+02	  0.071903802	1.679300E+01	  0.071903802	1.833000E+00
261	  0.072104208	-6.065000E+00	  0.072104208	1.743230E+02	  0.072104208	1.681700E+01	  0.072104208	2.198000E+00
262	  0.072304606	-6.073000E+00	  0.072304606	1.733880E+02	  0.072304606	1.685100E+01	  0.072304606	2.560000E+00
263	  0.072505005	-6.074000E+00	  0.072505005	1.724410E+02	  0.072505005	1.687000E+01	  0.072505005	2.928000E+00
264	  0.072705410	-6.081000E+00	  0.072705410	1.714830E+02	  0.072705410	1.690500E+01	  0.072705410	3.299000E+00
265	  0.072905809	-6.090000E+00	  0.072905809	1.705170E+02	  0.072905809	1.694700E+01	  0.072905809	3.673000E+00
266	  0.073106214	-6.095000E+00	  0.073106214	1.695890E+02	  0.073106214	1.698100E+01	  0.073106214	4.033000E+00
267	  0.073306613	-6.104000E+00	  0.073306613	1.686650E+02	  0.073306613	1.702800E+01	  0.073306613	4.391000E+00
268	  0.073507011	-6.113000E+00	  0.073507011	1.677190E+02	  0.073507011	1.707600E+01	  0.073507011	4.757000E+00
269	  0.073707417	-6.118000E+00	  0.073707417	1.668130E+02	  0.073707417	1.711700E+01	  0.073707417	5.109000E+00
270	  0.073907815	-6.122000E+00	  0.073907815	1.658980E+02	  0.073907815	1.715500E+01	  0.073907815	5.465000E+00
271	  0.074108213	-6.130000E+00	  0.074108213	1.649680E+02	  0.074108213	1.720700E+01	  0.074108213	5.827000E+00
272	  0.074308619	-6.136000E+00	  0.074308619	1.640420E+02	  0.074308619	1.725600E+01	  0.074308619	6.187000E+00
273	  0.074509017	-6.138000E+00	  0.074509017	1.630930E+02	  0.074509017	1.729900E+01	  0.074509017	6.558000E+00
274	  0.074709415	-6.146000E+00	  0.074709415	1.622200E+02	  0.074709415	1.735500E+01	  0.074709415	6.898000E+00
275	  0.074909821	-6.155000E+00	  0.074909821	1.612950E+02	  0.074909821	1.741600E+01	  0.074909821	7.258000E+00
276	  0.075110219	-6.164000E+00	  0.075110219	1.603980E+02	  0.075110219	1.748200E+01	  0.075110219	7.608000E+00
277	  0.075310618	-6.169000E+00	  0.075310618	1.594960E+02	  0.075310618	1.753800E+01	  0.075310618	7.961000E+00
278	  0.075511023	-6.173000E+00	  0.075511023	1.586090E+02	  0.075511023	1.759200E+01	  0.075511023	8.309000E+00
279	  0.075711422	-6.180000E+00	  0.075711422	1.577340E+02	  0.075711422	1.765600E+01	  0.075711422	8.652000E+00
280	  0.075911827	-6.189000E+00	  0.075911827	1.568500E+02	  0.075911827	1.772800E+01	  0.075911827	8.998000E+00
281	  0.076112226	-6.195000E+00	  0.076112226	1.559670E+02	  0.076112226	1.779200E+01	  0.076112226	9.346000E+00
282	  0.076312624	-6.207000E+00	  0.076312624	1.550710E+02	  0.076312624	1.787700E+01	  0.076312624	9.697000E+00
283	  0.076513030	-6.217000E+00	  0.076513030	1.541860E+02	  0.076513030	1.795800E+01	  0.076513030	1.004400E+01
284	  0.076713428	-6.227000E+00	  0.076713428	1.533060E+02	  0.076713428	1.804200E+01	  0.076713428	1.039000E+01
285	  0.076913826	-6.235000E+00	  0.076913826	1.524410E+02	  0.076913826	1.812000E+01	  0.076913826	1.073200E+01
286	  0.077114232	-6.242000E+00	  0.077114232	1.515860E+02	  0.077114232	1.819600E+01	  0.077114232	1.107000E+01
287	  0.077314630	-6.253000E+00	  0.077314630	1.507480E+02	  0.077314630	1.828600E+01	  0.077314630	1.140000E+01
288	  0.077515028	-6.263000E+00	  0.077515028	1.498840E+02	  0.077515028	1.837700E+01	  0.077515028	1.174200E+01
289	  0.077715434	-6.273000E+00	  0.077715434	1.490450E+02	  0.077715434	1.846700E+01	  0.077715434	1.207400E+01
290	  0.077915832	-6.283000E+00	  0.077915832	1.482020E+02	  0.077915832	1.856200E+01	  0.077915832	1.240800E+01
291	  0.078116231	-6.293000E+00	  0.078116231	1.473190E+02	  0.078116231	1.865900E+01	  0.078116231	1.275900E+01
292	  0.078316636	-6.308000E+00	  0.078316636	1.464840E+02	  0.078316636	1.877000E+01	  0.078316636	1.308900E+01
293	  0.078517035	-6.319000E+00	  0.078517035	1.456000E+02	  0.078517035	1.887700E+01	  0.078517035	1.344000E+01
294	  0.078717433	-6.330000E+00	  0.078717433	1.447760E+02	  0.078717433	1.898000E+01	  0.078717433	1.376800E+01
295	  0.078917839	-6.346000E+00	  0.078917839	1.439190E+02	  0.078917839	1.910300E+01	  0.078917839	1.410700E+01
296	  0.079118237	-6.355000E+00	  0.079118237	1.431000E+02	  0.079118237	1.920400E+01	  0.079118237	1.443600E+01
297	  0.079318643	-6.369000E+00	  0.079318643	1.422650E+02	  0.079318643	1.932600E+01	  0.079318643	1.476800E+01
298	  0.079519041	-6.384000E+00	  0.079519041	1.414170E+02	  0.079519041	1.945200E+01	  0.079519041	1.510500E+01
299	  0.079719439	-6.396000E+00	  0.079719439	1.405930E+02	  0.079719439	1.956900E+01	  0.079719439	1.543500E+01
300	  0.079919845	-6.410000E+00	  0.079919845	1.397420E+02	  0.079919845	1.969800E+01	  0.079919845	1.577600E+01
301	  0.080120243	-6.426000E+00	  0.080120243	1.388940E+02	  0.080120243	1.983400E+01	  0.080120243	1.611400E+01
302	  0.080320641	-6.436000E+00	  0.080320641	1.380580E+02	  0.080320641	1.995700E+01	  0.080320641	1.645200E+01
303	  0.080521047	-6.452000E+00	  0.080521047	1.372360E+02	  0.080521047	2.009600E+01	  0.080521047	1.678100E+01
304	  0.080721445	-6.465000E+00	  0.080721445	1.364030E+02	  0.080721445	2.023100E+01	  0.080721445	1.711700E+01
305	  0.080921844	-6.479000E+00	  0.080921844	1.355900E+02	  0.080921844	2.036800E+01	  0.080921844	1.744400E+01
306	  0.081122249	-6.492000E+00	  0.081122249	1.347660E+02	  0.081122249	2.050900E+01	  0.081122249	1.777700E+01
307	  0.081322648	-6.507000E+00	  0.081322648	1.339630E+02	  0.081322648	2.065200E+01	  0.081322648	1.810100E+01
308	  0.081523046	-6.521000E+00	  0.081523046	1.331520E+02	  0.081523046	2.079900E+01	  0.081523046	1.842900E+01
309	  0.081723452	-6.531000E+00	  0.081723452	1.323230E+02	  0.081723452	2.093800E+01	  0.081723452	1.876900E+01
310	  0.081923850	-6.543000E+00	  0.081923850	1.315340E+02	  0.081923850	2.108100E+01	  0.081923850	1.909100E+01
311	  0.082124248	-6.558000E+00	  0.082124248	1.307270E+02	  0.082124248	2.123900E+01	  0.082124248	1.941700E+01
312	  0.082324654	-6.570000E+00	  0.082324654	1.299400E+02	  0.082324654	2.138700E+01	  0.082324654	1.974000E+01
313	  0.082525052	-6.587000E+00	  0.082525052	1.291800E+02	  0.082525052	2.154800E+01	  0.082525052	2.004600E+01
314	  0.082725458	-6.602000E+00	  0.082725458	1.284120E+02	  0.082725458	2.170700E+01	  0.082725458	2.035800E+01
315	  0.082925856	-6.615000E+00	  0.082925856	1.276380E+02	  0.082925856	2.186500E+01	  0.082925856	2.067500E+01
316	  0.083126254	-6.637000E+00	  0.083126254	1.268530E+02	  0.083126254	2.205100E+01	  0.083126254	2.098800E+01
317	  0.083326660	-6.649000E+00	  0.083326660	1.261220E+02	  0.083326660	2.220600E+01	  0.083326660	2.128800E+01
318	  0.083527058	-6.664000E+00	  0.083527058	1.253310E+02	  0.083527058	2.237900E+01	  0.083527058	2.161200E+01
319	  0.083727457	-6.681000E+00	  0.083727457	1.245890E+02	  0.083727457	2.255400E+01	  0.083727457	2.191300E+01
320	  0.083927862	-6.702000E+00	  0.083927862	1.238370E+02	  0.083927862	2.274500E+01	  0.083927862	2.221300E+01
321	  0.084128261	-6.720000E+00	  0.084128261	1.230880E+02	  0.084128261	2.293100E+01	  0.084128261	2.251600E+01
322	  0.084328659	-6.738000E+00	  0.084328659	1.223540E+02	  0.084328659	2.311500E+01	  0.084328659	2.281300E+01
323	  0.084529065	-6.760000E+00	  0.084529065	1.216110E+02	  0.084529065	2.331800E+01	  0.084529065	2.310700E+01
324	  0.084729463	-6.781000E+00	  0.084729463	1.208660E+02	  0.084729463	2.351900E+01	  0.084729463	2.340600E+01
325	  0.084929854	-6.803000E+00	  0.084929854	1.201010E+02	  0.084929854	2.373100E+01	  0.084929854	2.371100E+01
326	  0.085130259	-6.823000E+00	  0.085130259	1.193480E+02	  0.085130259	2.393900E+01	  0.085130259	2.401300E+01
327	  0.085330658	-6.846000E+00	  0.085330658	1.186230E+02	  0.085330658	2.415100E+01	  0.085330658	2.430000E+01
328	  0.085531056	-6.865000E+00	  0.085531056	1.178650E+02	  0.085531056	2.436400E+01	  0.085531056	2.460500E+01
329	  0.085731462	-6.889000E+00	  0.085731462	1.171120E+02	  0.085731462	2.459200E+01	  0.085731462	2.490300E+01
330	  0.085931860	-6.909000E+00	  0.085931860	1.163870E+02	  0.085931860	2.480500E+01	  0.085931860	2.519300E+01
331	  0.086132258	-6.935000E+00	  0.086132258	1.156660E+02	  0.086132258	2.504000E+01	  0.086132258	2.547200E+01
332	  0.086332664	-6.960000E+00	  0.086332664	1.149000E+02	  0.086332664	2.528700E+01	  0.086332664	2.577200E+01
333	  0.086533062	-6.982000E+00	  0.086533062	1.141830E+02	  0.086533062	2.551500E+01	  0.086533062	2.605500E+01
334	  0.086733460	-7.006000E+00	  0.086733460	1.134640E+02	  0.086733460	2.575300E+01	  0.086733460	2.633500E+01
335	  0.086933866	-7.029000E+00	  0.086933866	1.127260E+02	  0.086933866	2.599700E+01	  0.086933866	2.662500E+01
336	  0.087134264	-7.049000E+00	  0.087134264	1.120070E+02	  0.087134264	2.623200E+01	  0.087134264	2.691000E+01
337	  0.087334670	-7.074000E+00	  0.087334670	1.112700E+02	  0.087334670	2.648700E+01	  0.087334670	2.719700E+01
338	  0.087535068	-7.102000E+00	  0.087535068	1.105770E+02	  0.087535068	2.674300E+01	  0.087535068	2.745700E+01
339	  0.087735467	-7.130000E+00	  0.087735467	1.098710E+02	  0.087735467	2.700900E+01	  0.087735467	2.772100E+01
340	  0.087935872	-7.156000E+00	  0.087935872	1.091520E+02	  0.087935872	2.727400E+01	  0.087935872	2.799600E+01
341	  0.088136271	-7.178000E+00	  0.088136271	1.084550E+02	  0.088136271	2.752700E+01	  0.088136271	2.826500E+01
342	  0.088336669	-7.200000E+00	  0.088336669	1.077620E+02	  0.088336669	2.778100E+01	  0.088336669	2.853200E+01
343	  0.088537075	-7.225000E+00	  0.088537075	1.070470E+02	  0.088537075	2.805400E+01	  0.088537075	2.880400E+01
344	  0.088737473	-7.249000E+00	  0.088737473	1.063710E+02	  0.088737473	2.831700E+01	  0.088737473	2.905900E+01
345	  0.088937871	-7.272000E+00	  0.088937871	1.056650E+02	  0.088937871	2.858900E+01	  0.088937871	2.932800E+01
346	  0.089138277	-7.302000E+00	  0.089138277	1.049840E+02	  0.089138277	2.887800E+01	  0.089138277	2.957200E+01
347	  0.089338675	-7.322000E+00	  0.089338675	1.043360E+02	  0.089338675	2.913300E+01	  0.089338675	2.981800E+01
348	  0.089539073	-7.356000E+00	  0.089539073	1.037220E+02	  0.089539073	2.941900E+01	  0.089539073	3.002300E+01
349	  0.089739479	-7.383000E+00	  0.089739479	1.030250E+02	  0.089739479	2.971300E+01	  0.089739479	3.027600E+01
350	  0.089939877	-7.408000E+00	  0.089939877	1.024030E+02	  0.089939877	2.998500E+01	  0.089939877	3.049800E+01
351	  0.090140276	-7.439000E+00	  0.090140276	1.017720E+02	  0.090140276	3.027800E+01	  0.090140276	3.071100E+01
352	  0.090340681	-7.462000E+00	  0.090340681	1.011530E+02	  0.090340681	3.054600E+01	  0.090340681	3.093500E+01
353	  0.090541080	-7.497000E+00	  0.090541080	1.005120E+02	  0.090541080	3.086200E+01	  0.090541080	3.114000E+01
354	  0.090741485	-7.524000E+00	  0.090741485	9.989500E+01	  0.090741485	3.114900E+01	  0.090741485	3.134900E+01
355	  0.090941884	-7.555000E+00	  0.090941884	9.930100E+01	  0.090941884	3.144300E+01	  0.090941884	3.153900E+01
356	  0.091142282	-7.594000E+00	  0.091142282	9.869200E+01	  0.091142282	3.176600E+01	  0.091142282	3.171700E+01
357	  0.091342688	-7.623000E+00	  0.091342688	9.810200E+01	  0.091342688	3.205800E+01	  0.091342688	3.190600E+01
358	  0.091543086	-7.653000E+00	  0.091543086	9.749300E+01	  0.091543086	3.236500E+01	  0.091543086	3.209700E+01
359	  0.091743484	-7.686000E+00	  0.091743484	9.690900E+01	  0.091743484	3.267100E+01	  0.091743484	3.227100E+01
360	  0.091943890	-7.718000E+00	  0.091943890	9.630200E+01	  0.091943890	3.298600E+01	  0.091943890	3.245600E+01
361	  0.092144288	-7.747000E+00	  0.092144288	9.568100E+01	  0.092144288	3.330500E+01	  0.092144288	3.264800E+01
362	  0.092344686	-7.782000E+00	  0.092344686	9.510200E+01	  0.092344686	3.362400E+01	  0.092344686	3.280900E+01
363	  0.092545092	-7.811000E+00	  0.092545092	9.451400E+01	  0.092545092	3.393300E+01	  0.092545092	3.298600E+01
364	  0.092745490	-7.850000E+00	  0.092745490	9.395900E+01	  0.092745490	3.426000E+01	  0.092745490	3.312000E+01
365	  0.092945889	-7.874000E+00	  0.092945889	9.341900E+01	  0.092945889	3.454300E+01	  0.092945889	3.328400E+01
366	  0.093146294	-7.914000E+00	  0.093146294	9.285000E+01	  0.093146294	3.488400E+01	  0.093146294	3.341600E+01
367	  0.093346693	-7.944000E+00	  0.093346693	9.228500E+01	  0.093346693	3.519900E+01	  0.093346693	3.357100E+01
368	  0.093547091	-7.975000E+00	  0.093547091	9.172600E+01	  0.093547091	3.551700E+01	  0.093547091	3.371800E+01
369	  0.093747497	-8.005000E+00	  0.093747497	9.118600E+01	  0.093747497	3.582300E+01	  0.093747497	3.386000E+01
370	  0.093947895	-8.036000E+00	  0.093947895	9.061300E+01	  0.093947895	3.615100E+01	  0.093947895	3.400900E+01
371	  0.094148301	-8.071000E+00	  0.094148301	9.008500E+01	  0.094148301	3.647400E+01	  0.094148301	3.412500E+01
372	  0.094348699	-8.098000E+00	  0.094348699	8.952500E+01	  0.094348699	3.679100E+01	  0.094348699	3.427400E+01
373	  0.094549097	-8.133000E+00	  0.094549097	8.903200E+01	  0.094549097	3.710500E+01	  0.094549097	3.436900E+01
374	  0.094749503	-8.158000E+00	  0.094749503	8.851300E+01	  0.094749503	3.740300E+01	  0.094749503	3.450300E+01
375	  0.094949901	-8.190000E+00	  0.094949901	8.805400E+01	  0.094949901	3.769500E+01	  0.094949901	3.459000E+01
376	  0.095150299	-8.213000E+00	  0.095150299	8.754800E+01	  0.095150299	3.798500E+01	  0.095150299	3.472300E+01
377	  0.095350705	-8.243000E+00	  0.095350705	8.703100E+01	  0.095350705	3.830300E+01	  0.095350705	3.483500E+01
378	  0.095551103	-8.273000E+00	  0.095551103	8.654600E+01	  0.095551103	3.860700E+01	  0.095551103	3.493100E+01
379	  0.095751502	-8.300000E+00	  0.095751502	8.603000E+01	  0.095751502	3.892100E+01	  0.095751502	3.504700E+01
380	  0.095951907	-8.328000E+00	  0.095951907	8.558500E+01	  0.095951907	3.920400E+01	  0.095951907	3.513100E+01
381	  0.096152306	-8.350000E+00	  0.096152306	8.510600E+01	  0.096152306	3.949100E+01	  0.096152306	3.524400E+01
382	  0.096352704	-8.380000E+00	  0.096352704	8.467500E+01	  0.096352704	3.977800E+01	  0.096352704	3.530800E+01
383	  0.096553110	-8.397000E+00	  0.096553110	8.422200E+01	  0.096553110	4.004300E+01	  0.096553110	3.542500E+01
384	  0.096753508	-8.424000E+00	  0.096753508	8.378400E+01	  0.096753508	4.032600E+01	  0.096753508	3.550200E+01
385	  0.096953906	-8.447000E+00	  0.096953906	8.336100E+01	  0.096953906	4.059400E+01	  0.096953906	3.558300E+01
386	  0.097154312	-8.474000E+00	  0.097154312	8.289700E+01	  0.097154312	4.089700E+01	  0.097154312	3.566100E+01
387	  0.097354710	-8.497000E+00	  0.097354710	8.251200E+01	  0.097354710	4.114900E+01	  0.097354710	3.572500E+01
388	  0.097555116	-8.524000E+00	  0.097555116	8.207800E+01	  0.097555116	4.143700E+01	  0.097555116	3.579000E+01
389	  0.097755514	-8.544000E+00	  0.097755514	8.167200E+01	  0.097755514	4.169600E+01	  0.097755514	3.586600E+01
390	  0.097955912	-8.563000E+00	  0.097955912	8.126100E+01	  0.097955912	4.195500E+01	  0.097955912	3.594800E+01
391	  0.098156318	-8.594000E+00	  0.098156318	8.087200E+01	  0.098156318	4.223300E+01	  0.098156318	3.597700E+01
392	  0.098356716	-8.613000E+00	  0.098356716	8.044500E+01	  0.098356716	4.250500E+01	  0.098356716	3.605900E+01
393	  0.098557115	-8.634000E+00	  0.098557115	8.008000E+01	  0.098557115	4.274800E+01	  0.098557115	3.611100E+01
394	  0.098757520	-8.651000E+00	  0.098757520	7.967100E+01	  0.098757520	4.300900E+01	  0.098757520	3.619000E+01
395	  0.098957919	-8.669000E+00	  0.098957919	7.925600E+01	  0.098957919	4.327500E+01	  0.098957919	3.626700E+01
396	  0.099158317	-8.689000E+00	  0.099158317	7.885600E+01	  0.099158317	4.354000E+01	  0.099158317	3.633000E+01
397	  0.099358723	-8.710000E+00	  0.099358723	7.846200E+01	  0.099358723	4.380300E+01	  0.099358723	3.638600E+01
398	  0.099559121	-8.729000E+00	  0.099559121	7.807000E+01	  0.099559121	4.406400E+01	  0.099559121	3.644600E+01
399	  0.099759519	-8.742000E+00	  0.099759519	7.766100E+01	  0.099759519	4.432300E+01	  0.099759519	3.653200E+01
400	  0.099959925	-8.753000E+00	  0.099959925	7.727000E+01	  0.099959925	4.456800E+01	  0.099959925	3.661600E+01
401	  0.100160323	-8.759000E+00	  0.100160323	7.692400E+01	  0.100160323	4.477900E+01	  0.100160323	3.670600E+01
402	  0.100360721	-8.783000E+00	  0.100360721	7.653800E+01	  0.100360721	4.505100E+01	  0.100360721	3.673900E+01
403	  0.100561127	-8.785000E+00	  0.100561127	7.607800E+01	  0.100561127	4.532300E+01	  0.100561127	3.687600E+01
404	  0.100761525	-8.799000E+00	  0.100761525	7.567900E+01	  0.100761525	4.558500E+01	  0.100761525	3.694600E+01
405	  0.100961931	-8.805000E+00	  0.100961931	7.529600E+01	  0.100961931	4.582400E+01	  0.100961931	3.704300E+01
406	  0.101162329	-8.806000E+00	  0.101162329	7.490200E+01	  0.101162329	4.606000E+01	  0.101162329	3.716000E+01
407	  0.101362728	-8.811000E+00	  0.101362728	7.451000E+01	  0.101362728	4.630500E+01	  0.101362728	3.726000E+01
408	  0.101563133	-8.821000E+00	  0.101563133	7.415700E+01	  0.101563133	4.654000E+01	  0.101563133	3.732600E+01
409	  0.101763532	-8.826000E+00	  0.101763532	7.373300E+01	  0.101763532	4.680700E+01	  0.101763532	3.743300E+01
410	  0.101963930	-8.818000E+00	  0.101963930	7.336300E+01	  0.101963930	4.701900E+01	  0.101963930	3.757500E+01
411	  0.102164328	-8.829000E+00	  0.102164328	7.293100E+01	  0.102164328	4.730700E+01	  0.102164328	3.766000E+01
412	  0.102364726	-8.827000E+00	  0.102364726	7.254600E+01	  0.102364726	4.754400E+01	  0.102364726	3.778100E+01
413	  0.102565125	-8.819000E+00	  0.102565125	7.209400E+01	  0.102565125	4.781400E+01	  0.102565125	3.794200E+01
414	  0.102765530	-8.820000E+00	  0.102765530	7.172900E+01	  0.102765530	4.804700E+01	  0.102765530	3.804600E+01
415	  0.102965929	-8.813000E+00	  0.102965929	7.136600E+01	  0.102965929	4.826700E+01	  0.102965929	3.817800E+01
416	  0.103166327	-8.804000E+00	  0.103166327	7.099900E+01	  0.103166327	4.848700E+01	  0.103166327	3.832000E+01
417	  0.103366733	-8.802000E+00	  0.103366733	7.057000E+01	  0.103366733	4.876300E+01	  0.103366733	3.844900E+01
418	  0.103567131	-8.790000E+00	  0.103567131	7.017800E+01	  0.103567131	4.899900E+01	  0.103567131	3.861100E+01
419	  0.103767529	-8.793000E+00	  0.103767529	6.976100E+01	  0.103767529	4.928100E+01	  0.103767529	3.871300E+01
420	  0.103967935	-8.784000E+00	  0.103967935	6.932000E+01	  0.103967935	4.956000E+01	  0.103967935	3.887000E+01
421	  0.104168333	-8.781000E+00	  0.104168333	6.893800E+01	  0.104168333	4.981200E+01	  0.104168333	3.899000E+01
422	  0.104368731	-8.764000E+00	  0.104368731	6.849900E+01	  0.104368731	5.008100E+01	  0.104368731	3.918300E+01
423	  0.104569137	-8.761000E+00	  0.104569137	6.810300E+01	  0.104569137	5.034800E+01	  0.104569137	3.930300E+01
424	  0.104769535	-8.753000E+00	  0.104769535	6.761700E+01	  0.104769535	5.067200E+01	  0.104769535	3.946600E+01
425	  0.104969934	-8.755000E+00	  0.104969934	6.718300E+01	  0.104969934	5.098000E+01	  0.104969934	3.956600E+01
426	  0.105170339	-8.736000E+00	  0.105170339	6.672100E+01	  0.105170339	5.127400E+01	  0.105170339	3.977600E+01
427	  0.105370738	-8.732000E+00	  0.105370738	6.627000E+01	  0.105370738	5.159000E+01	  0.105370738	3.990800E+01
428	  0.105571143	-8.719000E+00	  0.105571143	6.583300E+01	  0.105571143	5.188500E+01	  0.105571143	4.007800E+01
429	  0.105771542	-8.713000E+00	  0.105771542	6.537700E+01	  0.105771542	5.220800E+01	  0.105771542	4.021900E+01
430	  0.105971940	-8.710000E+00	  0.105971940	6.484400E+01	  0.105971940	5.259600E+01	  0.105971940	4.036100E+01
431	  0.106172346	-8.698000E+00	  0.106172346	6.433700E+01	  0.106172346	5.295500E+01	  0.106172346	4.053900E+01
432	  0.106372744	-8.688000E+00	  0.106372744	6.388400E+01	  0.106372744	5.328100E+01	  0.106372744	4.069200E+01
433	  0.106573142	-8.683000E+00	  0.106573142	6.333600E+01	  0.106573142	5.369100E+01	  0.106573142	4.084100E+01
434	  0.106773548	-8.680000E+00	  0.106773548	6.285800E+01	  0.106773548	5.405400E+01	  0.106773548	4.096400E+01
435	  0.106973946	-8.669000E+00	  0.106973946	6.236200E+01	  0.106973946	5.442400E+01	  0.106973946	4.112600E+01
436	  0.107174344	-8.656000E+00	  0.107174344	6.179600E+01	  0.107174344	5.485100E+01	  0.107174344	4.131500E+01
437	  0.107374750	-8.650000E+00	  0.107374750	6.124500E+01	  0.107374750	5.528100E+01	  0.107374750	4.146000E+01
438	  0.107575148	-8.639000E+00	  0.107575148	6.067500E+01	  0.107575148	5.572400E+01	  0.107575148	4.163500E+01
439	  0.107775547	-8.637000E+00	  0.107775547	6.018200E+01	  0.107775547	5.612400E+01	  0.107775547	4.174000E+01
440	  0.107975952	-8.622000E+00	  0.107975952	5.964500E+01	  0.107975952	5.654700E+01	  0.107975952	4.192200E+01
441	  0.108176351	-8.616000E+00	  0.108176351	5.913900E+01	  0.108176351	5.696100E+01	  0.108176351	4.204600E+01
442	  0.108376749	-8.603000E+00	  0.108376749	5.855200E+01	  0.108376749	5.743900E+01	  0.108376749	4.222400E+01
443	  0.108577155	-8.597000E+00	  0.108577155	5.802500E+01	  0.108577155	5.788100E+01	  0.108577155	4.234200E+01
444	  0.108777553	-8.589000E+00	  0.108777553	5.746000E+01	  0.108777553	5.835900E+01	  0.108777553	4.248000E+01
445	  0.108977959	-8.581000E+00	  0.108977959	5.692100E+01	  0.108977959	5.882000E+01	  0.108977959	4.261000E+01
446	  0.109178357	-8.569000E+00	  0.109178357	5.630300E+01	  0.109178357	5.935200E+01	  0.109178357	4.276900E+01
447	  0.109378755	-8.561000E+00	  0.109378755	5.574000E+01	  0.109378755	5.984600E+01	  0.109378755	4.289400E+01
448	  0.109579161	-8.555000E+00	  0.109579161	5.520300E+01	  0.109579161	6.032600E+01	  0.109579161	4.299600E+01
449	  0.109779559	-8.540000E+00	  0.109779559	5.463700E+01	  0.109779559	6.082900E+01	  0.109779559	4.315300E+01
450	  0.109979957	-8.530000E+00	  0.109979957	5.403600E+01	  0.109979957	6.137700E+01	  0.109979957	4.327900E+01
451	  0.110180363	-8.514000E+00	  0.110180363	5.349200E+01	  0.110180363	6.187300E+01	  0.110180363	4.343600E+01
452	  0.110380761	-8.502000E+00	  0.110380761	5.286200E+01	  0.110380761	6.246000E+01	  0.110380761	4.356900E+01
453	  0.110581160	-8.497000E+00	  0.110581160	5.227000E+01	  0.110581160	6.302300E+01	  0.110581160	4.364600E+01
454	  0.110781565	-8.486000E+00	  0.110781565	5.169500E+01	  0.110781565	6.357300E+01	  0.110781565	4.375500E+01
455	  0.110981964	-8.478000E+00	  0.110981964	5.102800E+01	  0.110981964	6.422200E+01	  0.110981964	4.384600E+01
456	  0.111182362	-8.468000E+00	  0.111182362	5.049300E+01	  0.111182362	6.474700E+01	  0.111182362	4.393800E+01
457	  0.111382768	-8.459000E+00	  0.111382768	4.981900E+01	  0.111382768	6.541800E+01	  0.111382768	4.402300E+01
458	  0.111583166	-8.452000E+00	  0.111583166	4.919400E+01	  0.111583166	6.605000E+01	  0.111583166	4.408200E+01
459	  0.111783572	-8.442000E+00	  0.111783572	4.855000E+01	  0.111783572	6.670700E+01	  0.111783572	4.415200E+01
460	  0.111983970	-8.429000E+00	  0.111983970	4.787400E+01	  0.111983970	6.740700E+01	  0.111983970	4.423700E+01
461	  0.112184368	-8.425000E+00	  0.112184368	4.723100E+01	  0.112184368	6.808100E+01	  0.112184368	4.424900E+01
462	  0.112384774	-8.421000E+00	  0.112384774	4.649200E+01	  0.112384774	6.886300E+01	  0.112384774	4.424600E+01
463	  0.112585172	-8.414000E+00	  0.112585172	4.580100E+01	  0.112585172	6.960500E+01	  0.112585172	4.425900E+01
464	  0.112785570	-8.408000E+00	  0.112785570	4.510600E+01	  0.112785570	7.035900E+01	  0.112785570	4.424800E+01
465	  0.112985976	-8.400000E+00	  0.112985976	4.441000E+01	  0.112985976	7.112500E+01	  0.112985976	4.423700E+01
466	  0.113186374	-8.399000E+00	  0.113186374	4.362600E+01	  0.113186374	7.199100E+01	  0.113186374	4.415400E+01
467	  0.113386773	-8.395000E+00	  0.113386773	4.295000E+01	  0.113386773	7.274800E+01	  0.113386773	4.408700E+01
468	  0.113587178	-8.394000E+00	  0.113587178	4.217500E+01	  0.113587178	7.362100E+01	  0.113587178	4.397200E+01
469	  0.113787577	-8.388000E+00	  0.113787577	4.135600E+01	  0.113787577	7.455800E+01	  0.113787577	4.386700E+01
470	  0.113987975	-8.388000E+00	  0.113987975	4.055500E+01	  0.113987975	7.547700E+01	  0.113987975	4.369500E+01
471	  0.114188381	-8.388000E+00	  0.114188381	3.977500E+01	  0.114188381	7.637900E+01	  0.114188381	4.351500E+01
472	  0.114388779	-8.395000E+00	  0.114388779	3.891200E+01	  0.114388779	7.737000E+01	  0.114388779	4.322700E+01
473	  0.114589177	-8.392000E+00	  0.114589177	3.813000E+01	  0.114589177	7.829200E+01	  0.114589177	4.301900E+01
474	  0.114789583	-8.394000E+00	  0.114789583	3.729000E+01	  0.114789583	7.927800E+01	  0.114789583	4.272600E+01
475	  0.114989981	-8.393000E+00	  0.114989981	3.640900E+01	  0.114989981	8.032600E+01	  0.114989981	4.242000E+01
476	  0.115190387	-8.401000E+00	  0.115190387	3.559200E+01	  0.115190387	8.127800E+01	  0.115190387	4.203500E+01
477	  0.115390785	-8.411000E+00	  0.115390785	3.469700E+01	  0.115390785	8.232000E+01	  0.115390785	4.157900E+01
478	  0.115591183	-8.416000E+00	  0.115591183	3.381900E+01	  0.115591183	8.335200E+01	  0.115591183	4.112800E+01
479	  0.115791589	-8.432000E+00	  0.115791589	3.296400E+01	  0.115791589	8.432100E+01	  0.115791589	4.057500E+01
480	  0.115991987	-8.449000E+00	  0.115991987	3.205400E+01	  0.115991987	8.534800E+01	  0.115991987	3.995700E+01
481	  0.116192386	-8.457000E+00	  0.116192386	3.114300E+01	  0.116192386	8.640200E+01	  0.116192386	3.937000E+01
482	  0.116392791	-8.479000E+00	  0.116392791	3.021500E+01	  0.116392791	8.741000E+01	  0.116392791	3.862600E+01
483	  0.116593190	-8.498000E+00	  0.116593190	2.927700E+01	  0.116593190	8.842700E+01	  0.116593190	3.785900E+01
484	  0.116793588	-8.518000E+00	  0.116793588	2.830500E+01	  0.116793588	8.946400E+01	  0.116793588	3.702400E+01
485	  0.116993994	-8.537000E+00	  0.116993994	2.734800E+01	  0.116993994	9.047400E+01	  0.116993994	3.617500E+01
486	  0.117194392	-8.567000E+00	  0.117194392	2.637500E+01	  0.117194392	9.141800E+01	  0.117194392	3.518200E+01
487	  0.117394790	-8.593000E+00	  0.117394790	2.538700E+01	  0.117394790	9.237500E+01	  0.117394790	3.417300E+01
488	  0.117595196	-8.627000E+00	  0.117595196	2.440800E+01	  0.117595196	9.324900E+01	  0.117595196	3.308000E+01
489	  0.117795594	-8.659000E+00	  0.117795594	2.341100E+01	  0.117795594	9.411900E+01	  0.117795594	3.195100E+01
490	  0.117995992	-8.698000E+00	  0.117995992	2.230200E+01	  0.117995992	9.501800E+01	  0.117995992	3.062400E+01
