! Anritsu VNA Master:             	Model: MS2036C/10/77
! SN:             	1601066
! /bd0/18may10/252.ns.m1.txt
! Existing Calibration Information:
! TYPE:             	Current Settings	Active Cal Settings
! TIME:             	05/10/2018 05:13:40 PM	05/10/2018 05:07:06 PM
! INTERNAL TEMP:    	52.8 C	50.3 C
! # POINTS:         	490	490
! START FREQ:       	20.000 MHz	20.000 MHz
! STOP FREQ:        	117.995 991 MHz	117.995 991 MHz
! SOURCE POWER:     	High	High
! IFBW:             	50 Hz	50 Hz
! AVG FACTOR:       	  1 	  1 
! REF PLANE 1:      	0 mm	0 mm
! REF PLANE 2:      	0 mm	0 mm
! CAL TYPE:         	Full S22	Full S22
! CAL METHOD:       	SOLT	SOLT
! CAL LINE TYPE:    	Coax	Coax
! DUT PORT 1:       	K-Conn(M)	K-Conn(M)
! DUT PORT 2:       	K-Conn(M)	K-Conn(M)
! CAL STATUS:       	OK: Accuracy High	--
! PROP-V:       	0.700
! CABLE LOSS:       	0.000 dB/m
! REF IMPEDANCE:       	50.0
! Trace Specific Parameters:	TR1	TR2	TR3	TR4
! TRACE.#.Y (GRAPH TYPE)	LOG MAG	PHASE	REAL IMPEDANCE	IMAGINARY IMPEDANCE
! TRACE.#.X 	FREQ.GHZ	FREQ.GHZ	FREQ.GHZ	FREQ.GHZ
! S-PARAMETER	S22	S22	S22	S22
! SMOOTH/APERTURE %	0	0	0	0
! WINDOW	NSL	NSL	NSL	NSL
! GATING	OFF	OFF	OFF	OFF
! FGTD	OFF	OFF	OFF	OFF
Marker Information per Trace:	TR1	TR2	TR3	TR4
!MK1	--	"MK1 TR2:  20.000 MHz,PH:-125.10°"	--	--
!MK2	--	--	"MK2 TR3:  70.100 200 MHz,Z:(16.787 ohm, -1.871 ohm)"	--
!MK3	--	--	--	--
!MK4	--	--	--	--
!MK5	--	--	--	--
!MK6	--	--	--	--
!MK7	--	--	--	--
!MK8	--	--	--	--
PNT	TR1.FREQ.GHZ	TR1.LOG MAG.dB	TR2.FREQ.GHZ	TR2.PHASE.deg	TR3.FREQ.GHZ	TR3.REAL IMPEDANCE.ohm	TR4.FREQ.GHZ	TR4.IMAGINARY IMPEDANCE.ohm
1	  0.020000000	-6.580000E-01	  0.020000000	-1.251010E+02	  0.020000000	2.405000E+00	  0.020000000	-2.592400E+01
2	  0.020200402	-6.590000E-01	  0.020200402	-1.265520E+02	  0.020200402	2.376000E+00	  0.020200402	-2.512700E+01
3	  0.020400802	-6.620000E-01	  0.020400802	-1.279830E+02	  0.020400802	2.360000E+00	  0.020400802	-2.435100E+01
4	  0.020601204	-6.670000E-01	  0.020601204	-1.294490E+02	  0.020601204	2.347000E+00	  0.020601204	-2.356500E+01
5	  0.020801604	-6.700000E-01	  0.020801604	-1.309500E+02	  0.020801604	2.329000E+00	  0.020801604	-2.277100E+01
6	  0.021002004	-6.750000E-01	  0.021002004	-1.324660E+02	  0.021002004	2.320000E+00	  0.021002004	-2.197800E+01
7	  0.021202406	-6.800000E-01	  0.021202406	-1.339760E+02	  0.021202406	2.308000E+00	  0.021202406	-2.119700E+01
8	  0.021402806	-6.820000E-01	  0.021402806	-1.354720E+02	  0.021402806	2.290000E+00	  0.021402806	-2.043200E+01
9	  0.021603208	-6.850000E-01	  0.021603208	-1.369840E+02	  0.021603208	2.279000E+00	  0.021603208	-1.966700E+01
10	  0.021803608	-6.890000E-01	  0.021803608	-1.384780E+02	  0.021803608	2.267000E+00	  0.021803608	-1.891900E+01
11	  0.022004008	-6.950000E-01	  0.022004008	-1.400100E+02	  0.022004008	2.263000E+00	  0.022004008	-1.816000E+01
12	  0.022204408	-7.020000E-01	  0.022204408	-1.415300E+02	  0.022204408	2.265000E+00	  0.022204408	-1.741400E+01
13	  0.022404809	-7.090000E-01	  0.022404809	-1.430980E+02	  0.022404809	2.266000E+00	  0.022404809	-1.665100E+01
14	  0.022605211	-7.130000E-01	  0.022605211	-1.446720E+02	  0.022605211	2.259000E+00	  0.022605211	-1.589200E+01
15	  0.022805611	-7.170000E-01	  0.022805611	-1.462500E+02	  0.022805611	2.254000E+00	  0.022805611	-1.513800E+01
16	  0.023006011	-7.210000E-01	  0.023006011	-1.478070E+02	  0.023006011	2.247000E+00	  0.023006011	-1.440100E+01
17	  0.023206413	-7.240000E-01	  0.023206413	-1.493820E+02	  0.023206413	2.238000E+00	  0.023206413	-1.366100E+01
18	  0.023406813	-7.290000E-01	  0.023406813	-1.509490E+02	  0.023406813	2.239000E+00	  0.023406813	-1.292900E+01
19	  0.023607215	-7.350000E-01	  0.023607215	-1.525180E+02	  0.023607215	2.240000E+00	  0.023607215	-1.220300E+01
20	  0.023807615	-7.420000E-01	  0.023807615	-1.541140E+02	  0.023807615	2.247000E+00	  0.023807615	-1.146800E+01
21	  0.024008015	-7.500000E-01	  0.024008015	-1.557390E+02	  0.024008015	2.257000E+00	  0.024008015	-1.072500E+01
22	  0.024208417	-7.560000E-01	  0.024208417	-1.573600E+02	  0.024208417	2.262000E+00	  0.024208417	-9.989000E+00
23	  0.024408817	-7.600000E-01	  0.024408817	-1.590140E+02	  0.024408817	2.262000E+00	  0.024408817	-9.241000E+00
24	  0.024609219	-7.660000E-01	  0.024609219	-1.606460E+02	  0.024609219	2.269000E+00	  0.024609219	-8.508000E+00
25	  0.024809619	-7.730000E-01	  0.024809619	-1.623040E+02	  0.024809619	2.279000E+00	  0.024809619	-7.767000E+00
26	  0.025010020	-7.820000E-01	  0.025010020	-1.639550E+02	  0.025010020	2.294000E+00	  0.025010020	-7.032000E+00
27	  0.025210422	-7.920000E-01	  0.025210422	-1.656090E+02	  0.025210422	2.315000E+00	  0.025210422	-6.299000E+00
28	  0.025410822	-8.030000E-01	  0.025410822	-1.672730E+02	  0.025410822	2.338000E+00	  0.025410822	-5.563000E+00
29	  0.025611224	-8.130000E-01	  0.025611224	-1.689680E+02	  0.025611224	2.360000E+00	  0.025611224	-4.817000E+00
30	  0.025811624	-8.240000E-01	  0.025811624	-1.706660E+02	  0.025811624	2.387000E+00	  0.025811624	-4.072000E+00
31	  0.026012026	-8.340000E-01	  0.026012026	-1.723830E+02	  0.026012026	2.411000E+00	  0.026012026	-3.320000E+00
32	  0.026212426	-8.460000E-01	  0.026212426	-1.741020E+02	  0.026212426	2.442000E+00	  0.026212426	-2.569000E+00
33	  0.026412826	-8.590000E-01	  0.026412826	-1.758250E+02	  0.026412826	2.476000E+00	  0.026412826	-1.817000E+00
34	  0.026613226	-8.740000E-01	  0.026613226	-1.775680E+02	  0.026613226	2.515000E+00	  0.026613226	-1.058000E+00
35	  0.026813626	-8.890000E-01	  0.026813626	-1.793220E+02	  0.026813626	2.559000E+00	  0.026813626	-2.940000E-01
36	  0.027014028	-9.050000E-01	  0.027014028	1.789260E+02	  0.027014028	2.604000E+00	  0.027014028	4.670000E-01
37	  0.027214428	-9.220000E-01	  0.027214428	1.771640E+02	  0.027214428	2.655000E+00	  0.027214428	1.234000E+00
38	  0.027414829	-9.400000E-01	  0.027414829	1.753990E+02	  0.027414829	2.709000E+00	  0.027414829	2.002000E+00
39	  0.027615231	-9.590000E-01	  0.027615231	1.736180E+02	  0.027615231	2.768000E+00	  0.027615231	2.778000E+00
40	  0.027815631	-9.760000E-01	  0.027815631	1.718220E+02	  0.027815631	2.822000E+00	  0.027815631	3.562000E+00
41	  0.028016033	-9.960000E-01	  0.028016033	1.700210E+02	  0.028016033	2.886000E+00	  0.028016033	4.350000E+00
42	  0.028216433	-1.017000E+00	  0.028216433	1.682090E+02	  0.028216433	2.957000E+00	  0.028216433	5.145000E+00
43	  0.028416833	-1.040000E+00	  0.028416833	1.663830E+02	  0.028416833	3.033000E+00	  0.028416833	5.947000E+00
44	  0.028617235	-1.062000E+00	  0.028617235	1.645590E+02	  0.028617235	3.109000E+00	  0.028617235	6.752000E+00
45	  0.028817635	-1.084000E+00	  0.028817635	1.627300E+02	  0.028817635	3.188000E+00	  0.028817635	7.562000E+00
46	  0.029018037	-1.109000E+00	  0.029018037	1.609040E+02	  0.029018037	3.279000E+00	  0.029018037	8.374000E+00
47	  0.029218437	-1.135000E+00	  0.029218437	1.590640E+02	  0.029218437	3.375000E+00	  0.029218437	9.197000E+00
48	  0.029418837	-1.162000E+00	  0.029418837	1.572020E+02	  0.029418837	3.477000E+00	  0.029418837	1.003300E+01
49	  0.029619239	-1.189000E+00	  0.029619239	1.553460E+02	  0.029619239	3.581000E+00	  0.029619239	1.087200E+01
50	  0.029819639	-1.219000E+00	  0.029819639	1.534720E+02	  0.029819639	3.699000E+00	  0.029819639	1.172500E+01
51	  0.030020041	-1.248000E+00	  0.030020041	1.515900E+02	  0.030020041	3.816000E+00	  0.030020041	1.258700E+01
52	  0.030220442	-1.277000E+00	  0.030220442	1.497260E+02	  0.030220442	3.938000E+00	  0.030220442	1.344700E+01
53	  0.030420844	-1.308000E+00	  0.030420844	1.478560E+02	  0.030420844	4.067000E+00	  0.030420844	1.431600E+01
54	  0.030621244	-1.340000E+00	  0.030621244	1.459980E+02	  0.030621244	4.206000E+00	  0.030621244	1.518800E+01
55	  0.030821642	-1.375000E+00	  0.030821642	1.441230E+02	  0.030821642	4.362000E+00	  0.030821642	1.607400E+01
56	  0.031022044	-1.409000E+00	  0.031022044	1.422290E+02	  0.031022044	4.519000E+00	  0.031022044	1.697900E+01
57	  0.031222444	-1.442000E+00	  0.031222444	1.403360E+02	  0.031222444	4.675000E+00	  0.031222444	1.789200E+01
58	  0.031422846	-1.476000E+00	  0.031422846	1.384070E+02	  0.031422846	4.844000E+00	  0.031422846	1.883300E+01
59	  0.031623244	-1.511000E+00	  0.031623244	1.364730E+02	  0.031623244	5.025000E+00	  0.031623244	1.978700E+01
60	  0.031823646	-1.544000E+00	  0.031823646	1.345490E+02	  0.031823646	5.204000E+00	  0.031823646	2.074800E+01
61	  0.032024048	-1.580000E+00	  0.032024048	1.326190E+02	  0.032024048	5.400000E+00	  0.032024048	2.172300E+01
62	  0.032224450	-1.615000E+00	  0.032224450	1.306830E+02	  0.032224450	5.604000E+00	  0.032224450	2.271400E+01
63	  0.032424849	-1.652000E+00	  0.032424849	1.287240E+02	  0.032424849	5.822000E+00	  0.032424849	2.373100E+01
64	  0.032625251	-1.687000E+00	  0.032625251	1.267580E+02	  0.032625251	6.043000E+00	  0.032625251	2.476700E+01
65	  0.032825653	-1.723000E+00	  0.032825653	1.247630E+02	  0.032825653	6.281000E+00	  0.032825653	2.583400E+01
66	  0.033026051	-1.758000E+00	  0.033026051	1.227630E+02	  0.033026051	6.526000E+00	  0.033026051	2.692200E+01
67	  0.033226453	-1.796000E+00	  0.033226453	1.207530E+02	  0.033226453	6.793000E+00	  0.033226453	2.803200E+01
68	  0.033426855	-1.829000E+00	  0.033426855	1.187420E+02	  0.033426855	7.057000E+00	  0.033426855	2.916500E+01
69	  0.033627257	-1.869000E+00	  0.033627257	1.167220E+02	  0.033627257	7.361000E+00	  0.033627257	3.032000E+01
70	  0.033827655	-1.907000E+00	  0.033827655	1.147130E+02	  0.033827655	7.675000E+00	  0.033827655	3.149100E+01
71	  0.034028057	-1.948000E+00	  0.034028057	1.126930E+02	  0.034028057	8.015000E+00	  0.034028057	3.269000E+01
72	  0.034228459	-1.990000E+00	  0.034228459	1.106550E+02	  0.034228459	8.379000E+00	  0.034228459	3.392400E+01
73	  0.034428857	-2.031000E+00	  0.034428857	1.085890E+02	  0.034428857	8.766000E+00	  0.034428857	3.520200E+01
74	  0.034629259	-2.074000E+00	  0.034629259	1.065260E+02	  0.034629259	9.179000E+00	  0.034629259	3.650400E+01
75	  0.034829661	-2.119000E+00	  0.034829661	1.044640E+02	  0.034829661	9.629000E+00	  0.034829661	3.783300E+01
76	  0.035030060	-2.165000E+00	  0.035030060	1.023890E+02	  0.035030060	1.010900E+01	  0.035030060	3.920000E+01
77	  0.035230462	-2.211000E+00	  0.035230462	1.003380E+02	  0.035230462	1.061700E+01	  0.035230462	4.058200E+01
78	  0.035430863	-2.259000E+00	  0.035430863	9.825800E+01	  0.035430863	1.116800E+01	  0.035430863	4.201600E+01
79	  0.035631265	-2.309000E+00	  0.035631265	9.619000E+01	  0.035631265	1.176600E+01	  0.035631265	4.347300E+01
80	  0.035831664	-2.359000E+00	  0.035831664	9.411400E+01	  0.035831664	1.239800E+01	  0.035831664	4.497400E+01
81	  0.036032066	-2.406000E+00	  0.036032066	9.203700E+01	  0.036032066	1.306400E+01	  0.036032066	4.651600E+01
82	  0.036232468	-2.457000E+00	  0.036232468	8.996800E+01	  0.036232468	1.378800E+01	  0.036232468	4.808800E+01
83	  0.036432866	-2.509000E+00	  0.036432866	8.787800E+01	  0.036432866	1.457700E+01	  0.036432866	4.971500E+01
84	  0.036633268	-2.563000E+00	  0.036633268	8.579400E+01	  0.036633268	1.542600E+01	  0.036633268	5.137900E+01
85	  0.036833670	-2.617000E+00	  0.036833670	8.370400E+01	  0.036833670	1.634100E+01	  0.036833670	5.309000E+01
86	  0.037034072	-2.672000E+00	  0.037034072	8.159500E+01	  0.037034072	1.733400E+01	  0.037034072	5.486400E+01
87	  0.037234470	-2.727000E+00	  0.037234470	7.951600E+01	  0.037234470	1.839300E+01	  0.037234470	5.665700E+01
88	  0.037434869	-2.783000E+00	  0.037434869	7.740300E+01	  0.037434869	1.954800E+01	  0.037434869	5.853000E+01
89	  0.037635271	-2.843000E+00	  0.037635271	7.528800E+01	  0.037635271	2.082300E+01	  0.037635271	6.044200E+01
90	  0.037835669	-2.905000E+00	  0.037835669	7.315700E+01	  0.037835669	2.222200E+01	  0.037835669	6.241500E+01
91	  0.038036071	-2.973000E+00	  0.038036071	7.100200E+01	  0.038036071	2.378600E+01	  0.038036071	6.444200E+01
92	  0.038236473	-3.041000E+00	  0.038236473	6.893900E+01	  0.038236473	2.543400E+01	  0.038236473	6.641100E+01
93	  0.038436871	-3.097000E+00	  0.038436871	6.685300E+01	  0.038436871	2.713400E+01	  0.038436871	6.849700E+01
94	  0.038637273	-3.156000E+00	  0.038637273	6.474900E+01	  0.038637273	2.901100E+01	  0.038637273	7.064000E+01
95	  0.038837675	-3.213000E+00	  0.038837675	6.263100E+01	  0.038837675	3.104800E+01	  0.038837675	7.284900E+01
96	  0.039038073	-3.267000E+00	  0.039038073	6.051200E+01	  0.039038073	3.323900E+01	  0.039038073	7.512000E+01
97	  0.039238475	-3.324000E+00	  0.039238475	5.842500E+01	  0.039238475	3.561500E+01	  0.039238475	7.737500E+01
98	  0.039438877	-3.384000E+00	  0.039438877	5.630700E+01	  0.039438877	3.826500E+01	  0.039438877	7.967200E+01
99	  0.039639279	-3.440000E+00	  0.039639279	5.420600E+01	  0.039639279	4.110100E+01	  0.039639279	8.199300E+01
100	  0.039839678	-3.497000E+00	  0.039839678	5.207900E+01	  0.039839678	4.423000E+01	  0.039839678	8.434900E+01
101	  0.040040080	-3.555000E+00	  0.040040080	4.999000E+01	  0.040040080	4.760300E+01	  0.040040080	8.663800E+01
102	  0.040240481	-3.612000E+00	  0.040240481	4.788300E+01	  0.040240481	5.130100E+01	  0.040240481	8.892500E+01
103	  0.040440880	-3.666000E+00	  0.040440880	4.577100E+01	  0.040440880	5.533100E+01	  0.040440880	9.118300E+01
104	  0.040641282	-3.723000E+00	  0.040641282	4.371700E+01	  0.040641282	5.963600E+01	  0.040641282	9.325000E+01
105	  0.040841684	-3.777000E+00	  0.040841684	4.164300E+01	  0.040841684	6.433000E+01	  0.040841684	9.526200E+01
106	  0.041042086	-3.833000E+00	  0.041042086	3.956500E+01	  0.041042086	6.946500E+01	  0.041042086	9.707200E+01
107	  0.041242484	-3.893000E+00	  0.041242484	3.749000E+01	  0.041242484	7.506200E+01	  0.041242484	9.857100E+01
108	  0.041442886	-3.948000E+00	  0.041442886	3.543600E+01	  0.041442886	8.100600E+01	  0.041442886	9.983600E+01
109	  0.041643288	-4.006000E+00	  0.041643288	3.334700E+01	  0.041643288	8.753000E+01	  0.041643288	1.007100E+02
110	  0.041843686	-4.059000E+00	  0.041843686	3.126900E+01	  0.041843686	9.446300E+01	  0.041843686	1.011950E+02
111	  0.042044088	-4.113000E+00	  0.042044088	2.923400E+01	  0.042044088	1.017050E+02	  0.042044088	1.010530E+02
112	  0.042244490	-4.169000E+00	  0.042244490	2.717300E+01	  0.042244490	1.094460E+02	  0.042244490	1.002430E+02
113	  0.042444889	-4.222000E+00	  0.042444889	2.513700E+01	  0.042444889	1.174410E+02	  0.042444889	9.867800E+01
114	  0.042645290	-4.277000E+00	  0.042645290	2.309800E+01	  0.042645290	1.257050E+02	  0.042645290	9.621000E+01
115	  0.042845692	-4.333000E+00	  0.042845692	2.106900E+01	  0.042845692	1.340420E+02	  0.042845692	9.268600E+01
116	  0.043046094	-4.385000E+00	  0.043046094	1.904500E+01	  0.043046094	1.423780E+02	  0.043046094	8.822000E+01
117	  0.043246493	-4.440000E+00	  0.043246493	1.701700E+01	  0.043246493	1.505020E+02	  0.043246493	8.251100E+01
118	  0.043446895	-4.492000E+00	  0.043446895	1.498200E+01	  0.043446895	1.582910E+02	  0.043446895	7.569900E+01
119	  0.043647297	-4.542000E+00	  0.043647297	1.298300E+01	  0.043647297	1.653300E+02	  0.043647297	6.788700E+01
120	  0.043847695	-4.594000E+00	  0.043847695	1.097600E+01	  0.043847695	1.715280E+02	  0.043847695	5.895600E+01
121	  0.044048097	-4.645000E+00	  0.044048097	8.990000E+00	  0.044048097	1.765930E+02	  0.044048097	4.921700E+01
122	  0.044248499	-4.694000E+00	  0.044248499	6.987000E+00	  0.044248499	1.805410E+02	  0.044248499	3.872300E+01
123	  0.044448901	-4.743000E+00	  0.044448901	5.030000E+00	  0.044448901	1.830190E+02	  0.044448901	2.797100E+01
124	  0.044649299	-4.790000E+00	  0.044649299	3.050000E+00	  0.044649299	1.842090E+02	  0.044649299	1.690400E+01
125	  0.044849701	-4.839000E+00	  0.044849701	1.097000E+00	  0.044849701	1.838860E+02	  0.044849701	6.006000E+00
126	  0.045050103	-4.883000E+00	  0.045050103	-8.550000E-01	  0.045050103	1.823940E+02	  0.045050103	-4.597000E+00
127	  0.045250501	-4.927000E+00	  0.045250501	-2.818000E+00	  0.045250501	1.796510E+02	  0.045250501	-1.476600E+01
128	  0.045450903	-4.967000E+00	  0.045450903	-4.737000E+00	  0.045450903	1.760220E+02	  0.045450903	-2.408900E+01
129	  0.045651305	-5.009000E+00	  0.045651305	-6.677000E+00	  0.045651305	1.713740E+02	  0.045651305	-3.270600E+01
130	  0.045851704	-5.047000E+00	  0.045851704	-8.562000E+00	  0.045851704	1.662170E+02	  0.045851704	-4.027700E+01
131	  0.046052102	-5.088000E+00	  0.046052102	-1.044800E+01	  0.046052102	1.604880E+02	  0.046052102	-4.695400E+01
132	  0.046252504	-5.127000E+00	  0.046252504	-1.234900E+01	  0.046252504	1.543700E+02	  0.046252504	-5.280200E+01
133	  0.046452906	-5.164000E+00	  0.046452906	-1.419300E+01	  0.046452906	1.482430E+02	  0.046452906	-5.767200E+01
134	  0.046653304	-5.201000E+00	  0.046653304	-1.604200E+01	  0.046653304	1.420060E+02	  0.046653304	-6.176800E+01
135	  0.046853706	-5.235000E+00	  0.046853706	-1.790400E+01	  0.046853706	1.357800E+02	  0.046853706	-6.523900E+01
136	  0.047054108	-5.270000E+00	  0.047054108	-1.974700E+01	  0.047054108	1.296590E+02	  0.047054108	-6.795400E+01
137	  0.047254506	-5.303000E+00	  0.047254506	-2.158800E+01	  0.047254506	1.237020E+02	  0.047254506	-7.010400E+01
138	  0.047454908	-5.333000E+00	  0.047454908	-2.341000E+01	  0.047454908	1.180050E+02	  0.047454908	-7.176000E+01
139	  0.047655310	-5.364000E+00	  0.047655310	-2.522100E+01	  0.047655310	1.125320E+02	  0.047655310	-7.291000E+01
140	  0.047855709	-5.396000E+00	  0.047855709	-2.701700E+01	  0.047855709	1.073260E+02	  0.047855709	-7.364500E+01
141	  0.048056111	-5.427000E+00	  0.048056111	-2.880600E+01	  0.048056111	1.023820E+02	  0.048056111	-7.404600E+01
142	  0.048256513	-5.460000E+00	  0.048256513	-3.059100E+01	  0.048256513	9.768900E+01	  0.048256513	-7.410500E+01
143	  0.048456915	-5.488000E+00	  0.048456915	-3.235600E+01	  0.048456915	9.329500E+01	  0.048456915	-7.399200E+01
144	  0.048657313	-5.517000E+00	  0.048657313	-3.413800E+01	  0.048657313	8.909600E+01	  0.048657313	-7.366200E+01
145	  0.048857715	-5.544000E+00	  0.048857715	-3.590700E+01	  0.048857715	8.515400E+01	  0.048857715	-7.317000E+01
146	  0.049058117	-5.572000E+00	  0.049058117	-3.769200E+01	  0.049058117	8.140400E+01	  0.049058117	-7.249700E+01
147	  0.049258515	-5.595000E+00	  0.049258515	-3.944000E+01	  0.049258515	7.793400E+01	  0.049258515	-7.177800E+01
148	  0.049458917	-5.621000E+00	  0.049458917	-4.120200E+01	  0.049458917	7.463900E+01	  0.049458917	-7.090700E+01
149	  0.049659319	-5.651000E+00	  0.049659319	-4.294800E+01	  0.049659319	7.157300E+01	  0.049659319	-6.991700E+01
150	  0.049859721	-5.673000E+00	  0.049859721	-4.466700E+01	  0.049859721	6.871400E+01	  0.049859721	-6.894400E+01
151	  0.050060119	-5.695000E+00	  0.050060119	-4.638400E+01	  0.050060119	6.601900E+01	  0.050060119	-6.791300E+01
152	  0.050260521	-5.719000E+00	  0.050260521	-4.810500E+01	  0.050260521	6.347400E+01	  0.050260521	-6.682400E+01
153	  0.050460923	-5.740000E+00	  0.050460923	-4.981300E+01	  0.050460923	6.108900E+01	  0.050460923	-6.572100E+01
154	  0.050661322	-5.756000E+00	  0.050661322	-5.151800E+01	  0.050661322	5.882000E+01	  0.050661322	-6.464300E+01
155	  0.050861724	-5.770000E+00	  0.050861724	-5.321600E+01	  0.050861724	5.668000E+01	  0.050861724	-6.355100E+01
156	  0.051062126	-5.791000E+00	  0.051062126	-5.488800E+01	  0.051062126	5.471400E+01	  0.051062126	-6.239900E+01
157	  0.051262524	-5.809000E+00	  0.051262524	-5.655300E+01	  0.051262524	5.285200E+01	  0.051262524	-6.126400E+01
158	  0.051462926	-5.824000E+00	  0.051462926	-5.817800E+01	  0.051462926	5.112200E+01	  0.051462926	-6.016700E+01
159	  0.051663328	-5.841000E+00	  0.051663328	-5.983300E+01	  0.051663328	4.946000E+01	  0.051663328	-5.903100E+01
160	  0.051863730	-5.857000E+00	  0.051863730	-6.147200E+01	  0.051863730	4.789500E+01	  0.051863730	-5.791400E+01
161	  0.052064128	-5.864000E+00	  0.052064128	-6.307600E+01	  0.052064128	4.641200E+01	  0.052064128	-5.686600E+01
162	  0.052264530	-5.876000E+00	  0.052264530	-6.466700E+01	  0.052264530	4.502800E+01	  0.052264530	-5.580400E+01
163	  0.052464932	-5.885000E+00	  0.052464932	-6.626600E+01	  0.052464932	4.369700E+01	  0.052464932	-5.475300E+01
164	  0.052665330	-5.895000E+00	  0.052665330	-6.783000E+01	  0.052665330	4.246400E+01	  0.052665330	-5.371800E+01
165	  0.052865732	-5.908000E+00	  0.052865732	-6.938800E+01	  0.052865732	4.130600E+01	  0.052865732	-5.267800E+01
166	  0.053066134	-5.922000E+00	  0.053066134	-7.090900E+01	  0.053066134	4.023400E+01	  0.053066134	-5.166400E+01
167	  0.053266536	-5.933000E+00	  0.053266536	-7.245700E+01	  0.053266536	3.918300E+01	  0.053266536	-5.065500E+01
168	  0.053466935	-5.948000E+00	  0.053466935	-7.398300E+01	  0.053466935	3.820700E+01	  0.053466935	-4.965400E+01
169	  0.053667337	-5.958000E+00	  0.053667337	-7.548200E+01	  0.053667337	3.727600E+01	  0.053667337	-4.869600E+01
170	  0.053867739	-5.966000E+00	  0.053867739	-7.697400E+01	  0.053867739	3.638400E+01	  0.053867739	-4.775900E+01
171	  0.054068137	-5.977000E+00	  0.054068137	-7.848800E+01	  0.054068137	3.552900E+01	  0.054068137	-4.680700E+01
172	  0.054268539	-5.989000E+00	  0.054268539	-7.995800E+01	  0.054268539	3.474200E+01	  0.054268539	-4.588500E+01
173	  0.054468941	-6.004000E+00	  0.054468941	-8.143100E+01	  0.054468941	3.399600E+01	  0.054468941	-4.496300E+01
174	  0.054669335	-6.016000E+00	  0.054669335	-8.288100E+01	  0.054669335	3.328600E+01	  0.054669335	-4.407200E+01
175	  0.054869737	-6.031000E+00	  0.054869737	-8.434300E+01	  0.054869737	3.261100E+01	  0.054869737	-4.317500E+01
176	  0.055070139	-6.046000E+00	  0.055070139	-8.579400E+01	  0.055070139	3.196700E+01	  0.055070139	-4.229700E+01
177	  0.055270538	-6.057000E+00	  0.055270538	-8.723500E+01	  0.055270538	3.134100E+01	  0.055270538	-4.144700E+01
178	  0.055470940	-6.071000E+00	  0.055470940	-8.864000E+01	  0.055470940	3.077000E+01	  0.055470940	-4.061400E+01
179	  0.055671342	-6.080000E+00	  0.055671342	-9.013800E+01	  0.055671342	3.016100E+01	  0.055671342	-3.975700E+01
180	  0.055871744	-6.088000E+00	  0.055871744	-9.154300E+01	  0.055871744	2.961300E+01	  0.055871744	-3.896200E+01
181	  0.056072142	-6.096000E+00	  0.056072142	-9.296500E+01	  0.056072142	2.908200E+01	  0.056072142	-3.816400E+01
182	  0.056272544	-6.108000E+00	  0.056272544	-9.435000E+01	  0.056272544	2.859500E+01	  0.056272544	-3.738700E+01
183	  0.056472946	-6.115000E+00	  0.056472946	-9.576300E+01	  0.056472946	2.810500E+01	  0.056472946	-3.661300E+01
184	  0.056673344	-6.122000E+00	  0.056673344	-9.713000E+01	  0.056673344	2.764700E+01	  0.056673344	-3.587200E+01
185	  0.056873746	-6.130000E+00	  0.056873746	-9.847800E+01	  0.056873746	2.721500E+01	  0.056873746	-3.514700E+01
186	  0.057074148	-6.132000E+00	  0.057074148	-9.985600E+01	  0.057074148	2.677100E+01	  0.057074148	-3.442500E+01
187	  0.057274550	-6.137000E+00	  0.057274550	-1.012120E+02	  0.057274550	2.635900E+01	  0.057274550	-3.371600E+01
188	  0.057474948	-6.133000E+00	  0.057474948	-1.025940E+02	  0.057474948	2.592600E+01	  0.057474948	-3.301700E+01
189	  0.057675350	-6.132000E+00	  0.057675350	-1.039400E+02	  0.057675350	2.552800E+01	  0.057675350	-3.233600E+01
190	  0.057875752	-6.130000E+00	  0.057875752	-1.052760E+02	  0.057875752	2.514300E+01	  0.057875752	-3.166700E+01
191	  0.058076151	-6.129000E+00	  0.058076151	-1.066010E+02	  0.058076151	2.477800E+01	  0.058076151	-3.100800E+01
192	  0.058276553	-6.123000E+00	  0.058276553	-1.078940E+02	  0.058276553	2.441700E+01	  0.058276553	-3.037800E+01
193	  0.058476955	-6.118000E+00	  0.058476955	-1.091850E+02	  0.058476955	2.407100E+01	  0.058476955	-2.975300E+01
194	  0.058677353	-6.109000E+00	  0.058677353	-1.104920E+02	  0.058677353	2.372200E+01	  0.058677353	-2.913000E+01
195	  0.058877755	-6.104000E+00	  0.058877755	-1.117760E+02	  0.058877755	2.340200E+01	  0.058877755	-2.851500E+01
196	  0.059078157	-6.093000E+00	  0.059078157	-1.130520E+02	  0.059078157	2.307400E+01	  0.059078157	-2.791900E+01
197	  0.059278559	-6.082000E+00	  0.059278559	-1.143000E+02	  0.059278559	2.276500E+01	  0.059278559	-2.733700E+01
198	  0.059478957	-6.077000E+00	  0.059478957	-1.155700E+02	  0.059478957	2.247600E+01	  0.059478957	-2.674300E+01
199	  0.059679359	-6.072000E+00	  0.059679359	-1.168030E+02	  0.059679359	2.220800E+01	  0.059679359	-2.616800E+01
200	  0.059879761	-6.064000E+00	  0.059879761	-1.180570E+02	  0.059879761	2.193300E+01	  0.059879761	-2.559100E+01
201	  0.060080159	-6.060000E+00	  0.060080159	-1.192740E+02	  0.060080159	2.168700E+01	  0.060080159	-2.503000E+01
202	  0.060280561	-6.055000E+00	  0.060280561	-1.204830E+02	  0.060280561	2.144600E+01	  0.060280561	-2.447700E+01
203	  0.060480963	-6.050000E+00	  0.060480963	-1.217030E+02	  0.060480963	2.121100E+01	  0.060480963	-2.392300E+01
204	  0.060681365	-6.045000E+00	  0.060681365	-1.229180E+02	  0.060681365	2.098200E+01	  0.060681365	-2.337500E+01
205	  0.060881764	-6.039000E+00	  0.060881764	-1.241300E+02	  0.060881764	2.076100E+01	  0.060881764	-2.283200E+01
206	  0.061082166	-6.038000E+00	  0.061082166	-1.253280E+02	  0.061082166	2.056300E+01	  0.061082166	-2.229300E+01
207	  0.061282568	-6.034000E+00	  0.061282568	-1.265580E+02	  0.061282568	2.036000E+01	  0.061282568	-2.174600E+01
208	  0.061482966	-6.033000E+00	  0.061482966	-1.277480E+02	  0.061482966	2.017500E+01	  0.061482966	-2.121700E+01
209	  0.061683368	-6.033000E+00	  0.061683368	-1.289420E+02	  0.061683368	2.000000E+01	  0.061683368	-2.068900E+01
210	  0.061883770	-6.032000E+00	  0.061883770	-1.301340E+02	  0.061883770	1.982600E+01	  0.061883770	-2.016600E+01
211	  0.062084168	-6.033000E+00	  0.062084168	-1.313290E+02	  0.062084168	1.966500E+01	  0.062084168	-1.964200E+01
212	  0.062284570	-6.032000E+00	  0.062284570	-1.325370E+02	  0.062284570	1.950300E+01	  0.062284570	-1.911700E+01
213	  0.062484972	-6.031000E+00	  0.062484972	-1.336880E+02	  0.062484972	1.935300E+01	  0.062484972	-1.862000E+01
214	  0.062685370	-6.027000E+00	  0.062685370	-1.348900E+02	  0.062685370	1.919300E+01	  0.062685370	-1.810600E+01
215	  0.062885776	-6.026000E+00	  0.062885776	-1.360820E+02	  0.062885776	1.904700E+01	  0.062885776	-1.759700E+01
216	  0.063086174	-6.028000E+00	  0.063086174	-1.372740E+02	  0.063086174	1.891800E+01	  0.063086174	-1.708700E+01
217	  0.063286573	-6.026000E+00	  0.063286573	-1.384630E+02	  0.063286573	1.877900E+01	  0.063286573	-1.658500E+01
218	  0.063486971	-6.029000E+00	  0.063486971	-1.396290E+02	  0.063486971	1.866300E+01	  0.063486971	-1.609100E+01
219	  0.063687377	-6.023000E+00	  0.063687377	-1.407810E+02	  0.063687377	1.852800E+01	  0.063687377	-1.561100E+01
220	  0.063887775	-6.020000E+00	  0.063887775	-1.419480E+02	  0.063887775	1.840400E+01	  0.063887775	-1.512600E+01
221	  0.064088173	-6.017000E+00	  0.064088173	-1.431240E+02	  0.064088173	1.828300E+01	  0.064088173	-1.463800E+01
222	  0.064288579	-6.018000E+00	  0.064288579	-1.442910E+02	  0.064288579	1.818100E+01	  0.064288579	-1.415300E+01
223	  0.064488977	-6.017000E+00	  0.064488977	-1.454670E+02	  0.064488977	1.807400E+01	  0.064488977	-1.366900E+01
224	  0.064689375	-6.015000E+00	  0.064689375	-1.465690E+02	  0.064689375	1.797500E+01	  0.064689375	-1.321700E+01
225	  0.064889781	-6.015000E+00	  0.064889781	-1.477390E+02	  0.064889781	1.788000E+01	  0.064889781	-1.273700E+01
226	  0.065090179	-6.012000E+00	  0.065090179	-1.488450E+02	  0.065090179	1.778600E+01	  0.065090179	-1.228700E+01
227	  0.065290578	-6.011000E+00	  0.065290578	-1.499580E+02	  0.065290578	1.770100E+01	  0.065290578	-1.183500E+01
228	  0.065490983	-6.011000E+00	  0.065490983	-1.510750E+02	  0.065490983	1.761900E+01	  0.065490983	-1.138300E+01
229	  0.065691382	-6.009000E+00	  0.065691382	-1.521540E+02	  0.065691382	1.754100E+01	  0.065691382	-1.094700E+01
230	  0.065891780	-6.011000E+00	  0.065891780	-1.532800E+02	  0.065891780	1.747400E+01	  0.065891780	-1.049200E+01
231	  0.066092186	-6.006000E+00	  0.066092186	-1.543690E+02	  0.066092186	1.739100E+01	  0.066092186	-1.005700E+01
232	  0.066292584	-6.007000E+00	  0.066292584	-1.554460E+02	  0.066292584	1.732900E+01	  0.066292584	-9.626000E+00
233	  0.066492982	-6.008000E+00	  0.066492982	-1.565250E+02	  0.066492982	1.727100E+01	  0.066492982	-9.194000E+00
234	  0.066693388	-6.009000E+00	  0.066693388	-1.575780E+02	  0.066693388	1.721800E+01	  0.066693388	-8.774000E+00
235	  0.066893786	-6.010000E+00	  0.066893786	-1.586360E+02	  0.066893786	1.716400E+01	  0.066893786	-8.353000E+00
236	  0.067094192	-6.012000E+00	  0.067094192	-1.596930E+02	  0.067094192	1.711700E+01	  0.067094192	-7.933000E+00
237	  0.067294590	-6.016000E+00	  0.067294590	-1.607500E+02	  0.067294590	1.707900E+01	  0.067294590	-7.514000E+00
238	  0.067494988	-6.021000E+00	  0.067494988	-1.617980E+02	  0.067494988	1.704700E+01	  0.067494988	-7.099000E+00
239	  0.067695394	-6.018000E+00	  0.067695394	-1.628320E+02	  0.067695394	1.699700E+01	  0.067695394	-6.692000E+00
240	  0.067895792	-6.024000E+00	  0.067895792	-1.638780E+02	  0.067895792	1.697400E+01	  0.067895792	-6.279000E+00
241	  0.068096191	-6.028000E+00	  0.068096191	-1.649410E+02	  0.068096191	1.694400E+01	  0.068096191	-5.861000E+00
242	  0.068296596	-6.030000E+00	  0.068296596	-1.659630E+02	  0.068296596	1.691600E+01	  0.068296596	-5.460000E+00
243	  0.068496995	-6.036000E+00	  0.068496995	-1.670120E+02	  0.068496995	1.689900E+01	  0.068496995	-5.048000E+00
244	  0.068697393	-6.040000E+00	  0.068697393	-1.680460E+02	  0.068697393	1.687900E+01	  0.068697393	-4.643000E+00
245	  0.068897791	-6.040000E+00	  0.068897791	-1.690630E+02	  0.068897791	1.685200E+01	  0.068897791	-4.247000E+00
246	  0.069098189	-6.041000E+00	  0.069098189	-1.700860E+02	  0.069098189	1.683100E+01	  0.069098189	-3.848000E+00
247	  0.069298595	-6.046000E+00	  0.069298595	-1.711090E+02	  0.069298595	1.682200E+01	  0.069298595	-3.449000E+00
248	  0.069498993	-6.046000E+00	  0.069498993	-1.721390E+02	  0.069498993	1.680400E+01	  0.069498993	-3.048000E+00
249	  0.069699399	-6.049000E+00	  0.069699399	-1.731730E+02	  0.069699399	1.679300E+01	  0.069699399	-2.646000E+00
250	  0.069899797	-6.053000E+00	  0.069899797	-1.741870E+02	  0.069899797	1.678900E+01	  0.069899797	-2.253000E+00
251	  0.070100196	-6.057000E+00	  0.070100196	-1.751700E+02	  0.070100196	1.678700E+01	  0.070100196	-1.871000E+00
252	  0.070300601	-6.060000E+00	  0.070300601	-1.761780E+02	  0.070300601	1.678400E+01	  0.070300601	-1.480000E+00
253	  0.070501000	-6.057000E+00	  0.070501000	-1.771520E+02	  0.070501000	1.676900E+01	  0.070501000	-1.103000E+00
254	  0.070701398	-6.061000E+00	  0.070701398	-1.781440E+02	  0.070701398	1.677500E+01	  0.070701398	-7.180000E-01
255	  0.070901804	-6.063000E+00	  0.070901804	-1.791300E+02	  0.070901804	1.677600E+01	  0.070901804	-3.360000E-01
256	  0.071102202	-6.061000E+00	  0.071102202	1.798760E+02	  0.071102202	1.677200E+01	  0.071102202	4.700000E-02
257	  0.071302600	-6.064000E+00	  0.071302600	1.789130E+02	  0.071302600	1.678000E+01	  0.071302600	4.200000E-01
258	  0.071503006	-6.069000E+00	  0.071503006	1.779410E+02	  0.071503006	1.679600E+01	  0.071503006	7.970000E-01
259	  0.071703404	-6.072000E+00	  0.071703404	1.769970E+02	  0.071703404	1.680800E+01	  0.071703404	1.162000E+00
260	  0.071903802	-6.077000E+00	  0.071903802	1.760580E+02	  0.071903802	1.683000E+01	  0.071903802	1.525000E+00
261	  0.072104208	-6.077000E+00	  0.072104208	1.751070E+02	  0.072104208	1.683800E+01	  0.072104208	1.894000E+00
262	  0.072304606	-6.085000E+00	  0.072304606	1.741940E+02	  0.072304606	1.687100E+01	  0.072304606	2.247000E+00
263	  0.072505005	-6.087000E+00	  0.072505005	1.732510E+02	  0.072505005	1.689000E+01	  0.072505005	2.612000E+00
264	  0.072705410	-6.096000E+00	  0.072705410	1.723400E+02	  0.072705410	1.692600E+01	  0.072705410	2.965000E+00
265	  0.072905809	-6.103000E+00	  0.072905809	1.714030E+02	  0.072905809	1.696300E+01	  0.072905809	3.327000E+00
266	  0.073106214	-6.111000E+00	  0.073106214	1.704700E+02	  0.073106214	1.700300E+01	  0.073106214	3.688000E+00
267	  0.073306613	-6.119000E+00	  0.073306613	1.695630E+02	  0.073306613	1.704400E+01	  0.073306613	4.039000E+00
268	  0.073507011	-6.130000E+00	  0.073507011	1.686550E+02	  0.073507011	1.709400E+01	  0.073507011	4.390000E+00
269	  0.073707417	-6.134000E+00	  0.073707417	1.677270E+02	  0.073707417	1.713100E+01	  0.073707417	4.750000E+00
270	  0.073907815	-6.149000E+00	  0.073907815	1.668240E+02	  0.073907815	1.719500E+01	  0.073907815	5.099000E+00
271	  0.074108213	-6.159000E+00	  0.074108213	1.659300E+02	  0.074108213	1.724900E+01	  0.074108213	5.445000E+00
272	  0.074308619	-6.167000E+00	  0.074308619	1.650220E+02	  0.074308619	1.730100E+01	  0.074308619	5.797000E+00
273	  0.074509017	-6.177000E+00	  0.074509017	1.640720E+02	  0.074509017	1.736000E+01	  0.074509017	6.165000E+00
274	  0.074709415	-6.188000E+00	  0.074709415	1.631880E+02	  0.074709415	1.742200E+01	  0.074709415	6.508000E+00
275	  0.074909821	-6.197000E+00	  0.074909821	1.622500E+02	  0.074909821	1.748500E+01	  0.074909821	6.872000E+00
276	  0.075110219	-6.206000E+00	  0.075110219	1.613240E+02	  0.075110219	1.754800E+01	  0.075110219	7.232000E+00
277	  0.075310618	-6.217000E+00	  0.075310618	1.603950E+02	  0.075310618	1.761900E+01	  0.075310618	7.593000E+00
278	  0.075511023	-6.224000E+00	  0.075511023	1.595240E+02	  0.075511023	1.767700E+01	  0.075511023	7.933000E+00
279	  0.075711422	-6.235000E+00	  0.075711422	1.586270E+02	  0.075711422	1.775100E+01	  0.075711422	8.281000E+00
280	  0.075911827	-6.242000E+00	  0.075911827	1.577160E+02	  0.075911827	1.781800E+01	  0.075911827	8.638000E+00
281	  0.076112226	-6.252000E+00	  0.076112226	1.568050E+02	  0.076112226	1.789300E+01	  0.076112226	8.993000E+00
282	  0.076312624	-6.255000E+00	  0.076312624	1.558750E+02	  0.076312624	1.795600E+01	  0.076312624	9.359000E+00
283	  0.076513030	-6.265000E+00	  0.076513030	1.549650E+02	  0.076513030	1.803600E+01	  0.076513030	9.715000E+00
284	  0.076713428	-6.270000E+00	  0.076713428	1.540940E+02	  0.076713428	1.810400E+01	  0.076713428	1.005800E+01
285	  0.076913826	-6.279000E+00	  0.076913826	1.531870E+02	  0.076913826	1.818500E+01	  0.076913826	1.041500E+01
286	  0.077114232	-6.286000E+00	  0.077114232	1.523040E+02	  0.077114232	1.826400E+01	  0.077114232	1.076300E+01
287	  0.077314630	-6.294000E+00	  0.077314630	1.514370E+02	  0.077314630	1.834600E+01	  0.077314630	1.110500E+01
288	  0.077515028	-6.300000E+00	  0.077515028	1.505990E+02	  0.077515028	1.842100E+01	  0.077515028	1.143700E+01
289	  0.077715434	-6.304000E+00	  0.077715434	1.497180E+02	  0.077715434	1.849800E+01	  0.077715434	1.178800E+01
290	  0.077915832	-6.311000E+00	  0.077915832	1.488660E+02	  0.077915832	1.858300E+01	  0.077915832	1.212600E+01
291	  0.078116231	-6.319000E+00	  0.078116231	1.480500E+02	  0.078116231	1.867000E+01	  0.078116231	1.245000E+01
292	  0.078316636	-6.327000E+00	  0.078316636	1.471810E+02	  0.078316636	1.876100E+01	  0.078316636	1.279600E+01
293	  0.078517035	-6.336000E+00	  0.078517035	1.463510E+02	  0.078517035	1.885700E+01	  0.078517035	1.312600E+01
294	  0.078717433	-6.341000E+00	  0.078717433	1.455330E+02	  0.078717433	1.894200E+01	  0.078717433	1.345400E+01
295	  0.078917839	-6.353000E+00	  0.078917839	1.447330E+02	  0.078917839	1.904500E+01	  0.078917839	1.377200E+01
296	  0.079118237	-6.361000E+00	  0.079118237	1.439400E+02	  0.079118237	1.914000E+01	  0.079118237	1.409000E+01
297	  0.079318643	-6.374000E+00	  0.079318643	1.431310E+02	  0.079318643	1.925300E+01	  0.079318643	1.441100E+01
298	  0.079519041	-6.386000E+00	  0.079519041	1.423760E+02	  0.079519041	1.935900E+01	  0.079519041	1.471200E+01
299	  0.079719439	-6.400000E+00	  0.079719439	1.415620E+02	  0.079719439	1.948000E+01	  0.079719439	1.503500E+01
300	  0.079919845	-6.413000E+00	  0.079919845	1.407470E+02	  0.079919845	1.959800E+01	  0.079919845	1.536100E+01
301	  0.080120243	-6.431000E+00	  0.080120243	1.399560E+02	  0.080120243	1.973200E+01	  0.080120243	1.567300E+01
302	  0.080320641	-6.442000E+00	  0.080320641	1.391590E+02	  0.080320641	1.985000E+01	  0.080320641	1.599200E+01
303	  0.080521047	-6.462000E+00	  0.080521047	1.383470E+02	  0.080521047	1.999500E+01	  0.080521047	1.631300E+01
304	  0.080721445	-6.480000E+00	  0.080721445	1.375870E+02	  0.080721445	2.013000E+01	  0.080721445	1.661400E+01
305	  0.080921844	-6.498000E+00	  0.080921844	1.367840E+02	  0.080921844	2.027500E+01	  0.080921844	1.693200E+01
306	  0.081122249	-6.512000E+00	  0.081122249	1.359900E+02	  0.081122249	2.041100E+01	  0.081122249	1.725000E+01
307	  0.081322648	-6.533000E+00	  0.081322648	1.352180E+02	  0.081322648	2.056500E+01	  0.081322648	1.755400E+01
308	  0.081523046	-6.554000E+00	  0.081523046	1.343930E+02	  0.081523046	2.072700E+01	  0.081523046	1.788100E+01
309	  0.081723452	-6.570000E+00	  0.081723452	1.335890E+02	  0.081723452	2.087700E+01	  0.081723452	1.820200E+01
310	  0.081923850	-6.590000E+00	  0.081923850	1.327630E+02	  0.081923850	2.104400E+01	  0.081923850	1.853000E+01
311	  0.082124248	-6.603000E+00	  0.082124248	1.319780E+02	  0.082124248	2.118700E+01	  0.082124248	1.884800E+01
312	  0.082324654	-6.623000E+00	  0.082324654	1.311780E+02	  0.082324654	2.135500E+01	  0.082324654	1.916600E+01
313	  0.082525052	-6.641000E+00	  0.082525052	1.303860E+02	  0.082525052	2.151800E+01	  0.082525052	1.948300E+01
314	  0.082725458	-6.662000E+00	  0.082725458	1.295890E+02	  0.082725458	2.169600E+01	  0.082725458	1.979800E+01
315	  0.082925856	-6.677000E+00	  0.082925856	1.288180E+02	  0.082925856	2.185600E+01	  0.082925856	2.010900E+01
316	  0.083126254	-6.697000E+00	  0.083126254	1.279880E+02	  0.083126254	2.203900E+01	  0.083126254	2.044100E+01
317	  0.083326660	-6.713000E+00	  0.083326660	1.271840E+02	  0.083326660	2.221300E+01	  0.083326660	2.076500E+01
318	  0.083527058	-6.731000E+00	  0.083527058	1.263880E+02	  0.083527058	2.239400E+01	  0.083527058	2.108500E+01
319	  0.083727457	-6.747000E+00	  0.083727457	1.256000E+02	  0.083727457	2.257000E+01	  0.083727457	2.140400E+01
320	  0.083927862	-6.767000E+00	  0.083927862	1.248290E+02	  0.083927862	2.275600E+01	  0.083927862	2.171200E+01
321	  0.084128261	-6.782000E+00	  0.084128261	1.240850E+02	  0.084128261	2.293000E+01	  0.084128261	2.201300E+01
322	  0.084328659	-6.802000E+00	  0.084328659	1.232780E+02	  0.084328659	2.312900E+01	  0.084328659	2.233700E+01
323	  0.084529065	-6.817000E+00	  0.084529065	1.225410E+02	  0.084529065	2.330700E+01	  0.084529065	2.263600E+01
324	  0.084729463	-6.835000E+00	  0.084729463	1.218000E+02	  0.084729463	2.349700E+01	  0.084729463	2.293300E+01
325	  0.084929854	-6.852000E+00	  0.084929854	1.210140E+02	  0.084929854	2.369500E+01	  0.084929854	2.325100E+01
326	  0.085130259	-6.869000E+00	  0.085130259	1.202780E+02	  0.085130259	2.388500E+01	  0.085130259	2.354900E+01
327	  0.085330658	-6.887000E+00	  0.085330658	1.195110E+02	  0.085330658	2.409000E+01	  0.085330658	2.385800E+01
328	  0.085531056	-6.907000E+00	  0.085531056	1.187940E+02	  0.085531056	2.429300E+01	  0.085531056	2.414200E+01
329	  0.085731462	-6.923000E+00	  0.085731462	1.180530E+02	  0.085731462	2.449300E+01	  0.085731462	2.444300E+01
330	  0.085931860	-6.946000E+00	  0.085931860	1.173590E+02	  0.085931860	2.470500E+01	  0.085931860	2.471400E+01
331	  0.086132258	-6.966000E+00	  0.086132258	1.166800E+02	  0.086132258	2.490900E+01	  0.086132258	2.498200E+01
332	  0.086332664	-6.989000E+00	  0.086332664	1.159750E+02	  0.086332664	2.513000E+01	  0.086332664	2.525700E+01
333	  0.086533062	-7.011000E+00	  0.086533062	1.152830E+02	  0.086533062	2.534800E+01	  0.086533062	2.552700E+01
334	  0.086733460	-7.036000E+00	  0.086733460	1.145590E+02	  0.086733460	2.558300E+01	  0.086733460	2.580800E+01
335	  0.086933866	-7.057000E+00	  0.086933866	1.138460E+02	  0.086933866	2.581200E+01	  0.086933866	2.608800E+01
336	  0.087134264	-7.082000E+00	  0.087134264	1.131640E+02	  0.087134264	2.604600E+01	  0.087134264	2.634800E+01
337	  0.087334670	-7.109000E+00	  0.087334670	1.124520E+02	  0.087334670	2.629500E+01	  0.087334670	2.661800E+01
338	  0.087535068	-7.137000E+00	  0.087535068	1.117600E+02	  0.087535068	2.654600E+01	  0.087535068	2.687700E+01
339	  0.087735467	-7.164000E+00	  0.087735467	1.110490E+02	  0.087735467	2.680600E+01	  0.087735467	2.714300E+01
340	  0.087935872	-7.195000E+00	  0.087935872	1.103820E+02	  0.087935872	2.706600E+01	  0.087935872	2.738400E+01
341	  0.088136271	-7.220000E+00	  0.088136271	1.096590E+02	  0.088136271	2.732700E+01	  0.088136271	2.766000E+01
342	  0.088336669	-7.248000E+00	  0.088336669	1.089740E+02	  0.088336669	2.759200E+01	  0.088336669	2.791100E+01
343	  0.088537075	-7.280000E+00	  0.088537075	1.082640E+02	  0.088537075	2.787700E+01	  0.088537075	2.816500E+01
344	  0.088737473	-7.300000E+00	  0.088737473	1.075670E+02	  0.088737473	2.812700E+01	  0.088737473	2.843600E+01
345	  0.088937871	-7.330000E+00	  0.088937871	1.068540E+02	  0.088937871	2.841300E+01	  0.088937871	2.869400E+01
346	  0.089138277	-7.359000E+00	  0.089138277	1.061650E+02	  0.089138277	2.869500E+01	  0.089138277	2.894100E+01
347	  0.089338675	-7.387000E+00	  0.089338675	1.054800E+02	  0.089338675	2.897900E+01	  0.089338675	2.918500E+01
348	  0.089539073	-7.419000E+00	  0.089539073	1.048160E+02	  0.089539073	2.926700E+01	  0.089539073	2.941500E+01
349	  0.089739479	-7.444000E+00	  0.089739479	1.041160E+02	  0.089739479	2.955400E+01	  0.089739479	2.967000E+01
350	  0.089939877	-7.470000E+00	  0.089939877	1.034210E+02	  0.089939877	2.984300E+01	  0.089939877	2.992100E+01
351	  0.090140276	-7.501000E+00	  0.090140276	1.027520E+02	  0.090140276	3.014200E+01	  0.090140276	3.015000E+01
352	  0.090340681	-7.528000E+00	  0.090340681	1.021060E+02	  0.090340681	3.042600E+01	  0.090340681	3.037500E+01
353	  0.090541080	-7.557000E+00	  0.090541080	1.014450E+02	  0.090541080	3.072400E+01	  0.090541080	3.060000E+01
354	  0.090741485	-7.578000E+00	  0.090741485	1.007980E+02	  0.090741485	3.099800E+01	  0.090741485	3.083700E+01
355	  0.090941884	-7.611000E+00	  0.090941884	1.001720E+02	  0.090941884	3.130400E+01	  0.090941884	3.103500E+01
356	  0.091142282	-7.636000E+00	  0.091142282	9.956200E+01	  0.091142282	3.158500E+01	  0.091142282	3.124100E+01
357	  0.091342688	-7.666000E+00	  0.091342688	9.895100E+01	  0.091342688	3.188200E+01	  0.091342688	3.143700E+01
358	  0.091543086	-7.690000E+00	  0.091543086	9.832000E+01	  0.091543086	3.217200E+01	  0.091543086	3.165400E+01
359	  0.091743484	-7.720000E+00	  0.091743484	9.772800E+01	  0.091743484	3.247000E+01	  0.091743484	3.183600E+01
360	  0.091943890	-7.748000E+00	  0.091943890	9.715200E+01	  0.091943890	3.275700E+01	  0.091943890	3.201800E+01
361	  0.092144288	-7.772000E+00	  0.092144288	9.655500E+01	  0.092144288	3.304600E+01	  0.092144288	3.221300E+01
362	  0.092344686	-7.802000E+00	  0.092344686	9.599200E+01	  0.092344686	3.334000E+01	  0.092344686	3.238000E+01
363	  0.092545092	-7.828000E+00	  0.092545092	9.542400E+01	  0.092545092	3.362900E+01	  0.092545092	3.255600E+01
364	  0.092745490	-7.860000E+00	  0.092745490	9.487700E+01	  0.092745490	3.393000E+01	  0.092745490	3.270500E+01
365	  0.092945889	-7.892000E+00	  0.092945889	9.436000E+01	  0.092945889	3.421800E+01	  0.092945889	3.284200E+01
366	  0.093146294	-7.926000E+00	  0.093146294	9.383000E+01	  0.093146294	3.452400E+01	  0.093146294	3.297400E+01
367	  0.093346693	-7.953000E+00	  0.093346693	9.327900E+01	  0.093346693	3.481900E+01	  0.093346693	3.313200E+01
368	  0.093547091	-7.984000E+00	  0.093547091	9.277500E+01	  0.093547091	3.510600E+01	  0.093547091	3.326000E+01
369	  0.093747497	-8.017000E+00	  0.093747497	9.225500E+01	  0.093747497	3.541100E+01	  0.093747497	3.338400E+01
370	  0.093947895	-8.047000E+00	  0.093947895	9.174800E+01	  0.093947895	3.570200E+01	  0.093947895	3.351100E+01
371	  0.094148301	-8.083000E+00	  0.094148301	9.123400E+01	  0.094148301	3.601500E+01	  0.094148301	3.362200E+01
372	  0.094348699	-8.117000E+00	  0.094348699	9.074600E+01	  0.094348699	3.631400E+01	  0.094348699	3.372400E+01
373	  0.094549097	-8.151000E+00	  0.094549097	9.022800E+01	  0.094549097	3.662600E+01	  0.094549097	3.383700E+01
374	  0.094749503	-8.184000E+00	  0.094749503	8.973600E+01	  0.094749503	3.692900E+01	  0.094749503	3.393800E+01
375	  0.094949901	-8.215000E+00	  0.094949901	8.924600E+01	  0.094949901	3.722500E+01	  0.094949901	3.404400E+01
376	  0.095150299	-8.248000E+00	  0.095150299	8.875400E+01	  0.095150299	3.753000E+01	  0.095150299	3.414100E+01
377	  0.095350705	-8.279000E+00	  0.095350705	8.826700E+01	  0.095350705	3.782900E+01	  0.095350705	3.424200E+01
378	  0.095551103	-8.310000E+00	  0.095551103	8.773400E+01	  0.095551103	3.815000E+01	  0.095551103	3.435700E+01
379	  0.095751502	-8.339000E+00	  0.095751502	8.722300E+01	  0.095751502	3.846000E+01	  0.095751502	3.446700E+01
380	  0.095951907	-8.369000E+00	  0.095951907	8.675400E+01	  0.095951907	3.875500E+01	  0.095951907	3.455300E+01
381	  0.096152306	-8.399000E+00	  0.096152306	8.626700E+01	  0.096152306	3.905800E+01	  0.096152306	3.464700E+01
382	  0.096352704	-8.428000E+00	  0.096352704	8.577700E+01	  0.096352704	3.936300E+01	  0.096352704	3.474100E+01
383	  0.096553110	-8.452000E+00	  0.096553110	8.531200E+01	  0.096553110	3.964600E+01	  0.096553110	3.483900E+01
384	  0.096753508	-8.478000E+00	  0.096753508	8.483400E+01	  0.096753508	3.994200E+01	  0.096753508	3.493300E+01
385	  0.096953906	-8.504000E+00	  0.096953906	8.437900E+01	  0.096953906	4.022800E+01	  0.096953906	3.501800E+01
386	  0.097154312	-8.527000E+00	  0.097154312	8.389700E+01	  0.097154312	4.052300E+01	  0.097154312	3.511900E+01
387	  0.097354710	-8.549000E+00	  0.097354710	8.344600E+01	  0.097354710	4.080000E+01	  0.097354710	3.521000E+01
388	  0.097555116	-8.568000E+00	  0.097555116	8.298100E+01	  0.097555116	4.107800E+01	  0.097555116	3.531700E+01
389	  0.097755514	-8.589000E+00	  0.097755514	8.255400E+01	  0.097755514	4.134500E+01	  0.097755514	3.539900E+01
390	  0.097955912	-8.612000E+00	  0.097955912	8.213300E+01	  0.097955912	4.161600E+01	  0.097955912	3.546900E+01
391	  0.098156318	-8.628000E+00	  0.098156318	8.170700E+01	  0.098156318	4.187200E+01	  0.098156318	3.556700E+01
392	  0.098356716	-8.642000E+00	  0.098356716	8.130300E+01	  0.098356716	4.211600E+01	  0.098356716	3.566000E+01
393	  0.098557115	-8.661000E+00	  0.098557115	8.092100E+01	  0.098557115	4.236200E+01	  0.098557115	3.572500E+01
394	  0.098757520	-8.677000E+00	  0.098757520	8.050600E+01	  0.098757520	4.261700E+01	  0.098757520	3.581300E+01
395	  0.098957919	-8.687000E+00	  0.098957919	8.007200E+01	  0.098957919	4.287300E+01	  0.098957919	3.592500E+01
396	  0.099158317	-8.701000E+00	  0.099158317	7.967800E+01	  0.099158317	4.311600E+01	  0.099158317	3.601000E+01
397	  0.099358723	-8.709000E+00	  0.099358723	7.931100E+01	  0.099358723	4.333500E+01	  0.099358723	3.610400E+01
398	  0.099559121	-8.728000E+00	  0.099559121	7.897800E+01	  0.099559121	4.355900E+01	  0.099559121	3.614700E+01
399	  0.099759519	-8.739000E+00	  0.099759519	7.860000E+01	  0.099759519	4.379100E+01	  0.099759519	3.623300E+01
400	  0.099959925	-8.760000E+00	  0.099959925	7.820100E+01	  0.099959925	4.405800E+01	  0.099959925	3.628800E+01
401	  0.100160323	-8.763000E+00	  0.100160323	7.786100E+01	  0.100160323	4.425500E+01	  0.100160323	3.638800E+01
402	  0.100360721	-8.778000E+00	  0.100360721	7.753000E+01	  0.100360721	4.447500E+01	  0.100360721	3.643800E+01
403	  0.100561127	-8.790000E+00	  0.100561127	7.713200E+01	  0.100561127	4.472700E+01	  0.100561127	3.652000E+01
404	  0.100761525	-8.803000E+00	  0.100761525	7.675500E+01	  0.100761525	4.496900E+01	  0.100761525	3.659300E+01
405	  0.100961931	-8.816000E+00	  0.100961931	7.642000E+01	  0.100961931	4.518900E+01	  0.100961931	3.664700E+01
406	  0.101162329	-8.819000E+00	  0.101162329	7.608800E+01	  0.101162329	4.538700E+01	  0.101162329	3.674300E+01
407	  0.101362728	-8.826000E+00	  0.101362728	7.571200E+01	  0.101362728	4.562200E+01	  0.101362728	3.683100E+01
408	  0.101563133	-8.838000E+00	  0.101563133	7.534000E+01	  0.101563133	4.586400E+01	  0.101563133	3.690200E+01
409	  0.101763532	-8.850000E+00	  0.101763532	7.500100E+01	  0.101763532	4.609000E+01	  0.101763532	3.695500E+01
410	  0.101963930	-8.851000E+00	  0.101963930	7.463500E+01	  0.101963930	4.630900E+01	  0.101963930	3.706500E+01
411	  0.102164328	-8.860000E+00	  0.102164328	7.422200E+01	  0.102164328	4.657700E+01	  0.102164328	3.715100E+01
412	  0.102364726	-8.855000E+00	  0.102364726	7.383400E+01	  0.102364726	4.680300E+01	  0.102364726	3.728500E+01
413	  0.102565125	-8.865000E+00	  0.102565125	7.344100E+01	  0.102565125	4.706200E+01	  0.102565125	3.736300E+01
414	  0.102765530	-8.871000E+00	  0.102765530	7.303800E+01	  0.102765530	4.732200E+01	  0.102765530	3.745600E+01
415	  0.102965929	-8.862000E+00	  0.102965929	7.265400E+01	  0.102965929	4.754300E+01	  0.102965929	3.760600E+01
416	  0.103166327	-8.865000E+00	  0.103166327	7.225600E+01	  0.103166327	4.779800E+01	  0.103166327	3.770600E+01
417	  0.103366733	-8.862000E+00	  0.103366733	7.181000E+01	  0.103366733	4.807600E+01	  0.103366733	3.784300E+01
418	  0.103567131	-8.855000E+00	  0.103567131	7.136800E+01	  0.103567131	4.834400E+01	  0.103567131	3.800000E+01
419	  0.103767529	-8.857000E+00	  0.103767529	7.095400E+01	  0.103767529	4.861500E+01	  0.103767529	3.810400E+01
420	  0.103967935	-8.853000E+00	  0.103967935	7.045200E+01	  0.103967935	4.893300E+01	  0.103967935	3.826300E+01
421	  0.104168333	-8.845000E+00	  0.104168333	7.001700E+01	  0.104168333	4.920400E+01	  0.104168333	3.841600E+01
422	  0.104368731	-8.834000E+00	  0.104368731	6.960100E+01	  0.104368731	4.946100E+01	  0.104368731	3.857300E+01
423	  0.104569137	-8.830000E+00	  0.104569137	6.915000E+01	  0.104569137	4.975600E+01	  0.104569137	3.871300E+01
424	  0.104769535	-8.814000E+00	  0.104769535	6.869300E+01	  0.104769535	5.003600E+01	  0.104769535	3.890700E+01
425	  0.104969934	-8.812000E+00	  0.104969934	6.818100E+01	  0.104969934	5.038400E+01	  0.104969934	3.904700E+01
426	  0.105170339	-8.797000E+00	  0.105170339	6.776200E+01	  0.105170339	5.064600E+01	  0.105170339	3.922700E+01
427	  0.105370738	-8.786000E+00	  0.105370738	6.729000E+01	  0.105370738	5.095700E+01	  0.105370738	3.939400E+01
428	  0.105571143	-8.771000E+00	  0.105571143	6.685600E+01	  0.105571143	5.123700E+01	  0.105571143	3.957500E+01
429	  0.105771542	-8.754000E+00	  0.105771542	6.633700E+01	  0.105771542	5.157900E+01	  0.105771542	3.978500E+01
430	  0.105971940	-8.745000E+00	  0.105971940	6.583200E+01	  0.105971940	5.192800E+01	  0.105971940	3.995100E+01
431	  0.106172346	-8.734000E+00	  0.106172346	6.534800E+01	  0.106172346	5.226400E+01	  0.106172346	4.012100E+01
432	  0.106372744	-8.715000E+00	  0.106372744	6.488900E+01	  0.106372744	5.257100E+01	  0.106372744	4.032500E+01
433	  0.106573142	-8.708000E+00	  0.106573142	6.439700E+01	  0.106573142	5.292700E+01	  0.106573142	4.047300E+01
434	  0.106773548	-8.696000E+00	  0.106773548	6.388100E+01	  0.106773548	5.329600E+01	  0.106773548	4.065400E+01
435	  0.106973946	-8.677000E+00	  0.106973946	6.336800E+01	  0.106973946	5.365700E+01	  0.106973946	4.086800E+01
436	  0.107174344	-8.674000E+00	  0.107174344	6.281800E+01	  0.107174344	5.407600E+01	  0.107174344	4.100200E+01
437	  0.107374750	-8.661000E+00	  0.107374750	6.236300E+01	  0.107374750	5.441300E+01	  0.107374750	4.116700E+01
438	  0.107575148	-8.647000E+00	  0.107575148	6.172000E+01	  0.107575148	5.489800E+01	  0.107575148	4.137900E+01
439	  0.107775547	-8.641000E+00	  0.107775547	6.122500E+01	  0.107775547	5.528500E+01	  0.107775547	4.151200E+01
440	  0.107975952	-8.628000E+00	  0.107975952	6.073200E+01	  0.107975952	5.566500E+01	  0.107975952	4.167900E+01
441	  0.108176351	-8.613000E+00	  0.108176351	6.015400E+01	  0.108176351	5.611600E+01	  0.108176351	4.187600E+01
442	  0.108376749	-8.617000E+00	  0.108376749	5.967900E+01	  0.108376749	5.651300E+01	  0.108376749	4.194400E+01
443	  0.108577155	-8.601000E+00	  0.108577155	5.913400E+01	  0.108577155	5.694700E+01	  0.108577155	4.212900E+01
444	  0.108777553	-8.597000E+00	  0.108777553	5.857700E+01	  0.108777553	5.741100E+01	  0.108777553	4.225300E+01
445	  0.108977959	-8.591000E+00	  0.108977959	5.798700E+01	  0.108977959	5.790700E+01	  0.108977959	4.238600E+01
446	  0.109178357	-8.583000E+00	  0.109178357	5.740200E+01	  0.109178357	5.840300E+01	  0.109178357	4.252500E+01
447	  0.109378755	-8.573000E+00	  0.109378755	5.684100E+01	  0.109378755	5.888100E+01	  0.109378755	4.266900E+01
448	  0.109579161	-8.566000E+00	  0.109579161	5.622200E+01	  0.109579161	5.942200E+01	  0.109579161	4.279600E+01
449	  0.109779559	-8.561000E+00	  0.109779559	5.569300E+01	  0.109779559	5.988900E+01	  0.109779559	4.290000E+01
450	  0.109979957	-8.555000E+00	  0.109979957	5.512300E+01	  0.109979957	6.039800E+01	  0.109979957	4.300600E+01
451	  0.110180363	-8.540000E+00	  0.110180363	5.456000E+01	  0.110180363	6.090000E+01	  0.110180363	4.316000E+01
452	  0.110380761	-8.534000E+00	  0.110380761	5.392300E+01	  0.110380761	6.148300E+01	  0.110380761	4.327000E+01
453	  0.110581160	-8.527000E+00	  0.110581160	5.328200E+01	  0.110581160	6.207800E+01	  0.110581160	4.337500E+01
454	  0.110781565	-8.525000E+00	  0.110781565	5.271900E+01	  0.110781565	6.260900E+01	  0.110781565	4.343800E+01
455	  0.110981964	-8.512000E+00	  0.110981964	5.206900E+01	  0.110981964	6.322300E+01	  0.110981964	4.356800E+01
456	  0.111182362	-8.502000E+00	  0.111182362	5.147700E+01	  0.111182362	6.379200E+01	  0.111182362	4.366800E+01
457	  0.111382768	-8.487000E+00	  0.111382768	5.082200E+01	  0.111382768	6.442700E+01	  0.111382768	4.379700E+01
458	  0.111583166	-8.484000E+00	  0.111583166	5.017000E+01	  0.111583166	6.507200E+01	  0.111583166	4.384600E+01
459	  0.111783572	-8.475000E+00	  0.111783572	4.952900E+01	  0.111783572	6.571300E+01	  0.111783572	4.392100E+01
460	  0.111983970	-8.466000E+00	  0.111983970	4.886400E+01	  0.111983970	6.638600E+01	  0.111983970	4.398700E+01
461	  0.112184368	-8.458000E+00	  0.112184368	4.819700E+01	  0.112184368	6.707000E+01	  0.112184368	4.404500E+01
462	  0.112384774	-8.450000E+00	  0.112384774	4.754200E+01	  0.112384774	6.775000E+01	  0.112384774	4.408400E+01
463	  0.112585172	-8.449000E+00	  0.112585172	4.680600E+01	  0.112585172	6.852200E+01	  0.112585172	4.406700E+01
464	  0.112785570	-8.439000E+00	  0.112785570	4.613000E+01	  0.112785570	6.924100E+01	  0.112785570	4.410000E+01
465	  0.112985976	-8.438000E+00	  0.112985976	4.543200E+01	  0.112985976	6.999000E+01	  0.112985976	4.405600E+01
466	  0.113186374	-8.431000E+00	  0.113186374	4.467900E+01	  0.113186374	7.080900E+01	  0.113186374	4.404100E+01
467	  0.113386773	-8.430000E+00	  0.113386773	4.399600E+01	  0.113386773	7.155700E+01	  0.113386773	4.397200E+01
468	  0.113587178	-8.425000E+00	  0.113587178	4.325200E+01	  0.113587178	7.238200E+01	  0.113587178	4.391000E+01
469	  0.113787577	-8.427000E+00	  0.113787577	4.246900E+01	  0.113787577	7.325300E+01	  0.113787577	4.378000E+01
470	  0.113987975	-8.425000E+00	  0.113987975	4.170900E+01	  0.113987975	7.411000E+01	  0.113987975	4.365700E+01
471	  0.114188381	-8.426000E+00	  0.114188381	4.093300E+01	  0.114188381	7.498800E+01	  0.114188381	4.349000E+01
472	  0.114388779	-8.430000E+00	  0.114388779	4.013300E+01	  0.114388779	7.589800E+01	  0.114388779	4.328200E+01
473	  0.114589177	-8.431000E+00	  0.114589177	3.932000E+01	  0.114589177	7.683200E+01	  0.114589177	4.306600E+01
474	  0.114789583	-8.436000E+00	  0.114789583	3.851300E+01	  0.114789583	7.775600E+01	  0.114789583	4.279600E+01
475	  0.114989981	-8.444000E+00	  0.114989981	3.764800E+01	  0.114989981	7.874800E+01	  0.114989981	4.246500E+01
476	  0.115190387	-8.453000E+00	  0.115190387	3.680800E+01	  0.115190387	7.970800E+01	  0.115190387	4.209900E+01
477	  0.115390785	-8.457000E+00	  0.115390785	3.590800E+01	  0.115390785	8.075500E+01	  0.115390785	4.172700E+01
478	  0.115591183	-8.466000E+00	  0.115591183	3.508200E+01	  0.115591183	8.170400E+01	  0.115591183	4.131800E+01
479	  0.115791589	-8.486000E+00	  0.115791589	3.416200E+01	  0.115791589	8.272800E+01	  0.115791589	4.074900E+01
480	  0.115991987	-8.495000E+00	  0.115991987	3.323700E+01	  0.115991987	8.378700E+01	  0.115991987	4.022600E+01
481	  0.116192386	-8.509000E+00	  0.116192386	3.235100E+01	  0.116192386	8.478000E+01	  0.116192386	3.965200E+01
482	  0.116392791	-8.530000E+00	  0.116392791	3.140800E+01	  0.116392791	8.580600E+01	  0.116392791	3.896200E+01
483	  0.116593190	-8.547000E+00	  0.116593190	3.045500E+01	  0.116593190	8.684400E+01	  0.116593190	3.825000E+01
484	  0.116793588	-8.567000E+00	  0.116793588	2.946200E+01	  0.116793588	8.790800E+01	  0.116793588	3.745900E+01
485	  0.116993994	-8.591000E+00	  0.116993994	2.852700E+01	  0.116993994	8.886800E+01	  0.116993994	3.663600E+01
486	  0.117194392	-8.612000E+00	  0.117194392	2.749800E+01	  0.117194392	8.992700E+01	  0.117194392	3.572600E+01
487	  0.117394790	-8.640000E+00	  0.117394790	2.650900E+01	  0.117394790	9.088700E+01	  0.117394790	3.475900E+01
488	  0.117595196	-8.672000E+00	  0.117595196	2.551800E+01	  0.117595196	9.179400E+01	  0.117595196	3.371700E+01
489	  0.117795594	-8.705000E+00	  0.117795594	2.450300E+01	  0.117795594	9.269500E+01	  0.117795594	3.261800E+01
490	  0.117995992	-8.736000E+00	  0.117995992	2.345200E+01	  0.117995992	9.360500E+01	  0.117995992	3.146000E+01
