! Anritsu VNA Master:             	Model: MS2036C/10/77
! SN:             	1601066
! /card0/usr/18may12.lna.rl/252a.lna.rl.redo.txt
! Existing Calibration Information:
! TYPE:             	Current Settings	Active Cal Settings
! TIME:             	05/13/2018 10:40:56 AM	05/13/2018 10:34:45 AM
! INTERNAL TEMP:    	46.0 C	46.0 C
! # POINTS:         	500	500
! START FREQ:       	20.000 MHz	20.000 MHz
! STOP FREQ:        	120.000 MHz	120.000 MHz
! SOURCE POWER:     	Low	Low
! IFBW:             	10 Hz	10 Hz
! AVG FACTOR:       	  1 	  1 
! REF PLANE 1:      	0 mm	0 mm
! REF PLANE 2:      	0 mm	0 mm
! CAL TYPE:         	Full S22	Full S22
! CAL METHOD:       	SOLT	SOLT
! CAL LINE TYPE:    	Coax	Coax
! DUT PORT 1:       	K-Conn(M)	K-Conn(M)
! DUT PORT 2:       	K-Conn(M)	K-Conn(M)
! CAL STATUS:       	OK: Accuracy High	--
! PROP-V:       	0.700
! CABLE LOSS:       	0.000 dB/m
! REF IMPEDANCE:       	50.0
! Trace Specific Parameters:	TR1	TR2	TR3	TR4
! TRACE.#.Y (GRAPH TYPE)	LOG MAG	PHASE	REAL IMPEDANCE	IMAGINARY IMPEDANCE
! TRACE.#.X 	FREQ.GHZ	FREQ.GHZ	FREQ.GHZ	FREQ.GHZ
! S-PARAMETER	S22	S22	S22	S22
! SMOOTH/APERTURE %	0	0	0	0
! WINDOW	NSL	NSL	NSL	NSL
! GATING	OFF	OFF	OFF	OFF
! FGTD	OFF	OFF	OFF	OFF
Marker Information per Trace:	TR1	TR2	TR3	TR4
!MK1	--	"MK1 TR2:  12.184 368 MHz,##.##"	--	--
!MK2	--	--	"MK2 TR3:  12.184 368 MHz,##.##"	--
!MK3	--	--	--	--
!MK4	--	--	--	--
!MK5	--	--	--	--
!MK6	--	--	--	--
!MK7	--	--	--	--
!MK8	--	--	--	--
PNT	TR1.FREQ.GHZ	TR1.LOG MAG.dB	TR2.FREQ.GHZ	TR2.PHASE.deg	TR3.FREQ.GHZ	TR3.REAL IMPEDANCE.ohm	TR4.FREQ.GHZ	TR4.IMAGINARY IMPEDANCE.ohm
1	  0.020000000	-2.143700E+01	  0.020000000	4.230200E+01	  0.020000000	5.629300E+01	  0.020000000	6.468000E+00
2	  0.020200402	-2.143900E+01	  0.020200402	3.942300E+01	  0.020200402	5.665000E+01	  0.020200402	6.140000E+00
3	  0.020400802	-2.137500E+01	  0.020400802	3.774700E+01	  0.020400802	5.690200E+01	  0.020400802	5.990000E+00
4	  0.020601204	-2.144300E+01	  0.020601204	3.413200E+01	  0.020601204	5.725800E+01	  0.020601204	5.481000E+00
5	  0.020801604	-2.139100E+01	  0.020801604	3.235800E+01	  0.020801604	5.749500E+01	  0.020801604	5.282000E+00
6	  0.021002004	-2.139400E+01	  0.021002004	2.982200E+01	  0.021002004	5.775200E+01	  0.021002004	4.927000E+00
7	  0.021202406	-2.150400E+01	  0.021202406	2.672300E+01	  0.021202406	5.794000E+01	  0.021202406	4.413000E+00
8	  0.021402806	-2.135100E+01	  0.021402806	2.325700E+01	  0.021402806	5.838800E+01	  0.021402806	3.975000E+00
9	  0.021603208	-2.142300E+01	  0.021603208	2.188700E+01	  0.021603208	5.842200E+01	  0.021603208	3.724000E+00
10	  0.021803608	-2.146100E+01	  0.021803608	1.769200E+01	  0.021803608	5.867100E+01	  0.021803608	3.035000E+00
11	  0.022004008	-2.138900E+01	  0.022004008	1.477000E+01	  0.022004008	5.891900E+01	  0.022004008	2.578000E+00
12	  0.022204408	-2.147500E+01	  0.022204408	1.170400E+01	  0.022204408	5.896800E+01	  0.022204408	2.033000E+00
13	  0.022404809	-2.144900E+01	  0.022404809	9.141000E+00	  0.022404809	5.909300E+01	  0.022404809	1.600000E+00
14	  0.022605211	-2.148800E+01	  0.022605211	4.924000E+00	  0.022605211	5.915500E+01	  0.022605211	8.610000E-01
15	  0.022805611	-2.146000E+01	  0.022805611	1.679000E+00	  0.022805611	5.922700E+01	  0.022805611	2.950000E-01
16	  0.023006011	-2.149100E+01	  0.023006011	-2.066000E+00	  0.023006011	5.918800E+01	  0.023006011	-3.620000E-01
17	  0.023206413	-2.145300E+01	  0.023206413	-4.855000E+00	  0.023206413	5.919700E+01	  0.023206413	-8.530000E-01
18	  0.023406813	-2.151600E+01	  0.023406813	-8.862000E+00	  0.023406813	5.902600E+01	  0.023406813	-1.538000E+00
19	  0.023607215	-2.147500E+01	  0.023607215	-1.262000E+01	  0.023607215	5.892800E+01	  0.023607215	-2.188000E+00
20	  0.023807615	-2.144600E+01	  0.023807615	-1.644700E+01	  0.023807615	5.876200E+01	  0.023807615	-2.837000E+00
21	  0.024008015	-2.137100E+01	  0.024008015	-2.000100E+01	  0.024008015	5.861400E+01	  0.024008015	-3.449000E+00
22	  0.024208417	-2.139400E+01	  0.024208417	-2.407400E+01	  0.024208417	5.827800E+01	  0.024208417	-4.079000E+00
23	  0.024408817	-2.133300E+01	  0.024408817	-2.827900E+01	  0.024408817	5.796100E+01	  0.024408817	-4.745000E+00
24	  0.024609219	-2.151900E+01	  0.024609219	-3.253000E+01	  0.024609219	5.736300E+01	  0.024609219	-5.215000E+00
25	  0.024809619	-2.130800E+01	  0.024809619	-3.681900E+01	  0.024809619	5.706600E+01	  0.024809619	-5.927000E+00
26	  0.025010020	-2.123000E+01	  0.025010020	-4.182100E+01	  0.025010020	5.650700E+01	  0.025010020	-6.590000E+00
27	  0.025210422	-2.123200E+01	  0.025210422	-4.692900E+01	  0.025210422	5.581800E+01	  0.025210422	-7.129000E+00
28	  0.025410822	-2.113100E+01	  0.025410822	-5.173700E+01	  0.025410822	5.518900E+01	  0.025410822	-7.667000E+00
29	  0.025611224	-2.116900E+01	  0.025611224	-5.709500E+01	  0.025611224	5.436500E+01	  0.025611224	-8.040000E+00
30	  0.025811624	-2.101100E+01	  0.025811624	-6.319600E+01	  0.025811624	5.347200E+01	  0.025811624	-8.563000E+00
31	  0.026012026	-2.108000E+01	  0.026012026	-6.924100E+01	  0.026012026	5.248600E+01	  0.026012026	-8.735000E+00
32	  0.026212426	-2.093500E+01	  0.026212426	-7.471100E+01	  0.026212426	5.162500E+01	  0.026212426	-9.015000E+00
33	  0.026412826	-2.105500E+01	  0.026412826	-8.050600E+01	  0.026412826	5.069100E+01	  0.026412826	-8.924000E+00
34	  0.026613226	-2.109200E+01	  0.026613226	-8.803000E+01	  0.026613226	4.952600E+01	  0.026613226	-8.797000E+00
35	  0.026813626	-2.107800E+01	  0.026813626	-9.489800E+01	  0.026813626	4.850000E+01	  0.026813626	-8.603000E+00
36	  0.027014028	-2.119400E+01	  0.027014028	-1.018670E+02	  0.027014028	4.755400E+01	  0.027014028	-8.173000E+00
37	  0.027214428	-2.125600E+01	  0.027214428	-1.099680E+02	  0.027214428	4.652700E+01	  0.027214428	-7.625000E+00
38	  0.027414829	-2.145900E+01	  0.027414829	-1.173030E+02	  0.027414829	4.576600E+01	  0.027414829	-6.924000E+00
39	  0.027615231	-2.164300E+01	  0.027615231	-1.256110E+02	  0.027615231	4.501100E+01	  0.027615231	-6.098000E+00
40	  0.027815631	-2.187300E+01	  0.027815631	-1.340230E+02	  0.027815631	4.441100E+01	  0.027815631	-5.181000E+00
41	  0.028016033	-2.238000E+01	  0.028016033	-1.409480E+02	  0.028016033	4.423100E+01	  0.028016033	-4.262000E+00
42	  0.028216433	-2.276000E+01	  0.028216433	-1.493140E+02	  0.028216433	4.399500E+01	  0.028216433	-3.285000E+00
43	  0.028416833	-2.337000E+01	  0.028416833	-1.563760E+02	  0.028416833	4.408600E+01	  0.028416833	-2.408000E+00
44	  0.028617235	-2.388000E+01	  0.028617235	-1.646550E+02	  0.028617235	4.416500E+01	  0.028617235	-1.501000E+00
45	  0.028817635	-2.464000E+01	  0.028817635	-1.714470E+02	  0.028817635	4.451500E+01	  0.028817635	-7.780000E-01
46	  0.029018037	-2.527700E+01	  0.029018037	-1.793800E+02	  0.029018037	4.483400E+01	  0.029018037	-5.200000E-02
47	  0.029218437	-2.587800E+01	  0.029218437	1.758790E+02	  0.029218437	4.517400E+01	  0.029218437	3.300000E-01
48	  0.029418837	-2.670300E+01	  0.029418837	1.703520E+02	  0.029418837	4.563600E+01	  0.029418837	7.080000E-01
49	  0.029619239	-2.735700E+01	  0.029619239	1.647190E+02	  0.029619239	4.601700E+01	  0.029619239	1.041000E+00
50	  0.029819639	-2.843000E+01	  0.029819639	1.602370E+02	  0.029819639	4.654200E+01	  0.029819639	1.194000E+00
51	  0.030020041	-2.925100E+01	  0.030020041	1.562110E+02	  0.030020041	4.692400E+01	  0.030020041	1.306000E+00
52	  0.030220442	-3.002400E+01	  0.030220442	1.521880E+02	  0.030220442	4.726600E+01	  0.030220442	1.392000E+00
53	  0.030420844	-3.098000E+01	  0.030420844	1.507090E+02	  0.030420844	4.757700E+01	  0.030420844	1.316000E+00
54	  0.030621244	-3.177100E+01	  0.030621244	1.487630E+02	  0.030621244	4.782500E+01	  0.030621244	1.280000E+00
55	  0.030821644	-3.251500E+01	  0.030821644	1.470930E+02	  0.030821644	4.803500E+01	  0.030821644	1.236000E+00
56	  0.031022044	-3.275700E+01	  0.031022044	1.449400E+02	  0.031022044	4.813300E+01	  0.031022044	1.273000E+00
57	  0.031222444	-3.346400E+01	  0.031222444	1.450000E+02	  0.031222444	4.827700E+01	  0.031222444	1.175000E+00
58	  0.031422846	-3.391200E+01	  0.031422846	1.442490E+02	  0.031422846	4.837700E+01	  0.031422846	1.139000E+00
59	  0.031623244	-3.470200E+01	  0.031623244	1.467930E+02	  0.031623244	4.847300E+01	  0.031623244	9.770000E-01
60	  0.031823646	-3.467600E+01	  0.031823646	1.471120E+02	  0.031823646	4.846400E+01	  0.031823646	9.710000E-01
61	  0.032024048	-3.535300E+01	  0.032024048	1.456990E+02	  0.032024048	4.860000E+01	  0.032024048	9.350000E-01
62	  0.032224450	-3.562700E+01	  0.032224450	1.490870E+02	  0.032224450	4.859300E+01	  0.032224450	8.260000E-01
63	  0.032424849	-3.617700E+01	  0.032424849	1.507630E+02	  0.032424849	4.865700E+01	  0.032424849	7.380000E-01
64	  0.032625251	-3.567400E+01	  0.032625251	1.466750E+02	  0.032625251	4.863500E+01	  0.032625251	8.790000E-01
65	  0.032825653	-3.522300E+01	  0.032825653	1.551790E+02	  0.032825653	4.844600E+01	  0.032825653	7.050000E-01
66	  0.033026051	-3.535300E+01	  0.033026051	1.498220E+02	  0.033026051	4.853800E+01	  0.033026051	8.330000E-01
67	  0.033226453	-3.504300E+01	  0.033226453	1.508870E+02	  0.033226453	4.847000E+01	  0.033226453	8.340000E-01
68	  0.033426855	-3.528300E+01	  0.033426855	1.505100E+02	  0.033426855	4.851700E+01	  0.033426855	8.220000E-01
69	  0.033627257	-3.531600E+01	  0.033627257	1.495430E+02	  0.033627257	4.853600E+01	  0.033627257	8.430000E-01
70	  0.033827655	-3.506100E+01	  0.033827655	1.485560E+02	  0.033827655	4.850700E+01	  0.033827655	8.930000E-01
71	  0.034028057	-3.500100E+01	  0.034028057	1.436910E+02	  0.034028057	4.857600E+01	  0.034028057	1.023000E+00
72	  0.034228459	-3.463500E+01	  0.034228459	1.522550E+02	  0.034228459	4.837800E+01	  0.034228459	8.350000E-01
73	  0.034428857	-3.441200E+01	  0.034428857	1.480470E+02	  0.034428857	4.840100E+01	  0.034428857	9.750000E-01
74	  0.034629259	-3.468700E+01	  0.034629259	1.518750E+02	  0.034629259	4.839300E+01	  0.034629259	8.410000E-01
75	  0.034829661	-3.424400E+01	  0.034829661	1.452810E+02	  0.034829661	4.841800E+01	  0.034829661	1.070000E+00
76	  0.035030060	-3.487400E+01	  0.035030060	1.438360E+02	  0.035030060	4.855300E+01	  0.035030060	1.034000E+00
77	  0.035230462	-3.498900E+01	  0.035230462	1.459570E+02	  0.035230462	4.853600E+01	  0.035230462	9.670000E-01
78	  0.035430863	-3.427600E+01	  0.035430863	1.391090E+02	  0.035430863	4.854400E+01	  0.035430863	1.228000E+00
79	  0.035631265	-3.410800E+01	  0.035631265	1.441190E+02	  0.035631265	4.841500E+01	  0.035631265	1.118000E+00
80	  0.035831664	-3.468200E+01	  0.035831664	1.391720E+02	  0.035831664	4.860900E+01	  0.035831664	1.172000E+00
81	  0.036032066	-3.411900E+01	  0.036032066	1.364430E+02	  0.036032066	4.857600E+01	  0.036032066	1.318000E+00
82	  0.036232468	-3.479400E+01	  0.036232468	1.405510E+02	  0.036232468	4.860000E+01	  0.036232468	1.124000E+00
83	  0.036432866	-3.412700E+01	  0.036432866	1.335250E+02	  0.036432866	4.864400E+01	  0.036432866	1.387000E+00
84	  0.036633268	-3.406900E+01	  0.036633268	1.375940E+02	  0.036633268	4.854200E+01	  0.036633268	1.296000E+00
85	  0.036833670	-3.399300E+01	  0.036833670	1.353410E+02	  0.036833670	4.858000E+01	  0.036833670	1.364000E+00
86	  0.037034072	-3.396900E+01	  0.037034072	1.312350E+02	  0.037034072	4.867500E+01	  0.037034072	1.466000E+00
87	  0.037234470	-3.395600E+01	  0.037234470	1.332220E+02	  0.037234470	4.862400E+01	  0.037234470	1.421000E+00
88	  0.037434869	-3.397600E+01	  0.037434869	1.291630E+02	  0.037434869	4.872900E+01	  0.037434869	1.512000E+00
89	  0.037635271	-3.397800E+01	  0.037635271	1.305750E+02	  0.037635271	4.869300E+01	  0.037635271	1.480000E+00
90	  0.037835669	-3.400500E+01	  0.037835669	1.329620E+02	  0.037835669	4.863800E+01	  0.037835669	1.420000E+00
91	  0.038036071	-3.411500E+01	  0.038036071	1.263520E+02	  0.038036071	4.882200E+01	  0.038036071	1.549000E+00
92	  0.038236473	-3.381300E+01	  0.038236473	1.267340E+02	  0.038236473	4.876900E+01	  0.038236473	1.594000E+00
93	  0.038436871	-3.386800E+01	  0.038436871	1.297120E+02	  0.038436871	4.869800E+01	  0.038436871	1.518000E+00
94	  0.038637273	-3.449700E+01	  0.038637273	1.245120E+02	  0.038637273	4.892000E+01	  0.038637273	1.519000E+00
95	  0.038837675	-3.424100E+01	  0.038837675	1.270100E+02	  0.038837675	4.882200E+01	  0.038837675	1.513000E+00
96	  0.039038073	-3.438600E+01	  0.039038073	1.248170E+02	  0.039038073	4.889800E+01	  0.039038073	1.532000E+00
97	  0.039238475	-3.450800E+01	  0.039238475	1.228000E+02	  0.039238475	4.896600E+01	  0.039238475	1.549000E+00
98	  0.039438877	-3.421200E+01	  0.039438877	1.235340E+02	  0.039438877	4.891000E+01	  0.039438877	1.588000E+00
99	  0.039639279	-3.447100E+01	  0.039639279	1.208950E+02	  0.039639279	4.901300E+01	  0.039639279	1.590000E+00
100	  0.039839678	-3.364800E+01	  0.039839678	1.248240E+02	  0.039839678	4.879900E+01	  0.039839678	1.665000E+00
101	  0.040040080	-3.399100E+01	  0.040040080	1.258260E+02	  0.040040080	4.881900E+01	  0.040040080	1.581000E+00
102	  0.040240481	-3.436900E+01	  0.040240481	1.214930E+02	  0.040240481	4.898500E+01	  0.040240481	1.597000E+00
103	  0.040440880	-3.430000E+01	  0.040440880	1.210730E+02	  0.040440880	4.898800E+01	  0.040440880	1.618000E+00
104	  0.040641282	-3.435700E+01	  0.040641282	1.210710E+02	  0.040641282	4.899500E+01	  0.040641282	1.607000E+00
105	  0.040841684	-3.422800E+01	  0.040841684	1.219120E+02	  0.040841684	4.895600E+01	  0.040841684	1.615000E+00
106	  0.041042086	-3.423200E+01	  0.041042086	1.216680E+02	  0.041042086	4.896300E+01	  0.041042086	1.619000E+00
107	  0.041242484	-3.497600E+01	  0.041242484	1.257360E+02	  0.041242484	4.894800E+01	  0.041242484	1.417000E+00
108	  0.041442886	-3.415300E+01	  0.041442886	1.243970E+02	  0.041442886	4.887900E+01	  0.041442886	1.581000E+00
109	  0.041643288	-3.395800E+01	  0.041643288	1.230630E+02	  0.041643288	4.889000E+01	  0.041643288	1.643000E+00
110	  0.041843686	-3.387000E+01	  0.041843686	1.197040E+02	  0.041843686	4.897600E+01	  0.041843686	1.723000E+00
111	  0.042044088	-3.435400E+01	  0.042044088	1.229990E+02	  0.042044088	4.894200E+01	  0.042044088	1.573000E+00
112	  0.042244490	-3.406600E+01	  0.042244490	1.220010E+02	  0.042244490	4.893400E+01	  0.042244490	1.644000E+00
113	  0.042444889	-3.433700E+01	  0.042444889	1.200790E+02	  0.042444889	4.902000E+01	  0.042444889	1.628000E+00
114	  0.042645290	-3.370800E+01	  0.042645290	1.237900E+02	  0.042645290	4.883700E+01	  0.042645290	1.675000E+00
115	  0.042845692	-3.397600E+01	  0.042845692	1.224700E+02	  0.042845692	4.890900E+01	  0.042845692	1.651000E+00
116	  0.043046094	-3.357900E+01	  0.043046094	1.217130E+02	  0.043046094	4.888000E+01	  0.043046094	1.742000E+00
117	  0.043246493	-3.378600E+01	  0.043246493	1.217430E+02	  0.043246493	4.890600E+01	  0.043246493	1.701000E+00
118	  0.043446895	-3.395700E+01	  0.043446895	1.209810E+02	  0.043446895	4.894900E+01	  0.043446895	1.683000E+00
119	  0.043647297	-3.345900E+01	  0.043647297	1.195930E+02	  0.043647297	4.892900E+01	  0.043647297	1.807000E+00
120	  0.043847695	-3.350800E+01	  0.043847695	1.233730E+02	  0.043847695	4.882100E+01	  0.043847695	1.722000E+00
121	  0.044048097	-3.360500E+01	  0.044048097	1.209340E+02	  0.044048097	4.890600E+01	  0.044048097	1.752000E+00
122	  0.044248499	-3.337000E+01	  0.044248499	1.193880E+02	  0.044248499	4.892400E+01	  0.044248499	1.829000E+00
123	  0.044448901	-3.342300E+01	  0.044448901	1.225600E+02	  0.044448901	4.883400E+01	  0.044448901	1.755000E+00
124	  0.044649299	-3.280000E+01	  0.044649299	1.196440E+02	  0.044649299	4.884100E+01	  0.044649299	1.945000E+00
125	  0.044849701	-3.285500E+01	  0.044849701	1.208890E+02	  0.044849701	4.880800E+01	  0.044849701	1.907000E+00
126	  0.045050103	-3.339500E+01	  0.045050103	1.180610E+02	  0.045050103	4.896900E+01	  0.045050103	1.849000E+00
127	  0.045250501	-3.321300E+01	  0.045250501	1.205900E+02	  0.045250501	4.886600E+01	  0.045250501	1.838000E+00
128	  0.045450903	-3.271000E+01	  0.045450903	1.206410E+02	  0.045450903	4.879500E+01	  0.045450903	1.944000E+00
129	  0.045651305	-3.243600E+01	  0.045651305	1.196820E+02	  0.045651305	4.878900E+01	  0.045651305	2.026000E+00
130	  0.045851704	-3.264500E+01	  0.045851704	1.226080E+02	  0.045851704	4.872100E+01	  0.045851704	1.915000E+00
131	  0.046052106	-3.217400E+01	  0.046052106	1.185150E+02	  0.046052106	4.879300E+01	  0.046052106	2.112000E+00
132	  0.046252504	-3.236500E+01	  0.046252504	1.169890E+02	  0.046252504	4.887400E+01	  0.046252504	2.098000E+00
133	  0.046452906	-3.234500E+01	  0.046452906	1.179070E+02	  0.046452906	4.883800E+01	  0.046452906	2.084000E+00
134	  0.046653304	-3.173200E+01	  0.046653304	1.144300E+02	  0.046653304	4.888600E+01	  0.046653304	2.307000E+00
135	  0.046853706	-3.189800E+01	  0.046853706	1.172770E+02	  0.046853706	4.879900E+01	  0.046853706	2.206000E+00
136	  0.047054108	-3.169300E+01	  0.047054108	1.180270E+02	  0.047054108	4.874100E+01	  0.047054108	2.240000E+00
137	  0.047254506	-3.196400E+01	  0.047254506	1.158380E+02	  0.047254506	4.886200E+01	  0.047254506	2.219000E+00
138	  0.047454908	-3.146700E+01	  0.047454908	1.176620E+02	  0.047454908	4.872100E+01	  0.047454908	2.306000E+00
139	  0.047655310	-3.170900E+01	  0.047655310	1.135710E+02	  0.047655310	4.891700E+01	  0.047655310	2.330000E+00
140	  0.047855709	-3.137300E+01	  0.047855709	1.118700E+02	  0.047855709	4.894300E+01	  0.047855709	2.454000E+00
141	  0.048056111	-3.135500E+01	  0.048056111	1.136850E+02	  0.048056111	4.886500E+01	  0.048056111	2.422000E+00
142	  0.048256513	-3.124900E+01	  0.048256513	1.128000E+02	  0.048256513	4.888800E+01	  0.048256513	2.470000E+00
143	  0.048456915	-3.128600E+01	  0.048456915	1.109970E+02	  0.048456915	4.896900E+01	  0.048456915	2.495000E+00
144	  0.048657313	-3.103400E+01	  0.048657313	1.128230E+02	  0.048657313	4.885800E+01	  0.048657313	2.530000E+00
145	  0.048857715	-3.061600E+01	  0.048857715	1.099590E+02	  0.048857715	4.893000E+01	  0.048857715	2.711000E+00
146	  0.049058117	-3.088000E+01	  0.049058117	1.101800E+02	  0.049058117	4.895400E+01	  0.049058117	2.628000E+00
147	  0.049258515	-3.068900E+01	  0.049258515	1.074400E+02	  0.049258515	4.905600E+01	  0.049258515	2.736000E+00
148	  0.049458917	-3.064600E+01	  0.049458917	1.092320E+02	  0.049458917	4.896700E+01	  0.049458917	2.716000E+00
149	  0.049659319	-3.046500E+01	  0.049659319	1.079960E+02	  0.049659319	4.900300E+01	  0.049659319	2.796000E+00
150	  0.049859721	-3.035000E+01	  0.049859721	1.072160E+02	  0.049859721	4.902700E+01	  0.049859721	2.847000E+00
151	  0.050060119	-3.028300E+01	  0.050060119	1.047380E+02	  0.050060119	4.914100E+01	  0.050060119	2.911000E+00
152	  0.050260521	-3.021600E+01	  0.050260521	1.042770E+02	  0.050260521	4.915700E+01	  0.050260521	2.941000E+00
153	  0.050460923	-3.011400E+01	  0.050460923	1.031910E+02	  0.050460923	4.920200E+01	  0.050460923	2.992000E+00
154	  0.050661322	-2.987800E+01	  0.050661322	1.029440E+02	  0.050661322	4.919100E+01	  0.050661322	3.077000E+00
155	  0.050861724	-3.002000E+01	  0.050861724	1.018360E+02	  0.050861724	4.926300E+01	  0.050861724	3.045000E+00
156	  0.051062126	-2.983300E+01	  0.051062126	1.046100E+02	  0.051062126	4.909800E+01	  0.051062126	3.066000E+00
157	  0.051262524	-2.986300E+01	  0.051262524	1.006540E+02	  0.051262524	4.931100E+01	  0.051262524	3.116000E+00
158	  0.051462926	-3.001000E+01	  0.051462926	1.000390E+02	  0.051462926	4.935700E+01	  0.051462926	3.073000E+00
159	  0.051663328	-2.992800E+01	  0.051663328	1.004330E+02	  0.051663328	4.932900E+01	  0.051663328	3.096000E+00
160	  0.051863730	-2.953400E+01	  0.051863730	9.890000E+01	  0.051863730	4.937900E+01	  0.051863730	3.258000E+00
161	  0.052064128	-2.996500E+01	  0.052064128	9.757900E+01	  0.052064128	4.948500E+01	  0.052064128	3.117000E+00
162	  0.052264530	-2.964800E+01	  0.052264530	9.681900E+01	  0.052264530	4.950400E+01	  0.052264530	3.240000E+00
163	  0.052464932	-2.991700E+01	  0.052464932	9.649800E+01	  0.052464932	4.954000E+01	  0.052464932	3.146000E+00
164	  0.052665330	-2.986300E+01	  0.052665330	9.614200E+01	  0.052665330	4.955600E+01	  0.052665330	3.168000E+00
165	  0.052865732	-2.962500E+01	  0.052865732	9.395100E+01	  0.052865732	4.966500E+01	  0.052865732	3.275000E+00
166	  0.053066134	-2.993600E+01	  0.053066134	9.361700E+01	  0.053066134	4.969900E+01	  0.053066134	3.163000E+00
167	  0.053266536	-3.003000E+01	  0.053266536	9.410300E+01	  0.053266536	4.967700E+01	  0.053266536	3.125000E+00
168	  0.053466935	-2.960800E+01	  0.053466935	9.097200E+01	  0.053466935	4.983400E+01	  0.053466935	3.300000E+00
169	  0.053667337	-2.962700E+01	  0.053667337	9.127400E+01	  0.053667337	4.981800E+01	  0.053667337	3.291000E+00
170	  0.053867739	-2.955100E+01	  0.053867739	8.753300E+01	  0.053867739	5.003200E+01	  0.053867739	3.332000E+00
171	  0.054068137	-2.968200E+01	  0.054068137	8.857000E+01	  0.054068137	4.997400E+01	  0.054068137	3.280000E+00
172	  0.054268539	-2.953400E+01	  0.054268539	8.692300E+01	  0.054268539	5.006700E+01	  0.054268539	3.339000E+00
173	  0.054468941	-2.968900E+01	  0.054468941	8.625700E+01	  0.054468941	5.010600E+01	  0.054468941	3.281000E+00
174	  0.054669339	-2.967000E+01	  0.054669339	8.685300E+01	  0.054669339	5.007200E+01	  0.054669339	3.287000E+00
175	  0.054869737	-2.966100E+01	  0.054869737	8.450700E+01	  0.054869737	5.020700E+01	  0.054869737	3.289000E+00
176	  0.055070139	-2.949600E+01	  0.055070139	8.157500E+01	  0.055070139	5.038100E+01	  0.055070139	3.344000E+00
177	  0.055270538	-2.965800E+01	  0.055270538	8.207200E+01	  0.055270538	5.034800E+01	  0.055270538	3.284000E+00
178	  0.055470940	-2.983300E+01	  0.055470940	8.319300E+01	  0.055470940	5.027900E+01	  0.055470940	3.222000E+00
179	  0.055671342	-2.962700E+01	  0.055671342	8.063200E+01	  0.055671342	5.043200E+01	  0.055671342	3.288000E+00
180	  0.055871744	-2.965000E+01	  0.055871744	7.809400E+01	  0.055871744	5.057800E+01	  0.055871744	3.262000E+00
181	  0.056072142	-2.980300E+01	  0.056072142	7.874700E+01	  0.056072142	5.053200E+01	  0.056072142	3.209000E+00
182	  0.056272544	-3.001000E+01	  0.056272544	7.902200E+01	  0.056272544	5.050700E+01	  0.056272544	3.135000E+00
183	  0.056472946	-2.973100E+01	  0.056472946	7.824200E+01	  0.056472946	5.056500E+01	  0.056472946	3.232000E+00
184	  0.056673344	-2.969800E+01	  0.056673344	7.674600E+01	  0.056673344	5.065200E+01	  0.056673344	3.231000E+00
185	  0.056873746	-2.975500E+01	  0.056873746	7.609900E+01	  0.056873746	5.068500E+01	  0.056873746	3.203000E+00
186	  0.057074148	-2.987800E+01	  0.057074148	7.445500E+01	  0.057074148	5.076800E+01	  0.057074148	3.140000E+00
187	  0.057274550	-3.012000E+01	  0.057274550	7.614000E+01	  0.057274550	5.065900E+01	  0.057274550	3.070000E+00
188	  0.057474948	-3.001400E+01	  0.057474948	7.418600E+01	  0.057474948	5.077300E+01	  0.057474948	3.087000E+00
189	  0.057675350	-3.039700E+01	  0.057675350	7.422500E+01	  0.057675350	5.074100E+01	  0.057675350	2.952000E+00
190	  0.057875752	-3.008100E+01	  0.057875752	7.358900E+01	  0.057875752	5.080000E+01	  0.057875752	3.056000E+00
191	  0.058076151	-3.056400E+01	  0.058076151	6.996200E+01	  0.058076151	5.094500E+01	  0.058076151	2.839000E+00
192	  0.058276553	-3.043800E+01	  0.058276553	7.000500E+01	  0.058276553	5.095600E+01	  0.058276553	2.881000E+00
193	  0.058476955	-3.041900E+01	  0.058476955	6.895600E+01	  0.058476955	5.101200E+01	  0.058476955	2.871000E+00
194	  0.058677353	-3.034600E+01	  0.058677353	6.871200E+01	  0.058677353	5.103200E+01	  0.058677353	2.892000E+00
195	  0.058877755	-3.059000E+01	  0.058877755	6.872000E+01	  0.058877755	5.100500E+01	  0.058877755	2.810000E+00
196	  0.059078157	-3.072900E+01	  0.059078157	6.887300E+01	  0.059078157	5.098300E+01	  0.059078157	2.767000E+00
197	  0.059278559	-3.089900E+01	  0.059278559	6.913300E+01	  0.059278559	5.095200E+01	  0.059278559	2.717000E+00
198	  0.059478957	-3.100700E+01	  0.059478957	6.848500E+01	  0.059478957	5.097200E+01	  0.059478957	2.672000E+00
199	  0.059679359	-3.113600E+01	  0.059679359	6.757300E+01	  0.059679359	5.100100E+01	  0.059679359	2.617000E+00
200	  0.059879761	-3.122200E+01	  0.059879761	6.617700E+01	  0.059879761	5.105600E+01	  0.059879761	2.568000E+00
201	  0.060080159	-3.143300E+01	  0.060080159	6.835200E+01	  0.060080159	5.093500E+01	  0.060080159	2.540000E+00
202	  0.060280561	-3.150700E+01	  0.060280561	6.743400E+01	  0.060280561	5.096800E+01	  0.060280561	2.504000E+00
203	  0.060480963	-3.146100E+01	  0.060480963	6.727700E+01	  0.060480963	5.098000E+01	  0.060480963	2.515000E+00
204	  0.060681365	-3.170700E+01	  0.060681365	6.336100E+01	  0.060681365	5.112200E+01	  0.060681365	2.375000E+00
205	  0.060881764	-3.191800E+01	  0.060881764	6.632800E+01	  0.060881764	5.097200E+01	  0.060881764	2.369000E+00
206	  0.061082166	-3.135700E+01	  0.061082166	6.454500E+01	  0.061082166	5.111400E+01	  0.061082166	2.498000E+00
207	  0.061282568	-3.211900E+01	  0.061282568	6.473500E+01	  0.061282568	5.101600E+01	  0.061282568	2.287000E+00
208	  0.061482966	-3.262700E+01	  0.061482966	6.351800E+01	  0.061482966	5.100700E+01	  0.061482966	2.134000E+00
209	  0.061683368	-3.257000E+01	  0.061683368	6.493400E+01	  0.061683368	5.095900E+01	  0.061683368	2.172000E+00
210	  0.061883770	-3.252000E+01	  0.061883770	6.510200E+01	  0.061883770	5.095800E+01	  0.061883770	2.188000E+00
211	  0.062084168	-3.301300E+01	  0.062084168	6.358700E+01	  0.062084168	5.096200E+01	  0.062084168	2.041000E+00
212	  0.062284570	-3.297500E+01	  0.062284570	6.714400E+01	  0.062284570	5.083500E+01	  0.062284570	2.104000E+00
213	  0.062484972	-3.231300E+01	  0.062484972	6.469000E+01	  0.062484972	5.099700E+01	  0.062484972	2.235000E+00
214	  0.062685370	-3.273800E+01	  0.062685370	6.609800E+01	  0.062685370	5.089700E+01	  0.062685370	2.148000E+00
215	  0.062885776	-3.369500E+01	  0.062885776	6.656000E+01	  0.062885776	5.079200E+01	  0.062885776	1.926000E+00
216	  0.063086174	-3.359700E+01	  0.063086174	6.631300E+01	  0.063086174	5.080900E+01	  0.063086174	1.945000E+00
217	  0.063286573	-3.406600E+01	  0.063286573	7.029300E+01	  0.063286573	5.063600E+01	  0.063286573	1.888000E+00
218	  0.063486971	-3.391700E+01	  0.063486971	7.283600E+01	  0.063486971	5.056000E+01	  0.063486971	1.947000E+00
219	  0.063687377	-3.346100E+01	  0.063687377	7.148900E+01	  0.063687377	5.063700E+01	  0.063687377	2.039000E+00
220	  0.063887775	-3.398400E+01	  0.063887775	7.219900E+01	  0.063887775	5.057700E+01	  0.063887775	1.925000E+00
221	  0.064088173	-3.340300E+01	  0.064088173	7.128100E+01	  0.064088173	5.064800E+01	  0.064088173	2.051000E+00
222	  0.064288579	-3.397500E+01	  0.064288579	7.450300E+01	  0.064288579	5.049900E+01	  0.064288579	1.948000E+00
223	  0.064488977	-3.425800E+01	  0.064488977	7.682300E+01	  0.064488977	5.040700E+01	  0.064488977	1.901000E+00
224	  0.064689375	-3.338200E+01	  0.064689375	7.546100E+01	  0.064689375	5.049600E+01	  0.064689375	2.095000E+00
225	  0.064889781	-3.413600E+01	  0.064889781	7.761800E+01	  0.064889781	5.038500E+01	  0.064889781	1.934000E+00
226	  0.065090179	-3.440500E+01	  0.065090179	7.493900E+01	  0.065090179	5.046200E+01	  0.065090179	1.856000E+00
227	  0.065290578	-3.400900E+01	  0.065290578	8.130000E+01	  0.065290578	5.026300E+01	  0.065290578	1.981000E+00
228	  0.065490983	-3.460300E+01	  0.065490983	7.641000E+01	  0.065490983	5.040600E+01	  0.065490983	1.824000E+00
229	  0.065691382	-3.402200E+01	  0.065691382	8.648300E+01	  0.065691382	5.008200E+01	  0.065691382	1.990000E+00
230	  0.065891780	-3.401900E+01	  0.065891780	8.570700E+01	  0.065891780	5.010900E+01	  0.065891780	1.990000E+00
231	  0.066092186	-3.406300E+01	  0.066092186	8.806500E+01	  0.066092186	5.002700E+01	  0.066092186	1.981000E+00
232	  0.066292584	-3.400800E+01	  0.066292584	8.839600E+01	  0.066292584	5.001600E+01	  0.066292584	1.993000E+00
233	  0.066492982	-3.392900E+01	  0.066492982	8.916900E+01	  0.066492982	4.998800E+01	  0.066492982	2.011000E+00
234	  0.066693388	-3.296400E+01	  0.066693388	9.267100E+01	  0.066693388	4.984500E+01	  0.066693388	2.239000E+00
235	  0.066893786	-3.379400E+01	  0.066893786	9.510800E+01	  0.066893786	4.977700E+01	  0.066893786	2.026000E+00
236	  0.067094192	-3.317700E+01	  0.067094192	9.597200E+01	  0.067094192	4.972500E+01	  0.067094192	2.170000E+00
237	  0.067294590	-3.293300E+01	  0.067294590	9.385700E+01	  0.067294590	4.979800E+01	  0.067294590	2.242000E+00
238	  0.067494988	-3.340000E+01	  0.067494988	9.748500E+01	  0.067494988	4.967700E+01	  0.067494988	2.106000E+00
239	  0.067695394	-3.371600E+01	  0.067695394	9.924900E+01	  0.067695394	4.962800E+01	  0.067695394	2.020000E+00
240	  0.067895792	-3.258400E+01	  0.067895792	1.012190E+02	  0.067895792	4.949200E+01	  0.067895792	2.281000E+00
241	  0.068096191	-3.213800E+01	  0.068096191	1.005790E+02	  0.068096191	4.948900E+01	  0.068096191	2.406000E+00
242	  0.068296596	-3.233300E+01	  0.068296596	9.917600E+01	  0.068296596	4.955900E+01	  0.068296596	2.366000E+00
243	  0.068496995	-3.183200E+01	  0.068496995	9.453000E+01	  0.068496995	4.973300E+01	  0.068496995	2.540000E+00
244	  0.068697393	-3.174000E+01	  0.068697393	1.017790E+02	  0.068697393	4.941100E+01	  0.068697393	2.505000E+00
245	  0.068897791	-3.173100E+01	  0.068897791	1.014850E+02	  0.068897791	4.942300E+01	  0.068897791	2.511000E+00
246	  0.069098189	-3.151500E+01	  0.069098189	1.016860E+02	  0.069098189	4.939800E+01	  0.069098189	2.571000E+00
247	  0.069298595	-3.148300E+01	  0.069298595	9.995500E+01	  0.069298595	4.947300E+01	  0.069298595	2.599000E+00
248	  0.069498993	-3.109600E+01	  0.069498993	1.017990E+02	  0.069498993	4.936000E+01	  0.069498993	2.695000E+00
249	  0.069699399	-3.061400E+01	  0.069699399	1.010660E+02	  0.069699399	4.935500E+01	  0.069699399	2.856000E+00
250	  0.069899797	-3.021200E+01	  0.069899797	1.022040E+02	  0.069899797	4.926200E+01	  0.069899797	2.974000E+00
251	  0.070100196	-3.021900E+01	  0.070100196	1.016720E+02	  0.070100196	4.929000E+01	  0.070100196	2.979000E+00
252	  0.070300601	-3.023700E+01	  0.070300601	1.013590E+02	  0.070300601	4.930800E+01	  0.070300601	2.977000E+00
253	  0.070501000	-2.964100E+01	  0.070501000	9.959100E+01	  0.070501000	4.935000E+01	  0.070501000	3.210000E+00
254	  0.070701398	-2.979900E+01	  0.070701398	1.000620E+02	  0.070701398	4.933800E+01	  0.070701398	3.147000E+00
255	  0.070901804	-2.970300E+01	  0.070901804	1.003400E+02	  0.070901804	4.931400E+01	  0.070901804	3.178000E+00
256	  0.071102202	-2.877900E+01	  0.071102202	1.008860E+02	  0.071102202	4.919200E+01	  0.071102202	3.520000E+00
257	  0.071302600	-2.889400E+01	  0.071302600	9.601000E+01	  0.071302600	4.949900E+01	  0.071302600	3.540000E+00
258	  0.071503006	-2.881600E+01	  0.071503006	9.877000E+01	  0.071503006	4.932400E+01	  0.071503006	3.537000E+00
259	  0.071703404	-2.844200E+01	  0.071703404	9.760100E+01	  0.071703404	4.936300E+01	  0.071703404	3.707000E+00
260	  0.071903802	-2.819800E+01	  0.071903802	9.787600E+01	  0.071903802	4.932300E+01	  0.071903802	3.808000E+00
261	  0.072104208	-2.827600E+01	  0.072104208	9.412000E+01	  0.072104208	4.957700E+01	  0.072104208	3.819000E+00
262	  0.072304606	-2.823900E+01	  0.072304606	9.554400E+01	  0.072304606	4.948000E+01	  0.072304606	3.820000E+00
263	  0.072505005	-2.794700E+01	  0.072505005	9.586600E+01	  0.072505005	4.943500E+01	  0.072505005	3.945000E+00
264	  0.072705410	-2.800500E+01	  0.072705410	9.534000E+01	  0.072705410	4.947600E+01	  0.072705410	3.926000E+00
265	  0.072905809	-2.791100E+01	  0.072905809	9.358200E+01	  0.072905809	4.958900E+01	  0.072905809	3.987000E+00
266	  0.073106214	-2.750800E+01	  0.073106214	9.368200E+01	  0.073106214	4.955500E+01	  0.073106214	4.174000E+00
267	  0.073306613	-2.763000E+01	  0.073306613	8.922900E+01	  0.073306613	4.988300E+01	  0.073306613	4.150000E+00
268	  0.073507011	-2.736800E+01	  0.073507011	9.119700E+01	  0.073507011	4.972800E+01	  0.073507011	4.264000E+00
269	  0.073707417	-2.710900E+01	  0.073707417	9.095700E+01	  0.073707417	4.973200E+01	  0.073707417	4.395000E+00
270	  0.073907815	-2.706800E+01	  0.073907815	8.985900E+01	  0.073907815	4.981400E+01	  0.073907815	4.423000E+00
271	  0.074108213	-2.677400E+01	  0.074108213	8.780100E+01	  0.074108213	4.996500E+01	  0.074108213	4.587000E+00
272	  0.074308619	-2.691000E+01	  0.074308619	8.887600E+01	  0.074308619	4.988400E+01	  0.074308619	4.510000E+00
273	  0.074509017	-2.712600E+01	  0.074509017	8.609000E+01	  0.074509017	5.010600E+01	  0.074509017	4.409000E+00
274	  0.074709415	-2.675000E+01	  0.074709415	8.501900E+01	  0.074709415	5.018800E+01	  0.074709415	4.606000E+00
275	  0.074909821	-2.642000E+01	  0.074909821	8.614500E+01	  0.074909821	5.009300E+01	  0.074909821	4.783000E+00
276	  0.075110219	-2.664700E+01	  0.075110219	8.268100E+01	  0.075110219	5.037900E+01	  0.075110219	4.658000E+00
277	  0.075310618	-2.669000E+01	  0.075310618	8.231500E+01	  0.075310618	5.040800E+01	  0.075310618	4.634000E+00
278	  0.075511023	-2.657000E+01	  0.075511023	8.354200E+01	  0.075511023	5.031000E+01	  0.075511023	4.702000E+00
279	  0.075711422	-2.642100E+01	  0.075711422	8.028600E+01	  0.075711422	5.058500E+01	  0.075711422	4.771000E+00
280	  0.075911827	-2.635500E+01	  0.075911827	7.778500E+01	  0.075911827	5.080000E+01	  0.075911827	4.788000E+00
281	  0.076112226	-2.625100E+01	  0.076112226	8.027300E+01	  0.076112226	5.059300E+01	  0.076112226	4.867000E+00
282	  0.076312624	-2.613700E+01	  0.076312624	7.814200E+01	  0.076312624	5.078400E+01	  0.076312624	4.915000E+00
283	  0.076513030	-2.624100E+01	  0.076513030	7.654100E+01	  0.076513030	5.091500E+01	  0.076513030	4.838000E+00
284	  0.076713428	-2.603700E+01	  0.076713428	7.628200E+01	  0.076713428	5.095400E+01	  0.076713428	4.952000E+00
285	  0.076913826	-2.607900E+01	  0.076913826	7.489800E+01	  0.076913826	5.107200E+01	  0.076913826	4.909000E+00
286	  0.077114232	-2.608400E+01	  0.077114232	7.438400E+01	  0.077114232	5.111600E+01	  0.077114232	4.898000E+00
287	  0.077314630	-2.595400E+01	  0.077314630	7.150400E+01	  0.077314630	5.138500E+01	  0.077314630	4.922000E+00
288	  0.077515028	-2.638000E+01	  0.077515028	7.342100E+01	  0.077515028	5.116700E+01	  0.077515028	4.715000E+00
289	  0.077715434	-2.619300E+01	  0.077715434	7.071000E+01	  0.077715434	5.142100E+01	  0.077715434	4.769000E+00
290	  0.077915832	-2.621400E+01	  0.077915832	6.956600E+01	  0.077915832	5.151600E+01	  0.077915832	4.732000E+00
291	  0.078116231	-2.616400E+01	  0.078116231	6.837000E+01	  0.078116231	5.162500E+01	  0.078116231	4.731000E+00
292	  0.078316636	-2.618800E+01	  0.078316636	6.872000E+01	  0.078316636	5.159200E+01	  0.078316636	4.726000E+00
293	  0.078517035	-2.635300E+01	  0.078517035	6.775600E+01	  0.078517035	5.164600E+01	  0.078517035	4.611000E+00
294	  0.078717433	-2.634800E+01	  0.078717433	6.726900E+01	  0.078717433	5.168700E+01	  0.078717433	4.601000E+00
295	  0.078917839	-2.646200E+01	  0.078917839	6.602800E+01	  0.078917839	5.176900E+01	  0.078917839	4.505000E+00
296	  0.079118237	-2.656400E+01	  0.079118237	6.447200E+01	  0.079118237	5.187500E+01	  0.079118237	4.406000E+00
297	  0.079318643	-2.671800E+01	  0.079318643	6.486700E+01	  0.079318643	5.181400E+01	  0.079318643	4.338000E+00
298	  0.079519041	-2.681100E+01	  0.079519041	6.388000E+01	  0.079519041	5.187200E+01	  0.079519041	4.261000E+00
299	  0.079719439	-2.672700E+01	  0.079719439	6.417400E+01	  0.079719439	5.186600E+01	  0.079719439	4.312000E+00
300	  0.079919845	-2.716300E+01	  0.079919845	6.349700E+01	  0.079919845	5.183200E+01	  0.079919845	4.074000E+00
301	  0.080120243	-2.703800E+01	  0.080120243	6.178900E+01	  0.080120243	5.198300E+01	  0.080120243	4.082000E+00
302	  0.080320641	-2.728300E+01	  0.080320641	6.269300E+01	  0.080320641	5.186700E+01	  0.080320641	3.992000E+00
303	  0.080521047	-2.723700E+01	  0.080521047	6.262200E+01	  0.080521047	5.188100E+01	  0.080521047	4.012000E+00
304	  0.080721445	-2.755100E+01	  0.080721445	6.348300E+01	  0.080721445	5.175800E+01	  0.080721445	3.889000E+00
305	  0.080921844	-2.757400E+01	  0.080921844	6.109700E+01	  0.080921844	5.192000E+01	  0.080921844	3.807000E+00
306	  0.081122249	-2.767500E+01	  0.081122249	6.224200E+01	  0.081122249	5.182000E+01	  0.081122249	3.796000E+00
307	  0.081322648	-2.794500E+01	  0.081322648	6.356500E+01	  0.081322648	5.168000E+01	  0.081322648	3.713000E+00
308	  0.081523046	-2.821400E+01	  0.081523046	6.388200E+01	  0.081523046	5.161100E+01	  0.081523046	3.605000E+00
309	  0.081723452	-2.835200E+01	  0.081723452	6.459900E+01	  0.081723452	5.154100E+01	  0.081723452	3.565000E+00
310	  0.081923850	-2.854000E+01	  0.081923850	6.637700E+01	  0.081923850	5.139900E+01	  0.081923850	3.528000E+00
311	  0.082124248	-2.887300E+01	  0.082124248	6.592300E+01	  0.082124248	5.137700E+01	  0.082124248	3.382000E+00
312	  0.082324654	-2.875400E+01	  0.082324654	6.748600E+01	  0.082324654	5.129800E+01	  0.082324654	3.463000E+00
313	  0.082525052	-2.869100E+01	  0.082525052	6.857700E+01	  0.082525052	5.123900E+01	  0.082525052	3.511000E+00
314	  0.082725458	-2.894600E+01	  0.082725458	7.096900E+01	  0.082725458	5.105900E+01	  0.082725458	3.450000E+00
315	  0.082925856	-2.908800E+01	  0.082925856	7.314000E+01	  0.082925856	5.091200E+01	  0.082925856	3.426000E+00
316	  0.083126254	-2.895700E+01	  0.083126254	7.358300E+01	  0.083126254	5.089700E+01	  0.083126254	3.485000E+00
317	  0.083326660	-2.901300E+01	  0.083326660	7.701100E+01	  0.083326660	5.068000E+01	  0.083326660	3.503000E+00
318	  0.083527058	-2.912400E+01	  0.083527058	7.980200E+01	  0.083527058	5.050200E+01	  0.083527058	3.481000E+00
319	  0.083727457	-2.886900E+01	  0.083727457	8.056800E+01	  0.083727457	5.046500E+01	  0.083727457	3.590000E+00
320	  0.083927862	-2.884100E+01	  0.083927862	8.366900E+01	  0.083927862	5.026900E+01	  0.083927862	3.615000E+00
321	  0.084128261	-2.808600E+01	  0.084128261	8.581000E+01	  0.084128261	5.013300E+01	  0.084128261	3.947000E+00
322	  0.084328659	-2.783000E+01	  0.084328659	8.847500E+01	  0.084328659	4.994300E+01	  0.084328659	4.060000E+00
323	  0.084529065	-2.765400E+01	  0.084529065	8.978700E+01	  0.084529065	4.984300E+01	  0.084529065	4.136000E+00
324	  0.084729463	-2.765000E+01	  0.084729463	9.305200E+01	  0.084729463	4.960900E+01	  0.084729463	4.113000E+00
325	  0.084929861	-2.714900E+01	  0.084929861	9.356900E+01	  0.084929861	4.953700E+01	  0.084929861	4.349000E+00
326	  0.085130267	-2.656000E+01	  0.085130267	9.604600E+01	  0.085130267	4.929200E+01	  0.085130267	4.616000E+00
327	  0.085330658	-2.626600E+01	  0.085330658	9.584200E+01	  0.085330658	4.927700E+01	  0.085330658	4.776000E+00
328	  0.085531056	-2.568800E+01	  0.085531056	9.696700E+01	  0.085531056	4.911300E+01	  0.085531056	5.078000E+00
329	  0.085731462	-2.522100E+01	  0.085731462	9.764500E+01	  0.085731462	4.898700E+01	  0.085731462	5.339000E+00
330	  0.085931860	-2.488600E+01	  0.085931860	9.811500E+01	  0.085931860	4.889200E+01	  0.085931860	5.533000E+00
331	  0.086132258	-2.447600E+01	  0.086132258	9.835800E+01	  0.086132258	4.880000E+01	  0.086132258	5.788000E+00
332	  0.086332664	-2.406500E+01	  0.086332664	9.683900E+01	  0.086332664	4.888300E+01	  0.086332664	6.102000E+00
333	  0.086533062	-2.365300E+01	  0.086533062	9.779100E+01	  0.086533062	4.870700E+01	  0.086533062	6.365000E+00
334	  0.086733460	-2.310100E+01	  0.086733460	9.568900E+01	  0.086733460	4.883800E+01	  0.086733460	6.834000E+00
335	  0.086933866	-2.269700E+01	  0.086933866	9.633300E+01	  0.086933866	4.868200E+01	  0.086933866	7.132000E+00
336	  0.087134264	-2.212700E+01	  0.087134264	9.498200E+01	  0.087134264	4.873200E+01	  0.087134264	7.647000E+00
337	  0.087334670	-2.186200E+01	  0.087334670	9.428300E+01	  0.087334670	4.876800E+01	  0.087334670	7.900000E+00
338	  0.087535068	-2.135600E+01	  0.087535068	9.200900E+01	  0.087535068	4.898100E+01	  0.087535068	8.436000E+00
339	  0.087735467	-2.105600E+01	  0.087735467	9.124800E+01	  0.087735467	4.903400E+01	  0.087735467	8.749000E+00
340	  0.087935872	-2.063500E+01	  0.087935872	8.905000E+01	  0.087935872	4.929300E+01	  0.087935872	9.242000E+00
341	  0.088136271	-2.026200E+01	  0.088136271	8.828900E+01	  0.088136271	4.935000E+01	  0.088136271	9.662000E+00
342	  0.088336669	-1.993000E+01	  0.088336669	8.543000E+01	  0.088336669	4.978500E+01	  0.088336669	1.010700E+01
343	  0.088537075	-1.965700E+01	  0.088537075	8.364900E+01	  0.088537075	5.006900E+01	  0.088537075	1.046500E+01
344	  0.088737473	-1.933500E+01	  0.088737473	8.101300E+01	  0.088737473	5.053200E+01	  0.088737473	1.090300E+01
345	  0.088937871	-1.904500E+01	  0.088937871	7.880800E+01	  0.088937871	5.094900E+01	  0.088937871	1.129800E+01
346	  0.089138277	-1.883000E+01	  0.089138277	7.715900E+01	  0.089138277	5.128200E+01	  0.089138277	1.159300E+01
347	  0.089338675	-1.868000E+01	  0.089338675	7.501500E+01	  0.089338675	5.173500E+01	  0.089338675	1.179500E+01
348	  0.089539073	-1.840600E+01	  0.089539073	7.211000E+01	  0.089539073	5.238900E+01	  0.089539073	1.215400E+01
349	  0.089739479	-1.816300E+01	  0.089739479	7.037900E+01	  0.089739479	5.281200E+01	  0.089739479	1.248200E+01
350	  0.089939877	-1.803900E+01	  0.089939877	6.792300E+01	  0.089939877	5.340700E+01	  0.089939877	1.260200E+01
351	  0.090140276	-1.787300E+01	  0.090140276	6.579000E+01	  0.090140276	5.395600E+01	  0.090140276	1.278100E+01
352	  0.090340681	-1.794000E+01	  0.090340681	6.338000E+01	  0.090340681	5.451200E+01	  0.090340681	1.255700E+01
353	  0.090541080	-1.773600E+01	  0.090541080	6.087800E+01	  0.090541080	5.520000E+01	  0.090541080	1.273000E+01
354	  0.090741485	-1.762300E+01	  0.090741485	5.864500E+01	  0.090741485	5.580600E+01	  0.090741485	1.275000E+01
355	  0.090941884	-1.756600E+01	  0.090941884	5.683100E+01	  0.090941884	5.628900E+01	  0.090941884	1.269300E+01
356	  0.091142282	-1.742200E+01	  0.091142282	5.425500E+01	  0.091142282	5.702600E+01	  0.091142282	1.268400E+01
357	  0.091342688	-1.742400E+01	  0.091342688	5.247700E+01	  0.091342688	5.747200E+01	  0.091342688	1.248900E+01
358	  0.091543086	-1.744400E+01	  0.091543086	5.082500E+01	  0.091543086	5.786800E+01	  0.091543086	1.226100E+01
359	  0.091743484	-1.733800E+01	  0.091743484	4.867200E+01	  0.091743484	5.849300E+01	  0.091743484	1.215900E+01
360	  0.091943890	-1.728200E+01	  0.091943890	4.697300E+01	  0.091943890	5.896500E+01	  0.091943890	1.201300E+01
361	  0.092144288	-1.734000E+01	  0.092144288	4.475400E+01	  0.092144288	5.944900E+01	  0.092144288	1.158400E+01
362	  0.092344686	-1.732100E+01	  0.092344686	4.321500E+01	  0.092344686	5.983600E+01	  0.092344686	1.136400E+01
363	  0.092545092	-1.724500E+01	  0.092545092	4.145000E+01	  0.092545092	6.034000E+01	  0.092545092	1.118000E+01
364	  0.092745490	-1.725000E+01	  0.092745490	3.991900E+01	  0.092745490	6.069100E+01	  0.092745490	1.089500E+01
365	  0.092945889	-1.724300E+01	  0.092945889	3.828100E+01	  0.092945889	6.107300E+01	  0.092945889	1.059200E+01
366	  0.093146294	-1.731600E+01	  0.093146294	3.597400E+01	  0.093146294	6.148600E+01	  0.093146294	1.002400E+01
367	  0.093346693	-1.717100E+01	  0.093346693	3.395400E+01	  0.093346693	6.212100E+01	  0.093346693	9.797000E+00
368	  0.093547091	-1.727800E+01	  0.093547091	3.293400E+01	  0.093547091	6.217800E+01	  0.093547091	9.425000E+00
369	  0.093747497	-1.724000E+01	  0.093747497	3.127600E+01	  0.093747497	6.257000E+01	  0.093747497	9.098000E+00
370	  0.093947895	-1.721800E+01	  0.093947895	2.969800E+01	  0.093947895	6.291300E+01	  0.093947895	8.752000E+00
371	  0.094148301	-1.731000E+01	  0.094148301	2.862000E+01	  0.094148301	6.296800E+01	  0.094148301	8.377000E+00
372	  0.094348699	-1.729500E+01	  0.094348699	2.682600E+01	  0.094348699	6.331500E+01	  0.094348699	7.950000E+00
373	  0.094549097	-1.737000E+01	  0.094549097	2.500500E+01	  0.094549097	6.349800E+01	  0.094549097	7.401000E+00
374	  0.094749503	-1.730500E+01	  0.094749503	2.316700E+01	  0.094749503	6.390600E+01	  0.094749503	6.987000E+00
375	  0.094949901	-1.736000E+01	  0.094949901	2.213500E+01	  0.094949901	6.396600E+01	  0.094949901	6.654000E+00
376	  0.095150299	-1.737500E+01	  0.095150299	2.055500E+01	  0.095150299	6.416500E+01	  0.095150299	6.208000E+00
377	  0.095350705	-1.747600E+01	  0.095350705	1.923100E+01	  0.095350705	6.415800E+01	  0.095350705	5.754000E+00
378	  0.095551103	-1.753200E+01	  0.095551103	1.826400E+01	  0.095551103	6.417800E+01	  0.095551103	5.440000E+00
379	  0.095751502	-1.744700E+01	  0.095751502	1.616200E+01	  0.095751502	6.458100E+01	  0.095751502	4.912000E+00
380	  0.095951907	-1.742700E+01	  0.095951907	1.533800E+01	  0.095951907	6.470900E+01	  0.095951907	4.688000E+00
381	  0.096152306	-1.754000E+01	  0.096152306	1.391400E+01	  0.096152306	6.463500E+01	  0.096152306	4.200000E+00
382	  0.096352704	-1.752800E+01	  0.096352704	1.262500E+01	  0.096352704	6.477400E+01	  0.096352704	3.831000E+00
383	  0.096553110	-1.762800E+01	  0.096553110	1.110200E+01	  0.096553110	6.470400E+01	  0.096553110	3.331000E+00
384	  0.096753508	-1.763000E+01	  0.096753508	9.955000E+00	  0.096753508	6.478400E+01	  0.096753508	2.994000E+00
385	  0.096953906	-1.768400E+01	  0.096953906	8.509000E+00	  0.096953906	6.476800E+01	  0.096953906	2.545000E+00
386	  0.097154312	-1.780000E+01	  0.097154312	6.774000E+00	  0.097154312	6.463200E+01	  0.097154312	1.997000E+00
387	  0.097354710	-1.780300E+01	  0.097354710	6.383000E+00	  0.097354710	6.464400E+01	  0.097354710	1.882000E+00
388	  0.097555116	-1.776400E+01	  0.097555116	5.005000E+00	  0.097555116	6.477300E+01	  0.097555116	1.486000E+00
389	  0.097755514	-1.777200E+01	  0.097755514	3.474000E+00	  0.097755514	6.480000E+01	  0.097755514	1.032000E+00
390	  0.097955912	-1.787600E+01	  0.097955912	2.185000E+00	  0.097955912	6.462300E+01	  0.097955912	6.390000E-01
391	  0.098156318	-1.791600E+01	  0.098156318	1.427000E+00	  0.098156318	6.455500E+01	  0.098156318	4.150000E-01
392	  0.098356716	-1.797800E+01	  0.098356716	8.200000E-02	  0.098356716	6.444400E+01	  0.098356716	2.300000E-02
393	  0.098557115	-1.806600E+01	  0.098557115	-1.879000E+00	  0.098557115	6.426600E+01	  0.098557115	-5.350000E-01
394	  0.098757520	-1.804600E+01	  0.098757520	-2.409000E+00	  0.098757520	6.429600E+01	  0.098757520	-6.870000E-01
395	  0.098957919	-1.811200E+01	  0.098957919	-3.847000E+00	  0.098957919	6.414300E+01	  0.098957919	-1.086000E+00
396	  0.099158317	-1.815600E+01	  0.099158317	-4.841000E+00	  0.099158317	6.403500E+01	  0.099158317	-1.357000E+00
397	  0.099358723	-1.809600E+01	  0.099358723	-6.059000E+00	  0.099358723	6.410500E+01	  0.099358723	-1.711000E+00
398	  0.099559121	-1.827500E+01	  0.099559121	-7.654000E+00	  0.099559121	6.371100E+01	  0.099559121	-2.101000E+00
399	  0.099759519	-1.826900E+01	  0.099759519	-8.806000E+00	  0.099759519	6.366200E+01	  0.099759519	-2.414000E+00
400	  0.099959925	-1.820400E+01	  0.099959925	-9.992000E+00	  0.099959925	6.371000E+01	  0.099959925	-2.760000E+00
401	  0.100160323	-1.833500E+01	  0.100160323	-1.063300E+01	  0.100160323	6.343900E+01	  0.100160323	-2.878000E+00
402	  0.100360721	-1.836700E+01	  0.100360721	-1.188500E+01	  0.100360721	6.330000E+01	  0.100360721	-3.193000E+00
403	  0.100561127	-1.843600E+01	  0.100561127	-1.303300E+01	  0.100561127	6.309700E+01	  0.100561127	-3.456000E+00
404	  0.100761525	-1.855900E+01	  0.100761525	-1.455900E+01	  0.100761525	6.277200E+01	  0.100761525	-3.778000E+00
405	  0.100961931	-1.844100E+01	  0.100961931	-1.539100E+01	  0.100961931	6.289400E+01	  0.100961931	-4.052000E+00
406	  0.101162329	-1.865700E+01	  0.101162329	-1.551100E+01	  0.101162329	6.253200E+01	  0.101162329	-3.957000E+00
407	  0.101362728	-1.875800E+01	  0.101362728	-1.826500E+01	  0.101362728	6.211800E+01	  0.101362728	-4.552000E+00
408	  0.101563133	-1.877600E+01	  0.101563133	-1.846300E+01	  0.101563133	6.207000E+01	  0.101563133	-4.586000E+00
409	  0.101763532	-1.865500E+01	  0.101763532	-1.957700E+01	  0.101763532	6.214100E+01	  0.101763532	-4.928000E+00
410	  0.101963930	-1.875200E+01	  0.101963930	-2.103100E+01	  0.101963930	6.183500E+01	  0.101963930	-5.193000E+00
411	  0.102164336	-1.890400E+01	  0.102164336	-2.176200E+01	  0.102164336	6.153000E+01	  0.102164336	-5.243000E+00
412	  0.102364734	-1.905200E+01	  0.102364734	-2.285000E+01	  0.102364734	6.119500E+01	  0.102364734	-5.367000E+00
413	  0.102565132	-1.898600E+01	  0.102565132	-2.373900E+01	  0.102565132	6.118300E+01	  0.102565132	-5.606000E+00
414	  0.102765530	-1.889000E+01	  0.102765530	-2.461700E+01	  0.102765530	6.120900E+01	  0.102765530	-5.870000E+00
415	  0.102965929	-1.912700E+01	  0.102965929	-2.615600E+01	  0.102965929	6.069400E+01	  0.102965929	-5.989000E+00
416	  0.103166327	-1.907900E+01	  0.103166327	-2.719700E+01	  0.103166327	6.062100E+01	  0.103166327	-6.237000E+00
417	  0.103366733	-1.906000E+01	  0.103366733	-2.903300E+01	  0.103366733	6.039600E+01	  0.103366733	-6.613000E+00
418	  0.103567131	-1.925000E+01	  0.103567131	-2.864400E+01	  0.103567131	6.021100E+01	  0.103567131	-6.368000E+00
419	  0.103767529	-1.940600E+01	  0.103767529	-2.981000E+01	  0.103767529	5.986300E+01	  0.103767529	-6.446000E+00
420	  0.103967935	-1.922900E+01	  0.103967935	-3.197900E+01	  0.103967935	5.976800E+01	  0.103967935	-7.001000E+00
421	  0.104168333	-1.941400E+01	  0.104168333	-3.224300E+01	  0.104168333	5.951600E+01	  0.104168333	-6.872000E+00
422	  0.104368731	-1.952200E+01	  0.104368731	-3.425600E+01	  0.104368731	5.910400E+01	  0.104368731	-7.109000E+00
423	  0.104569137	-1.960100E+01	  0.104569137	-3.380600E+01	  0.104569137	5.908400E+01	  0.104569137	-6.959000E+00
424	  0.104769535	-1.958100E+01	  0.104769535	-3.559500E+01	  0.104769535	5.884300E+01	  0.104769535	-7.268000E+00
425	  0.104969934	-1.964800E+01	  0.104969934	-3.621400E+01	  0.104969934	5.868100E+01	  0.104969934	-7.299000E+00
426	  0.105170339	-1.972200E+01	  0.105170339	-3.762100E+01	  0.105170339	5.839500E+01	  0.105170339	-7.440000E+00
427	  0.105370738	-1.979000E+01	  0.105370738	-3.862900E+01	  0.105370738	5.817600E+01	  0.105370738	-7.520000E+00
428	  0.105571143	-1.981000E+01	  0.105571143	-3.909200E+01	  0.105571143	5.808600E+01	  0.105571143	-7.566000E+00
429	  0.105771542	-1.990200E+01	  0.105771542	-4.184200E+01	  0.105771542	5.757400E+01	  0.105771542	-7.848000E+00
430	  0.105971940	-2.001800E+01	  0.105971940	-4.165300E+01	  0.105971940	5.750400E+01	  0.105971940	-7.703000E+00
431	  0.106172346	-1.981600E+01	  0.106172346	-4.322800E+01	  0.106172346	5.742600E+01	  0.106172346	-8.118000E+00
432	  0.106372744	-2.008900E+01	  0.106372744	-4.437000E+01	  0.106372744	5.702000E+01	  0.106372744	-7.971000E+00
433	  0.106573142	-2.006200E+01	  0.106573142	-4.576900E+01	  0.106573142	5.681600E+01	  0.106573142	-8.164000E+00
434	  0.106773548	-1.997400E+01	  0.106773548	-4.627300E+01	  0.106773548	5.680100E+01	  0.106773548	-8.317000E+00
435	  0.106973946	-2.020600E+01	  0.106973946	-4.851900E+01	  0.106973946	5.626500E+01	  0.106973946	-8.311000E+00
436	  0.107174344	-2.032400E+01	  0.107174344	-4.865200E+01	  0.107174344	5.616300E+01	  0.107174344	-8.198000E+00
437	  0.107374750	-2.033100E+01	  0.107374750	-4.826000E+01	  0.107374750	5.622100E+01	  0.107374750	-8.151000E+00
438	  0.107575148	-2.033600E+01	  0.107575148	-4.886600E+01	  0.107575148	5.612000E+01	  0.107575148	-8.208000E+00
439	  0.107775547	-2.041800E+01	  0.107775547	-5.120700E+01	  0.107775547	5.569000E+01	  0.107775547	-8.348000E+00
440	  0.107975952	-2.046000E+01	  0.107975952	-5.193900E+01	  0.107975952	5.554500E+01	  0.107975952	-8.370000E+00
441	  0.108176351	-2.062200E+01	  0.108176351	-5.232700E+01	  0.108176351	5.538800E+01	  0.108176351	-8.233000E+00
442	  0.108376749	-2.065800E+01	  0.108376749	-5.410800E+01	  0.108376749	5.508400E+01	  0.108376749	-8.344000E+00
443	  0.108577155	-2.081400E+01	  0.108577155	-5.568200E+01	  0.108577155	5.475200E+01	  0.108577155	-8.303000E+00
444	  0.108777553	-2.073400E+01	  0.108777553	-5.695800E+01	  0.108777553	5.458700E+01	  0.108777553	-8.481000E+00
445	  0.108977959	-2.070300E+01	  0.108977959	-5.708400E+01	  0.108977959	5.458000E+01	  0.108977959	-8.523000E+00
446	  0.109178357	-2.091300E+01	  0.109178357	-5.748100E+01	  0.109178357	5.442000E+01	  0.109178357	-8.329000E+00
447	  0.109378755	-2.101800E+01	  0.109378755	-5.985000E+01	  0.109378755	5.400100E+01	  0.109378755	-8.372000E+00
448	  0.109579161	-2.091400E+01	  0.109579161	-6.032000E+01	  0.109579161	5.396700E+01	  0.109579161	-8.508000E+00
449	  0.109779559	-2.103300E+01	  0.109779559	-6.073600E+01	  0.109779559	5.385500E+01	  0.109779559	-8.408000E+00
450	  0.109979957	-2.098400E+01	  0.109979957	-6.263700E+01	  0.109979957	5.357000E+01	  0.109979957	-8.563000E+00
451	  0.110180363	-2.121300E+01	  0.110180363	-6.438600E+01	  0.110180363	5.322000E+01	  0.110180363	-8.410000E+00
452	  0.110380761	-2.133000E+01	  0.110380761	-6.247400E+01	  0.110380761	5.347900E+01	  0.110380761	-8.198000E+00
453	  0.110581160	-2.139700E+01	  0.110581160	-6.561200E+01	  0.110581160	5.297800E+01	  0.110581160	-8.276000E+00
454	  0.110781565	-2.154400E+01	  0.110781565	-6.690500E+01	  0.110781565	5.274300E+01	  0.110781565	-8.180000E+00
455	  0.110981964	-2.133700E+01	  0.110981964	-6.722700E+01	  0.110981964	5.274500E+01	  0.110981964	-8.400000E+00
456	  0.111182362	-2.164300E+01	  0.111182362	-6.757800E+01	  0.111182362	5.261900E+01	  0.111182362	-8.106000E+00
457	  0.111382768	-2.153900E+01	  0.111382768	-6.871600E+01	  0.111382768	5.247100E+01	  0.111382768	-8.247000E+00
458	  0.111583166	-2.186000E+01	  0.111583166	-6.898100E+01	  0.111583166	5.236500E+01	  0.111583166	-7.943000E+00
459	  0.111783572	-2.162800E+01	  0.111783572	-7.226200E+01	  0.111783572	5.192200E+01	  0.111783572	-8.256000E+00
460	  0.111983970	-2.169700E+01	  0.111983970	-7.292900E+01	  0.111983970	5.181300E+01	  0.111983970	-8.202000E+00
461	  0.112184368	-2.173500E+01	  0.112184368	-7.517700E+01	  0.112184368	5.147600E+01	  0.112184368	-8.205000E+00
462	  0.112384774	-2.178800E+01	  0.112384774	-7.421800E+01	  0.112384774	5.161100E+01	  0.112384774	-8.138000E+00
463	  0.112585172	-2.188900E+01	  0.112585172	-7.541200E+01	  0.112585172	5.142700E+01	  0.112585172	-8.060000E+00
464	  0.112785570	-2.212400E+01	  0.112785570	-7.676800E+01	  0.112785570	5.121500E+01	  0.112785570	-7.855000E+00
465	  0.112985976	-2.205000E+01	  0.112985976	-7.917800E+01	  0.112985976	5.087900E+01	  0.112985976	-7.942000E+00
466	  0.113186374	-2.214300E+01	  0.113186374	-7.888900E+01	  0.113186374	5.091700E+01	  0.113186374	-7.855000E+00
467	  0.113386773	-2.199500E+01	  0.113386773	-8.024400E+01	  0.113386773	5.073000E+01	  0.113386773	-7.997000E+00
468	  0.113587178	-2.241900E+01	  0.113587178	-7.966200E+01	  0.113587178	5.080200E+01	  0.113587178	-7.608000E+00
469	  0.113787577	-2.210400E+01	  0.113787577	-8.150900E+01	  0.113787577	5.055200E+01	  0.113787577	-7.897000E+00
470	  0.113987975	-2.233900E+01	  0.113987975	-8.310100E+01	  0.113987975	5.033800E+01	  0.113987975	-7.679000E+00
471	  0.114188381	-2.246600E+01	  0.114188381	-8.367000E+01	  0.114188381	5.026600E+01	  0.114188381	-7.564000E+00
472	  0.114388779	-2.256100E+01	  0.114388779	-8.638100E+01	  0.114388779	4.991500E+01	  0.114388779	-7.460000E+00
473	  0.114589177	-2.240400E+01	  0.114589177	-8.587800E+01	  0.114589177	4.996900E+01	  0.114589177	-7.601000E+00
474	  0.114789583	-2.251900E+01	  0.114789583	-8.811700E+01	  0.114789583	4.968600E+01	  0.114789583	-7.472000E+00
475	  0.114989981	-2.276300E+01	  0.114989981	-8.837300E+01	  0.114989981	4.967700E+01	  0.114989981	-7.263000E+00
476	  0.115190387	-2.281400E+01	  0.115190387	-8.991900E+01	  0.115190387	4.948900E+01	  0.115190387	-7.196000E+00
477	  0.115390785	-2.291300E+01	  0.115390785	-9.010700E+01	  0.115390785	4.947800E+01	  0.115390785	-7.112000E+00
478	  0.115591183	-2.271500E+01	  0.115591183	-9.192800E+01	  0.115591183	4.922600E+01	  0.115591183	-7.236000E+00
479	  0.115791589	-2.296700E+01	  0.115791589	-9.234700E+01	  0.115791589	4.921200E+01	  0.115791589	-7.023000E+00
480	  0.115991987	-2.302600E+01	  0.115991987	-9.374800E+01	  0.115991987	4.905300E+01	  0.115991987	-6.943000E+00
481	  0.116192386	-2.280900E+01	  0.116192386	-9.566500E+01	  0.116192386	4.878500E+01	  0.116192386	-7.063000E+00
482	  0.116392791	-2.315400E+01	  0.116392791	-9.687200E+01	  0.116392791	4.871100E+01	  0.116392791	-6.759000E+00
483	  0.116593190	-2.327200E+01	  0.116593190	-9.627600E+01	  0.116593190	4.880200E+01	  0.116593190	-6.687000E+00
484	  0.116793588	-2.332800E+01	  0.116793588	-9.792500E+01	  0.116793588	4.862700E+01	  0.116793588	-6.596000E+00
485	  0.116993994	-2.330300E+01	  0.116993994	-9.771000E+01	  0.116993994	4.864600E+01	  0.116993994	-6.621000E+00
486	  0.117194392	-2.351100E+01	  0.117194392	-1.008500E+02	  0.117194392	4.834700E+01	  0.117194392	-6.366000E+00
487	  0.117394790	-2.353800E+01	  0.117394790	-1.020980E+02	  0.117394790	4.822000E+01	  0.117394790	-6.302000E+00
488	  0.117595196	-2.360200E+01	  0.117595196	-1.014240E+02	  0.117595196	4.830700E+01	  0.117595196	-6.282000E+00
489	  0.117795594	-2.343300E+01	  0.117795594	-1.038050E+02	  0.117795594	4.801200E+01	  0.117795594	-6.308000E+00
490	  0.117995992	-2.360300E+01	  0.117995992	-1.040980E+02	  0.117995992	4.802700E+01	  0.117995992	-6.179000E+00
491	  0.118196398	-2.341900E+01	  0.118196398	-1.057330E+02	  0.118196398	4.780500E+01	  0.118196398	-6.236000E+00
492	  0.118396796	-2.379300E+01	  0.118396796	-1.052880E+02	  0.118396796	4.795700E+01	  0.118396796	-6.002000E+00
493	  0.118597202	-2.367900E+01	  0.118597202	-1.087540E+02	  0.118597202	4.757800E+01	  0.118597202	-5.924000E+00
494	  0.118797600	-2.371600E+01	  0.118797600	-1.096660E+02	  0.118797600	4.750100E+01	  0.118797600	-5.856000E+00
495	  0.118997999	-2.401500E+01	  0.118997999	-1.096160E+02	  0.118997999	4.759900E+01	  0.118997999	-5.670000E+00
496	  0.119198404	-2.379300E+01	  0.119198404	-1.108650E+02	  0.119198404	4.741100E+01	  0.119198404	-5.749000E+00
497	  0.119398803	-2.389000E+01	  0.119398803	-1.124810E+02	  0.119398803	4.729100E+01	  0.119398803	-5.607000E+00
498	  0.119599201	-2.401000E+01	  0.119599201	-1.124250E+02	  0.119599201	4.733700E+01	  0.119599201	-5.537000E+00
499	  0.119799607	-2.419900E+01	  0.119799607	-1.154680E+02	  0.119799607	4.713100E+01	  0.119799607	-5.267000E+00
500	  0.120000005	-2.417700E+01	  0.120000005	-1.164770E+02	  0.120000005	4.703600E+01	  0.120000005	-5.225000E+00
