! Anritsu VNA Master:             	Model: MS2036C/10/77
! SN:             	1601066
! /card0/usr/18may12.lna.rl/255a.lna.rl.redo.txt
! Existing Calibration Information:
! TYPE:             	Current Settings	Active Cal Settings
! TIME:             	05/13/2018 12:25:36 PM	05/13/2018 12:19:54 PM
! INTERNAL TEMP:    	50.0 C	49.5 C
! # POINTS:         	500	500
! START FREQ:       	20.000 MHz	20.000 MHz
! STOP FREQ:        	120.000 MHz	120.000 MHz
! SOURCE POWER:     	Low	Low
! IFBW:             	10 Hz	10 Hz
! AVG FACTOR:       	  1 	  1 
! REF PLANE 1:      	0 mm	0 mm
! REF PLANE 2:      	0 mm	0 mm
! CAL TYPE:         	Full S22	Full S22
! CAL METHOD:       	SOLT	SOLT
! CAL LINE TYPE:    	Coax	Coax
! DUT PORT 1:       	K-Conn(M)	K-Conn(M)
! DUT PORT 2:       	K-Conn(M)	K-Conn(M)
! CAL STATUS:       	OK: Accuracy High	--
! PROP-V:       	0.700
! CABLE LOSS:       	0.000 dB/m
! REF IMPEDANCE:       	50.0
! Trace Specific Parameters:	TR1	TR2	TR3	TR4
! TRACE.#.Y (GRAPH TYPE)	LOG MAG	PHASE	REAL IMPEDANCE	IMAGINARY IMPEDANCE
! TRACE.#.X 	FREQ.GHZ	FREQ.GHZ	FREQ.GHZ	FREQ.GHZ
! S-PARAMETER	S22	S22	S22	S22
! SMOOTH/APERTURE %	0	0	0	0
! WINDOW	NSL	NSL	NSL	NSL
! GATING	OFF	OFF	OFF	OFF
! FGTD	OFF	OFF	OFF	OFF
Marker Information per Trace:	TR1	TR2	TR3	TR4
!MK1	--	"MK1 TR2:  12.384 769 MHz,##.##"	--	--
!MK2	--	--	"MK2 TR3:  20.000 MHz,Z:(58.918 ohm, 5.028 ohm)"	--
!MK3	--	--	--	--
!MK4	--	--	--	--
!MK5	--	--	--	--
!MK6	--	--	--	--
!MK7	--	--	--	--
!MK8	--	--	--	--
PNT	TR1.FREQ.GHZ	TR1.LOG MAG.dB	TR2.FREQ.GHZ	TR2.PHASE.deg	TR3.FREQ.GHZ	TR3.REAL IMPEDANCE.ohm	TR4.FREQ.GHZ	TR4.IMAGINARY IMPEDANCE.ohm
1	  0.020000000	-2.054700E+01	  0.020000000	2.677000E+01	  0.020000000	5.891800E+01	  0.020000000	5.027000E+00
2	  0.020200402	-2.049700E+01	  0.020200402	2.386200E+01	  0.020200402	5.926100E+01	  0.020200402	4.568000E+00
3	  0.020400802	-2.042800E+01	  0.020400802	2.125800E+01	  0.020400802	5.957700E+01	  0.020400802	4.149000E+00
4	  0.020601204	-2.034300E+01	  0.020601204	1.897300E+01	  0.020601204	5.986900E+01	  0.020601204	3.777000E+00
5	  0.020801604	-2.027900E+01	  0.020801604	1.680300E+01	  0.020801604	6.011200E+01	  0.020801604	3.397000E+00
6	  0.021002004	-2.029100E+01	  0.021002004	1.406100E+01	  0.021002004	6.027600E+01	  0.021002004	2.858000E+00
7	  0.021202406	-2.022700E+01	  0.021202406	1.129400E+01	  0.021202406	6.051200E+01	  0.021202406	2.330000E+00
8	  0.021402806	-2.013700E+01	  0.021402806	9.415000E+00	  0.021402806	6.071900E+01	  0.021402806	1.974000E+00
9	  0.021603208	-2.014100E+01	  0.021603208	5.975000E+00	  0.021603208	6.083200E+01	  0.021603208	1.258000E+00
10	  0.021803608	-2.011400E+01	  0.021803608	3.039000E+00	  0.021803608	6.092800E+01	  0.021803608	6.430000E-01
11	  0.022004008	-1.996300E+01	  0.022004008	1.650000E-01	  0.022004008	6.116200E+01	  0.022004008	3.500000E-02
12	  0.022204408	-2.000200E+01	  0.022204408	-1.755000E+00	  0.022204408	6.110000E+01	  0.022204408	-3.780000E-01
13	  0.022404809	-1.996700E+01	  0.022404809	-5.408000E+00	  0.022404809	6.109000E+01	  0.022404809	-1.167000E+00
14	  0.022605211	-1.985900E+01	  0.022605211	-7.911000E+00	  0.022605211	6.116600E+01	  0.022605211	-1.729000E+00
15	  0.022805611	-1.987900E+01	  0.022805611	-1.043600E+01	  0.022805611	6.103000E+01	  0.022805611	-2.265000E+00
16	  0.023006011	-1.982900E+01	  0.023006011	-1.406100E+01	  0.023006011	6.089400E+01	  0.023006011	-3.049000E+00
17	  0.023206413	-1.979900E+01	  0.023206413	-1.662700E+01	  0.023206413	6.075400E+01	  0.023206413	-3.595000E+00
18	  0.023406813	-1.974500E+01	  0.023406813	-2.049800E+01	  0.023406813	6.049900E+01	  0.023406813	-4.410000E+00
19	  0.023607215	-1.967300E+01	  0.023607215	-2.361700E+01	  0.023607215	6.028100E+01	  0.023607215	-5.069000E+00
20	  0.023807615	-1.958400E+01	  0.023807615	-2.646300E+01	  0.023807615	6.007100E+01	  0.023807615	-5.679000E+00
21	  0.024008015	-1.962700E+01	  0.024008015	-3.031000E+01	  0.024008015	5.953600E+01	  0.024008015	-6.341000E+00
22	  0.024208417	-1.965000E+01	  0.024208417	-3.359500E+01	  0.024208417	5.906100E+01	  0.024208417	-6.879000E+00
23	  0.024408817	-1.957400E+01	  0.024408817	-3.703400E+01	  0.024408817	5.863200E+01	  0.024408817	-7.500000E+00
24	  0.024609219	-1.949200E+01	  0.024609219	-4.141700E+01	  0.024609219	5.800900E+01	  0.024609219	-8.228000E+00
25	  0.024809619	-1.951000E+01	  0.024809619	-4.575200E+01	  0.024809619	5.725200E+01	  0.024809619	-8.776000E+00
26	  0.025010020	-1.949500E+01	  0.025010020	-4.908100E+01	  0.025010020	5.666900E+01	  0.025010020	-9.180000E+00
27	  0.025210422	-1.944900E+01	  0.025210422	-5.390900E+01	  0.025210422	5.580300E+01	  0.025210422	-9.719000E+00
28	  0.025410822	-1.934300E+01	  0.025410822	-5.832800E+01	  0.025410822	5.500800E+01	  0.025410822	-1.021600E+01
29	  0.025611224	-1.958100E+01	  0.025611224	-6.334200E+01	  0.025611224	5.393400E+01	  0.025611224	-1.022800E+01
30	  0.025811624	-1.951100E+01	  0.025811624	-6.854700E+01	  0.025811624	5.294400E+01	  0.025811624	-1.054200E+01
31	  0.026012026	-1.958400E+01	  0.026012026	-7.407700E+01	  0.026012026	5.186400E+01	  0.026012026	-1.057900E+01
32	  0.026212426	-1.960600E+01	  0.026212426	-7.926100E+01	  0.026212426	5.087900E+01	  0.026212426	-1.057600E+01
33	  0.026412826	-1.972600E+01	  0.026412826	-8.557200E+01	  0.026412826	4.973000E+01	  0.026412826	-1.034400E+01
34	  0.026613226	-1.988200E+01	  0.026613226	-9.138500E+01	  0.026613226	4.874600E+01	  0.026613226	-9.981000E+00
35	  0.026813626	-2.008200E+01	  0.026813626	-9.793200E+01	  0.026813626	4.773500E+01	  0.026813626	-9.459000E+00
36	  0.027014028	-2.038800E+01	  0.027014028	-1.050680E+02	  0.027014028	4.678800E+01	  0.027014028	-8.720000E+00
37	  0.027214428	-2.067900E+01	  0.027214428	-1.118260E+02	  0.027214428	4.601400E+01	  0.027214428	-7.968000E+00
38	  0.027414829	-2.109400E+01	  0.027414829	-1.191480E+02	  0.027414829	4.536300E+01	  0.027414829	-7.040000E+00
39	  0.027615231	-2.150500E+01	  0.027615231	-1.264720E+02	  0.027615231	4.484600E+01	  0.027615231	-6.108000E+00
40	  0.027815631	-2.208600E+01	  0.027815631	-1.336410E+02	  0.027815631	4.457600E+01	  0.027815631	-5.105000E+00
41	  0.028016033	-2.283400E+01	  0.028016033	-1.416290E+02	  0.028016033	4.447600E+01	  0.028016033	-4.004000E+00
42	  0.028216433	-2.342200E+01	  0.028216433	-1.493730E+02	  0.028216433	4.441500E+01	  0.028216433	-3.065000E+00
43	  0.028416833	-2.419300E+01	  0.028416833	-1.569930E+02	  0.028416833	4.457500E+01	  0.028416833	-2.158000E+00
44	  0.028617235	-2.520200E+01	  0.028617235	-1.649720E+02	  0.028617235	4.494300E+01	  0.028617235	-1.284000E+00
45	  0.028817635	-2.616800E+01	  0.028817635	-1.720970E+02	  0.028817635	4.535300E+01	  0.028817635	-6.140000E-01
46	  0.029018037	-2.739700E+01	  0.029018037	-1.780300E+02	  0.029018037	4.590900E+01	  0.029018037	-1.340000E-01
47	  0.029218437	-2.845300E+01	  0.029218437	1.746080E+02	  0.029218437	4.637300E+01	  0.029218437	3.290000E-01
48	  0.029418837	-2.990200E+01	  0.029418837	1.674230E+02	  0.029418837	4.696800E+01	  0.029418837	6.540000E-01
49	  0.029619239	-3.110300E+01	  0.029619239	1.600710E+02	  0.029619239	4.744000E+01	  0.029619239	9.010000E-01
50	  0.029819639	-3.234700E+01	  0.029819639	1.545330E+02	  0.029819639	4.785700E+01	  0.029819639	9.930000E-01
51	  0.030020041	-3.388400E+01	  0.030020041	1.498160E+02	  0.030020041	4.827200E+01	  0.030020041	9.810000E-01
52	  0.030220442	-3.555300E+01	  0.030220442	1.427520E+02	  0.030220442	4.867900E+01	  0.030220442	9.830000E-01
53	  0.030420844	-3.708800E+01	  0.030420844	1.351430E+02	  0.030420844	4.900900E+01	  0.030420844	9.660000E-01
54	  0.030621244	-3.902400E+01	  0.030621244	1.300880E+02	  0.030621244	4.927700E+01	  0.030621244	8.430000E-01
55	  0.030821644	-4.027500E+01	  0.030821644	1.264210E+02	  0.030821644	4.942200E+01	  0.030821644	7.700000E-01
56	  0.031022044	-4.228600E+01	  0.031022044	1.099690E+02	  0.031022044	4.973300E+01	  0.031022044	7.180000E-01
57	  0.031222444	-4.587500E+01	  0.031222444	1.010690E+02	  0.031222444	4.989900E+01	  0.031222444	4.970000E-01
58	  0.031422846	-4.593000E+01	  0.031422846	1.050420E+02	  0.031422846	4.986600E+01	  0.031422846	4.860000E-01
59	  0.031623244	-4.905000E+01	  0.031623244	8.811700E+01	  0.031623244	5.001000E+01	  0.031623244	3.520000E-01
60	  0.031823646	-5.500700E+01	  0.031823646	8.057400E+01	  0.031823646	5.002800E+01	  0.031823646	1.750000E-01
61	  0.032024048	-6.099700E+01	  0.032024048	4.049800E+01	  0.032024048	5.006700E+01	  0.032024048	5.700000E-02
62	  0.032224450	-6.224700E+01	  0.032224450	2.582600E+01	  0.032224450	5.006900E+01	  0.032224450	3.300000E-02
63	  0.032424849	-5.437000E+01	  0.032424849	-6.378000E+00	  0.032424849	5.019000E+01	  0.032424849	-2.100000E-02
64	  0.032625251	-6.547200E+01	  0.032625251	1.490400E+01	  0.032625251	5.005100E+01	  0.032625251	1.300000E-02
65	  0.032825653	-5.177200E+01	  0.032825653	-1.163100E+01	  0.032825653	5.025300E+01	  0.032825653	-5.200000E-02
66	  0.033026051	-5.818900E+01	  0.033026051	-2.122500E+01	  0.033026051	5.011400E+01	  0.033026051	-4.400000E-02
67	  0.033226453	-5.582400E+01	  0.033226453	-6.279800E+01	  0.033226453	5.007300E+01	  0.033226453	-1.440000E-01
68	  0.033426855	-6.187200E+01	  0.033426855	-1.107700E+01	  0.033426855	5.007900E+01	  0.033426855	-1.500000E-02
69	  0.033627257	-5.247400E+01	  0.033627257	-4.760300E+01	  0.033627257	5.016000E+01	  0.033627257	-1.760000E-01
70	  0.033827655	-6.182700E+01	  0.033827655	2.455000E+00	  0.033827655	5.008100E+01	  0.033827655	3.000000E-03
71	  0.034028057	-6.164200E+01	  0.034028057	6.300000E-01	  0.034028057	5.008200E+01	  0.034028057	0.000000E+00
72	  0.034228459	-6.133100E+01	  0.034228459	-7.310800E+01	  0.034228459	5.002400E+01	  0.034228459	-8.200000E-02
73	  0.034428857	-7.599000E+01	  0.034428857	1.114830E+02	  0.034428857	4.999400E+01	  0.034428857	1.400000E-02
74	  0.034629259	-6.618200E+01	  0.034629259	-6.998000E+00	  0.034629259	5.004800E+01	  0.034629259	-5.000000E-03
75	  0.034829661	-6.616800E+01	  0.034829661	1.292460E+02	  0.034829661	4.996800E+01	  0.034829661	3.800000E-02
76	  0.035030060	-6.187700E+01	  0.035030060	8.450400E+01	  0.035030060	5.000700E+01	  0.035030060	8.000000E-02
77	  0.035230462	-6.039400E+01	  0.035230462	4.003500E+01	  0.035230462	5.007300E+01	  0.035230462	6.100000E-02
78	  0.035430863	-6.518100E+01	  0.035430863	4.422400E+01	  0.035430863	5.003900E+01	  0.035430863	3.800000E-02
79	  0.035631265	-6.386900E+01	  0.035631265	1.395160E+02	  0.035631265	4.995100E+01	  0.035631265	4.100000E-02
80	  0.035831664	-6.110500E+01	  0.035831664	1.044290E+02	  0.035831664	4.997700E+01	  0.035831664	8.500000E-02
81	  0.036032066	-5.519900E+01	  0.036032066	9.445500E+01	  0.036032066	4.998600E+01	  0.036032066	1.730000E-01
82	  0.036232468	-5.475700E+01	  0.036232468	6.356500E+01	  0.036232468	5.008100E+01	  0.036232468	1.640000E-01
83	  0.036432866	-5.487700E+01	  0.036432866	5.611100E+01	  0.036432866	5.010000E+01	  0.036432866	1.500000E-01
84	  0.036633268	-5.407900E+01	  0.036633268	3.379600E+01	  0.036633268	5.016400E+01	  0.036633268	1.100000E-01
85	  0.036833670	-4.904800E+01	  0.036833670	6.327600E+01	  0.036833670	5.015700E+01	  0.036833670	3.160000E-01
86	  0.037034072	-5.085500E+01	  0.037034072	5.115200E+01	  0.037034072	5.017900E+01	  0.037034072	2.230000E-01
87	  0.037234470	-5.229800E+01	  0.037234470	4.979400E+01	  0.037234470	5.015600E+01	  0.037234470	1.850000E-01
88	  0.037434869	-4.905500E+01	  0.037434869	5.544500E+01	  0.037434869	5.019900E+01	  0.037434869	2.910000E-01
89	  0.037635271	-5.001800E+01	  0.037635271	5.831500E+01	  0.037635271	5.016500E+01	  0.037635271	2.690000E-01
90	  0.037835669	-4.922700E+01	  0.037835669	5.264200E+01	  0.037835669	5.020900E+01	  0.037835669	2.750000E-01
91	  0.038036071	-4.962100E+01	  0.038036071	4.906700E+01	  0.038036071	5.021600E+01	  0.038036071	2.500000E-01
92	  0.038236473	-4.874200E+01	  0.038236473	3.602500E+01	  0.038236473	5.029500E+01	  0.038236473	2.160000E-01
93	  0.038436871	-4.852600E+01	  0.038436871	4.242600E+01	  0.038436871	5.027600E+01	  0.038436871	2.540000E-01
94	  0.038637273	-4.991000E+01	  0.038637273	5.964000E+01	  0.038637273	5.016000E+01	  0.038637273	2.760000E-01
95	  0.038837675	-4.834600E+01	  0.038837675	4.639200E+01	  0.038837675	5.026300E+01	  0.038837675	2.780000E-01
96	  0.039038073	-4.974800E+01	  0.039038073	4.047600E+01	  0.039038073	5.024700E+01	  0.039038073	2.120000E-01
97	  0.039238475	-4.793200E+01	  0.039238475	3.886100E+01	  0.039238475	5.031200E+01	  0.039238475	2.530000E-01
98	  0.039438877	-5.222300E+01	  0.039438877	4.039000E+01	  0.039438877	5.018600E+01	  0.039438877	1.590000E-01
99	  0.039639279	-4.906600E+01	  0.039639279	2.344700E+01	  0.039639279	5.032300E+01	  0.039639279	1.410000E-01
100	  0.039839678	-4.832500E+01	  0.039839678	4.752000E+01	  0.039839678	5.025800E+01	  0.039839678	2.840000E-01
101	  0.040040080	-4.902800E+01	  0.040040080	4.752700E+01	  0.040040080	5.023800E+01	  0.040040080	2.620000E-01
102	  0.040240481	-4.664800E+01	  0.040240481	4.690000E+01	  0.040240481	5.031700E+01	  0.040240481	3.410000E-01
103	  0.040440880	-5.126700E+01	  0.040440880	4.096500E+01	  0.040440880	5.020600E+01	  0.040440880	1.790000E-01
104	  0.040641282	-4.805400E+01	  0.040641282	2.571200E+01	  0.040641282	5.035700E+01	  0.040641282	1.720000E-01
105	  0.040841684	-4.819100E+01	  0.040841684	4.044700E+01	  0.040841684	5.029600E+01	  0.040841684	2.540000E-01
106	  0.041042086	-4.714800E+01	  0.041042086	4.738200E+01	  0.041042086	5.029700E+01	  0.041042086	3.250000E-01
107	  0.041242484	-4.584600E+01	  0.041242484	3.616000E+01	  0.041242484	5.041200E+01	  0.041242484	3.030000E-01
108	  0.041442886	-4.700500E+01	  0.041442886	3.136000E+01	  0.041442886	5.038200E+01	  0.041442886	2.340000E-01
109	  0.041643288	-4.986900E+01	  0.041643288	5.948000E+01	  0.041643288	5.016200E+01	  0.041643288	2.770000E-01
110	  0.041843686	-4.772500E+01	  0.041843686	5.260400E+01	  0.041843686	5.024900E+01	  0.041843686	3.280000E-01
111	  0.042044088	-4.866400E+01	  0.042044088	3.752900E+01	  0.042044088	5.029200E+01	  0.042044088	2.250000E-01
112	  0.042244490	-4.849300E+01	  0.042244490	5.936700E+01	  0.042244490	5.019000E+01	  0.042244490	3.240000E-01
113	  0.042444889	-4.898300E+01	  0.042444889	3.807700E+01	  0.042444889	5.028000E+01	  0.042444889	2.200000E-01
114	  0.042645290	-4.773300E+01	  0.042645290	6.872700E+01	  0.042645290	5.014700E+01	  0.042645290	3.830000E-01
115	  0.042845692	-4.737900E+01	  0.042845692	5.502700E+01	  0.042845692	5.024400E+01	  0.042845692	3.520000E-01
116	  0.043046094	-4.914200E+01	  0.043046094	4.682000E+01	  0.043046094	5.023800E+01	  0.043046094	2.550000E-01
117	  0.043246493	-4.816100E+01	  0.043246493	5.097600E+01	  0.043246493	5.024500E+01	  0.043246493	3.050000E-01
118	  0.043446895	-4.931600E+01	  0.043446895	4.216000E+01	  0.043446895	5.025300E+01	  0.043446895	2.300000E-01
119	  0.043647297	-4.862600E+01	  0.043647297	8.304100E+01	  0.043647297	5.004300E+01	  0.043647297	3.670000E-01
120	  0.043847695	-4.853400E+01	  0.043847695	6.931800E+01	  0.043847695	5.013100E+01	  0.043847695	3.510000E-01
121	  0.044048097	-4.872100E+01	  0.044048097	5.928800E+01	  0.044048097	5.018600E+01	  0.044048097	3.160000E-01
122	  0.044248499	-4.864300E+01	  0.044248499	6.289900E+01	  0.044248499	5.016700E+01	  0.044248499	3.300000E-01
123	  0.044448901	-4.602000E+01	  0.044448901	7.436300E+01	  0.044448901	5.013200E+01	  0.044448901	4.820000E-01
124	  0.044649299	-4.693000E+01	  0.044649299	7.052700E+01	  0.044649299	5.014800E+01	  0.044649299	4.250000E-01
125	  0.044849701	-4.993500E+01	  0.044849701	7.407200E+01	  0.044849701	5.008600E+01	  0.044849701	3.060000E-01
126	  0.045050103	-4.589700E+01	  0.045050103	8.844600E+01	  0.045050103	5.001100E+01	  0.045050103	5.070000E-01
127	  0.045250501	-4.634700E+01	  0.045250501	9.115300E+01	  0.045250501	4.998700E+01	  0.045250501	4.810000E-01
128	  0.045450903	-4.545100E+01	  0.045450903	8.354900E+01	  0.045450903	5.005700E+01	  0.045450903	5.310000E-01
129	  0.045651305	-4.505400E+01	  0.045651305	7.491700E+01	  0.045651305	5.014200E+01	  0.045651305	5.410000E-01
130	  0.045851704	-4.417700E+01	  0.045851704	9.519000E+01	  0.045851704	4.994000E+01	  0.045851704	6.140000E-01
131	  0.046052106	-4.541200E+01	  0.046052106	9.707900E+01	  0.046052106	4.993100E+01	  0.046052106	5.310000E-01
132	  0.046252504	-4.416900E+01	  0.046252504	8.933100E+01	  0.046252504	5.000300E+01	  0.046252504	6.180000E-01
133	  0.046452906	-4.455800E+01	  0.046452906	8.964500E+01	  0.046452906	5.000000E+01	  0.046452906	5.910000E-01
134	  0.046653304	-4.388300E+01	  0.046653304	9.342000E+01	  0.046653304	4.995700E+01	  0.046653304	6.370000E-01
135	  0.046853706	-4.268800E+01	  0.046853706	8.431000E+01	  0.046853706	5.006700E+01	  0.046853706	7.310000E-01
136	  0.047054108	-4.226300E+01	  0.047054108	9.214600E+01	  0.047054108	4.996500E+01	  0.047054108	7.690000E-01
137	  0.047254506	-4.339200E+01	  0.047254506	8.375100E+01	  0.047254506	5.006900E+01	  0.047254506	6.730000E-01
138	  0.047454908	-4.007800E+01	  0.047454908	9.840400E+01	  0.047454908	4.984500E+01	  0.047454908	9.770000E-01
139	  0.047655310	-4.192000E+01	  0.047655310	8.936300E+01	  0.047655310	5.000200E+01	  0.047655310	8.010000E-01
140	  0.047855709	-4.104800E+01	  0.047855709	8.924700E+01	  0.047855709	5.000300E+01	  0.047855709	8.860000E-01
141	  0.048056111	-4.135000E+01	  0.048056111	8.021200E+01	  0.048056111	5.013800E+01	  0.048056111	8.450000E-01
142	  0.048256513	-3.948300E+01	  0.048256513	8.176100E+01	  0.048256513	5.014100E+01	  0.048256513	1.053000E+00
143	  0.048456915	-3.904600E+01	  0.048456915	8.030700E+01	  0.048456915	5.017600E+01	  0.048456915	1.104000E+00
144	  0.048657313	-3.933800E+01	  0.048657313	8.848000E+01	  0.048657313	5.001600E+01	  0.048657313	1.079000E+00
145	  0.048857715	-3.876600E+01	  0.048857715	8.654400E+01	  0.048857715	5.005600E+01	  0.048857715	1.151000E+00
146	  0.049058117	-3.941200E+01	  0.049058117	8.775000E+01	  0.049058117	5.003000E+01	  0.049058117	1.069000E+00
147	  0.049258515	-3.945100E+01	  0.049258515	8.512200E+01	  0.049258515	5.007900E+01	  0.049258515	1.063000E+00
148	  0.049458917	-3.900400E+01	  0.049458917	8.090900E+01	  0.049458917	5.016500E+01	  0.049458917	1.111000E+00
149	  0.049659319	-3.842500E+01	  0.049659319	8.001700E+01	  0.049659319	5.019400E+01	  0.049659319	1.185000E+00
150	  0.049859721	-3.867900E+01	  0.049859721	8.215000E+01	  0.049859721	5.014500E+01	  0.049859721	1.156000E+00
151	  0.050060119	-3.896400E+01	  0.050060119	8.076100E+01	  0.050060119	5.016800E+01	  0.050060119	1.115000E+00
152	  0.050260521	-3.774100E+01	  0.050260521	7.920100E+01	  0.050260521	5.022700E+01	  0.050260521	1.279000E+00
153	  0.050460923	-3.769100E+01	  0.050460923	7.633600E+01	  0.050460923	5.029200E+01	  0.050460923	1.275000E+00
154	  0.050661322	-3.738800E+01	  0.050661322	7.775100E+01	  0.050661322	5.026900E+01	  0.050661322	1.327000E+00
155	  0.050861724	-3.734800E+01	  0.050861724	7.547400E+01	  0.050861724	5.032400E+01	  0.050861724	1.322000E+00
156	  0.051062126	-3.688300E+01	  0.051062126	7.410300E+01	  0.051062126	5.037400E+01	  0.051062126	1.387000E+00
157	  0.051262524	-3.663100E+01	  0.051262524	7.397300E+01	  0.051262524	5.038800E+01	  0.051262524	1.427000E+00
158	  0.051462926	-3.627700E+01	  0.051462926	7.104700E+01	  0.051462926	5.047900E+01	  0.051462926	1.466000E+00
159	  0.051663328	-3.665500E+01	  0.051663328	7.441300E+01	  0.051663328	5.037600E+01	  0.051663328	1.426000E+00
160	  0.051863730	-3.648300E+01	  0.051863730	7.025900E+01	  0.051863730	5.048800E+01	  0.051863730	1.425000E+00
161	  0.052064128	-3.606500E+01	  0.052064128	7.053200E+01	  0.052064128	5.050400E+01	  0.052064128	1.498000E+00
162	  0.052264530	-3.734600E+01	  0.052264530	7.038100E+01	  0.052264530	5.044100E+01	  0.052264530	1.289000E+00
163	  0.052464932	-3.558500E+01	  0.052464932	7.180000E+01	  0.052464932	5.049600E+01	  0.052464932	1.595000E+00
164	  0.052665330	-3.594300E+01	  0.052665330	6.812300E+01	  0.052665330	5.057500E+01	  0.052665330	1.497000E+00
165	  0.052865732	-3.604700E+01	  0.052865732	6.320700E+01	  0.052865732	5.069500E+01	  0.052865732	1.426000E+00
166	  0.053066134	-3.571600E+01	  0.053066134	5.934500E+01	  0.053066134	5.082100E+01	  0.053066134	1.432000E+00
167	  0.053266536	-3.521000E+01	  0.053266536	6.513200E+01	  0.053266536	5.070900E+01	  0.053266536	1.597000E+00
168	  0.053466935	-3.534200E+01	  0.053466935	5.982100E+01	  0.053466935	5.084400E+01	  0.053466935	1.503000E+00
169	  0.053667337	-3.477000E+01	  0.053667337	5.905900E+01	  0.053667337	5.092200E+01	  0.053667337	1.595000E+00
170	  0.053867739	-3.489000E+01	  0.053867739	6.015900E+01	  0.053867739	5.087900E+01	  0.053867739	1.590000E+00
171	  0.054068137	-3.477100E+01	  0.054068137	5.552800E+01	  0.054068137	5.102000E+01	  0.054068137	1.536000E+00
172	  0.054268539	-3.462200E+01	  0.054268539	5.704900E+01	  0.054268539	5.099500E+01	  0.054268539	1.590000E+00
173	  0.054468941	-3.518200E+01	  0.054468941	5.477800E+01	  0.054468941	5.099300E+01	  0.054468941	1.451000E+00
174	  0.054669339	-3.458500E+01	  0.054669339	5.654800E+01	  0.054669339	5.101300E+01	  0.054669339	1.588000E+00
175	  0.054869737	-3.456300E+01	  0.054869737	5.568500E+01	  0.054869737	5.104000E+01	  0.054869737	1.577000E+00
176	  0.055070139	-3.481500E+01	  0.055070139	5.187600E+01	  0.055070139	5.111300E+01	  0.055070139	1.461000E+00
177	  0.055270538	-3.438200E+01	  0.055270538	4.976800E+01	  0.055270538	5.122600E+01	  0.055270538	1.493000E+00
178	  0.055470940	-3.473500E+01	  0.055470940	4.949300E+01	  0.055470940	5.118500E+01	  0.055470940	1.427000E+00
179	  0.055671342	-3.423500E+01	  0.055671342	5.094500E+01	  0.055671342	5.121500E+01	  0.055671342	1.545000E+00
180	  0.055871744	-3.502900E+01	  0.055871744	4.530700E+01	  0.055871744	5.124500E+01	  0.055871744	1.291000E+00
181	  0.056072142	-3.414900E+01	  0.056072142	4.549700E+01	  0.056072142	5.137300E+01	  0.056072142	1.437000E+00
182	  0.056272544	-3.433200E+01	  0.056272544	4.402300E+01	  0.056272544	5.138100E+01	  0.056272544	1.371000E+00
183	  0.056472946	-3.402400E+01	  0.056472946	4.139000E+01	  0.056472946	5.149700E+01	  0.056472946	1.355000E+00
184	  0.056673344	-3.401400E+01	  0.056673344	4.377400E+01	  0.056673344	5.143900E+01	  0.056673344	1.418000E+00
185	  0.056873746	-3.479100E+01	  0.056873746	4.199900E+01	  0.056873746	5.135600E+01	  0.056873746	1.252000E+00
186	  0.057074148	-3.414500E+01	  0.057074148	4.399000E+01	  0.057074148	5.141200E+01	  0.057074148	1.401000E+00
187	  0.057274550	-3.470000E+01	  0.057274550	3.915800E+01	  0.057274550	5.143300E+01	  0.057274550	1.196000E+00
188	  0.057474948	-3.409600E+01	  0.057474948	3.910500E+01	  0.057474948	5.153800E+01	  0.057474948	1.283000E+00
189	  0.057675350	-3.418600E+01	  0.057675350	4.202700E+01	  0.057675350	5.145400E+01	  0.057675350	1.345000E+00
190	  0.057875752	-3.457200E+01	  0.057875752	3.695000E+01	  0.057875752	5.150200E+01	  0.057875752	1.157000E+00
191	  0.058076151	-3.447600E+01	  0.058076151	3.473700E+01	  0.058076151	5.156400E+01	  0.058076151	1.110000E+00
192	  0.058276553	-3.428200E+01	  0.058276553	3.515000E+01	  0.058276553	5.159100E+01	  0.058276553	1.147000E+00
193	  0.058476955	-3.384000E+01	  0.058476955	3.418800E+01	  0.058476955	5.169600E+01	  0.058476955	1.181000E+00
194	  0.058677353	-3.450300E+01	  0.058677353	3.167100E+01	  0.058677353	5.161800E+01	  0.058677353	1.020000E+00
195	  0.058877755	-3.442300E+01	  0.058877755	3.149600E+01	  0.058877755	5.163600E+01	  0.058877755	1.025000E+00
196	  0.059078157	-3.463100E+01	  0.059078157	3.064400E+01	  0.059078157	5.161200E+01	  0.059078157	9.760000E-01
197	  0.059278559	-3.431600E+01	  0.059278559	2.803000E+01	  0.059278559	5.171800E+01	  0.059278559	9.350000E-01
198	  0.059478957	-3.494400E+01	  0.059478957	2.988300E+01	  0.059478957	5.156700E+01	  0.059478957	9.190000E-01
199	  0.059679359	-3.501700E+01	  0.059679359	2.833000E+01	  0.059679359	5.157900E+01	  0.059679359	8.690000E-01
200	  0.059879761	-3.444200E+01	  0.059879761	2.367500E+01	  0.059879761	5.176100E+01	  0.059879761	7.880000E-01
201	  0.060080159	-3.470600E+01	  0.060080159	2.525500E+01	  0.060080159	5.168500E+01	  0.060080159	8.110000E-01
202	  0.060280561	-3.481800E+01	  0.060280561	2.169300E+01	  0.060280561	5.171100E+01	  0.060280561	6.940000E-01
203	  0.060480963	-3.487600E+01	  0.060480963	1.752000E+01	  0.060480963	5.174700E+01	  0.060480963	5.620000E-01
204	  0.060681365	-3.526200E+01	  0.060681365	2.109900E+01	  0.060681365	5.163100E+01	  0.060681365	6.410000E-01
205	  0.060881764	-3.512000E+01	  0.060881764	2.020000E+01	  0.060881764	5.166900E+01	  0.060881764	6.250000E-01
206	  0.061082166	-3.548500E+01	  0.061082166	1.410700E+01	  0.061082166	5.165600E+01	  0.061082166	4.230000E-01
207	  0.061282568	-3.615200E+01	  0.061282568	1.238800E+01	  0.061282568	5.154300E+01	  0.061282568	3.440000E-01
208	  0.061482966	-3.622300E+01	  0.061482966	1.871900E+01	  0.061482966	5.148200E+01	  0.061482966	5.100000E-01
209	  0.061683368	-3.540300E+01	  0.061683368	1.260500E+01	  0.061683368	5.168300E+01	  0.061683368	3.830000E-01
210	  0.061883770	-3.629000E+01	  0.061883770	1.507100E+01	  0.061883770	5.150000E+01	  0.061883770	4.100000E-01
211	  0.062084168	-3.599700E+01	  0.062084168	6.594000E+00	  0.062084168	5.159900E+01	  0.062084168	1.870000E-01
212	  0.062284570	-3.590700E+01	  0.062284570	1.073200E+01	  0.062284570	5.159800E+01	  0.062284570	3.070000E-01
213	  0.062484972	-3.645200E+01	  0.062484972	1.207900E+01	  0.062484972	5.149200E+01	  0.062484972	3.240000E-01
214	  0.062685370	-3.634700E+01	  0.062685370	6.916000E+00	  0.062685370	5.153400E+01	  0.062685370	1.890000E-01
215	  0.062885776	-3.705700E+01	  0.062885776	1.234400E+01	  0.062885776	5.138800E+01	  0.062885776	3.080000E-01
216	  0.063086174	-3.661700E+01	  0.063086174	8.619000E+00	  0.063086174	5.148000E+01	  0.063086174	2.270000E-01
217	  0.063286573	-3.855700E+01	  0.063286573	8.620000E+00	  0.063286573	5.118000E+01	  0.063286573	1.810000E-01
218	  0.063486971	-3.766700E+01	  0.063486971	7.591000E+00	  0.063486971	5.131300E+01	  0.063486971	1.770000E-01
219	  0.063687377	-3.765200E+01	  0.063687377	6.740000E+00	  0.063687377	5.131800E+01	  0.063687377	1.570000E-01
220	  0.063887775	-3.746300E+01	  0.063887775	4.452000E+00	  0.063887775	5.135300E+01	  0.063887775	1.060000E-01
221	  0.064088173	-3.926400E+01	  0.064088173	1.904000E+00	  0.064088173	5.109900E+01	  0.064088173	3.600000E-02
222	  0.064288579	-3.837200E+01	  0.064288579	1.059700E+01	  0.064288579	5.119900E+01	  0.064288579	2.270000E-01
223	  0.064488977	-3.895600E+01	  0.064488977	2.275000E+00	  0.064488977	5.113900E+01	  0.064488977	4.500000E-02
224	  0.064689375	-4.040100E+01	  0.064689375	-2.235000E+00	  0.064689375	5.096300E+01	  0.064689375	-3.700000E-02
225	  0.064889781	-4.154800E+01	  0.064889781	8.142000E+00	  0.064889781	5.083500E+01	  0.064889781	1.200000E-01
226	  0.065090179	-4.043500E+01	  0.065090179	3.440000E+00	  0.065090179	5.095800E+01	  0.065090179	5.800000E-02
227	  0.065290578	-4.015900E+01	  0.065290578	5.880000E-01	  0.065290578	5.099100E+01	  0.065290578	1.000000E-02
228	  0.065490983	-4.191200E+01	  0.065490983	-2.302000E+00	  0.065490983	5.080800E+01	  0.065490983	-3.200000E-02
229	  0.065691382	-4.230000E+01	  0.065691382	2.508000E+00	  0.065691382	5.077200E+01	  0.065691382	3.400000E-02
230	  0.065891780	-4.208600E+01	  0.065891780	1.045300E+01	  0.065891780	5.077900E+01	  0.065891780	1.440000E-01
231	  0.066092186	-4.250900E+01	  0.066092186	1.551100E+01	  0.066092186	5.072600E+01	  0.066092186	2.030000E-01
232	  0.066292584	-4.143400E+01	  0.066292584	-2.921000E+00	  0.066292584	5.085300E+01	  0.066292584	-4.300000E-02
233	  0.066492982	-4.369800E+01	  0.066492982	9.730000E+00	  0.066492982	5.064700E+01	  0.066492982	1.110000E-01
234	  0.066693388	-4.550900E+01	  0.066693388	1.500000E-01	  0.066693388	5.053300E+01	  0.066693388	1.000000E-03
235	  0.066893786	-4.747200E+01	  0.066893786	2.089800E+01	  0.066893786	5.039600E+01	  0.066893786	1.520000E-01
236	  0.067094192	-4.827400E+01	  0.067094192	1.412000E+01	  0.067094192	5.037500E+01	  0.067094192	9.400000E-02
237	  0.067294590	-4.843100E+01	  0.067294590	-7.586000E+00	  0.067294590	5.037600E+01	  0.067294590	-5.000000E-02
238	  0.067494988	-4.614800E+01	  0.067494988	2.048000E+01	  0.067494988	5.046300E+01	  0.067494988	1.730000E-01
239	  0.067695394	-4.914100E+01	  0.067695394	8.858000E+00	  0.067695394	5.034600E+01	  0.067695394	5.400000E-02
240	  0.067895792	-4.943000E+01	  0.067895792	1.851200E+01	  0.067895792	5.032100E+01	  0.067895792	1.070000E-01
241	  0.068096191	-4.855200E+01	  0.068096191	6.817900E+01	  0.068096191	5.013700E+01	  0.068096191	3.470000E-01
242	  0.068296596	-5.228100E+01	  0.068296596	2.737800E+01	  0.068296596	5.021600E+01	  0.068296596	1.120000E-01
243	  0.068496995	-4.692700E+01	  0.068496995	6.422400E+01	  0.068496995	5.019400E+01	  0.068496995	4.070000E-01
244	  0.068697393	-4.834300E+01	  0.068697393	6.099800E+01	  0.068697393	5.018400E+01	  0.068697393	3.350000E-01
245	  0.068897791	-5.647800E+01	  0.068897791	8.583600E+01	  0.068897791	5.001000E+01	  0.068897791	1.490000E-01
246	  0.069098189	-4.937200E+01	  0.069098189	5.487500E+01	  0.069098189	5.019500E+01	  0.069098189	2.790000E-01
247	  0.069298595	-4.812900E+01	  0.069298595	8.504500E+01	  0.069298595	5.003200E+01	  0.069298595	3.910000E-01
248	  0.069498993	-4.505400E+01	  0.069498993	1.013310E+02	  0.069498993	4.988700E+01	  0.069498993	5.460000E-01
249	  0.069699399	-4.618300E+01	  0.069699399	8.624500E+01	  0.069699399	5.002900E+01	  0.069699399	4.890000E-01
250	  0.069899797	-4.730300E+01	  0.069899797	8.981300E+01	  0.069899797	4.999900E+01	  0.069899797	4.310000E-01
251	  0.070100196	-4.390600E+01	  0.070100196	1.091090E+02	  0.070100196	4.978800E+01	  0.070100196	6.000000E-01
252	  0.070300601	-4.379200E+01	  0.070300601	1.091470E+02	  0.070300601	4.978400E+01	  0.070300601	6.070000E-01
253	  0.070501000	-4.037600E+01	  0.070501000	9.980400E+01	  0.070501000	4.982800E+01	  0.070501000	9.400000E-01
254	  0.070701398	-4.093600E+01	  0.070701398	8.925600E+01	  0.070701398	5.000300E+01	  0.070701398	8.970000E-01
255	  0.070901804	-4.130000E+01	  0.070901804	1.104460E+02	  0.070901804	4.969300E+01	  0.070901804	8.010000E-01
256	  0.071102202	-4.181700E+01	  0.071102202	1.068140E+02	  0.071102202	4.975900E+01	  0.071102202	7.720000E-01
257	  0.071302600	-4.214500E+01	  0.071302600	1.043030E+02	  0.071302600	4.980100E+01	  0.071302600	7.540000E-01
258	  0.071503006	-4.009500E+01	  0.071503006	1.001270E+02	  0.071503006	4.981600E+01	  0.071503006	9.700000E-01
259	  0.071703404	-3.867600E+01	  0.071703404	1.057320E+02	  0.071703404	4.967200E+01	  0.071703404	1.113000E+00
260	  0.071903802	-3.772700E+01	  0.071903802	1.030590E+02	  0.071903802	4.969100E+01	  0.071903802	1.257000E+00
261	  0.072104208	-3.789100E+01	  0.072104208	9.679300E+01	  0.072104208	4.983300E+01	  0.072104208	1.261000E+00
262	  0.072304606	-3.845300E+01	  0.072304606	9.695400E+01	  0.072304606	4.984100E+01	  0.072304606	1.182000E+00
263	  0.072505005	-3.732500E+01	  0.072505005	1.051860E+02	  0.072505005	4.962700E+01	  0.072505005	1.303000E+00
264	  0.072705410	-3.727700E+01	  0.072705410	9.577700E+01	  0.072705410	4.984400E+01	  0.072705410	1.357000E+00
265	  0.072905809	-3.833100E+01	  0.072905809	1.008840E+02	  0.072905809	4.975700E+01	  0.072905809	1.184000E+00
266	  0.073106214	-3.716300E+01	  0.073106214	9.642300E+01	  0.073106214	4.982600E+01	  0.073106214	1.373000E+00
267	  0.073306613	-3.578400E+01	  0.073306613	9.748000E+01	  0.073306613	4.976300E+01	  0.073306613	1.603000E+00
268	  0.073507011	-3.576200E+01	  0.073507011	9.332300E+01	  0.073507011	4.987900E+01	  0.073507011	1.622000E+00
269	  0.073707417	-3.547400E+01	  0.073707417	9.738200E+01	  0.073707417	4.975600E+01	  0.073707417	1.662000E+00
270	  0.073907815	-3.552100E+01	  0.073907815	9.772100E+01	  0.073907815	4.974800E+01	  0.073907815	1.651000E+00
271	  0.074108213	-3.573300E+01	  0.074108213	9.449000E+01	  0.074108213	4.984500E+01	  0.074108213	1.624000E+00
272	  0.074308619	-3.477200E+01	  0.074308619	9.026900E+01	  0.074308619	4.995800E+01	  0.074308619	1.824000E+00
273	  0.074509017	-3.422500E+01	  0.074509017	8.835900E+01	  0.074509017	5.001700E+01	  0.074509017	1.944000E+00
274	  0.074709415	-3.457700E+01	  0.074709415	8.782100E+01	  0.074709415	5.003600E+01	  0.074709415	1.867000E+00
275	  0.074909821	-3.398500E+01	  0.074909821	9.021200E+01	  0.074909821	4.995200E+01	  0.074909821	1.997000E+00
276	  0.075110219	-3.416000E+01	  0.075110219	8.801300E+01	  0.075110219	5.002900E+01	  0.075110219	1.959000E+00
277	  0.075310618	-3.420900E+01	  0.075310618	8.264300E+01	  0.075310618	5.021200E+01	  0.075310618	1.940000E+00
278	  0.075511023	-3.368700E+01	  0.075511023	9.236700E+01	  0.075511023	4.987200E+01	  0.075511023	2.062000E+00
279	  0.075711422	-3.352200E+01	  0.075711422	8.732400E+01	  0.075711422	5.005400E+01	  0.075711422	2.108000E+00
280	  0.075911827	-3.376000E+01	  0.075911827	8.059200E+01	  0.075911827	5.029500E+01	  0.075911827	2.036000E+00
281	  0.076112226	-3.345000E+01	  0.076112226	8.146400E+01	  0.076112226	5.027100E+01	  0.076112226	2.114000E+00
282	  0.076312624	-3.326700E+01	  0.076312624	8.457700E+01	  0.076312624	5.015800E+01	  0.076312624	2.168000E+00
283	  0.076513030	-3.333400E+01	  0.076513030	8.065300E+01	  0.076513030	5.030500E+01	  0.076513030	2.139000E+00
284	  0.076713428	-3.323900E+01	  0.076713428	8.108400E+01	  0.076713428	5.029100E+01	  0.076713428	2.165000E+00
285	  0.076913826	-3.365200E+01	  0.076913826	8.127800E+01	  0.076913826	5.027300E+01	  0.076913826	2.064000E+00
286	  0.077114232	-3.321000E+01	  0.077114232	7.878200E+01	  0.077114232	5.038000E+01	  0.077114232	2.160000E+00
287	  0.077314630	-3.356400E+01	  0.077314630	8.009900E+01	  0.077314630	5.031800E+01	  0.077314630	2.080000E+00
288	  0.077515028	-3.281600E+01	  0.077515028	7.804100E+01	  0.077515028	5.042500E+01	  0.077515028	2.257000E+00
289	  0.077715434	-3.326800E+01	  0.077715434	8.142900E+01	  0.077715434	5.027800E+01	  0.077715434	2.159000E+00
290	  0.077915832	-3.267500E+01	  0.077915832	7.452700E+01	  0.077915832	5.057200E+01	  0.077915832	2.266000E+00
291	  0.078116231	-3.282300E+01	  0.078116231	7.360200E+01	  0.078116231	5.060000E+01	  0.078116231	2.219000E+00
292	  0.078316636	-3.298000E+01	  0.078316636	7.509300E+01	  0.078316636	5.053200E+01	  0.078316636	2.192000E+00
293	  0.078517035	-3.289100E+01	  0.078517035	7.720500E+01	  0.078517035	5.045400E+01	  0.078517035	2.231000E+00
294	  0.078717433	-3.310600E+01	  0.078717433	7.636500E+01	  0.078717433	5.047700E+01	  0.078717433	2.170000E+00
295	  0.078917839	-3.332900E+01	  0.078917839	7.267900E+01	  0.078917839	5.060200E+01	  0.078917839	2.083000E+00
296	  0.079118237	-3.322100E+01	  0.079118237	7.499400E+01	  0.079118237	5.052300E+01	  0.079118237	2.130000E+00
297	  0.079318643	-3.369300E+01	  0.079318643	7.127600E+01	  0.079318643	5.062800E+01	  0.079318643	1.982000E+00
298	  0.079519041	-3.283200E+01	  0.079519041	7.427300E+01	  0.079519041	5.057300E+01	  0.079519041	2.223000E+00
299	  0.079719439	-3.365200E+01	  0.079719439	7.493900E+01	  0.079719439	5.050100E+01	  0.079719439	2.026000E+00
300	  0.079919845	-3.354100E+01	  0.079919845	7.602500E+01	  0.079919845	5.046800E+01	  0.079919845	2.061000E+00
301	  0.080120243	-3.276700E+01	  0.080120243	7.904800E+01	  0.080120243	5.038700E+01	  0.080120243	2.276000E+00
302	  0.080320641	-3.367000E+01	  0.080320641	7.522300E+01	  0.080320641	5.049000E+01	  0.080320641	2.024000E+00
303	  0.080521047	-3.357800E+01	  0.080521047	8.074900E+01	  0.080521047	5.029400E+01	  0.080521047	2.080000E+00
304	  0.080721445	-3.295600E+01	  0.080721445	7.972100E+01	  0.080721445	5.035300E+01	  0.080721445	2.230000E+00
305	  0.080921844	-3.328400E+01	  0.080921844	7.738300E+01	  0.080921844	5.043000E+01	  0.080921844	2.133000E+00
306	  0.081122249	-3.372900E+01	  0.081122249	8.031000E+01	  0.081122249	5.030600E+01	  0.081122249	2.042000E+00
307	  0.081322648	-3.329700E+01	  0.081322648	7.855600E+01	  0.081322648	5.038500E+01	  0.081322648	2.137000E+00
308	  0.081523046	-3.298500E+01	  0.081523046	8.277100E+01	  0.081523046	5.023300E+01	  0.081523046	2.236000E+00
309	  0.081723452	-3.339600E+01	  0.081723452	7.947500E+01	  0.081723452	5.034700E+01	  0.081723452	2.118000E+00
310	  0.081923850	-3.284200E+01	  0.081923850	8.777400E+01	  0.081923850	5.003600E+01	  0.081923850	2.280000E+00
311	  0.082124248	-3.288200E+01	  0.082124248	8.665300E+01	  0.082124248	5.008100E+01	  0.082124248	2.270000E+00
312	  0.082324654	-3.292400E+01	  0.082324654	8.693800E+01	  0.082324654	5.006900E+01	  0.082324654	2.259000E+00
313	  0.082525052	-3.238200E+01	  0.082525052	8.749800E+01	  0.082525052	5.004700E+01	  0.082525052	2.404000E+00
314	  0.082725458	-3.235500E+01	  0.082725458	9.095200E+01	  0.082725458	4.990100E+01	  0.082725458	2.407000E+00
315	  0.082925856	-3.199600E+01	  0.082925856	9.253700E+01	  0.082925856	4.982600E+01	  0.082925856	2.503000E+00
316	  0.083126254	-3.130400E+01	  0.083126254	9.196600E+01	  0.083126254	4.983300E+01	  0.083126254	2.712000E+00
317	  0.083326660	-3.166300E+01	  0.083326660	9.457100E+01	  0.083326660	4.972500E+01	  0.083326660	2.590000E+00
318	  0.083527058	-3.078600E+01	  0.083527058	9.445700E+01	  0.083527058	4.969300E+01	  0.083527058	2.864000E+00
319	  0.083727457	-3.069400E+01	  0.083727457	9.338400E+01	  0.083727457	4.974300E+01	  0.083727457	2.901000E+00
320	  0.083927862	-3.050200E+01	  0.083927862	9.712500E+01	  0.083927862	4.954400E+01	  0.083927862	2.937000E+00
321	  0.084128261	-2.991700E+01	  0.084128261	9.592800E+01	  0.084128261	4.957100E+01	  0.084128261	3.151000E+00
322	  0.084328659	-2.972100E+01	  0.084328659	9.719800E+01	  0.084328659	4.948800E+01	  0.084328659	3.209000E+00
323	  0.084529065	-2.948600E+01	  0.084529065	9.972700E+01	  0.084529065	4.932800E+01	  0.084529065	3.265000E+00
324	  0.084729463	-2.893000E+01	  0.084729463	9.776100E+01	  0.084729463	4.939500E+01	  0.084729463	3.505000E+00
325	  0.084929861	-2.857700E+01	  0.084929861	9.712000E+01	  0.084929861	4.940500E+01	  0.084929861	3.657000E+00
326	  0.085130267	-2.829400E+01	  0.085130267	9.696900E+01	  0.085130267	4.939100E+01	  0.085130267	3.779000E+00
327	  0.085330658	-2.786200E+01	  0.085330658	9.821700E+01	  0.085330658	4.926800E+01	  0.085330658	3.950000E+00
328	  0.085531056	-2.738600E+01	  0.085531056	9.744100E+01	  0.085531056	4.927300E+01	  0.085531056	4.182000E+00
329	  0.085731462	-2.731900E+01	  0.085731462	9.784300E+01	  0.085731462	4.923700E+01	  0.085731462	4.207000E+00
330	  0.085931860	-2.702100E+01	  0.085931860	9.797000E+01	  0.085931860	4.919500E+01	  0.085931860	4.350000E+00
331	  0.086132258	-2.660100E+01	  0.086132258	9.507700E+01	  0.086132258	4.937400E+01	  0.086132258	4.609000E+00
332	  0.086332664	-2.620400E+01	  0.086332664	9.483900E+01	  0.086332664	4.935400E+01	  0.086332664	4.826000E+00
333	  0.086533062	-2.607400E+01	  0.086533062	9.438800E+01	  0.086533062	4.937900E+01	  0.086533062	4.904000E+00
334	  0.086733460	-2.528500E+01	  0.086733460	9.430200E+01	  0.086733460	4.930300E+01	  0.086733460	5.366000E+00
335	  0.086933866	-2.530500E+01	  0.086933866	9.439000E+01	  0.086933866	4.929700E+01	  0.086933866	5.352000E+00
336	  0.087134264	-2.469200E+01	  0.087134264	9.276300E+01	  0.087134264	4.938500E+01	  0.087134264	5.767000E+00
337	  0.087334670	-2.435700E+01	  0.087334670	9.145000E+01	  0.087334670	4.948300E+01	  0.087334670	6.012000E+00
338	  0.087535068	-2.408100E+01	  0.087535068	9.253800E+01	  0.087535068	4.933800E+01	  0.087535068	6.186000E+00
339	  0.087735467	-2.378100E+01	  0.087735467	8.955600E+01	  0.087735467	4.963200E+01	  0.087735467	6.449000E+00
340	  0.087935872	-2.324500E+01	  0.087935872	8.787400E+01	  0.087935872	4.978100E+01	  0.087935872	6.880000E+00
341	  0.088136271	-2.300800E+01	  0.088136271	8.789600E+01	  0.088136271	4.975900E+01	  0.088136271	7.068000E+00
342	  0.088336669	-2.256600E+01	  0.088336669	8.671000E+01	  0.088336669	4.987200E+01	  0.088336669	7.451000E+00
343	  0.088537075	-2.222400E+01	  0.088537075	8.617200E+01	  0.088537075	4.991700E+01	  0.088537075	7.757000E+00
344	  0.088737473	-2.189100E+01	  0.088737473	8.469500E+01	  0.088737473	5.009700E+01	  0.088737473	8.076000E+00
345	  0.088937871	-2.150700E+01	  0.088937871	8.119600E+01	  0.088937871	5.059000E+01	  0.088937871	8.465000E+00
346	  0.089138277	-2.124300E+01	  0.089138277	7.937600E+01	  0.089138277	5.086700E+01	  0.089138277	8.731000E+00
347	  0.089338675	-2.095300E+01	  0.089338675	7.597200E+01	  0.089338675	5.141900E+01	  0.089338675	9.011000E+00
348	  0.089539073	-2.063800E+01	  0.089539073	7.491000E+01	  0.089539073	5.161900E+01	  0.089539073	9.342000E+00
349	  0.089739479	-2.029000E+01	  0.089739479	7.281300E+01	  0.089739479	5.201800E+01	  0.089739479	9.703000E+00
350	  0.089939877	-2.005700E+01	  0.089939877	7.043500E+01	  0.089939877	5.248000E+01	  0.089939877	9.922000E+00
351	  0.090140276	-1.982700E+01	  0.090140276	6.791900E+01	  0.090140276	5.299200E+01	  0.090140276	1.012300E+01
352	  0.090340681	-1.956900E+01	  0.090340681	6.502300E+01	  0.090340681	5.361300E+01	  0.090340681	1.032800E+01
353	  0.090541080	-1.936100E+01	  0.090541080	6.273500E+01	  0.090541080	5.413100E+01	  0.090541080	1.047900E+01
354	  0.090741485	-1.921400E+01	  0.090741485	5.978900E+01	  0.090741485	5.477900E+01	  0.090741485	1.048900E+01
355	  0.090941884	-1.905900E+01	  0.090941884	5.771300E+01	  0.090941884	5.527300E+01	  0.090941884	1.054500E+01
356	  0.091142282	-1.888400E+01	  0.091142282	5.528500E+01	  0.091142282	5.586600E+01	  0.091142282	1.057900E+01
357	  0.091342688	-1.882600E+01	  0.091342688	5.238800E+01	  0.091342688	5.649800E+01	  0.091342688	1.038200E+01
358	  0.091543086	-1.874200E+01	  0.091543086	5.079400E+01	  0.091543086	5.688300E+01	  0.091543086	1.032600E+01
359	  0.091743484	-1.866900E+01	  0.091743484	4.808400E+01	  0.091743484	5.749200E+01	  0.091743484	1.011000E+01
360	  0.091943890	-1.859500E+01	  0.091943890	4.566700E+01	  0.091943890	5.804300E+01	  0.091943890	9.898000E+00
361	  0.092144288	-1.851600E+01	  0.092144288	4.338200E+01	  0.092144288	5.857100E+01	  0.092144288	9.680000E+00
362	  0.092344686	-1.845200E+01	  0.092344686	4.201500E+01	  0.092344686	5.890400E+01	  0.092344686	9.559000E+00
363	  0.092545092	-1.850500E+01	  0.092545092	3.914600E+01	  0.092545092	5.939900E+01	  0.092545092	9.035000E+00
364	  0.092745490	-1.836500E+01	  0.092745490	3.728000E+01	  0.092745490	5.990600E+01	  0.092745490	8.889000E+00
365	  0.092945889	-1.838400E+01	  0.092945889	3.575500E+01	  0.092945889	6.016200E+01	  0.092945889	8.592000E+00
366	  0.093146294	-1.838700E+01	  0.093146294	3.359900E+01	  0.093146294	6.054000E+01	  0.093146294	8.186000E+00
367	  0.093346693	-1.845500E+01	  0.093346693	3.149400E+01	  0.093346693	6.080600E+01	  0.093346693	7.699000E+00
368	  0.093547091	-1.838300E+01	  0.093547091	2.979500E+01	  0.093547091	6.117600E+01	  0.093547091	7.431000E+00
369	  0.093747497	-1.830700E+01	  0.093747497	2.770000E+01	  0.093747497	6.160900E+01	  0.093747497	7.064000E+00
370	  0.093947895	-1.836900E+01	  0.093947895	2.598000E+01	  0.093947895	6.177100E+01	  0.093947895	6.625000E+00
371	  0.094148301	-1.830100E+01	  0.094148301	2.399500E+01	  0.094148301	6.215000E+01	  0.094148301	6.238000E+00
372	  0.094348699	-1.820200E+01	  0.094348699	2.272400E+01	  0.094348699	6.247300E+01	  0.094348699	6.027000E+00
373	  0.094549097	-1.836100E+01	  0.094549097	2.081000E+01	  0.094549097	6.246100E+01	  0.094549097	5.439000E+00
374	  0.094749503	-1.835600E+01	  0.094749503	1.882700E+01	  0.094749503	6.269500E+01	  0.094749503	4.962000E+00
375	  0.094949901	-1.829800E+01	  0.094949901	1.764100E+01	  0.094949901	6.291500E+01	  0.094949901	4.708000E+00
376	  0.095150299	-1.841300E+01	  0.095150299	1.575200E+01	  0.095150299	6.290900E+01	  0.095150299	4.160000E+00
377	  0.095350705	-1.820900E+01	  0.095350705	1.409000E+01	  0.095350705	6.340100E+01	  0.095350705	3.851000E+00
378	  0.095551103	-1.836600E+01	  0.095551103	1.231900E+01	  0.095551103	6.327000E+01	  0.095551103	3.306000E+00
379	  0.095751502	-1.840200E+01	  0.095751502	1.086400E+01	  0.095751502	6.330900E+01	  0.095751502	2.910000E+00
380	  0.095951907	-1.844400E+01	  0.095951907	9.410000E+00	  0.095951907	6.332300E+01	  0.095951907	2.512000E+00
381	  0.096152306	-1.847300E+01	  0.096152306	7.767000E+00	  0.096152306	6.335500E+01	  0.096152306	2.070000E+00
382	  0.096352704	-1.846400E+01	  0.096352704	6.390000E+00	  0.096352704	6.342800E+01	  0.096352704	1.709000E+00
383	  0.096553110	-1.838200E+01	  0.096553110	4.933000E+00	  0.096553110	6.362200E+01	  0.096553110	1.337000E+00
384	  0.096753508	-1.851500E+01	  0.096753508	3.922000E+00	  0.096753508	6.341500E+01	  0.096753508	1.044000E+00
385	  0.096953906	-1.853200E+01	  0.096953906	1.873000E+00	  0.096953906	6.341900E+01	  0.096953906	4.970000E-01
386	  0.097154312	-1.851900E+01	  0.097154312	1.042000E+00	  0.097154312	6.345000E+01	  0.097154312	2.770000E-01
387	  0.097354710	-1.853600E+01	  0.097354710	-5.020000E-01	  0.097354710	6.342300E+01	  0.097354710	-1.330000E-01
388	  0.097555116	-1.852100E+01	  0.097555116	-2.298000E+00	  0.097555116	6.343500E+01	  0.097555116	-6.110000E-01
389	  0.097755514	-1.847200E+01	  0.097755514	-3.288000E+00	  0.097755514	6.350300E+01	  0.097755514	-8.810000E-01
390	  0.097955912	-1.855900E+01	  0.097955912	-4.362000E+00	  0.097955912	6.332700E+01	  0.097955912	-1.153000E+00
391	  0.098156318	-1.862600E+01	  0.098156318	-5.811000E+00	  0.098156318	6.316800E+01	  0.098156318	-1.519000E+00
392	  0.098356716	-1.862800E+01	  0.098356716	-7.964000E+00	  0.098356716	6.308000E+01	  0.098356716	-2.075000E+00
393	  0.098557115	-1.856600E+01	  0.098557115	-8.818000E+00	  0.098557115	6.314500E+01	  0.098557115	-2.315000E+00
394	  0.098757520	-1.869100E+01	  0.098757520	-9.740000E+00	  0.098757520	6.288500E+01	  0.098757520	-2.507000E+00
395	  0.098957919	-1.866400E+01	  0.098957919	-1.152300E+01	  0.098957919	6.282300E+01	  0.098957919	-2.967000E+00
396	  0.099158317	-1.867700E+01	  0.099158317	-1.279200E+01	  0.099158317	6.271400E+01	  0.099158317	-3.278000E+00
397	  0.099358723	-1.868000E+01	  0.099358723	-1.411300E+01	  0.099358723	6.261000E+01	  0.099358723	-3.602000E+00
398	  0.099559121	-1.874700E+01	  0.099559121	-1.577000E+01	  0.099559121	6.236600E+01	  0.099559121	-3.968000E+00
399	  0.099759519	-1.883000E+01	  0.099759519	-1.662400E+01	  0.099759519	6.216100E+01	  0.099759519	-4.123000E+00
400	  0.099959925	-1.888700E+01	  0.099959925	-1.717400E+01	  0.099959925	6.202400E+01	  0.099959925	-4.217000E+00
401	  0.100160323	-1.878500E+01	  0.100160323	-1.978500E+01	  0.100160323	6.192100E+01	  0.100160323	-4.885000E+00
402	  0.100360721	-1.889400E+01	  0.100360721	-2.090600E+01	  0.100360721	6.163800E+01	  0.100360721	-5.061000E+00
403	  0.100561127	-1.894700E+01	  0.100561127	-2.136500E+01	  0.100561127	6.151100E+01	  0.100561127	-5.124000E+00
404	  0.100761525	-1.897600E+01	  0.100761525	-2.328300E+01	  0.100761525	6.125100E+01	  0.100761525	-5.517000E+00
405	  0.100961931	-1.895200E+01	  0.100961931	-2.335500E+01	  0.100961931	6.127600E+01	  0.100961931	-5.551000E+00
406	  0.101162329	-1.900100E+01	  0.101162329	-2.515300E+01	  0.101162329	6.098900E+01	  0.101162329	-5.890000E+00
407	  0.101362728	-1.910800E+01	  0.101362728	-2.663300E+01	  0.101362728	6.065800E+01	  0.101362728	-6.101000E+00
408	  0.101563133	-1.905300E+01	  0.101563133	-2.793000E+01	  0.101563133	6.055700E+01	  0.101563133	-6.405000E+00
409	  0.101763532	-1.917400E+01	  0.101763532	-2.919400E+01	  0.101763532	6.023100E+01	  0.101763532	-6.540000E+00
410	  0.101963930	-1.915200E+01	  0.101963930	-3.012700E+01	  0.101963930	6.012800E+01	  0.101963930	-6.736000E+00
411	  0.102164336	-1.918000E+01	  0.102164336	-3.008500E+01	  0.102164336	6.010000E+01	  0.102164336	-6.702000E+00
412	  0.102364734	-1.929700E+01	  0.102364734	-3.180000E+01	  0.102364734	5.971500E+01	  0.102364734	-6.904000E+00
413	  0.102565132	-1.936700E+01	  0.102565132	-3.345000E+01	  0.102565132	5.939400E+01	  0.102565132	-7.124000E+00
414	  0.102765530	-1.919400E+01	  0.102765530	-3.455300E+01	  0.102765530	5.942100E+01	  0.102765530	-7.485000E+00
415	  0.102965929	-1.940400E+01	  0.102965929	-3.601700E+01	  0.102965929	5.896500E+01	  0.102965929	-7.512000E+00
416	  0.103166327	-1.938200E+01	  0.103166327	-3.648300E+01	  0.103166327	5.891600E+01	  0.103166327	-7.610000E+00
417	  0.103366733	-1.943200E+01	  0.103366733	-3.740300E+01	  0.103366733	5.872000E+01	  0.103366733	-7.702000E+00
418	  0.103567131	-1.933800E+01	  0.103567131	-3.906000E+01	  0.103567131	5.854700E+01	  0.103567131	-8.056000E+00
419	  0.103767529	-1.940300E+01	  0.103767529	-4.073300E+01	  0.103767529	5.820700E+01	  0.103767529	-8.230000E+00
420	  0.103967935	-1.940300E+01	  0.103967935	-4.141500E+01	  0.103967935	5.809200E+01	  0.103967935	-8.327000E+00
421	  0.104168333	-1.954700E+01	  0.104168333	-4.254800E+01	  0.104168333	5.777100E+01	  0.104168333	-8.323000E+00
422	  0.104368731	-1.937700E+01	  0.104368731	-4.395400E+01	  0.104368731	5.767800E+01	  0.104368731	-8.701000E+00
423	  0.104569137	-1.970600E+01	  0.104569137	-4.413100E+01	  0.104569137	5.736900E+01	  0.104569137	-8.353000E+00
424	  0.104769535	-1.949700E+01	  0.104769535	-4.581200E+01	  0.104769535	5.725200E+01	  0.104769535	-8.798000E+00
425	  0.104969934	-1.938100E+01	  0.104969934	-4.696100E+01	  0.104969934	5.714000E+01	  0.104969934	-9.074000E+00
426	  0.105170339	-1.988400E+01	  0.105170339	-4.861000E+01	  0.105170339	5.647400E+01	  0.105170339	-8.676000E+00
427	  0.105370738	-1.981200E+01	  0.105370738	-4.874900E+01	  0.105370738	5.650100E+01	  0.105370738	-8.772000E+00
428	  0.105571143	-1.971800E+01	  0.105571143	-4.925500E+01	  0.105571143	5.647900E+01	  0.105571143	-8.934000E+00
429	  0.105771542	-1.980800E+01	  0.105771542	-5.283800E+01	  0.105771542	5.578300E+01	  0.105771542	-9.185000E+00
430	  0.105971940	-1.980500E+01	  0.105971940	-5.148000E+01	  0.105971940	5.602700E+01	  0.105971940	-9.060000E+00
431	  0.106172346	-1.981300E+01	  0.106172346	-5.370300E+01	  0.106172346	5.562500E+01	  0.106172346	-9.257000E+00
432	  0.106372744	-1.989200E+01	  0.106372744	-5.475100E+01	  0.106372744	5.539200E+01	  0.106372744	-9.254000E+00
433	  0.106573142	-2.006300E+01	  0.106573142	-5.441500E+01	  0.106573142	5.535700E+01	  0.106573142	-9.026000E+00
434	  0.106773548	-1.999600E+01	  0.106773548	-5.551900E+01	  0.106773548	5.519900E+01	  0.106773548	-9.196000E+00
435	  0.106973946	-1.993000E+01	  0.106973946	-5.796100E+01	  0.106973946	5.479500E+01	  0.106973946	-9.460000E+00
436	  0.107174344	-2.011600E+01	  0.107174344	-5.729200E+01	  0.107174344	5.482500E+01	  0.107174344	-9.193000E+00
437	  0.107374750	-2.000100E+01	  0.107374750	-5.966500E+01	  0.107374750	5.445500E+01	  0.107374750	-9.493000E+00
438	  0.107575148	-2.014200E+01	  0.107575148	-6.050900E+01	  0.107575148	5.424500E+01	  0.107575148	-9.380000E+00
439	  0.107775547	-2.018600E+01	  0.107775547	-6.172800E+01	  0.107775547	5.401100E+01	  0.107775547	-9.401000E+00
440	  0.107975952	-2.027400E+01	  0.107975952	-6.248000E+01	  0.107975952	5.384600E+01	  0.107975952	-9.340000E+00
441	  0.108176351	-2.023500E+01	  0.108176351	-6.371100E+01	  0.108176351	5.364200E+01	  0.108176351	-9.451000E+00
442	  0.108376749	-2.031400E+01	  0.108376749	-6.530600E+01	  0.108376749	5.333600E+01	  0.108376749	-9.435000E+00
443	  0.108577155	-2.015900E+01	  0.108577155	-6.542000E+01	  0.108577155	5.336100E+01	  0.108577155	-9.621000E+00
444	  0.108777553	-2.016100E+01	  0.108777553	-6.706400E+01	  0.108777553	5.306600E+01	  0.108777553	-9.687000E+00
445	  0.108977959	-2.033200E+01	  0.108977959	-6.654800E+01	  0.108977959	5.311300E+01	  0.108977959	-9.467000E+00
446	  0.109178357	-2.054800E+01	  0.109178357	-6.783500E+01	  0.109178357	5.283600E+01	  0.109178357	-9.269000E+00
447	  0.109378755	-2.070000E+01	  0.109378755	-7.024200E+01	  0.109378755	5.239600E+01	  0.109378755	-9.176000E+00
448	  0.109579161	-2.052800E+01	  0.109579161	-6.992700E+01	  0.109579161	5.248200E+01	  0.109579161	-9.359000E+00
449	  0.109779559	-2.047200E+01	  0.109779559	-7.103600E+01	  0.109779559	5.230100E+01	  0.109779559	-9.453000E+00
450	  0.109979957	-2.067700E+01	  0.109979957	-7.315300E+01	  0.109979957	5.191100E+01	  0.109979957	-9.270000E+00
451	  0.110180363	-2.056900E+01	  0.110180363	-7.452200E+01	  0.110180363	5.169100E+01	  0.110180363	-9.413000E+00
452	  0.110380761	-2.063600E+01	  0.110380761	-7.446400E+01	  0.110380761	5.169500E+01	  0.110380761	-9.338000E+00
453	  0.110581160	-2.087500E+01	  0.110581160	-7.524500E+01	  0.110581160	5.154300E+01	  0.110581160	-9.087000E+00
454	  0.110781565	-2.068100E+01	  0.110781565	-7.696900E+01	  0.110781565	5.127100E+01	  0.110781565	-9.316000E+00
455	  0.110981964	-2.080100E+01	  0.110981964	-7.901000E+01	  0.110981964	5.093100E+01	  0.110981964	-9.194000E+00
456	  0.111182362	-2.080100E+01	  0.111182362	-8.005700E+01	  0.111182362	5.076000E+01	  0.111182362	-9.194000E+00
457	  0.111382768	-2.074900E+01	  0.111382768	-8.066700E+01	  0.111382768	5.066000E+01	  0.111382768	-9.249000E+00
458	  0.111583166	-2.067800E+01	  0.111583166	-8.135300E+01	  0.111583166	5.054500E+01	  0.111583166	-9.322000E+00
459	  0.111783572	-2.106500E+01	  0.111783572	-8.304000E+01	  0.111783572	5.029300E+01	  0.111783572	-8.902000E+00
460	  0.111983970	-2.090000E+01	  0.111983970	-8.277200E+01	  0.111983970	5.032600E+01	  0.111983970	-9.075000E+00
461	  0.112184368	-2.098300E+01	  0.112184368	-8.351500E+01	  0.112184368	5.021300E+01	  0.112184368	-8.981000E+00
462	  0.112384774	-2.080400E+01	  0.112384774	-8.553800E+01	  0.112384774	4.987700E+01	  0.112384774	-9.141000E+00
463	  0.112585172	-2.110500E+01	  0.112585172	-8.603300E+01	  0.112585172	4.983300E+01	  0.112585172	-8.823000E+00
464	  0.112785570	-2.133500E+01	  0.112785570	-8.625400E+01	  0.112785570	4.982400E+01	  0.112785570	-8.589000E+00
465	  0.112985976	-2.101500E+01	  0.112985976	-8.875100E+01	  0.112985976	4.940400E+01	  0.112985976	-8.858000E+00
466	  0.113186374	-2.122100E+01	  0.113186374	-8.849800E+01	  0.113186374	4.947400E+01	  0.113186374	-8.658000E+00
467	  0.113386773	-2.132600E+01	  0.113386773	-9.072200E+01	  0.113386773	4.916200E+01	  0.113386773	-8.501000E+00
468	  0.113587178	-2.120400E+01	  0.113587178	-9.043100E+01	  0.113587178	4.918300E+01	  0.113587178	-8.628000E+00
469	  0.113787577	-2.120300E+01	  0.113787577	-9.355700E+01	  0.113787577	4.872500E+01	  0.113787577	-8.532000E+00
470	  0.113987975	-2.130500E+01	  0.113987975	-9.321200E+01	  0.113987975	4.879700E+01	  0.113987975	-8.446000E+00
471	  0.114188381	-2.119000E+01	  0.114188381	-9.512700E+01	  0.114188381	4.849500E+01	  0.114188381	-8.487000E+00
472	  0.114388779	-2.136700E+01	  0.114388779	-9.677000E+01	  0.114388779	4.830900E+01	  0.114388779	-8.257000E+00
473	  0.114589177	-2.131400E+01	  0.114589177	-9.668700E+01	  0.114589177	4.830600E+01	  0.114589177	-8.309000E+00
474	  0.114789583	-2.137700E+01	  0.114789583	-9.733800E+01	  0.114789583	4.823300E+01	  0.114789583	-8.224000E+00
475	  0.114989981	-2.163800E+01	  0.114989981	-9.723000E+01	  0.114989981	4.831800E+01	  0.114989981	-7.993000E+00
476	  0.115190387	-2.156400E+01	  0.115190387	-9.915600E+01	  0.115190387	4.803900E+01	  0.115190387	-7.977000E+00
477	  0.115390785	-2.173600E+01	  0.115390785	-1.005580E+02	  0.115390785	4.790500E+01	  0.115390785	-7.764000E+00
478	  0.115591183	-2.167300E+01	  0.115591183	-1.012820E+02	  0.115591183	4.779200E+01	  0.115591183	-7.783000E+00
479	  0.115791589	-2.170700E+01	  0.115791589	-1.020530E+02	  0.115791589	4.770300E+01	  0.115791589	-7.717000E+00
480	  0.115991987	-2.145300E+01	  0.115991987	-1.038930E+02	  0.115991987	4.737800E+01	  0.115991987	-7.836000E+00
481	  0.116192386	-2.179800E+01	  0.116192386	-1.036620E+02	  0.116192386	4.753000E+01	  0.116192386	-7.559000E+00
482	  0.116392791	-2.168800E+01	  0.116392791	-1.048820E+02	  0.116392791	4.733800E+01	  0.116392791	-7.584000E+00
483	  0.116593190	-2.168500E+01	  0.116593190	-1.071470E+02	  0.116593190	4.705600E+01	  0.116593190	-7.457000E+00
484	  0.116793588	-2.163400E+01	  0.116793588	-1.068060E+02	  0.116793588	4.707800E+01	  0.116793588	-7.518000E+00
485	  0.116993994	-2.184000E+01	  0.116993994	-1.089460E+02	  0.116993994	4.690100E+01	  0.116993994	-7.225000E+00
486	  0.117194392	-2.190400E+01	  0.117194392	-1.106050E+02	  0.117194392	4.673400E+01	  0.117194392	-7.071000E+00
487	  0.117394790	-2.186700E+01	  0.117394790	-1.108470E+02	  0.117394790	4.669000E+01	  0.117394790	-7.084000E+00
488	  0.117595196	-2.190100E+01	  0.117595196	-1.112340E+02	  0.117595196	4.666000E+01	  0.117595196	-7.033000E+00
489	  0.117795594	-2.181000E+01	  0.117795594	-1.109100E+02	  0.117795594	4.665900E+01	  0.117795594	-7.123000E+00
490	  0.117995992	-2.183500E+01	  0.117995992	-1.139940E+02	  0.117995992	4.631900E+01	  0.117995992	-6.896000E+00
491	  0.118196398	-2.186400E+01	  0.118196398	-1.138050E+02	  0.118196398	4.635300E+01	  0.118196398	-6.888000E+00
492	  0.118396796	-2.185200E+01	  0.118396796	-1.152510E+02	  0.118396796	4.618800E+01	  0.118396796	-6.794000E+00
493	  0.118597202	-2.204400E+01	  0.118597202	-1.165960E+02	  0.118597202	4.613400E+01	  0.118597202	-6.561000E+00
494	  0.118797600	-2.213100E+01	  0.118797600	-1.164250E+02	  0.118797600	4.619400E+01	  0.118797600	-6.512000E+00
495	  0.118997999	-2.222300E+01	  0.118997999	-1.187930E+02	  0.118997999	4.599400E+01	  0.118997999	-6.278000E+00
496	  0.119198404	-2.209500E+01	  0.119198404	-1.193970E+02	  0.119198404	4.587000E+01	  0.119198404	-6.318000E+00
497	  0.119398803	-2.215800E+01	  0.119398803	-1.195870E+02	  0.119398803	4.588200E+01	  0.119398803	-6.262000E+00
498	  0.119599201	-2.220500E+01	  0.119599201	-1.217570E+02	  0.119599201	4.569200E+01	  0.119599201	-6.064000E+00
499	  0.119799607	-2.226700E+01	  0.119799607	-1.227270E+02	  0.119799607	4.563100E+01	  0.119799607	-5.949000E+00
500	  0.120000005	-2.238400E+01	  0.120000005	-1.232340E+02	  0.120000005	4.564500E+01	  0.120000005	-5.836000E+00
