! Anritsu VNA Master:             	Model: MS2036C/10/77
! SN:             	1601066
! /card0/usr/18may12.lna.rl/256b.lna.rl.txt
! Existing Calibration Information:
! TYPE:             	Current Settings	Active Cal Settings
! TIME:             	05/13/2018 01:19:33 PM	05/13/2018 01:12:19 PM
! INTERNAL TEMP:    	49.5 C	49.5 C
! # POINTS:         	500	500
! START FREQ:       	20.000 MHz	20.000 MHz
! STOP FREQ:        	120.000 MHz	120.000 MHz
! SOURCE POWER:     	Low	Low
! IFBW:             	10 Hz	10 Hz
! AVG FACTOR:       	  1 	  1 
! REF PLANE 1:      	0 mm	0 mm
! REF PLANE 2:      	0 mm	0 mm
! CAL TYPE:         	Full S22	Full S22
! CAL METHOD:       	SOLT	SOLT
! CAL LINE TYPE:    	Coax	Coax
! DUT PORT 1:       	K-Conn(M)	K-Conn(M)
! DUT PORT 2:       	K-Conn(M)	K-Conn(M)
! CAL STATUS:       	OK: Accuracy High	--
! PROP-V:       	0.700
! CABLE LOSS:       	0.000 dB/m
! REF IMPEDANCE:       	50.0
! Trace Specific Parameters:	TR1	TR2	TR3	TR4
! TRACE.#.Y (GRAPH TYPE)	LOG MAG	PHASE	REAL IMPEDANCE	IMAGINARY IMPEDANCE
! TRACE.#.X 	FREQ.GHZ	FREQ.GHZ	FREQ.GHZ	FREQ.GHZ
! S-PARAMETER	S22	S22	S22	S22
! SMOOTH/APERTURE %	0	0	0	0
! WINDOW	NSL	NSL	NSL	NSL
! GATING	OFF	OFF	OFF	OFF
! FGTD	OFF	OFF	OFF	OFF
Marker Information per Trace:	TR1	TR2	TR3	TR4
!MK1	--	"MK1 TR2:  12.585 170 MHz,##.##"	--	--
!MK2	--	--	"MK2 TR3:  360.721 kHz,##.##"	--
!MK3	--	--	--	--
!MK4	--	--	--	--
!MK5	--	--	--	--
!MK6	--	--	--	--
!MK7	--	--	--	--
!MK8	--	--	--	--
PNT	TR1.FREQ.GHZ	TR1.LOG MAG.dB	TR2.FREQ.GHZ	TR2.PHASE.deg	TR3.FREQ.GHZ	TR3.REAL IMPEDANCE.ohm	TR4.FREQ.GHZ	TR4.IMAGINARY IMPEDANCE.ohm
1	  0.020000000	-2.049600E+01	  0.020000000	2.952000E+01	  0.020000000	5.867500E+01	  0.020000000	5.510000E+00
2	  0.020200402	-2.048300E+01	  0.020200402	2.661700E+01	  0.020200402	5.900300E+01	  0.020200402	5.045000E+00
3	  0.020400802	-2.034200E+01	  0.020400802	2.479000E+01	  0.020400802	5.934800E+01	  0.020400802	4.829000E+00
4	  0.020601204	-2.025900E+01	  0.020601204	2.190000E+01	  0.020601204	5.972200E+01	  0.020601204	4.365000E+00
5	  0.020801604	-2.027600E+01	  0.020801604	1.886100E+01	  0.020801604	5.996100E+01	  0.020801604	3.791000E+00
6	  0.021002004	-2.028400E+01	  0.021002004	1.702300E+01	  0.021002004	6.008900E+01	  0.021002004	3.437000E+00
7	  0.021202406	-2.026500E+01	  0.021202406	1.394400E+01	  0.021202406	6.031700E+01	  0.021202406	2.846000E+00
8	  0.021402806	-2.035300E+01	  0.021402806	1.156700E+01	  0.021402806	6.033200E+01	  0.021402806	2.344000E+00
9	  0.021603208	-2.010800E+01	  0.021603208	9.590000E+00	  0.021603208	6.075100E+01	  0.021603208	2.018000E+00
10	  0.021803608	-2.017700E+01	  0.021803608	6.077000E+00	  0.021803608	6.077900E+01	  0.021803608	1.273000E+00
11	  0.022004008	-2.017300E+01	  0.022004008	3.724000E+00	  0.022004008	6.083600E+01	  0.022004008	7.820000E-01
12	  0.022204408	-2.006500E+01	  0.022204408	8.740000E-01	  0.022204408	6.101600E+01	  0.022204408	1.860000E-01
13	  0.022404809	-1.997400E+01	  0.022404809	-2.550000E+00	  0.022404809	6.113100E+01	  0.022404809	-5.510000E-01
14	  0.022605211	-1.990500E+01	  0.022605211	-5.057000E+00	  0.022605211	6.118600E+01	  0.022605211	-1.101000E+00
15	  0.022805611	-1.987200E+01	  0.022805611	-8.393000E+00	  0.022805611	6.112900E+01	  0.022805611	-1.829000E+00
16	  0.023006011	-1.994300E+01	  0.023006011	-1.136600E+01	  0.023006011	6.089400E+01	  0.023006011	-2.440000E+00
17	  0.023206413	-1.991400E+01	  0.023206413	-1.443400E+01	  0.023206413	6.075300E+01	  0.023206413	-3.090000E+00
18	  0.023406813	-1.984300E+01	  0.023406813	-1.783100E+01	  0.023406813	6.060100E+01	  0.023406813	-3.818000E+00
19	  0.023607215	-1.979300E+01	  0.023607215	-2.098700E+01	  0.023607215	6.039000E+01	  0.023607215	-4.476000E+00
20	  0.023807615	-1.973600E+01	  0.023807615	-2.523300E+01	  0.023807615	6.002400E+01	  0.023807615	-5.331000E+00
21	  0.024008015	-1.979500E+01	  0.024008015	-2.867900E+01	  0.024008015	5.954900E+01	  0.024008015	-5.913000E+00
22	  0.024208417	-1.973500E+01	  0.024208417	-3.180800E+01	  0.024208417	5.921400E+01	  0.024208417	-6.504000E+00
23	  0.024408817	-1.979400E+01	  0.024408817	-3.629900E+01	  0.024408817	5.852000E+01	  0.024408817	-7.169000E+00
24	  0.024609219	-1.957700E+01	  0.024609219	-4.047200E+01	  0.024609219	5.808700E+01	  0.024609219	-8.005000E+00
25	  0.024809619	-1.968400E+01	  0.024809619	-4.461100E+01	  0.024809619	5.730700E+01	  0.024809619	-8.437000E+00
26	  0.025010020	-1.969500E+01	  0.025010020	-4.931600E+01	  0.025010020	5.648400E+01	  0.025010020	-8.968000E+00
27	  0.025210422	-1.971100E+01	  0.025210422	-5.330100E+01	  0.025210422	5.575900E+01	  0.025210422	-9.343000E+00
28	  0.025410822	-1.977400E+01	  0.025410822	-5.860000E+01	  0.025410822	5.475100E+01	  0.025410822	-9.694000E+00
29	  0.025611224	-1.988200E+01	  0.025611224	-6.402900E+01	  0.025611224	5.370200E+01	  0.025611224	-9.889000E+00
30	  0.025811624	-1.987200E+01	  0.025811624	-6.983300E+01	  0.025811624	5.262500E+01	  0.025811624	-1.012900E+01
31	  0.026012026	-1.982400E+01	  0.026012026	-7.475400E+01	  0.026012026	5.171600E+01	  0.026012026	-1.028900E+01
32	  0.026212426	-2.007400E+01	  0.026212426	-8.134700E+01	  0.026212426	5.051900E+01	  0.026212426	-1.000100E+01
33	  0.026412826	-2.018800E+01	  0.026412826	-8.716200E+01	  0.026412826	4.952600E+01	  0.026412826	-9.774000E+00
34	  0.026613226	-2.031200E+01	  0.026613226	-9.411500E+01	  0.026613226	4.841300E+01	  0.026613226	-9.403000E+00
35	  0.026813626	-2.077200E+01	  0.026813626	-1.015140E+02	  0.026813626	4.745100E+01	  0.026813626	-8.579000E+00
36	  0.027014028	-2.109900E+01	  0.027014028	-1.085350E+02	  0.027014028	4.663700E+01	  0.027014028	-7.852000E+00
37	  0.027214428	-2.155400E+01	  0.027214428	-1.166900E+02	  0.027214428	4.588300E+01	  0.027214428	-6.903000E+00
38	  0.027414829	-2.202500E+01	  0.027414829	-1.253430E+02	  0.027414829	4.525500E+01	  0.027414829	-5.884000E+00
39	  0.027615231	-2.270800E+01	  0.027615231	-1.322240E+02	  0.027615231	4.505600E+01	  0.027615231	-4.911000E+00
40	  0.027815631	-2.333800E+01	  0.027815631	-1.406280E+02	  0.027815631	4.484000E+01	  0.027815631	-3.891000E+00
41	  0.028016033	-2.415800E+01	  0.028016033	-1.494670E+02	  0.028016033	4.484900E+01	  0.028016033	-2.834000E+00
42	  0.028216433	-2.505700E+01	  0.028216433	-1.577320E+02	  0.028216433	4.504500E+01	  0.028216433	-1.913000E+00
43	  0.028416833	-2.593400E+01	  0.028416833	-1.654870E+02	  0.028416833	4.532500E+01	  0.028416833	-1.150000E+00
44	  0.028617235	-2.697500E+01	  0.028617235	-1.731060E+02	  0.028617235	4.573900E+01	  0.028617235	-4.920000E-01
45	  0.028817635	-2.813500E+01	  0.028817635	1.779240E+02	  0.028817635	4.623000E+01	  0.028817635	1.310000E-01
46	  0.029018037	-2.944000E+01	  0.029018037	1.709520E+02	  0.029018037	4.677300E+01	  0.029018037	4.960000E-01
47	  0.029218437	-3.073800E+01	  0.029218437	1.618770E+02	  0.029218437	4.730600E+01	  0.029218437	8.550000E-01
48	  0.029418837	-3.230300E+01	  0.029418837	1.567140E+02	  0.029418837	4.781100E+01	  0.029418837	9.170000E-01
49	  0.029619239	-3.314600E+01	  0.029619239	1.457690E+02	  0.029619239	4.819700E+01	  0.029619239	1.194000E+00
50	  0.029819639	-3.443900E+01	  0.029819639	1.401390E+02	  0.029819639	4.855000E+01	  0.029819639	1.180000E+00
51	  0.030020041	-3.613300E+01	  0.030020041	1.330680E+02	  0.030020041	4.893200E+01	  0.030020041	1.116000E+00
52	  0.030220442	-3.801400E+01	  0.030220442	1.203420E+02	  0.030220442	4.935700E+01	  0.030220442	1.070000E+00
53	  0.030420844	-3.952600E+01	  0.030420844	1.126490E+02	  0.030420844	4.958500E+01	  0.030420844	9.660000E-01
54	  0.030621244	-4.077200E+01	  0.030621244	9.537700E+01	  0.030621244	4.990600E+01	  0.030621244	9.090000E-01
55	  0.030821644	-4.214000E+01	  0.030821644	9.122700E+01	  0.030821644	4.997700E+01	  0.030821644	7.810000E-01
56	  0.031022044	-4.258100E+01	  0.031022044	8.132900E+01	  0.031022044	5.010600E+01	  0.031022044	7.360000E-01
57	  0.031222444	-4.308200E+01	  0.031222444	6.942900E+01	  0.031222444	5.024200E+01	  0.031222444	6.590000E-01
58	  0.031422846	-4.411500E+01	  0.031422846	5.301200E+01	  0.031422846	5.037300E+01	  0.031422846	5.010000E-01
59	  0.031623244	-4.630900E+01	  0.031623244	5.987400E+01	  0.031623244	5.024100E+01	  0.031623244	4.200000E-01
60	  0.031823646	-4.581000E+01	  0.031823646	3.441500E+01	  0.031823646	5.042300E+01	  0.031823646	2.910000E-01
61	  0.032024048	-4.491300E+01	  0.032024048	2.791100E+01	  0.032024048	5.050300E+01	  0.032024048	2.680000E-01
62	  0.032224450	-4.758200E+01	  0.032224450	2.084000E+00	  0.032224450	5.041900E+01	  0.032224450	1.500000E-02
63	  0.032424849	-4.753800E+01	  0.032424849	8.485000E+00	  0.032424849	5.041600E+01	  0.032424849	6.200000E-02
64	  0.032625251	-4.986800E+01	  0.032625251	1.993000E+01	  0.032625251	5.030200E+01	  0.032625251	1.100000E-01
65	  0.032825653	-4.860900E+01	  0.032825653	-9.932000E+00	  0.032825653	5.036600E+01	  0.032825653	-6.400000E-02
66	  0.033026051	-4.899700E+01	  0.033026051	-1.095000E+00	  0.033026051	5.035600E+01	  0.033026051	-6.000000E-03
67	  0.033226453	-4.812800E+01	  0.033226453	1.584000E+00	  0.033226453	5.039300E+01	  0.033226453	1.000000E-02
68	  0.033426855	-5.069800E+01	  0.033426855	-1.107600E+01	  0.033426855	5.028700E+01	  0.033426855	-5.600000E-02
69	  0.033627257	-4.852100E+01	  0.033627257	-8.307000E+00	  0.033627257	5.037200E+01	  0.033627257	-5.400000E-02
70	  0.033827655	-4.925500E+01	  0.033827655	-1.116900E+01	  0.033827655	5.033900E+01	  0.033827655	-6.700000E-02
71	  0.034028057	-5.217000E+01	  0.034028057	-2.004600E+01	  0.034028057	5.023100E+01	  0.034028057	-8.400000E-02
72	  0.034228459	-5.294300E+01	  0.034228459	-1.057000E+01	  0.034228459	5.022100E+01	  0.034228459	-4.100000E-02
73	  0.034428857	-5.341500E+01	  0.034428857	-7.839000E+00	  0.034428857	5.021100E+01	  0.034428857	-2.900000E-02
74	  0.034629259	-5.251600E+01	  0.034629259	-1.218000E+00	  0.034629259	5.023700E+01	  0.034629259	-5.000000E-03
75	  0.034829661	-5.550600E+01	  0.034829661	5.416600E+01	  0.034829661	5.009800E+01	  0.034829661	1.360000E-01
76	  0.035030060	-6.500100E+01	  0.035030060	-4.734100E+01	  0.035030060	5.003800E+01	  0.035030060	-4.100000E-02
77	  0.035230462	-5.422200E+01	  0.035230462	5.172100E+01	  0.035230462	5.012000E+01	  0.035230462	1.530000E-01
78	  0.035430863	-5.166500E+01	  0.035430863	7.027900E+01	  0.035430863	5.008700E+01	  0.035430863	2.460000E-01
79	  0.035631265	-5.265400E+01	  0.035631265	4.830500E+01	  0.035631265	5.015400E+01	  0.035631265	1.740000E-01
80	  0.035831664	-5.170500E+01	  0.035831664	5.003400E+01	  0.035831664	5.016600E+01	  0.035831664	1.990000E-01
81	  0.036032066	-5.551500E+01	  0.036032066	6.606400E+01	  0.036032066	5.006700E+01	  0.036032066	1.530000E-01
82	  0.036232468	-5.251600E+01	  0.036232468	5.285800E+01	  0.036232468	5.014200E+01	  0.036232468	1.890000E-01
83	  0.036432866	-5.204400E+01	  0.036432866	5.714100E+01	  0.036432866	5.013500E+01	  0.036432866	2.100000E-01
84	  0.036633268	-5.334200E+01	  0.036633268	4.492800E+01	  0.036633268	5.015200E+01	  0.036633268	1.520000E-01
85	  0.036833670	-4.973800E+01	  0.036833670	6.152300E+01	  0.036833670	5.015400E+01	  0.036833670	2.870000E-01
86	  0.037034072	-4.999400E+01	  0.037034072	4.724800E+01	  0.037034072	5.021400E+01	  0.037034072	2.330000E-01
87	  0.037234470	-5.014600E+01	  0.037234470	4.644400E+01	  0.037234470	5.021400E+01	  0.037234470	2.260000E-01
88	  0.037434869	-4.680700E+01	  0.037434869	4.771400E+01	  0.037434869	5.030700E+01	  0.037434869	3.390000E-01
89	  0.037635271	-4.873600E+01	  0.037635271	7.571700E+01	  0.037635271	5.008900E+01	  0.037635271	3.550000E-01
90	  0.037835669	-4.919600E+01	  0.037835669	5.514400E+01	  0.037835669	5.019700E+01	  0.037835669	2.850000E-01
91	  0.038036071	-4.943700E+01	  0.038036071	6.040900E+01	  0.038036071	5.016600E+01	  0.038036071	2.940000E-01
92	  0.038236473	-4.749000E+01	  0.038236473	5.196600E+01	  0.038236473	5.025900E+01	  0.038236473	3.340000E-01
93	  0.038436871	-4.646900E+01	  0.038436871	6.180100E+01	  0.038436871	5.022300E+01	  0.038436871	4.200000E-01
94	  0.038637273	-4.879700E+01	  0.038637273	6.788400E+01	  0.038637273	5.013500E+01	  0.038637273	3.370000E-01
95	  0.038837675	-4.916500E+01	  0.038837675	7.839200E+01	  0.038837675	5.006800E+01	  0.038837675	3.410000E-01
96	  0.039038073	-4.759500E+01	  0.039038073	5.434900E+01	  0.039038073	5.024200E+01	  0.039038073	3.400000E-01
97	  0.039238475	-4.659200E+01	  0.039238475	5.466900E+01	  0.039238475	5.026900E+01	  0.039238475	3.830000E-01
98	  0.039438877	-4.970300E+01	  0.039438877	4.957600E+01	  0.039438877	5.021100E+01	  0.039438877	2.500000E-01
99	  0.039639279	-4.948200E+01	  0.039639279	6.211100E+01	  0.039639279	5.015600E+01	  0.039639279	2.970000E-01
100	  0.039839678	-4.765200E+01	  0.039839678	7.123200E+01	  0.039839678	5.013100E+01	  0.039839678	3.930000E-01
101	  0.040040080	-4.842200E+01	  0.040040080	7.089500E+01	  0.040040080	5.012200E+01	  0.040040080	3.590000E-01
102	  0.040240481	-4.654200E+01	  0.040240481	6.168800E+01	  0.040240481	5.022200E+01	  0.040240481	4.160000E-01
103	  0.040440880	-4.571700E+01	  0.040440880	6.071400E+01	  0.040440880	5.025100E+01	  0.040440880	4.530000E-01
104	  0.040641282	-4.721700E+01	  0.040641282	5.230000E+01	  0.040641282	5.026500E+01	  0.040641282	3.460000E-01
105	  0.040841684	-4.474500E+01	  0.040841684	5.763100E+01	  0.040841684	5.030800E+01	  0.040841684	4.920000E-01
106	  0.041042086	-4.710000E+01	  0.041042086	7.780600E+01	  0.041042086	5.009100E+01	  0.041042086	4.320000E-01
107	  0.041242484	-4.928300E+01	  0.041242484	7.849800E+01	  0.041242484	5.006700E+01	  0.041242484	3.360000E-01
108	  0.041442886	-4.745500E+01	  0.041442886	7.899300E+01	  0.041442886	5.007900E+01	  0.041442886	4.160000E-01
109	  0.041643288	-4.678000E+01	  0.041643288	7.368000E+01	  0.041643288	5.012600E+01	  0.041643288	4.400000E-01
110	  0.041843686	-4.686500E+01	  0.041843686	7.284000E+01	  0.041843686	5.013200E+01	  0.041843686	4.340000E-01
111	  0.042044088	-4.696800E+01	  0.042044088	7.276200E+01	  0.042044088	5.013100E+01	  0.042044088	4.290000E-01
112	  0.042244490	-4.590500E+01	  0.042244490	8.453600E+01	  0.042244490	5.004500E+01	  0.042244490	5.040000E-01
113	  0.042444889	-4.520000E+01	  0.042444889	7.677100E+01	  0.042444889	5.012300E+01	  0.042444889	5.360000E-01
114	  0.042645290	-4.471000E+01	  0.042645290	8.690100E+01	  0.042645290	5.002800E+01	  0.042645290	5.800000E-01
115	  0.042845692	-4.667700E+01	  0.042845692	7.786100E+01	  0.042845692	5.009500E+01	  0.042845692	4.540000E-01
116	  0.043046094	-4.484000E+01	  0.043046094	7.918800E+01	  0.043046094	5.010400E+01	  0.043046094	5.630000E-01
117	  0.043246493	-4.522700E+01	  0.043246493	9.181900E+01	  0.043246493	4.997900E+01	  0.043246493	5.470000E-01
118	  0.043446895	-4.429900E+01	  0.043446895	8.643300E+01	  0.043446895	5.003400E+01	  0.043446895	6.080000E-01
119	  0.043647297	-4.410600E+01	  0.043647297	8.489500E+01	  0.043647297	5.005100E+01	  0.043647297	6.210000E-01
120	  0.043847695	-4.474300E+01	  0.043847695	9.928100E+01	  0.043847695	4.990300E+01	  0.043847695	5.700000E-01
121	  0.044048097	-4.334700E+01	  0.044048097	8.947500E+01	  0.044048097	5.000100E+01	  0.044048097	6.800000E-01
122	  0.044248499	-4.317300E+01	  0.044248499	9.779400E+01	  0.044248499	4.990100E+01	  0.044248499	6.860000E-01
123	  0.044448901	-4.251700E+01	  0.044448901	9.223700E+01	  0.044448901	4.996500E+01	  0.044448901	7.470000E-01
124	  0.044649299	-4.237800E+01	  0.044649299	9.823800E+01	  0.044649299	4.988500E+01	  0.044649299	7.500000E-01
125	  0.044849701	-4.212500E+01	  0.044849701	9.125400E+01	  0.044849701	4.997600E+01	  0.044849701	7.820000E-01
126	  0.045050103	-4.206900E+01	  0.045050103	1.056080E+02	  0.045050103	4.978200E+01	  0.045050103	7.550000E-01
127	  0.045250501	-4.287500E+01	  0.045250501	1.028020E+02	  0.045250501	4.983600E+01	  0.045250501	6.980000E-01
128	  0.045450903	-4.115900E+01	  0.045450903	9.400200E+01	  0.045450903	4.993100E+01	  0.045450903	8.710000E-01
129	  0.045651305	-4.057200E+01	  0.045651305	9.443700E+01	  0.045651305	4.991800E+01	  0.045651305	9.310000E-01
130	  0.045851704	-4.034800E+01	  0.045851704	9.506900E+01	  0.045851704	4.990600E+01	  0.045851704	9.550000E-01
131	  0.046052106	-4.060400E+01	  0.046052106	9.502300E+01	  0.046052106	4.990900E+01	  0.046052106	9.270000E-01
132	  0.046252504	-4.009500E+01	  0.046252504	8.998100E+01	  0.046252504	4.999000E+01	  0.046252504	9.880000E-01
133	  0.046452906	-4.025200E+01	  0.046452906	8.605900E+01	  0.046452906	5.005700E+01	  0.046452906	9.700000E-01
134	  0.046653304	-3.978200E+01	  0.046653304	9.663000E+01	  0.046653304	4.987100E+01	  0.046653304	1.015000E+00
135	  0.046853706	-3.914500E+01	  0.046853706	9.604200E+01	  0.046853706	4.987100E+01	  0.046853706	1.094000E+00
136	  0.047054108	-3.892500E+01	  0.047054108	9.517400E+01	  0.047054108	4.988500E+01	  0.047054108	1.124000E+00
137	  0.047254506	-3.902600E+01	  0.047254506	9.134300E+01	  0.047254506	4.996100E+01	  0.047254506	1.117000E+00
138	  0.047454908	-3.732600E+01	  0.047454908	9.769300E+01	  0.047454908	4.980000E+01	  0.047454908	1.343000E+00
139	  0.047655310	-3.736400E+01	  0.047655310	8.765400E+01	  0.047655310	5.003700E+01	  0.047655310	1.354000E+00
140	  0.047855709	-3.736000E+01	  0.047855709	9.099000E+01	  0.047855709	4.995800E+01	  0.047855709	1.354000E+00
141	  0.048056111	-3.669100E+01	  0.048056111	9.202700E+01	  0.048056111	4.992600E+01	  0.048056111	1.460000E+00
142	  0.048256513	-3.672500E+01	  0.048256513	8.901900E+01	  0.048256513	5.000300E+01	  0.048256513	1.458000E+00
143	  0.048456915	-3.622300E+01	  0.048456915	9.047500E+01	  0.048456915	4.996300E+01	  0.048456915	1.543000E+00
144	  0.048657313	-3.655100E+01	  0.048657313	9.118400E+01	  0.048657313	4.994700E+01	  0.048657313	1.485000E+00
145	  0.048857715	-3.614000E+01	  0.048857715	8.461000E+01	  0.048857715	5.012200E+01	  0.048857715	1.556000E+00
146	  0.049058117	-3.564000E+01	  0.049058117	8.511600E+01	  0.049058117	5.011300E+01	  0.049058117	1.650000E+00
147	  0.049258515	-3.579400E+01	  0.049258515	8.510700E+01	  0.049258515	5.011200E+01	  0.049258515	1.620000E+00
148	  0.049458917	-3.550500E+01	  0.049458917	8.594400E+01	  0.049458917	5.009000E+01	  0.049458917	1.677000E+00
149	  0.049659319	-3.545800E+01	  0.049659319	8.538100E+01	  0.049659319	5.010700E+01	  0.049659319	1.685000E+00
150	  0.049859721	-3.486500E+01	  0.049859721	8.368700E+01	  0.049859721	5.016600E+01	  0.049859721	1.801000E+00
151	  0.050060119	-3.506800E+01	  0.050060119	8.197100E+01	  0.050060119	5.021600E+01	  0.050060119	1.755000E+00
152	  0.050260521	-3.530500E+01	  0.050260521	8.370800E+01	  0.050260521	5.015900E+01	  0.050260521	1.712000E+00
153	  0.050460923	-3.446000E+01	  0.050460923	7.678100E+01	  0.050460923	5.040000E+01	  0.050460923	1.857000E+00
154	  0.050661322	-3.471500E+01	  0.050661322	7.798000E+01	  0.050661322	5.035100E+01	  0.050661322	1.810000E+00
155	  0.050861724	-3.419700E+01	  0.050861724	7.913300E+01	  0.050861724	5.033100E+01	  0.050861724	1.928000E+00
156	  0.051062126	-3.414400E+01	  0.051062126	7.893700E+01	  0.051062126	5.034000E+01	  0.051062126	1.939000E+00
157	  0.051262524	-3.380800E+01	  0.051262524	7.863200E+01	  0.051262524	5.036300E+01	  0.051262524	2.015000E+00
158	  0.051462926	-3.393300E+01	  0.051462926	7.558300E+01	  0.051462926	5.046400E+01	  0.051462926	1.966000E+00
159	  0.051663328	-3.394300E+01	  0.051663328	7.272800E+01	  0.051663328	5.056200E+01	  0.051663328	1.939000E+00
160	  0.051863730	-3.360400E+01	  0.051863730	7.592000E+01	  0.051863730	5.046800E+01	  0.051863730	2.045000E+00
161	  0.052064128	-3.361200E+01	  0.052064128	7.116800E+01	  0.052064128	5.063800E+01	  0.052064128	2.000000E+00
162	  0.052264530	-3.398900E+01	  0.052264530	7.327100E+01	  0.052264530	5.054100E+01	  0.052264530	1.934000E+00
163	  0.052464932	-3.305000E+01	  0.052464932	6.981400E+01	  0.052464932	5.072900E+01	  0.052464932	2.120000E+00
164	  0.052665330	-3.302600E+01	  0.052665330	6.932900E+01	  0.052665330	5.074900E+01	  0.052665330	2.120000E+00
165	  0.052865732	-3.359000E+01	  0.052865732	6.970400E+01	  0.052865732	5.069100E+01	  0.052865732	1.989000E+00
166	  0.053066134	-3.338600E+01	  0.053066134	6.878100E+01	  0.053066134	5.074000E+01	  0.053066134	2.026000E+00
167	  0.053266536	-3.281300E+01	  0.053266536	6.909400E+01	  0.053266536	5.077600E+01	  0.053266536	2.171000E+00
168	  0.053466935	-3.305700E+01	  0.053466935	6.612600E+01	  0.053466935	5.086500E+01	  0.053466935	2.069000E+00
169	  0.053667337	-3.284100E+01	  0.053667337	6.646300E+01	  0.053667337	5.087300E+01	  0.053667337	2.127000E+00
170	  0.053867739	-3.282700E+01	  0.053867739	6.510300E+01	  0.053867739	5.092600E+01	  0.053867739	2.110000E+00
171	  0.054068137	-3.268500E+01	  0.054068137	6.133200E+01	  0.054068137	5.108300E+01	  0.054068137	2.081000E+00
172	  0.054268539	-3.278900E+01	  0.054268539	6.214400E+01	  0.054268539	5.104000E+01	  0.054268539	2.071000E+00
173	  0.054468941	-3.264500E+01	  0.054468941	5.778200E+01	  0.054468941	5.121800E+01	  0.054468941	2.022000E+00
174	  0.054669339	-3.247400E+01	  0.054669339	6.016300E+01	  0.054669339	5.115300E+01	  0.054669339	2.111000E+00
175	  0.054869737	-3.275500E+01	  0.054869737	6.142900E+01	  0.054869737	5.107100E+01	  0.054869737	2.066000E+00
176	  0.055070139	-3.250600E+01	  0.055070139	5.633200E+01	  0.055070139	5.129000E+01	  0.055070139	2.024000E+00
177	  0.055270538	-3.222700E+01	  0.055270538	5.668400E+01	  0.055270538	5.131800E+01	  0.055270538	2.100000E+00
178	  0.055470940	-3.232300E+01	  0.055470940	5.471000E+01	  0.055470940	5.137700E+01	  0.055470940	2.031000E+00
179	  0.055671342	-3.239400E+01	  0.055671342	5.541200E+01	  0.055671342	5.134000E+01	  0.055671342	2.030000E+00
180	  0.055871744	-3.249600E+01	  0.055871744	5.203300E+01	  0.055871744	5.144400E+01	  0.055871744	1.925000E+00
181	  0.056072142	-3.273300E+01	  0.056072142	5.182500E+01	  0.056072142	5.141300E+01	  0.056072142	1.867000E+00
182	  0.056272544	-3.226300E+01	  0.056272544	4.881600E+01	  0.056272544	5.159500E+01	  0.056272544	1.893000E+00
183	  0.056472946	-3.265000E+01	  0.056472946	5.009600E+01	  0.056472946	5.148400E+01	  0.056472946	1.841000E+00
184	  0.056673344	-3.235700E+01	  0.056673344	4.807100E+01	  0.056673344	5.160300E+01	  0.056673344	1.852000E+00
185	  0.056873746	-3.230400E+01	  0.056873746	4.355800E+01	  0.056873746	5.175900E+01	  0.056873746	1.731000E+00
186	  0.057074148	-3.252800E+01	  0.057074148	4.490400E+01	  0.057074148	5.167300E+01	  0.057074148	1.725000E+00
187	  0.057274550	-3.288700E+01	  0.057274550	4.503500E+01	  0.057274550	5.160100E+01	  0.057274550	1.656000E+00
188	  0.057474948	-3.247900E+01	  0.057474948	4.404300E+01	  0.057474948	5.170900E+01	  0.057474948	1.709000E+00
189	  0.057675350	-3.283900E+01	  0.057675350	4.462900E+01	  0.057675350	5.162200E+01	  0.057675350	1.654000E+00
190	  0.057875752	-3.251600E+01	  0.057875752	4.058600E+01	  0.057875752	5.180500E+01	  0.057875752	1.596000E+00
191	  0.058076151	-3.212300E+01	  0.058076151	4.002900E+01	  0.058076151	5.190600E+01	  0.058076151	1.654000E+00
192	  0.058276553	-3.249100E+01	  0.058276553	4.141900E+01	  0.058276553	5.178600E+01	  0.058276553	1.627000E+00
193	  0.058476955	-3.275100E+01	  0.058476955	3.768200E+01	  0.058476955	5.183600E+01	  0.058476955	1.460000E+00
194	  0.058677353	-3.241700E+01	  0.058677353	3.838900E+01	  0.058677353	5.188800E+01	  0.058677353	1.543000E+00
195	  0.058877755	-3.270900E+01	  0.058877755	3.755800E+01	  0.058877755	5.184800E+01	  0.058877755	1.463000E+00
196	  0.059078157	-3.245400E+01	  0.059078157	3.437700E+01	  0.059078157	5.198700E+01	  0.059078157	1.400000E+00
197	  0.059278559	-3.279900E+01	  0.059278559	3.329600E+01	  0.059278559	5.193500E+01	  0.059278559	1.307000E+00
198	  0.059478957	-3.318200E+01	  0.059478957	3.366000E+01	  0.059478957	5.184200E+01	  0.059478957	1.260000E+00
199	  0.059679359	-3.318000E+01	  0.059679359	3.296800E+01	  0.059679359	5.185800E+01	  0.059679359	1.238000E+00
200	  0.059879761	-3.368200E+01	  0.059879761	3.398600E+01	  0.059879761	5.173100E+01	  0.059879761	1.197000E+00
201	  0.060080159	-3.314200E+01	  0.060080159	3.352300E+01	  0.060080159	5.185400E+01	  0.060080159	1.262000E+00
202	  0.060280561	-3.327500E+01	  0.060280561	2.978800E+01	  0.060280561	5.190600E+01	  0.060280561	1.119000E+00
203	  0.060480963	-3.319400E+01	  0.060480963	2.903700E+01	  0.060480963	5.193900E+01	  0.060480963	1.104000E+00
204	  0.060681365	-3.342900E+01	  0.060681365	3.096600E+01	  0.060681365	5.184800E+01	  0.060681365	1.137000E+00
205	  0.060881764	-3.399900E+01	  0.060881764	2.628800E+01	  0.060881764	5.181300E+01	  0.060881764	9.160000E-01
206	  0.061082166	-3.385100E+01	  0.061082166	2.662700E+01	  0.061082166	5.183900E+01	  0.061082166	9.430000E-01
207	  0.061282568	-3.428200E+01	  0.061282568	2.487900E+01	  0.061282568	5.177600E+01	  0.061282568	8.410000E-01
208	  0.061482966	-3.427300E+01	  0.061482966	2.389000E+01	  0.061482966	5.179300E+01	  0.061482966	8.110000E-01
209	  0.061683368	-3.456000E+01	  0.061683368	2.361800E+01	  0.061683368	5.173700E+01	  0.061683368	7.750000E-01
210	  0.061883770	-3.463500E+01	  0.061883770	2.409000E+01	  0.061883770	5.171600E+01	  0.061883770	7.830000E-01
211	  0.062084168	-3.461900E+01	  0.062084168	2.202400E+01	  0.062084168	5.174700E+01	  0.062084168	7.210000E-01
212	  0.062284570	-3.501000E+01	  0.062284570	2.149200E+01	  0.062284570	5.167500E+01	  0.062284570	6.720000E-01
213	  0.062484972	-3.642900E+01	  0.062484972	1.941700E+01	  0.062484972	5.144000E+01	  0.062484972	5.160000E-01
214	  0.062685370	-3.559500E+01	  0.062685370	1.903800E+01	  0.062685370	5.159100E+01	  0.062685370	5.590000E-01
215	  0.062885776	-3.602900E+01	  0.062885776	2.183700E+01	  0.062885776	5.148400E+01	  0.062885776	6.050000E-01
216	  0.063086174	-3.564000E+01	  0.063086174	1.498200E+01	  0.063086174	5.161900E+01	  0.063086174	4.400000E-01
217	  0.063286573	-3.666400E+01	  0.063286573	1.667500E+01	  0.063286573	5.142400E+01	  0.063286573	4.330000E-01
218	  0.063486971	-3.700800E+01	  0.063486971	1.641600E+01	  0.063486971	5.137000E+01	  0.063486971	4.090000E-01
219	  0.063687377	-3.680800E+01	  0.063687377	2.023000E+01	  0.063687377	5.137000E+01	  0.063687377	5.130000E-01
220	  0.063887775	-3.678300E+01	  0.063887775	2.098000E+01	  0.063887775	5.136700E+01	  0.063887775	5.320000E-01
221	  0.064088173	-3.798200E+01	  0.064088173	1.185300E+01	  0.064088173	5.124900E+01	  0.064088173	2.650000E-01
222	  0.064288579	-3.733900E+01	  0.064288579	1.587400E+01	  0.064288579	5.132200E+01	  0.064288579	3.810000E-01
223	  0.064488977	-3.879900E+01	  0.064488977	1.725800E+01	  0.064488977	5.110700E+01	  0.064488977	3.480000E-01
224	  0.064689375	-3.894700E+01	  0.064689375	1.756300E+01	  0.064689375	5.108600E+01	  0.064689375	3.480000E-01
225	  0.064889781	-3.911900E+01	  0.064889781	2.364600E+01	  0.064889781	5.102200E+01	  0.064889781	4.530000E-01
226	  0.065090179	-3.957600E+01	  0.065090179	2.236300E+01	  0.065090179	5.097800E+01	  0.065090179	4.070000E-01
227	  0.065290578	-4.099900E+01	  0.065290578	1.685100E+01	  0.065290578	5.085900E+01	  0.065290578	2.620000E-01
228	  0.065490983	-4.022800E+01	  0.065490983	2.074100E+01	  0.065490983	5.091800E+01	  0.065490983	3.510000E-01
229	  0.065691382	-4.140100E+01	  0.065691382	3.756200E+01	  0.065691382	5.067600E+01	  0.065691382	5.250000E-01
230	  0.065891780	-4.118600E+01	  0.065891780	3.159000E+01	  0.065891780	5.074600E+01	  0.065891780	4.630000E-01
231	  0.066092186	-4.063500E+01	  0.066092186	3.394200E+01	  0.066092186	5.077400E+01	  0.066092186	5.270000E-01
232	  0.066292584	-4.322900E+01	  0.066292584	3.871500E+01	  0.066292584	5.053800E+01	  0.066292584	4.350000E-01
233	  0.066492982	-4.272700E+01	  0.066492982	4.241700E+01	  0.066492982	5.053900E+01	  0.066492982	4.980000E-01
234	  0.066693388	-4.259800E+01	  0.066693388	5.362500E+01	  0.066693388	5.043800E+01	  0.066693388	6.020000E-01
235	  0.066893786	-4.292200E+01	  0.066893786	4.419400E+01	  0.066893786	5.051200E+01	  0.066893786	5.030000E-01
236	  0.067094192	-4.276100E+01	  0.067094192	6.093000E+01	  0.067094192	5.035000E+01	  0.067094192	6.400000E-01
237	  0.067294590	-4.435500E+01	  0.067294590	6.025300E+01	  0.067294590	5.029800E+01	  0.067294590	5.290000E-01
238	  0.067494988	-4.480500E+01	  0.067494988	6.601000E+01	  0.067494988	5.023100E+01	  0.067494988	5.270000E-01
239	  0.067695394	-4.622800E+01	  0.067695394	5.024900E+01	  0.067695394	5.031100E+01	  0.067695394	3.770000E-01
240	  0.067895792	-4.144900E+01	  0.067895792	7.634700E+01	  0.067895792	5.019300E+01	  0.067895792	8.250000E-01
241	  0.068096191	-4.245100E+01	  0.068096191	7.289900E+01	  0.068096191	5.021600E+01	  0.068096191	7.230000E-01
242	  0.068296596	-4.352200E+01	  0.068296596	8.534000E+01	  0.068296596	5.004900E+01	  0.068296596	6.650000E-01
243	  0.068496995	-4.161700E+01	  0.068496995	8.969300E+01	  0.068496995	4.999700E+01	  0.068496995	8.300000E-01
244	  0.068697393	-4.190000E+01	  0.068697393	9.503800E+01	  0.068697393	4.992300E+01	  0.068697393	7.990000E-01
245	  0.068897791	-4.094900E+01	  0.068897791	9.679600E+01	  0.068897791	4.988600E+01	  0.068897791	8.880000E-01
246	  0.069098189	-4.032900E+01	  0.069098189	9.596000E+01	  0.069098189	4.989000E+01	  0.069098189	9.550000E-01
247	  0.069298595	-3.964700E+01	  0.069298595	9.789000E+01	  0.069298595	4.984600E+01	  0.069298595	1.028000E+00
248	  0.069498993	-3.842000E+01	  0.069498993	9.828300E+01	  0.069498993	4.981300E+01	  0.069498993	1.182000E+00
249	  0.069699399	-3.893900E+01	  0.069699399	1.004170E+02	  0.069699399	4.978300E+01	  0.069699399	1.106000E+00
250	  0.069899797	-3.775000E+01	  0.069899797	9.743400E+01	  0.069899797	4.981600E+01	  0.069899797	1.280000E+00
251	  0.070100196	-3.642000E+01	  0.070100196	1.053630E+02	  0.070100196	4.958000E+01	  0.070100196	1.444000E+00
252	  0.070300601	-3.669500E+01	  0.070300601	1.042390E+02	  0.070300601	4.962100E+01	  0.070300601	1.407000E+00
253	  0.070501000	-3.643400E+01	  0.070501000	9.833900E+01	  0.070501000	4.975900E+01	  0.070501000	1.484000E+00
254	  0.070701398	-3.646500E+01	  0.070701398	1.003720E+02	  0.070701398	4.970800E+01	  0.070701398	1.469000E+00
255	  0.070901804	-3.618900E+01	  0.070901804	1.054160E+02	  0.070901804	4.956700E+01	  0.070901804	1.482000E+00
256	  0.071102202	-3.569700E+01	  0.071102202	1.048750E+02	  0.071102202	4.955500E+01	  0.071102202	1.572000E+00
257	  0.071302600	-3.468000E+01	  0.071302600	1.032020E+02	  0.071302600	4.954800E+01	  0.071302600	1.780000E+00
258	  0.071503006	-3.412300E+01	  0.071503006	9.976800E+01	  0.071503006	4.963000E+01	  0.071503006	1.924000E+00
259	  0.071703404	-3.474300E+01	  0.071703404	9.974300E+01	  0.071703404	4.965800E+01	  0.071703404	1.793000E+00
260	  0.071903802	-3.360000E+01	  0.071903802	1.049290E+02	  0.071903802	4.942400E+01	  0.071903802	1.996000E+00
261	  0.072104208	-3.321800E+01	  0.072104208	1.034320E+02	  0.072104208	4.945100E+01	  0.072104208	2.101000E+00
262	  0.072304606	-3.280700E+01	  0.072304606	9.937300E+01	  0.072304606	4.957800E+01	  0.072304606	2.240000E+00
263	  0.072505005	-3.219100E+01	  0.072505005	9.740800E+01	  0.072505005	4.962500E+01	  0.072505005	2.419000E+00
264	  0.072705410	-3.254100E+01	  0.072705410	9.461100E+01	  0.072705410	4.975500E+01	  0.072705410	2.342000E+00
265	  0.072905809	-3.218000E+01	  0.072905809	9.560800E+01	  0.072905809	4.970000E+01	  0.072905809	2.435000E+00
266	  0.073106214	-3.218700E+01	  0.073106214	9.180500E+01	  0.073106214	4.986200E+01	  0.073106214	2.451000E+00
267	  0.073306613	-3.128400E+01	  0.073306613	9.191800E+01	  0.073306613	4.983400E+01	  0.073306613	2.718000E+00
268	  0.073507011	-3.184000E+01	  0.073507011	9.291700E+01	  0.073507011	4.980400E+01	  0.073507011	2.546000E+00
269	  0.073707417	-3.118300E+01	  0.073707417	9.049100E+01	  0.073707417	4.990000E+01	  0.073707417	2.756000E+00
270	  0.073907815	-3.135700E+01	  0.073907815	9.147700E+01	  0.073907815	4.985700E+01	  0.073907815	2.698000E+00
271	  0.074108213	-3.099300E+01	  0.074108213	9.124500E+01	  0.074108213	4.985900E+01	  0.074108213	2.814000E+00
272	  0.074308619	-3.098700E+01	  0.074308619	8.748400E+01	  0.074308619	5.004400E+01	  0.074308619	2.824000E+00
273	  0.074509017	-3.056500E+01	  0.074509017	8.904100E+01	  0.074509017	4.996100E+01	  0.074509017	2.962000E+00
274	  0.074709415	-3.006200E+01	  0.074709415	8.732000E+01	  0.074709415	5.004800E+01	  0.074709415	3.142000E+00
275	  0.074909821	-3.012800E+01	  0.074909821	8.455700E+01	  0.074909821	5.019900E+01	  0.074909821	3.117000E+00
276	  0.075110219	-2.997200E+01	  0.075110219	8.185400E+01	  0.075110219	5.035100E+01	  0.075110219	3.165000E+00
277	  0.075310618	-2.966000E+01	  0.075310618	8.551900E+01	  0.075310618	5.014900E+01	  0.075310618	3.291000E+00
278	  0.075511023	-2.924700E+01	  0.075511023	8.435800E+01	  0.075511023	5.022100E+01	  0.075511023	3.451000E+00
279	  0.075711422	-2.983700E+01	  0.075711422	8.230600E+01	  0.075711422	5.033000E+01	  0.075711422	3.217000E+00
280	  0.075911827	-2.910600E+01	  0.075911827	8.071100E+01	  0.075911827	5.044700E+01	  0.075911827	3.494000E+00
281	  0.076112226	-2.986300E+01	  0.076112226	7.830100E+01	  0.076112226	5.055400E+01	  0.076112226	3.183000E+00
282	  0.076312624	-2.932900E+01	  0.076312624	7.734700E+01	  0.076312624	5.064000E+01	  0.076312624	3.379000E+00
283	  0.076513030	-2.901000E+01	  0.076513030	7.721000E+01	  0.076513030	5.066800E+01	  0.076513030	3.506000E+00
284	  0.076713428	-2.896200E+01	  0.076713428	7.318400E+01	  0.076713428	5.092100E+01	  0.076713428	3.478000E+00
285	  0.076913826	-2.890800E+01	  0.076913826	7.264400E+01	  0.076913826	5.096000E+01	  0.076913826	3.492000E+00
286	  0.077114232	-2.903600E+01	  0.077114232	7.184400E+01	  0.077114232	5.099600E+01	  0.077114232	3.428000E+00
287	  0.077314630	-2.877900E+01	  0.077314630	7.241600E+01	  0.077314630	5.098700E+01	  0.077314630	3.542000E+00
288	  0.077515028	-2.928200E+01	  0.077515028	7.035600E+01	  0.077515028	5.105900E+01	  0.077515028	3.307000E+00
289	  0.077715434	-2.902800E+01	  0.077715434	7.049500E+01	  0.077715434	5.107900E+01	  0.077715434	3.409000E+00
290	  0.077915832	-2.881200E+01	  0.077915832	7.035100E+01	  0.077915832	5.111300E+01	  0.077915832	3.494000E+00
291	  0.078116231	-2.921400E+01	  0.078116231	6.969100E+01	  0.078116231	5.110600E+01	  0.078116231	3.322000E+00
292	  0.078316636	-2.878800E+01	  0.078316636	6.711100E+01	  0.078316636	5.131700E+01	  0.078316636	3.442000E+00
293	  0.078517035	-2.874400E+01	  0.078517035	6.387700E+01	  0.078517035	5.152200E+01	  0.078517035	3.385000E+00
294	  0.078717433	-2.884000E+01	  0.078717433	6.551600E+01	  0.078717433	5.140700E+01	  0.078717433	3.385000E+00
295	  0.078917839	-2.859300E+01	  0.078917839	6.326200E+01	  0.078917839	5.158500E+01	  0.078917839	3.430000E+00
296	  0.079118237	-2.904600E+01	  0.079118237	6.026600E+01	  0.079118237	5.168200E+01	  0.079118237	3.171000E+00
297	  0.079318643	-2.882700E+01	  0.079318643	6.109100E+01	  0.079318643	5.167500E+01	  0.079318643	3.278000E+00
298	  0.079519041	-2.900500E+01	  0.079519041	5.997500E+01	  0.079519041	5.170600E+01	  0.079519041	3.178000E+00
299	  0.079719439	-2.907100E+01	  0.079719439	5.839000E+01	  0.079719439	5.178400E+01	  0.079719439	3.107000E+00
300	  0.079919845	-2.926400E+01	  0.079919845	5.746800E+01	  0.079919845	5.179600E+01	  0.079919845	3.009000E+00
301	  0.080120243	-2.936600E+01	  0.080120243	5.798700E+01	  0.080120243	5.174800E+01	  0.080120243	2.988000E+00
302	  0.080320641	-2.927100E+01	  0.080320641	5.955100E+01	  0.080320641	5.168100E+01	  0.080320641	3.067000E+00
303	  0.080521047	-2.967700E+01	  0.080521047	5.493900E+01	  0.080521047	5.184500E+01	  0.080521047	2.788000E+00
304	  0.080721445	-2.982300E+01	  0.080721445	5.826300E+01	  0.080721445	5.164700E+01	  0.080721445	2.838000E+00
305	  0.080921844	-2.975200E+01	  0.080921844	5.792200E+01	  0.080921844	5.167800E+01	  0.080921844	2.852000E+00
306	  0.081122249	-3.012600E+01	  0.081122249	5.494700E+01	  0.081122249	5.175300E+01	  0.081122249	2.643000E+00
307	  0.081322648	-3.026800E+01	  0.081322648	5.780600E+01	  0.081322648	5.158900E+01	  0.081322648	2.679000E+00
308	  0.081523046	-3.074300E+01	  0.081523046	5.944200E+01	  0.081523046	5.143200E+01	  0.081523046	2.573000E+00
309	  0.081723452	-3.086800E+01	  0.081723452	6.086300E+01	  0.081723452	5.134700E+01	  0.081723452	2.568000E+00
310	  0.081923850	-3.116400E+01	  0.081923850	5.922700E+01	  0.081923850	5.137600E+01	  0.081923850	2.443000E+00
311	  0.082124248	-3.121300E+01	  0.082124248	5.833800E+01	  0.082124248	5.140700E+01	  0.082124248	2.408000E+00
312	  0.082324654	-3.118600E+01	  0.082324654	5.971800E+01	  0.082324654	5.135100E+01	  0.082324654	2.448000E+00
313	  0.082525052	-3.120800E+01	  0.082525052	6.230900E+01	  0.082525052	5.123300E+01	  0.082525052	2.498000E+00
314	  0.082725458	-3.147600E+01	  0.082725458	6.558700E+01	  0.082725458	5.105300E+01	  0.082725458	2.482000E+00
315	  0.082925856	-3.183100E+01	  0.082925856	6.805600E+01	  0.082925856	5.090800E+01	  0.082925856	2.420000E+00
316	  0.083126254	-3.184200E+01	  0.083126254	7.049500E+01	  0.083126254	5.080100E+01	  0.083126254	2.451000E+00
317	  0.083326660	-3.193700E+01	  0.083326660	7.352900E+01	  0.083326660	5.066200E+01	  0.083326660	2.459000E+00
318	  0.083527058	-3.188900E+01	  0.083527058	7.450300E+01	  0.083527058	5.062300E+01	  0.083527058	2.483000E+00
319	  0.083727457	-3.129700E+01	  0.083727457	8.170600E+01	  0.083727457	5.032000E+01	  0.083727457	2.714000E+00
320	  0.083927862	-3.144700E+01	  0.083927862	8.220000E+01	  0.083927862	5.029300E+01	  0.083927862	2.669000E+00
321	  0.084128261	-3.115900E+01	  0.084128261	8.933500E+01	  0.084128261	4.995500E+01	  0.084128261	2.766000E+00
322	  0.084328659	-3.035000E+01	  0.084328659	8.952100E+01	  0.084328659	4.993300E+01	  0.084328659	3.035000E+00
323	  0.084529065	-3.020900E+01	  0.084529065	9.122300E+01	  0.084529065	4.983900E+01	  0.084529065	3.079000E+00
324	  0.084729463	-2.957000E+01	  0.084729463	9.481200E+01	  0.084729463	4.961300E+01	  0.084729463	3.288000E+00
325	  0.084929861	-2.932400E+01	  0.084929861	9.445100E+01	  0.084929861	4.962000E+01	  0.084929861	3.385000E+00
326	  0.085130267	-2.862600E+01	  0.085130267	9.802300E+01	  0.085130267	4.935300E+01	  0.085130267	3.625000E+00
327	  0.085330658	-2.814300E+01	  0.085330658	9.878600E+01	  0.085330658	4.925800E+01	  0.085330658	3.818000E+00
328	  0.085531056	-2.740900E+01	  0.085531056	9.987900E+01	  0.085531056	4.910200E+01	  0.085531056	4.129000E+00
329	  0.085731462	-2.666800E+01	  0.085731462	1.003410E+02	  0.085731462	4.897000E+01	  0.085731462	4.481000E+00
330	  0.085931860	-2.618600E+01	  0.085931860	1.006990E+02	  0.085931860	4.887100E+01	  0.085931860	4.722000E+00
331	  0.086132258	-2.593700E+01	  0.086132258	1.000990E+02	  0.086132258	4.888200E+01	  0.086132258	4.871000E+00
332	  0.086332664	-2.508700E+01	  0.086332664	9.933600E+01	  0.086332664	4.881200E+01	  0.086332664	5.379000E+00
333	  0.086533062	-2.464800E+01	  0.086533062	9.877700E+01	  0.086533062	4.878900E+01	  0.086533062	5.666000E+00
334	  0.086733460	-2.403600E+01	  0.086733460	9.628200E+01	  0.086733460	4.893600E+01	  0.086733460	6.136000E+00
335	  0.086933866	-2.353700E+01	  0.086933866	9.652500E+01	  0.086933866	4.882300E+01	  0.086933866	6.485000E+00
336	  0.087134264	-2.299200E+01	  0.087134264	9.476800E+01	  0.087134264	4.892700E+01	  0.087134264	6.944000E+00
337	  0.087334670	-2.256000E+01	  0.087334670	9.204100E+01	  0.087334670	4.918800E+01	  0.087334670	7.362000E+00
338	  0.087535068	-2.245200E+01	  0.087535068	9.198800E+01	  0.087535068	4.917800E+01	  0.087535068	7.453000E+00
339	  0.087735467	-2.165400E+01	  0.087735467	8.841000E+01	  0.087735467	4.954700E+01	  0.087735467	8.243000E+00
340	  0.087935872	-2.140700E+01	  0.087935872	8.689700E+01	  0.087935872	4.973600E+01	  0.087935872	8.508000E+00
341	  0.088136271	-2.109900E+01	  0.088136271	8.455600E+01	  0.088136271	5.006000E+01	  0.088136271	8.850000E+00
342	  0.088336669	-2.080900E+01	  0.088336669	8.323100E+01	  0.088336669	5.024600E+01	  0.088336669	9.166000E+00
343	  0.088537075	-2.055300E+01	  0.088537075	8.052300E+01	  0.088537075	5.067900E+01	  0.088537075	9.463000E+00
344	  0.088737473	-2.024400E+01	  0.088737473	7.818300E+01	  0.088737473	5.107800E+01	  0.088737473	9.814000E+00
345	  0.088937871	-1.991600E+01	  0.088937871	7.594900E+01	  0.088937871	5.148900E+01	  0.088937871	1.019000E+01
346	  0.089138277	-1.962500E+01	  0.089138277	7.352600E+01	  0.089138277	5.196500E+01	  0.089138277	1.051900E+01
347	  0.089338675	-1.950900E+01	  0.089338675	7.123200E+01	  0.089338675	5.242200E+01	  0.089338675	1.062200E+01
348	  0.089539073	-1.916400E+01	  0.089539073	6.867400E+01	  0.089539073	5.299500E+01	  0.089539073	1.100300E+01
349	  0.089739479	-1.910300E+01	  0.089739479	6.596200E+01	  0.089739479	5.356500E+01	  0.089739479	1.098300E+01
350	  0.089939877	-1.891200E+01	  0.089939877	6.397600E+01	  0.089939877	5.403700E+01	  0.089939877	1.115000E+01
351	  0.090140276	-1.882100E+01	  0.090140276	6.150500E+01	  0.090140276	5.459300E+01	  0.090140276	1.113600E+01
352	  0.090340681	-1.862900E+01	  0.090340681	5.960200E+01	  0.090340681	5.508600E+01	  0.090340681	1.128100E+01
353	  0.090541080	-1.847900E+01	  0.090541080	5.738300E+01	  0.090541080	5.564700E+01	  0.090541080	1.132800E+01
354	  0.090741485	-1.841300E+01	  0.090741485	5.517200E+01	  0.090741485	5.617200E+01	  0.090741485	1.123200E+01
355	  0.090941884	-1.836200E+01	  0.090941884	5.269800E+01	  0.090941884	5.674800E+01	  0.090941884	1.106100E+01
356	  0.091142282	-1.824300E+01	  0.091142282	5.074200E+01	  0.091142282	5.726400E+01	  0.091142282	1.102100E+01
357	  0.091342688	-1.817600E+01	  0.091342688	4.904800E+01	  0.091342688	5.768900E+01	  0.091342688	1.091500E+01
358	  0.091543086	-1.814400E+01	  0.091543086	4.669400E+01	  0.091543086	5.823100E+01	  0.091543086	1.065600E+01
359	  0.091743484	-1.799600E+01	  0.091743484	4.464700E+01	  0.091743484	5.881300E+01	  0.091743484	1.057800E+01
360	  0.091943890	-1.803700E+01	  0.091943890	4.316400E+01	  0.091943890	5.909100E+01	  0.091943890	1.029600E+01
361	  0.092144288	-1.799200E+01	  0.092144288	4.070000E+01	  0.092144288	5.965600E+01	  0.092144288	9.961000E+00
362	  0.092344686	-1.799700E+01	  0.092344686	3.878600E+01	  0.092344686	6.004100E+01	  0.092344686	9.624000E+00
363	  0.092545092	-1.792000E+01	  0.092545092	3.673000E+01	  0.092545092	6.054500E+01	  0.092545092	9.351000E+00
364	  0.092745490	-1.793300E+01	  0.092745490	3.463400E+01	  0.092745490	6.093400E+01	  0.092745490	8.929000E+00
365	  0.092945889	-1.783400E+01	  0.092945889	3.326300E+01	  0.092945889	6.132600E+01	  0.092945889	8.777000E+00
366	  0.093146294	-1.791400E+01	  0.093146294	3.101200E+01	  0.093146294	6.162500E+01	  0.093146294	8.205000E+00
367	  0.093346693	-1.793200E+01	  0.093346693	2.991600E+01	  0.093346693	6.179100E+01	  0.093346693	7.948000E+00
368	  0.093547091	-1.796800E+01	  0.093547091	2.791400E+01	  0.093547091	6.207100E+01	  0.093547091	7.462000E+00
369	  0.093747497	-1.785300E+01	  0.093747497	2.663100E+01	  0.093747497	6.245200E+01	  0.093747497	7.288000E+00
370	  0.093947895	-1.787900E+01	  0.093947895	2.474300E+01	  0.093947895	6.270200E+01	  0.093947895	6.811000E+00
371	  0.094148301	-1.786200E+01	  0.094148301	2.302500E+01	  0.094148301	6.297800E+01	  0.094148301	6.406000E+00
372	  0.094348699	-1.787200E+01	  0.094348699	2.135700E+01	  0.094348699	6.318900E+01	  0.094348699	5.977000E+00
373	  0.094549097	-1.782500E+01	  0.094549097	2.017000E+01	  0.094549097	6.342200E+01	  0.094549097	5.712000E+00
374	  0.094749503	-1.784900E+01	  0.094749503	1.851400E+01	  0.094749503	6.358200E+01	  0.094749503	5.258000E+00
375	  0.094949901	-1.791800E+01	  0.094949901	1.744900E+01	  0.094949901	6.358100E+01	  0.094949901	4.925000E+00
376	  0.095150299	-1.791400E+01	  0.095150299	1.510700E+01	  0.095150299	6.382900E+01	  0.095150299	4.299000E+00
377	  0.095350705	-1.785400E+01	  0.095350705	1.367500E+01	  0.095350705	6.406900E+01	  0.095350705	3.942000E+00
378	  0.095551103	-1.788800E+01	  0.095551103	1.290100E+01	  0.095551103	6.407300E+01	  0.095551103	3.708000E+00
379	  0.095751502	-1.787400E+01	  0.095751502	1.146000E+01	  0.095751502	6.421300E+01	  0.095751502	3.313000E+00
380	  0.095951907	-1.790800E+01	  0.095951907	1.024700E+01	  0.095951907	6.423400E+01	  0.095951907	2.955000E+00
381	  0.096152306	-1.806000E+01	  0.096152306	8.328000E+00	  0.096152306	6.406700E+01	  0.096152306	2.357000E+00
382	  0.096352704	-1.798700E+01	  0.096352704	7.826000E+00	  0.096352704	6.422800E+01	  0.096352704	2.240000E+00
383	  0.096553110	-1.809000E+01	  0.096553110	5.970000E+00	  0.096553110	6.411800E+01	  0.096553110	1.687000E+00
384	  0.096753508	-1.801500E+01	  0.096753508	4.447000E+00	  0.096753508	6.430900E+01	  0.096753508	1.273000E+00
385	  0.096953906	-1.799400E+01	  0.096953906	3.237000E+00	  0.096953906	6.437800E+01	  0.096953906	9.300000E-01
386	  0.097154312	-1.810000E+01	  0.097154312	2.278000E+00	  0.097154312	6.419600E+01	  0.097154312	6.450000E-01
387	  0.097354710	-1.814200E+01	  0.097354710	7.100000E-02	  0.097354710	6.413500E+01	  0.097354710	2.000000E-02
388	  0.097555116	-1.808300E+01	  0.097555116	-4.530000E-01	  0.097555116	6.424400E+01	  0.097555116	-1.280000E-01
389	  0.097755514	-1.813700E+01	  0.097755514	-2.299000E+00	  0.097755514	6.412700E+01	  0.097755514	-6.470000E-01
390	  0.097955912	-1.821200E+01	  0.097955912	-2.982000E+00	  0.097955912	6.397700E+01	  0.097955912	-8.300000E-01
391	  0.098156318	-1.824500E+01	  0.098156318	-4.371000E+00	  0.098156318	6.388500E+01	  0.098156318	-1.210000E+00
392	  0.098356716	-1.814700E+01	  0.098356716	-5.728000E+00	  0.098356716	6.402100E+01	  0.098356716	-1.606000E+00
393	  0.098557115	-1.828700E+01	  0.098557115	-6.102000E+00	  0.098557115	6.375400E+01	  0.098557115	-1.675000E+00
394	  0.098757520	-1.832100E+01	  0.098757520	-8.730000E+00	  0.098757520	6.357500E+01	  0.098757520	-2.376000E+00
395	  0.098957919	-1.825900E+01	  0.098957919	-9.123000E+00	  0.098957919	6.366400E+01	  0.098957919	-2.504000E+00
396	  0.099158317	-1.828700E+01	  0.099158317	-1.021000E+01	  0.099158317	6.355000E+01	  0.099158317	-2.785000E+00
397	  0.099358723	-1.842200E+01	  0.099358723	-1.149700E+01	  0.099358723	6.323300E+01	  0.099358723	-3.067000E+00
398	  0.099559121	-1.836100E+01	  0.099559121	-1.213900E+01	  0.099559121	6.329200E+01	  0.099559121	-3.262000E+00
399	  0.099759519	-1.845600E+01	  0.099759519	-1.403700E+01	  0.099759519	6.298500E+01	  0.099759519	-3.702000E+00
400	  0.099959925	-1.860800E+01	  0.099959925	-1.463100E+01	  0.099959925	6.268400E+01	  0.099959925	-3.768000E+00
401	  0.100160323	-1.850000E+01	  0.100160323	-1.576500E+01	  0.100160323	6.276400E+01	  0.100160323	-4.111000E+00
402	  0.100360721	-1.867000E+01	  0.100360721	-1.747800E+01	  0.100360721	6.233100E+01	  0.100360721	-4.423000E+00
403	  0.100561127	-1.845000E+01	  0.100561127	-1.899100E+01	  0.100561127	6.252500E+01	  0.100561127	-4.934000E+00
404	  0.100761525	-1.863200E+01	  0.100761525	-1.966400E+01	  0.100761525	6.216800E+01	  0.100761525	-4.965000E+00
405	  0.100961931	-1.871200E+01	  0.100961931	-1.957100E+01	  0.100961931	6.205500E+01	  0.100961931	-4.887000E+00
406	  0.101162329	-1.871200E+01	  0.101162329	-2.225200E+01	  0.101162329	6.175400E+01	  0.101162329	-5.498000E+00
407	  0.101362728	-1.867100E+01	  0.101362728	-2.263300E+01	  0.101362728	6.176900E+01	  0.101362728	-5.616000E+00
408	  0.101563133	-1.884900E+01	  0.101563133	-2.377200E+01	  0.101563133	6.137200E+01	  0.101563133	-5.723000E+00
409	  0.101763532	-1.875500E+01	  0.101763532	-2.488000E+01	  0.101763532	6.136600E+01	  0.101763532	-6.039000E+00
410	  0.101963930	-1.877500E+01	  0.101963930	-2.740500E+01	  0.101963930	6.099900E+01	  0.101963930	-6.552000E+00
411	  0.102164336	-1.873100E+01	  0.102164336	-2.655600E+01	  0.102164336	6.117600E+01	  0.102164336	-6.415000E+00
412	  0.102364734	-1.892500E+01	  0.102364734	-2.754800E+01	  0.102364734	6.077700E+01	  0.102364734	-6.444000E+00
413	  0.102565132	-1.899900E+01	  0.102565132	-2.899400E+01	  0.102565132	6.048100E+01	  0.102565132	-6.663000E+00
414	  0.102765530	-1.882200E+01	  0.102765530	-2.966900E+01	  0.102765530	6.061100E+01	  0.102765530	-6.962000E+00
415	  0.102965929	-1.908900E+01	  0.102965929	-3.120400E+01	  0.102965929	6.005000E+01	  0.102965929	-6.996000E+00
416	  0.103166327	-1.891800E+01	  0.103166327	-3.354900E+01	  0.103166327	5.989700E+01	  0.103166327	-7.595000E+00
417	  0.103366733	-1.896000E+01	  0.103366733	-3.372200E+01	  0.103366733	5.982100E+01	  0.103366733	-7.583000E+00
418	  0.103567131	-1.917100E+01	  0.103567131	-3.493800E+01	  0.103567131	5.938700E+01	  0.103567131	-7.574000E+00
419	  0.103767529	-1.932500E+01	  0.103767529	-3.591500E+01	  0.103767529	5.906500E+01	  0.103767529	-7.577000E+00
420	  0.103967935	-1.921500E+01	  0.103967935	-3.695400E+01	  0.103967935	5.901700E+01	  0.103967935	-7.860000E+00
421	  0.104168333	-1.931900E+01	  0.104168333	-3.788700E+01	  0.104168333	5.875800E+01	  0.104168333	-7.897000E+00
422	  0.104368731	-1.942900E+01	  0.104368731	-3.915800E+01	  0.104368731	5.844200E+01	  0.104368731	-7.973000E+00
423	  0.104569137	-1.945700E+01	  0.104569137	-3.957600E+01	  0.104569137	5.834600E+01	  0.104569137	-8.004000E+00
424	  0.104769535	-1.940100E+01	  0.104769535	-4.140200E+01	  0.104769535	5.809600E+01	  0.104769535	-8.328000E+00
425	  0.104969934	-1.937300E+01	  0.104969934	-4.263100E+01	  0.104969934	5.791100E+01	  0.104969934	-8.529000E+00
426	  0.105170339	-1.932200E+01	  0.105170339	-4.350500E+01	  0.105170339	5.780500E+01	  0.105170339	-8.706000E+00
427	  0.105370738	-1.952900E+01	  0.105370738	-4.387600E+01	  0.105370738	5.756100E+01	  0.105370738	-8.518000E+00
428	  0.105571143	-1.947000E+01	  0.105571143	-4.547400E+01	  0.105571143	5.733300E+01	  0.105571143	-8.787000E+00
429	  0.105771542	-1.968600E+01	  0.105771542	-4.498000E+01	  0.105771542	5.724200E+01	  0.105771542	-8.481000E+00
430	  0.105971940	-1.971800E+01	  0.105971940	-4.722600E+01	  0.105971940	5.683300E+01	  0.105971940	-8.711000E+00
431	  0.106172346	-1.965900E+01	  0.106172346	-4.736500E+01	  0.106172346	5.685300E+01	  0.106172346	-8.794000E+00
432	  0.106372744	-1.975200E+01	  0.106372744	-4.899500E+01	  0.106372744	5.650100E+01	  0.106372744	-8.868000E+00
433	  0.106573142	-1.980300E+01	  0.106573142	-5.001700E+01	  0.106573142	5.628600E+01	  0.106573142	-8.916000E+00
434	  0.106773548	-1.989800E+01	  0.106773548	-5.089100E+01	  0.106773548	5.607100E+01	  0.106773548	-8.895000E+00
435	  0.106973946	-2.001500E+01	  0.106973946	-5.144200E+01	  0.106973946	5.590000E+01	  0.106973946	-8.815000E+00
436	  0.107174344	-1.991300E+01	  0.107174344	-5.229700E+01	  0.107174344	5.581500E+01	  0.107174344	-9.012000E+00
437	  0.107374750	-1.981600E+01	  0.107374750	-5.572400E+01	  0.107374750	5.525800E+01	  0.107374750	-9.425000E+00
438	  0.107575148	-2.005300E+01	  0.107575148	-5.484200E+01	  0.107575148	5.528700E+01	  0.107575148	-9.074000E+00
439	  0.107775547	-2.021000E+01	  0.107775547	-5.636100E+01	  0.107775547	5.494100E+01	  0.107775547	-9.014000E+00
440	  0.107975952	-2.015000E+01	  0.107975952	-5.771700E+01	  0.107975952	5.473400E+01	  0.107975952	-9.184000E+00
441	  0.108176351	-2.016900E+01	  0.108176351	-5.794700E+01	  0.108176351	5.468500E+01	  0.108176351	-9.178000E+00
442	  0.108376749	-1.996900E+01	  0.108376749	-5.903100E+01	  0.108376749	5.458400E+01	  0.108376749	-9.489000E+00
443	  0.108577155	-2.013500E+01	  0.108577155	-6.138500E+01	  0.108577155	5.409100E+01	  0.108577155	-9.441000E+00
444	  0.108777553	-2.035900E+01	  0.108777553	-6.152700E+01	  0.108777553	5.398100E+01	  0.108777553	-9.190000E+00
445	  0.108977959	-2.033800E+01	  0.108977959	-6.239500E+01	  0.108977959	5.383800E+01	  0.108977959	-9.263000E+00
446	  0.109178357	-2.033700E+01	  0.109178357	-6.288300E+01	  0.109178357	5.375300E+01	  0.109178357	-9.290000E+00
447	  0.109378755	-2.046900E+01	  0.109378755	-6.447700E+01	  0.109378755	5.343300E+01	  0.109378755	-9.218000E+00
448	  0.109579161	-2.041000E+01	  0.109579161	-6.623300E+01	  0.109579161	5.314700E+01	  0.109579161	-9.363000E+00
449	  0.109779559	-2.061700E+01	  0.109779559	-6.583400E+01	  0.109779559	5.315800E+01	  0.109779559	-9.113000E+00
450	  0.109979957	-2.056400E+01	  0.109979957	-6.751800E+01	  0.109979957	5.288600E+01	  0.109979957	-9.239000E+00
451	  0.110180363	-2.063800E+01	  0.110180363	-6.833900E+01	  0.110180363	5.272900E+01	  0.110180363	-9.185000E+00
452	  0.110380761	-2.069400E+01	  0.110380761	-6.884200E+01	  0.110380761	5.263200E+01	  0.110380761	-9.140000E+00
453	  0.110581160	-2.067700E+01	  0.110581160	-6.999100E+01	  0.110581160	5.244200E+01	  0.110581160	-9.194000E+00
454	  0.110781565	-2.079500E+01	  0.110781565	-7.144600E+01	  0.110781565	5.217900E+01	  0.110781565	-9.102000E+00
455	  0.110981964	-2.069700E+01	  0.110981964	-7.245900E+01	  0.110981964	5.202500E+01	  0.110981964	-9.234000E+00
456	  0.111182362	-2.074800E+01	  0.111182362	-7.438200E+01	  0.111182362	5.169700E+01	  0.111182362	-9.213000E+00
457	  0.111382768	-2.092100E+01	  0.111382768	-7.489500E+01	  0.111382768	5.159600E+01	  0.111382768	-9.032000E+00
458	  0.111583166	-2.078000E+01	  0.111583166	-7.555100E+01	  0.111583166	5.150100E+01	  0.111583166	-9.194000E+00
459	  0.111783572	-2.085500E+01	  0.111783572	-7.664700E+01	  0.111783572	5.131500E+01	  0.111783572	-9.124000E+00
460	  0.111983970	-2.095800E+01	  0.111983970	-7.711100E+01	  0.111983970	5.123500E+01	  0.111983970	-9.017000E+00
461	  0.112184368	-2.112000E+01	  0.112184368	-7.787000E+01	  0.112184368	5.110600E+01	  0.112184368	-8.852000E+00
462	  0.112384774	-2.108200E+01	  0.112384774	-7.890900E+01	  0.112384774	5.094300E+01	  0.112384774	-8.896000E+00
463	  0.112585172	-2.121100E+01	  0.112585172	-8.080300E+01	  0.112585172	5.064600E+01	  0.112585172	-8.763000E+00
464	  0.112785570	-2.130300E+01	  0.112785570	-8.179200E+01	  0.112785570	5.049600E+01	  0.112785570	-8.667000E+00
465	  0.112985976	-2.124000E+01	  0.112985976	-8.190400E+01	  0.112985976	5.047700E+01	  0.112985976	-8.729000E+00
466	  0.113186374	-2.105400E+01	  0.113186374	-8.354500E+01	  0.113186374	5.021300E+01	  0.113186374	-8.907000E+00
467	  0.113386773	-2.114600E+01	  0.113386773	-8.454300E+01	  0.113386773	5.006500E+01	  0.113386773	-8.803000E+00
468	  0.113587178	-2.134300E+01	  0.113587178	-8.494200E+01	  0.113587178	5.002100E+01	  0.113587178	-8.600000E+00
469	  0.113787577	-2.139900E+01	  0.113787577	-8.669400E+01	  0.113787577	4.976500E+01	  0.113787577	-8.519000E+00
470	  0.113987975	-2.151000E+01	  0.113987975	-8.778400E+01	  0.113987975	4.961800E+01	  0.113987975	-8.392000E+00
471	  0.114188381	-2.159100E+01	  0.114188381	-8.800300E+01	  0.114188381	4.959700E+01	  0.114188381	-8.311000E+00
472	  0.114388779	-2.159000E+01	  0.114388779	-8.869600E+01	  0.114388779	4.949700E+01	  0.114388779	-8.298000E+00
473	  0.114589177	-2.149800E+01	  0.114589177	-9.033700E+01	  0.114589177	4.924800E+01	  0.114589177	-8.347000E+00
474	  0.114789583	-2.162500E+01	  0.114789583	-9.196100E+01	  0.114789583	4.904000E+01	  0.114789583	-8.185000E+00
475	  0.114989981	-2.168700E+01	  0.114989981	-9.254300E+01	  0.114989981	4.897000E+01	  0.114989981	-8.112000E+00
476	  0.115190387	-2.180200E+01	  0.115190387	-9.473100E+01	  0.115190387	4.869500E+01	  0.115190387	-7.939000E+00
477	  0.115390785	-2.192900E+01	  0.115390785	-9.304700E+01	  0.115390785	4.894800E+01	  0.115390785	-7.878000E+00
478	  0.115591183	-2.180900E+01	  0.115591183	-9.445400E+01	  0.115591183	4.873400E+01	  0.115591183	-7.942000E+00
479	  0.115791589	-2.198800E+01	  0.115791589	-9.608100E+01	  0.115791589	4.855800E+01	  0.115791589	-7.729000E+00
480	  0.115991987	-2.170600E+01	  0.115991987	-9.644400E+01	  0.115991987	4.844100E+01	  0.115991987	-7.963000E+00
481	  0.116192386	-2.197800E+01	  0.116192386	-9.795100E+01	  0.116192386	4.831200E+01	  0.116192386	-7.669000E+00
482	  0.116392791	-2.213200E+01	  0.116392791	-9.903800E+01	  0.116392791	4.821300E+01	  0.116392791	-7.495000E+00
483	  0.116593190	-2.205500E+01	  0.116593190	-1.008930E+02	  0.116593190	4.795900E+01	  0.116593190	-7.480000E+00
484	  0.116793588	-2.204300E+01	  0.116793588	-1.008640E+02	  0.116793588	4.795900E+01	  0.116793588	-7.491000E+00
485	  0.116993994	-2.215600E+01	  0.116993994	-1.028440E+02	  0.116993994	4.774800E+01	  0.116993994	-7.308000E+00
486	  0.117194392	-2.215300E+01	  0.117194392	-1.032350E+02	  0.117194392	4.770000E+01	  0.117194392	-7.292000E+00
487	  0.117394790	-2.219500E+01	  0.117394790	-1.036310E+02	  0.117394790	4.766500E+01	  0.117394790	-7.239000E+00
488	  0.117595196	-2.219700E+01	  0.117595196	-1.050860E+02	  0.117595196	4.749200E+01	  0.117595196	-7.164000E+00
489	  0.117795594	-2.209300E+01	  0.117795594	-1.064310E+02	  0.117795594	4.729600E+01	  0.117795594	-7.173000E+00
490	  0.117995992	-2.228600E+01	  0.117995992	-1.072450E+02	  0.117995992	4.727100E+01	  0.117995992	-6.980000E+00
491	  0.118196398	-2.234600E+01	  0.118196398	-1.089270E+02	  0.118196398	4.710100E+01	  0.118196398	-6.841000E+00
492	  0.118396796	-2.234400E+01	  0.118396796	-1.088950E+02	  0.118396796	4.710400E+01	  0.118396796	-6.844000E+00
493	  0.118597202	-2.243500E+01	  0.118597202	-1.106000E+02	  0.118597202	4.695000E+01	  0.118597202	-6.678000E+00
494	  0.118797600	-2.244200E+01	  0.118797600	-1.116990E+02	  0.118797600	4.683400E+01	  0.118797600	-6.607000E+00
495	  0.118997999	-2.257100E+01	  0.118997999	-1.128890E+02	  0.118997999	4.675900E+01	  0.118997999	-6.443000E+00
496	  0.119198404	-2.254500E+01	  0.119198404	-1.131040E+02	  0.119198404	4.672600E+01	  0.119198404	-6.447000E+00
497	  0.119398803	-2.272900E+01	  0.119398803	-1.146100E+02	  0.119398803	4.664700E+01	  0.119398803	-6.227000E+00
498	  0.119599201	-2.268400E+01	  0.119599201	-1.147280E+02	  0.119599201	4.661600E+01	  0.119599201	-6.250000E+00
499	  0.119799607	-2.263500E+01	  0.119799607	-1.155770E+02	  0.119799607	4.650900E+01	  0.119799607	-6.228000E+00
500	  0.120000005	-2.267600E+01	  0.120000005	-1.176210E+02	  0.120000005	4.632300E+01	  0.120000005	-6.064000E+00
