! Anritsu VNA Master:             	Model: MS2036C/10/77
! SN:             	1601066
! /card0/usr/bot.s11.66pf.txt
! Existing Calibration Information:
! TYPE:             	Current Settings	Active Cal Settings
! TIME:             	05/23/2018 11:55:29 AM	05/23/2018 11:36:58 AM
! INTERNAL TEMP:    	48.5 C	48.8 C
! # POINTS:         	500	500
! START FREQ:       	20.000 MHz	20.000 MHz
! STOP FREQ:        	120.000 MHz	120.000 MHz
! SOURCE POWER:     	High	High
! IFBW:             	50 Hz	50 Hz
! AVG FACTOR:       	  1 	  1 
! REF PLANE 1:      	0 mm	0 mm
! REF PLANE 2:      	0 mm	0 mm
! CAL TYPE:         	Full S11	Full S11
! CAL METHOD:       	SOLT	SOLT
! CAL LINE TYPE:    	Coax	Coax
! DUT PORT 1:       	K-Conn(M)	K-Conn(M)
! DUT PORT 2:       	K-Conn(M)	K-Conn(M)
! CAL STATUS:       	OK: Accuracy High	--
! PROP-V:       	0.700
! CABLE LOSS:       	0.000 dB/m
! REF IMPEDANCE:       	50.0
! Trace Specific Parameters:	TR1	TR2	TR3	TR4
! TRACE.#.Y (GRAPH TYPE)	LOG MAG	PHASE	REAL IMPEDANCE	IMAGINARY IMPEDANCE
! TRACE.#.X 	FREQ.GHZ	FREQ.GHZ	FREQ.GHZ	FREQ.GHZ
! S-PARAMETER	S11	S11	S11	S11
! SMOOTH/APERTURE %	0	0	0	0
! WINDOW	NSL	NSL	NSL	NSL
! GATING	OFF	OFF	OFF	OFF
! FGTD	OFF	OFF	OFF	OFF
Marker Information per Trace:	TR1	TR2	TR3	TR4
!MK1	--	--	--	--
!MK2	--	--	--	--
!MK3	--	--	--	--
!MK4	--	--	--	--
!MK5	--	--	--	--
!MK6	--	--	--	--
!MK7	--	--	--	--
!MK8	--	--	--	--
PNT	TR1.FREQ.GHZ	TR1.LOG MAG.dB	TR2.FREQ.GHZ	TR2.PHASE.deg	TR3.FREQ.GHZ	TR3.REAL IMPEDANCE.ohm	TR4.FREQ.GHZ	TR4.IMAGINARY IMPEDANCE.ohm
1	  0.020000000	-4.900000E-02	  0.020000000	-6.721400E+01	  0.020000000	4.650000E-01	  0.020000000	-7.523200E+01
2	  0.020200402	-4.800000E-02	  0.020200402	-6.785100E+01	  0.020200402	4.450000E-01	  0.020200402	-7.433300E+01
3	  0.020400802	-4.800000E-02	  0.020400802	-6.847100E+01	  0.020400802	4.410000E-01	  0.020400802	-7.347100E+01
4	  0.020601204	-4.900000E-02	  0.020601204	-6.910600E+01	  0.020601204	4.420000E-01	  0.020601204	-7.260400E+01
5	  0.020801604	-5.000000E-02	  0.020801604	-6.975800E+01	  0.020801604	4.440000E-01	  0.020801604	-7.172600E+01
6	  0.021002004	-5.000000E-02	  0.021002004	-7.038800E+01	  0.021002004	4.350000E-01	  0.021002004	-7.089200E+01
7	  0.021202406	-5.000000E-02	  0.021202406	-7.101400E+01	  0.021202406	4.340000E-01	  0.021202406	-7.007600E+01
8	  0.021402806	-5.000000E-02	  0.021402806	-7.164200E+01	  0.021402806	4.220000E-01	  0.021402806	-6.927000E+01
9	  0.021603208	-5.200000E-02	  0.021603208	-7.226800E+01	  0.021603208	4.320000E-01	  0.021603208	-6.847800E+01
10	  0.021803608	-5.400000E-02	  0.021803608	-7.288600E+01	  0.021803608	4.440000E-01	  0.021803608	-6.770900E+01
11	  0.022004008	-5.300000E-02	  0.022004008	-7.352200E+01	  0.022004008	4.290000E-01	  0.022004008	-6.692900E+01
12	  0.022204408	-5.100000E-02	  0.022204408	-7.415800E+01	  0.022204408	4.100000E-01	  0.022204408	-6.616000E+01
13	  0.022404809	-5.200000E-02	  0.022404809	-7.479000E+01	  0.022404809	4.100000E-01	  0.022404809	-6.540700E+01
14	  0.022605211	-5.600000E-02	  0.022605211	-7.539600E+01	  0.022605211	4.310000E-01	  0.022605211	-6.469400E+01
15	  0.022805611	-5.400000E-02	  0.022805611	-7.602100E+01	  0.022805611	4.110000E-01	  0.022805611	-6.397100E+01
16	  0.023006011	-5.200000E-02	  0.023006011	-7.665000E+01	  0.023006011	3.960000E-01	  0.023006011	-6.325200E+01
17	  0.023206413	-5.300000E-02	  0.023206413	-7.728300E+01	  0.023206413	3.920000E-01	  0.023206413	-6.253800E+01
18	  0.023406813	-5.300000E-02	  0.023406813	-7.789800E+01	  0.023406813	3.880000E-01	  0.023406813	-6.185500E+01
19	  0.023607215	-5.500000E-02	  0.023607215	-7.851100E+01	  0.023607215	3.970000E-01	  0.023607215	-6.118200E+01
20	  0.023807615	-5.500000E-02	  0.023807615	-7.914000E+01	  0.023807615	3.930000E-01	  0.023807615	-6.050200E+01
21	  0.024008015	-5.400000E-02	  0.024008015	-7.976300E+01	  0.024008015	3.830000E-01	  0.024008015	-5.983600E+01
22	  0.024208417	-5.500000E-02	  0.024208417	-8.038300E+01	  0.024208417	3.820000E-01	  0.024208417	-5.918300E+01
23	  0.024408817	-5.600000E-02	  0.024408817	-8.100100E+01	  0.024408817	3.830000E-01	  0.024408817	-5.853800E+01
24	  0.024609219	-5.600000E-02	  0.024609219	-8.160700E+01	  0.024609219	3.790000E-01	  0.024609219	-5.791600E+01
25	  0.024809619	-5.700000E-02	  0.024809619	-8.223800E+01	  0.024809619	3.820000E-01	  0.024809619	-5.727600E+01
26	  0.025010020	-5.700000E-02	  0.025010020	-8.284900E+01	  0.025010020	3.800000E-01	  0.025010020	-5.666200E+01
27	  0.025210422	-5.700000E-02	  0.025210422	-8.346600E+01	  0.025210422	3.710000E-01	  0.025210422	-5.605200E+01
28	  0.025410822	-5.700000E-02	  0.025410822	-8.408500E+01	  0.025410822	3.710000E-01	  0.025410822	-5.544500E+01
29	  0.025611224	-5.600000E-02	  0.025611224	-8.469400E+01	  0.025611224	3.580000E-01	  0.025611224	-5.485700E+01
30	  0.025811624	-5.800000E-02	  0.025811624	-8.531000E+01	  0.025811624	3.670000E-01	  0.025811624	-5.426700E+01
31	  0.026012026	-5.900000E-02	  0.026012026	-8.593100E+01	  0.026012026	3.660000E-01	  0.026012026	-5.368100E+01
32	  0.026212426	-5.700000E-02	  0.026212426	-8.654400E+01	  0.026212426	3.500000E-01	  0.026212426	-5.310900E+01
33	  0.026412826	-6.000000E-02	  0.026412826	-8.716300E+01	  0.026412826	3.650000E-01	  0.026412826	-5.253700E+01
34	  0.026613226	-6.000000E-02	  0.026613226	-8.775700E+01	  0.026613226	3.600000E-01	  0.026613226	-5.199400E+01
35	  0.026813626	-6.100000E-02	  0.026813626	-8.837400E+01	  0.026813626	3.620000E-01	  0.026813626	-5.143800E+01
36	  0.027014028	-6.100000E-02	  0.027014028	-8.898300E+01	  0.027014028	3.600000E-01	  0.027014028	-5.089300E+01
37	  0.027214428	-6.300000E-02	  0.027214428	-8.959600E+01	  0.027214428	3.680000E-01	  0.027214428	-5.035200E+01
38	  0.027414829	-6.500000E-02	  0.027414829	-9.020100E+01	  0.027414829	3.750000E-01	  0.027414829	-4.982200E+01
39	  0.027615231	-6.600000E-02	  0.027615231	-9.081600E+01	  0.027615231	3.740000E-01	  0.027615231	-4.929000E+01
40	  0.027815631	-6.800000E-02	  0.027815631	-9.141500E+01	  0.027815631	3.860000E-01	  0.027815631	-4.877800E+01
41	  0.028016033	-7.000000E-02	  0.028016033	-9.203700E+01	  0.028016033	3.910000E-01	  0.028016033	-4.825000E+01
42	  0.028216433	-7.200000E-02	  0.028216433	-9.263300E+01	  0.028216433	3.970000E-01	  0.028216433	-4.775100E+01
43	  0.028416833	-7.300000E-02	  0.028416833	-9.322900E+01	  0.028416833	4.030000E-01	  0.028416833	-4.725600E+01
44	  0.028617235	-7.500000E-02	  0.028617235	-9.382400E+01	  0.028617235	4.060000E-01	  0.028617235	-4.676700E+01
45	  0.028817635	-7.700000E-02	  0.028817635	-9.442800E+01	  0.028817635	4.140000E-01	  0.028817635	-4.627500E+01
46	  0.029018037	-7.900000E-02	  0.029018037	-9.502800E+01	  0.029018037	4.210000E-01	  0.029018037	-4.579100E+01
47	  0.029218437	-8.100000E-02	  0.029218437	-9.561700E+01	  0.029218437	4.260000E-01	  0.029218437	-4.532100E+01
48	  0.029418837	-8.300000E-02	  0.029418837	-9.620600E+01	  0.029418837	4.340000E-01	  0.029418837	-4.485500E+01
49	  0.029619239	-8.500000E-02	  0.029619239	-9.679700E+01	  0.029619239	4.380000E-01	  0.029619239	-4.439200E+01
50	  0.029819639	-8.700000E-02	  0.029819639	-9.738300E+01	  0.029819639	4.430000E-01	  0.029819639	-4.393600E+01
51	  0.030020041	-9.000000E-02	  0.030020041	-9.797200E+01	  0.030020041	4.580000E-01	  0.030020041	-4.348300E+01
52	  0.030220442	-9.300000E-02	  0.030220442	-9.855800E+01	  0.030220442	4.680000E-01	  0.030220442	-4.303600E+01
53	  0.030420844	-9.400000E-02	  0.030420844	-9.913800E+01	  0.030420844	4.680000E-01	  0.030420844	-4.259700E+01
54	  0.030621244	-9.700000E-02	  0.030621244	-9.972700E+01	  0.030621244	4.790000E-01	  0.030621244	-4.215500E+01
55	  0.030821644	-9.800000E-02	  0.030821644	-1.002970E+02	  0.030821644	4.790000E-01	  0.030821644	-4.173100E+01
56	  0.031022044	-1.000000E-01	  0.031022044	-1.008650E+02	  0.031022044	4.870000E-01	  0.031022044	-4.131300E+01
57	  0.031222444	-9.900000E-02	  0.031222444	-1.014420E+02	  0.031222444	4.790000E-01	  0.031222444	-4.089100E+01
58	  0.031422846	-1.000000E-01	  0.031422846	-1.020020E+02	  0.031422846	4.800000E-01	  0.031422846	-4.048400E+01
59	  0.031623244	-1.040000E-01	  0.031623244	-1.025650E+02	  0.031623244	4.920000E-01	  0.031623244	-4.007900E+01
60	  0.031823646	-1.060000E-01	  0.031823646	-1.031350E+02	  0.031823646	4.970000E-01	  0.031823646	-3.967300E+01
61	  0.032024048	-1.080000E-01	  0.032024048	-1.036860E+02	  0.032024048	5.040000E-01	  0.032024048	-3.928200E+01
62	  0.032224450	-1.090000E-01	  0.032224450	-1.042450E+02	  0.032224450	5.030000E-01	  0.032224450	-3.888900E+01
63	  0.032424849	-1.100000E-01	  0.032424849	-1.048140E+02	  0.032424849	5.040000E-01	  0.032424849	-3.849200E+01
64	  0.032625251	-1.130000E-01	  0.032625251	-1.053540E+02	  0.032625251	5.170000E-01	  0.032625251	-3.811800E+01
65	  0.032825653	-1.130000E-01	  0.032825653	-1.058970E+02	  0.032825653	5.120000E-01	  0.032825653	-3.774500E+01
66	  0.033026051	-1.150000E-01	  0.033026051	-1.064570E+02	  0.033026051	5.190000E-01	  0.033026051	-3.736200E+01
67	  0.033226453	-1.170000E-01	  0.033226453	-1.070090E+02	  0.033226453	5.240000E-01	  0.033226453	-3.698900E+01
68	  0.033426855	-1.180000E-01	  0.033426855	-1.075690E+02	  0.033426855	5.250000E-01	  0.033426855	-3.661200E+01
69	  0.033627257	-1.200000E-01	  0.033627257	-1.081110E+02	  0.033627257	5.290000E-01	  0.033627257	-3.625000E+01
70	  0.033827655	-1.210000E-01	  0.033827655	-1.086700E+02	  0.033827655	5.310000E-01	  0.033827655	-3.587900E+01
71	  0.034028057	-1.210000E-01	  0.034028057	-1.092170E+02	  0.034028057	5.250000E-01	  0.034028057	-3.551800E+01
72	  0.034228459	-1.240000E-01	  0.034228459	-1.097610E+02	  0.034228459	5.340000E-01	  0.034228459	-3.516200E+01
73	  0.034428857	-1.260000E-01	  0.034428857	-1.103180E+02	  0.034428857	5.390000E-01	  0.034428857	-3.480000E+01
74	  0.034629259	-1.270000E-01	  0.034629259	-1.108570E+02	  0.034629259	5.390000E-01	  0.034629259	-3.445200E+01
75	  0.034829661	-1.270000E-01	  0.034829661	-1.114040E+02	  0.034829661	5.380000E-01	  0.034829661	-3.410200E+01
76	  0.035030060	-1.280000E-01	  0.035030060	-1.119580E+02	  0.035030060	5.390000E-01	  0.035030060	-3.374800E+01
77	  0.035230462	-1.300000E-01	  0.035230462	-1.125030E+02	  0.035230462	5.440000E-01	  0.035230462	-3.340400E+01
78	  0.035430863	-1.300000E-01	  0.035430863	-1.130590E+02	  0.035430863	5.390000E-01	  0.035430863	-3.305400E+01
79	  0.035631265	-1.310000E-01	  0.035631265	-1.135980E+02	  0.035631265	5.420000E-01	  0.035631265	-3.271700E+01
80	  0.035831664	-1.320000E-01	  0.035831664	-1.141290E+02	  0.035831664	5.420000E-01	  0.035831664	-3.238700E+01
81	  0.036032066	-1.330000E-01	  0.036032066	-1.146700E+02	  0.036032066	5.400000E-01	  0.036032066	-3.205300E+01
82	  0.036232468	-1.350000E-01	  0.036232468	-1.152120E+02	  0.036232468	5.450000E-01	  0.036232468	-3.172000E+01
83	  0.036432866	-1.350000E-01	  0.036432866	-1.157550E+02	  0.036432866	5.450000E-01	  0.036432866	-3.138900E+01
84	  0.036633268	-1.350000E-01	  0.036633268	-1.162890E+02	  0.036633268	5.400000E-01	  0.036633268	-3.106500E+01
85	  0.036833670	-1.350000E-01	  0.036833670	-1.168390E+02	  0.036833670	5.390000E-01	  0.036833670	-3.073300E+01
86	  0.037034072	-1.370000E-01	  0.037034072	-1.173640E+02	  0.037034072	5.410000E-01	  0.037034072	-3.041900E+01
87	  0.037234470	-1.370000E-01	  0.037234470	-1.179040E+02	  0.037234470	5.400000E-01	  0.037234470	-3.009600E+01
88	  0.037434869	-1.360000E-01	  0.037434869	-1.184310E+02	  0.037434869	5.330000E-01	  0.037434869	-2.978400E+01
89	  0.037635271	-1.400000E-01	  0.037635271	-1.189580E+02	  0.037635271	5.430000E-01	  0.037635271	-2.947300E+01
90	  0.037835669	-1.390000E-01	  0.037835669	-1.195030E+02	  0.037835669	5.360000E-01	  0.037835669	-2.915400E+01
91	  0.038036071	-1.400000E-01	  0.038036071	-1.200300E+02	  0.038036071	5.380000E-01	  0.038036071	-2.884700E+01
92	  0.038236473	-1.380000E-01	  0.038236473	-1.205540E+02	  0.038236473	5.290000E-01	  0.038236473	-2.854300E+01
93	  0.038436871	-1.400000E-01	  0.038436871	-1.210840E+02	  0.038436871	5.340000E-01	  0.038436871	-2.823700E+01
94	  0.038637273	-1.400000E-01	  0.038637273	-1.216100E+02	  0.038637273	5.290000E-01	  0.038637273	-2.793500E+01
95	  0.038837675	-1.410000E-01	  0.038837675	-1.221450E+02	  0.038837675	5.320000E-01	  0.038837675	-2.763000E+01
96	  0.039038073	-1.410000E-01	  0.039038073	-1.226580E+02	  0.039038073	5.270000E-01	  0.039038073	-2.733800E+01
97	  0.039238475	-1.410000E-01	  0.039238475	-1.231800E+02	  0.039238475	5.260000E-01	  0.039238475	-2.704300E+01
98	  0.039438877	-1.430000E-01	  0.039438877	-1.237040E+02	  0.039438877	5.300000E-01	  0.039438877	-2.674800E+01
99	  0.039639279	-1.420000E-01	  0.039639279	-1.242160E+02	  0.039639279	5.260000E-01	  0.039639279	-2.646200E+01
100	  0.039839678	-1.450000E-01	  0.039839678	-1.247420E+02	  0.039839678	5.320000E-01	  0.039839678	-2.616800E+01
101	  0.040040080	-1.430000E-01	  0.040040080	-1.252550E+02	  0.040040080	5.240000E-01	  0.040040080	-2.588400E+01
102	  0.040240481	-1.440000E-01	  0.040240481	-1.257710E+02	  0.040240481	5.240000E-01	  0.040240481	-2.559900E+01
103	  0.040440880	-1.440000E-01	  0.040440880	-1.262860E+02	  0.040440880	5.230000E-01	  0.040440880	-2.531600E+01
104	  0.040641282	-1.460000E-01	  0.040641282	-1.267970E+02	  0.040641282	5.260000E-01	  0.040641282	-2.503700E+01
105	  0.040841684	-1.470000E-01	  0.040841684	-1.273100E+02	  0.040841684	5.300000E-01	  0.040841684	-2.475800E+01
106	  0.041042086	-1.470000E-01	  0.041042086	-1.278210E+02	  0.041042086	5.250000E-01	  0.041042086	-2.448100E+01
107	  0.041242484	-1.480000E-01	  0.041242484	-1.283400E+02	  0.041242484	5.280000E-01	  0.041242484	-2.420000E+01
108	  0.041442886	-1.490000E-01	  0.041442886	-1.288440E+02	  0.041442886	5.270000E-01	  0.041442886	-2.392900E+01
109	  0.041643288	-1.500000E-01	  0.041643288	-1.293600E+02	  0.041643288	5.300000E-01	  0.041643288	-2.365300E+01
110	  0.041843686	-1.500000E-01	  0.041843686	-1.298630E+02	  0.041843686	5.280000E-01	  0.041843686	-2.338500E+01
111	  0.042044088	-1.510000E-01	  0.042044088	-1.303710E+02	  0.042044088	5.300000E-01	  0.042044088	-2.311600E+01
112	  0.042244490	-1.520000E-01	  0.042244490	-1.308670E+02	  0.042244490	5.310000E-01	  0.042244490	-2.285400E+01
113	  0.042444889	-1.490000E-01	  0.042444889	-1.314000E+02	  0.042444889	5.180000E-01	  0.042444889	-2.257300E+01
114	  0.042645290	-1.500000E-01	  0.042645290	-1.319010E+02	  0.042645290	5.180000E-01	  0.042645290	-2.231000E+01
115	  0.042845692	-1.490000E-01	  0.042845692	-1.324010E+02	  0.042845692	5.150000E-01	  0.042845692	-2.204900E+01
116	  0.043046094	-1.510000E-01	  0.043046094	-1.329180E+02	  0.043046094	5.190000E-01	  0.043046094	-2.178000E+01
117	  0.043246493	-1.530000E-01	  0.043246493	-1.334100E+02	  0.043246493	5.220000E-01	  0.043246493	-2.152600E+01
118	  0.043446895	-1.550000E-01	  0.043446895	-1.339120E+02	  0.043446895	5.270000E-01	  0.043446895	-2.126700E+01
119	  0.043647297	-1.540000E-01	  0.043647297	-1.344060E+02	  0.043647297	5.230000E-01	  0.043647297	-2.101200E+01
120	  0.043847695	-1.550000E-01	  0.043847695	-1.349140E+02	  0.043847695	5.250000E-01	  0.043847695	-2.075200E+01
121	  0.044048097	-1.560000E-01	  0.044048097	-1.354080E+02	  0.044048097	5.260000E-01	  0.044048097	-2.050000E+01
122	  0.044248499	-1.580000E-01	  0.044248499	-1.359140E+02	  0.044248499	5.290000E-01	  0.044248499	-2.024200E+01
123	  0.044448901	-1.590000E-01	  0.044448901	-1.364050E+02	  0.044448901	5.330000E-01	  0.044448901	-1.999300E+01
124	  0.044649299	-1.620000E-01	  0.044649299	-1.368930E+02	  0.044649299	5.390000E-01	  0.044649299	-1.974700E+01
125	  0.044849701	-1.630000E-01	  0.044849701	-1.373990E+02	  0.044849701	5.410000E-01	  0.044849701	-1.949200E+01
126	  0.045050103	-1.630000E-01	  0.045050103	-1.378940E+02	  0.045050103	5.390000E-01	  0.045050103	-1.924300E+01
127	  0.045250501	-1.640000E-01	  0.045250501	-1.383980E+02	  0.045250501	5.410000E-01	  0.045250501	-1.899200E+01
128	  0.045450903	-1.670000E-01	  0.045450903	-1.389030E+02	  0.045450903	5.490000E-01	  0.045450903	-1.874000E+01
129	  0.045651305	-1.670000E-01	  0.045651305	-1.393940E+02	  0.045651305	5.490000E-01	  0.045651305	-1.849600E+01
130	  0.045851704	-1.700000E-01	  0.045851704	-1.398800E+02	  0.045851704	5.550000E-01	  0.045851704	-1.825500E+01
131	  0.046052106	-1.720000E-01	  0.046052106	-1.403750E+02	  0.046052106	5.590000E-01	  0.046052106	-1.801100E+01
132	  0.046252504	-1.720000E-01	  0.046252504	-1.408630E+02	  0.046252504	5.600000E-01	  0.046252504	-1.777100E+01
133	  0.046452906	-1.730000E-01	  0.046452906	-1.413620E+02	  0.046452906	5.600000E-01	  0.046452906	-1.752600E+01
134	  0.046653304	-1.740000E-01	  0.046653304	-1.418490E+02	  0.046653304	5.630000E-01	  0.046653304	-1.728700E+01
135	  0.046853706	-1.750000E-01	  0.046853706	-1.423460E+02	  0.046853706	5.630000E-01	  0.046853706	-1.704500E+01
136	  0.047054108	-1.710000E-01	  0.047054108	-1.428140E+02	  0.047054108	5.500000E-01	  0.047054108	-1.681700E+01
137	  0.047254506	-1.730000E-01	  0.047254506	-1.433020E+02	  0.047254506	5.530000E-01	  0.047254506	-1.658100E+01
138	  0.047454908	-1.740000E-01	  0.047454908	-1.437850E+02	  0.047454908	5.560000E-01	  0.047454908	-1.634700E+01
139	  0.047655310	-1.730000E-01	  0.047655310	-1.442710E+02	  0.047655310	5.520000E-01	  0.047655310	-1.611300E+01
140	  0.047855709	-1.750000E-01	  0.047855709	-1.447560E+02	  0.047855709	5.540000E-01	  0.047855709	-1.587900E+01
141	  0.048056111	-1.760000E-01	  0.048056111	-1.452440E+02	  0.048056111	5.560000E-01	  0.048056111	-1.564500E+01
142	  0.048256513	-1.770000E-01	  0.048256513	-1.457200E+02	  0.048256513	5.590000E-01	  0.048256513	-1.541800E+01
143	  0.048456915	-1.770000E-01	  0.048456915	-1.462070E+02	  0.048456915	5.590000E-01	  0.048456915	-1.518500E+01
144	  0.048657313	-1.780000E-01	  0.048657313	-1.466870E+02	  0.048657313	5.580000E-01	  0.048657313	-1.495700E+01
145	  0.048857715	-1.790000E-01	  0.048857715	-1.471640E+02	  0.048857715	5.600000E-01	  0.048857715	-1.473000E+01
146	  0.049058117	-1.800000E-01	  0.049058117	-1.476450E+02	  0.049058117	5.620000E-01	  0.049058117	-1.450300E+01
147	  0.049258515	-1.800000E-01	  0.049258515	-1.481220E+02	  0.049258515	5.600000E-01	  0.049258515	-1.427700E+01
148	  0.049458917	-1.800000E-01	  0.049458917	-1.486080E+02	  0.049458917	5.610000E-01	  0.049458917	-1.404800E+01
149	  0.049659319	-1.830000E-01	  0.049659319	-1.490740E+02	  0.049659319	5.670000E-01	  0.049659319	-1.382900E+01
150	  0.049859721	-1.820000E-01	  0.049859721	-1.495560E+02	  0.049859721	5.620000E-01	  0.049859721	-1.360300E+01
151	  0.050060119	-1.840000E-01	  0.050060119	-1.500190E+02	  0.050060119	5.670000E-01	  0.050060119	-1.338600E+01
152	  0.050260521	-1.840000E-01	  0.050260521	-1.504990E+02	  0.050260521	5.660000E-01	  0.050260521	-1.316200E+01
153	  0.050460923	-1.830000E-01	  0.050460923	-1.509680E+02	  0.050460923	5.630000E-01	  0.050460923	-1.294400E+01
154	  0.050661322	-1.850000E-01	  0.050661322	-1.514310E+02	  0.050661322	5.680000E-01	  0.050661322	-1.272800E+01
155	  0.050861724	-1.850000E-01	  0.050861724	-1.519020E+02	  0.050861724	5.680000E-01	  0.050861724	-1.250900E+01
156	  0.051062126	-1.870000E-01	  0.051062126	-1.523680E+02	  0.051062126	5.710000E-01	  0.051062126	-1.229400E+01
157	  0.051262524	-1.860000E-01	  0.051262524	-1.528340E+02	  0.051262524	5.690000E-01	  0.051262524	-1.207800E+01
158	  0.051462926	-1.870000E-01	  0.051462926	-1.533040E+02	  0.051462926	5.690000E-01	  0.051462926	-1.186100E+01
159	  0.051663328	-1.880000E-01	  0.051663328	-1.537590E+02	  0.051663328	5.730000E-01	  0.051663328	-1.165200E+01
160	  0.051863730	-1.890000E-01	  0.051863730	-1.542180E+02	  0.051863730	5.730000E-01	  0.051863730	-1.144100E+01
161	  0.052064128	-1.900000E-01	  0.052064128	-1.546780E+02	  0.052064128	5.740000E-01	  0.052064128	-1.123000E+01
162	  0.052264530	-1.890000E-01	  0.052264530	-1.551390E+02	  0.052264530	5.720000E-01	  0.052264530	-1.101900E+01
163	  0.052464932	-1.900000E-01	  0.052464932	-1.555940E+02	  0.052464932	5.730000E-01	  0.052464932	-1.081100E+01
164	  0.052665330	-1.910000E-01	  0.052665330	-1.560480E+02	  0.052665330	5.760000E-01	  0.052665330	-1.060400E+01
165	  0.052865732	-1.930000E-01	  0.052865732	-1.565010E+02	  0.052865732	5.800000E-01	  0.052865732	-1.039700E+01
166	  0.053066134	-1.920000E-01	  0.053066134	-1.569570E+02	  0.053066134	5.770000E-01	  0.053066134	-1.019000E+01
167	  0.053266536	-1.940000E-01	  0.053266536	-1.574150E+02	  0.053266536	5.830000E-01	  0.053266536	-9.982000E+00
168	  0.053466935	-1.940000E-01	  0.053466935	-1.578690E+02	  0.053466935	5.810000E-01	  0.053466935	-9.776000E+00
169	  0.053667337	-1.970000E-01	  0.053667337	-1.583080E+02	  0.053667337	5.880000E-01	  0.053667337	-9.578000E+00
170	  0.053867739	-1.960000E-01	  0.053867739	-1.587670E+02	  0.053867739	5.840000E-01	  0.053867739	-9.370000E+00
171	  0.054068137	-1.970000E-01	  0.054068137	-1.592230E+02	  0.054068137	5.870000E-01	  0.054068137	-9.164000E+00
172	  0.054268539	-1.970000E-01	  0.054268539	-1.596630E+02	  0.054268539	5.870000E-01	  0.054268539	-8.966000E+00
173	  0.054468941	-1.990000E-01	  0.054468941	-1.601150E+02	  0.054468941	5.920000E-01	  0.054468941	-8.763000E+00
174	  0.054669339	-2.000000E-01	  0.054669339	-1.605620E+02	  0.054669339	5.940000E-01	  0.054669339	-8.562000E+00
175	  0.054869737	-2.000000E-01	  0.054869737	-1.610110E+02	  0.054869737	5.930000E-01	  0.054869737	-8.360000E+00
176	  0.055070139	-2.020000E-01	  0.055070139	-1.614620E+02	  0.055070139	5.990000E-01	  0.055070139	-8.158000E+00
177	  0.055270538	-2.030000E-01	  0.055270538	-1.619100E+02	  0.055270538	6.010000E-01	  0.055270538	-7.958000E+00
178	  0.055470940	-2.030000E-01	  0.055470940	-1.623590E+02	  0.055470940	6.000000E-01	  0.055470940	-7.757000E+00
179	  0.055671342	-2.040000E-01	  0.055671342	-1.628110E+02	  0.055671342	6.010000E-01	  0.055671342	-7.555000E+00
180	  0.055871744	-2.060000E-01	  0.055871744	-1.632570E+02	  0.055871744	6.060000E-01	  0.055871744	-7.356000E+00
181	  0.056072142	-2.060000E-01	  0.056072142	-1.636980E+02	  0.056072142	6.050000E-01	  0.056072142	-7.160000E+00
182	  0.056272544	-2.070000E-01	  0.056272544	-1.641370E+02	  0.056272544	6.080000E-01	  0.056272544	-6.964000E+00
183	  0.056472946	-2.080000E-01	  0.056472946	-1.645860E+02	  0.056472946	6.110000E-01	  0.056472946	-6.765000E+00
184	  0.056673344	-2.090000E-01	  0.056673344	-1.650160E+02	  0.056673344	6.130000E-01	  0.056673344	-6.574000E+00
185	  0.056873746	-2.110000E-01	  0.056873746	-1.654580E+02	  0.056873746	6.170000E-01	  0.056873746	-6.378000E+00
186	  0.057074148	-2.110000E-01	  0.057074148	-1.658980E+02	  0.057074148	6.170000E-01	  0.057074148	-6.183000E+00
187	  0.057274550	-2.130000E-01	  0.057274550	-1.663450E+02	  0.057274550	6.230000E-01	  0.057274550	-5.985000E+00
188	  0.057474948	-2.140000E-01	  0.057474948	-1.667690E+02	  0.057474948	6.260000E-01	  0.057474948	-5.797000E+00
189	  0.057675350	-2.160000E-01	  0.057675350	-1.672200E+02	  0.057675350	6.290000E-01	  0.057675350	-5.598000E+00
190	  0.057875752	-2.160000E-01	  0.057875752	-1.676550E+02	  0.057875752	6.300000E-01	  0.057875752	-5.406000E+00
191	  0.058076151	-2.180000E-01	  0.058076151	-1.680920E+02	  0.058076151	6.340000E-01	  0.058076151	-5.213000E+00
192	  0.058276553	-2.190000E-01	  0.058276553	-1.685200E+02	  0.058276553	6.360000E-01	  0.058276553	-5.024000E+00
193	  0.058476955	-2.210000E-01	  0.058476955	-1.689500E+02	  0.058476955	6.440000E-01	  0.058476955	-4.835000E+00
194	  0.058677353	-2.230000E-01	  0.058677353	-1.693900E+02	  0.058677353	6.480000E-01	  0.058677353	-4.641000E+00
195	  0.058877755	-2.240000E-01	  0.058877755	-1.698230E+02	  0.058877755	6.510000E-01	  0.058877755	-4.451000E+00
196	  0.059078157	-2.250000E-01	  0.059078157	-1.702580E+02	  0.059078157	6.520000E-01	  0.059078157	-4.260000E+00
197	  0.059278559	-2.260000E-01	  0.059278559	-1.706940E+02	  0.059278559	6.570000E-01	  0.059278559	-4.068000E+00
198	  0.059478957	-2.280000E-01	  0.059478957	-1.711100E+02	  0.059478957	6.600000E-01	  0.059478957	-3.885000E+00
199	  0.059679359	-2.290000E-01	  0.059679359	-1.715480E+02	  0.059679359	6.650000E-01	  0.059679359	-3.693000E+00
200	  0.059879761	-2.290000E-01	  0.059879761	-1.719740E+02	  0.059879761	6.640000E-01	  0.059879761	-3.506000E+00
201	  0.060080159	-2.300000E-01	  0.060080159	-1.724010E+02	  0.060080159	6.660000E-01	  0.060080159	-3.319000E+00
202	  0.060280561	-2.310000E-01	  0.060280561	-1.728320E+02	  0.060280561	6.690000E-01	  0.060280561	-3.130000E+00
203	  0.060480963	-2.320000E-01	  0.060480963	-1.732680E+02	  0.060480963	6.720000E-01	  0.060480963	-2.940000E+00
204	  0.060681365	-2.340000E-01	  0.060681365	-1.736820E+02	  0.060681365	6.750000E-01	  0.060681365	-2.758000E+00
205	  0.060881764	-2.340000E-01	  0.060881764	-1.741210E+02	  0.060881764	6.780000E-01	  0.060881764	-2.566000E+00
206	  0.061082166	-2.340000E-01	  0.061082166	-1.745460E+02	  0.061082166	6.770000E-01	  0.061082166	-2.380000E+00
207	  0.061282568	-2.350000E-01	  0.061282568	-1.749680E+02	  0.061282568	6.790000E-01	  0.061282568	-2.196000E+00
208	  0.061482966	-2.350000E-01	  0.061482966	-1.753790E+02	  0.061482966	6.780000E-01	  0.061482966	-2.016000E+00
209	  0.061683368	-2.350000E-01	  0.061683368	-1.758080E+02	  0.061683368	6.780000E-01	  0.061683368	-1.829000E+00
210	  0.061883770	-2.360000E-01	  0.061883770	-1.762250E+02	  0.061883770	6.800000E-01	  0.061883770	-1.647000E+00
211	  0.062084168	-2.360000E-01	  0.062084168	-1.766490E+02	  0.062084168	6.820000E-01	  0.062084168	-1.461000E+00
212	  0.062284570	-2.370000E-01	  0.062284570	-1.770620E+02	  0.062284570	6.830000E-01	  0.062284570	-1.281000E+00
213	  0.062484972	-2.310000E-01	  0.062484972	-1.774300E+02	  0.062484972	6.670000E-01	  0.062484972	-1.121000E+00
214	  0.062685370	-2.330000E-01	  0.062685370	-1.778460E+02	  0.062685370	6.720000E-01	  0.062685370	-9.390000E-01
215	  0.062885776	-2.350000E-01	  0.062885776	-1.782660E+02	  0.062885776	6.770000E-01	  0.062885776	-7.560000E-01
216	  0.063086174	-2.350000E-01	  0.063086174	-1.786730E+02	  0.063086174	6.760000E-01	  0.063086174	-5.780000E-01
217	  0.063286573	-2.360000E-01	  0.063286573	-1.790790E+02	  0.063286573	6.790000E-01	  0.063286573	-4.010000E-01
218	  0.063486971	-2.370000E-01	  0.063486971	-1.795180E+02	  0.063486971	6.830000E-01	  0.063486971	-2.100000E-01
219	  0.063687377	-2.380000E-01	  0.063687377	-1.799100E+02	  0.063687377	6.870000E-01	  0.063687377	-3.800000E-02
220	  0.063887775	-2.380000E-01	  0.063887775	1.796620E+02	  0.063887775	6.870000E-01	  0.063887775	1.470000E-01
221	  0.064088173	-2.400000E-01	  0.064088173	1.792520E+02	  0.064088173	6.900000E-01	  0.064088173	3.260000E-01
222	  0.064288579	-2.410000E-01	  0.064288579	1.788470E+02	  0.064288579	6.930000E-01	  0.064288579	5.020000E-01
223	  0.064488977	-2.400000E-01	  0.064488977	1.784270E+02	  0.064488977	6.930000E-01	  0.064488977	6.850000E-01
224	  0.064689375	-2.430000E-01	  0.064689375	1.780170E+02	  0.064689375	7.010000E-01	  0.064689375	8.650000E-01
225	  0.064889781	-2.440000E-01	  0.064889781	1.776180E+02	  0.064889781	7.020000E-01	  0.064889781	1.039000E+00
226	  0.065090179	-2.440000E-01	  0.065090179	1.771950E+02	  0.065090179	7.030000E-01	  0.065090179	1.223000E+00
227	  0.065290578	-2.450000E-01	  0.065290578	1.767990E+02	  0.065290578	7.050000E-01	  0.065290578	1.396000E+00
228	  0.065490983	-2.480000E-01	  0.065490983	1.763870E+02	  0.065490983	7.150000E-01	  0.065490983	1.576000E+00
229	  0.065691382	-2.470000E-01	  0.065691382	1.759650E+02	  0.065691382	7.120000E-01	  0.065691382	1.760000E+00
230	  0.065891780	-2.470000E-01	  0.065891780	1.755610E+02	  0.065891780	7.130000E-01	  0.065891780	1.937000E+00
231	  0.066092186	-2.480000E-01	  0.066092186	1.751590E+02	  0.066092186	7.160000E-01	  0.066092186	2.112000E+00
232	  0.066292584	-2.480000E-01	  0.066292584	1.747510E+02	  0.066292584	7.180000E-01	  0.066292584	2.291000E+00
233	  0.066492982	-2.480000E-01	  0.066492982	1.743500E+02	  0.066492982	7.150000E-01	  0.066492982	2.466000E+00
234	  0.066693388	-2.470000E-01	  0.066693388	1.739250E+02	  0.066693388	7.140000E-01	  0.066693388	2.652000E+00
235	  0.066893786	-2.470000E-01	  0.066893786	1.735320E+02	  0.066893786	7.150000E-01	  0.066893786	2.824000E+00
236	  0.067094192	-2.500000E-01	  0.067094192	1.731340E+02	  0.067094192	7.220000E-01	  0.067094192	2.998000E+00
237	  0.067294590	-2.500000E-01	  0.067294590	1.727240E+02	  0.067294590	7.240000E-01	  0.067294590	3.178000E+00
238	  0.067494988	-2.500000E-01	  0.067494988	1.723300E+02	  0.067494988	7.250000E-01	  0.067494988	3.350000E+00
239	  0.067695394	-2.510000E-01	  0.067695394	1.719230E+02	  0.067695394	7.270000E-01	  0.067695394	3.529000E+00
240	  0.067895792	-2.510000E-01	  0.067895792	1.715080E+02	  0.067895792	7.260000E-01	  0.067895792	3.711000E+00
241	  0.068096191	-2.520000E-01	  0.068096191	1.711210E+02	  0.068096191	7.300000E-01	  0.068096191	3.880000E+00
242	  0.068296596	-2.520000E-01	  0.068296596	1.707270E+02	  0.068296596	7.320000E-01	  0.068296596	4.053000E+00
243	  0.068496995	-2.530000E-01	  0.068496995	1.703320E+02	  0.068496995	7.340000E-01	  0.068496995	4.227000E+00
244	  0.068697393	-2.530000E-01	  0.068697393	1.699300E+02	  0.068697393	7.360000E-01	  0.068697393	4.403000E+00
245	  0.068897791	-2.550000E-01	  0.068897791	1.695350E+02	  0.068897791	7.410000E-01	  0.068897791	4.577000E+00
246	  0.069098189	-2.560000E-01	  0.069098189	1.691430E+02	  0.069098189	7.430000E-01	  0.069098189	4.750000E+00
247	  0.069298595	-2.550000E-01	  0.069298595	1.687420E+02	  0.069298595	7.420000E-01	  0.069298595	4.926000E+00
248	  0.069498993	-2.570000E-01	  0.069498993	1.683560E+02	  0.069498993	7.480000E-01	  0.069498993	5.096000E+00
249	  0.069699399	-2.560000E-01	  0.069699399	1.679670E+02	  0.069699399	7.470000E-01	  0.069699399	5.268000E+00
250	  0.069899797	-2.570000E-01	  0.069899797	1.675660E+02	  0.069899797	7.500000E-01	  0.069899797	5.445000E+00
251	  0.070100196	-2.570000E-01	  0.070100196	1.671840E+02	  0.070100196	7.500000E-01	  0.070100196	5.613000E+00
252	  0.070300601	-2.570000E-01	  0.070300601	1.667920E+02	  0.070300601	7.510000E-01	  0.070300601	5.787000E+00
253	  0.070501000	-2.590000E-01	  0.070501000	1.664180E+02	  0.070501000	7.570000E-01	  0.070501000	5.952000E+00
254	  0.070701398	-2.600000E-01	  0.070701398	1.660170E+02	  0.070701398	7.620000E-01	  0.070701398	6.129000E+00
255	  0.070901804	-2.610000E-01	  0.070901804	1.656300E+02	  0.070901804	7.640000E-01	  0.070901804	6.301000E+00
256	  0.071102202	-2.610000E-01	  0.071102202	1.652480E+02	  0.071102202	7.640000E-01	  0.071102202	6.470000E+00
257	  0.071302600	-2.610000E-01	  0.071302600	1.648540E+02	  0.071302600	7.660000E-01	  0.071302600	6.645000E+00
258	  0.071503006	-2.630000E-01	  0.071503006	1.644780E+02	  0.071503006	7.710000E-01	  0.071503006	6.812000E+00
259	  0.071703404	-2.620000E-01	  0.071703404	1.640890E+02	  0.071703404	7.690000E-01	  0.071703404	6.985000E+00
260	  0.071903802	-2.630000E-01	  0.071903802	1.637070E+02	  0.071903802	7.720000E-01	  0.071903802	7.155000E+00
261	  0.072104208	-2.630000E-01	  0.072104208	1.633220E+02	  0.072104208	7.750000E-01	  0.072104208	7.326000E+00
262	  0.072304606	-2.620000E-01	  0.072304606	1.629420E+02	  0.072304606	7.710000E-01	  0.072304606	7.496000E+00
263	  0.072505005	-2.630000E-01	  0.072505005	1.625670E+02	  0.072505005	7.760000E-01	  0.072505005	7.663000E+00
264	  0.072705410	-2.640000E-01	  0.072705410	1.621840E+02	  0.072705410	7.780000E-01	  0.072705410	7.834000E+00
265	  0.072905809	-2.660000E-01	  0.072905809	1.618070E+02	  0.072905809	7.850000E-01	  0.072905809	8.003000E+00
266	  0.073106214	-2.640000E-01	  0.073106214	1.614280E+02	  0.073106214	7.820000E-01	  0.073106214	8.173000E+00
267	  0.073306613	-2.650000E-01	  0.073306613	1.610510E+02	  0.073306613	7.840000E-01	  0.073306613	8.342000E+00
268	  0.073507011	-2.660000E-01	  0.073507011	1.606690E+02	  0.073507011	7.880000E-01	  0.073507011	8.513000E+00
269	  0.073707417	-2.680000E-01	  0.073707417	1.602920E+02	  0.073707417	7.940000E-01	  0.073707417	8.682000E+00
270	  0.073907815	-2.660000E-01	  0.073907815	1.599300E+02	  0.073907815	7.920000E-01	  0.073907815	8.845000E+00
271	  0.074108213	-2.670000E-01	  0.074108213	1.595510E+02	  0.074108213	7.960000E-01	  0.074108213	9.016000E+00
272	  0.074308619	-2.670000E-01	  0.074308619	1.591770E+02	  0.074308619	7.970000E-01	  0.074308619	9.184000E+00
273	  0.074509017	-2.690000E-01	  0.074509017	1.587930E+02	  0.074509017	8.010000E-01	  0.074509017	9.357000E+00
274	  0.074709415	-2.690000E-01	  0.074709415	1.584170E+02	  0.074709415	8.040000E-01	  0.074709415	9.527000E+00
275	  0.074909821	-2.700000E-01	  0.074909821	1.580360E+02	  0.074909821	8.060000E-01	  0.074909821	9.700000E+00
276	  0.075110219	-2.700000E-01	  0.075110219	1.576820E+02	  0.075110219	8.070000E-01	  0.075110219	9.860000E+00
277	  0.075310618	-2.710000E-01	  0.075310618	1.572990E+02	  0.075310618	8.120000E-01	  0.075310618	1.003300E+01
278	  0.075511023	-2.700000E-01	  0.075511023	1.569400E+02	  0.075511023	8.100000E-01	  0.075511023	1.019700E+01
279	  0.075711422	-2.720000E-01	  0.075711422	1.565680E+02	  0.075711422	8.180000E-01	  0.075711422	1.036600E+01
280	  0.075911827	-2.730000E-01	  0.075911827	1.561950E+02	  0.075911827	8.210000E-01	  0.075911827	1.053600E+01
281	  0.076112226	-2.730000E-01	  0.076112226	1.558230E+02	  0.076112226	8.240000E-01	  0.076112226	1.070500E+01
282	  0.076312624	-2.760000E-01	  0.076312624	1.554430E+02	  0.076312624	8.330000E-01	  0.076312624	1.087800E+01
283	  0.076513030	-2.760000E-01	  0.076513030	1.550720E+02	  0.076513030	8.350000E-01	  0.076513030	1.104800E+01
284	  0.076713428	-2.780000E-01	  0.076713428	1.547080E+02	  0.076713428	8.400000E-01	  0.076713428	1.121500E+01
285	  0.076913826	-2.780000E-01	  0.076913826	1.543440E+02	  0.076913826	8.430000E-01	  0.076913826	1.138100E+01
286	  0.077114232	-2.800000E-01	  0.077114232	1.539780E+02	  0.077114232	8.500000E-01	  0.077114232	1.155000E+01
287	  0.077314630	-2.810000E-01	  0.077314630	1.536000E+02	  0.077314630	8.550000E-01	  0.077314630	1.172300E+01
288	  0.077515028	-2.840000E-01	  0.077515028	1.532360E+02	  0.077515028	8.630000E-01	  0.077515028	1.189100E+01
289	  0.077715434	-2.840000E-01	  0.077715434	1.528620E+02	  0.077715434	8.650000E-01	  0.077715434	1.206300E+01
290	  0.077915832	-2.870000E-01	  0.077915832	1.524910E+02	  0.077915832	8.760000E-01	  0.077915832	1.223500E+01
291	  0.078116231	-2.880000E-01	  0.078116231	1.521300E+02	  0.078116231	8.820000E-01	  0.078116231	1.240200E+01
292	  0.078316636	-2.890000E-01	  0.078316636	1.517580E+02	  0.078316636	8.860000E-01	  0.078316636	1.257400E+01
293	  0.078517035	-2.920000E-01	  0.078517035	1.513920E+02	  0.078517035	8.960000E-01	  0.078517035	1.274400E+01
294	  0.078717433	-2.920000E-01	  0.078717433	1.510170E+02	  0.078717433	8.970000E-01	  0.078717433	1.291800E+01
295	  0.078917839	-2.930000E-01	  0.078917839	1.506480E+02	  0.078917839	9.030000E-01	  0.078917839	1.309000E+01
296	  0.079118237	-2.950000E-01	  0.079118237	1.502880E+02	  0.079118237	9.110000E-01	  0.079118237	1.325800E+01
297	  0.079318643	-2.950000E-01	  0.079318643	1.499170E+02	  0.079318643	9.120000E-01	  0.079318643	1.343100E+01
298	  0.079519041	-2.970000E-01	  0.079519041	1.495510E+02	  0.079519041	9.190000E-01	  0.079519041	1.360300E+01
299	  0.079719439	-2.980000E-01	  0.079719439	1.491840E+02	  0.079719439	9.240000E-01	  0.079719439	1.377500E+01
300	  0.079919845	-2.990000E-01	  0.079919845	1.488270E+02	  0.079919845	9.270000E-01	  0.079919845	1.394200E+01
301	  0.080120243	-3.010000E-01	  0.080120243	1.484530E+02	  0.080120243	9.370000E-01	  0.080120243	1.411800E+01
302	  0.080320641	-3.000000E-01	  0.080320641	1.480750E+02	  0.080320641	9.350000E-01	  0.080320641	1.429700E+01
303	  0.080521047	-3.000000E-01	  0.080521047	1.477220E+02	  0.080521047	9.380000E-01	  0.080521047	1.446300E+01
304	  0.080721445	-3.030000E-01	  0.080721445	1.473530E+02	  0.080721445	9.490000E-01	  0.080721445	1.463800E+01
305	  0.080921844	-3.040000E-01	  0.080921844	1.469990E+02	  0.080921844	9.520000E-01	  0.080921844	1.480600E+01
306	  0.081122249	-3.040000E-01	  0.081122249	1.466320E+02	  0.081122249	9.540000E-01	  0.081122249	1.498000E+01
307	  0.081322648	-3.070000E-01	  0.081322648	1.462630E+02	  0.081322648	9.660000E-01	  0.081322648	1.515500E+01
308	  0.081523046	-3.050000E-01	  0.081523046	1.459080E+02	  0.081523046	9.610000E-01	  0.081523046	1.532500E+01
309	  0.081723452	-3.070000E-01	  0.081723452	1.455340E+02	  0.081723452	9.690000E-01	  0.081723452	1.550300E+01
310	  0.081923850	-3.080000E-01	  0.081923850	1.451740E+02	  0.081923850	9.750000E-01	  0.081923850	1.567500E+01
311	  0.082124248	-3.080000E-01	  0.082124248	1.448130E+02	  0.082124248	9.770000E-01	  0.082124248	1.584800E+01
312	  0.082324654	-3.080000E-01	  0.082324654	1.444670E+02	  0.082324654	9.790000E-01	  0.082324654	1.601500E+01
313	  0.082525052	-3.100000E-01	  0.082525052	1.440960E+02	  0.082525052	9.880000E-01	  0.082525052	1.619300E+01
314	  0.082725458	-3.100000E-01	  0.082725458	1.437350E+02	  0.082725458	9.880000E-01	  0.082725458	1.636700E+01
315	  0.082925856	-3.130000E-01	  0.082925856	1.433780E+02	  0.082925856	9.990000E-01	  0.082925856	1.654000E+01
316	  0.083126254	-3.110000E-01	  0.083126254	1.430190E+02	  0.083126254	9.970000E-01	  0.083126254	1.671400E+01
317	  0.083326660	-3.140000E-01	  0.083326660	1.426630E+02	  0.083326660	1.007000E+00	  0.083326660	1.688700E+01
318	  0.083527058	-3.130000E-01	  0.083527058	1.423070E+02	  0.083527058	1.006000E+00	  0.083527058	1.706000E+01
319	  0.083727457	-3.130000E-01	  0.083727457	1.419470E+02	  0.083727457	1.010000E+00	  0.083727457	1.723500E+01
320	  0.083927862	-3.150000E-01	  0.083927862	1.416030E+02	  0.083927862	1.016000E+00	  0.083927862	1.740300E+01
321	  0.084128261	-3.140000E-01	  0.084128261	1.412380E+02	  0.084128261	1.017000E+00	  0.084128261	1.758200E+01
322	  0.084328659	-3.150000E-01	  0.084328659	1.408890E+02	  0.084328659	1.022000E+00	  0.084328659	1.775300E+01
323	  0.084529065	-3.150000E-01	  0.084529065	1.405380E+02	  0.084529065	1.025000E+00	  0.084529065	1.792600E+01
324	  0.084729463	-3.160000E-01	  0.084729463	1.401760E+02	  0.084729463	1.031000E+00	  0.084729463	1.810400E+01
325	  0.084929861	-3.180000E-01	  0.084929861	1.398370E+02	  0.084929861	1.037000E+00	  0.084929861	1.827200E+01
326	  0.085130267	-3.170000E-01	  0.085130267	1.394810E+02	  0.085130267	1.037000E+00	  0.085130267	1.844800E+01
327	  0.085330658	-3.170000E-01	  0.085330658	1.391340E+02	  0.085330658	1.042000E+00	  0.085330658	1.862000E+01
328	  0.085531056	-3.190000E-01	  0.085531056	1.387830E+02	  0.085531056	1.049000E+00	  0.085531056	1.879400E+01
329	  0.085731462	-3.190000E-01	  0.085731462	1.384370E+02	  0.085731462	1.052000E+00	  0.085731462	1.896700E+01
330	  0.085931860	-3.200000E-01	  0.085931860	1.380830E+02	  0.085931860	1.056000E+00	  0.085931860	1.914400E+01
331	  0.086132258	-3.200000E-01	  0.086132258	1.377430E+02	  0.086132258	1.058000E+00	  0.086132258	1.931400E+01
332	  0.086332664	-3.210000E-01	  0.086332664	1.374000E+02	  0.086332664	1.066000E+00	  0.086332664	1.948600E+01
333	  0.086533062	-3.210000E-01	  0.086533062	1.370450E+02	  0.086533062	1.069000E+00	  0.086533062	1.966400E+01
334	  0.086733460	-3.210000E-01	  0.086733460	1.366950E+02	  0.086733460	1.069000E+00	  0.086733460	1.984100E+01
335	  0.086933866	-3.230000E-01	  0.086933866	1.363450E+02	  0.086933866	1.081000E+00	  0.086933866	2.001700E+01
336	  0.087134264	-3.230000E-01	  0.087134264	1.360110E+02	  0.087134264	1.084000E+00	  0.087134264	2.018700E+01
337	  0.087334670	-3.240000E-01	  0.087334670	1.356590E+02	  0.087334670	1.089000E+00	  0.087334670	2.036500E+01
338	  0.087535068	-3.240000E-01	  0.087535068	1.353210E+02	  0.087535068	1.091000E+00	  0.087535068	2.053800E+01
339	  0.087735467	-3.250000E-01	  0.087735467	1.349740E+02	  0.087735467	1.097000E+00	  0.087735467	2.071500E+01
340	  0.087935872	-3.260000E-01	  0.087935872	1.346290E+02	  0.087935872	1.104000E+00	  0.087935872	2.089100E+01
341	  0.088136271	-3.280000E-01	  0.088136271	1.342860E+02	  0.088136271	1.113000E+00	  0.088136271	2.106700E+01
342	  0.088336669	-3.260000E-01	  0.088336669	1.339330E+02	  0.088336669	1.110000E+00	  0.088336669	2.124800E+01
343	  0.088537075	-3.280000E-01	  0.088537075	1.336010E+02	  0.088537075	1.119000E+00	  0.088537075	2.142000E+01
344	  0.088737473	-3.290000E-01	  0.088737473	1.332570E+02	  0.088737473	1.123000E+00	  0.088737473	2.159800E+01
345	  0.088937871	-3.300000E-01	  0.088937871	1.329120E+02	  0.088937871	1.131000E+00	  0.088937871	2.177600E+01
346	  0.089138277	-3.300000E-01	  0.089138277	1.325700E+02	  0.089138277	1.134000E+00	  0.089138277	2.195400E+01
347	  0.089338675	-3.310000E-01	  0.089338675	1.322230E+02	  0.089338675	1.141000E+00	  0.089338675	2.213400E+01
348	  0.089539073	-3.310000E-01	  0.089539073	1.318940E+02	  0.089539073	1.143000E+00	  0.089539073	2.230600E+01
349	  0.089739479	-3.330000E-01	  0.089739479	1.315490E+02	  0.089739479	1.155000E+00	  0.089739479	2.248700E+01
350	  0.089939877	-3.320000E-01	  0.089939877	1.312170E+02	  0.089939877	1.151000E+00	  0.089939877	2.266100E+01
351	  0.090140276	-3.350000E-01	  0.090140276	1.308630E+02	  0.090140276	1.166000E+00	  0.090140276	2.284700E+01
352	  0.090340681	-3.340000E-01	  0.090340681	1.305310E+02	  0.090340681	1.168000E+00	  0.090340681	2.302300E+01
353	  0.090541080	-3.360000E-01	  0.090541080	1.301920E+02	  0.090541080	1.178000E+00	  0.090541080	2.320200E+01
354	  0.090741485	-3.350000E-01	  0.090741485	1.298580E+02	  0.090741485	1.176000E+00	  0.090741485	2.337900E+01
355	  0.090941884	-3.370000E-01	  0.090941884	1.295140E+02	  0.090941884	1.187000E+00	  0.090941884	2.356200E+01
356	  0.091142282	-3.380000E-01	  0.091142282	1.291790E+02	  0.091142282	1.194000E+00	  0.091142282	2.374100E+01
357	  0.091342688	-3.390000E-01	  0.091342688	1.288270E+02	  0.091342688	1.200000E+00	  0.091342688	2.393000E+01
358	  0.091543086	-3.400000E-01	  0.091543086	1.285010E+02	  0.091543086	1.207000E+00	  0.091543086	2.410400E+01
359	  0.091743484	-3.390000E-01	  0.091743484	1.281600E+02	  0.091743484	1.208000E+00	  0.091743484	2.428800E+01
360	  0.091943890	-3.400000E-01	  0.091943890	1.278220E+02	  0.091943890	1.213000E+00	  0.091943890	2.447100E+01
361	  0.092144288	-3.400000E-01	  0.092144288	1.274840E+02	  0.092144288	1.217000E+00	  0.092144288	2.465300E+01
362	  0.092344686	-3.410000E-01	  0.092344686	1.271540E+02	  0.092344686	1.226000E+00	  0.092344686	2.483200E+01
363	  0.092545092	-3.420000E-01	  0.092545092	1.268030E+02	  0.092545092	1.233000E+00	  0.092545092	2.502300E+01
364	  0.092745490	-3.410000E-01	  0.092745490	1.264720E+02	  0.092745490	1.231000E+00	  0.092745490	2.520500E+01
365	  0.092945889	-3.430000E-01	  0.092945889	1.261400E+02	  0.092945889	1.244000E+00	  0.092945889	2.538600E+01
366	  0.093146294	-3.440000E-01	  0.093146294	1.257970E+02	  0.093146294	1.252000E+00	  0.093146294	2.557500E+01
367	  0.093346693	-3.420000E-01	  0.093346693	1.254620E+02	  0.093346693	1.246000E+00	  0.093346693	2.575900E+01
368	  0.093547091	-3.440000E-01	  0.093547091	1.251420E+02	  0.093547091	1.256000E+00	  0.093547091	2.593600E+01
369	  0.093747497	-3.440000E-01	  0.093747497	1.247920E+02	  0.093747497	1.262000E+00	  0.093747497	2.613000E+01
370	  0.093947895	-3.450000E-01	  0.093947895	1.244610E+02	  0.093947895	1.269000E+00	  0.093947895	2.631400E+01
371	  0.094148301	-3.420000E-01	  0.094148301	1.241250E+02	  0.094148301	1.263000E+00	  0.094148301	2.650100E+01
372	  0.094348699	-3.450000E-01	  0.094348699	1.237960E+02	  0.094348699	1.277000E+00	  0.094348699	2.668500E+01
373	  0.094549097	-3.430000E-01	  0.094549097	1.234590E+02	  0.094549097	1.274000E+00	  0.094549097	2.687500E+01
374	  0.094749503	-3.430000E-01	  0.094749503	1.231180E+02	  0.094749503	1.276000E+00	  0.094749503	2.706700E+01
375	  0.094949901	-3.440000E-01	  0.094949901	1.227850E+02	  0.094949901	1.284000E+00	  0.094949901	2.725500E+01
376	  0.095150299	-3.420000E-01	  0.095150299	1.224640E+02	  0.095150299	1.281000E+00	  0.095150299	2.743700E+01
377	  0.095350705	-3.440000E-01	  0.095350705	1.221190E+02	  0.095350705	1.292000E+00	  0.095350705	2.763300E+01
378	  0.095551103	-3.430000E-01	  0.095551103	1.217980E+02	  0.095551103	1.294000E+00	  0.095551103	2.781600E+01
379	  0.095751502	-3.430000E-01	  0.095751502	1.214620E+02	  0.095751502	1.299000E+00	  0.095751502	2.800800E+01
380	  0.095951907	-3.440000E-01	  0.095951907	1.211230E+02	  0.095951907	1.308000E+00	  0.095951907	2.820300E+01
381	  0.096152306	-3.430000E-01	  0.096152306	1.208000E+02	  0.096152306	1.308000E+00	  0.096152306	2.838800E+01
382	  0.096352704	-3.430000E-01	  0.096352704	1.204780E+02	  0.096352704	1.312000E+00	  0.096352704	2.857400E+01
383	  0.096553110	-3.440000E-01	  0.096553110	1.201300E+02	  0.096553110	1.318000E+00	  0.096553110	2.877600E+01
384	  0.096753508	-3.430000E-01	  0.096753508	1.198050E+02	  0.096753508	1.322000E+00	  0.096753508	2.896500E+01
385	  0.096953906	-3.430000E-01	  0.096953906	1.194800E+02	  0.096953906	1.324000E+00	  0.096953906	2.915500E+01
386	  0.097154312	-3.430000E-01	  0.097154312	1.191480E+02	  0.097154312	1.329000E+00	  0.097154312	2.934900E+01
387	  0.097354710	-3.440000E-01	  0.097354710	1.188270E+02	  0.097354710	1.338000E+00	  0.097354710	2.953700E+01
388	  0.097555116	-3.430000E-01	  0.097555116	1.184960E+02	  0.097555116	1.339000E+00	  0.097555116	2.973300E+01
389	  0.097755514	-3.430000E-01	  0.097755514	1.181720E+02	  0.097755514	1.342000E+00	  0.097755514	2.992400E+01
390	  0.097955912	-3.440000E-01	  0.097955912	1.178510E+02	  0.097955912	1.352000E+00	  0.097955912	3.011500E+01
391	  0.098156318	-3.460000E-01	  0.098156318	1.175280E+02	  0.098156318	1.362000E+00	  0.098156318	3.030700E+01
392	  0.098356716	-3.440000E-01	  0.098356716	1.171970E+02	  0.098356716	1.358000E+00	  0.098356716	3.050500E+01
393	  0.098557115	-3.440000E-01	  0.098557115	1.168660E+02	  0.098557115	1.364000E+00	  0.098557115	3.070300E+01
394	  0.098757520	-3.450000E-01	  0.098757520	1.165490E+02	  0.098757520	1.373000E+00	  0.098757520	3.089400E+01
395	  0.098957919	-3.440000E-01	  0.098957919	1.162270E+02	  0.098957919	1.375000E+00	  0.098957919	3.108800E+01
396	  0.099158317	-3.450000E-01	  0.099158317	1.159080E+02	  0.099158317	1.383000E+00	  0.099158317	3.128100E+01
397	  0.099358723	-3.460000E-01	  0.099358723	1.155830E+02	  0.099358723	1.391000E+00	  0.099358723	3.147900E+01
398	  0.099559121	-3.480000E-01	  0.099559121	1.152710E+02	  0.099559121	1.403000E+00	  0.099559121	3.166900E+01
399	  0.099759519	-3.480000E-01	  0.099759519	1.149290E+02	  0.099759519	1.410000E+00	  0.099759519	3.187800E+01
400	  0.099959925	-3.500000E-01	  0.099959925	1.145920E+02	  0.099959925	1.426000E+00	  0.099959925	3.208500E+01
401	  0.100160323	-3.520000E-01	  0.100160323	1.142830E+02	  0.100160323	1.438000E+00	  0.100160323	3.227500E+01
402	  0.100360721	-3.510000E-01	  0.100360721	1.139620E+02	  0.100360721	1.438000E+00	  0.100360721	3.247400E+01
403	  0.100561127	-3.520000E-01	  0.100561127	1.136390E+02	  0.100561127	1.447000E+00	  0.100561127	3.267500E+01
404	  0.100761525	-3.520000E-01	  0.100761525	1.133130E+02	  0.100761525	1.451000E+00	  0.100761525	3.287800E+01
405	  0.100961931	-3.510000E-01	  0.100961931	1.130210E+02	  0.100961931	1.455000E+00	  0.100961931	3.306100E+01
406	  0.101162329	-3.520000E-01	  0.101162329	1.126990E+02	  0.101162329	1.462000E+00	  0.101162329	3.326300E+01
407	  0.101362728	-3.480000E-01	  0.101362728	1.123600E+02	  0.101362728	1.453000E+00	  0.101362728	3.347700E+01
408	  0.101563133	-3.510000E-01	  0.101563133	1.120330E+02	  0.101563133	1.471000E+00	  0.101563133	3.368400E+01
409	  0.101763532	-3.470000E-01	  0.101763532	1.117170E+02	  0.101763532	1.460000E+00	  0.101763532	3.388500E+01
410	  0.101963930	-3.500000E-01	  0.101963930	1.114080E+02	  0.101963930	1.476000E+00	  0.101963930	3.408200E+01
411	  0.102164336	-3.510000E-01	  0.102164336	1.110970E+02	  0.102164336	1.486000E+00	  0.102164336	3.428000E+01
412	  0.102364734	-3.520000E-01	  0.102364734	1.107540E+02	  0.102364734	1.496000E+00	  0.102364734	3.450100E+01
413	  0.102565132	-3.510000E-01	  0.102565132	1.104440E+02	  0.102565132	1.500000E+00	  0.102565132	3.470100E+01
414	  0.102765530	-3.510000E-01	  0.102765530	1.101380E+02	  0.102765530	1.504000E+00	  0.102765530	3.489900E+01
415	  0.102965929	-3.500000E-01	  0.102965929	1.098330E+02	  0.102965929	1.508000E+00	  0.102965929	3.509700E+01
416	  0.103166327	-3.490000E-01	  0.103166327	1.095130E+02	  0.103166327	1.505000E+00	  0.103166327	3.530600E+01
417	  0.103366733	-3.530000E-01	  0.103366733	1.091760E+02	  0.103366733	1.531000E+00	  0.103366733	3.552600E+01
418	  0.103567131	-3.470000E-01	  0.103567131	1.088850E+02	  0.103567131	1.512000E+00	  0.103567131	3.571800E+01
419	  0.103767529	-3.500000E-01	  0.103767529	1.085590E+02	  0.103767529	1.527000E+00	  0.103767529	3.593300E+01
420	  0.103967935	-3.510000E-01	  0.103967935	1.082440E+02	  0.103967935	1.540000E+00	  0.103967935	3.614100E+01
421	  0.104168333	-3.500000E-01	  0.104168333	1.079400E+02	  0.104168333	1.540000E+00	  0.104168333	3.634400E+01
422	  0.104368731	-3.520000E-01	  0.104368731	1.076060E+02	  0.104368731	1.558000E+00	  0.104368731	3.656600E+01
423	  0.104569137	-3.500000E-01	  0.104569137	1.073120E+02	  0.104569137	1.552000E+00	  0.104569137	3.676400E+01
424	  0.104769535	-3.510000E-01	  0.104769535	1.070020E+02	  0.104769535	1.565000E+00	  0.104769535	3.697200E+01
425	  0.104969934	-3.470000E-01	  0.104969934	1.066730E+02	  0.104969934	1.554000E+00	  0.104969934	3.719600E+01
426	  0.105170339	-3.480000E-01	  0.105170339	1.063630E+02	  0.105170339	1.566000E+00	  0.105170339	3.740500E+01
427	  0.105370738	-3.500000E-01	  0.105370738	1.060530E+02	  0.105370738	1.581000E+00	  0.105370738	3.761600E+01
428	  0.105571143	-3.530000E-01	  0.105571143	1.057220E+02	  0.105571143	1.600000E+00	  0.105571143	3.784200E+01
429	  0.105771542	-3.540000E-01	  0.105771542	1.054290E+02	  0.105771542	1.613000E+00	  0.105771542	3.804400E+01
430	  0.105971940	-3.520000E-01	  0.105971940	1.051380E+02	  0.105971940	1.606000E+00	  0.105971940	3.824500E+01
431	  0.106172346	-3.510000E-01	  0.106172346	1.048040E+02	  0.106172346	1.609000E+00	  0.106172346	3.847600E+01
432	  0.106372744	-3.530000E-01	  0.106372744	1.044890E+02	  0.106372744	1.626000E+00	  0.106372744	3.869600E+01
433	  0.106573142	-3.540000E-01	  0.106573142	1.041710E+02	  0.106573142	1.637000E+00	  0.106573142	3.891800E+01
434	  0.106773548	-3.550000E-01	  0.106773548	1.038570E+02	  0.106773548	1.651000E+00	  0.106773548	3.913800E+01
435	  0.106973946	-3.540000E-01	  0.106973946	1.035640E+02	  0.106973946	1.651000E+00	  0.106973946	3.934500E+01
436	  0.107174344	-3.530000E-01	  0.107174344	1.032340E+02	  0.107174344	1.656000E+00	  0.107174344	3.957800E+01
437	  0.107374750	-3.540000E-01	  0.107374750	1.029290E+02	  0.107374750	1.667000E+00	  0.107374750	3.979400E+01
438	  0.107575148	-3.530000E-01	  0.107575148	1.026270E+02	  0.107575148	1.668000E+00	  0.107575148	4.001000E+01
439	  0.107775547	-3.510000E-01	  0.107775547	1.023020E+02	  0.107775547	1.669000E+00	  0.107775547	4.024400E+01
440	  0.107975952	-3.530000E-01	  0.107975952	1.020000E+02	  0.107975952	1.686000E+00	  0.107975952	4.046100E+01
441	  0.108176351	-3.520000E-01	  0.108176351	1.016770E+02	  0.108176351	1.688000E+00	  0.108176351	4.069400E+01
442	  0.108376749	-3.540000E-01	  0.108376749	1.013790E+02	  0.108376749	1.703000E+00	  0.108376749	4.091000E+01
443	  0.108577155	-3.500000E-01	  0.108577155	1.010780E+02	  0.108577155	1.693000E+00	  0.108577155	4.113000E+01
444	  0.108777553	-3.530000E-01	  0.108777553	1.007610E+02	  0.108777553	1.714000E+00	  0.108777553	4.136300E+01
445	  0.108977959	-3.530000E-01	  0.108977959	1.004630E+02	  0.108977959	1.719000E+00	  0.108977959	4.158200E+01
446	  0.109178357	-3.550000E-01	  0.109178357	1.001470E+02	  0.109178357	1.739000E+00	  0.109178357	4.181500E+01
447	  0.109378755	-3.520000E-01	  0.109378755	9.984900E+01	  0.109378755	1.733000E+00	  0.109378755	4.203700E+01
448	  0.109579161	-3.570000E-01	  0.109579161	9.952800E+01	  0.109579161	1.764000E+00	  0.109579161	4.227600E+01
449	  0.109779559	-3.540000E-01	  0.109779559	9.924700E+01	  0.109779559	1.755000E+00	  0.109779559	4.248600E+01
450	  0.109979957	-3.550000E-01	  0.109979957	9.893100E+01	  0.109979957	1.770000E+00	  0.109979957	4.272400E+01
451	  0.110180363	-3.510000E-01	  0.110180363	9.862700E+01	  0.110180363	1.758000E+00	  0.110180363	4.295500E+01
452	  0.110380761	-3.540000E-01	  0.110380761	9.830900E+01	  0.110380761	1.783000E+00	  0.110380761	4.319600E+01
453	  0.110581160	-3.530000E-01	  0.110581160	9.800600E+01	  0.110581160	1.785000E+00	  0.110581160	4.342800E+01
454	  0.110781565	-3.510000E-01	  0.110781565	9.770400E+01	  0.110781565	1.785000E+00	  0.110781565	4.365900E+01
455	  0.110981964	-3.520000E-01	  0.110981964	9.741100E+01	  0.110981964	1.797000E+00	  0.110981964	4.388400E+01
456	  0.111182362	-3.510000E-01	  0.111182362	9.710900E+01	  0.111182362	1.800000E+00	  0.111182362	4.411800E+01
457	  0.111382768	-3.510000E-01	  0.111382768	9.680800E+01	  0.111382768	1.806000E+00	  0.111382768	4.435200E+01
458	  0.111583166	-3.530000E-01	  0.111583166	9.648300E+01	  0.111583166	1.826000E+00	  0.111583166	4.460600E+01
459	  0.111783572	-3.510000E-01	  0.111783572	9.620700E+01	  0.111783572	1.827000E+00	  0.111783572	4.482300E+01
460	  0.111983970	-3.510000E-01	  0.111983970	9.588700E+01	  0.111983970	1.836000E+00	  0.111983970	4.507500E+01
461	  0.112184368	-3.530000E-01	  0.112184368	9.560600E+01	  0.112184368	1.853000E+00	  0.112184368	4.529800E+01
462	  0.112384774	-3.510000E-01	  0.112384774	9.529200E+01	  0.112384774	1.850000E+00	  0.112384774	4.554800E+01
463	  0.112585172	-3.520000E-01	  0.112585172	9.500100E+01	  0.112585172	1.867000E+00	  0.112585172	4.578000E+01
464	  0.112785570	-3.520000E-01	  0.112785570	9.469800E+01	  0.112785570	1.873000E+00	  0.112785570	4.602400E+01
465	  0.112985976	-3.510000E-01	  0.112985976	9.437900E+01	  0.112985976	1.877000E+00	  0.112985976	4.628100E+01
466	  0.113186374	-3.550000E-01	  0.113186374	9.410400E+01	  0.113186374	1.911000E+00	  0.113186374	4.650300E+01
467	  0.113386773	-3.530000E-01	  0.113386773	9.378300E+01	  0.113386773	1.910000E+00	  0.113386773	4.676600E+01
468	  0.113587178	-3.550000E-01	  0.113587178	9.350000E+01	  0.113587178	1.927000E+00	  0.113587178	4.699700E+01
469	  0.113787577	-3.550000E-01	  0.113787577	9.318500E+01	  0.113787577	1.936000E+00	  0.113787577	4.725600E+01
470	  0.113987975	-3.530000E-01	  0.113987975	9.290300E+01	  0.113987975	1.936000E+00	  0.113987975	4.749100E+01
471	  0.114188381	-3.540000E-01	  0.114188381	9.259800E+01	  0.114188381	1.952000E+00	  0.114188381	4.774400E+01
472	  0.114388779	-3.520000E-01	  0.114388779	9.227500E+01	  0.114388779	1.948000E+00	  0.114388779	4.801400E+01
473	  0.114589177	-3.560000E-01	  0.114589177	9.199600E+01	  0.114589177	1.984000E+00	  0.114589177	4.824800E+01
474	  0.114789583	-3.560000E-01	  0.114789583	9.171000E+01	  0.114789583	1.993000E+00	  0.114789583	4.848900E+01
475	  0.114989981	-3.540000E-01	  0.114989981	9.139200E+01	  0.114989981	1.993000E+00	  0.114989981	4.875900E+01
476	  0.115190387	-3.550000E-01	  0.115190387	9.110900E+01	  0.115190387	2.008000E+00	  0.115190387	4.900000E+01
477	  0.115390785	-3.550000E-01	  0.115390785	9.080700E+01	  0.115390785	2.018000E+00	  0.115390785	4.925900E+01
478	  0.115591183	-3.560000E-01	  0.115591183	9.051300E+01	  0.115591183	2.031000E+00	  0.115591183	4.951200E+01
479	  0.115791589	-3.580000E-01	  0.115791589	9.020600E+01	  0.115791589	2.052000E+00	  0.115791589	4.977800E+01
480	  0.115991987	-3.540000E-01	  0.115991987	8.991400E+01	  0.115991987	2.041000E+00	  0.115991987	5.003200E+01
481	  0.116192386	-3.570000E-01	  0.116192386	8.963500E+01	  0.116192386	2.068000E+00	  0.116192386	5.027600E+01
482	  0.116392791	-3.550000E-01	  0.116392791	8.931800E+01	  0.116392791	2.067000E+00	  0.116392791	5.055500E+01
483	  0.116593190	-3.540000E-01	  0.116593190	8.902000E+01	  0.116593190	2.075000E+00	  0.116593190	5.081800E+01
484	  0.116793588	-3.560000E-01	  0.116793588	8.874500E+01	  0.116793588	2.099000E+00	  0.116793588	5.106300E+01
485	  0.116993994	-3.560000E-01	  0.116993994	8.842500E+01	  0.116993994	2.111000E+00	  0.116993994	5.134800E+01
486	  0.117194392	-3.550000E-01	  0.117194392	8.814600E+01	  0.117194392	2.116000E+00	  0.117194392	5.159900E+01
487	  0.117394790	-3.550000E-01	  0.117394790	8.785900E+01	  0.117394790	2.125000E+00	  0.117394790	5.185800E+01
488	  0.117595196	-3.580000E-01	  0.117595196	8.755900E+01	  0.117595196	2.152000E+00	  0.117595196	5.213000E+01
489	  0.117795594	-3.550000E-01	  0.117795594	8.725600E+01	  0.117795594	2.147000E+00	  0.117795594	5.240700E+01
490	  0.117995992	-3.560000E-01	  0.117995992	8.695900E+01	  0.117995992	2.166000E+00	  0.117995992	5.267900E+01
491	  0.118196398	-3.550000E-01	  0.118196398	8.666800E+01	  0.118196398	2.172000E+00	  0.118196398	5.294700E+01
492	  0.118396796	-3.580000E-01	  0.118396796	8.638000E+01	  0.118396796	2.199000E+00	  0.118396796	5.321400E+01
493	  0.118597202	-3.550000E-01	  0.118597202	8.606400E+01	  0.118597202	2.193000E+00	  0.118597202	5.351000E+01
494	  0.118797600	-3.550000E-01	  0.118797600	8.578800E+01	  0.118797600	2.210000E+00	  0.118797600	5.376800E+01
495	  0.118997999	-3.530000E-01	  0.118997999	8.548800E+01	  0.118997999	2.206000E+00	  0.118997999	5.405200E+01
496	  0.119198404	-3.540000E-01	  0.119198404	8.519900E+01	  0.119198404	2.222000E+00	  0.119198404	5.432500E+01
497	  0.119398803	-3.520000E-01	  0.119398803	8.490400E+01	  0.119398803	2.225000E+00	  0.119398803	5.460700E+01
498	  0.119599201	-3.510000E-01	  0.119599201	8.459200E+01	  0.119599201	2.233000E+00	  0.119599201	5.490600E+01
499	  0.119799607	-3.530000E-01	  0.119799607	8.431500E+01	  0.119799607	2.259000E+00	  0.119799607	5.517200E+01
500	  0.120000005	-3.540000E-01	  0.120000005	8.402100E+01	  0.120000005	2.274000E+00	  0.120000005	5.545700E+01
