! Anritsu VNA Master:             	Model: MS2036C/10/77
! SN:             	1601066
! /bd0/18may8/255.ew.m6.txt
! Existing Calibration Information:
! TYPE:             	Current Settings	Active Cal Settings
! TIME:             	05/08/2018 10:24:44 AM	05/08/2018 10:22:10 AM
! INTERNAL TEMP:    	47.5 C	47.5 C
! # POINTS:         	500	500
! START FREQ:       	20.000 MHz	20.000 MHz
! STOP FREQ:        	120.000 MHz	120.000 MHz
! SOURCE POWER:     	High	High
! IFBW:             	50 Hz	50 Hz
! AVG FACTOR:       	  1 	  1 
! REF PLANE 1:      	0 mm	0 mm
! REF PLANE 2:      	0 mm	0 mm
! CAL TYPE:         	Full S11	Full S11
! CAL METHOD:       	SOLT	SOLT
! CAL LINE TYPE:    	Coax	Coax
! DUT PORT 1:       	K-Conn(F)	K-Conn(F)
! DUT PORT 2:       	K-Conn(F)	K-Conn(F)
! CAL STATUS:       	OK: Accuracy High	--
! PROP-V:       	0.700
! CABLE LOSS:       	0.000 dB/m
! REF IMPEDANCE:       	50.0
! Trace Specific Parameters:	TR1	TR2	TR3	TR4
! TRACE.#.Y (GRAPH TYPE)	LOG MAG	PHASE	REAL IMPEDANCE	IMAGINARY IMPEDANCE
! TRACE.#.X 	FREQ.GHZ	FREQ.GHZ	FREQ.GHZ	FREQ.GHZ
! S-PARAMETER	S11	S11	S11	S11
! SMOOTH/APERTURE %	0	0	0	0
! WINDOW	NSL	NSL	NSL	NSL
! GATING	OFF	OFF	OFF	OFF
! FGTD	OFF	OFF	OFF	OFF
Marker Information per Trace:	TR1	TR2	TR3	TR4
!MK1	--	"MK1 TR2:  20.000 MHz,PH:-124.39°"	--	--
!MK2	--	--	"MK2 TR3:  70.100 200 MHz,Z:(16.741 ohm, -3.169 ohm)"	--
!MK3	--	--	--	--
!MK4	--	--	--	--
!MK5	--	--	--	--
!MK6	--	--	--	--
!MK7	--	--	--	--
!MK8	--	--	--	--
PNT	TR1.FREQ.GHZ	TR1.LOG MAG.dB	TR2.FREQ.GHZ	TR2.PHASE.deg	TR3.FREQ.GHZ	TR3.REAL IMPEDANCE.ohm	TR4.FREQ.GHZ	TR4.IMAGINARY IMPEDANCE.ohm
1	  0.020000000	-8.920000E-01	  0.020000000	-1.243870E+02	  0.020000000	3.278000E+00	  0.020000000	-2.628000E+01
2	  0.020200402	-8.980000E-01	  0.020200402	-1.258110E+02	  0.020200402	3.258000E+00	  0.020200402	-2.549300E+01
3	  0.020400802	-9.050000E-01	  0.020400802	-1.272280E+02	  0.020400802	3.241000E+00	  0.020400802	-2.472000E+01
4	  0.020601204	-9.110000E-01	  0.020601204	-1.286660E+02	  0.020601204	3.224000E+00	  0.020601204	-2.394600E+01
5	  0.020801604	-9.230000E-01	  0.020801604	-1.301140E+02	  0.020801604	3.227000E+00	  0.020801604	-2.317400E+01
6	  0.021002004	-9.360000E-01	  0.021002004	-1.316080E+02	  0.021002004	3.235000E+00	  0.021002004	-2.238700E+01
7	  0.021202406	-9.480000E-01	  0.021202406	-1.330850E+02	  0.021202406	3.239000E+00	  0.021202406	-2.161900E+01
8	  0.021402806	-9.580000E-01	  0.021402806	-1.345970E+02	  0.021402806	3.237000E+00	  0.021402806	-2.084100E+01
9	  0.021603208	-9.690000E-01	  0.021603208	-1.360780E+02	  0.021603208	3.239000E+00	  0.021603208	-2.008800E+01
10	  0.021803608	-9.780000E-01	  0.021803608	-1.375710E+02	  0.021803608	3.235000E+00	  0.021803608	-1.933700E+01
11	  0.022004008	-9.900000E-01	  0.022004008	-1.390690E+02	  0.022004008	3.243000E+00	  0.022004008	-1.859000E+01
12	  0.022204408	-1.002000E+00	  0.022204408	-1.405770E+02	  0.022204408	3.250000E+00	  0.022204408	-1.784600E+01
13	  0.022404809	-1.013000E+00	  0.022404809	-1.420970E+02	  0.022404809	3.254000E+00	  0.022404809	-1.710300E+01
14	  0.022605211	-1.022000E+00	  0.022605211	-1.436340E+02	  0.022605211	3.255000E+00	  0.022605211	-1.635900E+01
15	  0.022805611	-1.035000E+00	  0.022805611	-1.451850E+02	  0.022805611	3.267000E+00	  0.022805611	-1.561500E+01
16	  0.023006011	-1.043000E+00	  0.023006011	-1.467280E+02	  0.023006011	3.266000E+00	  0.023006011	-1.488100E+01
17	  0.023206413	-1.051000E+00	  0.023206413	-1.482650E+02	  0.023206413	3.265000E+00	  0.023206413	-1.415600E+01
18	  0.023406813	-1.059000E+00	  0.023406813	-1.497920E+02	  0.023406813	3.266000E+00	  0.023406813	-1.344000E+01
19	  0.023607215	-1.066000E+00	  0.023607215	-1.513230E+02	  0.023607215	3.266000E+00	  0.023607215	-1.272900E+01
20	  0.023807615	-1.078000E+00	  0.023807615	-1.528870E+02	  0.023807615	3.279000E+00	  0.023807615	-1.200600E+01
21	  0.024008015	-1.092000E+00	  0.024008015	-1.544530E+02	  0.024008015	3.301000E+00	  0.024008015	-1.128800E+01
22	  0.024208417	-1.105000E+00	  0.024208417	-1.560460E+02	  0.024208417	3.319000E+00	  0.024208417	-1.056200E+01
23	  0.024408817	-1.117000E+00	  0.024408817	-1.576430E+02	  0.024408817	3.335000E+00	  0.024408817	-9.838000E+00
24	  0.024609219	-1.132000E+00	  0.024609219	-1.592450E+02	  0.024609219	3.362000E+00	  0.024609219	-9.115000E+00
25	  0.024809619	-1.144000E+00	  0.024809619	-1.608470E+02	  0.024809619	3.382000E+00	  0.024809619	-8.397000E+00
26	  0.025010020	-1.159000E+00	  0.025010020	-1.624570E+02	  0.025010020	3.410000E+00	  0.025010020	-7.679000E+00
27	  0.025210422	-1.173000E+00	  0.025210422	-1.640800E+02	  0.025210422	3.436000E+00	  0.025210422	-6.958000E+00
28	  0.025410822	-1.191000E+00	  0.025410822	-1.657250E+02	  0.025410822	3.476000E+00	  0.025410822	-6.231000E+00
29	  0.025611224	-1.209000E+00	  0.025611224	-1.673720E+02	  0.025611224	3.516000E+00	  0.025611224	-5.505000E+00
30	  0.025811624	-1.223000E+00	  0.025811624	-1.690570E+02	  0.025811624	3.549000E+00	  0.025811624	-4.765000E+00
31	  0.026012026	-1.238000E+00	  0.026012026	-1.707470E+02	  0.026012026	3.582000E+00	  0.026012026	-4.025000E+00
32	  0.026212426	-1.253000E+00	  0.026212426	-1.724350E+02	  0.026212426	3.617000E+00	  0.026212426	-3.288000E+00
33	  0.026412826	-1.268000E+00	  0.026412826	-1.741250E+02	  0.026412826	3.655000E+00	  0.026412826	-2.551000E+00
34	  0.026613226	-1.285000E+00	  0.026613226	-1.758420E+02	  0.026613226	3.699000E+00	  0.026613226	-1.805000E+00
35	  0.026813626	-1.305000E+00	  0.026813626	-1.775530E+02	  0.026813626	3.751000E+00	  0.026813626	-1.061000E+00
36	  0.027014028	-1.326000E+00	  0.027014028	-1.792750E+02	  0.027014028	3.810000E+00	  0.027014028	-3.140000E-01
37	  0.027214428	-1.346000E+00	  0.027214428	1.789770E+02	  0.027214428	3.867000E+00	  0.027214428	4.430000E-01
38	  0.027414829	-1.368000E+00	  0.027414829	1.772290E+02	  0.027414829	3.933000E+00	  0.027414829	1.201000E+00
39	  0.027615231	-1.388000E+00	  0.027615231	1.754670E+02	  0.027615231	3.992000E+00	  0.027615231	1.966000E+00
40	  0.027815631	-1.412000E+00	  0.027815631	1.736960E+02	  0.027815631	4.067000E+00	  0.027815631	2.734000E+00
41	  0.028016033	-1.437000E+00	  0.028016033	1.719040E+02	  0.028016033	4.148000E+00	  0.028016033	3.514000E+00
42	  0.028216433	-1.465000E+00	  0.028216433	1.701090E+02	  0.028216433	4.239000E+00	  0.028216433	4.295000E+00
43	  0.028416833	-1.491000E+00	  0.028416833	1.683030E+02	  0.028416833	4.325000E+00	  0.028416833	5.083000E+00
44	  0.028617235	-1.516000E+00	  0.028617235	1.665030E+02	  0.028617235	4.412000E+00	  0.028617235	5.871000E+00
45	  0.028817635	-1.540000E+00	  0.028817635	1.647140E+02	  0.028817635	4.500000E+00	  0.028817635	6.655000E+00
46	  0.029018037	-1.564000E+00	  0.029018037	1.629280E+02	  0.029018037	4.591000E+00	  0.029018037	7.442000E+00
47	  0.029218437	-1.591000E+00	  0.029218437	1.611370E+02	  0.029218437	4.691000E+00	  0.029218437	8.234000E+00
48	  0.029418837	-1.619000E+00	  0.029418837	1.593420E+02	  0.029418837	4.802000E+00	  0.029418837	9.030000E+00
49	  0.029619239	-1.650000E+00	  0.029619239	1.575310E+02	  0.029619239	4.922000E+00	  0.029619239	9.838000E+00
50	  0.029819639	-1.682000E+00	  0.029819639	1.556950E+02	  0.029819639	5.050000E+00	  0.029819639	1.066100E+01
51	  0.030020041	-1.717000E+00	  0.030020041	1.538390E+02	  0.030020041	5.189000E+00	  0.030020041	1.149800E+01
52	  0.030220442	-1.748000E+00	  0.030220442	1.519590E+02	  0.030220442	5.326000E+00	  0.030220442	1.235100E+01
53	  0.030420844	-1.782000E+00	  0.030420844	1.500740E+02	  0.030420844	5.475000E+00	  0.030420844	1.321300E+01
54	  0.030621244	-1.817000E+00	  0.030621244	1.482010E+02	  0.030621244	5.629000E+00	  0.030621244	1.407500E+01
55	  0.030821644	-1.853000E+00	  0.030821644	1.463200E+02	  0.030821644	5.795000E+00	  0.030821644	1.494700E+01
56	  0.031022044	-1.889000E+00	  0.031022044	1.444300E+02	  0.031022044	5.967000E+00	  0.031022044	1.583100E+01
57	  0.031222444	-1.923000E+00	  0.031222444	1.425490E+02	  0.031222444	6.138000E+00	  0.031222444	1.671800E+01
58	  0.031422846	-1.965000E+00	  0.031422846	1.405980E+02	  0.031422846	6.344000E+00	  0.031422846	1.764700E+01
59	  0.031623244	-2.005000E+00	  0.031623244	1.386460E+02	  0.031623244	6.551000E+00	  0.031623244	1.858500E+01
60	  0.031823646	-2.042000E+00	  0.031823646	1.366680E+02	  0.031823646	6.759000E+00	  0.031823646	1.954800E+01
61	  0.032024048	-2.079000E+00	  0.032024048	1.346990E+02	  0.032024048	6.977000E+00	  0.032024048	2.051700E+01
62	  0.032224450	-2.116000E+00	  0.032224450	1.327250E+02	  0.032224450	7.203000E+00	  0.032224450	2.150000E+01
63	  0.032424849	-2.153000E+00	  0.032424849	1.307540E+02	  0.032424849	7.437000E+00	  0.032424849	2.249500E+01
64	  0.032625251	-2.187000E+00	  0.032625251	1.287940E+02	  0.032625251	7.674000E+00	  0.032625251	2.349800E+01
65	  0.032825653	-2.226000E+00	  0.032825653	1.268270E+02	  0.032825653	7.936000E+00	  0.032825653	2.451700E+01
66	  0.033026051	-2.266000E+00	  0.033026051	1.248640E+02	  0.033026051	8.218000E+00	  0.033026051	2.554700E+01
67	  0.033226453	-2.314000E+00	  0.033226453	1.229000E+02	  0.033226453	8.537000E+00	  0.033226453	2.658800E+01
68	  0.033426855	-2.363000E+00	  0.033426855	1.209400E+02	  0.033426855	8.876000E+00	  0.033426855	2.764300E+01
69	  0.033627257	-2.416000E+00	  0.033627257	1.189400E+02	  0.033627257	9.252000E+00	  0.033627257	2.873300E+01
70	  0.033827655	-2.467000E+00	  0.033827655	1.169000E+02	  0.033827655	9.642000E+00	  0.033827655	2.986400E+01
71	  0.034028057	-2.519000E+00	  0.034028057	1.148450E+02	  0.034028057	1.005600E+01	  0.034028057	3.102300E+01
72	  0.034228459	-2.573000E+00	  0.034228459	1.127520E+02	  0.034228459	1.050500E+01	  0.034228459	3.222200E+01
73	  0.034428857	-2.621000E+00	  0.034428857	1.106420E+02	  0.034428857	1.095400E+01	  0.034428857	3.345900E+01
74	  0.034629259	-2.667000E+00	  0.034629259	1.085240E+02	  0.034629259	1.142600E+01	  0.034629259	3.472600E+01
75	  0.034829661	-2.715000E+00	  0.034829661	1.064260E+02	  0.034829661	1.192500E+01	  0.034829661	3.600400E+01
76	  0.035030060	-2.759000E+00	  0.035030060	1.043060E+02	  0.035030060	1.244300E+01	  0.035030060	3.732600E+01
77	  0.035230462	-2.802000E+00	  0.035230462	1.022050E+02	  0.035230462	1.298400E+01	  0.035230462	3.866500E+01
78	  0.035430863	-2.842000E+00	  0.035430863	1.001380E+02	  0.035430863	1.354300E+01	  0.035430863	4.001300E+01
79	  0.035631265	-2.883000E+00	  0.035631265	9.805400E+01	  0.035631265	1.413600E+01	  0.035631265	4.140300E+01
80	  0.035831664	-2.925000E+00	  0.035831664	9.599300E+01	  0.035831664	1.477400E+01	  0.035831664	4.280500E+01
81	  0.036032066	-2.965000E+00	  0.036032066	9.395300E+01	  0.036032066	1.543200E+01	  0.036032066	4.422800E+01
82	  0.036232468	-3.012000E+00	  0.036232468	9.190400E+01	  0.036232468	1.616900E+01	  0.036232468	4.568000E+01
83	  0.036432866	-3.059000E+00	  0.036432866	8.987600E+01	  0.036432866	1.695000E+01	  0.036432866	4.714600E+01
84	  0.036633268	-3.100000E+00	  0.036633268	8.785200E+01	  0.036633268	1.775300E+01	  0.036633268	4.865400E+01
85	  0.036833670	-3.149000E+00	  0.036833670	8.582200E+01	  0.036833670	1.865000E+01	  0.036833670	5.018600E+01
86	  0.037034072	-3.196000E+00	  0.037034072	8.375700E+01	  0.037034072	1.960800E+01	  0.037034072	5.178700E+01
87	  0.037234470	-3.244000E+00	  0.037234470	8.164500E+01	  0.037234470	2.065600E+01	  0.037234470	5.346500E+01
88	  0.037434869	-3.286000E+00	  0.037434869	7.947500E+01	  0.037434869	2.177200E+01	  0.037434869	5.524800E+01
89	  0.037635271	-3.328000E+00	  0.037635271	7.724100E+01	  0.037635271	2.300300E+01	  0.037635271	5.713600E+01
90	  0.037835669	-3.378000E+00	  0.037835669	7.489000E+01	  0.037835669	2.444200E+01	  0.037835669	5.915900E+01
91	  0.038036071	-3.446000E+00	  0.038036071	7.250400E+01	  0.038036071	2.613500E+01	  0.038036071	6.120700E+01
92	  0.038236473	-3.525000E+00	  0.038236473	7.013500E+01	  0.038236473	2.804200E+01	  0.038236473	6.323000E+01
93	  0.038436871	-3.607000E+00	  0.038436871	6.786600E+01	  0.038436871	3.006800E+01	  0.038436871	6.516400E+01
94	  0.038637273	-3.684000E+00	  0.038637273	6.570700E+01	  0.038637273	3.213800E+01	  0.038637273	6.702400E+01
95	  0.038837675	-3.749000E+00	  0.038837675	6.360200E+01	  0.038837675	3.424200E+01	  0.038837675	6.890000E+01
96	  0.039038073	-3.806000E+00	  0.039038073	6.153700E+01	  0.039038073	3.642900E+01	  0.039038073	7.078200E+01
97	  0.039238475	-3.861000E+00	  0.039238475	5.949600E+01	  0.039238475	3.873900E+01	  0.039238475	7.266400E+01
98	  0.039438877	-3.915000E+00	  0.039438877	5.747300E+01	  0.039438877	4.121300E+01	  0.039438877	7.452600E+01
99	  0.039639279	-3.971000E+00	  0.039639279	5.545500E+01	  0.039639279	4.388200E+01	  0.039639279	7.636400E+01
100	  0.039839678	-4.030000E+00	  0.039839678	5.339400E+01	  0.039839678	4.683500E+01	  0.039839678	7.819900E+01
101	  0.040040080	-4.088000E+00	  0.040040080	5.133400E+01	  0.040040080	5.002200E+01	  0.040040080	7.998900E+01
102	  0.040240481	-4.151000E+00	  0.040240481	4.927100E+01	  0.040240481	5.349400E+01	  0.040240481	8.167200E+01
103	  0.040440880	-4.208000E+00	  0.040440880	4.715000E+01	  0.040440880	5.729000E+01	  0.040440880	8.337800E+01
104	  0.040641282	-4.266000E+00	  0.040641282	4.506300E+01	  0.040641282	6.132900E+01	  0.040641282	8.492400E+01
105	  0.040841684	-4.321000E+00	  0.040841684	4.293800E+01	  0.040841684	6.573000E+01	  0.040841684	8.639800E+01
106	  0.041042086	-4.376000E+00	  0.041042086	4.084000E+01	  0.041042086	7.041400E+01	  0.041042086	8.763400E+01
107	  0.041242484	-4.431000E+00	  0.041242484	3.872500E+01	  0.041242484	7.547300E+01	  0.041242484	8.865000E+01
108	  0.041442886	-4.484000E+00	  0.041442886	3.660400E+01	  0.041442886	8.089200E+01	  0.041442886	8.939300E+01
109	  0.041643288	-4.534000E+00	  0.041643288	3.447600E+01	  0.041643288	8.667100E+01	  0.041643288	8.984600E+01
110	  0.041843686	-4.582000E+00	  0.041843686	3.235100E+01	  0.041843686	9.279100E+01	  0.041843686	8.989600E+01
111	  0.042044088	-4.628000E+00	  0.042044088	3.026500E+01	  0.042044088	9.913300E+01	  0.042044088	8.946500E+01
112	  0.042244490	-4.672000E+00	  0.042244490	2.817100E+01	  0.042244490	1.057960E+02	  0.042244490	8.851300E+01
113	  0.042444889	-4.719000E+00	  0.042444889	2.611200E+01	  0.042444889	1.125870E+02	  0.042444889	8.685500E+01
114	  0.042645290	-4.765000E+00	  0.042645290	2.406700E+01	  0.042645290	1.194970E+02	  0.042645290	8.451100E+01
115	  0.042845692	-4.808000E+00	  0.042845692	2.201200E+01	  0.042845692	1.265390E+02	  0.042845692	8.144900E+01
116	  0.043046094	-4.856000E+00	  0.043046094	1.997000E+01	  0.043046094	1.334670E+02	  0.043046094	7.743700E+01
117	  0.043246493	-4.898000E+00	  0.043246493	1.791300E+01	  0.043246493	1.403300E+02	  0.043246493	7.262200E+01
118	  0.043446895	-4.940000E+00	  0.043446895	1.589400E+01	  0.043446895	1.467580E+02	  0.043446895	6.698800E+01
119	  0.043647297	-4.985000E+00	  0.043647297	1.384900E+01	  0.043647297	1.527480E+02	  0.043647297	6.033500E+01
120	  0.043847695	-5.025000E+00	  0.043847695	1.183400E+01	  0.043847695	1.581030E+02	  0.043847695	5.303000E+01
121	  0.044048097	-5.070000E+00	  0.044048097	9.817000E+00	  0.044048097	1.625630E+02	  0.044048097	4.489100E+01
122	  0.044248499	-5.112000E+00	  0.044248499	7.828000E+00	  0.044248499	1.661010E+02	  0.044248499	3.630800E+01
123	  0.044448901	-5.153000E+00	  0.044448901	5.833000E+00	  0.044448901	1.686390E+02	  0.044448901	2.726000E+01
124	  0.044649299	-5.193000E+00	  0.044649299	3.839000E+00	  0.044649299	1.701120E+02	  0.044649299	1.796200E+01
125	  0.044849701	-5.231000E+00	  0.044849701	1.864000E+00	  0.044849701	1.705410E+02	  0.044849701	8.676000E+00
126	  0.045050103	-5.266000E+00	  0.045050103	-1.320000E-01	  0.045050103	1.699440E+02	  0.045050103	-6.100000E-01
127	  0.045250501	-5.300000E+00	  0.045250501	-2.104000E+00	  0.045250501	1.683240E+02	  0.045250501	-9.527000E+00
128	  0.045450903	-5.331000E+00	  0.045450903	-4.050000E+00	  0.045450903	1.658540E+02	  0.045450903	-1.793700E+01
129	  0.045651305	-5.362000E+00	  0.045651305	-6.001000E+00	  0.045651305	1.625440E+02	  0.045651305	-2.584900E+01
130	  0.045851704	-5.397000E+00	  0.045851704	-7.916000E+00	  0.045851704	1.584970E+02	  0.045851704	-3.296500E+01
131	  0.046052106	-5.430000E+00	  0.046052106	-9.842000E+00	  0.046052106	1.539000E+02	  0.046052106	-3.945800E+01
132	  0.046252504	-5.463000E+00	  0.046252504	-1.177100E+01	  0.046252504	1.488710E+02	  0.046252504	-4.523900E+01
133	  0.046452906	-5.491000E+00	  0.046452906	-1.366200E+01	  0.046452906	1.437190E+02	  0.046452906	-5.027300E+01
134	  0.046653304	-5.522000E+00	  0.046653304	-1.558000E+01	  0.046653304	1.382410E+02	  0.046653304	-5.464400E+01
135	  0.046853706	-5.548000E+00	  0.046853706	-1.748400E+01	  0.046853706	1.327710E+02	  0.046853706	-5.839700E+01
136	  0.047054108	-5.573000E+00	  0.047054108	-1.937900E+01	  0.047054108	1.272950E+02	  0.047054108	-6.151200E+01
137	  0.047254506	-5.596000E+00	  0.047254506	-2.125500E+01	  0.047254506	1.219280E+02	  0.047254506	-6.407600E+01
138	  0.047454908	-5.619000E+00	  0.047454908	-2.312100E+01	  0.047454908	1.166700E+02	  0.047454908	-6.610200E+01
139	  0.047655310	-5.641000E+00	  0.047655310	-2.497100E+01	  0.047655310	1.115890E+02	  0.047655310	-6.767600E+01
140	  0.047855709	-5.661000E+00	  0.047855709	-2.677300E+01	  0.047855709	1.067900E+02	  0.047855709	-6.883200E+01
141	  0.048056111	-5.682000E+00	  0.048056111	-2.858000E+01	  0.048056111	1.021390E+02	  0.048056111	-6.961000E+01
142	  0.048256513	-5.706000E+00	  0.048256513	-3.039000E+01	  0.048256513	9.765700E+01	  0.048256513	-7.004800E+01
143	  0.048456915	-5.726000E+00	  0.048456915	-3.218000E+01	  0.048456915	9.343000E+01	  0.048456915	-7.027000E+01
144	  0.048657313	-5.746000E+00	  0.048657313	-3.396200E+01	  0.048657313	8.941400E+01	  0.048657313	-7.026400E+01
145	  0.048857715	-5.762000E+00	  0.048857715	-3.573600E+01	  0.048857715	8.560500E+01	  0.048857715	-7.010600E+01
146	  0.049058117	-5.782000E+00	  0.049058117	-3.753000E+01	  0.049058117	8.194500E+01	  0.049058117	-6.972300E+01
147	  0.049258515	-5.797000E+00	  0.049258515	-3.928200E+01	  0.049258515	7.855100E+01	  0.049258515	-6.925600E+01
148	  0.049458917	-5.815000E+00	  0.049458917	-4.101300E+01	  0.049458917	7.537200E+01	  0.049458917	-6.863300E+01
149	  0.049659319	-5.830000E+00	  0.049659319	-4.276000E+01	  0.049659319	7.232600E+01	  0.049659319	-6.793700E+01
150	  0.049859721	-5.844000E+00	  0.049859721	-4.448500E+01	  0.049859721	6.947600E+01	  0.049859721	-6.716400E+01
151	  0.050060119	-5.862000E+00	  0.050060119	-4.618400E+01	  0.050060119	6.682700E+01	  0.050060119	-6.629700E+01
152	  0.050260521	-5.873000E+00	  0.050260521	-4.792800E+01	  0.050260521	6.423100E+01	  0.050260521	-6.541500E+01
153	  0.050460923	-5.885000E+00	  0.050460923	-4.963300E+01	  0.050460923	6.183500E+01	  0.050460923	-6.447700E+01
154	  0.050661322	-5.896000E+00	  0.050661322	-5.134400E+01	  0.050661322	5.955100E+01	  0.050661322	-6.351100E+01
155	  0.050861724	-5.902000E+00	  0.050861724	-5.300500E+01	  0.050861724	5.743400E+01	  0.050861724	-6.257400E+01
156	  0.051062126	-5.908000E+00	  0.051062126	-5.468000E+01	  0.051062126	5.540800E+01	  0.051062126	-6.159800E+01
157	  0.051262524	-5.915000E+00	  0.051262524	-5.629700E+01	  0.051262524	5.355500E+01	  0.051262524	-6.062400E+01
158	  0.051462926	-5.921000E+00	  0.051462926	-5.789300E+01	  0.051462926	5.181400E+01	  0.051462926	-5.964700E+01
159	  0.051663328	-5.926000E+00	  0.051663328	-5.946900E+01	  0.051663328	5.017400E+01	  0.051663328	-5.867800E+01
160	  0.051863730	-5.936000E+00	  0.051863730	-6.107100E+01	  0.051863730	4.860900E+01	  0.051863730	-5.764700E+01
161	  0.052064128	-5.943000E+00	  0.052064128	-6.264100E+01	  0.052064128	4.713700E+01	  0.052064128	-5.665100E+01
162	  0.052264530	-5.952000E+00	  0.052264530	-6.421600E+01	  0.052264530	4.574000E+01	  0.052264530	-5.563500E+01
163	  0.052464932	-5.964000E+00	  0.052464932	-6.575500E+01	  0.052464932	4.445100E+01	  0.052464932	-5.462800E+01
164	  0.052665330	-5.976000E+00	  0.052665330	-6.735200E+01	  0.052665330	4.317600E+01	  0.052665330	-5.358700E+01
165	  0.052865732	-5.984000E+00	  0.052865732	-6.890900E+01	  0.052865732	4.198200E+01	  0.052865732	-5.259000E+01
166	  0.053066134	-5.992000E+00	  0.053066134	-7.046000E+01	  0.053066134	4.084800E+01	  0.053066134	-5.160100E+01
167	  0.053266536	-6.003000E+00	  0.053266536	-7.202500E+01	  0.053266536	3.976500E+01	  0.053266536	-5.059900E+01
168	  0.053466935	-6.008000E+00	  0.053466935	-7.356100E+01	  0.053466935	3.873100E+01	  0.053466935	-4.964400E+01
169	  0.053667337	-6.011000E+00	  0.053667337	-7.509200E+01	  0.053667337	3.773700E+01	  0.053667337	-4.870900E+01
170	  0.053867739	-6.011000E+00	  0.053867739	-7.661600E+01	  0.053867739	3.678100E+01	  0.053867739	-4.779300E+01
171	  0.054068137	-6.012000E+00	  0.054068137	-7.813100E+01	  0.054068137	3.587600E+01	  0.054068137	-4.688500E+01
172	  0.054268539	-6.016000E+00	  0.054268539	-7.962600E+01	  0.054268539	3.503200E+01	  0.054268539	-4.598300E+01
173	  0.054468941	-6.020000E+00	  0.054468941	-8.106500E+01	  0.054468941	3.425400E+01	  0.054468941	-4.512200E+01
174	  0.054669339	-6.022000E+00	  0.054669339	-8.249100E+01	  0.054669339	3.350800E+01	  0.054669339	-4.428100E+01
175	  0.054869737	-6.027000E+00	  0.054869737	-8.393900E+01	  0.054869737	3.279200E+01	  0.054869737	-4.342400E+01
176	  0.055070139	-6.030000E+00	  0.055070139	-8.531200E+01	  0.055070139	3.213700E+01	  0.055070139	-4.262200E+01
177	  0.055270538	-6.034000E+00	  0.055270538	-8.671500E+01	  0.055270538	3.149400E+01	  0.055270538	-4.180900E+01
178	  0.055470940	-6.042000E+00	  0.055470940	-8.810300E+01	  0.055470940	3.089700E+01	  0.055470940	-4.100100E+01
179	  0.055671342	-6.045000E+00	  0.055671342	-8.950200E+01	  0.055671342	3.030100E+01	  0.055671342	-4.020800E+01
180	  0.055871744	-6.049000E+00	  0.055871744	-9.089200E+01	  0.055871744	2.973500E+01	  0.055871744	-3.942500E+01
181	  0.056072142	-6.054000E+00	  0.056072142	-9.225900E+01	  0.056072142	2.920400E+01	  0.056072142	-3.866000E+01
182	  0.056272544	-6.059000E+00	  0.056272544	-9.363900E+01	  0.056272544	2.868800E+01	  0.056272544	-3.789300E+01
183	  0.056472946	-6.065000E+00	  0.056472946	-9.499800E+01	  0.056472946	2.820600E+01	  0.056472946	-3.714100E+01
184	  0.056673344	-6.066000E+00	  0.056673344	-9.635100E+01	  0.056673344	2.772200E+01	  0.056673344	-3.641500E+01
185	  0.056873746	-6.062000E+00	  0.056873746	-9.770900E+01	  0.056873746	2.723800E+01	  0.056873746	-3.570300E+01
186	  0.057074148	-6.061000E+00	  0.057074148	-9.906000E+01	  0.057074148	2.678400E+01	  0.057074148	-3.499300E+01
187	  0.057274550	-6.058000E+00	  0.057274550	-1.003880E+02	  0.057274550	2.634600E+01	  0.057274550	-3.430600E+01
188	  0.057474948	-6.048000E+00	  0.057474948	-1.017290E+02	  0.057474948	2.589800E+01	  0.057474948	-3.363000E+01
189	  0.057675350	-6.046000E+00	  0.057675350	-1.030190E+02	  0.057675350	2.550500E+01	  0.057675350	-3.297000E+01
190	  0.057875752	-6.039000E+00	  0.057875752	-1.043010E+02	  0.057875752	2.511300E+01	  0.057875752	-3.232800E+01
191	  0.058076151	-6.036000E+00	  0.058076151	-1.055570E+02	  0.058076151	2.475100E+01	  0.058076151	-3.169900E+01
192	  0.058276553	-6.028000E+00	  0.058276553	-1.068110E+02	  0.058276553	2.438800E+01	  0.058276553	-3.108100E+01
193	  0.058476955	-6.025000E+00	  0.058476955	-1.080720E+02	  0.058476955	2.405000E+01	  0.058476955	-3.045700E+01
194	  0.058677353	-6.017000E+00	  0.058677353	-1.093280E+02	  0.058677353	2.371000E+01	  0.058677353	-2.984700E+01
195	  0.058877755	-6.012000E+00	  0.058877755	-1.105590E+02	  0.058877755	2.339300E+01	  0.058877755	-2.925100E+01
196	  0.059078157	-6.008000E+00	  0.059078157	-1.118010E+02	  0.059078157	2.308900E+01	  0.059078157	-2.865000E+01
197	  0.059278559	-6.003000E+00	  0.059278559	-1.130670E+02	  0.059278559	2.278500E+01	  0.059278559	-2.804400E+01
198	  0.059478957	-6.000000E+00	  0.059478957	-1.143240E+02	  0.059478957	2.250000E+01	  0.059478957	-2.744300E+01
199	  0.059679359	-5.998000E+00	  0.059679359	-1.155830E+02	  0.059679359	2.222700E+01	  0.059679359	-2.684400E+01
200	  0.059879761	-5.993000E+00	  0.059879761	-1.168240E+02	  0.059879761	2.195600E+01	  0.059879761	-2.626400E+01
201	  0.060080159	-5.988000E+00	  0.060080159	-1.180470E+02	  0.060080159	2.170000E+01	  0.060080159	-2.569400E+01
202	  0.060280561	-5.985000E+00	  0.060280561	-1.192900E+02	  0.060280561	2.145100E+01	  0.060280561	-2.511600E+01
203	  0.060480963	-5.980000E+00	  0.060480963	-1.205180E+02	  0.060480963	2.120900E+01	  0.060480963	-2.455200E+01
204	  0.060681365	-5.973000E+00	  0.060681365	-1.217280E+02	  0.060681365	2.097300E+01	  0.060681365	-2.400100E+01
205	  0.060881764	-5.969000E+00	  0.060881764	-1.229480E+02	  0.060881764	2.075000E+01	  0.060881764	-2.344600E+01
206	  0.061082166	-5.964000E+00	  0.061082166	-1.241630E+02	  0.061082166	2.053200E+01	  0.061082166	-2.289800E+01
207	  0.061282568	-5.957000E+00	  0.061282568	-1.253760E+02	  0.061282568	2.031600E+01	  0.061282568	-2.235600E+01
208	  0.061482966	-5.952000E+00	  0.061482966	-1.265500E+02	  0.061482966	2.011800E+01	  0.061482966	-2.183300E+01
209	  0.061683368	-5.949000E+00	  0.061683368	-1.277260E+02	  0.061683368	1.993100E+01	  0.061683368	-2.131000E+01
210	  0.061883770	-5.943000E+00	  0.061883770	-1.288910E+02	  0.061883770	1.974400E+01	  0.061883770	-2.079700E+01
211	  0.062084168	-5.939000E+00	  0.062084168	-1.300330E+02	  0.062084168	1.957100E+01	  0.062084168	-2.029500E+01
212	  0.062284570	-5.938000E+00	  0.062284570	-1.311880E+02	  0.062284570	1.941100E+01	  0.062284570	-1.978800E+01
213	  0.062484972	-5.929000E+00	  0.062484972	-1.322930E+02	  0.062484972	1.923900E+01	  0.062484972	-1.931200E+01
214	  0.062685370	-5.931000E+00	  0.062685370	-1.334230E+02	  0.062685370	1.910000E+01	  0.062685370	-1.881800E+01
215	  0.062885776	-5.930000E+00	  0.062885776	-1.345810E+02	  0.062885776	1.895500E+01	  0.062885776	-1.831700E+01
216	  0.063086174	-5.931000E+00	  0.063086174	-1.357140E+02	  0.063086174	1.882300E+01	  0.063086174	-1.782700E+01
217	  0.063286573	-5.934000E+00	  0.063286573	-1.368640E+02	  0.063286573	1.869800E+01	  0.063286573	-1.733200E+01
218	  0.063486971	-5.934000E+00	  0.063486971	-1.380350E+02	  0.063486971	1.856800E+01	  0.063486971	-1.683300E+01
219	  0.063687377	-5.931000E+00	  0.063687377	-1.391600E+02	  0.063687377	1.844100E+01	  0.063687377	-1.635600E+01
220	  0.063887775	-5.928000E+00	  0.063887775	-1.402820E+02	  0.063887775	1.831600E+01	  0.063887775	-1.588400E+01
221	  0.064088173	-5.925000E+00	  0.064088173	-1.414100E+02	  0.064088173	1.819400E+01	  0.064088173	-1.541200E+01
222	  0.064288579	-5.925000E+00	  0.064288579	-1.425260E+02	  0.064288579	1.808700E+01	  0.064288579	-1.494400E+01
223	  0.064488977	-5.925000E+00	  0.064488977	-1.436260E+02	  0.064488977	1.798600E+01	  0.064488977	-1.448500E+01
224	  0.064689375	-5.923000E+00	  0.064689375	-1.447140E+02	  0.064689375	1.788400E+01	  0.064689375	-1.403400E+01
225	  0.064889781	-5.925000E+00	  0.064889781	-1.458090E+02	  0.064889781	1.779300E+01	  0.064889781	-1.358000E+01
226	  0.065090179	-5.923000E+00	  0.065090179	-1.468580E+02	  0.065090179	1.770200E+01	  0.065090179	-1.314800E+01
227	  0.065290578	-5.926000E+00	  0.065290578	-1.479280E+02	  0.065290578	1.762500E+01	  0.065290578	-1.270600E+01
228	  0.065490983	-5.931000E+00	  0.065490983	-1.489870E+02	  0.065490983	1.755800E+01	  0.065490983	-1.227000E+01
229	  0.065691382	-5.932000E+00	  0.065691382	-1.500640E+02	  0.065691382	1.748100E+01	  0.065691382	-1.183000E+01
230	  0.065891780	-5.935000E+00	  0.065891780	-1.511270E+02	  0.065891780	1.741200E+01	  0.065891780	-1.139700E+01
231	  0.066092186	-5.939000E+00	  0.066092186	-1.521690E+02	  0.066092186	1.735200E+01	  0.066092186	-1.097200E+01
232	  0.066292584	-5.940000E+00	  0.066292584	-1.532020E+02	  0.066292584	1.728800E+01	  0.066292584	-1.055400E+01
233	  0.066492982	-5.947000E+00	  0.066492982	-1.542450E+02	  0.066492982	1.724100E+01	  0.066492982	-1.013100E+01
234	  0.066693388	-5.949000E+00	  0.066693388	-1.552800E+02	  0.066693388	1.718600E+01	  0.066693388	-9.714000E+00
235	  0.066893786	-5.952000E+00	  0.066893786	-1.562900E+02	  0.066893786	1.713700E+01	  0.066893786	-9.308000E+00
236	  0.067094192	-5.958000E+00	  0.067094192	-1.573020E+02	  0.067094192	1.709700E+01	  0.067094192	-8.902000E+00
237	  0.067294590	-5.961000E+00	  0.067294590	-1.583250E+02	  0.067294590	1.705200E+01	  0.067294590	-8.493000E+00
238	  0.067494988	-5.965000E+00	  0.067494988	-1.593480E+02	  0.067494988	1.701100E+01	  0.067494988	-8.085000E+00
239	  0.067695394	-5.969000E+00	  0.067695394	-1.603610E+02	  0.067695394	1.697600E+01	  0.067695394	-7.682000E+00
240	  0.067895792	-5.974000E+00	  0.067895792	-1.613560E+02	  0.067895792	1.694300E+01	  0.067895792	-7.287000E+00
241	  0.068096191	-5.979000E+00	  0.068096191	-1.623320E+02	  0.068096191	1.691600E+01	  0.068096191	-6.899000E+00
242	  0.068296596	-5.984000E+00	  0.068296596	-1.633110E+02	  0.068296596	1.689100E+01	  0.068296596	-6.512000E+00
243	  0.068496995	-5.985000E+00	  0.068496995	-1.642940E+02	  0.068496995	1.685700E+01	  0.068496995	-6.124000E+00
244	  0.068697393	-5.991000E+00	  0.068697393	-1.652560E+02	  0.068697393	1.683800E+01	  0.068697393	-5.745000E+00
245	  0.068897791	-5.996000E+00	  0.068897791	-1.662050E+02	  0.068897791	1.682100E+01	  0.068897791	-5.372000E+00
246	  0.069098189	-5.995000E+00	  0.069098189	-1.671590E+02	  0.069098189	1.679000E+01	  0.069098189	-4.998000E+00
247	  0.069298595	-5.999000E+00	  0.069298595	-1.681070E+02	  0.069298595	1.677300E+01	  0.069298595	-4.627000E+00
248	  0.069498993	-6.005000E+00	  0.069498993	-1.690290E+02	  0.069498993	1.676400E+01	  0.069498993	-4.266000E+00
249	  0.069699399	-6.011000E+00	  0.069699399	-1.699920E+02	  0.069699399	1.675600E+01	  0.069699399	-3.889000E+00
250	  0.069899797	-6.015000E+00	  0.069899797	-1.709200E+02	  0.069899797	1.674600E+01	  0.069899797	-3.527000E+00
251	  0.070100196	-6.020000E+00	  0.070100196	-1.718390E+02	  0.070100196	1.674000E+01	  0.070100196	-3.168000E+00
252	  0.070300601	-6.021000E+00	  0.070300601	-1.727700E+02	  0.070300601	1.672700E+01	  0.070300601	-2.806000E+00
253	  0.070501000	-6.021000E+00	  0.070501000	-1.737160E+02	  0.070501000	1.671300E+01	  0.070501000	-2.438000E+00
254	  0.070701398	-6.017000E+00	  0.070701398	-1.746420E+02	  0.070701398	1.669200E+01	  0.070701398	-2.079000E+00
255	  0.070901804	-6.022000E+00	  0.070901804	-1.755330E+02	  0.070901804	1.669400E+01	  0.070901804	-1.732000E+00
256	  0.071102202	-6.021000E+00	  0.071102202	-1.764670E+02	  0.071102202	1.668300E+01	  0.071102202	-1.370000E+00
257	  0.071302600	-6.025000E+00	  0.071302600	-1.773790E+02	  0.071302600	1.668700E+01	  0.071302600	-1.016000E+00
258	  0.071503006	-6.024000E+00	  0.071503006	-1.782850E+02	  0.071503006	1.667800E+01	  0.071503006	-6.640000E-01
259	  0.071703404	-6.026000E+00	  0.071703404	-1.791880E+02	  0.071703404	1.668200E+01	  0.071703404	-3.140000E-01
260	  0.071903802	-6.029000E+00	  0.071903802	1.799240E+02	  0.071903802	1.668800E+01	  0.071903802	2.900000E-02
261	  0.072104208	-6.034000E+00	  0.072104208	1.790220E+02	  0.072104208	1.670200E+01	  0.072104208	3.790000E-01
262	  0.072304606	-6.032000E+00	  0.072304606	1.780990E+02	  0.072304606	1.670000E+01	  0.072304606	7.360000E-01
263	  0.072505005	-6.032000E+00	  0.072505005	1.772390E+02	  0.072505005	1.670600E+01	  0.072505005	1.070000E+00
264	  0.072705410	-6.038000E+00	  0.072705410	1.763200E+02	  0.072705410	1.672800E+01	  0.072705410	1.426000E+00
265	  0.072905809	-6.038000E+00	  0.072905809	1.754250E+02	  0.072905809	1.673600E+01	  0.072905809	1.773000E+00
266	  0.073106214	-6.041000E+00	  0.073106214	1.745320E+02	  0.073106214	1.675300E+01	  0.073106214	2.119000E+00
267	  0.073306613	-6.043000E+00	  0.073306613	1.736730E+02	  0.073306613	1.677000E+01	  0.073306613	2.453000E+00
268	  0.073507011	-6.048000E+00	  0.073507011	1.727820E+02	  0.073507011	1.679600E+01	  0.073507011	2.798000E+00
269	  0.073707417	-6.051000E+00	  0.073707417	1.718890E+02	  0.073707417	1.682000E+01	  0.073707417	3.145000E+00
270	  0.073907815	-6.053000E+00	  0.073907815	1.709890E+02	  0.073907815	1.684300E+01	  0.073907815	3.494000E+00
271	  0.074108213	-6.054000E+00	  0.074108213	1.701180E+02	  0.074108213	1.686400E+01	  0.074108213	3.834000E+00
272	  0.074308619	-6.057000E+00	  0.074308619	1.692360E+02	  0.074308619	1.689300E+01	  0.074308619	4.176000E+00
273	  0.074509017	-6.060000E+00	  0.074509017	1.683340E+02	  0.074509017	1.692500E+01	  0.074509017	4.527000E+00
274	  0.074709415	-6.068000E+00	  0.074709415	1.674580E+02	  0.074709415	1.696800E+01	  0.074709415	4.868000E+00
275	  0.074909821	-6.071000E+00	  0.074909821	1.665900E+02	  0.074909821	1.700200E+01	  0.074909821	5.206000E+00
276	  0.075110219	-6.082000E+00	  0.075110219	1.657300E+02	  0.075110219	1.705700E+01	  0.075110219	5.540000E+00
277	  0.075310618	-6.087000E+00	  0.075310618	1.648640E+02	  0.075310618	1.710000E+01	  0.075310618	5.877000E+00
278	  0.075511023	-6.091000E+00	  0.075511023	1.639950E+02	  0.075511023	1.714300E+01	  0.075511023	6.217000E+00
279	  0.075711422	-6.101000E+00	  0.075711422	1.631640E+02	  0.075711422	1.719900E+01	  0.075711422	6.540000E+00
280	  0.075911827	-6.104000E+00	  0.075911827	1.622990E+02	  0.075911827	1.724300E+01	  0.075911827	6.878000E+00
281	  0.076112226	-6.114000E+00	  0.076112226	1.614080E+02	  0.076112226	1.730500E+01	  0.076112226	7.226000E+00
282	  0.076312624	-6.125000E+00	  0.076312624	1.605570E+02	  0.076312624	1.737400E+01	  0.076312624	7.557000E+00
283	  0.076513030	-6.131000E+00	  0.076513030	1.596930E+02	  0.076513030	1.742800E+01	  0.076513030	7.896000E+00
284	  0.076713428	-6.140000E+00	  0.076713428	1.588100E+02	  0.076713428	1.749600E+01	  0.076713428	8.241000E+00
285	  0.076913826	-6.150000E+00	  0.076913826	1.579380E+02	  0.076913826	1.756500E+01	  0.076913826	8.582000E+00
286	  0.077114232	-6.158000E+00	  0.077114232	1.571060E+02	  0.077114232	1.763200E+01	  0.077114232	8.908000E+00
287	  0.077314630	-6.163000E+00	  0.077314630	1.562770E+02	  0.077314630	1.769200E+01	  0.077314630	9.235000E+00
288	  0.077515028	-6.171000E+00	  0.077515028	1.554720E+02	  0.077515028	1.776000E+01	  0.077515028	9.552000E+00
289	  0.077715434	-6.179000E+00	  0.077715434	1.546110E+02	  0.077715434	1.783300E+01	  0.077715434	9.891000E+00
290	  0.077915832	-6.188000E+00	  0.077915832	1.537710E+02	  0.077915832	1.790800E+01	  0.077915832	1.022100E+01
291	  0.078116231	-6.199000E+00	  0.078116231	1.529580E+02	  0.078116231	1.799000E+01	  0.078116231	1.054100E+01
292	  0.078316636	-6.210000E+00	  0.078316636	1.521320E+02	  0.078316636	1.807500E+01	  0.078316636	1.086600E+01
293	  0.078517035	-6.224000E+00	  0.078517035	1.512920E+02	  0.078517035	1.816900E+01	  0.078517035	1.119600E+01
294	  0.078717433	-6.237000E+00	  0.078717433	1.504880E+02	  0.078717433	1.826300E+01	  0.078717433	1.151200E+01
295	  0.078917839	-6.247000E+00	  0.078917839	1.496690E+02	  0.078917839	1.835100E+01	  0.078917839	1.183600E+01
296	  0.079118237	-6.261000E+00	  0.079118237	1.488540E+02	  0.079118237	1.845100E+01	  0.079118237	1.215700E+01
297	  0.079318643	-6.276000E+00	  0.079318643	1.480680E+02	  0.079318643	1.855400E+01	  0.079318643	1.246600E+01
298	  0.079519041	-6.289000E+00	  0.079519041	1.472460E+02	  0.079519041	1.865600E+01	  0.079519041	1.279000E+01
299	  0.079719439	-6.301000E+00	  0.079719439	1.464350E+02	  0.079719439	1.875600E+01	  0.079719439	1.311200E+01
300	  0.079919845	-6.314000E+00	  0.079919845	1.456400E+02	  0.079919845	1.886100E+01	  0.079919845	1.342700E+01
301	  0.080120243	-6.330000E+00	  0.080120243	1.448030E+02	  0.080120243	1.897800E+01	  0.080120243	1.375700E+01
302	  0.080320641	-6.338000E+00	  0.080320641	1.439940E+02	  0.080320641	1.907400E+01	  0.080320641	1.408200E+01
303	  0.080521047	-6.357000E+00	  0.080521047	1.432200E+02	  0.080521047	1.919900E+01	  0.080521047	1.438500E+01
304	  0.080721445	-6.370000E+00	  0.080721445	1.424160E+02	  0.080721445	1.931300E+01	  0.080721445	1.470500E+01
305	  0.080921844	-6.380000E+00	  0.080921844	1.416430E+02	  0.080921844	1.941800E+01	  0.080921844	1.501500E+01
306	  0.081122249	-6.396000E+00	  0.081122249	1.408680E+02	  0.081122249	1.954000E+01	  0.081122249	1.532200E+01
307	  0.081322648	-6.411000E+00	  0.081322648	1.401030E+02	  0.081322648	1.966100E+01	  0.081322648	1.562600E+01
308	  0.081523046	-6.429000E+00	  0.081523046	1.393200E+02	  0.081523046	1.979500E+01	  0.081523046	1.593600E+01
309	  0.081723452	-6.441000E+00	  0.081723452	1.385410E+02	  0.081723452	1.991400E+01	  0.081723452	1.624900E+01
310	  0.081923850	-6.452000E+00	  0.081923850	1.377680E+02	  0.081923850	2.003500E+01	  0.081923850	1.656000E+01
311	  0.082124248	-6.470000E+00	  0.082124248	1.370140E+02	  0.082124248	2.017300E+01	  0.082124248	1.685900E+01
312	  0.082324654	-6.488000E+00	  0.082324654	1.362700E+02	  0.082324654	2.031000E+01	  0.082324654	1.715400E+01
313	  0.082525052	-6.505000E+00	  0.082525052	1.355360E+02	  0.082525052	2.044600E+01	  0.082525052	1.744500E+01
314	  0.082725458	-6.523000E+00	  0.082725458	1.348020E+02	  0.082725458	2.058900E+01	  0.082725458	1.773600E+01
315	  0.082925856	-6.546000E+00	  0.082925856	1.340900E+02	  0.082925856	2.074300E+01	  0.082925856	1.801400E+01
316	  0.083126254	-6.565000E+00	  0.083126254	1.333120E+02	  0.083126254	2.089900E+01	  0.083126254	1.832300E+01
317	  0.083326660	-6.582000E+00	  0.083326660	1.325670E+02	  0.083326660	2.104800E+01	  0.083326660	1.862000E+01
318	  0.083527058	-6.601000E+00	  0.083527058	1.318120E+02	  0.083527058	2.120500E+01	  0.083527058	1.891900E+01
319	  0.083727457	-6.620000E+00	  0.083727457	1.310530E+02	  0.083727457	2.136400E+01	  0.083727457	1.922100E+01
320	  0.083927862	-6.638000E+00	  0.083927862	1.303260E+02	  0.083927862	2.151900E+01	  0.083927862	1.951100E+01
321	  0.084128261	-6.658000E+00	  0.084128261	1.295990E+02	  0.084128261	2.168400E+01	  0.084128261	1.979800E+01
322	  0.084328659	-6.676000E+00	  0.084328659	1.288920E+02	  0.084328659	2.184100E+01	  0.084328659	2.007900E+01
323	  0.084529065	-6.692000E+00	  0.084529065	1.282020E+02	  0.084529065	2.199200E+01	  0.084529065	2.035500E+01
324	  0.084729463	-6.714000E+00	  0.084729463	1.274840E+02	  0.084729463	2.216800E+01	  0.084729463	2.063700E+01
325	  0.084929861	-6.732000E+00	  0.084929861	1.267480E+02	  0.084929861	2.233600E+01	  0.084929861	2.093100E+01
326	  0.085130267	-6.754000E+00	  0.085130267	1.260510E+02	  0.085130267	2.251300E+01	  0.085130267	2.120400E+01
327	  0.085330658	-6.772000E+00	  0.085330658	1.253340E+02	  0.085330658	2.268500E+01	  0.085330658	2.149000E+01
328	  0.085531056	-6.796000E+00	  0.085531056	1.246670E+02	  0.085531056	2.286900E+01	  0.085531056	2.174700E+01
329	  0.085731462	-6.820000E+00	  0.085731462	1.239460E+02	  0.085731462	2.306200E+01	  0.085731462	2.202800E+01
330	  0.085931860	-6.841000E+00	  0.085931860	1.232550E+02	  0.085931860	2.324400E+01	  0.085931860	2.230000E+01
331	  0.086132258	-6.864000E+00	  0.086132258	1.225940E+02	  0.086132258	2.343000E+01	  0.086132258	2.255600E+01
332	  0.086332664	-6.892000E+00	  0.086332664	1.219090E+02	  0.086332664	2.363700E+01	  0.086332664	2.281500E+01
333	  0.086533062	-6.914000E+00	  0.086533062	1.211970E+02	  0.086533062	2.383600E+01	  0.086533062	2.309400E+01
334	  0.086733460	-6.939000E+00	  0.086733460	1.204870E+02	  0.086733460	2.404300E+01	  0.086733460	2.336800E+01
335	  0.086933866	-6.964000E+00	  0.086933866	1.197890E+02	  0.086933866	2.425300E+01	  0.086933866	2.363600E+01
336	  0.087134264	-6.983000E+00	  0.087134264	1.191190E+02	  0.087134264	2.444200E+01	  0.087134264	2.390000E+01
337	  0.087334670	-7.005000E+00	  0.087334670	1.184280E+02	  0.087334670	2.464800E+01	  0.087334670	2.416800E+01
338	  0.087535068	-7.032000E+00	  0.087535068	1.177310E+02	  0.087535068	2.487000E+01	  0.087535068	2.443200E+01
339	  0.087735467	-7.051000E+00	  0.087735467	1.170510E+02	  0.087735467	2.507200E+01	  0.087735467	2.469900E+01
340	  0.087935872	-7.073000E+00	  0.087935872	1.163690E+02	  0.087935872	2.528300E+01	  0.087935872	2.496300E+01
341	  0.088136271	-7.098000E+00	  0.088136271	1.157200E+02	  0.088136271	2.549900E+01	  0.088136271	2.520800E+01
342	  0.088336669	-7.117000E+00	  0.088336669	1.150480E+02	  0.088336669	2.570500E+01	  0.088336669	2.547200E+01
343	  0.088537075	-7.144000E+00	  0.088537075	1.144090E+02	  0.088537075	2.593000E+01	  0.088537075	2.570800E+01
344	  0.088737473	-7.158000E+00	  0.088737473	1.137580E+02	  0.088737473	2.612300E+01	  0.088737473	2.596900E+01
345	  0.088937871	-7.181000E+00	  0.088937871	1.131170E+02	  0.088937871	2.634300E+01	  0.088937871	2.621100E+01
346	  0.089138277	-7.207000E+00	  0.089138277	1.124770E+02	  0.089138277	2.657300E+01	  0.089138277	2.644800E+01
347	  0.089338675	-7.232000E+00	  0.089338675	1.118560E+02	  0.089338675	2.679700E+01	  0.089338675	2.667800E+01
348	  0.089539073	-7.255000E+00	  0.089539073	1.112460E+02	  0.089539073	2.701700E+01	  0.089539073	2.690600E+01
349	  0.089739479	-7.281000E+00	  0.089739479	1.106260E+02	  0.089739479	2.725200E+01	  0.089739479	2.713100E+01
350	  0.089939877	-7.311000E+00	  0.089939877	1.099780E+02	  0.089939877	2.750400E+01	  0.089939877	2.736200E+01
351	  0.090140276	-7.331000E+00	  0.090140276	1.093490E+02	  0.090140276	2.773000E+01	  0.090140276	2.760000E+01
352	  0.090340681	-7.358000E+00	  0.090340681	1.087460E+02	  0.090340681	2.796900E+01	  0.090340681	2.781500E+01
353	  0.090541080	-7.387000E+00	  0.090541080	1.081080E+02	  0.090541080	2.822800E+01	  0.090541080	2.803900E+01
354	  0.090741485	-7.411000E+00	  0.090741485	1.074700E+02	  0.090741485	2.847200E+01	  0.090741485	2.827300E+01
355	  0.090941884	-7.436000E+00	  0.090941884	1.068650E+02	  0.090941884	2.871700E+01	  0.090941884	2.848800E+01
356	  0.091142282	-7.460000E+00	  0.091142282	1.062600E+02	  0.091142282	2.895800E+01	  0.091142282	2.870600E+01
357	  0.091342688	-7.485000E+00	  0.091342688	1.056800E+02	  0.091342688	2.920100E+01	  0.091342688	2.890800E+01
358	  0.091543086	-7.516000E+00	  0.091543086	1.050740E+02	  0.091543086	2.946800E+01	  0.091543086	2.911100E+01
359	  0.091743484	-7.535000E+00	  0.091743484	1.044680E+02	  0.091743484	2.970700E+01	  0.091743484	2.933400E+01
360	  0.091943890	-7.559000E+00	  0.091943890	1.038830E+02	  0.091943890	2.995400E+01	  0.091943890	2.953900E+01
361	  0.092144288	-7.591000E+00	  0.092144288	1.033080E+02	  0.092144288	3.022300E+01	  0.092144288	2.972200E+01
362	  0.092344686	-7.615000E+00	  0.092344686	1.027380E+02	  0.092344686	3.047400E+01	  0.092344686	2.991600E+01
363	  0.092545092	-7.644000E+00	  0.092545092	1.022000E+02	  0.092545092	3.072800E+01	  0.092545092	3.008600E+01
364	  0.092745490	-7.678000E+00	  0.092745490	1.016090E+02	  0.092745490	3.101600E+01	  0.092745490	3.026700E+01
365	  0.092945889	-7.704000E+00	  0.092945889	1.010810E+02	  0.092945889	3.126300E+01	  0.092945889	3.043700E+01
366	  0.093146294	-7.735000E+00	  0.093146294	1.005140E+02	  0.093146294	3.154100E+01	  0.093146294	3.061000E+01
367	  0.093346693	-7.770000E+00	  0.093346693	9.995300E+01	  0.093346693	3.182900E+01	  0.093346693	3.077000E+01
368	  0.093547091	-7.797000E+00	  0.093547091	9.941700E+01	  0.093547091	3.208900E+01	  0.093547091	3.093700E+01
369	  0.093747497	-7.830000E+00	  0.093747497	9.887100E+01	  0.093747497	3.237100E+01	  0.093747497	3.109300E+01
370	  0.093947895	-7.857000E+00	  0.093947895	9.830400E+01	  0.093947895	3.264800E+01	  0.093947895	3.126700E+01
371	  0.094148301	-7.889000E+00	  0.094148301	9.773500E+01	  0.094148301	3.294000E+01	  0.094148301	3.143100E+01
372	  0.094348699	-7.924000E+00	  0.094348699	9.722900E+01	  0.094348699	3.322100E+01	  0.094348699	3.155900E+01
373	  0.094549097	-7.954000E+00	  0.094549097	9.672900E+01	  0.094549097	3.348700E+01	  0.094549097	3.169500E+01
374	  0.094749503	-7.983000E+00	  0.094749503	9.617300E+01	  0.094749503	3.377300E+01	  0.094749503	3.185500E+01
375	  0.094949901	-8.012000E+00	  0.094949901	9.567100E+01	  0.094949901	3.404400E+01	  0.094949901	3.198900E+01
376	  0.095150299	-8.037000E+00	  0.095150299	9.518100E+01	  0.095150299	3.429800E+01	  0.095150299	3.212800E+01
377	  0.095350705	-8.064000E+00	  0.095350705	9.468100E+01	  0.095350705	3.456500E+01	  0.095350705	3.226400E+01
378	  0.095551103	-8.092000E+00	  0.095551103	9.419100E+01	  0.095551103	3.483200E+01	  0.095551103	3.239200E+01
379	  0.095751502	-8.119000E+00	  0.095751502	9.369200E+01	  0.095751502	3.510100E+01	  0.095751502	3.252600E+01
380	  0.095951907	-8.146000E+00	  0.095951907	9.324300E+01	  0.095951907	3.535400E+01	  0.095951907	3.263600E+01
381	  0.096152306	-8.175000E+00	  0.096152306	9.280100E+01	  0.096152306	3.561100E+01	  0.096152306	3.273500E+01
382	  0.096352704	-8.197000E+00	  0.096352704	9.233800E+01	  0.096352704	3.585900E+01	  0.096352704	3.286100E+01
383	  0.096553110	-8.226000E+00	  0.096553110	9.188000E+01	  0.096553110	3.612300E+01	  0.096553110	3.296700E+01
384	  0.096753508	-8.252000E+00	  0.096753508	9.142000E+01	  0.096753508	3.638400E+01	  0.096753508	3.307700E+01
385	  0.096953906	-8.279000E+00	  0.096953906	9.099500E+01	  0.096953906	3.663300E+01	  0.096953906	3.317000E+01
386	  0.097154312	-8.302000E+00	  0.097154312	9.053600E+01	  0.097154312	3.688900E+01	  0.097154312	3.328600E+01
387	  0.097354710	-8.328000E+00	  0.097354710	9.008800E+01	  0.097354710	3.714900E+01	  0.097354710	3.338700E+01
388	  0.097555116	-8.345000E+00	  0.097555116	8.963600E+01	  0.097555116	3.738900E+01	  0.097555116	3.351400E+01
389	  0.097755514	-8.369000E+00	  0.097755514	8.921400E+01	  0.097755514	3.763700E+01	  0.097755514	3.360800E+01
390	  0.097955912	-8.394000E+00	  0.097955912	8.877900E+01	  0.097955912	3.789300E+01	  0.097955912	3.370200E+01
391	  0.098156318	-8.412000E+00	  0.098156318	8.835400E+01	  0.098156318	3.813000E+01	  0.098156318	3.381000E+01
392	  0.098356716	-8.434000E+00	  0.098356716	8.790100E+01	  0.098356716	3.838900E+01	  0.098356716	3.391800E+01
393	  0.098557115	-8.449000E+00	  0.098557115	8.751200E+01	  0.098557115	3.860300E+01	  0.098557115	3.402200E+01
394	  0.098757520	-8.468000E+00	  0.098757520	8.708200E+01	  0.098757520	3.885000E+01	  0.098757520	3.412600E+01
395	  0.098957919	-8.481000E+00	  0.098957919	8.664600E+01	  0.098957919	3.908500E+01	  0.098957919	3.424900E+01
396	  0.099158317	-8.501000E+00	  0.099158317	8.624600E+01	  0.099158317	3.932000E+01	  0.099158317	3.433800E+01
397	  0.099358723	-8.519000E+00	  0.099358723	8.582200E+01	  0.099358723	3.956600E+01	  0.099358723	3.443900E+01
398	  0.099559121	-8.532000E+00	  0.099559121	8.542000E+01	  0.099559121	3.978900E+01	  0.099559121	3.454700E+01
399	  0.099759519	-8.550000E+00	  0.099759519	8.506100E+01	  0.099759519	4.000500E+01	  0.099759519	3.462100E+01
400	  0.099959925	-8.561000E+00	  0.099959925	8.468400E+01	  0.099959925	4.021600E+01	  0.099959925	3.472300E+01
401	  0.100160323	-8.579000E+00	  0.100160323	8.427400E+01	  0.100160323	4.046000E+01	  0.100160323	3.481300E+01
402	  0.100360721	-8.586000E+00	  0.100360721	8.386000E+01	  0.100360721	4.068200E+01	  0.100360721	3.493900E+01
403	  0.100561127	-8.599000E+00	  0.100561127	8.342400E+01	  0.100561127	4.092900E+01	  0.100561127	3.505400E+01
404	  0.100761525	-8.603000E+00	  0.100761525	8.303900E+01	  0.100761525	4.113300E+01	  0.100761525	3.517800E+01
405	  0.100961931	-8.628000E+00	  0.100961931	8.265300E+01	  0.100961931	4.138700E+01	  0.100961931	3.523200E+01
406	  0.101162329	-8.638000E+00	  0.101162329	8.218300E+01	  0.101162329	4.165000E+01	  0.101162329	3.536500E+01
407	  0.101362728	-8.647000E+00	  0.101362728	8.184200E+01	  0.101362728	4.184800E+01	  0.101362728	3.545200E+01
408	  0.101563133	-8.654000E+00	  0.101563133	8.142200E+01	  0.101563133	4.208100E+01	  0.101563133	3.557700E+01
409	  0.101763532	-8.655000E+00	  0.101763532	8.102300E+01	  0.101763532	4.229400E+01	  0.101763532	3.571000E+01
410	  0.101963930	-8.657000E+00	  0.101963930	8.062100E+01	  0.101963930	4.251100E+01	  0.101963930	3.584400E+01
411	  0.102164336	-8.674000E+00	  0.102164336	8.017400E+01	  0.102164336	4.278800E+01	  0.102164336	3.593700E+01
412	  0.102364734	-8.673000E+00	  0.102364734	7.974800E+01	  0.102364734	4.301600E+01	  0.102364734	3.608600E+01
413	  0.102565132	-8.679000E+00	  0.102565132	7.932400E+01	  0.102565132	4.326100E+01	  0.102565132	3.620800E+01
414	  0.102765530	-8.687000E+00	  0.102765530	7.888500E+01	  0.102765530	4.351900E+01	  0.102765530	3.632700E+01
415	  0.102965929	-8.686000E+00	  0.102965929	7.849600E+01	  0.102965929	4.373300E+01	  0.102965929	3.646000E+01
416	  0.103166327	-8.684000E+00	  0.103166327	7.812400E+01	  0.103166327	4.393700E+01	  0.103166327	3.659200E+01
417	  0.103366733	-8.692000E+00	  0.103366733	7.768400E+01	  0.103366733	4.420200E+01	  0.103366733	3.670800E+01
418	  0.103567131	-8.691000E+00	  0.103567131	7.727200E+01	  0.103567131	4.443400E+01	  0.103567131	3.684900E+01
419	  0.103767529	-8.691000E+00	  0.103767529	7.680100E+01	  0.103767529	4.470500E+01	  0.103767529	3.700300E+01
420	  0.103967935	-8.696000E+00	  0.103967935	7.638500E+01	  0.103967935	4.495600E+01	  0.103967935	3.712000E+01
421	  0.104168333	-8.695000E+00	  0.104168333	7.591100E+01	  0.104168333	4.523200E+01	  0.104168333	3.727600E+01
422	  0.104368731	-8.699000E+00	  0.104368731	7.543200E+01	  0.104368731	4.552400E+01	  0.104368731	3.741400E+01
423	  0.104569137	-8.700000E+00	  0.104569137	7.504400E+01	  0.104569137	4.575800E+01	  0.104569137	3.753300E+01
424	  0.104769535	-8.707000E+00	  0.104769535	7.461600E+01	  0.104769535	4.603000E+01	  0.104769535	3.764000E+01
425	  0.104969934	-8.702000E+00	  0.104969934	7.416000E+01	  0.104969934	4.629500E+01	  0.104969934	3.780500E+01
426	  0.105170339	-8.706000E+00	  0.105170339	7.369600E+01	  0.105170339	4.659000E+01	  0.105170339	3.793100E+01
427	  0.105370738	-8.701000E+00	  0.105370738	7.320200E+01	  0.105370738	4.688600E+01	  0.105370738	3.810400E+01
428	  0.105571143	-8.696000E+00	  0.105571143	7.274700E+01	  0.105571143	4.716100E+01	  0.105571143	3.826300E+01
429	  0.105771542	-8.696000E+00	  0.105771542	7.224900E+01	  0.105771542	4.747600E+01	  0.105771542	3.841300E+01
430	  0.105971940	-8.695000E+00	  0.105971940	7.181200E+01	  0.105971940	4.775500E+01	  0.105971940	3.854700E+01
431	  0.106172346	-8.692000E+00	  0.106172346	7.134600E+01	  0.106172346	4.805000E+01	  0.106172346	3.869800E+01
432	  0.106372744	-8.700000E+00	  0.106372744	7.085400E+01	  0.106372744	4.838600E+01	  0.106372744	3.880700E+01
433	  0.106573142	-8.696000E+00	  0.106573142	7.042300E+01	  0.106573142	4.866200E+01	  0.106573142	3.894900E+01
434	  0.106773548	-8.694000E+00	  0.106773548	6.991700E+01	  0.106773548	4.899500E+01	  0.106773548	3.910300E+01
435	  0.106973946	-8.694000E+00	  0.106973946	6.949000E+01	  0.106973946	4.928200E+01	  0.106973946	3.922300E+01
436	  0.107174344	-8.690000E+00	  0.107174344	6.897700E+01	  0.107174344	4.962200E+01	  0.107174344	3.938500E+01
437	  0.107374750	-8.688000E+00	  0.107374750	6.847700E+01	  0.107374750	4.996100E+01	  0.107374750	3.953200E+01
438	  0.107575148	-8.684000E+00	  0.107575148	6.796400E+01	  0.107575148	5.031000E+01	  0.107575148	3.969000E+01
439	  0.107775547	-8.683000E+00	  0.107775547	6.747900E+01	  0.107775547	5.064800E+01	  0.107775547	3.982400E+01
440	  0.107975952	-8.674000E+00	  0.107975952	6.696900E+01	  0.107975952	5.099300E+01	  0.107975952	4.000100E+01
441	  0.108176351	-8.674000E+00	  0.108176351	6.648300E+01	  0.108176351	5.134100E+01	  0.108176351	4.012800E+01
442	  0.108376749	-8.672000E+00	  0.108376749	6.597300E+01	  0.108376749	5.170700E+01	  0.108376749	4.026600E+01
443	  0.108577155	-8.667000E+00	  0.108577155	6.543400E+01	  0.108577155	5.209200E+01	  0.108577155	4.042700E+01
444	  0.108777553	-8.669000E+00	  0.108777553	6.498200E+01	  0.108777553	5.242900E+01	  0.108777553	4.052500E+01
445	  0.108977959	-8.664000E+00	  0.108977959	6.439600E+01	  0.108977959	5.285900E+01	  0.108977959	4.069100E+01
446	  0.109178357	-8.659000E+00	  0.109178357	6.383300E+01	  0.109178357	5.327600E+01	  0.109178357	4.084900E+01
447	  0.109378755	-8.651000E+00	  0.109378755	6.330700E+01	  0.109378755	5.366500E+01	  0.109378755	4.101300E+01
448	  0.109579161	-8.647000E+00	  0.109579161	6.275600E+01	  0.109579161	5.408600E+01	  0.109579161	4.115300E+01
449	  0.109779559	-8.642000E+00	  0.109779559	6.217700E+01	  0.109779559	5.453100E+01	  0.109779559	4.130600E+01
450	  0.109979957	-8.636000E+00	  0.109979957	6.160100E+01	  0.109979957	5.497800E+01	  0.109979957	4.145900E+01
451	  0.110180363	-8.627000E+00	  0.110180363	6.101400E+01	  0.110180363	5.543600E+01	  0.110180363	4.162800E+01
452	  0.110380761	-8.625000E+00	  0.110380761	6.047000E+01	  0.110380761	5.587300E+01	  0.110380761	4.174900E+01
453	  0.110581160	-8.624000E+00	  0.110581160	5.987900E+01	  0.110581160	5.635700E+01	  0.110581160	4.186600E+01
454	  0.110781565	-8.616000E+00	  0.110781565	5.930300E+01	  0.110781565	5.682400E+01	  0.110781565	4.201600E+01
455	  0.110981964	-8.614000E+00	  0.110981964	5.866300E+01	  0.110981964	5.735800E+01	  0.110981964	4.214300E+01
456	  0.111182362	-8.608000E+00	  0.111182362	5.807200E+01	  0.111182362	5.785300E+01	  0.111182362	4.227300E+01
457	  0.111382768	-8.599000E+00	  0.111382768	5.740700E+01	  0.111382768	5.841500E+01	  0.111382768	4.243200E+01
458	  0.111583166	-8.602000E+00	  0.111583166	5.683400E+01	  0.111583166	5.891600E+01	  0.111583166	4.250200E+01
459	  0.111783572	-8.601000E+00	  0.111783572	5.617400E+01	  0.111783572	5.949600E+01	  0.111783572	4.259900E+01
460	  0.111983970	-8.594000E+00	  0.111983970	5.556400E+01	  0.111983970	6.003300E+01	  0.111983970	4.271800E+01
461	  0.112184368	-8.597000E+00	  0.112184368	5.483800E+01	  0.112184368	6.068900E+01	  0.112184368	4.279000E+01
462	  0.112384774	-8.595000E+00	  0.112384774	5.421200E+01	  0.112384774	6.125800E+01	  0.112384774	4.286500E+01
463	  0.112585172	-8.593000E+00	  0.112585172	5.351900E+01	  0.112585172	6.189600E+01	  0.112585172	4.294600E+01
464	  0.112785570	-8.596000E+00	  0.112785570	5.286200E+01	  0.112785570	6.251000E+01	  0.112785570	4.298200E+01
465	  0.112985976	-8.595000E+00	  0.112985976	5.215800E+01	  0.112985976	6.317400E+01	  0.112985976	4.303500E+01
466	  0.113186374	-8.591000E+00	  0.113186374	5.144400E+01	  0.113186374	6.385500E+01	  0.113186374	4.310200E+01
467	  0.113386773	-8.598000E+00	  0.113386773	5.071600E+01	  0.113386773	6.456100E+01	  0.113386773	4.308600E+01
468	  0.113587178	-8.603000E+00	  0.113587178	5.006500E+01	  0.113587178	6.519600E+01	  0.113587178	4.307400E+01
469	  0.113787577	-8.602000E+00	  0.113787577	4.931100E+01	  0.113787577	6.593900E+01	  0.113787577	4.308400E+01
470	  0.113987975	-8.615000E+00	  0.113987975	4.856500E+01	  0.113987975	6.668200E+01	  0.113987975	4.299600E+01
471	  0.114188381	-8.617000E+00	  0.114188381	4.784900E+01	  0.114188381	6.740200E+01	  0.114188381	4.296100E+01
472	  0.114388779	-8.625000E+00	  0.114388779	4.705500E+01	  0.114388779	6.820600E+01	  0.114388779	4.287100E+01
473	  0.114589177	-8.636000E+00	  0.114589177	4.626600E+01	  0.114589177	6.901000E+01	  0.114589177	4.274900E+01
474	  0.114789583	-8.649000E+00	  0.114789583	4.550700E+01	  0.114789583	6.978700E+01	  0.114789583	4.259700E+01
475	  0.114989981	-8.655000E+00	  0.114989981	4.476300E+01	  0.114989981	7.055800E+01	  0.114989981	4.247300E+01
476	  0.115190387	-8.670000E+00	  0.115190387	4.395200E+01	  0.115190387	7.139700E+01	  0.115190387	4.226400E+01
477	  0.115390785	-8.689000E+00	  0.115390785	4.308500E+01	  0.115390785	7.229400E+01	  0.115390785	4.199900E+01
478	  0.115591183	-8.705000E+00	  0.115591183	4.225800E+01	  0.115591183	7.315300E+01	  0.115591183	4.173300E+01
479	  0.115791589	-8.723000E+00	  0.115791589	4.142100E+01	  0.115791589	7.402400E+01	  0.115791589	4.143900E+01
480	  0.115991987	-8.746000E+00	  0.115991987	4.058900E+01	  0.115991987	7.488100E+01	  0.115991987	4.107900E+01
481	  0.116192386	-8.762000E+00	  0.116192386	3.969800E+01	  0.116192386	7.581100E+01	  0.116192386	4.073000E+01
482	  0.116392791	-8.787000E+00	  0.116392791	3.884200E+01	  0.116392791	7.668700E+01	  0.116392791	4.030700E+01
483	  0.116593190	-8.811000E+00	  0.116593190	3.791800E+01	  0.116593190	7.763200E+01	  0.116593190	3.983700E+01
484	  0.116793588	-8.840000E+00	  0.116793588	3.703200E+01	  0.116793588	7.852000E+01	  0.116793588	3.931500E+01
485	  0.116993994	-8.866000E+00	  0.116993994	3.601400E+01	  0.116993994	7.954900E+01	  0.116993994	3.873400E+01
486	  0.117194392	-8.901000E+00	  0.117194392	3.512100E+01	  0.117194392	8.041100E+01	  0.117194392	3.811200E+01
487	  0.117394790	-8.930000E+00	  0.117394790	3.418000E+01	  0.117394790	8.132600E+01	  0.117394790	3.747700E+01
488	  0.117595196	-8.976000E+00	  0.117595196	3.322500E+01	  0.117595196	8.218900E+01	  0.117595196	3.668800E+01
489	  0.117795594	-9.013000E+00	  0.117795594	3.224600E+01	  0.117795594	8.308500E+01	  0.117795594	3.591600E+01
490	  0.117995992	-9.052000E+00	  0.117995992	3.126900E+01	  0.117995992	8.395300E+01	  0.117995992	3.510500E+01
491	  0.118196398	-9.105000E+00	  0.118196398	3.025500E+01	  0.118196398	8.477600E+01	  0.118196398	3.413800E+01
492	  0.118396796	-9.148000E+00	  0.118396796	2.923400E+01	  0.118396796	8.562000E+01	  0.118396796	3.320900E+01
493	  0.118597202	-9.198000E+00	  0.118597202	2.820500E+01	  0.118597202	8.640900E+01	  0.118597202	3.219700E+01
494	  0.118797600	-9.255000E+00	  0.118797600	2.712300E+01	  0.118797600	8.718200E+01	  0.118797600	3.107500E+01
495	  0.118997999	-9.316000E+00	  0.118997999	2.602600E+01	  0.118997999	8.791000E+01	  0.118997999	2.989300E+01
496	  0.119198404	-9.375000E+00	  0.119198404	2.495400E+01	  0.119198404	8.857600E+01	  0.119198404	2.871300E+01
497	  0.119398803	-9.444000E+00	  0.119398803	2.386600E+01	  0.119398803	8.916000E+01	  0.119398803	2.744200E+01
498	  0.119599201	-9.513000E+00	  0.119599201	2.272600E+01	  0.119599201	8.973100E+01	  0.119599201	2.610800E+01
499	  0.119799607	-9.584000E+00	  0.119799607	2.158200E+01	  0.119799607	9.023600E+01	  0.119799607	2.474200E+01
500	  0.120000005	-9.665000E+00	  0.120000005	2.042000E+01	  0.120000005	9.064300E+01	  0.120000005	2.330300E+01
