! Anritsu VNA Master:             	Model: MS2036C/10/77
! SN:             	1601066
! /bd0/18may8/255.ew.m2.txt
! Existing Calibration Information:
! TYPE:             	Current Settings	Active Cal Settings
! TIME:             	05/08/2018 10:02:41 AM	05/08/2018 09:57:41 AM
! INTERNAL TEMP:    	46.8 C	46.8 C
! # POINTS:         	500	500
! START FREQ:       	20.000 MHz	20.000 MHz
! STOP FREQ:        	120.000 MHz	120.000 MHz
! SOURCE POWER:     	High	High
! IFBW:             	50 Hz	50 Hz
! AVG FACTOR:       	  1 	  1 
! REF PLANE 1:      	0 mm	0 mm
! REF PLANE 2:      	0 mm	0 mm
! CAL TYPE:         	Full S11	Full S11
! CAL METHOD:       	SOLT	SOLT
! CAL LINE TYPE:    	Coax	Coax
! DUT PORT 1:       	K-Conn(F)	K-Conn(F)
! DUT PORT 2:       	K-Conn(F)	K-Conn(F)
! CAL STATUS:       	OK: Accuracy High	--
! PROP-V:       	0.700
! CABLE LOSS:       	0.000 dB/m
! REF IMPEDANCE:       	50.0
! Trace Specific Parameters:	TR1	TR2	TR3	TR4
! TRACE.#.Y (GRAPH TYPE)	LOG MAG	PHASE	REAL IMPEDANCE	IMAGINARY IMPEDANCE
! TRACE.#.X 	FREQ.GHZ	FREQ.GHZ	FREQ.GHZ	FREQ.GHZ
! S-PARAMETER	S11	S11	S11	S11
! SMOOTH/APERTURE %	0	0	0	0
! WINDOW	NSL	NSL	NSL	NSL
! GATING	OFF	OFF	OFF	OFF
! FGTD	OFF	OFF	OFF	OFF
Marker Information per Trace:	TR1	TR2	TR3	TR4
!MK1	--	"MK1 TR2:  20.000 MHz,PH:-124.33°"	--	--
!MK2	--	--	"MK2 TR3:  70.100 200 MHz,Z:(16.708 ohm, -3.236 ohm)"	--
!MK3	--	--	--	--
!MK4	--	--	--	--
!MK5	--	--	--	--
!MK6	--	--	--	--
!MK7	--	--	--	--
!MK8	--	--	--	--
PNT	TR1.FREQ.GHZ	TR1.LOG MAG.dB	TR2.FREQ.GHZ	TR2.PHASE.deg	TR3.FREQ.GHZ	TR3.REAL IMPEDANCE.ohm	TR4.FREQ.GHZ	TR4.IMAGINARY IMPEDANCE.ohm
1	  0.020000000	-8.880000E-01	  0.020000000	-1.243310E+02	  0.020000000	3.265000E+00	  0.020000000	-2.631200E+01
2	  0.020200402	-8.920000E-01	  0.020200402	-1.257530E+02	  0.020200402	3.237000E+00	  0.020200402	-2.552600E+01
3	  0.020400802	-9.010000E-01	  0.020400802	-1.271740E+02	  0.020400802	3.231000E+00	  0.020400802	-2.475000E+01
4	  0.020601204	-9.080000E-01	  0.020601204	-1.286010E+02	  0.020601204	3.214000E+00	  0.020601204	-2.398100E+01
5	  0.020801604	-9.190000E-01	  0.020801604	-1.300700E+02	  0.020801604	3.213000E+00	  0.020801604	-2.319800E+01
6	  0.021002004	-9.310000E-01	  0.021002004	-1.315430E+02	  0.021002004	3.220000E+00	  0.021002004	-2.242300E+01
7	  0.021202406	-9.430000E-01	  0.021202406	-1.330400E+02	  0.021202406	3.224000E+00	  0.021202406	-2.164300E+01
8	  0.021402806	-9.550000E-01	  0.021402806	-1.345370E+02	  0.021402806	3.227000E+00	  0.021402806	-2.087300E+01
9	  0.021603208	-9.640000E-01	  0.021603208	-1.360240E+02	  0.021603208	3.222000E+00	  0.021603208	-2.011600E+01
10	  0.021803608	-9.760000E-01	  0.021803608	-1.375220E+02	  0.021803608	3.230000E+00	  0.021803608	-1.936200E+01
11	  0.022004008	-9.870000E-01	  0.022004008	-1.390200E+02	  0.022004008	3.235000E+00	  0.022004008	-1.861500E+01
12	  0.022204408	-9.990000E-01	  0.022204408	-1.405270E+02	  0.022204408	3.242000E+00	  0.022204408	-1.787100E+01
13	  0.022404809	-1.011000E+00	  0.022404809	-1.420540E+02	  0.022404809	3.250000E+00	  0.022404809	-1.712400E+01
14	  0.022605211	-1.022000E+00	  0.022605211	-1.435950E+02	  0.022605211	3.256000E+00	  0.022605211	-1.637800E+01
15	  0.022805611	-1.031000E+00	  0.022805611	-1.451490E+02	  0.022805611	3.257000E+00	  0.022805611	-1.563200E+01
16	  0.023006011	-1.039000E+00	  0.023006011	-1.467030E+02	  0.023006011	3.254000E+00	  0.023006011	-1.489300E+01
17	  0.023206413	-1.049000E+00	  0.023206413	-1.482190E+02	  0.023206413	3.260000E+00	  0.023206413	-1.417700E+01
18	  0.023406813	-1.057000E+00	  0.023406813	-1.497620E+02	  0.023406813	3.260000E+00	  0.023406813	-1.345500E+01
19	  0.023607215	-1.065000E+00	  0.023607215	-1.512850E+02	  0.023607215	3.262000E+00	  0.023607215	-1.274600E+01
20	  0.023807615	-1.077000E+00	  0.023807615	-1.528420E+02	  0.023807615	3.277000E+00	  0.023807615	-1.202700E+01
21	  0.024008015	-1.091000E+00	  0.024008015	-1.544080E+02	  0.024008015	3.299000E+00	  0.024008015	-1.130800E+01
22	  0.024208417	-1.104000E+00	  0.024208417	-1.559850E+02	  0.024208417	3.318000E+00	  0.024208417	-1.058900E+01
23	  0.024408817	-1.118000E+00	  0.024408817	-1.575800E+02	  0.024408817	3.339000E+00	  0.024408817	-9.866000E+00
24	  0.024609219	-1.131000E+00	  0.024609219	-1.591840E+02	  0.024609219	3.360000E+00	  0.024609219	-9.143000E+00
25	  0.024809619	-1.144000E+00	  0.024809619	-1.607900E+02	  0.024809619	3.383000E+00	  0.024809619	-8.423000E+00
26	  0.025010020	-1.158000E+00	  0.025010020	-1.623930E+02	  0.025010020	3.409000E+00	  0.025010020	-7.708000E+00
27	  0.025210422	-1.173000E+00	  0.025210422	-1.640060E+02	  0.025210422	3.438000E+00	  0.025210422	-6.991000E+00
28	  0.025410822	-1.191000E+00	  0.025410822	-1.656330E+02	  0.025410822	3.479000E+00	  0.025410822	-6.271000E+00
29	  0.025611224	-1.210000E+00	  0.025611224	-1.672980E+02	  0.025611224	3.521000E+00	  0.025611224	-5.537000E+00
30	  0.025811624	-1.226000E+00	  0.025811624	-1.689680E+02	  0.025811624	3.555000E+00	  0.025811624	-4.804000E+00
31	  0.026012026	-1.240000E+00	  0.026012026	-1.706560E+02	  0.026012026	3.587000E+00	  0.026012026	-4.064000E+00
32	  0.026212426	-1.255000E+00	  0.026212426	-1.723440E+02	  0.026212426	3.623000E+00	  0.026212426	-3.327000E+00
33	  0.026412826	-1.271000E+00	  0.026412826	-1.740310E+02	  0.026412826	3.662000E+00	  0.026412826	-2.592000E+00
34	  0.026613226	-1.290000E+00	  0.026613226	-1.757400E+02	  0.026613226	3.711000E+00	  0.026613226	-1.849000E+00
35	  0.026813626	-1.310000E+00	  0.026813626	-1.774540E+02	  0.026813626	3.765000E+00	  0.026813626	-1.104000E+00
36	  0.027014028	-1.329000E+00	  0.027014028	-1.791720E+02	  0.027014028	3.818000E+00	  0.027014028	-3.590000E-01
37	  0.027214428	-1.350000E+00	  0.027214428	1.790790E+02	  0.027214428	3.880000E+00	  0.027214428	3.990000E-01
38	  0.027414829	-1.371000E+00	  0.027414829	1.773240E+02	  0.027414829	3.942000E+00	  0.027414829	1.160000E+00
39	  0.027615231	-1.392000E+00	  0.027615231	1.755630E+02	  0.027615231	4.005000E+00	  0.027615231	1.924000E+00
40	  0.027815631	-1.418000E+00	  0.027815631	1.737890E+02	  0.027815631	4.084000E+00	  0.027815631	2.694000E+00
41	  0.028016033	-1.442000E+00	  0.028016033	1.719960E+02	  0.028016033	4.162000E+00	  0.028016033	3.473000E+00
42	  0.028216433	-1.469000E+00	  0.028216433	1.701980E+02	  0.028216433	4.250000E+00	  0.028216433	4.256000E+00
43	  0.028416833	-1.495000E+00	  0.028416833	1.683970E+02	  0.028416833	4.339000E+00	  0.028416833	5.042000E+00
44	  0.028617235	-1.522000E+00	  0.028617235	1.666020E+02	  0.028617235	4.429000E+00	  0.028617235	5.827000E+00
45	  0.028817635	-1.545000E+00	  0.028817635	1.648110E+02	  0.028817635	4.513000E+00	  0.028817635	6.612000E+00
46	  0.029018037	-1.570000E+00	  0.029018037	1.630110E+02	  0.029018037	4.608000E+00	  0.029018037	7.405000E+00
47	  0.029218437	-1.597000E+00	  0.029218437	1.612180E+02	  0.029218437	4.708000E+00	  0.029218437	8.197000E+00
48	  0.029418837	-1.625000E+00	  0.029418837	1.594270E+02	  0.029418837	4.818000E+00	  0.029418837	8.992000E+00
49	  0.029619239	-1.656000E+00	  0.029619239	1.576090E+02	  0.029619239	4.937000E+00	  0.029619239	9.803000E+00
50	  0.029819639	-1.688000E+00	  0.029819639	1.557850E+02	  0.029819639	5.064000E+00	  0.029819639	1.062000E+01
51	  0.030020041	-1.722000E+00	  0.030020041	1.539150E+02	  0.030020041	5.203000E+00	  0.030020041	1.146300E+01
52	  0.030220442	-1.756000E+00	  0.030220442	1.520390E+02	  0.030220442	5.346000E+00	  0.030220442	1.231300E+01
53	  0.030420844	-1.789000E+00	  0.030420844	1.501550E+02	  0.030420844	5.491000E+00	  0.030420844	1.317400E+01
54	  0.030621244	-1.823000E+00	  0.030621244	1.482800E+02	  0.030621244	5.646000E+00	  0.030621244	1.403700E+01
55	  0.030821644	-1.858000E+00	  0.030821644	1.464110E+02	  0.030821644	5.809000E+00	  0.030821644	1.490300E+01
56	  0.031022044	-1.896000E+00	  0.031022044	1.445250E+02	  0.031022044	5.984000E+00	  0.031022044	1.578400E+01
57	  0.031222444	-1.929000E+00	  0.031222444	1.426400E+02	  0.031222444	6.155000E+00	  0.031222444	1.667400E+01
58	  0.031422846	-1.969000E+00	  0.031422846	1.406770E+02	  0.031422846	6.355000E+00	  0.031422846	1.760800E+01
59	  0.031623244	-2.011000E+00	  0.031623244	1.387260E+02	  0.031623244	6.567000E+00	  0.031623244	1.854500E+01
60	  0.031823646	-2.047000E+00	  0.031823646	1.367620E+02	  0.031823646	6.773000E+00	  0.031823646	1.950000E+01
61	  0.032024048	-2.082000E+00	  0.032024048	1.348050E+02	  0.032024048	6.982000E+00	  0.032024048	2.046300E+01
62	  0.032224450	-2.118000E+00	  0.032224450	1.328410E+02	  0.032224450	7.204000E+00	  0.032224450	2.144100E+01
63	  0.032424849	-2.156000E+00	  0.032424849	1.308790E+02	  0.032424849	7.440000E+00	  0.032424849	2.243000E+01
64	  0.032625251	-2.192000E+00	  0.032625251	1.289130E+02	  0.032625251	7.684000E+00	  0.032625251	2.343300E+01
65	  0.032825653	-2.232000E+00	  0.032825653	1.269560E+02	  0.032825653	7.950000E+00	  0.032825653	2.444500E+01
66	  0.033026051	-2.275000E+00	  0.033026051	1.249940E+02	  0.033026051	8.240000E+00	  0.033026051	2.547200E+01
67	  0.033226453	-2.321000E+00	  0.033226453	1.230290E+02	  0.033226453	8.553000E+00	  0.033226453	2.651400E+01
68	  0.033426855	-2.369000E+00	  0.033426855	1.210660E+02	  0.033426855	8.889000E+00	  0.033426855	2.756900E+01
69	  0.033627257	-2.423000E+00	  0.033627257	1.190760E+02	  0.033627257	9.266000E+00	  0.033627257	2.865100E+01
70	  0.033827655	-2.478000E+00	  0.033827655	1.170480E+02	  0.033827655	9.667000E+00	  0.033827655	2.977200E+01
71	  0.034028057	-2.528000E+00	  0.034028057	1.149840E+02	  0.034028057	1.007600E+01	  0.034028057	3.093400E+01
72	  0.034228459	-2.581000E+00	  0.034228459	1.128830E+02	  0.034228459	1.051900E+01	  0.034228459	3.213800E+01
73	  0.034428857	-2.627000E+00	  0.034428857	1.107670E+02	  0.034428857	1.096400E+01	  0.034428857	3.337700E+01
74	  0.034629259	-2.676000E+00	  0.034629259	1.086520E+02	  0.034629259	1.144400E+01	  0.034629259	3.463800E+01
75	  0.034829661	-2.718000E+00	  0.034829661	1.065390E+02	  0.034829661	1.192300E+01	  0.034829661	3.592800E+01
76	  0.035030060	-2.764000E+00	  0.035030060	1.044360E+02	  0.035030060	1.244700E+01	  0.035030060	3.723500E+01
77	  0.035230462	-2.807000E+00	  0.035230462	1.023580E+02	  0.035230462	1.298300E+01	  0.035230462	3.855700E+01
78	  0.035430863	-2.850000E+00	  0.035430863	1.002650E+02	  0.035430863	1.355300E+01	  0.035430863	3.991700E+01
79	  0.035631265	-2.890000E+00	  0.035631265	9.819400E+01	  0.035631265	1.414200E+01	  0.035631265	4.129500E+01
80	  0.035831664	-2.935000E+00	  0.035831664	9.612700E+01	  0.035831664	1.478900E+01	  0.035831664	4.269500E+01
81	  0.036032066	-2.975000E+00	  0.036032066	9.407800E+01	  0.036032066	1.545100E+01	  0.036032066	4.412100E+01
82	  0.036232468	-3.019000E+00	  0.036232468	9.202300E+01	  0.036232468	1.617400E+01	  0.036232468	4.557700E+01
83	  0.036432866	-3.062000E+00	  0.036432866	9.001800E+01	  0.036432866	1.692800E+01	  0.036432866	4.703100E+01
84	  0.036633268	-3.109000E+00	  0.036633268	8.798500E+01	  0.036633268	1.776000E+01	  0.036633268	4.853100E+01
85	  0.036833670	-3.157000E+00	  0.036833670	8.595100E+01	  0.036833670	1.865000E+01	  0.036833670	5.006500E+01
86	  0.037034072	-3.203000E+00	  0.037034072	8.388100E+01	  0.037034072	1.960300E+01	  0.037034072	5.166700E+01
87	  0.037234470	-3.250000E+00	  0.037234470	8.178800E+01	  0.037234470	2.063800E+01	  0.037234470	5.332500E+01
88	  0.037434869	-3.295000E+00	  0.037434869	7.962700E+01	  0.037434869	2.176200E+01	  0.037434869	5.508800E+01
89	  0.037635271	-3.336000E+00	  0.037635271	7.737800E+01	  0.037635271	2.298900E+01	  0.037635271	5.698700E+01
90	  0.037835669	-3.387000E+00	  0.037835669	7.503100E+01	  0.037835669	2.442700E+01	  0.037835669	5.899600E+01
91	  0.038036071	-3.451000E+00	  0.038036071	7.262900E+01	  0.038036071	2.609700E+01	  0.038036071	6.106700E+01
92	  0.038236473	-3.531000E+00	  0.038236473	7.026700E+01	  0.038236473	2.799800E+01	  0.038236473	6.307500E+01
93	  0.038436871	-3.612000E+00	  0.038436871	6.800300E+01	  0.038436871	3.000800E+01	  0.038436871	6.500100E+01
94	  0.038637273	-3.688000E+00	  0.038637273	6.582500E+01	  0.038637273	3.207900E+01	  0.038637273	6.688000E+01
95	  0.038837675	-3.754000E+00	  0.038837675	6.371900E+01	  0.038837675	3.418100E+01	  0.038837675	6.874900E+01
96	  0.039038073	-3.812000E+00	  0.039038073	6.166600E+01	  0.039038073	3.635300E+01	  0.039038073	7.060800E+01
97	  0.039238475	-3.867000E+00	  0.039238475	5.963000E+01	  0.039238475	3.864900E+01	  0.039238475	7.248100E+01
98	  0.039438877	-3.922000E+00	  0.039438877	5.761300E+01	  0.039438877	4.111400E+01	  0.039438877	7.432200E+01
99	  0.039639279	-3.976000E+00	  0.039639279	5.558200E+01	  0.039639279	4.376800E+01	  0.039639279	7.618700E+01
100	  0.039839678	-4.036000E+00	  0.039839678	5.352200E+01	  0.039839678	4.672200E+01	  0.039839678	7.800000E+01
101	  0.040040080	-4.098000E+00	  0.040040080	5.146500E+01	  0.040040080	4.991000E+01	  0.040040080	7.975200E+01
102	  0.040240481	-4.156000E+00	  0.040240481	4.939800E+01	  0.040240481	5.333500E+01	  0.040240481	8.148500E+01
103	  0.040440880	-4.214000E+00	  0.040440880	4.727000E+01	  0.040440880	5.712800E+01	  0.040440880	8.319300E+01
104	  0.040641282	-4.272000E+00	  0.040641282	4.517100E+01	  0.040641282	6.117200E+01	  0.040641282	8.474800E+01
105	  0.040841684	-4.329000E+00	  0.040841684	4.306100E+01	  0.040841684	6.554000E+01	  0.040841684	8.616800E+01
106	  0.041042086	-4.382000E+00	  0.041042086	4.094700E+01	  0.041042086	7.021800E+01	  0.041042086	8.745700E+01
107	  0.041242484	-4.436000E+00	  0.041242484	3.883500E+01	  0.041242484	7.524600E+01	  0.041242484	8.847700E+01
108	  0.041442886	-4.490000E+00	  0.041442886	3.671200E+01	  0.041442886	8.064800E+01	  0.041442886	8.922100E+01
109	  0.041643288	-4.536000E+00	  0.041643288	3.460100E+01	  0.041643288	8.633900E+01	  0.041643288	8.973300E+01
110	  0.041843686	-4.586000E+00	  0.041843686	3.246600E+01	  0.041843686	9.247000E+01	  0.041843686	8.977300E+01
111	  0.042044088	-4.632000E+00	  0.042044088	3.038600E+01	  0.042044088	9.876300E+01	  0.042044088	8.936200E+01
112	  0.042244490	-4.674000E+00	  0.042244490	2.829700E+01	  0.042244490	1.053840E+02	  0.042244490	8.848400E+01
113	  0.042444889	-4.724000E+00	  0.042444889	2.623800E+01	  0.042444889	1.121410E+02	  0.042444889	8.679900E+01
114	  0.042645290	-4.767000E+00	  0.042645290	2.418400E+01	  0.042645290	1.190780E+02	  0.042645290	8.457000E+01
115	  0.042845692	-4.813000E+00	  0.042845692	2.212900E+01	  0.042845692	1.260790E+02	  0.042845692	8.145900E+01
116	  0.043046094	-4.855000E+00	  0.043046094	2.009300E+01	  0.043046094	1.330230E+02	  0.043046094	7.763900E+01
117	  0.043246493	-4.900000E+00	  0.043246493	1.805200E+01	  0.043246493	1.398030E+02	  0.043246493	7.285400E+01
118	  0.043446895	-4.941000E+00	  0.043446895	1.602800E+01	  0.043446895	1.462780E+02	  0.043446895	6.730400E+01
119	  0.043647297	-4.983000E+00	  0.043647297	1.398300E+01	  0.043647297	1.523470E+02	  0.043647297	6.076600E+01
120	  0.043847695	-5.027000E+00	  0.043847695	1.195400E+01	  0.043847695	1.577170E+02	  0.043847695	5.341300E+01
121	  0.044048097	-5.069000E+00	  0.044048097	9.952000E+00	  0.044048097	1.622390E+02	  0.044048097	4.542000E+01
122	  0.044248499	-5.111000E+00	  0.044248499	7.941000E+00	  0.044248499	1.658660E+02	  0.044248499	3.677600E+01
123	  0.044448901	-5.154000E+00	  0.044448901	5.946000E+00	  0.044448901	1.684300E+02	  0.044448901	2.774700E+01
124	  0.044649299	-5.195000E+00	  0.044649299	3.948000E+00	  0.044649299	1.699390E+02	  0.044649299	1.844400E+01
125	  0.044849701	-5.231000E+00	  0.044849701	1.963000E+00	  0.044849701	1.704820E+02	  0.044849701	9.135000E+00
126	  0.045050103	-5.264000E+00	  0.045050103	-2.600000E-02	  0.045050103	1.700010E+02	  0.045050103	-1.220000E-01
127	  0.045250501	-5.298000E+00	  0.045250501	-2.007000E+00	  0.045250501	1.684500E+02	  0.045250501	-9.097000E+00
128	  0.045450903	-5.331000E+00	  0.045450903	-3.940000E+00	  0.045450903	1.659760E+02	  0.045450903	-1.746500E+01
129	  0.045651305	-5.365000E+00	  0.045651305	-5.902000E+00	  0.045651305	1.626310E+02	  0.045651305	-2.542800E+01
130	  0.045851704	-5.399000E+00	  0.045851704	-7.829000E+00	  0.045851704	1.585940E+02	  0.045851704	-3.260900E+01
131	  0.046052106	-5.431000E+00	  0.046052106	-9.774000E+00	  0.046052106	1.540310E+02	  0.046052106	-3.921400E+01
132	  0.046252504	-5.461000E+00	  0.046252504	-1.168200E+01	  0.046252504	1.491280E+02	  0.046252504	-4.500000E+01
133	  0.046452906	-5.493000E+00	  0.046452906	-1.359100E+01	  0.046452906	1.438630E+02	  0.046452906	-5.004900E+01
134	  0.046653304	-5.517000E+00	  0.046653304	-1.551500E+01	  0.046653304	1.384950E+02	  0.046653304	-5.457800E+01
135	  0.046853706	-5.545000E+00	  0.046853706	-1.742800E+01	  0.046853706	1.329610E+02	  0.046853706	-5.833400E+01
136	  0.047054108	-5.570000E+00	  0.047054108	-1.931900E+01	  0.047054108	1.274960E+02	  0.047054108	-6.147200E+01
137	  0.047254506	-5.590000E+00	  0.047254506	-2.120400E+01	  0.047254506	1.221280E+02	  0.047254506	-6.411200E+01
138	  0.047454908	-5.614000E+00	  0.047454908	-2.307700E+01	  0.047454908	1.168270E+02	  0.047454908	-6.614100E+01
139	  0.047655310	-5.636000E+00	  0.047655310	-2.492100E+01	  0.047655310	1.117510E+02	  0.047655310	-6.771500E+01
140	  0.047855709	-5.659000E+00	  0.047855709	-2.673400E+01	  0.047855709	1.068980E+02	  0.047855709	-6.882700E+01
141	  0.048056111	-5.679000E+00	  0.048056111	-2.854600E+01	  0.048056111	1.022350E+02	  0.048056111	-6.964700E+01
142	  0.048256513	-5.699000E+00	  0.048256513	-3.033700E+01	  0.048256513	9.780300E+01	  0.048256513	-7.013700E+01
143	  0.048456915	-5.721000E+00	  0.048456915	-3.213900E+01	  0.048456915	9.353200E+01	  0.048456915	-7.033500E+01
144	  0.048657313	-5.740000E+00	  0.048657313	-3.391900E+01	  0.048657313	8.951100E+01	  0.048657313	-7.033800E+01
145	  0.048857715	-5.756000E+00	  0.048857715	-3.571500E+01	  0.048857715	8.564900E+01	  0.048857715	-7.018500E+01
146	  0.049058117	-5.775000E+00	  0.049058117	-3.748900E+01	  0.049058117	8.202300E+01	  0.049058117	-6.981900E+01
147	  0.049258515	-5.786000E+00	  0.049258515	-3.925900E+01	  0.049258515	7.858000E+01	  0.049258515	-6.939400E+01
148	  0.049458917	-5.805000E+00	  0.049458917	-4.098200E+01	  0.049458917	7.541200E+01	  0.049458917	-6.875600E+01
149	  0.049659319	-5.822000E+00	  0.049659319	-4.272000E+01	  0.049659319	7.237900E+01	  0.049659319	-6.804000E+01
150	  0.049859721	-5.838000E+00	  0.049859721	-4.443500E+01	  0.049859721	6.954300E+01	  0.049859721	-6.725000E+01
151	  0.050060119	-5.852000E+00	  0.050060119	-4.616600E+01	  0.050060119	6.682800E+01	  0.050060119	-6.639900E+01
152	  0.050260521	-5.862000E+00	  0.050260521	-4.787100E+01	  0.050260521	6.428400E+01	  0.050260521	-6.554000E+01
153	  0.050460923	-5.877000E+00	  0.050460923	-4.960400E+01	  0.050460923	6.184900E+01	  0.050460923	-6.456500E+01
154	  0.050661322	-5.883000E+00	  0.050661322	-5.129200E+01	  0.050661322	5.957500E+01	  0.050661322	-6.365200E+01
155	  0.050861724	-5.889000E+00	  0.050861724	-5.297100E+01	  0.050861724	5.743100E+01	  0.050861724	-6.270000E+01
156	  0.051062126	-5.897000E+00	  0.051062126	-5.462900E+01	  0.051062126	5.542900E+01	  0.051062126	-6.171300E+01
157	  0.051262524	-5.902000E+00	  0.051262524	-5.623800E+01	  0.051262524	5.357400E+01	  0.051262524	-6.075400E+01
158	  0.051462926	-5.910000E+00	  0.051462926	-5.785000E+01	  0.051462926	5.181800E+01	  0.051462926	-5.975300E+01
159	  0.051663328	-5.915000E+00	  0.051663328	-5.942700E+01	  0.051663328	5.017200E+01	  0.051663328	-5.878000E+01
160	  0.051863730	-5.922000E+00	  0.051863730	-6.100300E+01	  0.051863730	4.861800E+01	  0.051863730	-5.778000E+01
161	  0.052064128	-5.934000E+00	  0.052064128	-6.256400E+01	  0.052064128	4.717300E+01	  0.052064128	-5.675400E+01
162	  0.052264530	-5.942000E+00	  0.052264530	-6.413900E+01	  0.052264530	4.576700E+01	  0.052264530	-5.574300E+01
163	  0.052464932	-5.951000E+00	  0.052464932	-6.569600E+01	  0.052464932	4.444900E+01	  0.052464932	-5.473600E+01
164	  0.052665330	-5.961000E+00	  0.052665330	-6.726800E+01	  0.052665330	4.318700E+01	  0.052665330	-5.371400E+01
165	  0.052865732	-5.973000E+00	  0.052865732	-6.882400E+01	  0.052865732	4.200400E+01	  0.052865732	-5.269700E+01
166	  0.053066134	-5.982000E+00	  0.053066134	-7.037000E+01	  0.053066134	4.087400E+01	  0.053066134	-5.170500E+01
167	  0.053266536	-5.989000E+00	  0.053266536	-7.192300E+01	  0.053266536	3.978100E+01	  0.053266536	-5.072500E+01
168	  0.053466935	-5.997000E+00	  0.053466935	-7.348800E+01	  0.053466935	3.873400E+01	  0.053466935	-4.973900E+01
169	  0.053667337	-5.999000E+00	  0.053667337	-7.501200E+01	  0.053667337	3.774000E+01	  0.053667337	-4.880900E+01
170	  0.053867739	-5.998000E+00	  0.053867739	-7.653600E+01	  0.053867739	3.677900E+01	  0.053867739	-4.789400E+01
171	  0.054068137	-6.001000E+00	  0.054068137	-7.803000E+01	  0.054068137	3.589000E+01	  0.054068137	-4.699000E+01
172	  0.054268539	-6.002000E+00	  0.054268539	-7.953900E+01	  0.054268539	3.502700E+01	  0.054268539	-4.608500E+01
173	  0.054468941	-6.002000E+00	  0.054468941	-8.097500E+01	  0.054468941	3.423400E+01	  0.054468941	-4.523800E+01
174	  0.054669339	-6.007000E+00	  0.054669339	-8.240400E+01	  0.054669339	3.349800E+01	  0.054669339	-4.438100E+01
175	  0.054869737	-6.013000E+00	  0.054869737	-8.383400E+01	  0.054869737	3.279200E+01	  0.054869737	-4.353000E+01
176	  0.055070139	-6.015000E+00	  0.055070139	-8.522100E+01	  0.055070139	3.212400E+01	  0.055070139	-4.272100E+01
177	  0.055270538	-6.021000E+00	  0.055270538	-8.662000E+01	  0.055270538	3.148700E+01	  0.055270538	-4.190400E+01
178	  0.055470940	-6.031000E+00	  0.055470940	-8.800900E+01	  0.055470940	3.089700E+01	  0.055470940	-4.108700E+01
179	  0.055671342	-6.033000E+00	  0.055671342	-8.939600E+01	  0.055671342	3.030000E+01	  0.055671342	-4.030200E+01
180	  0.055871744	-6.037000E+00	  0.055871744	-9.078700E+01	  0.055871744	2.973600E+01	  0.055871744	-3.951500E+01
181	  0.056072142	-6.041000E+00	  0.056072142	-9.216500E+01	  0.056072142	2.919600E+01	  0.056072142	-3.874400E+01
182	  0.056272544	-6.044000E+00	  0.056272544	-9.353900E+01	  0.056272544	2.867400E+01	  0.056272544	-3.798400E+01
183	  0.056472946	-6.048000E+00	  0.056472946	-9.491200E+01	  0.056472946	2.817600E+01	  0.056472946	-3.723000E+01
184	  0.056673344	-6.051000E+00	  0.056673344	-9.626300E+01	  0.056673344	2.769900E+01	  0.056673344	-3.649800E+01
185	  0.056873746	-6.051000E+00	  0.056873746	-9.761900E+01	  0.056873746	2.723000E+01	  0.056873746	-3.577500E+01
186	  0.057074148	-6.048000E+00	  0.057074148	-9.898200E+01	  0.057074148	2.676600E+01	  0.057074148	-3.506100E+01
187	  0.057274550	-6.044000E+00	  0.057274550	-1.003030E+02	  0.057274550	2.632500E+01	  0.057274550	-3.437900E+01
188	  0.057474948	-6.039000E+00	  0.057474948	-1.016310E+02	  0.057474948	2.589700E+01	  0.057474948	-3.369900E+01
189	  0.057675350	-6.032000E+00	  0.057675350	-1.029210E+02	  0.057675350	2.548800E+01	  0.057675350	-3.304700E+01
190	  0.057875752	-6.025000E+00	  0.057875752	-1.042130E+02	  0.057875752	2.509200E+01	  0.057875752	-3.239900E+01
191	  0.058076151	-6.020000E+00	  0.058076151	-1.054990E+02	  0.058076151	2.471600E+01	  0.058076151	-3.175600E+01
192	  0.058276553	-6.014000E+00	  0.058276553	-1.067400E+02	  0.058276553	2.436000E+01	  0.058276553	-3.114200E+01
193	  0.058476955	-6.011000E+00	  0.058476955	-1.079930E+02	  0.058476955	2.402500E+01	  0.058476955	-3.052000E+01
194	  0.058677353	-6.006000E+00	  0.058677353	-1.092360E+02	  0.058677353	2.369500E+01	  0.058677353	-2.991100E+01
195	  0.058877755	-5.999000E+00	  0.058877755	-1.104970E+02	  0.058877755	2.336600E+01	  0.058877755	-2.930200E+01
196	  0.059078157	-5.995000E+00	  0.059078157	-1.117280E+02	  0.059078157	2.306300E+01	  0.059078157	-2.870600E+01
197	  0.059278559	-5.989000E+00	  0.059278559	-1.129730E+02	  0.059278559	2.276200E+01	  0.059278559	-2.811000E+01
198	  0.059478957	-5.988000E+00	  0.059478957	-1.142310E+02	  0.059478957	2.248100E+01	  0.059478957	-2.750500E+01
199	  0.059679359	-5.982000E+00	  0.059679359	-1.154940E+02	  0.059679359	2.219700E+01	  0.059679359	-2.690900E+01
200	  0.059879761	-5.982000E+00	  0.059879761	-1.167350E+02	  0.059879761	2.194200E+01	  0.059879761	-2.632000E+01
201	  0.060080159	-5.973000E+00	  0.060080159	-1.179660E+02	  0.060080159	2.167000E+01	  0.060080159	-2.575000E+01
202	  0.060280561	-5.971000E+00	  0.060280561	-1.192090E+02	  0.060280561	2.142400E+01	  0.060280561	-2.517100E+01
203	  0.060480963	-5.967000E+00	  0.060480963	-1.204270E+02	  0.060480963	2.118700E+01	  0.060480963	-2.461000E+01
204	  0.060681365	-5.963000E+00	  0.060681365	-1.216450E+02	  0.060681365	2.095800E+01	  0.060681365	-2.405100E+01
205	  0.060881764	-5.952000E+00	  0.060881764	-1.228390E+02	  0.060881764	2.071800E+01	  0.060881764	-2.351500E+01
206	  0.061082166	-5.951000E+00	  0.061082166	-1.240650E+02	  0.061082166	2.050800E+01	  0.061082166	-2.295700E+01
207	  0.061282568	-5.946000E+00	  0.061282568	-1.252840E+02	  0.061282568	2.029700E+01	  0.061282568	-2.240900E+01
208	  0.061482966	-5.938000E+00	  0.061482966	-1.264630E+02	  0.061482966	2.009100E+01	  0.061482966	-2.188600E+01
209	  0.061683368	-5.936000E+00	  0.061683368	-1.276300E+02	  0.061683368	1.990800E+01	  0.061683368	-2.136500E+01
210	  0.061883770	-5.934000E+00	  0.061883770	-1.287790E+02	  0.061883770	1.973300E+01	  0.061883770	-2.085500E+01
211	  0.062084168	-5.930000E+00	  0.062084168	-1.299280E+02	  0.062084168	1.955900E+01	  0.062084168	-2.035000E+01
212	  0.062284570	-5.926000E+00	  0.062284570	-1.310830E+02	  0.062284570	1.939100E+01	  0.062284570	-1.984400E+01
213	  0.062484972	-5.916000E+00	  0.062484972	-1.321670E+02	  0.062484972	1.921700E+01	  0.062484972	-1.937800E+01
214	  0.062685370	-5.919000E+00	  0.062685370	-1.333150E+02	  0.062685370	1.908000E+01	  0.062685370	-1.887500E+01
215	  0.062885776	-5.923000E+00	  0.062885776	-1.344590E+02	  0.062885776	1.895000E+01	  0.062885776	-1.837500E+01
216	  0.063086174	-5.920000E+00	  0.063086174	-1.356100E+02	  0.063086174	1.880300E+01	  0.063086174	-1.788100E+01
217	  0.063286573	-5.923000E+00	  0.063286573	-1.367680E+02	  0.063286573	1.867900E+01	  0.063286573	-1.738200E+01
218	  0.063486971	-5.922000E+00	  0.063486971	-1.379150E+02	  0.063486971	1.854900E+01	  0.063486971	-1.689200E+01
219	  0.063687377	-5.924000E+00	  0.063687377	-1.390700E+02	  0.063687377	1.843100E+01	  0.063687377	-1.640000E+01
220	  0.063887775	-5.919000E+00	  0.063887775	-1.401980E+02	  0.063887775	1.829900E+01	  0.063887775	-1.592600E+01
221	  0.064088173	-5.916000E+00	  0.064088173	-1.413290E+02	  0.064088173	1.817700E+01	  0.064088173	-1.545200E+01
222	  0.064288579	-5.916000E+00	  0.064288579	-1.424260E+02	  0.064288579	1.807200E+01	  0.064288579	-1.499200E+01
223	  0.064488977	-5.915000E+00	  0.064488977	-1.435400E+02	  0.064488977	1.796500E+01	  0.064488977	-1.452700E+01
224	  0.064689375	-5.915000E+00	  0.064689375	-1.446290E+02	  0.064689375	1.786900E+01	  0.064689375	-1.407400E+01
225	  0.064889781	-5.914000E+00	  0.064889781	-1.457310E+02	  0.064889781	1.777200E+01	  0.064889781	-1.361700E+01
226	  0.065090179	-5.914000E+00	  0.065090179	-1.467580E+02	  0.065090179	1.768500E+01	  0.065090179	-1.319400E+01
227	  0.065290578	-5.914000E+00	  0.065290578	-1.478550E+02	  0.065290578	1.759800E+01	  0.065290578	-1.274200E+01
228	  0.065490983	-5.920000E+00	  0.065490983	-1.488910E+02	  0.065490983	1.753300E+01	  0.065490983	-1.231500E+01
229	  0.065691382	-5.919000E+00	  0.065691382	-1.499910E+02	  0.065691382	1.745000E+01	  0.065691382	-1.186600E+01
230	  0.065891780	-5.921000E+00	  0.065891780	-1.510120E+02	  0.065891780	1.738400E+01	  0.065891780	-1.144900E+01
231	  0.066092186	-5.927000E+00	  0.066092186	-1.520630E+02	  0.066092186	1.732900E+01	  0.066092186	-1.102000E+01
232	  0.066292584	-5.929000E+00	  0.066292584	-1.531040E+02	  0.066292584	1.726700E+01	  0.066292584	-1.059800E+01
233	  0.066492982	-5.932000E+00	  0.066492982	-1.541470E+02	  0.066492982	1.720800E+01	  0.066492982	-1.017600E+01
234	  0.066693388	-5.937000E+00	  0.066693388	-1.551690E+02	  0.066693388	1.715900E+01	  0.066693388	-9.764000E+00
235	  0.066893786	-5.939000E+00	  0.066893786	-1.561870E+02	  0.066893786	1.710800E+01	  0.066893786	-9.354000E+00
236	  0.067094192	-5.942000E+00	  0.067094192	-1.571930E+02	  0.067094192	1.706000E+01	  0.067094192	-8.951000E+00
237	  0.067294590	-5.946000E+00	  0.067294590	-1.582030E+02	  0.067294590	1.701900E+01	  0.067294590	-8.547000E+00
238	  0.067494988	-5.951000E+00	  0.067494988	-1.592240E+02	  0.067494988	1.698200E+01	  0.067494988	-8.139000E+00
239	  0.067695394	-5.956000E+00	  0.067695394	-1.602470E+02	  0.067695394	1.694700E+01	  0.067695394	-7.731000E+00
240	  0.067895792	-5.959000E+00	  0.067895792	-1.612160E+02	  0.067895792	1.691000E+01	  0.067895792	-7.346000E+00
241	  0.068096191	-5.968000E+00	  0.068096191	-1.622110E+02	  0.068096191	1.689200E+01	  0.068096191	-6.950000E+00
242	  0.068296596	-5.970000E+00	  0.068296596	-1.631560E+02	  0.068296596	1.686100E+01	  0.068296596	-6.576000E+00
243	  0.068496995	-5.970000E+00	  0.068496995	-1.641600E+02	  0.068496995	1.682300E+01	  0.068496995	-6.181000E+00
244	  0.068697393	-5.978000E+00	  0.068697393	-1.651060E+02	  0.068697393	1.680900E+01	  0.068697393	-5.807000E+00
245	  0.068897791	-5.981000E+00	  0.068897791	-1.660820E+02	  0.068897791	1.678600E+01	  0.068897791	-5.423000E+00
246	  0.069098189	-5.984000E+00	  0.069098189	-1.670160E+02	  0.069098189	1.676500E+01	  0.069098189	-5.056000E+00
247	  0.069298595	-5.985000E+00	  0.069298595	-1.679450E+02	  0.069298595	1.674100E+01	  0.069298595	-4.693000E+00
248	  0.069498993	-5.991000E+00	  0.069498993	-1.688850E+02	  0.069498993	1.673100E+01	  0.069498993	-4.324000E+00
249	  0.069699399	-5.998000E+00	  0.069699399	-1.698240E+02	  0.069699399	1.672700E+01	  0.069699399	-3.956000E+00
250	  0.069899797	-6.001000E+00	  0.069899797	-1.707700E+02	  0.069899797	1.671400E+01	  0.069899797	-3.587000E+00
251	  0.070100196	-6.006000E+00	  0.070100196	-1.716700E+02	  0.070100196	1.670800E+01	  0.070100196	-3.236000E+00
252	  0.070300601	-6.005000E+00	  0.070300601	-1.726070E+02	  0.070300601	1.668900E+01	  0.070300601	-2.871000E+00
253	  0.070501000	-6.007000E+00	  0.070501000	-1.735230E+02	  0.070501000	1.668000E+01	  0.070501000	-2.514000E+00
254	  0.070701398	-6.011000E+00	  0.070701398	-1.744530E+02	  0.070701398	1.667700E+01	  0.070701398	-2.153000E+00
255	  0.070901804	-6.013000E+00	  0.070901804	-1.753650E+02	  0.070901804	1.667200E+01	  0.070901804	-1.798000E+00
256	  0.071102202	-6.012000E+00	  0.071102202	-1.762820E+02	  0.071102202	1.666100E+01	  0.071102202	-1.442000E+00
257	  0.071302600	-6.014000E+00	  0.071302600	-1.772000E+02	  0.071302600	1.666100E+01	  0.071302600	-1.086000E+00
258	  0.071503006	-6.021000E+00	  0.071503006	-1.781060E+02	  0.071503006	1.667100E+01	  0.071503006	-7.340000E-01
259	  0.071703404	-6.019000E+00	  0.071703404	-1.789990E+02	  0.071703404	1.666500E+01	  0.071703404	-3.870000E-01
260	  0.071903802	-6.022000E+00	  0.071903802	-1.798950E+02	  0.071903802	1.667000E+01	  0.071903802	-4.000000E-02
261	  0.072104208	-6.022000E+00	  0.072104208	1.792060E+02	  0.072104208	1.667200E+01	  0.072104208	3.070000E-01
262	  0.072304606	-6.023000E+00	  0.072304606	1.783060E+02	  0.072304606	1.667800E+01	  0.072304606	6.560000E-01
263	  0.072505005	-6.026000E+00	  0.072505005	1.774070E+02	  0.072505005	1.668800E+01	  0.072505005	1.005000E+00
264	  0.072705410	-6.031000E+00	  0.072705410	1.764960E+02	  0.072705410	1.670800E+01	  0.072705410	1.358000E+00
265	  0.072905809	-6.031000E+00	  0.072905809	1.755930E+02	  0.072905809	1.671700E+01	  0.072905809	1.709000E+00
266	  0.073106214	-6.032000E+00	  0.073106214	1.747140E+02	  0.073106214	1.672900E+01	  0.073106214	2.050000E+00
267	  0.073306613	-6.037000E+00	  0.073306613	1.738100E+02	  0.073306613	1.675400E+01	  0.073306613	2.400000E+00
268	  0.073507011	-6.040000E+00	  0.073507011	1.729450E+02	  0.073507011	1.677200E+01	  0.073507011	2.736000E+00
269	  0.073707417	-6.042000E+00	  0.073707417	1.720460E+02	  0.073707417	1.679300E+01	  0.073707417	3.085000E+00
270	  0.073907815	-6.040000E+00	  0.073907815	1.711660E+02	  0.073907815	1.680700E+01	  0.073907815	3.427000E+00
271	  0.074108213	-6.050000E+00	  0.074108213	1.702720E+02	  0.074108213	1.685100E+01	  0.074108213	3.774000E+00
272	  0.074308619	-6.050000E+00	  0.074308619	1.694030E+02	  0.074308619	1.687100E+01	  0.074308619	4.112000E+00
273	  0.074509017	-6.057000E+00	  0.074509017	1.684950E+02	  0.074509017	1.691100E+01	  0.074509017	4.465000E+00
274	  0.074709415	-6.063000E+00	  0.074709415	1.676130E+02	  0.074709415	1.695000E+01	  0.074709415	4.808000E+00
275	  0.074909821	-6.068000E+00	  0.074909821	1.667140E+02	  0.074909821	1.699000E+01	  0.074909821	5.158000E+00
276	  0.075110219	-6.073000E+00	  0.075110219	1.659080E+02	  0.075110219	1.702800E+01	  0.075110219	5.472000E+00
277	  0.075310618	-6.077000E+00	  0.075310618	1.650060E+02	  0.075310618	1.706800E+01	  0.075310618	5.824000E+00
278	  0.075511023	-6.085000E+00	  0.075511023	1.641720E+02	  0.075511023	1.712000E+01	  0.075511023	6.149000E+00
279	  0.075711422	-6.090000E+00	  0.075711422	1.633330E+02	  0.075711422	1.716500E+01	  0.075711422	6.476000E+00
280	  0.075911827	-6.100000E+00	  0.075911827	1.624560E+02	  0.075911827	1.722500E+01	  0.075911827	6.818000E+00
281	  0.076112226	-6.108000E+00	  0.076112226	1.615880E+02	  0.076112226	1.728200E+01	  0.076112226	7.157000E+00
282	  0.076312624	-6.113000E+00	  0.076312624	1.607240E+02	  0.076312624	1.733300E+01	  0.076312624	7.495000E+00
283	  0.076513030	-6.124000E+00	  0.076513030	1.598590E+02	  0.076513030	1.740200E+01	  0.076513030	7.833000E+00
284	  0.076713428	-6.130000E+00	  0.076713428	1.590040E+02	  0.076713428	1.745900E+01	  0.076713428	8.168000E+00
285	  0.076913826	-6.138000E+00	  0.076913826	1.581210E+02	  0.076913826	1.752700E+01	  0.076913826	8.514000E+00
286	  0.077114232	-6.145000E+00	  0.077114232	1.573100E+02	  0.077114232	1.758700E+01	  0.077114232	8.832000E+00
287	  0.077314630	-6.154000E+00	  0.077314630	1.564950E+02	  0.077314630	1.765600E+01	  0.077314630	9.152000E+00
288	  0.077515028	-6.162000E+00	  0.077515028	1.556330E+02	  0.077515028	1.772600E+01	  0.077515028	9.491000E+00
289	  0.077715434	-6.168000E+00	  0.077715434	1.548260E+02	  0.077715434	1.778900E+01	  0.077715434	9.810000E+00
290	  0.077915832	-6.180000E+00	  0.077915832	1.539920E+02	  0.077915832	1.787400E+01	  0.077915832	1.013700E+01
291	  0.078116231	-6.191000E+00	  0.078116231	1.531800E+02	  0.078116231	1.795400E+01	  0.078116231	1.045600E+01
292	  0.078316636	-6.201000E+00	  0.078316636	1.523550E+02	  0.078316636	1.803600E+01	  0.078316636	1.078100E+01
293	  0.078517035	-6.215000E+00	  0.078517035	1.515210E+02	  0.078517035	1.813000E+01	  0.078517035	1.110800E+01
294	  0.078717433	-6.225000E+00	  0.078717433	1.507110E+02	  0.078717433	1.821500E+01	  0.078717433	1.142800E+01
295	  0.078917839	-6.241000E+00	  0.078917839	1.498920E+02	  0.078917839	1.831800E+01	  0.078917839	1.174900E+01
296	  0.079118237	-6.257000E+00	  0.079118237	1.491110E+02	  0.079118237	1.842000E+01	  0.079118237	1.205600E+01
297	  0.079318643	-6.265000E+00	  0.079318643	1.483050E+02	  0.079318643	1.850400E+01	  0.079318643	1.237600E+01
298	  0.079519041	-6.281000E+00	  0.079519041	1.474840E+02	  0.079519041	1.861400E+01	  0.079519041	1.269900E+01
299	  0.079719439	-6.295000E+00	  0.079719439	1.466940E+02	  0.079719439	1.871700E+01	  0.079719439	1.301100E+01
300	  0.079919845	-6.309000E+00	  0.079919845	1.458920E+02	  0.079919845	1.882400E+01	  0.079919845	1.332700E+01
301	  0.080120243	-6.323000E+00	  0.080120243	1.450860E+02	  0.080120243	1.893300E+01	  0.080120243	1.364700E+01
302	  0.080320641	-6.336000E+00	  0.080320641	1.442700E+02	  0.080320641	1.904300E+01	  0.080320641	1.397100E+01
303	  0.080521047	-6.350000E+00	  0.080521047	1.434850E+02	  0.080521047	1.915500E+01	  0.080521047	1.428100E+01
304	  0.080721445	-6.365000E+00	  0.080721445	1.427060E+02	  0.080721445	1.926900E+01	  0.080721445	1.459000E+01
305	  0.080921844	-6.380000E+00	  0.080921844	1.419230E+02	  0.080921844	1.938800E+01	  0.080921844	1.490100E+01
306	  0.081122249	-6.394000E+00	  0.081122249	1.411200E+02	  0.081122249	1.951000E+01	  0.081122249	1.522000E+01
307	  0.081322648	-6.410000E+00	  0.081322648	1.403480E+02	  0.081322648	1.963200E+01	  0.081322648	1.552700E+01
308	  0.081523046	-6.426000E+00	  0.081523046	1.395680E+02	  0.081523046	1.975900E+01	  0.081523046	1.583600E+01
309	  0.081723452	-6.438000E+00	  0.081723452	1.388010E+02	  0.081723452	1.987700E+01	  0.081723452	1.614400E+01
310	  0.081923850	-6.455000E+00	  0.081923850	1.380270E+02	  0.081923850	2.001200E+01	  0.081923850	1.645100E+01
311	  0.082124248	-6.467000E+00	  0.082124248	1.373150E+02	  0.082124248	2.012800E+01	  0.082124248	1.673600E+01
312	  0.082324654	-6.486000E+00	  0.082324654	1.365510E+02	  0.082324654	2.027100E+01	  0.082324654	1.703800E+01
313	  0.082525052	-6.508000E+00	  0.082525052	1.358230E+02	  0.082525052	2.042100E+01	  0.082525052	1.732300E+01
314	  0.082725458	-6.525000E+00	  0.082725458	1.350870E+02	  0.082725458	2.055900E+01	  0.082725458	1.761500E+01
315	  0.082925856	-6.545000E+00	  0.082925856	1.343350E+02	  0.082925856	2.070800E+01	  0.082925856	1.791300E+01
316	  0.083126254	-6.565000E+00	  0.083126254	1.335680E+02	  0.083126254	2.086600E+01	  0.083126254	1.821500E+01
317	  0.083326660	-6.582000E+00	  0.083326660	1.328150E+02	  0.083326660	2.101400E+01	  0.083326660	1.851600E+01
318	  0.083527058	-6.602000E+00	  0.083527058	1.320540E+02	  0.083527058	2.117200E+01	  0.083527058	1.881700E+01
319	  0.083727457	-6.620000E+00	  0.083727457	1.313240E+02	  0.083727457	2.132500E+01	  0.083727457	1.910700E+01
320	  0.083927862	-6.638000E+00	  0.083927862	1.305830E+02	  0.083927862	2.148200E+01	  0.083927862	1.940200E+01
321	  0.084128261	-6.654000E+00	  0.084128261	1.298420E+02	  0.084128261	2.163500E+01	  0.084128261	1.970000E+01
322	  0.084328659	-6.671000E+00	  0.084328659	1.291220E+02	  0.084328659	2.179100E+01	  0.084328659	1.998700E+01
323	  0.084529065	-6.691000E+00	  0.084529065	1.284420E+02	  0.084529065	2.195300E+01	  0.084529065	2.025400E+01
324	  0.084729463	-6.709000E+00	  0.084729463	1.277210E+02	  0.084729463	2.211600E+01	  0.084729463	2.054100E+01
325	  0.084929861	-6.732000E+00	  0.084929861	1.270080E+02	  0.084929861	2.229500E+01	  0.084929861	2.082000E+01
326	  0.085130267	-6.751000E+00	  0.085130267	1.263040E+02	  0.085130267	2.246400E+01	  0.085130267	2.109900E+01
327	  0.085330658	-6.775000E+00	  0.085330658	1.255710E+02	  0.085330658	2.265200E+01	  0.085330658	2.138500E+01
328	  0.085531056	-6.797000E+00	  0.085531056	1.249190E+02	  0.085531056	2.282600E+01	  0.085531056	2.163900E+01
329	  0.085731462	-6.818000E+00	  0.085731462	1.242090E+02	  0.085731462	2.300900E+01	  0.085731462	2.191800E+01
330	  0.085931860	-6.840000E+00	  0.085931860	1.235230E+02	  0.085931860	2.319400E+01	  0.085931860	2.218600E+01
331	  0.086132258	-6.868000E+00	  0.086132258	1.228740E+02	  0.086132258	2.338900E+01	  0.086132258	2.243100E+01
332	  0.086332664	-6.891000E+00	  0.086332664	1.221780E+02	  0.086332664	2.358300E+01	  0.086332664	2.270100E+01
333	  0.086533062	-6.915000E+00	  0.086533062	1.214810E+02	  0.086533062	2.378400E+01	  0.086533062	2.297100E+01
334	  0.086733460	-6.938000E+00	  0.086733460	1.207890E+02	  0.086733460	2.398100E+01	  0.086733460	2.323900E+01
335	  0.086933866	-6.962000E+00	  0.086933866	1.200900E+02	  0.086933866	2.418700E+01	  0.086933866	2.350900E+01
336	  0.087134264	-6.987000E+00	  0.087134264	1.193740E+02	  0.087134264	2.440300E+01	  0.087134264	2.378400E+01
337	  0.087334670	-7.007000E+00	  0.087334670	1.186920E+02	  0.087334670	2.459800E+01	  0.087334670	2.405200E+01
338	  0.087535068	-7.035000E+00	  0.087535068	1.180020E+02	  0.087535068	2.482400E+01	  0.087535068	2.431000E+01
339	  0.087735467	-7.057000E+00	  0.087735467	1.173380E+02	  0.087735467	2.502500E+01	  0.087735467	2.456700E+01
340	  0.087935872	-7.080000E+00	  0.087935872	1.166840E+02	  0.087935872	2.523500E+01	  0.087935872	2.481600E+01
341	  0.088136271	-7.103000E+00	  0.088136271	1.160120E+02	  0.088136271	2.544700E+01	  0.088136271	2.507400E+01
342	  0.088336669	-7.125000E+00	  0.088336669	1.153560E+02	  0.088336669	2.565800E+01	  0.088336669	2.532600E+01
343	  0.088537075	-7.146000E+00	  0.088537075	1.146960E+02	  0.088537075	2.587100E+01	  0.088537075	2.558000E+01
344	  0.088737473	-7.169000E+00	  0.088737473	1.140380E+02	  0.088737473	2.608900E+01	  0.088737473	2.583000E+01
345	  0.088937871	-7.194000E+00	  0.088937871	1.133850E+02	  0.088937871	2.631600E+01	  0.088937871	2.607400E+01
346	  0.089138277	-7.218000E+00	  0.089138277	1.127670E+02	  0.089138277	2.653300E+01	  0.089138277	2.630400E+01
347	  0.089338675	-7.242000E+00	  0.089338675	1.121540E+02	  0.089338675	2.675400E+01	  0.089338675	2.653100E+01
348	  0.089539073	-7.268000E+00	  0.089539073	1.115180E+02	  0.089539073	2.698700E+01	  0.089539073	2.676500E+01
349	  0.089739479	-7.294000E+00	  0.089739479	1.108880E+02	  0.089739479	2.722000E+01	  0.089739479	2.699600E+01
350	  0.089939877	-7.321000E+00	  0.089939877	1.102440E+02	  0.089939877	2.746600E+01	  0.089939877	2.722800E+01
351	  0.090140276	-7.341000E+00	  0.090140276	1.096240E+02	  0.090140276	2.768400E+01	  0.090140276	2.746300E+01
352	  0.090340681	-7.369000E+00	  0.090340681	1.090020E+02	  0.090340681	2.793200E+01	  0.090340681	2.768300E+01
353	  0.090541080	-7.396000E+00	  0.090541080	1.083760E+02	  0.090541080	2.817800E+01	  0.090541080	2.790800E+01
354	  0.090741485	-7.420000E+00	  0.090741485	1.077200E+02	  0.090741485	2.843000E+01	  0.090741485	2.814700E+01
355	  0.090941884	-7.439000E+00	  0.090941884	1.071050E+02	  0.090941884	2.865700E+01	  0.090941884	2.837800E+01
356	  0.091142282	-7.469000E+00	  0.091142282	1.065260E+02	  0.091142282	2.891000E+01	  0.091142282	2.857200E+01
357	  0.091342688	-7.495000E+00	  0.091342688	1.059250E+02	  0.091342688	2.915700E+01	  0.091342688	2.878300E+01
358	  0.091543086	-7.521000E+00	  0.091543086	1.053350E+02	  0.091543086	2.940500E+01	  0.091543086	2.898800E+01
359	  0.091743484	-7.542000E+00	  0.091743484	1.047160E+02	  0.091743484	2.965200E+01	  0.091743484	2.921300E+01
360	  0.091943890	-7.567000E+00	  0.091943890	1.041480E+02	  0.091943890	2.989600E+01	  0.091943890	2.940800E+01
361	  0.092144288	-7.591000E+00	  0.092144288	1.035740E+02	  0.092144288	3.014100E+01	  0.092144288	2.960700E+01
362	  0.092344686	-7.616000E+00	  0.092344686	1.030100E+02	  0.092344686	3.039000E+01	  0.092344686	2.979700E+01
363	  0.092545092	-7.644000E+00	  0.092545092	1.024600E+02	  0.092545092	3.064300E+01	  0.092545092	2.997600E+01
364	  0.092745490	-7.673000E+00	  0.092745490	1.019250E+02	  0.092745490	3.089900E+01	  0.092745490	3.014300E+01
365	  0.092945889	-7.708000E+00	  0.092945889	1.013520E+02	  0.092945889	3.118400E+01	  0.092945889	3.031400E+01
366	  0.093146294	-7.739000E+00	  0.093146294	1.008090E+02	  0.093146294	3.145200E+01	  0.093146294	3.047600E+01
367	  0.093346693	-7.768000E+00	  0.093346693	1.002570E+02	  0.093346693	3.171900E+01	  0.093346693	3.064700E+01
368	  0.093547091	-7.797000E+00	  0.093547091	9.971000E+01	  0.093547091	3.198700E+01	  0.093547091	3.081300E+01
369	  0.093747497	-7.831000E+00	  0.093747497	9.917500E+01	  0.093747497	3.226700E+01	  0.093747497	3.096200E+01
370	  0.093947895	-7.861000E+00	  0.093947895	9.861700E+01	  0.093947895	3.254700E+01	  0.093947895	3.112700E+01
371	  0.094148301	-7.893000E+00	  0.094148301	9.808600E+01	  0.094148301	3.282400E+01	  0.094148301	3.127600E+01
372	  0.094348699	-7.921000E+00	  0.094348699	9.756700E+01	  0.094348699	3.309000E+01	  0.094348699	3.142500E+01
373	  0.094549097	-7.956000E+00	  0.094549097	9.705000E+01	  0.094549097	3.337300E+01	  0.094549097	3.155700E+01
374	  0.094749503	-7.986000E+00	  0.094749503	9.657100E+01	  0.094749503	3.363200E+01	  0.094749503	3.168200E+01
375	  0.094949901	-8.011000E+00	  0.094949901	9.604900E+01	  0.094949901	3.389800E+01	  0.094949901	3.183500E+01
376	  0.095150299	-8.042000E+00	  0.095150299	9.556700E+01	  0.095150299	3.416300E+01	  0.095150299	3.195800E+01
377	  0.095350705	-8.071000E+00	  0.095350705	9.506400E+01	  0.095350705	3.443400E+01	  0.095350705	3.209100E+01
378	  0.095551103	-8.099000E+00	  0.095551103	9.456200E+01	  0.095551103	3.470400E+01	  0.095551103	3.222400E+01
379	  0.095751502	-8.126000E+00	  0.095751502	9.410300E+01	  0.095751502	3.495700E+01	  0.095751502	3.234000E+01
380	  0.095951907	-8.152000E+00	  0.095951907	9.362700E+01	  0.095951907	3.521500E+01	  0.095951907	3.246500E+01
381	  0.096152306	-8.179000E+00	  0.096152306	9.318500E+01	  0.096152306	3.546400E+01	  0.096152306	3.257200E+01
382	  0.096352704	-8.210000E+00	  0.096352704	9.268800E+01	  0.096352704	3.575000E+01	  0.096352704	3.268600E+01
383	  0.096553110	-8.230000E+00	  0.096553110	9.220300E+01	  0.096553110	3.600200E+01	  0.096553110	3.282600E+01
384	  0.096753508	-8.261000E+00	  0.096753508	9.178700E+01	  0.096753508	3.625400E+01	  0.096753508	3.290700E+01
385	  0.096953906	-8.282000E+00	  0.096953906	9.133300E+01	  0.096953906	3.649800E+01	  0.096953906	3.303000E+01
386	  0.097154312	-8.304000E+00	  0.097154312	9.086200E+01	  0.097154312	3.675600E+01	  0.097154312	3.315200E+01
387	  0.097354710	-8.331000E+00	  0.097354710	9.041200E+01	  0.097354710	3.701800E+01	  0.097354710	3.325100E+01
388	  0.097555116	-8.353000E+00	  0.097555116	8.998500E+01	  0.097555116	3.725900E+01	  0.097555116	3.335500E+01
389	  0.097755514	-8.379000E+00	  0.097755514	8.954500E+01	  0.097755514	3.751700E+01	  0.097755514	3.345100E+01
390	  0.097955912	-8.399000E+00	  0.097955912	8.913800E+01	  0.097955912	3.774700E+01	  0.097955912	3.355000E+01
391	  0.098156318	-8.416000E+00	  0.098156318	8.872300E+01	  0.098156318	3.797300E+01	  0.098156318	3.365900E+01
392	  0.098356716	-8.435000E+00	  0.098356716	8.827200E+01	  0.098356716	3.822300E+01	  0.098356716	3.377600E+01
393	  0.098557115	-8.450000E+00	  0.098557115	8.787400E+01	  0.098557115	3.844000E+01	  0.098557115	3.388200E+01
394	  0.098757520	-8.463000E+00	  0.098757520	8.745900E+01	  0.098757520	3.866300E+01	  0.098757520	3.399900E+01
395	  0.098957919	-8.481000E+00	  0.098957919	8.701800E+01	  0.098957919	3.891100E+01	  0.098957919	3.411000E+01
396	  0.099158317	-8.495000E+00	  0.099158317	8.661900E+01	  0.099158317	3.913200E+01	  0.099158317	3.421600E+01
397	  0.099358723	-8.509000E+00	  0.099358723	8.624100E+01	  0.099358723	3.934400E+01	  0.099358723	3.431300E+01
398	  0.099559121	-8.524000E+00	  0.099559121	8.584800E+01	  0.099559121	3.956700E+01	  0.099559121	3.441200E+01
399	  0.099759519	-8.537000E+00	  0.099759519	8.546000E+01	  0.099759519	3.978300E+01	  0.099759519	3.451400E+01
400	  0.099959925	-8.547000E+00	  0.099959925	8.508400E+01	  0.099959925	3.998900E+01	  0.099959925	3.462000E+01
401	  0.100160323	-8.563000E+00	  0.100160323	8.462500E+01	  0.100160323	4.025000E+01	  0.100160323	3.473700E+01
402	  0.100360721	-8.572000E+00	  0.100360721	8.431500E+01	  0.100360721	4.042300E+01	  0.100360721	3.482200E+01
403	  0.100561127	-8.579000E+00	  0.100561127	8.382300E+01	  0.100561127	4.068200E+01	  0.100561127	3.497800E+01
404	  0.100761525	-8.596000E+00	  0.100761525	8.341000E+01	  0.100761525	4.092900E+01	  0.100761525	3.506900E+01
405	  0.100961931	-8.604000E+00	  0.100961931	8.303900E+01	  0.100961931	4.113500E+01	  0.100961931	3.517400E+01
406	  0.101162329	-8.609000E+00	  0.101162329	8.267300E+01	  0.101162329	4.133300E+01	  0.101162329	3.528900E+01
407	  0.101362728	-8.616000E+00	  0.101362728	8.226100E+01	  0.101362728	4.155900E+01	  0.101362728	3.541100E+01
408	  0.101563133	-8.628000E+00	  0.101563133	8.184400E+01	  0.101563133	4.180100E+01	  0.101563133	3.551900E+01
409	  0.101763532	-8.638000E+00	  0.101763532	8.146500E+01	  0.101763532	4.202100E+01	  0.101763532	3.561700E+01
410	  0.101963930	-8.642000E+00	  0.101963930	8.108500E+01	  0.101963930	4.223100E+01	  0.101963930	3.573600E+01
411	  0.102164336	-8.658000E+00	  0.102164336	8.059300E+01	  0.102164336	4.252700E+01	  0.102164336	3.585100E+01
412	  0.102364734	-8.652000E+00	  0.102364734	8.015600E+01	  0.102364734	4.274700E+01	  0.102364734	3.602300E+01
413	  0.102565132	-8.650000E+00	  0.102565132	7.970300E+01	  0.102565132	4.298800E+01	  0.102565132	3.618500E+01
414	  0.102765530	-8.662000E+00	  0.102765530	7.934600E+01	  0.102765530	4.321000E+01	  0.102765530	3.626300E+01
415	  0.102965929	-8.660000E+00	  0.102965929	7.893100E+01	  0.102965929	4.343300E+01	  0.102965929	3.641200E+01
416	  0.103166327	-8.666000E+00	  0.103166327	7.850800E+01	  0.103166327	4.368100E+01	  0.103166327	3.653200E+01
417	  0.103366733	-8.669000E+00	  0.103366733	7.807600E+01	  0.103366733	4.392900E+01	  0.103366733	3.666600E+01
418	  0.103567131	-8.665000E+00	  0.103567131	7.766000E+01	  0.103567131	4.415600E+01	  0.103567131	3.681900E+01
419	  0.103767529	-8.670000E+00	  0.103767529	7.714800E+01	  0.103767529	4.446000E+01	  0.103767529	3.696900E+01
420	  0.103967935	-8.674000E+00	  0.103967935	7.674200E+01	  0.103967935	4.470100E+01	  0.103967935	3.708800E+01
421	  0.104168333	-8.678000E+00	  0.104168333	7.635600E+01	  0.104168333	4.493400E+01	  0.104168333	3.719900E+01
422	  0.104368731	-8.680000E+00	  0.104368731	7.589100E+01	  0.104368731	4.521200E+01	  0.104368731	3.734100E+01
423	  0.104569137	-8.686000E+00	  0.104569137	7.542900E+01	  0.104569137	4.549800E+01	  0.104569137	3.746700E+01
424	  0.104769535	-8.685000E+00	  0.104769535	7.497100E+01	  0.104769535	4.577000E+01	  0.104769535	3.761500E+01
425	  0.104969934	-8.684000E+00	  0.104969934	7.451100E+01	  0.104969934	4.604600E+01	  0.104969934	3.776600E+01
426	  0.105170339	-8.691000E+00	  0.105170339	7.401600E+01	  0.105170339	4.636200E+01	  0.105170339	3.789400E+01
427	  0.105370738	-8.691000E+00	  0.105370738	7.357700E+01	  0.105370738	4.663300E+01	  0.105370738	3.802700E+01
428	  0.105571143	-8.680000E+00	  0.105571143	7.306800E+01	  0.105571143	4.692800E+01	  0.105571143	3.822900E+01
429	  0.105771542	-8.691000E+00	  0.105771542	7.260900E+01	  0.105771542	4.723700E+01	  0.105771542	3.832600E+01
430	  0.105971940	-8.687000E+00	  0.105971940	7.217500E+01	  0.105971940	4.750500E+01	  0.105971940	3.847400E+01
431	  0.106172346	-8.692000E+00	  0.106172346	7.168100E+01	  0.106172346	4.783300E+01	  0.106172346	3.859900E+01
432	  0.106372744	-8.689000E+00	  0.106372744	7.122700E+01	  0.106372744	4.812000E+01	  0.106372744	3.874800E+01
433	  0.106573142	-8.698000E+00	  0.106573142	7.072600E+01	  0.106573142	4.846600E+01	  0.106573142	3.885400E+01
434	  0.106773548	-8.696000E+00	  0.106773548	7.023700E+01	  0.106773548	4.878500E+01	  0.106773548	3.900500E+01
435	  0.106973946	-8.692000E+00	  0.106973946	6.977500E+01	  0.106973946	4.908500E+01	  0.106973946	3.915400E+01
436	  0.107174344	-8.690000E+00	  0.107174344	6.931200E+01	  0.107174344	4.939400E+01	  0.107174344	3.929400E+01
437	  0.107374750	-8.692000E+00	  0.107374750	6.877500E+01	  0.107374750	4.976300E+01	  0.107374750	3.943300E+01
438	  0.107575148	-8.699000E+00	  0.107575148	6.832200E+01	  0.107575148	5.008700E+01	  0.107575148	3.952500E+01
439	  0.107775547	-8.691000E+00	  0.107775547	6.780600E+01	  0.107775547	5.043200E+01	  0.107775547	3.970200E+01
440	  0.107975952	-8.693000E+00	  0.107975952	6.735100E+01	  0.107975952	5.075500E+01	  0.107975952	3.981100E+01
441	  0.108176351	-8.701000E+00	  0.108176351	6.677800E+01	  0.108176351	5.117500E+01	  0.108176351	3.992500E+01
442	  0.108376749	-8.698000E+00	  0.108376749	6.629500E+01	  0.108376749	5.151700E+01	  0.108376749	4.006000E+01
443	  0.108577155	-8.687000E+00	  0.108577155	6.576600E+01	  0.108577155	5.188100E+01	  0.108577155	4.024900E+01
444	  0.108777553	-8.682000E+00	  0.108777553	6.525800E+01	  0.108777553	5.224500E+01	  0.108777553	4.039700E+01
445	  0.108977959	-8.676000E+00	  0.108977959	6.468200E+01	  0.108977959	5.266300E+01	  0.108977959	4.056400E+01
446	  0.109178357	-8.679000E+00	  0.109178357	6.413400E+01	  0.109178357	5.307900E+01	  0.109178357	4.067800E+01
447	  0.109378755	-8.675000E+00	  0.109378755	6.359400E+01	  0.109378755	5.348100E+01	  0.109378755	4.082600E+01
448	  0.109579161	-8.665000E+00	  0.109579161	6.308000E+01	  0.109579161	5.386000E+01	  0.109579161	4.099300E+01
449	  0.109779559	-8.666000E+00	  0.109779559	6.251000E+01	  0.109779559	5.430400E+01	  0.109779559	4.111100E+01
450	  0.109979957	-8.653000E+00	  0.109979957	6.195100E+01	  0.109979957	5.472400E+01	  0.109979957	4.129900E+01
451	  0.110180363	-8.655000E+00	  0.110180363	6.132500E+01	  0.110180363	5.522400E+01	  0.110180363	4.141600E+01
452	  0.110380761	-8.648000E+00	  0.110380761	6.079900E+01	  0.110380761	5.563600E+01	  0.110380761	4.156200E+01
453	  0.110581160	-8.642000E+00	  0.110581160	6.016700E+01	  0.110581160	5.614300E+01	  0.110581160	4.171500E+01
454	  0.110781565	-8.630000E+00	  0.110781565	5.955300E+01	  0.110781565	5.663300E+01	  0.110781565	4.189200E+01
455	  0.110981964	-8.630000E+00	  0.110981964	5.891300E+01	  0.110981964	5.716700E+01	  0.110981964	4.200600E+01
456	  0.111182362	-8.619000E+00	  0.111182362	5.836100E+01	  0.111182362	5.761900E+01	  0.111182362	4.216400E+01
457	  0.111382768	-8.621000E+00	  0.111382768	5.772500E+01	  0.111382768	5.816400E+01	  0.111382768	4.225700E+01
458	  0.111583166	-8.624000E+00	  0.111583166	5.713100E+01	  0.111583166	5.868000E+01	  0.111583166	4.233000E+01
459	  0.111783572	-8.614000E+00	  0.111783572	5.648000E+01	  0.111783572	5.923800E+01	  0.111783572	4.248200E+01
460	  0.111983970	-8.611000E+00	  0.111983970	5.580300E+01	  0.111983970	5.983400E+01	  0.111983970	4.258700E+01
461	  0.112184368	-8.607000E+00	  0.112184368	5.517500E+01	  0.112184368	6.039200E+01	  0.112184368	4.268900E+01
462	  0.112384774	-8.609000E+00	  0.112384774	5.452800E+01	  0.112384774	6.097900E+01	  0.112384774	4.275200E+01
463	  0.112585172	-8.610000E+00	  0.112585172	5.379200E+01	  0.112585172	6.165400E+01	  0.112585172	4.282000E+01
464	  0.112785570	-8.606000E+00	  0.112785570	5.316200E+01	  0.112785570	6.223600E+01	  0.112785570	4.289800E+01
465	  0.112985976	-8.602000E+00	  0.112985976	5.245400E+01	  0.112985976	6.289700E+01	  0.112985976	4.297500E+01
466	  0.113186374	-8.605000E+00	  0.113186374	5.177200E+01	  0.113186374	6.354600E+01	  0.113186374	4.299800E+01
467	  0.113386773	-8.612000E+00	  0.113386773	5.108100E+01	  0.113386773	6.421100E+01	  0.113386773	4.298700E+01
468	  0.113587178	-8.618000E+00	  0.113587178	5.034100E+01	  0.113587178	6.492900E+01	  0.113587178	4.297200E+01
469	  0.113787577	-8.626000E+00	  0.113787577	4.964900E+01	  0.113787577	6.560600E+01	  0.113787577	4.293100E+01
470	  0.113987975	-8.628000E+00	  0.113987975	4.885000E+01	  0.113987975	6.639600E+01	  0.113987975	4.291100E+01
471	  0.114188381	-8.639000E+00	  0.114188381	4.816800E+01	  0.114188381	6.707600E+01	  0.114188381	4.283000E+01
472	  0.114388779	-8.642000E+00	  0.114388779	4.740800E+01	  0.114388779	6.784200E+01	  0.114388779	4.277900E+01
473	  0.114589177	-8.649000E+00	  0.114589177	4.664900E+01	  0.114589177	6.861100E+01	  0.114589177	4.268500E+01
474	  0.114789583	-8.663000E+00	  0.114789583	4.588000E+01	  0.114789583	6.939300E+01	  0.114789583	4.253700E+01
475	  0.114989981	-8.677000E+00	  0.114989981	4.511100E+01	  0.114989981	7.018000E+01	  0.114989981	4.236400E+01
476	  0.115190387	-8.694000E+00	  0.115190387	4.427700E+01	  0.115190387	7.103500E+01	  0.115190387	4.214500E+01
477	  0.115390785	-8.712000E+00	  0.115390785	4.344900E+01	  0.115390785	7.188500E+01	  0.115390785	4.189600E+01
478	  0.115591183	-8.734000E+00	  0.115591183	4.260100E+01	  0.115591183	7.275400E+01	  0.115591183	4.160000E+01
479	  0.115791589	-8.745000E+00	  0.115791589	4.174400E+01	  0.115791589	7.364800E+01	  0.115791589	4.135400E+01
480	  0.115991987	-8.767000E+00	  0.115991987	4.092200E+01	  0.115991987	7.449100E+01	  0.115991987	4.101400E+01
481	  0.116192386	-8.790000E+00	  0.116192386	4.006100E+01	  0.116192386	7.537200E+01	  0.116192386	4.063500E+01
482	  0.116392791	-8.809000E+00	  0.116392791	3.917300E+01	  0.116392791	7.628700E+01	  0.116392791	4.025100E+01
483	  0.116593190	-8.834000E+00	  0.116593190	3.823500E+01	  0.116593190	7.724200E+01	  0.116593190	3.978100E+01
484	  0.116793588	-8.871000E+00	  0.116793588	3.735600E+01	  0.116793588	7.809800E+01	  0.116793588	3.921500E+01
485	  0.116993994	-8.892000E+00	  0.116993994	3.634900E+01	  0.116993994	7.912200E+01	  0.116993994	3.868700E+01
486	  0.117194392	-8.928000E+00	  0.117194392	3.543200E+01	  0.117194392	8.000100E+01	  0.117194392	3.805400E+01
487	  0.117394790	-8.962000E+00	  0.117394790	3.449400E+01	  0.117394790	8.089500E+01	  0.117394790	3.740000E+01
488	  0.117595196	-8.994000E+00	  0.117595196	3.353400E+01	  0.117595196	8.180500E+01	  0.117595196	3.671800E+01
489	  0.117795594	-9.032000E+00	  0.117795594	3.250800E+01	  0.117795594	8.274500E+01	  0.117795594	3.592600E+01
490	  0.117995992	-9.081000E+00	  0.117995992	3.156900E+01	  0.117995992	8.353400E+01	  0.117995992	3.507600E+01
491	  0.118196398	-9.125000E+00	  0.118196398	3.055200E+01	  0.118196398	8.439700E+01	  0.118196398	3.418600E+01
492	  0.118396796	-9.168000E+00	  0.118396796	2.951600E+01	  0.118396796	8.525800E+01	  0.118396796	3.326600E+01
493	  0.118597202	-9.217000E+00	  0.118597202	2.844100E+01	  0.118597202	8.609700E+01	  0.118597202	3.223700E+01
494	  0.118797600	-9.274000E+00	  0.118797600	2.738700E+01	  0.118797600	8.684500E+01	  0.118797600	3.114800E+01
495	  0.118997999	-9.331000E+00	  0.118997999	2.631800E+01	  0.118997999	8.756900E+01	  0.118997999	3.002200E+01
496	  0.119198404	-9.393000E+00	  0.119198404	2.521600E+01	  0.119198404	8.825100E+01	  0.119198404	2.881300E+01
497	  0.119398803	-9.451000E+00	  0.119398803	2.408900E+01	  0.119398803	8.893100E+01	  0.119398803	2.758400E+01
498	  0.119599201	-9.527000E+00	  0.119599201	2.300200E+01	  0.119599201	8.942400E+01	  0.119599201	2.626300E+01
499	  0.119799607	-9.596000E+00	  0.119799607	2.187800E+01	  0.119799607	8.993800E+01	  0.119799607	2.494100E+01
500	  0.120000005	-9.678000E+00	  0.120000005	2.073400E+01	  0.120000005	9.033600E+01	  0.120000005	2.352400E+01
