! Anritsu VNA Master:             	Model: MS2036C/10/77
! SN:             	1601066
! /bd0/18may8/255.ns.m5.txt
! Existing Calibration Information:
! TYPE:             	Current Settings	Active Cal Settings
! TIME:             	05/08/2018 11:09:38 AM	05/08/2018 10:55:57 AM
! INTERNAL TEMP:    	51.0 C	49.3 C
! # POINTS:         	500	500
! START FREQ:       	20.000 MHz	20.000 MHz
! STOP FREQ:        	120.000 MHz	120.000 MHz
! SOURCE POWER:     	High	High
! IFBW:             	50 Hz	50 Hz
! AVG FACTOR:       	  1 	  1 
! REF PLANE 1:      	0 mm	0 mm
! REF PLANE 2:      	0 mm	0 mm
! CAL TYPE:         	Full S11	Full S11
! CAL METHOD:       	SOLT	SOLT
! CAL LINE TYPE:    	Coax	Coax
! DUT PORT 1:       	K-Conn(F)	K-Conn(F)
! DUT PORT 2:       	K-Conn(F)	K-Conn(F)
! CAL STATUS:       	OK: Accuracy High	--
! PROP-V:       	0.700
! CABLE LOSS:       	0.000 dB/m
! REF IMPEDANCE:       	50.0
! Trace Specific Parameters:	TR1	TR2	TR3	TR4
! TRACE.#.Y (GRAPH TYPE)	LOG MAG	PHASE	REAL IMPEDANCE	IMAGINARY IMPEDANCE
! TRACE.#.X 	FREQ.GHZ	FREQ.GHZ	FREQ.GHZ	FREQ.GHZ
! S-PARAMETER	S11	S11	S11	S11
! SMOOTH/APERTURE %	0	0	0	0
! WINDOW	NSL	NSL	NSL	NSL
! GATING	OFF	OFF	OFF	OFF
! FGTD	OFF	OFF	OFF	OFF
Marker Information per Trace:	TR1	TR2	TR3	TR4
!MK1	--	"MK1 TR2:  20.000 MHz,PH:-124.18°"	--	--
!MK2	--	--	"MK2 TR3:  70.100 200 MHz,Z:(17.487 ohm, -3.366 ohm)"	--
!MK3	--	--	--	--
!MK4	--	--	--	--
!MK5	--	--	--	--
!MK6	--	--	--	--
!MK7	--	--	--	--
!MK8	--	--	--	--
PNT	TR1.FREQ.GHZ	TR1.LOG MAG.dB	TR2.FREQ.GHZ	TR2.PHASE.deg	TR3.FREQ.GHZ	TR3.REAL IMPEDANCE.ohm	TR4.FREQ.GHZ	TR4.IMAGINARY IMPEDANCE.ohm
1	  0.020000000	-6.480000E-01	  0.020000000	-1.241770E+02	  0.020000000	2.388000E+00	  0.020000000	-2.643800E+01
2	  0.020200402	-6.440000E-01	  0.020200402	-1.256070E+02	  0.020200402	2.344000E+00	  0.020200402	-2.564700E+01
3	  0.020400802	-6.450000E-01	  0.020400802	-1.270280E+02	  0.020400802	2.318000E+00	  0.020400802	-2.487000E+01
4	  0.020601204	-6.470000E-01	  0.020601204	-1.284820E+02	  0.020601204	2.295000E+00	  0.020601204	-2.408500E+01
5	  0.020801604	-6.500000E-01	  0.020801604	-1.299680E+02	  0.020801604	2.277000E+00	  0.020801604	-2.329200E+01
6	  0.021002004	-6.570000E-01	  0.021002004	-1.314730E+02	  0.021002004	2.274000E+00	  0.021002004	-2.249800E+01
7	  0.021202406	-6.640000E-01	  0.021202406	-1.330000E+02	  0.021202406	2.273000E+00	  0.021202406	-2.170200E+01
8	  0.021402806	-6.690000E-01	  0.021402806	-1.345190E+02	  0.021402806	2.265000E+00	  0.021402806	-2.092000E+01
9	  0.021603208	-6.730000E-01	  0.021603208	-1.360340E+02	  0.021603208	2.252000E+00	  0.021603208	-2.014800E+01
10	  0.021803608	-6.760000E-01	  0.021803608	-1.375610E+02	  0.021803608	2.239000E+00	  0.021803608	-1.937800E+01
11	  0.022004008	-6.800000E-01	  0.022004008	-1.390940E+02	  0.022004008	2.230000E+00	  0.022004008	-1.861400E+01
12	  0.022204408	-6.840000E-01	  0.022204408	-1.406440E+02	  0.022204408	2.220000E+00	  0.022204408	-1.784900E+01
13	  0.022404809	-6.860000E-01	  0.022404809	-1.422130E+02	  0.022404809	2.206000E+00	  0.022404809	-1.708200E+01
14	  0.022605211	-6.910000E-01	  0.022605211	-1.437960E+02	  0.022605211	2.200000E+00	  0.022605211	-1.631500E+01
15	  0.022805611	-6.940000E-01	  0.022805611	-1.453970E+02	  0.022805611	2.191000E+00	  0.022805611	-1.554700E+01
16	  0.023006011	-6.950000E-01	  0.023006011	-1.469750E+02	  0.023006011	2.177000E+00	  0.023006011	-1.479600E+01
17	  0.023206413	-6.940000E-01	  0.023206413	-1.485390E+02	  0.023206413	2.157000E+00	  0.023206413	-1.405800E+01
18	  0.023406813	-6.940000E-01	  0.023406813	-1.501180E+02	  0.023406813	2.139000E+00	  0.023406813	-1.331900E+01
19	  0.023607215	-6.970000E-01	  0.023607215	-1.516900E+02	  0.023607215	2.132000E+00	  0.023607215	-1.258800E+01
20	  0.023807615	-7.010000E-01	  0.023807615	-1.532680E+02	  0.023807615	2.131000E+00	  0.023807615	-1.185900E+01
21	  0.024008015	-7.090000E-01	  0.024008015	-1.548830E+02	  0.024008015	2.142000E+00	  0.024008015	-1.111800E+01
22	  0.024208417	-7.160000E-01	  0.024208417	-1.564970E+02	  0.024208417	2.151000E+00	  0.024208417	-1.038200E+01
23	  0.024408817	-7.220000E-01	  0.024408817	-1.581150E+02	  0.024408817	2.157000E+00	  0.024408817	-9.649000E+00
24	  0.024609219	-7.280000E-01	  0.024609219	-1.597470E+02	  0.024609219	2.162000E+00	  0.024609219	-8.913000E+00
25	  0.024809619	-7.350000E-01	  0.024809619	-1.613710E+02	  0.024809619	2.173000E+00	  0.024809619	-8.185000E+00
26	  0.025010020	-7.430000E-01	  0.025010020	-1.629960E+02	  0.025010020	2.187000E+00	  0.025010020	-7.459000E+00
27	  0.025210422	-7.550000E-01	  0.025210422	-1.646340E+02	  0.025210422	2.211000E+00	  0.025210422	-6.731000E+00
28	  0.025410822	-7.660000E-01	  0.025410822	-1.662840E+02	  0.025410822	2.235000E+00	  0.025410822	-6.001000E+00
29	  0.025611224	-7.760000E-01	  0.025611224	-1.679600E+02	  0.025611224	2.257000E+00	  0.025611224	-5.262000E+00
30	  0.025811624	-7.870000E-01	  0.025811624	-1.696570E+02	  0.025811624	2.284000E+00	  0.025811624	-4.515000E+00
31	  0.026012026	-7.970000E-01	  0.026012026	-1.713640E+02	  0.026012026	2.305000E+00	  0.026012026	-3.766000E+00
32	  0.026212426	-8.060000E-01	  0.026212426	-1.730680E+02	  0.026212426	2.327000E+00	  0.026212426	-3.021000E+00
33	  0.026412826	-8.190000E-01	  0.026412826	-1.747860E+02	  0.026412826	2.362000E+00	  0.026412826	-2.271000E+00
34	  0.026613226	-8.320000E-01	  0.026613226	-1.765190E+02	  0.026613226	2.396000E+00	  0.026613226	-1.515000E+00
35	  0.026813626	-8.470000E-01	  0.026813626	-1.782680E+02	  0.026813626	2.438000E+00	  0.026813626	-7.530000E-01
36	  0.027014028	-8.640000E-01	  0.027014028	1.799890E+02	  0.027014028	2.485000E+00	  0.027014028	4.000000E-03
37	  0.027214428	-8.790000E-01	  0.027214428	1.782220E+02	  0.027214428	2.530000E+00	  0.027214428	7.730000E-01
38	  0.027414829	-8.940000E-01	  0.027414829	1.764320E+02	  0.027414829	2.575000E+00	  0.027414829	1.553000E+00
39	  0.027615231	-9.110000E-01	  0.027615231	1.746400E+02	  0.027615231	2.626000E+00	  0.027615231	2.333000E+00
40	  0.027815631	-9.310000E-01	  0.027815631	1.728430E+02	  0.027815631	2.687000E+00	  0.027815631	3.117000E+00
41	  0.028016033	-9.500000E-01	  0.028016033	1.710130E+02	  0.028016033	2.750000E+00	  0.028016033	3.917000E+00
42	  0.028216433	-9.710000E-01	  0.028216433	1.691850E+02	  0.028216433	2.818000E+00	  0.028216433	4.717000E+00
43	  0.028416833	-9.920000E-01	  0.028416833	1.673460E+02	  0.028416833	2.889000E+00	  0.028416833	5.525000E+00
44	  0.028617235	-1.012000E+00	  0.028617235	1.655160E+02	  0.028617235	2.957000E+00	  0.028617235	6.331000E+00
45	  0.028817635	-1.031000E+00	  0.028817635	1.636770E+02	  0.028817635	3.025000E+00	  0.028817635	7.145000E+00
46	  0.029018037	-1.050000E+00	  0.029018037	1.618560E+02	  0.029018037	3.095000E+00	  0.029018037	7.953000E+00
47	  0.029218437	-1.070000E+00	  0.029218437	1.600390E+02	  0.029218437	3.171000E+00	  0.029218437	8.764000E+00
48	  0.029418837	-1.091000E+00	  0.029418837	1.582170E+02	  0.029418837	3.253000E+00	  0.029418837	9.581000E+00
49	  0.029619239	-1.115000E+00	  0.029619239	1.563740E+02	  0.029619239	3.346000E+00	  0.029619239	1.041200E+01
50	  0.029819639	-1.143000E+00	  0.029819639	1.545210E+02	  0.029819639	3.452000E+00	  0.029819639	1.125200E+01
51	  0.030020041	-1.172000E+00	  0.030020041	1.526340E+02	  0.030020041	3.568000E+00	  0.030020041	1.211400E+01
52	  0.030220442	-1.200000E+00	  0.030220442	1.507380E+02	  0.030220442	3.682000E+00	  0.030220442	1.298600E+01
53	  0.030420844	-1.227000E+00	  0.030420844	1.488340E+02	  0.030420844	3.800000E+00	  0.030420844	1.386900E+01
54	  0.030621244	-1.257000E+00	  0.030621244	1.469460E+02	  0.030621244	3.928000E+00	  0.030621244	1.475200E+01
55	  0.030821644	-1.287000E+00	  0.030821644	1.450740E+02	  0.030821644	4.062000E+00	  0.030821644	1.563400E+01
56	  0.031022044	-1.321000E+00	  0.031022044	1.431730E+02	  0.031022044	4.213000E+00	  0.031022044	1.653900E+01
57	  0.031222444	-1.353000E+00	  0.031222444	1.412770E+02	  0.031222444	4.366000E+00	  0.031222444	1.745000E+01
58	  0.031422846	-1.388000E+00	  0.031422846	1.393250E+02	  0.031422846	4.530000E+00	  0.031422846	1.839800E+01
59	  0.031623244	-1.425000E+00	  0.031623244	1.373710E+02	  0.031623244	4.712000E+00	  0.031623244	1.935800E+01
60	  0.031823646	-1.460000E+00	  0.031823646	1.353890E+02	  0.031823646	4.892000E+00	  0.031823646	2.034300E+01
61	  0.032024048	-1.493000E+00	  0.032024048	1.334290E+02	  0.032024048	5.073000E+00	  0.032024048	2.133000E+01
62	  0.032224450	-1.526000E+00	  0.032224450	1.314630E+02	  0.032224450	5.265000E+00	  0.032224450	2.233400E+01
63	  0.032424849	-1.559000E+00	  0.032424849	1.295060E+02	  0.032424849	5.462000E+00	  0.032424849	2.334700E+01
64	  0.032625251	-1.593000E+00	  0.032625251	1.275180E+02	  0.032625251	5.674000E+00	  0.032625251	2.439100E+01
65	  0.032825653	-1.629000E+00	  0.032825653	1.255620E+02	  0.032825653	5.898000E+00	  0.032825653	2.543300E+01
66	  0.033026051	-1.667000E+00	  0.033026051	1.236090E+02	  0.033026051	6.142000E+00	  0.033026051	2.648900E+01
67	  0.033226453	-1.712000E+00	  0.033226453	1.216240E+02	  0.033226453	6.426000E+00	  0.033226453	2.757700E+01
68	  0.033426855	-1.759000E+00	  0.033426855	1.196330E+02	  0.033426855	6.729000E+00	  0.033426855	2.868500E+01
69	  0.033627257	-1.809000E+00	  0.033627257	1.176300E+02	  0.033627257	7.063000E+00	  0.033627257	2.981900E+01
70	  0.033827655	-1.862000E+00	  0.033827655	1.155920E+02	  0.033827655	7.425000E+00	  0.033827655	3.099100E+01
71	  0.034028057	-1.912000E+00	  0.034028057	1.135080E+02	  0.034028057	7.799000E+00	  0.034028057	3.221500E+01
72	  0.034228459	-1.962000E+00	  0.034228459	1.114130E+02	  0.034228459	8.191000E+00	  0.034228459	3.347000E+01
73	  0.034428857	-2.010000E+00	  0.034428857	1.092630E+02	  0.034428857	8.607000E+00	  0.034428857	3.478700E+01
74	  0.034629259	-2.056000E+00	  0.034629259	1.071280E+02	  0.034629259	9.034000E+00	  0.034629259	3.612500E+01
75	  0.034829661	-2.101000E+00	  0.034829661	1.049970E+02	  0.034829661	9.483000E+00	  0.034829661	3.749100E+01
76	  0.035030060	-2.145000E+00	  0.035030060	1.028710E+02	  0.035030060	9.955000E+00	  0.035030060	3.888700E+01
77	  0.035230462	-2.188000E+00	  0.035230462	1.007440E+02	  0.035230462	1.045000E+01	  0.035230462	4.032000E+01
78	  0.035430863	-2.229000E+00	  0.035430863	9.865700E+01	  0.035430863	1.096200E+01	  0.035430863	4.176000E+01
79	  0.035631265	-2.270000E+00	  0.035631265	9.656300E+01	  0.035631265	1.150600E+01	  0.035631265	4.324300E+01
80	  0.035831664	-2.313000E+00	  0.035831664	9.450200E+01	  0.035831664	1.209700E+01	  0.035831664	4.473600E+01
81	  0.036032066	-2.358000E+00	  0.036032066	9.244900E+01	  0.036032066	1.272600E+01	  0.036032066	4.626100E+01
82	  0.036232468	-2.407000E+00	  0.036232468	9.041200E+01	  0.036232468	1.342300E+01	  0.036232468	4.780500E+01
83	  0.036432866	-2.453000E+00	  0.036432866	8.839100E+01	  0.036432866	1.414300E+01	  0.036432866	4.938200E+01
84	  0.036633268	-2.507000E+00	  0.036633268	8.637500E+01	  0.036633268	1.495200E+01	  0.036633268	5.098400E+01
85	  0.036833670	-2.565000E+00	  0.036833670	8.437300E+01	  0.036833670	1.584100E+01	  0.036833670	5.260400E+01
86	  0.037034072	-2.622000E+00	  0.037034072	8.235300E+01	  0.037034072	1.678600E+01	  0.037034072	5.428600E+01
87	  0.037234470	-2.688000E+00	  0.037234470	8.029700E+01	  0.037234470	1.787000E+01	  0.037234470	5.602200E+01
88	  0.037434869	-2.751000E+00	  0.037434869	7.823800E+01	  0.037434869	1.902100E+01	  0.037434869	5.780800E+01
89	  0.037635271	-2.814000E+00	  0.037635271	7.617300E+01	  0.037635271	2.025700E+01	  0.037635271	5.964500E+01
90	  0.037835669	-2.880000E+00	  0.037835669	7.407600E+01	  0.037835669	2.162100E+01	  0.037835669	6.155000E+01
91	  0.038036071	-2.944000E+00	  0.038036071	7.197500E+01	  0.038036071	2.307600E+01	  0.038036071	6.351500E+01
92	  0.038236473	-2.995000E+00	  0.038236473	6.985000E+01	  0.038236473	2.457900E+01	  0.038236473	6.559400E+01
93	  0.038436871	-3.056000E+00	  0.038436871	6.771900E+01	  0.038436871	2.628300E+01	  0.038436871	6.769700E+01
94	  0.038637273	-3.113000E+00	  0.038637273	6.560400E+01	  0.038637273	2.808600E+01	  0.038637273	6.984900E+01
95	  0.038837675	-3.166000E+00	  0.038837675	6.352100E+01	  0.038837675	2.999400E+01	  0.038837675	7.202800E+01
96	  0.039038073	-3.215000E+00	  0.039038073	6.143600E+01	  0.039038073	3.203200E+01	  0.039038073	7.428100E+01
97	  0.039238475	-3.267000E+00	  0.039238475	5.939700E+01	  0.039238475	3.423300E+01	  0.039238475	7.650400E+01
98	  0.039438877	-3.322000E+00	  0.039438877	5.736900E+01	  0.039438877	3.663900E+01	  0.039438877	7.873000E+01
99	  0.039639279	-3.380000E+00	  0.039639279	5.534800E+01	  0.039639279	3.927300E+01	  0.039639279	8.094800E+01
100	  0.039839678	-3.443000E+00	  0.039839678	5.330600E+01	  0.039839678	4.220300E+01	  0.039839678	8.316400E+01
101	  0.040040080	-3.505000E+00	  0.040040080	5.124500E+01	  0.040040080	4.541100E+01	  0.040040080	8.539800E+01
102	  0.040240481	-3.572000E+00	  0.040240481	4.916800E+01	  0.040240481	4.895900E+01	  0.040240481	8.758700E+01
103	  0.040440880	-3.640000E+00	  0.040440880	4.708500E+01	  0.040440880	5.284700E+01	  0.040440880	8.970700E+01
104	  0.040641282	-3.704000E+00	  0.040641282	4.500300E+01	  0.040641282	5.703800E+01	  0.040641282	9.177700E+01
105	  0.040841684	-3.765000E+00	  0.040841684	4.289700E+01	  0.040841684	6.162300E+01	  0.040841684	9.378700E+01
106	  0.041042086	-3.825000E+00	  0.041042086	4.081700E+01	  0.041042086	6.653400E+01	  0.041042086	9.563100E+01
107	  0.041242484	-3.884000E+00	  0.041242484	3.871900E+01	  0.041242484	7.189900E+01	  0.041242484	9.729700E+01
108	  0.041442886	-3.941000E+00	  0.041442886	3.662000E+01	  0.041442886	7.770200E+01	  0.041442886	9.871400E+01
109	  0.041643288	-3.997000E+00	  0.041643288	3.451200E+01	  0.041643288	8.398000E+01	  0.041643288	9.982300E+01
110	  0.041843686	-4.054000E+00	  0.041843686	3.242100E+01	  0.041843686	9.068400E+01	  0.041843686	1.004790E+02
111	  0.042044088	-4.099000E+00	  0.042044088	3.036200E+01	  0.042044088	9.769500E+01	  0.042044088	1.008450E+02
112	  0.042244490	-4.149000E+00	  0.042244490	2.830300E+01	  0.042244490	1.051750E+02	  0.042244490	1.005220E+02
113	  0.042444889	-4.199000E+00	  0.042444889	2.628500E+01	  0.042444889	1.128910E+02	  0.042444889	9.947300E+01
114	  0.042645290	-4.250000E+00	  0.042645290	2.426900E+01	  0.042645290	1.209200E+02	  0.042645290	9.762200E+01
115	  0.042845692	-4.296000E+00	  0.042845692	2.228000E+01	  0.042845692	1.290770E+02	  0.042845692	9.501400E+01
116	  0.043046094	-4.343000E+00	  0.043046094	2.029000E+01	  0.043046094	1.373580E+02	  0.043046094	9.139300E+01
117	  0.043246493	-4.389000E+00	  0.043246493	1.830600E+01	  0.043246493	1.455820E+02	  0.043246493	8.674100E+01
118	  0.043446895	-4.436000E+00	  0.043446895	1.636200E+01	  0.043446895	1.534030E+02	  0.043446895	8.102900E+01
119	  0.043647297	-4.482000E+00	  0.043647297	1.439500E+01	  0.043647297	1.609380E+02	  0.043647297	7.419300E+01
120	  0.043847695	-4.532000E+00	  0.043847695	1.244600E+01	  0.043847695	1.676640E+02	  0.043847695	6.619900E+01
121	  0.044048097	-4.578000E+00	  0.044048097	1.053400E+01	  0.044048097	1.735040E+02	  0.044048097	5.747400E+01
122	  0.044248499	-4.628000E+00	  0.044248499	8.629000E+00	  0.044248499	1.782180E+02	  0.044248499	4.788600E+01
123	  0.044448901	-4.676000E+00	  0.044448901	6.719000E+00	  0.044448901	1.817860E+02	  0.044448901	3.766300E+01
124	  0.044649299	-4.720000E+00	  0.044649299	4.821000E+00	  0.044649299	1.842200E+02	  0.044649299	2.713900E+01
125	  0.044849701	-4.766000E+00	  0.044849701	2.919000E+00	  0.044849701	1.852310E+02	  0.044849701	1.635800E+01
126	  0.045050103	-4.808000E+00	  0.045050103	1.040000E+00	  0.045050103	1.850440E+02	  0.045050103	5.771000E+00
127	  0.045250501	-4.848000E+00	  0.045250501	-8.570000E-01	  0.045250501	1.836560E+02	  0.045250501	-4.677000E+00
128	  0.045450903	-4.889000E+00	  0.045450903	-2.708000E+00	  0.045450903	1.810730E+02	  0.045450903	-1.442700E+01
129	  0.045651305	-4.930000E+00	  0.045651305	-4.580000E+00	  0.045651305	1.774550E+02	  0.045651305	-2.367200E+01
130	  0.045851704	-4.972000E+00	  0.045851704	-6.401000E+00	  0.045851704	1.730240E+02	  0.045851704	-3.192600E+01
131	  0.046052106	-5.017000E+00	  0.046052106	-8.243000E+00	  0.046052106	1.678020E+02	  0.046052106	-3.942100E+01
132	  0.046252504	-5.057000E+00	  0.046252504	-1.006000E+01	  0.046252504	1.622550E+02	  0.046252504	-4.603000E+01
133	  0.046452906	-5.099000E+00	  0.046452906	-1.189300E+01	  0.046452906	1.562690E+02	  0.046452906	-5.182300E+01
134	  0.046653304	-5.140000E+00	  0.046653304	-1.372000E+01	  0.046653304	1.501150E+02	  0.046653304	-5.678900E+01
135	  0.046853706	-5.177000E+00	  0.046853706	-1.554000E+01	  0.046853706	1.439370E+02	  0.046853706	-6.101300E+01
136	  0.047054108	-5.213000E+00	  0.047054108	-1.735400E+01	  0.047054108	1.377800E+02	  0.047054108	-6.452200E+01
137	  0.047254506	-5.250000E+00	  0.047254506	-1.918300E+01	  0.047254506	1.316310E+02	  0.047254506	-6.737600E+01
138	  0.047454908	-5.284000E+00	  0.047454908	-2.100000E+01	  0.047454908	1.256720E+02	  0.047454908	-6.965600E+01
139	  0.047655310	-5.315000E+00	  0.047655310	-2.277900E+01	  0.047655310	1.200150E+02	  0.047655310	-7.138800E+01
140	  0.047855709	-5.348000E+00	  0.047855709	-2.454900E+01	  0.047855709	1.145650E+02	  0.047855709	-7.262400E+01
141	  0.048056111	-5.381000E+00	  0.048056111	-2.632300E+01	  0.048056111	1.093250E+02	  0.048056111	-7.345900E+01
142	  0.048256513	-5.413000E+00	  0.048256513	-2.809800E+01	  0.048256513	1.043170E+02	  0.048256513	-7.395500E+01
143	  0.048456915	-5.444000E+00	  0.048456915	-2.986100E+01	  0.048456915	9.958300E+01	  0.048456915	-7.414800E+01
144	  0.048657313	-5.474000E+00	  0.048657313	-3.162800E+01	  0.048657313	9.508300E+01	  0.048657313	-7.410800E+01
145	  0.048857715	-5.502000E+00	  0.048857715	-3.339800E+01	  0.048857715	9.081300E+01	  0.048857715	-7.386900E+01
146	  0.049058117	-5.526000E+00	  0.049058117	-3.516500E+01	  0.049058117	8.677900E+01	  0.049058117	-7.348600E+01
147	  0.049258515	-5.553000E+00	  0.049258515	-3.691800E+01	  0.049258515	8.299600E+01	  0.049258515	-7.290600E+01
148	  0.049458917	-5.574000E+00	  0.049458917	-3.863300E+01	  0.049458917	7.949500E+01	  0.049458917	-7.226700E+01
149	  0.049659319	-5.600000E+00	  0.049659319	-4.038500E+01	  0.049659319	7.612200E+01	  0.049659319	-7.144500E+01
150	  0.049859721	-5.625000E+00	  0.049859721	-4.208500E+01	  0.049859721	7.303800E+01	  0.049859721	-7.055300E+01
151	  0.050060119	-5.648000E+00	  0.050060119	-4.379000E+01	  0.050060119	7.011400E+01	  0.050060119	-6.959700E+01
152	  0.050260521	-5.667000E+00	  0.050260521	-4.551600E+01	  0.050260521	6.730900E+01	  0.050260521	-6.862200E+01
153	  0.050460923	-5.683000E+00	  0.050460923	-4.721500E+01	  0.050460923	6.469600E+01	  0.050460923	-6.762600E+01
154	  0.050661322	-5.700000E+00	  0.050661322	-4.892800E+01	  0.050661322	6.220500E+01	  0.050661322	-6.657700E+01
155	  0.050861724	-5.714000E+00	  0.050861724	-5.059600E+01	  0.050861724	5.991000E+01	  0.050861724	-6.552800E+01
156	  0.051062126	-5.727000E+00	  0.051062126	-5.224000E+01	  0.051062126	5.776400E+01	  0.051062126	-6.447800E+01
157	  0.051262524	-5.740000E+00	  0.051262524	-5.385200E+01	  0.051262524	5.577300E+01	  0.051262524	-6.341900E+01
158	  0.051462926	-5.753000E+00	  0.051462926	-5.545200E+01	  0.051462926	5.389600E+01	  0.051462926	-6.235800E+01
159	  0.051663328	-5.765000E+00	  0.051663328	-5.702900E+01	  0.051663328	5.214200E+01	  0.051663328	-6.129900E+01
160	  0.051863730	-5.780000E+00	  0.051863730	-5.857900E+01	  0.051863730	5.051400E+01	  0.051863730	-6.023000E+01
161	  0.052064128	-5.794000E+00	  0.052064128	-6.014000E+01	  0.052064128	4.895700E+01	  0.052064128	-5.915300E+01
162	  0.052264530	-5.809000E+00	  0.052264530	-6.169800E+01	  0.052264530	4.748200E+01	  0.052264530	-5.807300E+01
163	  0.052464932	-5.828000E+00	  0.052464932	-6.324100E+01	  0.052464932	4.610800E+01	  0.052464932	-5.698500E+01
164	  0.052665330	-5.844000E+00	  0.052665330	-6.482100E+01	  0.052665330	4.476400E+01	  0.052665330	-5.588800E+01
165	  0.052865732	-5.862000E+00	  0.052865732	-6.634800E+01	  0.052865732	4.353600E+01	  0.052865732	-5.482200E+01
166	  0.053066134	-5.878000E+00	  0.053066134	-6.788900E+01	  0.053066134	4.234500E+01	  0.053066134	-5.377200E+01
167	  0.053266536	-5.894000E+00	  0.053266536	-6.945000E+01	  0.053266536	4.120100E+01	  0.053266536	-5.271000E+01
168	  0.053466935	-5.908000E+00	  0.053466935	-7.096900E+01	  0.053466935	4.013400E+01	  0.053466935	-5.169400E+01
169	  0.053667337	-5.919000E+00	  0.053667337	-7.251100E+01	  0.053667337	3.908700E+01	  0.053667337	-5.068700E+01
170	  0.053867739	-5.928000E+00	  0.053867739	-7.402000E+01	  0.053867739	3.810200E+01	  0.053867739	-4.971800E+01
171	  0.054068137	-5.937000E+00	  0.054068137	-7.551700E+01	  0.054068137	3.717100E+01	  0.054068137	-4.876200E+01
172	  0.054268539	-5.947000E+00	  0.054268539	-7.699700E+01	  0.054268539	3.629400E+01	  0.054268539	-4.782200E+01
173	  0.054468941	-5.959000E+00	  0.054468941	-7.845900E+01	  0.054468941	3.547600E+01	  0.054468941	-4.689300E+01
174	  0.054669339	-5.974000E+00	  0.054669339	-7.989100E+01	  0.054669339	3.472000E+01	  0.054669339	-4.598100E+01
175	  0.054869737	-5.983000E+00	  0.054869737	-8.131900E+01	  0.054869737	3.397400E+01	  0.054869737	-4.510300E+01
176	  0.055070139	-5.997000E+00	  0.055070139	-8.273800E+01	  0.055070139	3.328600E+01	  0.055070139	-4.422100E+01
177	  0.055270538	-6.009000E+00	  0.055270538	-8.413600E+01	  0.055270538	3.262700E+01	  0.055270538	-4.336800E+01
178	  0.055470940	-6.023000E+00	  0.055470940	-8.554000E+01	  0.055470940	3.199900E+01	  0.055470940	-4.251500E+01
179	  0.055671342	-6.035000E+00	  0.055671342	-8.695500E+01	  0.055671342	3.138700E+01	  0.055671342	-4.167100E+01
180	  0.055871744	-6.045000E+00	  0.055871744	-8.836900E+01	  0.055871744	3.079200E+01	  0.055871744	-4.084100E+01
181	  0.056072142	-6.062000E+00	  0.056072142	-8.977100E+01	  0.056072142	3.024900E+01	  0.056072142	-4.001000E+01
182	  0.056272544	-6.076000E+00	  0.056272544	-9.118700E+01	  0.056272544	2.971400E+01	  0.056272544	-3.918900E+01
183	  0.056472946	-6.084000E+00	  0.056472946	-9.258400E+01	  0.056472946	2.918700E+01	  0.056472946	-3.840300E+01
184	  0.056673344	-6.093000E+00	  0.056673344	-9.397600E+01	  0.056673344	2.868300E+01	  0.056673344	-3.762600E+01
185	  0.056873746	-6.101000E+00	  0.056873746	-9.536700E+01	  0.056873746	2.819800E+01	  0.056873746	-3.685700E+01
186	  0.057074148	-6.105000E+00	  0.057074148	-9.676300E+01	  0.057074148	2.771500E+01	  0.057074148	-3.610600E+01
187	  0.057274550	-6.110000E+00	  0.057274550	-9.815700E+01	  0.057274550	2.725400E+01	  0.057274550	-3.535900E+01
188	  0.057474948	-6.111000E+00	  0.057474948	-9.953800E+01	  0.057474948	2.680000E+01	  0.057474948	-3.463600E+01
189	  0.057675350	-6.115000E+00	  0.057675350	-1.008870E+02	  0.057675350	2.638700E+01	  0.057675350	-3.392800E+01
190	  0.057875752	-6.112000E+00	  0.057875752	-1.022050E+02	  0.057875752	2.597100E+01	  0.057875752	-3.325800E+01
191	  0.058076151	-6.115000E+00	  0.058076151	-1.035610E+02	  0.058076151	2.558000E+01	  0.058076151	-3.256000E+01
192	  0.058276553	-6.113000E+00	  0.058276553	-1.048400E+02	  0.058276553	2.520800E+01	  0.058276553	-3.191800E+01
193	  0.058476955	-6.115000E+00	  0.058476955	-1.061120E+02	  0.058476955	2.486400E+01	  0.058476955	-3.127700E+01
194	  0.058677353	-6.117000E+00	  0.058677353	-1.074260E+02	  0.058677353	2.451800E+01	  0.058677353	-3.062100E+01
195	  0.058877755	-6.118000E+00	  0.058877755	-1.086920E+02	  0.058877755	2.419800E+01	  0.058877755	-2.999400E+01
196	  0.059078157	-6.118000E+00	  0.059078157	-1.099600E+02	  0.059078157	2.388100E+01	  0.059078157	-2.937300E+01
197	  0.059278559	-6.124000E+00	  0.059278559	-1.112230E+02	  0.059278559	2.359400E+01	  0.059278559	-2.875200E+01
198	  0.059478957	-6.122000E+00	  0.059478957	-1.125270E+02	  0.059478957	2.328700E+01	  0.059478957	-2.812600E+01
199	  0.059679359	-6.127000E+00	  0.059679359	-1.138060E+02	  0.059679359	2.301300E+01	  0.059679359	-2.750800E+01
200	  0.059879761	-6.129000E+00	  0.059879761	-1.150400E+02	  0.059879761	2.275000E+01	  0.059879761	-2.692000E+01
201	  0.060080159	-6.130000E+00	  0.060080159	-1.162960E+02	  0.060080159	2.249100E+01	  0.060080159	-2.632700E+01
202	  0.060280561	-6.132000E+00	  0.060280561	-1.175460E+02	  0.060280561	2.224300E+01	  0.060280561	-2.574000E+01
203	  0.060480963	-6.135000E+00	  0.060480963	-1.187890E+02	  0.060480963	2.200800E+01	  0.060480963	-2.515900E+01
204	  0.060681365	-6.132000E+00	  0.060681365	-1.200190E+02	  0.060681365	2.176600E+01	  0.060681365	-2.459700E+01
205	  0.060881764	-6.134000E+00	  0.060881764	-1.212500E+02	  0.060881764	2.154400E+01	  0.060881764	-2.403100E+01
206	  0.061082166	-6.133000E+00	  0.061082166	-1.224730E+02	  0.061082166	2.132400E+01	  0.061082166	-2.347600E+01
207	  0.061282568	-6.132000E+00	  0.061282568	-1.237090E+02	  0.061282568	2.110900E+01	  0.061282568	-2.291900E+01
208	  0.061482966	-6.132000E+00	  0.061482966	-1.248970E+02	  0.061482966	2.091100E+01	  0.061482966	-2.238600E+01
209	  0.061683368	-6.131000E+00	  0.061683368	-1.260810E+02	  0.061683368	2.071800E+01	  0.061683368	-2.185900E+01
210	  0.061883770	-6.131000E+00	  0.061883770	-1.272580E+02	  0.061883770	2.053600E+01	  0.061883770	-2.133600E+01
211	  0.062084168	-6.133000E+00	  0.062084168	-1.284170E+02	  0.062084168	2.036600E+01	  0.062084168	-2.082400E+01
212	  0.062284570	-6.136000E+00	  0.062284570	-1.296010E+02	  0.062284570	2.020300E+01	  0.062284570	-2.030200E+01
213	  0.062484972	-6.134000E+00	  0.062484972	-1.307190E+02	  0.062484972	2.004100E+01	  0.062484972	-1.981600E+01
214	  0.062685370	-6.139000E+00	  0.062685370	-1.318940E+02	  0.062685370	1.989400E+01	  0.062685370	-1.930300E+01
215	  0.062885776	-6.145000E+00	  0.062885776	-1.330200E+02	  0.062885776	1.976200E+01	  0.062885776	-1.881200E+01
216	  0.063086174	-6.147000E+00	  0.063086174	-1.342190E+02	  0.063086174	1.961500E+01	  0.063086174	-1.829600E+01
217	  0.063286573	-6.146000E+00	  0.063286573	-1.353990E+02	  0.063286573	1.946800E+01	  0.063286573	-1.779300E+01
218	  0.063486971	-6.157000E+00	  0.063486971	-1.365500E+02	  0.063486971	1.936200E+01	  0.063486971	-1.729600E+01
219	  0.063687377	-6.154000E+00	  0.063687377	-1.377030E+02	  0.063687377	1.922000E+01	  0.063687377	-1.681200E+01
220	  0.063887775	-6.151000E+00	  0.063887775	-1.388620E+02	  0.063887775	1.908400E+01	  0.063887775	-1.632700E+01
221	  0.064088173	-6.155000E+00	  0.064088173	-1.400190E+02	  0.064088173	1.897000E+01	  0.064088173	-1.584100E+01
222	  0.064288579	-6.153000E+00	  0.064288579	-1.411650E+02	  0.064288579	1.884900E+01	  0.064288579	-1.536400E+01
223	  0.064488977	-6.157000E+00	  0.064488977	-1.422550E+02	  0.064488977	1.875000E+01	  0.064488977	-1.491000E+01
224	  0.064689375	-6.163000E+00	  0.064689375	-1.433810E+02	  0.064689375	1.865900E+01	  0.064689375	-1.444100E+01
225	  0.064889781	-6.165000E+00	  0.064889781	-1.444950E+02	  0.064889781	1.856100E+01	  0.064889781	-1.398200E+01
226	  0.065090179	-6.167000E+00	  0.065090179	-1.455660E+02	  0.065090179	1.847100E+01	  0.065090179	-1.354200E+01
227	  0.065290578	-6.168000E+00	  0.065290578	-1.466560E+02	  0.065290578	1.838000E+01	  0.065290578	-1.309700E+01
228	  0.065490983	-6.173000E+00	  0.065490983	-1.477250E+02	  0.065490983	1.830600E+01	  0.065490983	-1.265900E+01
229	  0.065691382	-6.175000E+00	  0.065691382	-1.487990E+02	  0.065691382	1.822500E+01	  0.065691382	-1.222400E+01
230	  0.065891780	-6.180000E+00	  0.065891780	-1.498760E+02	  0.065891780	1.815800E+01	  0.065891780	-1.178600E+01
231	  0.066092186	-6.189000E+00	  0.066092186	-1.509370E+02	  0.066092186	1.810400E+01	  0.066092186	-1.135500E+01
232	  0.066292584	-6.194000E+00	  0.066292584	-1.519980E+02	  0.066292584	1.804300E+01	  0.066292584	-1.092700E+01
233	  0.066492982	-6.197000E+00	  0.066492982	-1.530370E+02	  0.066492982	1.797900E+01	  0.066492982	-1.051100E+01
234	  0.066693388	-6.203000E+00	  0.066693388	-1.541160E+02	  0.066693388	1.792700E+01	  0.066693388	-1.007700E+01
235	  0.066893786	-6.209000E+00	  0.066893786	-1.551110E+02	  0.066893786	1.788100E+01	  0.066893786	-9.680000E+00
236	  0.067094192	-6.214000E+00	  0.067094192	-1.561430E+02	  0.067094192	1.783200E+01	  0.067094192	-9.269000E+00
237	  0.067294590	-6.220000E+00	  0.067294590	-1.572040E+02	  0.067294590	1.778900E+01	  0.067294590	-8.847000E+00
238	  0.067494988	-6.231000E+00	  0.067494988	-1.582060E+02	  0.067494988	1.776300E+01	  0.067494988	-8.449000E+00
239	  0.067695394	-6.235000E+00	  0.067695394	-1.592470E+02	  0.067695394	1.772000E+01	  0.067695394	-8.038000E+00
240	  0.067895792	-6.245000E+00	  0.067895792	-1.602650E+02	  0.067895792	1.769800E+01	  0.067895792	-7.635000E+00
241	  0.068096191	-6.252000E+00	  0.068096191	-1.613060E+02	  0.068096191	1.766700E+01	  0.068096191	-7.226000E+00
242	  0.068296596	-6.255000E+00	  0.068296596	-1.622970E+02	  0.068296596	1.763300E+01	  0.068296596	-6.837000E+00
243	  0.068496995	-6.264000E+00	  0.068496995	-1.632890E+02	  0.068496995	1.761400E+01	  0.068496995	-6.449000E+00
244	  0.068697393	-6.269000E+00	  0.068697393	-1.642980E+02	  0.068697393	1.758900E+01	  0.068697393	-6.055000E+00
245	  0.068897791	-6.274000E+00	  0.068897791	-1.652810E+02	  0.068897791	1.756600E+01	  0.068897791	-5.672000E+00
246	  0.069098189	-6.277000E+00	  0.069098189	-1.662720E+02	  0.069098189	1.754100E+01	  0.069098189	-5.287000E+00
247	  0.069298595	-6.283000E+00	  0.069298595	-1.672630E+02	  0.069298595	1.752500E+01	  0.069298595	-4.902000E+00
248	  0.069498993	-6.290000E+00	  0.069498993	-1.682640E+02	  0.069498993	1.751500E+01	  0.069498993	-4.513000E+00
249	  0.069699399	-6.294000E+00	  0.069699399	-1.692850E+02	  0.069699399	1.749800E+01	  0.069699399	-4.118000E+00
250	  0.069899797	-6.304000E+00	  0.069899797	-1.702230E+02	  0.069899797	1.750000E+01	  0.069899797	-3.755000E+00
251	  0.070100196	-6.307000E+00	  0.070100196	-1.712340E+02	  0.070100196	1.748600E+01	  0.070100196	-3.365000E+00
252	  0.070300601	-6.314000E+00	  0.070300601	-1.722130E+02	  0.070300601	1.748300E+01	  0.070300601	-2.988000E+00
253	  0.070501000	-6.316000E+00	  0.070501000	-1.732130E+02	  0.070501000	1.747300E+01	  0.070501000	-2.603000E+00
254	  0.070701398	-6.315000E+00	  0.070701398	-1.741900E+02	  0.070701398	1.745500E+01	  0.070701398	-2.228000E+00
255	  0.070901804	-6.317000E+00	  0.070901804	-1.751530E+02	  0.070901804	1.745000E+01	  0.070901804	-1.858000E+00
256	  0.071102202	-6.324000E+00	  0.071102202	-1.761280E+02	  0.071102202	1.745600E+01	  0.071102202	-1.484000E+00
257	  0.071302600	-6.326000E+00	  0.071302600	-1.771170E+02	  0.071302600	1.745300E+01	  0.071302600	-1.104000E+00
258	  0.071503006	-6.331000E+00	  0.071503006	-1.780850E+02	  0.071503006	1.746000E+01	  0.071503006	-7.330000E-01
259	  0.071703404	-6.335000E+00	  0.071703404	-1.790280E+02	  0.071703404	1.746800E+01	  0.071703404	-3.720000E-01
260	  0.071903802	-6.336000E+00	  0.071903802	-1.799800E+02	  0.071903802	1.746900E+01	  0.071903802	-7.000000E-03
261	  0.072104208	-6.339000E+00	  0.072104208	1.790720E+02	  0.072104208	1.747800E+01	  0.072104208	3.550000E-01
262	  0.072304606	-6.342000E+00	  0.072304606	1.781320E+02	  0.072304606	1.749000E+01	  0.072304606	7.150000E-01
263	  0.072505005	-6.346000E+00	  0.072505005	1.771900E+02	  0.072505005	1.750500E+01	  0.072505005	1.075000E+00
264	  0.072705410	-6.352000E+00	  0.072705410	1.762460E+02	  0.072705410	1.752700E+01	  0.072705410	1.437000E+00
265	  0.072905809	-6.354000E+00	  0.072905809	1.753250E+02	  0.072905809	1.754100E+01	  0.072905809	1.790000E+00
266	  0.073106214	-6.358000E+00	  0.073106214	1.743840E+02	  0.073106214	1.756300E+01	  0.073106214	2.150000E+00
267	  0.073306613	-6.363000E+00	  0.073306613	1.734750E+02	  0.073306613	1.758800E+01	  0.073306613	2.498000E+00
268	  0.073507011	-6.365000E+00	  0.073507011	1.725530E+02	  0.073507011	1.760900E+01	  0.073507011	2.851000E+00
269	  0.073707417	-6.372000E+00	  0.073707417	1.716440E+02	  0.073707417	1.764200E+01	  0.073707417	3.199000E+00
270	  0.073907815	-6.378000E+00	  0.073907815	1.707380E+02	  0.073907815	1.767800E+01	  0.073907815	3.546000E+00
271	  0.074108213	-6.377000E+00	  0.074108213	1.698560E+02	  0.074108213	1.769400E+01	  0.074108213	3.885000E+00
272	  0.074308619	-6.381000E+00	  0.074308619	1.689520E+02	  0.074308619	1.772700E+01	  0.074308619	4.232000E+00
273	  0.074509017	-6.386000E+00	  0.074509017	1.680490E+02	  0.074509017	1.776500E+01	  0.074509017	4.578000E+00
274	  0.074709415	-6.394000E+00	  0.074709415	1.671740E+02	  0.074709415	1.781000E+01	  0.074709415	4.914000E+00
275	  0.074909821	-6.403000E+00	  0.074909821	1.662920E+02	  0.074909821	1.786200E+01	  0.074909821	5.252000E+00
276	  0.075110219	-6.414000E+00	  0.075110219	1.654230E+02	  0.075110219	1.791800E+01	  0.075110219	5.584000E+00
277	  0.075310618	-6.418000E+00	  0.075310618	1.645490E+02	  0.075310618	1.796100E+01	  0.075310618	5.921000E+00
278	  0.075511023	-6.428000E+00	  0.075511023	1.636930E+02	  0.075511023	1.801800E+01	  0.075511023	6.249000E+00
279	  0.075711422	-6.439000E+00	  0.075711422	1.628380E+02	  0.075711422	1.808100E+01	  0.075711422	6.577000E+00
280	  0.075911827	-6.444000E+00	  0.075911827	1.619450E+02	  0.075911827	1.813100E+01	  0.075911827	6.921000E+00
281	  0.076112226	-6.455000E+00	  0.076112226	1.611070E+02	  0.076112226	1.819800E+01	  0.076112226	7.242000E+00
282	  0.076312624	-6.462000E+00	  0.076312624	1.602220E+02	  0.076312624	1.825800E+01	  0.076312624	7.583000E+00
283	  0.076513030	-6.476000E+00	  0.076513030	1.593660E+02	  0.076513030	1.833500E+01	  0.076513030	7.912000E+00
284	  0.076713428	-6.487000E+00	  0.076713428	1.584810E+02	  0.076713428	1.840900E+01	  0.076713428	8.252000E+00
285	  0.076913826	-6.498000E+00	  0.076913826	1.576100E+02	  0.076913826	1.848500E+01	  0.076913826	8.587000E+00
286	  0.077114232	-6.502000E+00	  0.077114232	1.567580E+02	  0.077114232	1.854300E+01	  0.077114232	8.918000E+00
287	  0.077314630	-6.516000E+00	  0.077314630	1.559390E+02	  0.077314630	1.862900E+01	  0.077314630	9.232000E+00
288	  0.077515028	-6.522000E+00	  0.077515028	1.550930E+02	  0.077515028	1.869500E+01	  0.077515028	9.560000E+00
289	  0.077715434	-6.537000E+00	  0.077715434	1.542380E+02	  0.077715434	1.878800E+01	  0.077715434	9.889000E+00
290	  0.077915832	-6.550000E+00	  0.077915832	1.533690E+02	  0.077915832	1.888100E+01	  0.077915832	1.022300E+01
291	  0.078116231	-6.562000E+00	  0.078116231	1.525500E+02	  0.078116231	1.896600E+01	  0.078116231	1.054000E+01
292	  0.078316636	-6.575000E+00	  0.078316636	1.517140E+02	  0.078316636	1.906000E+01	  0.078316636	1.086200E+01
293	  0.078517035	-6.594000E+00	  0.078517035	1.508460E+02	  0.078517035	1.917400E+01	  0.078517035	1.119500E+01
294	  0.078717433	-6.607000E+00	  0.078717433	1.500150E+02	  0.078717433	1.927000E+01	  0.078717433	1.151600E+01
295	  0.078917839	-6.623000E+00	  0.078917839	1.491760E+02	  0.078917839	1.937800E+01	  0.078917839	1.184000E+01
296	  0.079118237	-6.643000E+00	  0.079118237	1.483420E+02	  0.079118237	1.949700E+01	  0.079118237	1.215900E+01
297	  0.079318643	-6.661000E+00	  0.079318643	1.475180E+02	  0.079318643	1.961300E+01	  0.079318643	1.247500E+01
298	  0.079519041	-6.678000E+00	  0.079519041	1.466850E+02	  0.079519041	1.973200E+01	  0.079519041	1.279500E+01
299	  0.079719439	-6.693000E+00	  0.079719439	1.458450E+02	  0.079719439	1.984600E+01	  0.079719439	1.312000E+01
300	  0.079919845	-6.710000E+00	  0.079919845	1.449920E+02	  0.079919845	1.996900E+01	  0.079919845	1.345000E+01
301	  0.080120243	-6.727000E+00	  0.080120243	1.441770E+02	  0.080120243	2.009100E+01	  0.080120243	1.376400E+01
302	  0.080320641	-6.745000E+00	  0.080320641	1.433280E+02	  0.080320641	2.022100E+01	  0.080320641	1.409100E+01
303	  0.080521047	-6.758000E+00	  0.080521047	1.424950E+02	  0.080521047	2.034000E+01	  0.080521047	1.441600E+01
304	  0.080721445	-6.774000E+00	  0.080721445	1.416700E+02	  0.080721445	2.046700E+01	  0.080721445	1.473600E+01
305	  0.080921844	-6.792000E+00	  0.080921844	1.408460E+02	  0.080921844	2.060400E+01	  0.080921844	1.505300E+01
306	  0.081122249	-6.805000E+00	  0.081122249	1.400330E+02	  0.081122249	2.072800E+01	  0.081122249	1.537100E+01
307	  0.081322648	-6.819000E+00	  0.081322648	1.392330E+02	  0.081322648	2.085600E+01	  0.081322648	1.568200E+01
308	  0.081523046	-6.836000E+00	  0.081523046	1.384150E+02	  0.081523046	2.099500E+01	  0.081523046	1.600000E+01
309	  0.081723452	-6.850000E+00	  0.081723452	1.376100E+02	  0.081723452	2.112800E+01	  0.081723452	1.631500E+01
310	  0.081923850	-6.868000E+00	  0.081923850	1.368730E+02	  0.081923850	2.126700E+01	  0.081923850	1.659800E+01
311	  0.082124248	-6.879000E+00	  0.082124248	1.360940E+02	  0.082124248	2.139300E+01	  0.082124248	1.690600E+01
312	  0.082324654	-6.897000E+00	  0.082324654	1.353140E+02	  0.082324654	2.153900E+01	  0.082324654	1.720800E+01
313	  0.082525052	-6.915000E+00	  0.082525052	1.345640E+02	  0.082525052	2.168800E+01	  0.082525052	1.749800E+01
314	  0.082725458	-6.931000E+00	  0.082725458	1.338290E+02	  0.082725458	2.182700E+01	  0.082725458	1.778400E+01
315	  0.082925856	-6.949000E+00	  0.082925856	1.330890E+02	  0.082925856	2.197800E+01	  0.082925856	1.807000E+01
316	  0.083126254	-6.970000E+00	  0.083126254	1.323220E+02	  0.083126254	2.214300E+01	  0.083126254	1.836500E+01
317	  0.083326660	-6.987000E+00	  0.083326660	1.315720E+02	  0.083326660	2.229600E+01	  0.083326660	1.865600E+01
318	  0.083527058	-7.005000E+00	  0.083527058	1.308250E+02	  0.083527058	2.245500E+01	  0.083527058	1.894500E+01
319	  0.083727457	-7.020000E+00	  0.083727457	1.300990E+02	  0.083727457	2.260600E+01	  0.083727457	1.922900E+01
320	  0.083927862	-7.035000E+00	  0.083927862	1.293740E+02	  0.083927862	2.275700E+01	  0.083927862	1.951200E+01
321	  0.084128261	-7.053000E+00	  0.084128261	1.286560E+02	  0.084128261	2.291800E+01	  0.084128261	1.979000E+01
322	  0.084328659	-7.076000E+00	  0.084328659	1.279500E+02	  0.084328659	2.309400E+01	  0.084328659	2.005700E+01
323	  0.084529065	-7.093000E+00	  0.084529065	1.272470E+02	  0.084529065	2.325400E+01	  0.084529065	2.033100E+01
324	  0.084729463	-7.121000E+00	  0.084729463	1.265790E+02	  0.084729463	2.344200E+01	  0.084729463	2.057700E+01
325	  0.084929861	-7.137000E+00	  0.084929861	1.258560E+02	  0.084929861	2.360800E+01	  0.084929861	2.085900E+01
326	  0.085130267	-7.160000E+00	  0.085130267	1.251690E+02	  0.085130267	2.379100E+01	  0.085130267	2.111800E+01
327	  0.085330658	-7.181000E+00	  0.085330658	1.244930E+02	  0.085330658	2.396800E+01	  0.085330658	2.137400E+01
328	  0.085531056	-7.211000E+00	  0.085531056	1.238050E+02	  0.085531056	2.417500E+01	  0.085531056	2.162400E+01
329	  0.085731462	-7.236000E+00	  0.085731462	1.231480E+02	  0.085731462	2.436500E+01	  0.085731462	2.186700E+01
330	  0.085931860	-7.262000E+00	  0.085931860	1.224810E+02	  0.085931860	2.456100E+01	  0.085931860	2.211200E+01
331	  0.086132258	-7.292000E+00	  0.086132258	1.218220E+02	  0.086132258	2.477000E+01	  0.086132258	2.234900E+01
332	  0.086332664	-7.320000E+00	  0.086332664	1.211360E+02	  0.086332664	2.498000E+01	  0.086332664	2.259900E+01
333	  0.086533062	-7.352000E+00	  0.086533062	1.204740E+02	  0.086533062	2.520100E+01	  0.086533062	2.283200E+01
334	  0.086733460	-7.377000E+00	  0.086733460	1.197620E+02	  0.086733460	2.541500E+01	  0.086733460	2.309500E+01
335	  0.086933866	-7.405000E+00	  0.086933866	1.190760E+02	  0.086933866	2.563300E+01	  0.086933866	2.334300E+01
336	  0.087134264	-7.431000E+00	  0.087134264	1.183870E+02	  0.087134264	2.585000E+01	  0.087134264	2.359400E+01
337	  0.087334670	-7.463000E+00	  0.087334670	1.177180E+02	  0.087334670	2.608100E+01	  0.087334670	2.382800E+01
338	  0.087535068	-7.490000E+00	  0.087535068	1.170060E+02	  0.087535068	2.631300E+01	  0.087535068	2.408500E+01
339	  0.087735467	-7.517000E+00	  0.087735467	1.163520E+02	  0.087735467	2.653300E+01	  0.087735467	2.431700E+01
340	  0.087935872	-7.541000E+00	  0.087935872	1.156780E+02	  0.087935872	2.675200E+01	  0.087935872	2.456200E+01
341	  0.088136271	-7.573000E+00	  0.088136271	1.150360E+02	  0.088136271	2.698700E+01	  0.088136271	2.478100E+01
342	  0.088336669	-7.597000E+00	  0.088336669	1.143690E+02	  0.088336669	2.720900E+01	  0.088336669	2.502200E+01
343	  0.088537075	-7.626000E+00	  0.088537075	1.137130E+02	  0.088537075	2.744700E+01	  0.088537075	2.524900E+01
344	  0.088737473	-7.649000E+00	  0.088737473	1.130560E+02	  0.088737473	2.767200E+01	  0.088737473	2.548500E+01
345	  0.088937871	-7.675000E+00	  0.088937871	1.124180E+02	  0.088937871	2.790100E+01	  0.088937871	2.570800E+01
346	  0.089138277	-7.702000E+00	  0.089138277	1.118010E+02	  0.089138277	2.813100E+01	  0.089138277	2.591900E+01
347	  0.089338675	-7.726000E+00	  0.089338675	1.111920E+02	  0.089338675	2.835300E+01	  0.089338675	2.613100E+01
348	  0.089539073	-7.760000E+00	  0.089539073	1.106080E+02	  0.089539073	2.859900E+01	  0.089539073	2.631500E+01
349	  0.089739479	-7.787000E+00	  0.089739479	1.099630E+02	  0.089739479	2.884300E+01	  0.089739479	2.653500E+01
350	  0.089939877	-7.819000E+00	  0.089939877	1.093660E+02	  0.089939877	2.909000E+01	  0.089939877	2.672600E+01
351	  0.090140276	-7.844000E+00	  0.090140276	1.086960E+02	  0.090140276	2.934100E+01	  0.090140276	2.695800E+01
352	  0.090340681	-7.869000E+00	  0.090340681	1.081090E+02	  0.090340681	2.957200E+01	  0.090340681	2.715400E+01
353	  0.090541080	-7.895000E+00	  0.090541080	1.075040E+02	  0.090541080	2.981600E+01	  0.090541080	2.735400E+01
354	  0.090741485	-7.921000E+00	  0.090741485	1.069160E+02	  0.090741485	3.005400E+01	  0.090741485	2.754700E+01
355	  0.090941884	-7.953000E+00	  0.090941884	1.063260E+02	  0.090941884	3.031200E+01	  0.090941884	2.772900E+01
356	  0.091142282	-7.979000E+00	  0.091142282	1.057350E+02	  0.091142282	3.055800E+01	  0.091142282	2.791900E+01
357	  0.091342688	-8.007000E+00	  0.091342688	1.051710E+02	  0.091342688	3.080100E+01	  0.091342688	2.809600E+01
358	  0.091543086	-8.029000E+00	  0.091543086	1.045880E+02	  0.091543086	3.103900E+01	  0.091543086	2.828900E+01
359	  0.091743484	-8.057000E+00	  0.091743484	1.040090E+02	  0.091743484	3.129300E+01	  0.091743484	2.846800E+01
360	  0.091943890	-8.082000E+00	  0.091943890	1.034610E+02	  0.091943890	3.153200E+01	  0.091943890	2.863900E+01
361	  0.092144288	-8.104000E+00	  0.092144288	1.029120E+02	  0.092144288	3.176400E+01	  0.092144288	2.881600E+01
362	  0.092344686	-8.135000E+00	  0.092344686	1.023460E+02	  0.092344686	3.202900E+01	  0.092344686	2.897900E+01
363	  0.092545092	-8.159000E+00	  0.092545092	1.018270E+02	  0.092545092	3.226300E+01	  0.092545092	2.913600E+01
364	  0.092745490	-8.190000E+00	  0.092745490	1.013090E+02	  0.092745490	3.251500E+01	  0.092745490	2.927800E+01
365	  0.092945889	-8.218000E+00	  0.092945889	1.007350E+02	  0.092945889	3.278300E+01	  0.092945889	2.944400E+01
366	  0.093146294	-8.251000E+00	  0.093146294	1.002000E+02	  0.093146294	3.304900E+01	  0.093146294	2.958500E+01
367	  0.093346693	-8.271000E+00	  0.093346693	9.967300E+01	  0.093346693	3.328500E+01	  0.093346693	2.974900E+01
368	  0.093547091	-8.302000E+00	  0.093547091	9.914700E+01	  0.093547091	3.354700E+01	  0.093547091	2.988800E+01
369	  0.093747497	-8.319000E+00	  0.093747497	9.860800E+01	  0.093747497	3.378300E+01	  0.093747497	3.005900E+01
370	  0.093947895	-8.350000E+00	  0.093947895	9.805500E+01	  0.093947895	3.405900E+01	  0.093947895	3.020600E+01
371	  0.094148301	-8.371000E+00	  0.094148301	9.750900E+01	  0.094148301	3.431100E+01	  0.094148301	3.037000E+01
372	  0.094348699	-8.397000E+00	  0.094348699	9.702500E+01	  0.094348699	3.455600E+01	  0.094348699	3.049500E+01
373	  0.094549097	-8.418000E+00	  0.094549097	9.652600E+01	  0.094549097	3.479400E+01	  0.094549097	3.063900E+01
374	  0.094749503	-8.438000E+00	  0.094749503	9.601900E+01	  0.094749503	3.503500E+01	  0.094749503	3.078700E+01
375	  0.094949901	-8.451000E+00	  0.094949901	9.552100E+01	  0.094949901	3.525700E+01	  0.094949901	3.094600E+01
376	  0.095150299	-8.470000E+00	  0.095150299	9.506100E+01	  0.095150299	3.548100E+01	  0.095150299	3.107700E+01
377	  0.095350705	-8.482000E+00	  0.095350705	9.457500E+01	  0.095350705	3.570100E+01	  0.095350705	3.123200E+01
378	  0.095551103	-8.498000E+00	  0.095551103	9.410300E+01	  0.095551103	3.592600E+01	  0.095551103	3.137100E+01
379	  0.095751502	-8.513000E+00	  0.095751502	9.365400E+01	  0.095751502	3.613900E+01	  0.095751502	3.150600E+01
380	  0.095951907	-8.528000E+00	  0.095951907	9.323400E+01	  0.095951907	3.634500E+01	  0.095951907	3.162700E+01
381	  0.096152306	-8.545000E+00	  0.096152306	9.282900E+01	  0.096152306	3.655200E+01	  0.096152306	3.173400E+01
382	  0.096352704	-8.559000E+00	  0.096352704	9.241600E+01	  0.096352704	3.675500E+01	  0.096352704	3.185200E+01
383	  0.096553110	-8.571000E+00	  0.096553110	9.201500E+01	  0.096553110	3.694900E+01	  0.096553110	3.197200E+01
384	  0.096753508	-8.583000E+00	  0.096753508	9.160500E+01	  0.096753508	3.715000E+01	  0.096753508	3.209100E+01
385	  0.096953906	-8.597000E+00	  0.096953906	9.121700E+01	  0.096953906	3.734500E+01	  0.096953906	3.220000E+01
386	  0.097154312	-8.610000E+00	  0.097154312	9.085100E+01	  0.097154312	3.753100E+01	  0.097154312	3.230100E+01
387	  0.097354710	-8.624000E+00	  0.097354710	9.049700E+01	  0.097354710	3.771700E+01	  0.097354710	3.239200E+01
388	  0.097555116	-8.635000E+00	  0.097555116	9.010800E+01	  0.097555116	3.791000E+01	  0.097555116	3.250600E+01
389	  0.097755514	-8.643000E+00	  0.097755514	8.974600E+01	  0.097755514	3.808700E+01	  0.097755514	3.261500E+01
390	  0.097955912	-8.663000E+00	  0.097955912	8.935200E+01	  0.097955912	3.830600E+01	  0.097955912	3.270300E+01
391	  0.098156318	-8.676000E+00	  0.098156318	8.903300E+01	  0.098156318	3.847800E+01	  0.098156318	3.278200E+01
392	  0.098356716	-8.686000E+00	  0.098356716	8.868400E+01	  0.098356716	3.865600E+01	  0.098356716	3.288200E+01
393	  0.098557115	-8.692000E+00	  0.098557115	8.829600E+01	  0.098557115	3.884300E+01	  0.098557115	3.300400E+01
394	  0.098757520	-8.705000E+00	  0.098757520	8.795100E+01	  0.098757520	3.903000E+01	  0.098757520	3.309000E+01
395	  0.098957919	-8.716000E+00	  0.098957919	8.755700E+01	  0.098957919	3.923500E+01	  0.098957919	3.319900E+01
396	  0.099158317	-8.729000E+00	  0.099158317	8.719300E+01	  0.099158317	3.943200E+01	  0.099158317	3.329100E+01
397	  0.099358723	-8.740000E+00	  0.099358723	8.686000E+01	  0.099358723	3.961000E+01	  0.099358723	3.337800E+01
398	  0.099559121	-8.747000E+00	  0.099559121	8.646400E+01	  0.099559121	3.980900E+01	  0.099559121	3.349800E+01
399	  0.099759519	-8.757000E+00	  0.099759519	8.612100E+01	  0.099759519	3.999400E+01	  0.099759519	3.358700E+01
400	  0.099959925	-8.782000E+00	  0.099959925	8.570900E+01	  0.099959925	4.024500E+01	  0.099959925	3.365700E+01
401	  0.100160323	-8.786000E+00	  0.100160323	8.535100E+01	  0.100160323	4.042600E+01	  0.100160323	3.376800E+01
402	  0.100360721	-8.794000E+00	  0.100360721	8.493600E+01	  0.100360721	4.064200E+01	  0.100360721	3.388900E+01
403	  0.100561127	-8.799000E+00	  0.100561127	8.449000E+01	  0.100561127	4.086800E+01	  0.100561127	3.402900E+01
404	  0.100761525	-8.811000E+00	  0.100761525	8.404400E+01	  0.100761525	4.111300E+01	  0.100761525	3.414500E+01
405	  0.100961931	-8.804000E+00	  0.100961931	8.363100E+01	  0.100961931	4.130100E+01	  0.100961931	3.430800E+01
406	  0.101162329	-8.818000E+00	  0.101162329	8.322600E+01	  0.101162329	4.153400E+01	  0.101162329	3.440200E+01
407	  0.101362728	-8.818000E+00	  0.101362728	8.273700E+01	  0.101362728	4.178000E+01	  0.101362728	3.456700E+01
408	  0.101563133	-8.810000E+00	  0.101563133	8.230900E+01	  0.101563133	4.197700E+01	  0.101563133	3.474100E+01
409	  0.101763532	-8.805000E+00	  0.101763532	8.187100E+01	  0.101763532	4.219200E+01	  0.101763532	3.490500E+01
410	  0.101963930	-8.807000E+00	  0.101963930	8.133700E+01	  0.101963930	4.247100E+01	  0.101963930	3.508000E+01
411	  0.102164336	-8.794000E+00	  0.102164336	8.088900E+01	  0.102164336	4.267700E+01	  0.102164336	3.527500E+01
412	  0.102364734	-8.787000E+00	  0.102364734	8.039900E+01	  0.102364734	4.292000E+01	  0.102364734	3.546300E+01
413	  0.102565132	-8.775000E+00	  0.102565132	7.991100E+01	  0.102565132	4.315400E+01	  0.102565132	3.566900E+01
414	  0.102765530	-8.763000E+00	  0.102765530	7.946300E+01	  0.102765530	4.337000E+01	  0.102765530	3.586100E+01
415	  0.102965929	-8.740000E+00	  0.102965929	7.899900E+01	  0.102965929	4.357300E+01	  0.102965929	3.609700E+01
416	  0.103166327	-8.738000E+00	  0.103166327	7.852700E+01	  0.103166327	4.382900E+01	  0.103166327	3.626000E+01
417	  0.103366733	-8.723000E+00	  0.103366733	7.808200E+01	  0.103366733	4.404500E+01	  0.103366733	3.646300E+01
418	  0.103567131	-8.703000E+00	  0.103567131	7.764800E+01	  0.103567131	4.424500E+01	  0.103567131	3.668100E+01
419	  0.103767529	-8.678000E+00	  0.103767529	7.716400E+01	  0.103767529	4.446700E+01	  0.103767529	3.693500E+01
420	  0.103967935	-8.672000E+00	  0.103967935	7.669300E+01	  0.103967935	4.472500E+01	  0.103967935	3.711200E+01
421	  0.104168333	-8.651000E+00	  0.104168333	7.621200E+01	  0.104168333	4.496100E+01	  0.104168333	3.734800E+01
422	  0.104368731	-8.628000E+00	  0.104368731	7.581400E+01	  0.104368731	4.514700E+01	  0.104368731	3.756800E+01
423	  0.104569137	-8.612000E+00	  0.104569137	7.535800E+01	  0.104569137	4.538400E+01	  0.104569137	3.777900E+01
424	  0.104769535	-8.594000E+00	  0.104769535	7.483800E+01	  0.104769535	4.565600E+01	  0.104769535	3.802300E+01
425	  0.104969934	-8.564000E+00	  0.104969934	7.437200E+01	  0.104969934	4.587600E+01	  0.104969934	3.829500E+01
426	  0.105170339	-8.551000E+00	  0.105170339	7.390900E+01	  0.105170339	4.613500E+01	  0.105170339	3.849500E+01
427	  0.105370738	-8.528000E+00	  0.105370738	7.344600E+01	  0.105370738	4.637400E+01	  0.105370738	3.874100E+01
428	  0.105571143	-8.510000E+00	  0.105571143	7.296200E+01	  0.105571143	4.664100E+01	  0.105571143	3.897100E+01
429	  0.105771542	-8.491000E+00	  0.105771542	7.241500E+01	  0.105771542	4.695000E+01	  0.105771542	3.922800E+01
430	  0.105971940	-8.478000E+00	  0.105971940	7.194500E+01	  0.105971940	4.722600E+01	  0.105971940	3.943400E+01
431	  0.106172346	-8.450000E+00	  0.106172346	7.144300E+01	  0.106172346	4.749600E+01	  0.106172346	3.971500E+01
432	  0.106372744	-8.446000E+00	  0.106372744	7.094500E+01	  0.106372744	4.781900E+01	  0.106372744	3.988700E+01
433	  0.106573142	-8.410000E+00	  0.106573142	7.038000E+01	  0.106573142	4.812300E+01	  0.106573142	4.022400E+01
434	  0.106773548	-8.395000E+00	  0.106773548	6.992500E+01	  0.106773548	4.839900E+01	  0.106773548	4.043700E+01
435	  0.106973946	-8.384000E+00	  0.106973946	6.931200E+01	  0.106973946	4.880000E+01	  0.106973946	4.067600E+01
436	  0.107174344	-8.369000E+00	  0.107174344	6.876100E+01	  0.107174344	4.915300E+01	  0.107174344	4.091500E+01
437	  0.107374750	-8.357000E+00	  0.107374750	6.814300E+01	  0.107374750	4.956700E+01	  0.107374750	4.115700E+01
438	  0.107575148	-8.346000E+00	  0.107575148	6.754100E+01	  0.107575148	4.997500E+01	  0.107575148	4.139500E+01
439	  0.107775547	-8.326000E+00	  0.107775547	6.692100E+01	  0.107775547	5.038700E+01	  0.107775547	4.167500E+01
440	  0.107975952	-8.313000E+00	  0.107975952	6.634100E+01	  0.107975952	5.079100E+01	  0.107975952	4.190700E+01
441	  0.108176351	-8.308000E+00	  0.108176351	6.565900E+01	  0.108176351	5.129100E+01	  0.108176351	4.213000E+01
442	  0.108376749	-8.287000E+00	  0.108376749	6.505000E+01	  0.108376749	5.171600E+01	  0.108376749	4.240700E+01
443	  0.108577155	-8.275000E+00	  0.108577155	6.437600E+01	  0.108577155	5.221400E+01	  0.108577155	4.265700E+01
444	  0.108777553	-8.267000E+00	  0.108777553	6.372500E+01	  0.108777553	5.270800E+01	  0.108777553	4.287900E+01
445	  0.108977959	-8.246000E+00	  0.108977959	6.304400E+01	  0.108977959	5.321300E+01	  0.108977959	4.317300E+01
446	  0.109178357	-8.242000E+00	  0.109178357	6.232300E+01	  0.109178357	5.378700E+01	  0.109178357	4.338700E+01
447	  0.109378755	-8.229000E+00	  0.109378755	6.168200E+01	  0.109378755	5.429200E+01	  0.109378755	4.362100E+01
448	  0.109579161	-8.205000E+00	  0.109579161	6.096600E+01	  0.109579161	5.485000E+01	  0.109579161	4.393200E+01
449	  0.109779559	-8.196000E+00	  0.109779559	6.028100E+01	  0.109779559	5.541500E+01	  0.109779559	4.415000E+01
450	  0.109979957	-8.191000E+00	  0.109979957	5.961600E+01	  0.109979957	5.598000E+01	  0.109979957	4.433500E+01
451	  0.110180363	-8.174000E+00	  0.110180363	5.888000E+01	  0.110180363	5.659700E+01	  0.110180363	4.460100E+01
452	  0.110380761	-8.164000E+00	  0.110380761	5.817300E+01	  0.110380761	5.721000E+01	  0.110380761	4.481800E+01
453	  0.110581160	-8.154000E+00	  0.110581160	5.746600E+01	  0.110581160	5.783400E+01	  0.110581160	4.502600E+01
454	  0.110781565	-8.142000E+00	  0.110781565	5.673800E+01	  0.110781565	5.848500E+01	  0.110781565	4.524600E+01
455	  0.110981964	-8.145000E+00	  0.110981964	5.598300E+01	  0.110981964	5.919200E+01	  0.110981964	4.536700E+01
456	  0.111182362	-8.127000E+00	  0.111182362	5.530000E+01	  0.111182362	5.981600E+01	  0.111182362	4.560100E+01
457	  0.111382768	-8.125000E+00	  0.111382768	5.458200E+01	  0.111382768	6.050200E+01	  0.111382768	4.574000E+01
458	  0.111583166	-8.118000E+00	  0.111583166	5.389500E+01	  0.111583166	6.116300E+01	  0.111583166	4.589100E+01
459	  0.111783572	-8.116000E+00	  0.111783572	5.308800E+01	  0.111783572	6.195900E+01	  0.111783572	4.601600E+01
460	  0.111983970	-8.111000E+00	  0.111983970	5.235800E+01	  0.111983970	6.268600E+01	  0.111983970	4.614300E+01
461	  0.112184368	-8.111000E+00	  0.112184368	5.160700E+01	  0.112184368	6.345000E+01	  0.112184368	4.622900E+01
462	  0.112384774	-8.111000E+00	  0.112384774	5.082700E+01	  0.112384774	6.425500E+01	  0.112384774	4.630700E+01
463	  0.112585172	-8.118000E+00	  0.112585172	5.002600E+01	  0.112585172	6.509600E+01	  0.112585172	4.632400E+01
464	  0.112785570	-8.116000E+00	  0.112785570	4.920500E+01	  0.112785570	6.596500E+01	  0.112785570	4.639100E+01
465	  0.112985976	-8.118000E+00	  0.112985976	4.844800E+01	  0.112985976	6.677900E+01	  0.112985976	4.640800E+01
466	  0.113186374	-8.132000E+00	  0.113186374	4.762900E+01	  0.113186374	6.767200E+01	  0.113186374	4.632500E+01
467	  0.113386773	-8.133000E+00	  0.113386773	4.680300E+01	  0.113386773	6.858300E+01	  0.113386773	4.632000E+01
468	  0.113587178	-8.144000E+00	  0.113587178	4.592000E+01	  0.113587178	6.956700E+01	  0.113587178	4.622300E+01
469	  0.113787577	-8.150000E+00	  0.113787577	4.507800E+01	  0.113787577	7.051500E+01	  0.113787577	4.613400E+01
470	  0.113987975	-8.166000E+00	  0.113987975	4.417200E+01	  0.113987975	7.154200E+01	  0.113987975	4.594800E+01
471	  0.114188381	-8.173000E+00	  0.114188381	4.331200E+01	  0.114188381	7.252900E+01	  0.114188381	4.580900E+01
472	  0.114388779	-8.174000E+00	  0.114388779	4.238700E+01	  0.114388779	7.360800E+01	  0.114388779	4.568000E+01
473	  0.114589177	-8.185000E+00	  0.114589177	4.147500E+01	  0.114589177	7.467100E+01	  0.114589177	4.544300E+01
474	  0.114789583	-8.202000E+00	  0.114789583	4.049200E+01	  0.114789583	7.581900E+01	  0.114789583	4.512300E+01
475	  0.114989981	-8.216000E+00	  0.114989981	3.955500E+01	  0.114989981	7.692100E+01	  0.114989981	4.479900E+01
476	  0.115190387	-8.229000E+00	  0.115190387	3.865900E+01	  0.115190387	7.797800E+01	  0.115190387	4.445600E+01
477	  0.115390785	-8.237000E+00	  0.115390785	3.767600E+01	  0.115390785	7.915700E+01	  0.115390785	4.410200E+01
478	  0.115591183	-8.257000E+00	  0.115591183	3.667600E+01	  0.115591183	8.033400E+01	  0.115591183	4.360300E+01
479	  0.115791589	-8.269000E+00	  0.115791589	3.569400E+01	  0.115791589	8.150500E+01	  0.115791589	4.312900E+01
480	  0.115991987	-8.286000E+00	  0.115991987	3.469100E+01	  0.115991987	8.269100E+01	  0.115991987	4.257300E+01
481	  0.116192386	-8.300000E+00	  0.116192386	3.370200E+01	  0.116192386	8.386500E+01	  0.116192386	4.200300E+01
482	  0.116392791	-8.312000E+00	  0.116392791	3.266900E+01	  0.116392791	8.509400E+01	  0.116392791	4.138300E+01
483	  0.116593190	-8.336000E+00	  0.116593190	3.168900E+01	  0.116593190	8.620900E+01	  0.116593190	4.065000E+01
484	  0.116793588	-8.361000E+00	  0.116793588	3.061200E+01	  0.116793588	8.742400E+01	  0.116793588	3.980800E+01
485	  0.116993994	-8.385000E+00	  0.116993994	2.958500E+01	  0.116993994	8.856400E+01	  0.116993994	3.895300E+01
486	  0.117194392	-8.408000E+00	  0.117194392	2.853700E+01	  0.117194392	8.971400E+01	  0.117194392	3.804600E+01
487	  0.117394790	-8.435000E+00	  0.117394790	2.753300E+01	  0.117394790	9.077400E+01	  0.117394790	3.709800E+01
488	  0.117595196	-8.472000E+00	  0.117595196	2.647600E+01	  0.117595196	9.180900E+01	  0.117595196	3.597700E+01
489	  0.117795594	-8.501000E+00	  0.117795594	2.540700E+01	  0.117795594	9.287000E+01	  0.117795594	3.486700E+01
490	  0.117995992	-8.539000E+00	  0.117995992	2.436800E+01	  0.117995992	9.381400E+01	  0.117995992	3.368000E+01
491	  0.118196398	-8.579000E+00	  0.118196398	2.327900E+01	  0.118196398	9.475300E+01	  0.118196398	3.238400E+01
492	  0.118396796	-8.629000E+00	  0.118396796	2.216700E+01	  0.118396796	9.560500E+01	  0.118396796	3.096000E+01
493	  0.118597202	-8.676000E+00	  0.118597202	2.108700E+01	  0.118597202	9.638200E+01	  0.118597202	2.954900E+01
494	  0.118797600	-8.731000E+00	  0.118797600	1.994900E+01	  0.118797600	9.710900E+01	  0.118797600	2.800000E+01
495	  0.118997999	-8.787000E+00	  0.118997999	1.883000E+01	  0.118997999	9.774400E+01	  0.118997999	2.643900E+01
496	  0.119198404	-8.854000E+00	  0.119198404	1.767600E+01	  0.119198404	9.825100E+01	  0.119198404	2.474700E+01
497	  0.119398803	-8.920000E+00	  0.119398803	1.655100E+01	  0.119398803	9.867800E+01	  0.119398803	2.309400E+01
498	  0.119599201	-8.997000E+00	  0.119599201	1.534000E+01	  0.119599201	9.899800E+01	  0.119599201	2.126800E+01
499	  0.119799607	-9.073000E+00	  0.119799607	1.416300E+01	  0.119799607	9.923100E+01	  0.119799607	1.949900E+01
500	  0.120000005	-9.157000E+00	  0.120000005	1.292300E+01	  0.120000005	9.934400E+01	  0.120000005	1.762200E+01
