! Anritsu VNA Master:             	Model: MS2036C/10/77
! SN:             	1601066
! /bd0/18may8/255.ns.m8.txt
! Existing Calibration Information:
! TYPE:             	Current Settings	Active Cal Settings
! TIME:             	05/08/2018 01:04:47 PM	05/08/2018 01:00:27 PM
! INTERNAL TEMP:    	60.0 C	60.0 C
! # POINTS:         	500	500
! START FREQ:       	20.000 MHz	20.000 MHz
! STOP FREQ:        	120.000 MHz	120.000 MHz
! SOURCE POWER:     	High	High
! IFBW:             	50 Hz	50 Hz
! AVG FACTOR:       	  1 	  1 
! REF PLANE 1:      	0 mm	0 mm
! REF PLANE 2:      	0 mm	0 mm
! CAL TYPE:         	Full S11	Full S11
! CAL METHOD:       	SOLT	SOLT
! CAL LINE TYPE:    	Coax	Coax
! DUT PORT 1:       	K-Conn(F)	K-Conn(F)
! DUT PORT 2:       	K-Conn(F)	K-Conn(F)
! CAL STATUS:       	OK: Accuracy High	--
! PROP-V:       	0.700
! CABLE LOSS:       	0.000 dB/m
! REF IMPEDANCE:       	50.0
! Trace Specific Parameters:	TR1	TR2	TR3	TR4
! TRACE.#.Y (GRAPH TYPE)	LOG MAG	PHASE	REAL IMPEDANCE	IMAGINARY IMPEDANCE
! TRACE.#.X 	FREQ.GHZ	FREQ.GHZ	FREQ.GHZ	FREQ.GHZ
! S-PARAMETER	S11	S11	S11	S11
! SMOOTH/APERTURE %	0	0	0	0
! WINDOW	NSL	NSL	NSL	NSL
! GATING	OFF	OFF	OFF	OFF
! FGTD	OFF	OFF	OFF	OFF
Marker Information per Trace:	TR1	TR2	TR3	TR4
!MK1	--	"MK1 TR2:  20.000 MHz,PH:-124.30°"	--	--
!MK2	--	--	"MK2 TR3:  70.100 200 MHz,Z:(17.450 ohm, -3.251 ohm)"	--
!MK3	--	--	--	--
!MK4	--	--	--	--
!MK5	--	--	--	--
!MK6	--	--	--	--
!MK7	--	--	--	--
!MK8	--	--	--	--
PNT	TR1.FREQ.GHZ	TR1.LOG MAG.dB	TR2.FREQ.GHZ	TR2.PHASE.deg	TR3.FREQ.GHZ	TR3.REAL IMPEDANCE.ohm	TR4.FREQ.GHZ	TR4.IMAGINARY IMPEDANCE.ohm
1	  0.020000000	-6.320000E-01	  0.020000000	-1.242980E+02	  0.020000000	2.327000E+00	  0.020000000	-2.637300E+01
2	  0.020200402	-6.290000E-01	  0.020200402	-1.257360E+02	  0.020200402	2.285000E+00	  0.020200402	-2.557800E+01
3	  0.020400802	-6.290000E-01	  0.020400802	-1.271710E+02	  0.020400802	2.256000E+00	  0.020400802	-2.479500E+01
4	  0.020601204	-6.290000E-01	  0.020601204	-1.286120E+02	  0.020601204	2.230000E+00	  0.020601204	-2.401700E+01
5	  0.020801604	-6.330000E-01	  0.020801604	-1.300900E+02	  0.020801604	2.215000E+00	  0.020801604	-2.322900E+01
6	  0.021002004	-6.380000E-01	  0.021002004	-1.315750E+02	  0.021002004	2.208000E+00	  0.021002004	-2.244700E+01
7	  0.021202406	-6.440000E-01	  0.021202406	-1.331010E+02	  0.021202406	2.203000E+00	  0.021202406	-2.165200E+01
8	  0.021402806	-6.480000E-01	  0.021402806	-1.345990E+02	  0.021402806	2.193000E+00	  0.021402806	-2.088100E+01
9	  0.021603208	-6.520000E-01	  0.021603208	-1.361230E+02	  0.021603208	2.181000E+00	  0.021603208	-2.010500E+01
10	  0.021803608	-6.560000E-01	  0.021803608	-1.376440E+02	  0.021803608	2.171000E+00	  0.021803608	-1.933900E+01
11	  0.022004008	-6.620000E-01	  0.022004008	-1.391620E+02	  0.022004008	2.169000E+00	  0.022004008	-1.858200E+01
12	  0.022204408	-6.670000E-01	  0.022204408	-1.406990E+02	  0.022204408	2.164000E+00	  0.022204408	-1.782400E+01
13	  0.022404809	-6.710000E-01	  0.022404809	-1.422370E+02	  0.022404809	2.157000E+00	  0.022404809	-1.707200E+01
14	  0.022605211	-6.730000E-01	  0.022605211	-1.438320E+02	  0.022605211	2.144000E+00	  0.022605211	-1.629900E+01
15	  0.022805611	-6.730000E-01	  0.022805611	-1.454010E+02	  0.022805611	2.124000E+00	  0.022805611	-1.554600E+01
16	  0.023006011	-6.740000E-01	  0.023006011	-1.469850E+02	  0.023006011	2.111000E+00	  0.023006011	-1.479300E+01
17	  0.023206413	-6.760000E-01	  0.023206413	-1.485480E+02	  0.023206413	2.100000E+00	  0.023206413	-1.405500E+01
18	  0.023406813	-6.780000E-01	  0.023406813	-1.501130E+02	  0.023406813	2.090000E+00	  0.023406813	-1.332200E+01
19	  0.023607215	-6.800000E-01	  0.023607215	-1.516960E+02	  0.023607215	2.082000E+00	  0.023607215	-1.258600E+01
20	  0.023807615	-6.850000E-01	  0.023807615	-1.532800E+02	  0.023807615	2.082000E+00	  0.023807615	-1.185500E+01
21	  0.024008015	-6.920000E-01	  0.024008015	-1.548680E+02	  0.024008015	2.091000E+00	  0.024008015	-1.112600E+01
22	  0.024208417	-7.020000E-01	  0.024208417	-1.564910E+02	  0.024208417	2.106000E+00	  0.024208417	-1.038600E+01
23	  0.024408817	-7.070000E-01	  0.024408817	-1.581130E+02	  0.024408817	2.112000E+00	  0.024408817	-9.650000E+00
24	  0.024609219	-7.140000E-01	  0.024609219	-1.597460E+02	  0.024609219	2.121000E+00	  0.024609219	-8.914000E+00
25	  0.024809619	-7.220000E-01	  0.024809619	-1.613810E+02	  0.024809619	2.134000E+00	  0.024809619	-8.181000E+00
26	  0.025010020	-7.320000E-01	  0.025010020	-1.630220E+02	  0.025010020	2.153000E+00	  0.025010020	-7.449000E+00
27	  0.025210422	-7.420000E-01	  0.025210422	-1.646680E+02	  0.025210422	2.175000E+00	  0.025210422	-6.717000E+00
28	  0.025410822	-7.540000E-01	  0.025410822	-1.663260E+02	  0.025410822	2.200000E+00	  0.025410822	-5.983000E+00
29	  0.025611224	-7.670000E-01	  0.025611224	-1.680050E+02	  0.025611224	2.231000E+00	  0.025611224	-5.242000E+00
30	  0.025811624	-7.790000E-01	  0.025811624	-1.697040E+02	  0.025811624	2.260000E+00	  0.025811624	-4.495000E+00
31	  0.026012026	-7.890000E-01	  0.026012026	-1.714210E+02	  0.026012026	2.284000E+00	  0.026012026	-3.742000E+00
32	  0.026212426	-7.990000E-01	  0.026212426	-1.731390E+02	  0.026212426	2.308000E+00	  0.026212426	-2.990000E+00
33	  0.026412826	-8.110000E-01	  0.026412826	-1.748590E+02	  0.026412826	2.338000E+00	  0.026412826	-2.239000E+00
34	  0.026613226	-8.220000E-01	  0.026613226	-1.765930E+02	  0.026613226	2.367000E+00	  0.026613226	-1.483000E+00
35	  0.026813626	-8.370000E-01	  0.026813626	-1.783440E+02	  0.026813626	2.410000E+00	  0.026813626	-7.200000E-01
36	  0.027014028	-8.510000E-01	  0.027014028	1.799000E+02	  0.027014028	2.449000E+00	  0.027014028	4.300000E-02
37	  0.027214428	-8.680000E-01	  0.027214428	1.781350E+02	  0.027214428	2.499000E+00	  0.027214428	8.110000E-01
38	  0.027414829	-8.840000E-01	  0.027414829	1.763570E+02	  0.027414829	2.547000E+00	  0.027414829	1.585000E+00
39	  0.027615231	-9.000000E-01	  0.027615231	1.745600E+02	  0.027615231	2.596000E+00	  0.027615231	2.368000E+00
40	  0.027815631	-9.180000E-01	  0.027815631	1.727530E+02	  0.027815631	2.651000E+00	  0.027815631	3.157000E+00
41	  0.028016033	-9.380000E-01	  0.028016033	1.709400E+02	  0.028016033	2.714000E+00	  0.028016033	3.949000E+00
42	  0.028216433	-9.600000E-01	  0.028216433	1.691130E+02	  0.028216433	2.786000E+00	  0.028216433	4.749000E+00
43	  0.028416833	-9.800000E-01	  0.028416833	1.672840E+02	  0.028416833	2.852000E+00	  0.028416833	5.553000E+00
44	  0.028617235	-9.990000E-01	  0.028617235	1.654450E+02	  0.028617235	2.919000E+00	  0.028617235	6.363000E+00
45	  0.028817635	-1.018000E+00	  0.028817635	1.636190E+02	  0.028817635	2.988000E+00	  0.028817635	7.171000E+00
46	  0.029018037	-1.036000E+00	  0.029018037	1.618000E+02	  0.029018037	3.054000E+00	  0.029018037	7.979000E+00
47	  0.029218437	-1.053000E+00	  0.029218437	1.599650E+02	  0.029218437	3.123000E+00	  0.029218437	8.798000E+00
48	  0.029418837	-1.076000E+00	  0.029418837	1.581480E+02	  0.029418837	3.209000E+00	  0.029418837	9.613000E+00
49	  0.029619239	-1.100000E+00	  0.029619239	1.563150E+02	  0.029619239	3.300000E+00	  0.029619239	1.044000E+01
50	  0.029819639	-1.127000E+00	  0.029819639	1.544620E+02	  0.029819639	3.405000E+00	  0.029819639	1.128100E+01
51	  0.030020041	-1.157000E+00	  0.030020041	1.525730E+02	  0.030020041	3.524000E+00	  0.030020041	1.214300E+01
52	  0.030220442	-1.186000E+00	  0.030220442	1.506660E+02	  0.030220442	3.641000E+00	  0.030220442	1.302100E+01
53	  0.030420844	-1.214000E+00	  0.030420844	1.487560E+02	  0.030420844	3.761000E+00	  0.030420844	1.390700E+01
54	  0.030621244	-1.245000E+00	  0.030621244	1.468510E+02	  0.030621244	3.893000E+00	  0.030621244	1.479800E+01
55	  0.030821644	-1.274000E+00	  0.030821644	1.449630E+02	  0.030821644	4.025000E+00	  0.030821644	1.568900E+01
56	  0.031022044	-1.307000E+00	  0.031022044	1.430540E+02	  0.031022044	4.172000E+00	  0.031022044	1.659800E+01
57	  0.031222444	-1.335000E+00	  0.031222444	1.411550E+02	  0.031222444	4.308000E+00	  0.031222444	1.751300E+01
58	  0.031422846	-1.371000E+00	  0.031422846	1.392040E+02	  0.031422846	4.480000E+00	  0.031422846	1.846100E+01
59	  0.031623244	-1.409000E+00	  0.031623244	1.372320E+02	  0.031623244	4.663000E+00	  0.031623244	1.943000E+01
60	  0.031823646	-1.445000E+00	  0.031823646	1.352540E+02	  0.031823646	4.846000E+00	  0.031823646	2.041500E+01
61	  0.032024048	-1.482000E+00	  0.032024048	1.332700E+02	  0.032024048	5.043000E+00	  0.032024048	2.141400E+01
62	  0.032224450	-1.519000E+00	  0.032224450	1.312930E+02	  0.032224450	5.247000E+00	  0.032224450	2.242400E+01
63	  0.032424849	-1.552000E+00	  0.032424849	1.293100E+02	  0.032424849	5.446000E+00	  0.032424849	2.345200E+01
64	  0.032625251	-1.589000E+00	  0.032625251	1.273120E+02	  0.032625251	5.668000E+00	  0.032625251	2.450300E+01
65	  0.032825653	-1.624000E+00	  0.032825653	1.253290E+02	  0.032825653	5.894000E+00	  0.032825653	2.556100E+01
66	  0.033026051	-1.661000E+00	  0.033026051	1.233470E+02	  0.033026051	6.136000E+00	  0.033026051	2.663600E+01
67	  0.033226453	-1.702000E+00	  0.033226453	1.213560E+02	  0.033226453	6.405000E+00	  0.033226453	2.773200E+01
68	  0.033426855	-1.745000E+00	  0.033426855	1.193850E+02	  0.033426855	6.694000E+00	  0.033426855	2.883400E+01
69	  0.033627257	-1.794000E+00	  0.033627257	1.174030E+02	  0.033627257	7.022000E+00	  0.033627257	2.995900E+01
70	  0.033827655	-1.842000E+00	  0.033827655	1.153980E+02	  0.033827655	7.360000E+00	  0.033827655	3.111700E+01
71	  0.034028057	-1.895000E+00	  0.034028057	1.133590E+02	  0.034028057	7.743000E+00	  0.034028057	3.231600E+01
72	  0.034228459	-1.945000E+00	  0.034228459	1.112930E+02	  0.034228459	8.135000E+00	  0.034228459	3.355500E+01
73	  0.034428857	-1.994000E+00	  0.034428857	1.091900E+02	  0.034428857	8.547000E+00	  0.034428857	3.484400E+01
74	  0.034629259	-2.043000E+00	  0.034629259	1.070640E+02	  0.034629259	8.987000E+00	  0.034629259	3.617600E+01
75	  0.034829661	-2.092000E+00	  0.034829661	1.049580E+02	  0.034829661	9.445000E+00	  0.034829661	3.752500E+01
76	  0.035030060	-2.137000E+00	  0.035030060	1.028510E+02	  0.035030060	9.922000E+00	  0.035030060	3.890800E+01
77	  0.035230462	-2.181000E+00	  0.035230462	1.007280E+02	  0.035230462	1.041800E+01	  0.035230462	4.033800E+01
78	  0.035430863	-2.225000E+00	  0.035430863	9.863400E+01	  0.035430863	1.094600E+01	  0.035430863	4.178100E+01
79	  0.035631265	-2.269000E+00	  0.035631265	9.654700E+01	  0.035631265	1.150700E+01	  0.035631265	4.325600E+01
80	  0.035831664	-2.310000E+00	  0.035831664	9.448600E+01	  0.035831664	1.208100E+01	  0.035831664	4.475300E+01
81	  0.036032066	-2.356000E+00	  0.036032066	9.242000E+01	  0.036032066	1.272400E+01	  0.036032066	4.628600E+01
82	  0.036232468	-2.405000E+00	  0.036232468	9.036400E+01	  0.036232468	1.342000E+01	  0.036232468	4.784800E+01
83	  0.036432866	-2.451000E+00	  0.036432866	8.833200E+01	  0.036432866	1.414200E+01	  0.036432866	4.943500E+01
84	  0.036633268	-2.501000E+00	  0.036633268	8.629500E+01	  0.036633268	1.494300E+01	  0.036633268	5.106100E+01
85	  0.036833670	-2.554000E+00	  0.036833670	8.425800E+01	  0.036833670	1.581000E+01	  0.036833670	5.272700E+01
86	  0.037034072	-2.612000E+00	  0.037034072	8.221900E+01	  0.037034072	1.677500E+01	  0.037034072	5.442600E+01
87	  0.037234470	-2.674000E+00	  0.037234470	8.016700E+01	  0.037234470	1.783200E+01	  0.037234470	5.617400E+01
88	  0.037434869	-2.737000E+00	  0.037434869	7.809700E+01	  0.037434869	1.898400E+01	  0.037434869	5.798000E+01
89	  0.037635271	-2.797000E+00	  0.037635271	7.600500E+01	  0.037635271	2.021700E+01	  0.037635271	5.985900E+01
90	  0.037835669	-2.861000E+00	  0.037835669	7.392700E+01	  0.037835669	2.156100E+01	  0.037835669	6.176100E+01
91	  0.038036071	-2.928000E+00	  0.038036071	7.179500E+01	  0.038036071	2.305800E+01	  0.038036071	6.375800E+01
92	  0.038236473	-2.988000E+00	  0.038236473	6.966200E+01	  0.038236473	2.463000E+01	  0.038236473	6.582700E+01
93	  0.038436871	-3.049000E+00	  0.038436871	6.751600E+01	  0.038436871	2.635400E+01	  0.038436871	6.795500E+01
94	  0.038637273	-3.105000E+00	  0.038637273	6.539100E+01	  0.038637273	2.817300E+01	  0.038637273	7.013000E+01
95	  0.038837675	-3.158000E+00	  0.038837675	6.327700E+01	  0.038837675	3.011100E+01	  0.038837675	7.236200E+01
96	  0.039038073	-3.211000E+00	  0.039038073	6.120900E+01	  0.039038073	3.218800E+01	  0.039038073	7.458200E+01
97	  0.039238475	-3.258000E+00	  0.039238475	5.914400E+01	  0.039238475	3.438800E+01	  0.039238475	7.688000E+01
98	  0.039438877	-3.306000E+00	  0.039438877	5.707600E+01	  0.039438877	3.680200E+01	  0.039438877	7.921400E+01
99	  0.039639279	-3.362000E+00	  0.039639279	5.506400E+01	  0.039639279	3.943400E+01	  0.039639279	8.145300E+01
100	  0.039839678	-3.421000E+00	  0.039839678	5.304500E+01	  0.039839678	4.233400E+01	  0.039839678	8.368700E+01
101	  0.040040080	-3.482000E+00	  0.040040080	5.101000E+01	  0.040040080	4.552200E+01	  0.040040080	8.592400E+01
102	  0.040240481	-3.542000E+00	  0.040240481	4.896800E+01	  0.040240481	4.899700E+01	  0.040240481	8.814900E+01
103	  0.040440880	-3.608000E+00	  0.040440880	4.690300E+01	  0.040440880	5.286400E+01	  0.040440880	9.030300E+01
104	  0.040641282	-3.670000E+00	  0.040641282	4.485200E+01	  0.040641282	5.701600E+01	  0.040641282	9.239000E+01
105	  0.040841684	-3.729000E+00	  0.040841684	4.279900E+01	  0.040841684	6.150600E+01	  0.040841684	9.439800E+01
106	  0.041042086	-3.786000E+00	  0.041042086	4.075300E+01	  0.041042086	6.635400E+01	  0.041042086	9.627700E+01
107	  0.041242484	-3.843000E+00	  0.041242484	3.872000E+01	  0.041242484	7.157500E+01	  0.041242484	9.794500E+01
108	  0.041442886	-3.902000E+00	  0.041442886	3.668000E+01	  0.041442886	7.725700E+01	  0.041442886	9.933400E+01
109	  0.041643288	-3.956000E+00	  0.041643288	3.462300E+01	  0.041643288	8.339400E+01	  0.041643288	1.005080E+02
110	  0.041843686	-4.012000E+00	  0.041843686	3.258400E+01	  0.041843686	8.995000E+01	  0.041843686	1.012200E+02
111	  0.042044088	-4.065000E+00	  0.042044088	3.055700E+01	  0.042044088	9.689900E+01	  0.042044088	1.015030E+02
112	  0.042244490	-4.115000E+00	  0.042244490	2.855900E+01	  0.042244490	1.041640E+02	  0.042244490	1.012610E+02
113	  0.042444889	-4.166000E+00	  0.042444889	2.655200E+01	  0.042444889	1.118520E+02	  0.042444889	1.003370E+02
114	  0.042645290	-4.219000E+00	  0.042645290	2.458600E+01	  0.042645290	1.196960E+02	  0.042645290	9.859200E+01
115	  0.042845692	-4.266000E+00	  0.042845692	2.259900E+01	  0.042845692	1.278800E+02	  0.042845692	9.613000E+01
116	  0.043046094	-4.320000E+00	  0.043046094	2.062600E+01	  0.043046094	1.360900E+02	  0.043046094	9.252000E+01
117	  0.043246493	-4.369000E+00	  0.043246493	1.864600E+01	  0.043246493	1.443330E+02	  0.043246493	8.797500E+01
118	  0.043446895	-4.418000E+00	  0.043446895	1.668500E+01	  0.043446895	1.522920E+02	  0.043446895	8.235100E+01
119	  0.043647297	-4.466000E+00	  0.043647297	1.474400E+01	  0.043647297	1.598000E+02	  0.043647297	7.570800E+01
120	  0.043847695	-4.514000E+00	  0.043847695	1.277500E+01	  0.043847695	1.668190E+02	  0.043847695	6.787600E+01
121	  0.044048097	-4.565000E+00	  0.044048097	1.081200E+01	  0.044048097	1.729020E+02	  0.044048097	5.895700E+01
122	  0.044248499	-4.613000E+00	  0.044248499	8.864000E+00	  0.044248499	1.779520E+02	  0.044248499	4.927400E+01
123	  0.044448901	-4.661000E+00	  0.044448901	6.941000E+00	  0.044448901	1.817350E+02	  0.044448901	3.902000E+01
124	  0.044649299	-4.711000E+00	  0.044649299	5.004000E+00	  0.044649299	1.841950E+02	  0.044649299	2.821900E+01
125	  0.044849701	-4.755000E+00	  0.044849701	3.069000E+00	  0.044849701	1.854540E+02	  0.044849701	1.726300E+01
126	  0.045050103	-4.799000E+00	  0.045050103	1.139000E+00	  0.045050103	1.853390E+02	  0.045050103	6.344000E+00
127	  0.045250501	-4.840000E+00	  0.045250501	-7.840000E-01	  0.045250501	1.839600E+02	  0.045250501	-4.296000E+00
128	  0.045450903	-4.878000E+00	  0.045450903	-2.698000E+00	  0.045450903	1.814460E+02	  0.045450903	-1.443400E+01
129	  0.045651305	-4.920000E+00	  0.045651305	-4.581000E+00	  0.045651305	1.777890E+02	  0.045651305	-2.377600E+01
130	  0.045851704	-4.960000E+00	  0.045851704	-6.475000E+00	  0.045851704	1.732240E+02	  0.045851704	-3.241200E+01
131	  0.046052106	-5.000000E+00	  0.046052106	-8.339000E+00	  0.046052106	1.680350E+02	  0.046052106	-4.008100E+01
132	  0.046252504	-5.040000E+00	  0.046252504	-1.022300E+01	  0.046252504	1.622530E+02	  0.046252504	-4.694300E+01
133	  0.046452906	-5.078000E+00	  0.046452906	-1.208700E+01	  0.046452906	1.561810E+02	  0.046452906	-5.286900E+01
134	  0.046653304	-5.115000E+00	  0.046653304	-1.392800E+01	  0.046653304	1.499720E+02	  0.046653304	-5.789100E+01
135	  0.046853706	-5.150000E+00	  0.046853706	-1.578200E+01	  0.046853706	1.436360E+02	  0.046853706	-6.217400E+01
136	  0.047054108	-5.187000E+00	  0.047054108	-1.762900E+01	  0.047054108	1.372900E+02	  0.047054108	-6.564600E+01
137	  0.047254506	-5.217000E+00	  0.047254506	-1.947500E+01	  0.047254506	1.311020E+02	  0.047254506	-6.857000E+01
138	  0.047454908	-5.250000E+00	  0.047454908	-2.129600E+01	  0.047454908	1.250850E+02	  0.047454908	-7.077100E+01
139	  0.047655310	-5.280000E+00	  0.047655310	-2.309700E+01	  0.047655310	1.193290E+02	  0.047655310	-7.246000E+01
140	  0.047855709	-5.308000E+00	  0.047855709	-2.488800E+01	  0.047855709	1.138120E+02	  0.047855709	-7.369000E+01
141	  0.048056111	-5.338000E+00	  0.048056111	-2.663200E+01	  0.048056111	1.086440E+02	  0.048056111	-7.445900E+01
142	  0.048256513	-5.369000E+00	  0.048256513	-2.839200E+01	  0.048256513	1.036630E+02	  0.048256513	-7.487900E+01
143	  0.048456915	-5.400000E+00	  0.048456915	-3.014500E+01	  0.048456915	9.894000E+01	  0.048456915	-7.499000E+01
144	  0.048657313	-5.431000E+00	  0.048657313	-3.188100E+01	  0.048657313	9.450500E+01	  0.048657313	-7.484800E+01
145	  0.048857715	-5.459000E+00	  0.048857715	-3.362300E+01	  0.048857715	9.029300E+01	  0.048857715	-7.454200E+01
146	  0.049058117	-5.485000E+00	  0.049058117	-3.535400E+01	  0.049058117	8.633500E+01	  0.049058117	-7.407800E+01
147	  0.049258515	-5.512000E+00	  0.049258515	-3.708100E+01	  0.049258515	8.260400E+01	  0.049258515	-7.344600E+01
148	  0.049458917	-5.535000E+00	  0.049458917	-3.880000E+01	  0.049458917	7.909300E+01	  0.049458917	-7.274000E+01
149	  0.049659319	-5.565000E+00	  0.049659319	-4.048600E+01	  0.049659319	7.585600E+01	  0.049659319	-7.185200E+01
150	  0.049859721	-5.590000E+00	  0.049859721	-4.218600E+01	  0.049859721	7.276800E+01	  0.049859721	-7.092600E+01
151	  0.050060119	-5.615000E+00	  0.050060119	-4.384500E+01	  0.050060119	6.992700E+01	  0.050060119	-6.994500E+01
152	  0.050260521	-5.636000E+00	  0.050260521	-4.554500E+01	  0.050260521	6.716600E+01	  0.050260521	-6.893600E+01
153	  0.050460923	-5.660000E+00	  0.050460923	-4.723300E+01	  0.050460923	6.459000E+01	  0.050460923	-6.785400E+01
154	  0.050661322	-5.678000E+00	  0.050661322	-4.892900E+01	  0.050661322	6.212500E+01	  0.050661322	-6.678500E+01
155	  0.050861724	-5.695000E+00	  0.050861724	-5.060000E+01	  0.050861724	5.983400E+01	  0.050861724	-6.570000E+01
156	  0.051062126	-5.713000E+00	  0.051062126	-5.224500E+01	  0.051062126	5.770100E+01	  0.051062126	-6.459900E+01
157	  0.051262524	-5.729000E+00	  0.051262524	-5.389400E+01	  0.051262524	5.567400E+01	  0.051262524	-6.349200E+01
158	  0.051462926	-5.742000E+00	  0.051462926	-5.549900E+01	  0.051462926	5.379800E+01	  0.051462926	-6.241300E+01
159	  0.051663328	-5.758000E+00	  0.051663328	-5.707700E+01	  0.051663328	5.205800E+01	  0.051663328	-6.132300E+01
160	  0.051863730	-5.772000E+00	  0.051863730	-5.864500E+01	  0.051863730	5.041100E+01	  0.051863730	-6.024500E+01
161	  0.052064128	-5.790000E+00	  0.052064128	-6.023000E+01	  0.052064128	4.884700E+01	  0.052064128	-5.912500E+01
162	  0.052264530	-5.804000E+00	  0.052264530	-6.178000E+01	  0.052264530	4.738100E+01	  0.052264530	-5.805600E+01
163	  0.052464932	-5.823000E+00	  0.052464932	-6.334300E+01	  0.052464932	4.599700E+01	  0.052464932	-5.694700E+01
164	  0.052665330	-5.838000E+00	  0.052665330	-6.492600E+01	  0.052665330	4.464600E+01	  0.052665330	-5.585800E+01
165	  0.052865732	-5.858000E+00	  0.052865732	-6.647100E+01	  0.052865732	4.341400E+01	  0.052865732	-5.477100E+01
166	  0.053066134	-5.873000E+00	  0.053066134	-6.801600E+01	  0.053066134	4.222600E+01	  0.053066134	-5.371500E+01
167	  0.053266536	-5.889000E+00	  0.053266536	-6.954700E+01	  0.053266536	4.110700E+01	  0.053266536	-5.267400E+01
168	  0.053466935	-5.903000E+00	  0.053466935	-7.108200E+01	  0.053466935	4.003000E+01	  0.053466935	-5.164900E+01
169	  0.053667337	-5.916000E+00	  0.053667337	-7.262700E+01	  0.053667337	3.899400E+01	  0.053667337	-5.062900E+01
170	  0.053867739	-5.922000E+00	  0.053867739	-7.414600E+01	  0.053867739	3.799600E+01	  0.053867739	-4.966600E+01
171	  0.054068137	-5.932000E+00	  0.054068137	-7.565400E+01	  0.054068137	3.706400E+01	  0.054068137	-4.870000E+01
172	  0.054268539	-5.939000E+00	  0.054268539	-7.714500E+01	  0.054268539	3.617300E+01	  0.054268539	-4.776400E+01
173	  0.054468941	-5.947000E+00	  0.054468941	-7.859400E+01	  0.054468941	3.534800E+01	  0.054468941	-4.685900E+01
174	  0.054669339	-5.959000E+00	  0.054669339	-8.004000E+01	  0.054669339	3.457700E+01	  0.054669339	-4.594800E+01
175	  0.054869737	-5.970000E+00	  0.054869737	-8.149200E+01	  0.054869737	3.383400E+01	  0.054869737	-4.504500E+01
176	  0.055070139	-5.977000E+00	  0.055070139	-8.289000E+01	  0.055070139	3.313200E+01	  0.055070139	-4.419800E+01
177	  0.055270538	-5.992000E+00	  0.055270538	-8.430100E+01	  0.055270538	3.248100E+01	  0.055270538	-4.332800E+01
178	  0.055470940	-6.004000E+00	  0.055470940	-8.569100E+01	  0.055470940	3.185900E+01	  0.055470940	-4.248600E+01
179	  0.055671342	-6.015000E+00	  0.055671342	-8.710900E+01	  0.055671342	3.124200E+01	  0.055671342	-4.164300E+01
180	  0.055871744	-6.024000E+00	  0.055871744	-8.850800E+01	  0.055871744	3.065300E+01	  0.055871744	-4.082500E+01
181	  0.056072142	-6.041000E+00	  0.056072142	-8.989500E+01	  0.056072142	3.011900E+01	  0.056072142	-4.000100E+01
182	  0.056272544	-6.052000E+00	  0.056272544	-9.128700E+01	  0.056272544	2.958600E+01	  0.056272544	-3.919900E+01
183	  0.056472946	-6.065000E+00	  0.056472946	-9.268900E+01	  0.056472946	2.907500E+01	  0.056472946	-3.839500E+01
184	  0.056673344	-6.075000E+00	  0.056673344	-9.408900E+01	  0.056673344	2.857800E+01	  0.056673344	-3.760800E+01
185	  0.056873746	-6.084000E+00	  0.056873746	-9.545000E+01	  0.056873746	2.810900E+01	  0.056873746	-3.685400E+01
186	  0.057074148	-6.092000E+00	  0.057074148	-9.681500E+01	  0.057074148	2.765100E+01	  0.057074148	-3.610800E+01
187	  0.057274550	-6.098000E+00	  0.057274550	-9.821300E+01	  0.057274550	2.719400E+01	  0.057274550	-3.535600E+01
188	  0.057474948	-6.102000E+00	  0.057474948	-9.956800E+01	  0.057474948	2.676200E+01	  0.057474948	-3.463800E+01
189	  0.057675350	-6.103000E+00	  0.057675350	-1.009230E+02	  0.057675350	2.633200E+01	  0.057675350	-3.393500E+01
190	  0.057875752	-6.104000E+00	  0.057875752	-1.022560E+02	  0.057875752	2.592900E+01	  0.057875752	-3.324700E+01
191	  0.058076151	-6.107000E+00	  0.058076151	-1.035710E+02	  0.058076151	2.555000E+01	  0.058076151	-3.257100E+01
192	  0.058276553	-6.110000E+00	  0.058276553	-1.048640E+02	  0.058276553	2.519100E+01	  0.058276553	-3.191200E+01
193	  0.058476955	-6.113000E+00	  0.058476955	-1.061490E+02	  0.058476955	2.484600E+01	  0.058476955	-3.126200E+01
194	  0.058677353	-6.111000E+00	  0.058677353	-1.074090E+02	  0.058677353	2.450400E+01	  0.058677353	-3.063900E+01
195	  0.058877755	-6.114000E+00	  0.058877755	-1.087180E+02	  0.058877755	2.417600E+01	  0.058877755	-2.998900E+01
196	  0.059078157	-6.117000E+00	  0.059078157	-1.099820E+02	  0.059078157	2.387100E+01	  0.059078157	-2.936500E+01
197	  0.059278559	-6.120000E+00	  0.059278559	-1.112380E+02	  0.059278559	2.358000E+01	  0.059278559	-2.875000E+01
198	  0.059478957	-6.120000E+00	  0.059478957	-1.125060E+02	  0.059478957	2.328500E+01	  0.059478957	-2.813900E+01
199	  0.059679359	-6.124000E+00	  0.059679359	-1.137750E+02	  0.059679359	2.301100E+01	  0.059679359	-2.752700E+01
200	  0.059879761	-6.124000E+00	  0.059879761	-1.150330E+02	  0.059879761	2.273700E+01	  0.059879761	-2.693100E+01
201	  0.060080159	-6.125000E+00	  0.060080159	-1.162920E+02	  0.060080159	2.247500E+01	  0.060080159	-2.633600E+01
202	  0.060280561	-6.127000E+00	  0.060280561	-1.175090E+02	  0.060280561	2.223500E+01	  0.060280561	-2.576400E+01
203	  0.060480963	-6.130000E+00	  0.060480963	-1.187550E+02	  0.060480963	2.200000E+01	  0.060480963	-2.518200E+01
204	  0.060681365	-6.129000E+00	  0.060681365	-1.199940E+02	  0.060681365	2.175900E+01	  0.060681365	-2.461300E+01
205	  0.060881764	-6.130000E+00	  0.060881764	-1.212240E+02	  0.060881764	2.153600E+01	  0.060881764	-2.404800E+01
206	  0.061082166	-6.127000E+00	  0.061082166	-1.224360E+02	  0.061082166	2.131300E+01	  0.061082166	-2.350000E+01
207	  0.061282568	-6.126000E+00	  0.061282568	-1.236520E+02	  0.061282568	2.110000E+01	  0.061282568	-2.295100E+01
208	  0.061482966	-6.127000E+00	  0.061482966	-1.248580E+02	  0.061482966	2.090300E+01	  0.061482966	-2.240800E+01
209	  0.061683368	-6.127000E+00	  0.061683368	-1.260280E+02	  0.061683368	2.071400E+01	  0.061683368	-2.188700E+01
210	  0.061883770	-6.130000E+00	  0.061883770	-1.272200E+02	  0.061883770	2.053800E+01	  0.061883770	-2.135500E+01
211	  0.062084168	-6.131000E+00	  0.062084168	-1.283670E+02	  0.062084168	2.036900E+01	  0.062084168	-2.084700E+01
212	  0.062284570	-6.133000E+00	  0.062284570	-1.295390E+02	  0.062284570	2.020200E+01	  0.062284570	-2.033200E+01
213	  0.062484972	-6.128000E+00	  0.062484972	-1.306360E+02	  0.062484972	2.003400E+01	  0.062484972	-1.985800E+01
214	  0.062685370	-6.132000E+00	  0.062685370	-1.318200E+02	  0.062685370	1.988400E+01	  0.062685370	-1.934100E+01
215	  0.062885776	-6.136000E+00	  0.062885776	-1.329990E+02	  0.062885776	1.974000E+01	  0.062885776	-1.882800E+01
216	  0.063086174	-6.143000E+00	  0.063086174	-1.341500E+02	  0.063086174	1.961200E+01	  0.063086174	-1.832900E+01
217	  0.063286573	-6.150000E+00	  0.063286573	-1.353090E+02	  0.063286573	1.948900E+01	  0.063286573	-1.782800E+01
218	  0.063486971	-6.154000E+00	  0.063486971	-1.364960E+02	  0.063486971	1.935900E+01	  0.063486971	-1.732200E+01
219	  0.063687377	-6.160000E+00	  0.063687377	-1.376570E+02	  0.063687377	1.924100E+01	  0.063687377	-1.682700E+01
220	  0.063887775	-6.159000E+00	  0.063887775	-1.388160E+02	  0.063887775	1.911100E+01	  0.063887775	-1.634100E+01
221	  0.064088173	-6.161000E+00	  0.064088173	-1.399780E+02	  0.064088173	1.899200E+01	  0.064088173	-1.585300E+01
222	  0.064288579	-6.167000E+00	  0.064288579	-1.411510E+02	  0.064288579	1.888700E+01	  0.064288579	-1.536100E+01
223	  0.064488977	-6.167000E+00	  0.064488977	-1.422890E+02	  0.064488977	1.877500E+01	  0.064488977	-1.488900E+01
224	  0.064689375	-6.172000E+00	  0.064689375	-1.434270E+02	  0.064689375	1.867900E+01	  0.064689375	-1.441700E+01
225	  0.064889781	-6.171000E+00	  0.064889781	-1.445840E+02	  0.064889781	1.856900E+01	  0.064889781	-1.394200E+01
226	  0.065090179	-6.174000E+00	  0.065090179	-1.456750E+02	  0.065090179	1.848100E+01	  0.065090179	-1.349400E+01
227	  0.065290578	-6.177000E+00	  0.065290578	-1.467860E+02	  0.065290578	1.839500E+01	  0.065290578	-1.303900E+01
228	  0.065490983	-6.179000E+00	  0.065490983	-1.478710E+02	  0.065490983	1.831100E+01	  0.065490983	-1.259700E+01
229	  0.065691382	-6.181000E+00	  0.065691382	-1.489530E+02	  0.065691382	1.823000E+01	  0.065691382	-1.215800E+01
230	  0.065891780	-6.182000E+00	  0.065891780	-1.500540E+02	  0.065891780	1.815000E+01	  0.065891780	-1.171400E+01
231	  0.066092186	-6.192000E+00	  0.066092186	-1.511370E+02	  0.066092186	1.809800E+01	  0.066092186	-1.127300E+01
232	  0.066292584	-6.193000E+00	  0.066292584	-1.522280E+02	  0.066292584	1.802400E+01	  0.066292584	-1.083600E+01
233	  0.066492982	-6.195000E+00	  0.066492982	-1.532780E+02	  0.066492982	1.795900E+01	  0.066492982	-1.041500E+01
234	  0.066693388	-6.204000E+00	  0.066693388	-1.543240E+02	  0.066693388	1.791400E+01	  0.066693388	-9.995000E+00
235	  0.066893786	-6.205000E+00	  0.066893786	-1.553830E+02	  0.066893786	1.785300E+01	  0.066893786	-9.574000E+00
236	  0.067094192	-6.208000E+00	  0.067094192	-1.564210E+02	  0.067094192	1.780000E+01	  0.067094192	-9.162000E+00
237	  0.067294590	-6.216000E+00	  0.067294590	-1.574790E+02	  0.067294590	1.776200E+01	  0.067294590	-8.740000E+00
238	  0.067494988	-6.220000E+00	  0.067494988	-1.585040E+02	  0.067494988	1.771900E+01	  0.067494988	-8.335000E+00
239	  0.067695394	-6.225000E+00	  0.067695394	-1.595690E+02	  0.067695394	1.767800E+01	  0.067695394	-7.915000E+00
240	  0.067895792	-6.230000E+00	  0.067895792	-1.605640E+02	  0.067895792	1.764400E+01	  0.067895792	-7.522000E+00
241	  0.068096191	-6.235000E+00	  0.068096191	-1.616060E+02	  0.068096191	1.761000E+01	  0.068096191	-7.113000E+00
242	  0.068296596	-6.245000E+00	  0.068296596	-1.626340E+02	  0.068296596	1.759300E+01	  0.068296596	-6.709000E+00
243	  0.068496995	-6.252000E+00	  0.068496995	-1.636320E+02	  0.068496995	1.757000E+01	  0.068496995	-6.318000E+00
244	  0.068697393	-6.254000E+00	  0.068697393	-1.646470E+02	  0.068697393	1.753800E+01	  0.068697393	-5.922000E+00
245	  0.068897791	-6.261000E+00	  0.068897791	-1.656160E+02	  0.068897791	1.752000E+01	  0.068897791	-5.545000E+00
246	  0.069098189	-6.262000E+00	  0.069098189	-1.666110E+02	  0.069098189	1.749100E+01	  0.069098189	-5.158000E+00
247	  0.069298595	-6.273000E+00	  0.069298595	-1.675860E+02	  0.069298595	1.748900E+01	  0.069298595	-4.779000E+00
248	  0.069498993	-6.273000E+00	  0.069498993	-1.685840E+02	  0.069498993	1.746200E+01	  0.069498993	-4.393000E+00
249	  0.069699399	-6.280000E+00	  0.069699399	-1.695780E+02	  0.069699399	1.745300E+01	  0.069699399	-4.008000E+00
250	  0.069899797	-6.290000E+00	  0.069899797	-1.705830E+02	  0.069899797	1.745700E+01	  0.069899797	-3.618000E+00
251	  0.070100196	-6.295000E+00	  0.070100196	-1.715370E+02	  0.070100196	1.744900E+01	  0.070100196	-3.250000E+00
252	  0.070300601	-6.308000E+00	  0.070300601	-1.725320E+02	  0.070300601	1.746300E+01	  0.070300601	-2.866000E+00
253	  0.070501000	-6.309000E+00	  0.070501000	-1.734840E+02	  0.070501000	1.745000E+01	  0.070501000	-2.500000E+00
254	  0.070701398	-6.311000E+00	  0.070701398	-1.744840E+02	  0.070701398	1.744200E+01	  0.070701398	-2.115000E+00
255	  0.070901804	-6.311000E+00	  0.070901804	-1.754450E+02	  0.070901804	1.743100E+01	  0.070901804	-1.746000E+00
256	  0.071102202	-6.314000E+00	  0.071102202	-1.764110E+02	  0.071102202	1.742900E+01	  0.071102202	-1.376000E+00
257	  0.071302600	-6.318000E+00	  0.071302600	-1.773550E+02	  0.071302600	1.743200E+01	  0.071302600	-1.014000E+00
258	  0.071503006	-6.324000E+00	  0.071503006	-1.783360E+02	  0.071503006	1.744100E+01	  0.071503006	-6.370000E-01
259	  0.071703404	-6.330000E+00	  0.071703404	-1.792840E+02	  0.071703404	1.745500E+01	  0.071703404	-2.740000E-01
260	  0.071903802	-6.331000E+00	  0.071903802	1.797930E+02	  0.071903802	1.745700E+01	  0.071903802	7.900000E-02
261	  0.072104208	-6.335000E+00	  0.072104208	1.788570E+02	  0.072104208	1.746900E+01	  0.072104208	4.370000E-01
262	  0.072304606	-6.339000E+00	  0.072304606	1.779220E+02	  0.072304606	1.748200E+01	  0.072304606	7.950000E-01
263	  0.072505005	-6.337000E+00	  0.072505005	1.769940E+02	  0.072505005	1.748300E+01	  0.072505005	1.151000E+00
264	  0.072705410	-6.344000E+00	  0.072705410	1.760970E+02	  0.072705410	1.750800E+01	  0.072705410	1.494000E+00
265	  0.072905809	-6.347000E+00	  0.072905809	1.751730E+02	  0.072905809	1.752400E+01	  0.072905809	1.848000E+00
266	  0.073106214	-6.353000E+00	  0.073106214	1.742470E+02	  0.073106214	1.755200E+01	  0.073106214	2.203000E+00
267	  0.073306613	-6.360000E+00	  0.073306613	1.733240E+02	  0.073306613	1.758300E+01	  0.073306613	2.556000E+00
268	  0.073507011	-6.365000E+00	  0.073507011	1.724460E+02	  0.073507011	1.761000E+01	  0.073507011	2.892000E+00
269	  0.073707417	-6.372000E+00	  0.073707417	1.715430E+02	  0.073707417	1.764500E+01	  0.073707417	3.238000E+00
270	  0.073907815	-6.375000E+00	  0.073907815	1.706240E+02	  0.073907815	1.767000E+01	  0.073907815	3.590000E+00
271	  0.074108213	-6.380000E+00	  0.074108213	1.697400E+02	  0.074108213	1.770400E+01	  0.074108213	3.929000E+00
272	  0.074308619	-6.383000E+00	  0.074308619	1.688630E+02	  0.074308619	1.773400E+01	  0.074308619	4.266000E+00
273	  0.074509017	-6.398000E+00	  0.074509017	1.679310E+02	  0.074509017	1.779900E+01	  0.074509017	4.621000E+00
274	  0.074709415	-6.404000E+00	  0.074709415	1.670610E+02	  0.074709415	1.784000E+01	  0.074709415	4.955000E+00
275	  0.074909821	-6.414000E+00	  0.074909821	1.661700E+02	  0.074909821	1.789200E+01	  0.074909821	5.296000E+00
276	  0.075110219	-6.425000E+00	  0.075110219	1.652900E+02	  0.075110219	1.795100E+01	  0.075110219	5.633000E+00
277	  0.075310618	-6.434000E+00	  0.075310618	1.644190E+02	  0.075310618	1.800600E+01	  0.075310618	5.967000E+00
278	  0.075511023	-6.448000E+00	  0.075511023	1.635150E+02	  0.075511023	1.807600E+01	  0.075511023	6.312000E+00
279	  0.075711422	-6.455000E+00	  0.075711422	1.626490E+02	  0.075711422	1.813100E+01	  0.075711422	6.645000E+00
280	  0.075911827	-6.469000E+00	  0.075911827	1.617850E+02	  0.075911827	1.820300E+01	  0.075911827	6.976000E+00
281	  0.076112226	-6.479000E+00	  0.076112226	1.608880E+02	  0.076112226	1.826900E+01	  0.076112226	7.320000E+00
282	  0.076312624	-6.489000E+00	  0.076312624	1.599980E+02	  0.076312624	1.833800E+01	  0.076312624	7.662000E+00
283	  0.076513030	-6.502000E+00	  0.076513030	1.591340E+02	  0.076513030	1.841300E+01	  0.076513030	7.993000E+00
284	  0.076713428	-6.521000E+00	  0.076713428	1.582130E+02	  0.076713428	1.851200E+01	  0.076713428	8.344000E+00
285	  0.076913826	-6.530000E+00	  0.076913826	1.573160E+02	  0.076913826	1.858300E+01	  0.076913826	8.690000E+00
286	  0.077114232	-6.544000E+00	  0.077114232	1.564390E+02	  0.077114232	1.867000E+01	  0.077114232	9.026000E+00
287	  0.077314630	-6.549000E+00	  0.077314630	1.555570E+02	  0.077314630	1.873500E+01	  0.077314630	9.368000E+00
288	  0.077515028	-6.561000E+00	  0.077515028	1.546830E+02	  0.077515028	1.882100E+01	  0.077515028	9.704000E+00
289	  0.077715434	-6.570000E+00	  0.077715434	1.538050E+02	  0.077715434	1.890100E+01	  0.077715434	1.004400E+01
290	  0.077915832	-6.582000E+00	  0.077915832	1.529740E+02	  0.077915832	1.898800E+01	  0.077915832	1.036400E+01
291	  0.078116231	-6.590000E+00	  0.078116231	1.521100E+02	  0.078116231	1.907000E+01	  0.078116231	1.070000E+01
292	  0.078316636	-6.605000E+00	  0.078316636	1.512440E+02	  0.078316636	1.917300E+01	  0.078316636	1.103300E+01
293	  0.078517035	-6.622000E+00	  0.078517035	1.503960E+02	  0.078517035	1.928000E+01	  0.078517035	1.135900E+01
294	  0.078717433	-6.633000E+00	  0.078717433	1.495190E+02	  0.078717433	1.937700E+01	  0.078717433	1.169800E+01
295	  0.078917839	-6.643000E+00	  0.078917839	1.486840E+02	  0.078917839	1.946900E+01	  0.078917839	1.202400E+01
296	  0.079118237	-6.653000E+00	  0.079118237	1.478500E+02	  0.079118237	1.956600E+01	  0.079118237	1.234700E+01
297	  0.079318643	-6.671000E+00	  0.079318643	1.470310E+02	  0.079318643	1.968100E+01	  0.079318643	1.266300E+01
298	  0.079519041	-6.681000E+00	  0.079519041	1.462130E+02	  0.079519041	1.978100E+01	  0.079519041	1.298100E+01
299	  0.079719439	-6.698000E+00	  0.079719439	1.454220E+02	  0.079719439	1.989700E+01	  0.079719439	1.328600E+01
300	  0.079919845	-6.711000E+00	  0.079919845	1.445780E+02	  0.079919845	2.001100E+01	  0.079919845	1.361400E+01
301	  0.080120243	-6.726000E+00	  0.080120243	1.437630E+02	  0.080120243	2.013000E+01	  0.080120243	1.392900E+01
302	  0.080320641	-6.739000E+00	  0.080320641	1.429510E+02	  0.080320641	2.024500E+01	  0.080320641	1.424600E+01
303	  0.080521047	-6.758000E+00	  0.080521047	1.421410E+02	  0.080521047	2.037600E+01	  0.080521047	1.455800E+01
304	  0.080721445	-6.769000E+00	  0.080721445	1.413630E+02	  0.080721445	2.048900E+01	  0.080721445	1.486200E+01
305	  0.080921844	-6.785000E+00	  0.080921844	1.405710E+02	  0.080921844	2.061500E+01	  0.080921844	1.516900E+01
306	  0.081122249	-6.804000E+00	  0.081122249	1.397970E+02	  0.081122249	2.075100E+01	  0.081122249	1.546700E+01
307	  0.081322648	-6.820000E+00	  0.081322648	1.389970E+02	  0.081322648	2.088400E+01	  0.081322648	1.577800E+01
308	  0.081523046	-6.833000E+00	  0.081523046	1.381780E+02	  0.081523046	2.101400E+01	  0.081523046	1.609800E+01
309	  0.081723452	-6.853000E+00	  0.081723452	1.374530E+02	  0.081723452	2.115500E+01	  0.081723452	1.637600E+01
310	  0.081923850	-6.874000E+00	  0.081923850	1.366920E+02	  0.081923850	2.130500E+01	  0.081923850	1.666700E+01
311	  0.082124248	-6.894000E+00	  0.082124248	1.359060E+02	  0.082124248	2.145500E+01	  0.082124248	1.697000E+01
312	  0.082324654	-6.913000E+00	  0.082324654	1.351540E+02	  0.082324654	2.160300E+01	  0.082324654	1.726000E+01
313	  0.082525052	-6.934000E+00	  0.082525052	1.344100E+02	  0.082525052	2.175900E+01	  0.082525052	1.754400E+01
314	  0.082725458	-6.958000E+00	  0.082725458	1.336470E+02	  0.082725458	2.192500E+01	  0.082725458	1.783400E+01
315	  0.082925856	-6.983000E+00	  0.082925856	1.329100E+02	  0.082925856	2.209400E+01	  0.082925856	1.811200E+01
316	  0.083126254	-7.002000E+00	  0.083126254	1.321420E+02	  0.083126254	2.225400E+01	  0.083126254	1.840800E+01
317	  0.083326660	-7.029000E+00	  0.083326660	1.313740E+02	  0.083326660	2.243900E+01	  0.083326660	1.869700E+01
318	  0.083527058	-7.049000E+00	  0.083527058	1.305660E+02	  0.083527058	2.261400E+01	  0.083527058	1.900800E+01
319	  0.083727457	-7.074000E+00	  0.083727457	1.297960E+02	  0.083727457	2.279800E+01	  0.083727457	1.929900E+01
320	  0.083927862	-7.093000E+00	  0.083927862	1.290340E+02	  0.083927862	2.296700E+01	  0.083927862	1.959300E+01
321	  0.084128261	-7.119000E+00	  0.084128261	1.282710E+02	  0.084128261	2.315800E+01	  0.084128261	1.988000E+01
322	  0.084328659	-7.136000E+00	  0.084328659	1.275270E+02	  0.084328659	2.332700E+01	  0.084328659	2.016800E+01
323	  0.084529065	-7.159000E+00	  0.084529065	1.267900E+02	  0.084529065	2.351000E+01	  0.084529065	2.044700E+01
324	  0.084729463	-7.183000E+00	  0.084729463	1.260350E+02	  0.084729463	2.370500E+01	  0.084729463	2.073100E+01
325	  0.084929861	-7.204000E+00	  0.084929861	1.253110E+02	  0.084929861	2.388600E+01	  0.084929861	2.100700E+01
326	  0.085130267	-7.228000E+00	  0.085130267	1.245880E+02	  0.085130267	2.408200E+01	  0.085130267	2.127800E+01
327	  0.085330658	-7.250000E+00	  0.085330658	1.238490E+02	  0.085330658	2.427500E+01	  0.085330658	2.155800E+01
328	  0.085531056	-7.269000E+00	  0.085531056	1.231150E+02	  0.085531056	2.446200E+01	  0.085531056	2.184000E+01
329	  0.085731462	-7.294000E+00	  0.085731462	1.224480E+02	  0.085731462	2.465500E+01	  0.085731462	2.208600E+01
330	  0.085931860	-7.319000E+00	  0.085931860	1.217060E+02	  0.085931860	2.486700E+01	  0.085931860	2.236200E+01
331	  0.086132258	-7.343000E+00	  0.086132258	1.210470E+02	  0.086132258	2.506100E+01	  0.086132258	2.260600E+01
332	  0.086332664	-7.368000E+00	  0.086332664	1.203800E+02	  0.086332664	2.526400E+01	  0.086332664	2.285000E+01
333	  0.086533062	-7.395000E+00	  0.086533062	1.196850E+02	  0.086533062	2.548000E+01	  0.086533062	2.310200E+01
334	  0.086733460	-7.420000E+00	  0.086733460	1.189930E+02	  0.086733460	2.569100E+01	  0.086733460	2.335700E+01
335	  0.086933866	-7.444000E+00	  0.086933866	1.183190E+02	  0.086933866	2.589900E+01	  0.086933866	2.360400E+01
336	  0.087134264	-7.468000E+00	  0.087134264	1.176110E+02	  0.087134264	2.611900E+01	  0.087134264	2.386400E+01
337	  0.087334670	-7.491000E+00	  0.087334670	1.169700E+02	  0.087334670	2.632200E+01	  0.087334670	2.409900E+01
338	  0.087535068	-7.518000E+00	  0.087535068	1.162750E+02	  0.087535068	2.655200E+01	  0.087535068	2.434900E+01
339	  0.087735467	-7.547000E+00	  0.087735467	1.156390E+02	  0.087735467	2.677600E+01	  0.087735467	2.457000E+01
340	  0.087935872	-7.576000E+00	  0.087935872	1.149940E+02	  0.087935872	2.700500E+01	  0.087935872	2.479400E+01
341	  0.088136271	-7.600000E+00	  0.088136271	1.143780E+02	  0.088136271	2.721700E+01	  0.088136271	2.501300E+01
342	  0.088336669	-7.625000E+00	  0.088336669	1.137330E+02	  0.088336669	2.744000E+01	  0.088336669	2.524200E+01
343	  0.088537075	-7.652000E+00	  0.088537075	1.130910E+02	  0.088537075	2.767000E+01	  0.088537075	2.546600E+01
344	  0.088737473	-7.673000E+00	  0.088737473	1.125050E+02	  0.088737473	2.787300E+01	  0.088737473	2.567600E+01
345	  0.088937871	-7.703000E+00	  0.088937871	1.118660E+02	  0.088937871	2.811500E+01	  0.088937871	2.589100E+01
346	  0.089138277	-7.730000E+00	  0.089138277	1.112700E+02	  0.089138277	2.834300E+01	  0.089138277	2.609300E+01
347	  0.089338675	-7.758000E+00	  0.089338675	1.106610E+02	  0.089338675	2.857800E+01	  0.089338675	2.629700E+01
348	  0.089539073	-7.791000E+00	  0.089539073	1.100920E+02	  0.089539073	2.882000E+01	  0.089539073	2.647500E+01
349	  0.089739479	-7.822000E+00	  0.089739479	1.094860E+02	  0.089739479	2.906500E+01	  0.089739479	2.667100E+01
350	  0.089939877	-7.854000E+00	  0.089939877	1.089030E+02	  0.089939877	2.931100E+01	  0.089939877	2.685500E+01
351	  0.090140276	-7.884000E+00	  0.090140276	1.082750E+02	  0.090140276	2.956800E+01	  0.090140276	2.705700E+01
352	  0.090340681	-7.913000E+00	  0.090340681	1.076760E+02	  0.090340681	2.981500E+01	  0.090340681	2.725000E+01
353	  0.090541080	-7.938000E+00	  0.090541080	1.070660E+02	  0.090541080	3.005700E+01	  0.090541080	2.745300E+01
354	  0.090741485	-7.968000E+00	  0.090741485	1.064700E+02	  0.090741485	3.031100E+01	  0.090741485	2.764100E+01
355	  0.090941884	-7.995000E+00	  0.090941884	1.058690E+02	  0.090941884	3.056000E+01	  0.090941884	2.783500E+01
356	  0.091142282	-8.024000E+00	  0.091142282	1.052980E+02	  0.091142282	3.081000E+01	  0.091142282	2.800900E+01
357	  0.091342688	-8.055000E+00	  0.091342688	1.047140E+02	  0.091342688	3.107100E+01	  0.091342688	2.818400E+01
358	  0.091543086	-8.083000E+00	  0.091543086	1.041580E+02	  0.091543086	3.131500E+01	  0.091543086	2.835500E+01
359	  0.091743484	-8.104000E+00	  0.091743484	1.035690E+02	  0.091743484	3.155700E+01	  0.091743484	2.854900E+01
360	  0.091943890	-8.131000E+00	  0.091943890	1.030110E+02	  0.091943890	3.180600E+01	  0.091943890	2.871800E+01
361	  0.092144288	-8.149000E+00	  0.092144288	1.024830E+02	  0.092144288	3.202200E+01	  0.092144288	2.889400E+01
362	  0.092344686	-8.178000E+00	  0.092344686	1.019220E+02	  0.092344686	3.228000E+01	  0.092344686	2.905800E+01
363	  0.092545092	-8.199000E+00	  0.092545092	1.013960E+02	  0.092545092	3.251200E+01	  0.092545092	2.922100E+01
364	  0.092745490	-8.225000E+00	  0.092745490	1.008830E+02	  0.092745490	3.275000E+01	  0.092745490	2.937000E+01
365	  0.092945889	-8.252000E+00	  0.092945889	1.003980E+02	  0.092945889	3.298400E+01	  0.092945889	2.950500E+01
366	  0.093146294	-8.275000E+00	  0.093146294	9.989400E+01	  0.093146294	3.321700E+01	  0.093146294	2.965300E+01
367	  0.093346693	-8.299000E+00	  0.093346693	9.942600E+01	  0.093346693	3.344300E+01	  0.093346693	2.978300E+01
368	  0.093547091	-8.325000E+00	  0.093547091	9.893000E+01	  0.093547091	3.368300E+01	  0.093547091	2.992000E+01
369	  0.093747497	-8.345000E+00	  0.093747497	9.841500E+01	  0.093747497	3.391900E+01	  0.093747497	3.007400E+01
370	  0.093947895	-8.371000E+00	  0.093947895	9.791900E+01	  0.093947895	3.416300E+01	  0.093947895	3.020900E+01
371	  0.094148301	-8.393000E+00	  0.094148301	9.743600E+01	  0.094148301	3.439600E+01	  0.094148301	3.034500E+01
372	  0.094348699	-8.417000E+00	  0.094348699	9.698200E+01	  0.094348699	3.462400E+01	  0.094348699	3.046300E+01
373	  0.094549097	-8.442000E+00	  0.094549097	9.651200E+01	  0.094549097	3.486100E+01	  0.094549097	3.058500E+01
374	  0.094749503	-8.466000E+00	  0.094749503	9.605300E+01	  0.094749503	3.509400E+01	  0.094749503	3.070300E+01
375	  0.094949901	-8.487000E+00	  0.094949901	9.561200E+01	  0.094949901	3.531500E+01	  0.094949901	3.082100E+01
376	  0.095150299	-8.507000E+00	  0.095150299	9.517000E+01	  0.095150299	3.553400E+01	  0.095150299	3.094000E+01
377	  0.095350705	-8.529000E+00	  0.095350705	9.475700E+01	  0.095350705	3.574900E+01	  0.095350705	3.104200E+01
378	  0.095551103	-8.550000E+00	  0.095551103	9.430400E+01	  0.095551103	3.597700E+01	  0.095551103	3.116100E+01
379	  0.095751502	-8.572000E+00	  0.095751502	9.388300E+01	  0.095751502	3.619800E+01	  0.095751502	3.126300E+01
380	  0.095951907	-8.588000E+00	  0.095951907	9.344700E+01	  0.095951907	3.641100E+01	  0.095951907	3.138500E+01
381	  0.096152306	-8.606000E+00	  0.096152306	9.306000E+01	  0.096152306	3.661100E+01	  0.096152306	3.148400E+01
382	  0.096352704	-8.634000E+00	  0.096352704	9.263600E+01	  0.096352704	3.685100E+01	  0.096352704	3.156900E+01
383	  0.096553110	-8.650000E+00	  0.096553110	9.226300E+01	  0.096553110	3.704400E+01	  0.096553110	3.166300E+01
384	  0.096753508	-8.672000E+00	  0.096753508	9.184000E+01	  0.096753508	3.726900E+01	  0.096753508	3.176300E+01
385	  0.096953906	-8.687000E+00	  0.096953906	9.141600E+01	  0.096953906	3.748200E+01	  0.096953906	3.187800E+01
386	  0.097154312	-8.713000E+00	  0.097154312	9.099700E+01	  0.097154312	3.772000E+01	  0.097154312	3.196000E+01
387	  0.097354710	-8.727000E+00	  0.097354710	9.056400E+01	  0.097354710	3.793800E+01	  0.097354710	3.207800E+01
388	  0.097555116	-8.739000E+00	  0.097555116	9.014500E+01	  0.097555116	3.814600E+01	  0.097555116	3.219600E+01
389	  0.097755514	-8.756000E+00	  0.097755514	8.973400E+01	  0.097755514	3.836300E+01	  0.097755514	3.229900E+01
390	  0.097955912	-8.767000E+00	  0.097955912	8.932900E+01	  0.097955912	3.856600E+01	  0.097955912	3.241200E+01
391	  0.098156318	-8.780000E+00	  0.098156318	8.891700E+01	  0.098156318	3.877800E+01	  0.098156318	3.252200E+01
392	  0.098356716	-8.789000E+00	  0.098356716	8.849500E+01	  0.098356716	3.898400E+01	  0.098356716	3.264900E+01
393	  0.098557115	-8.797000E+00	  0.098557115	8.806300E+01	  0.098557115	3.919600E+01	  0.098557115	3.277900E+01
394	  0.098757520	-8.804000E+00	  0.098757520	8.767600E+01	  0.098757520	3.938600E+01	  0.098757520	3.289600E+01
395	  0.098957919	-8.809000E+00	  0.098957919	8.725300E+01	  0.098957919	3.959000E+01	  0.098957919	3.303100E+01
396	  0.099158317	-8.810000E+00	  0.099158317	8.683700E+01	  0.099158317	3.978300E+01	  0.099158317	3.317400E+01
397	  0.099358723	-8.816000E+00	  0.099358723	8.641500E+01	  0.099358723	3.999300E+01	  0.099358723	3.330300E+01
398	  0.099559121	-8.811000E+00	  0.099559121	8.604900E+01	  0.099559121	4.015300E+01	  0.099559121	3.344600E+01
399	  0.099759519	-8.816000E+00	  0.099759519	8.567200E+01	  0.099759519	4.034200E+01	  0.099759519	3.356200E+01
400	  0.099959925	-8.810000E+00	  0.099959925	8.527600E+01	  0.099959925	4.051600E+01	  0.099959925	3.372000E+01
401	  0.100160323	-8.811000E+00	  0.100160323	8.493900E+01	  0.100160323	4.067900E+01	  0.100160323	3.383500E+01
402	  0.100360721	-8.814000E+00	  0.100360721	8.450500E+01	  0.100360721	4.089600E+01	  0.100360721	3.397400E+01
403	  0.100561127	-8.811000E+00	  0.100561127	8.418100E+01	  0.100561127	4.104600E+01	  0.100561127	3.409700E+01
404	  0.100761525	-8.814000E+00	  0.100761525	8.374600E+01	  0.100761525	4.126600E+01	  0.100761525	3.423800E+01
405	  0.100961931	-8.809000E+00	  0.100961931	8.332500E+01	  0.100961931	4.146400E+01	  0.100961931	3.439700E+01
406	  0.101162329	-8.800000E+00	  0.101162329	8.290500E+01	  0.101162329	4.165400E+01	  0.101162329	3.457000E+01
407	  0.101362728	-8.804000E+00	  0.101362728	8.251500E+01	  0.101362728	4.185900E+01	  0.101362728	3.469100E+01
408	  0.101563133	-8.795000E+00	  0.101563133	8.211900E+01	  0.101563133	4.204300E+01	  0.101563133	3.485400E+01
409	  0.101763532	-8.785000E+00	  0.101763532	8.175400E+01	  0.101763532	4.220600E+01	  0.101763532	3.501500E+01
410	  0.101963930	-8.788000E+00	  0.101963930	8.131800E+01	  0.101963930	4.244000E+01	  0.101963930	3.514900E+01
411	  0.102164336	-8.775000E+00	  0.102164336	8.093700E+01	  0.102164336	4.261000E+01	  0.102164336	3.532200E+01
412	  0.102364734	-8.766000E+00	  0.102364734	8.043300E+01	  0.102364734	4.285600E+01	  0.102364734	3.552500E+01
413	  0.102565132	-8.764000E+00	  0.102565132	8.003800E+01	  0.102565132	4.306300E+01	  0.102565132	3.566400E+01
414	  0.102765530	-8.749000E+00	  0.102765530	7.957000E+01	  0.102765530	4.328100E+01	  0.102765530	3.587500E+01
415	  0.102965929	-8.750000E+00	  0.102965929	7.914100E+01	  0.102965929	4.351800E+01	  0.102965929	3.601200E+01
416	  0.103166327	-8.740000E+00	  0.103166327	7.874300E+01	  0.103166327	4.371300E+01	  0.103166327	3.618400E+01
417	  0.103366733	-8.722000E+00	  0.103366733	7.827200E+01	  0.103366733	4.393600E+01	  0.103366733	3.640500E+01
418	  0.103567131	-8.716000E+00	  0.103567131	7.781300E+01	  0.103567131	4.418000E+01	  0.103567131	3.657800E+01
419	  0.103767529	-8.708000E+00	  0.103767529	7.739100E+01	  0.103767529	4.440300E+01	  0.103767529	3.674500E+01
420	  0.103967935	-8.699000E+00	  0.103967935	7.690000E+01	  0.103967935	4.466400E+01	  0.103967935	3.694100E+01
421	  0.104168333	-8.695000E+00	  0.104168333	7.635600E+01	  0.104168333	4.497100E+01	  0.104168333	3.713400E+01
422	  0.104368731	-8.670000E+00	  0.104368731	7.586700E+01	  0.104368731	4.520300E+01	  0.104368731	3.738900E+01
423	  0.104569137	-8.658000E+00	  0.104569137	7.540500E+01	  0.104569137	4.545400E+01	  0.104569137	3.758300E+01
424	  0.104769535	-8.652000E+00	  0.104769535	7.491200E+01	  0.104769535	4.573600E+01	  0.104769535	3.776500E+01
425	  0.104969934	-8.631000E+00	  0.104969934	7.439600E+01	  0.104969934	4.600400E+01	  0.104969934	3.801600E+01
426	  0.105170339	-8.625000E+00	  0.105170339	7.382900E+01	  0.105170339	4.634000E+01	  0.105170339	3.822200E+01
427	  0.105370738	-8.601000E+00	  0.105370738	7.336400E+01	  0.105370738	4.657900E+01	  0.105370738	3.846700E+01
428	  0.105571143	-8.579000E+00	  0.105571143	7.281600E+01	  0.105571143	4.688000E+01	  0.105571143	3.872800E+01
429	  0.105771542	-8.562000E+00	  0.105771542	7.226700E+01	  0.105771542	4.719400E+01	  0.105771542	3.897200E+01
430	  0.105971940	-8.548000E+00	  0.105971940	7.167100E+01	  0.105971940	4.755000E+01	  0.105971940	3.921900E+01
431	  0.106172346	-8.520000E+00	  0.106172346	7.114200E+01	  0.106172346	4.784000E+01	  0.106172346	3.950300E+01
432	  0.106372744	-8.503000E+00	  0.106372744	7.050100E+01	  0.106372744	4.823100E+01	  0.106372744	3.977600E+01
433	  0.106573142	-8.480000E+00	  0.106573142	7.000100E+01	  0.106573142	4.852300E+01	  0.106573142	4.002900E+01
434	  0.106773548	-8.462000E+00	  0.106773548	6.946100E+01	  0.106773548	4.885500E+01	  0.106773548	4.027300E+01
435	  0.106973946	-8.451000E+00	  0.106973946	6.892100E+01	  0.106973946	4.920600E+01	  0.106973946	4.048700E+01
436	  0.107174344	-8.422000E+00	  0.107174344	6.829800E+01	  0.107174344	4.958500E+01	  0.107174344	4.080800E+01
437	  0.107374750	-8.400000E+00	  0.107374750	6.772100E+01	  0.107374750	4.995300E+01	  0.107374750	4.108200E+01
438	  0.107575148	-8.374000E+00	  0.107575148	6.711500E+01	  0.107575148	5.034000E+01	  0.107575148	4.138400E+01
439	  0.107775547	-8.359000E+00	  0.107775547	6.655900E+01	  0.107775547	5.071800E+01	  0.107775547	4.162000E+01
440	  0.107975952	-8.345000E+00	  0.107975952	6.593000E+01	  0.107975952	5.115800E+01	  0.107975952	4.187000E+01
441	  0.108176351	-8.332000E+00	  0.108176351	6.536800E+01	  0.108176351	5.155700E+01	  0.108176351	4.209200E+01
442	  0.108376749	-8.308000E+00	  0.108376749	6.475600E+01	  0.108376749	5.197900E+01	  0.108376749	4.238500E+01
443	  0.108577155	-8.300000E+00	  0.108577155	6.419700E+01	  0.108577155	5.239700E+01	  0.108577155	4.258100E+01
444	  0.108777553	-8.279000E+00	  0.108777553	6.351100E+01	  0.108777553	5.289900E+01	  0.108777553	4.287400E+01
445	  0.108977959	-8.271000E+00	  0.108977959	6.287600E+01	  0.108977959	5.339100E+01	  0.108977959	4.308500E+01
446	  0.109178357	-8.257000E+00	  0.109178357	6.219300E+01	  0.109178357	5.391900E+01	  0.109178357	4.334000E+01
447	  0.109378755	-8.251000E+00	  0.109378755	6.154800E+01	  0.109378755	5.444000E+01	  0.109378755	4.353200E+01
448	  0.109579161	-8.231000E+00	  0.109579161	6.087800E+01	  0.109579161	5.496600E+01	  0.109579161	4.380700E+01
449	  0.109779559	-8.219000E+00	  0.109779559	6.021900E+01	  0.109779559	5.550500E+01	  0.109779559	4.403300E+01
450	  0.109979957	-8.215000E+00	  0.109979957	5.954400E+01	  0.109979957	5.607800E+01	  0.109979957	4.421700E+01
451	  0.110180363	-8.201000E+00	  0.110180363	5.886500E+01	  0.110180363	5.665000E+01	  0.110180363	4.444900E+01
452	  0.110380761	-8.201000E+00	  0.110380761	5.812500E+01	  0.110380761	5.730600E+01	  0.110380761	4.460500E+01
453	  0.110581160	-8.193000E+00	  0.110581160	5.740300E+01	  0.110581160	5.794400E+01	  0.110581160	4.480100E+01
454	  0.110781565	-8.194000E+00	  0.110781565	5.672500E+01	  0.110781565	5.856300E+01	  0.110781565	4.493300E+01
455	  0.110981964	-8.176000E+00	  0.110981964	5.589700E+01	  0.110981964	5.930900E+01	  0.110981964	4.519300E+01
456	  0.111182362	-8.173000E+00	  0.111182362	5.514400E+01	  0.111182362	6.001600E+01	  0.111182362	4.534500E+01
457	  0.111382768	-8.170000E+00	  0.111382768	5.440500E+01	  0.111382768	6.072100E+01	  0.111382768	4.547700E+01
458	  0.111583166	-8.161000E+00	  0.111583166	5.365800E+01	  0.111583166	6.143700E+01	  0.111583166	4.564400E+01
459	  0.111783572	-8.157000E+00	  0.111783572	5.285800E+01	  0.111783572	6.222300E+01	  0.111783572	4.577900E+01
460	  0.111983970	-8.157000E+00	  0.111983970	5.202900E+01	  0.111983970	6.305300E+01	  0.111983970	4.588100E+01
461	  0.112184368	-8.157000E+00	  0.112184368	5.125400E+01	  0.112184368	6.384100E+01	  0.112184368	4.596000E+01
462	  0.112384774	-8.152000E+00	  0.112384774	5.040500E+01	  0.112384774	6.471500E+01	  0.112384774	4.606500E+01
463	  0.112585172	-8.154000E+00	  0.112585172	4.960900E+01	  0.112585172	6.555000E+01	  0.112585172	4.610400E+01
464	  0.112785570	-8.139000E+00	  0.112785570	4.875400E+01	  0.112785570	6.645500E+01	  0.112785570	4.624900E+01
465	  0.112985976	-8.142000E+00	  0.112985976	4.791800E+01	  0.112985976	6.735800E+01	  0.112985976	4.625100E+01
466	  0.113186374	-8.142000E+00	  0.113186374	4.707300E+01	  0.113186374	6.828300E+01	  0.113186374	4.625400E+01
467	  0.113386773	-8.142000E+00	  0.113386773	4.628400E+01	  0.113386773	6.915900E+01	  0.113386773	4.624200E+01
468	  0.113587178	-8.135000E+00	  0.113587178	4.540000E+01	  0.113587178	7.015500E+01	  0.113587178	4.626200E+01
469	  0.113787577	-8.137000E+00	  0.113787577	4.455700E+01	  0.113787577	7.111600E+01	  0.113787577	4.620000E+01
470	  0.113987975	-8.149000E+00	  0.113987975	4.365500E+01	  0.113987975	7.214900E+01	  0.113987975	4.602500E+01
471	  0.114188381	-8.151000E+00	  0.114188381	4.280100E+01	  0.114188381	7.314300E+01	  0.114188381	4.591200E+01
472	  0.114388779	-8.160000E+00	  0.114388779	4.195000E+01	  0.114388779	7.413700E+01	  0.114388779	4.572200E+01
473	  0.114589177	-8.167000E+00	  0.114589177	4.106200E+01	  0.114589177	7.518400E+01	  0.114589177	4.551300E+01
474	  0.114789583	-8.168000E+00	  0.114789583	4.016900E+01	  0.114789583	7.625600E+01	  0.114789583	4.532500E+01
475	  0.114989981	-8.183000E+00	  0.114989981	3.932100E+01	  0.114989981	7.725700E+01	  0.114989981	4.500000E+01
476	  0.115190387	-8.188000E+00	  0.115190387	3.838000E+01	  0.115190387	7.839600E+01	  0.115190387	4.471000E+01
477	  0.115390785	-8.206000E+00	  0.115390785	3.749300E+01	  0.115390785	7.944600E+01	  0.115390785	4.429300E+01
478	  0.115591183	-8.220000E+00	  0.115591183	3.647700E+01	  0.115591183	8.066600E+01	  0.115591183	4.382800E+01
479	  0.115791589	-8.247000E+00	  0.115791589	3.560400E+01	  0.115791589	8.167500E+01	  0.115791589	4.327300E+01
480	  0.115991987	-8.263000E+00	  0.115991987	3.467300E+01	  0.115991987	8.278100E+01	  0.115991987	4.275600E+01
481	  0.116192386	-8.288000E+00	  0.116192386	3.367400E+01	  0.116192386	8.393700E+01	  0.116192386	4.209000E+01
482	  0.116392791	-8.317000E+00	  0.116392791	3.272700E+01	  0.116392791	8.500600E+01	  0.116392791	4.137600E+01
483	  0.116593190	-8.341000E+00	  0.116593190	3.172000E+01	  0.116593190	8.615200E+01	  0.116593190	4.062500E+01
484	  0.116793588	-8.372000E+00	  0.116793588	3.070600E+01	  0.116793588	8.726400E+01	  0.116793588	3.977400E+01
485	  0.116993994	-8.402000E+00	  0.116993994	2.969300E+01	  0.116993994	8.835800E+01	  0.116993994	3.888700E+01
486	  0.117194392	-8.440000E+00	  0.117194392	2.864500E+01	  0.117194392	8.943600E+01	  0.117194392	3.787300E+01
487	  0.117394790	-8.474000E+00	  0.117394790	2.758600E+01	  0.117394790	9.051200E+01	  0.117394790	3.683000E+01
488	  0.117595196	-8.519000E+00	  0.117595196	2.651200E+01	  0.117595196	9.152000E+01	  0.117595196	3.565400E+01
489	  0.117795594	-8.558000E+00	  0.117795594	2.540500E+01	  0.117795594	9.255400E+01	  0.117795594	3.444900E+01
490	  0.117995992	-8.604000E+00	  0.117995992	2.434500E+01	  0.117995992	9.345200E+01	  0.117995992	3.318700E+01
491	  0.118196398	-8.649000E+00	  0.118196398	2.324100E+01	  0.118196398	9.435700E+01	  0.118196398	3.185700E+01
492	  0.118396796	-8.702000E+00	  0.118396796	2.204800E+01	  0.118396796	9.524700E+01	  0.118396796	3.034700E+01
493	  0.118597202	-8.759000E+00	  0.118597202	2.091700E+01	  0.118597202	9.598700E+01	  0.118597202	2.883900E+01
494	  0.118797600	-8.814000E+00	  0.118797600	1.964200E+01	  0.118797600	9.680500E+01	  0.118797600	2.715800E+01
495	  0.118997999	-8.871000E+00	  0.118997999	1.846900E+01	  0.118997999	9.744900E+01	  0.118997999	2.554700E+01
496	  0.119198404	-8.932000E+00	  0.119198404	1.728800E+01	  0.119198404	9.798900E+01	  0.119198404	2.387900E+01
497	  0.119398803	-8.997000E+00	  0.119398803	1.607700E+01	  0.119398803	9.845000E+01	  0.119398803	2.214200E+01
498	  0.119599201	-9.066000E+00	  0.119599201	1.479400E+01	  0.119599201	9.884700E+01	  0.119599201	2.029000E+01
499	  0.119799607	-9.134000E+00	  0.119799607	1.354100E+01	  0.119799607	9.914800E+01	  0.119799607	1.847600E+01
500	  0.120000005	-9.209000E+00	  0.120000005	1.231600E+01	  0.120000005	9.928000E+01	  0.120000005	1.666800E+01
