! Anritsu VNA Master:             	Model: MS2036C/10/77
! SN:             	1601066
! /bd0/18may8/255.ns.s.txt
! Existing Calibration Information:
! TYPE:             	Current Settings	Active Cal Settings
! TIME:             	05/08/2018 11:26:05 AM	05/08/2018 11:16:31 AM
! INTERNAL TEMP:    	51.8 C	51.3 C
! # POINTS:         	500	500
! START FREQ:       	20.000 MHz	20.000 MHz
! STOP FREQ:        	120.000 MHz	120.000 MHz
! SOURCE POWER:     	High	High
! IFBW:             	50 Hz	50 Hz
! AVG FACTOR:       	  1 	  1 
! REF PLANE 1:      	0 mm	0 mm
! REF PLANE 2:      	0 mm	0 mm
! CAL TYPE:         	Full S11	Full S11
! CAL METHOD:       	SOLT	SOLT
! CAL LINE TYPE:    	Coax	Coax
! DUT PORT 1:       	K-Conn(F)	K-Conn(F)
! DUT PORT 2:       	K-Conn(F)	K-Conn(F)
! CAL STATUS:       	OK: Accuracy High	--
! PROP-V:       	0.700
! CABLE LOSS:       	0.000 dB/m
! REF IMPEDANCE:       	50.0
! Trace Specific Parameters:	TR1	TR2	TR3	TR4
! TRACE.#.Y (GRAPH TYPE)	LOG MAG	PHASE	REAL IMPEDANCE	IMAGINARY IMPEDANCE
! TRACE.#.X 	FREQ.GHZ	FREQ.GHZ	FREQ.GHZ	FREQ.GHZ
! S-PARAMETER	S11	S11	S11	S11
! SMOOTH/APERTURE %	0	0	0	0
! WINDOW	NSL	NSL	NSL	NSL
! GATING	OFF	OFF	OFF	OFF
! FGTD	OFF	OFF	OFF	OFF
Marker Information per Trace:	TR1	TR2	TR3	TR4
!MK1	--	"MK1 TR2:  20.000 MHz,PH:-123.62°"	--	--
!MK2	--	--	"MK2 TR3:  70.100 200 MHz,Z:(17.505 ohm, -3.988 ohm)"	--
!MK3	--	--	--	--
!MK4	--	--	--	--
!MK5	--	--	--	--
!MK6	--	--	--	--
!MK7	--	--	--	--
!MK8	--	--	--	--
PNT	TR1.FREQ.GHZ	TR1.LOG MAG.dB	TR2.FREQ.GHZ	TR2.PHASE.deg	TR3.FREQ.GHZ	TR3.REAL IMPEDANCE.ohm	TR4.FREQ.GHZ	TR4.IMAGINARY IMPEDANCE.ohm
1	  0.020000000	-1.011000E+00	  0.020000000	-1.236150E+02	  0.020000000	3.738000E+00	  0.020000000	-2.668400E+01
2	  0.020200402	-1.066000E+00	  0.020200402	-1.250360E+02	  0.020200402	3.889000E+00	  0.020200402	-2.588400E+01
3	  0.020400802	-1.120000E+00	  0.020400802	-1.264670E+02	  0.020400802	4.035000E+00	  0.020400802	-2.508800E+01
4	  0.020601204	-1.173000E+00	  0.020601204	-1.279300E+02	  0.020601204	4.171000E+00	  0.020601204	-2.428600E+01
5	  0.020801604	-1.226000E+00	  0.020801604	-1.294300E+02	  0.020801604	4.305000E+00	  0.020801604	-2.347500E+01
6	  0.021002004	-1.273000E+00	  0.021002004	-1.309780E+02	  0.021002004	4.415000E+00	  0.021002004	-2.265000E+01
7	  0.021202406	-1.315000E+00	  0.021202406	-1.325570E+02	  0.021202406	4.504000E+00	  0.021202406	-2.182000E+01
8	  0.021402806	-1.354000E+00	  0.021402806	-1.341470E+02	  0.021402806	4.580000E+00	  0.021402806	-2.099700E+01
9	  0.021603208	-1.383000E+00	  0.021603208	-1.357370E+02	  0.021603208	4.625000E+00	  0.021603208	-2.018500E+01
10	  0.021803608	-1.403000E+00	  0.021803608	-1.373620E+02	  0.021803608	4.641000E+00	  0.021803608	-1.936600E+01
11	  0.022004008	-1.414000E+00	  0.022004008	-1.389670E+02	  0.022004008	4.626000E+00	  0.022004008	-1.856900E+01
12	  0.022204408	-1.413000E+00	  0.022204408	-1.406160E+02	  0.022204408	4.575000E+00	  0.022204408	-1.776100E+01
13	  0.022404809	-1.404000E+00	  0.022404809	-1.422850E+02	  0.022404809	4.501000E+00	  0.022404809	-1.695200E+01
14	  0.022605211	-1.390000E+00	  0.022605211	-1.439550E+02	  0.022605211	4.412000E+00	  0.022605211	-1.615200E+01
15	  0.022805611	-1.368000E+00	  0.022805611	-1.456090E+02	  0.022805611	4.303000E+00	  0.022805611	-1.536800E+01
16	  0.023006011	-1.338000E+00	  0.023006011	-1.472660E+02	  0.023006011	4.175000E+00	  0.023006011	-1.458900E+01
17	  0.023206413	-1.301000E+00	  0.023206413	-1.489160E+02	  0.023206413	4.027000E+00	  0.023206413	-1.382100E+01
18	  0.023406813	-1.257000E+00	  0.023406813	-1.505480E+02	  0.023406813	3.860000E+00	  0.023406813	-1.306800E+01
19	  0.023607215	-1.208000E+00	  0.023607215	-1.521580E+02	  0.023607215	3.684000E+00	  0.023607215	-1.232900E+01
20	  0.023807615	-1.161000E+00	  0.023807615	-1.537870E+02	  0.023807615	3.519000E+00	  0.023807615	-1.158600E+01
21	  0.024008015	-1.115000E+00	  0.024008015	-1.553920E+02	  0.024008015	3.356000E+00	  0.024008015	-1.085800E+01
22	  0.024208417	-1.066000E+00	  0.024208417	-1.570140E+02	  0.024208417	3.191000E+00	  0.024208417	-1.012600E+01
23	  0.024408817	-1.019000E+00	  0.024408817	-1.586240E+02	  0.024408817	3.035000E+00	  0.024408817	-9.403000E+00
24	  0.024609219	-9.710000E-01	  0.024609219	-1.602350E+02	  0.024609219	2.876000E+00	  0.024609219	-8.682000E+00
25	  0.024809619	-9.260000E-01	  0.024809619	-1.618290E+02	  0.024809619	2.732000E+00	  0.024809619	-7.972000E+00
26	  0.025010020	-8.860000E-01	  0.025010020	-1.634150E+02	  0.025010020	2.604000E+00	  0.025010020	-7.267000E+00
27	  0.025210422	-8.510000E-01	  0.025210422	-1.650010E+02	  0.025210422	2.492000E+00	  0.025210422	-6.565000E+00
28	  0.025410822	-8.240000E-01	  0.025410822	-1.665750E+02	  0.025410822	2.403000E+00	  0.025410822	-5.871000E+00
29	  0.025611224	-8.030000E-01	  0.025611224	-1.681730E+02	  0.025611224	2.334000E+00	  0.025611224	-5.167000E+00
30	  0.025811624	-7.910000E-01	  0.025811624	-1.698080E+02	  0.025811624	2.293000E+00	  0.025811624	-4.449000E+00
31	  0.026012026	-7.800000E-01	  0.026012026	-1.714260E+02	  0.026012026	2.256000E+00	  0.026012026	-3.740000E+00
32	  0.026212426	-7.800000E-01	  0.026212426	-1.730510E+02	  0.026212426	2.254000E+00	  0.026212426	-3.029000E+00
33	  0.026412826	-7.910000E-01	  0.026412826	-1.746720E+02	  0.026412826	2.280000E+00	  0.026412826	-2.321000E+00
34	  0.026613226	-8.110000E-01	  0.026613226	-1.763190E+02	  0.026613226	2.336000E+00	  0.026613226	-1.603000E+00
35	  0.026813626	-8.390000E-01	  0.026813626	-1.779840E+02	  0.026813626	2.415000E+00	  0.026813626	-8.770000E-01
36	  0.027014028	-8.770000E-01	  0.027014028	-1.796360E+02	  0.027014028	2.523000E+00	  0.027014028	-1.580000E-01
37	  0.027214428	-9.210000E-01	  0.027214428	1.786740E+02	  0.027214428	2.650000E+00	  0.027214428	5.760000E-01
38	  0.027414829	-9.710000E-01	  0.027414829	1.769640E+02	  0.027414829	2.796000E+00	  0.027414829	1.320000E+00
39	  0.027615231	-1.030000E+00	  0.027615231	1.752470E+02	  0.027615231	2.968000E+00	  0.027615231	2.067000E+00
40	  0.027815631	-1.096000E+00	  0.027815631	1.735010E+02	  0.027815631	3.161000E+00	  0.027815631	2.827000E+00
41	  0.028016033	-1.168000E+00	  0.028016033	1.717300E+02	  0.028016033	3.375000E+00	  0.028016033	3.598000E+00
42	  0.028216433	-1.241000E+00	  0.028216433	1.699320E+02	  0.028216433	3.595000E+00	  0.028216433	4.381000E+00
43	  0.028416833	-1.317000E+00	  0.028416833	1.681160E+02	  0.028416833	3.826000E+00	  0.028416833	5.173000E+00
44	  0.028617235	-1.392000E+00	  0.028617235	1.662810E+02	  0.028617235	4.057000E+00	  0.028617235	5.975000E+00
45	  0.028817635	-1.464000E+00	  0.028817635	1.644280E+02	  0.028817635	4.284000E+00	  0.028817635	6.787000E+00
46	  0.029018037	-1.539000E+00	  0.029018037	1.625710E+02	  0.029018037	4.522000E+00	  0.029018037	7.602000E+00
47	  0.029218437	-1.613000E+00	  0.029218437	1.607060E+02	  0.029218437	4.762000E+00	  0.029218437	8.424000E+00
48	  0.029418837	-1.684000E+00	  0.029418837	1.588160E+02	  0.029418837	5.002000E+00	  0.029418837	9.259000E+00
49	  0.029619239	-1.751000E+00	  0.029619239	1.568930E+02	  0.029619239	5.232000E+00	  0.029619239	1.011300E+01
50	  0.029819639	-1.815000E+00	  0.029819639	1.549460E+02	  0.029819639	5.460000E+00	  0.029819639	1.098300E+01
51	  0.030020041	-1.871000E+00	  0.030020041	1.529360E+02	  0.030020041	5.671000E+00	  0.030020041	1.188600E+01
52	  0.030220442	-1.916000E+00	  0.030220442	1.509300E+02	  0.030220442	5.858000E+00	  0.030220442	1.279600E+01
53	  0.030420844	-1.954000E+00	  0.030420844	1.488940E+02	  0.030420844	6.030000E+00	  0.030420844	1.372700E+01
54	  0.030621244	-1.981000E+00	  0.030621244	1.468640E+02	  0.030621244	6.174000E+00	  0.030621244	1.466600E+01
55	  0.030821644	-2.004000E+00	  0.030821644	1.448320E+02	  0.030821644	6.311000E+00	  0.030821644	1.561500E+01
56	  0.031022044	-2.016000E+00	  0.031022044	1.428050E+02	  0.031022044	6.422000E+00	  0.031022044	1.657400E+01
57	  0.031222444	-2.013000E+00	  0.031222444	1.407860E+02	  0.031222444	6.490000E+00	  0.031222444	1.754300E+01
58	  0.031422846	-2.007000E+00	  0.031422846	1.387390E+02	  0.031422846	6.556000E+00	  0.031422846	1.853900E+01
59	  0.031623244	-2.001000E+00	  0.031623244	1.366780E+02	  0.031623244	6.626000E+00	  0.031623244	1.955500E+01
60	  0.031823646	-1.987000E+00	  0.031823646	1.346120E+02	  0.031823646	6.674000E+00	  0.031823646	2.059100E+01
61	  0.032024048	-1.966000E+00	  0.032024048	1.325760E+02	  0.032024048	6.706000E+00	  0.032024048	2.162800E+01
62	  0.032224450	-1.940000E+00	  0.032224450	1.305730E+02	  0.032224450	6.722000E+00	  0.032224450	2.266700E+01
63	  0.032424849	-1.917000E+00	  0.032424849	1.285940E+02	  0.032424849	6.750000E+00	  0.032424849	2.370800E+01
64	  0.032625251	-1.891000E+00	  0.032625251	1.266270E+02	  0.032625251	6.772000E+00	  0.032625251	2.476300E+01
65	  0.032825653	-1.870000E+00	  0.032825653	1.246800E+02	  0.032825653	6.816000E+00	  0.032825653	2.582200E+01
66	  0.033026051	-1.854000E+00	  0.033026051	1.227710E+02	  0.033026051	6.877000E+00	  0.033026051	2.687700E+01
67	  0.033226453	-1.843000E+00	  0.033226453	1.208640E+02	  0.033226453	6.962000E+00	  0.033226453	2.794900E+01
68	  0.033426855	-1.842000E+00	  0.033426855	1.189600E+02	  0.033426855	7.092000E+00	  0.033426855	2.903300E+01
69	  0.033627257	-1.852000E+00	  0.033627257	1.170590E+02	  0.033627257	7.269000E+00	  0.033627257	3.013100E+01
70	  0.033827655	-1.872000E+00	  0.033827655	1.151200E+02	  0.033827655	7.500000E+00	  0.033827655	3.126800E+01
71	  0.034028057	-1.892000E+00	  0.034028057	1.131950E+02	  0.034028057	7.746000E+00	  0.034028057	3.241700E+01
72	  0.034228459	-1.924000E+00	  0.034228459	1.112050E+02	  0.034228459	8.056000E+00	  0.034228459	3.362300E+01
73	  0.034428857	-1.961000E+00	  0.034428857	1.092260E+02	  0.034428857	8.402000E+00	  0.034428857	3.484400E+01
74	  0.034629259	-2.008000E+00	  0.034629259	1.072030E+02	  0.034629259	8.819000E+00	  0.034629259	3.611200E+01
75	  0.034829661	-2.057000E+00	  0.034829661	1.052100E+02	  0.034829661	9.264000E+00	  0.034829661	3.738500E+01
76	  0.035030060	-2.113000E+00	  0.035030060	1.032500E+02	  0.035030060	9.760000E+00	  0.035030060	3.865800E+01
77	  0.035230462	-2.178000E+00	  0.035230462	1.012820E+02	  0.035230462	1.032700E+01	  0.035230462	3.995300E+01
78	  0.035430863	-2.252000E+00	  0.035430863	9.928200E+01	  0.035430863	1.097000E+01	  0.035430863	4.128900E+01
79	  0.035631265	-2.329000E+00	  0.035631265	9.732600E+01	  0.035631265	1.166100E+01	  0.035631265	4.261500E+01
80	  0.035831664	-2.416000E+00	  0.035831664	9.536300E+01	  0.035831664	1.244100E+01	  0.035831664	4.396000E+01
81	  0.036032066	-2.509000E+00	  0.036032066	9.339200E+01	  0.036032066	1.330300E+01	  0.036032066	4.532400E+01
82	  0.036232468	-2.607000E+00	  0.036232468	9.141600E+01	  0.036232468	1.423600E+01	  0.036232468	4.671000E+01
83	  0.036432866	-2.713000E+00	  0.036432866	8.943200E+01	  0.036432866	1.527300E+01	  0.036432866	4.810700E+01
84	  0.036633268	-2.820000E+00	  0.036633268	8.744300E+01	  0.036633268	1.638000E+01	  0.036633268	4.952500E+01
85	  0.036833670	-2.933000E+00	  0.036833670	8.541600E+01	  0.036833670	1.760300E+01	  0.036833670	5.097800E+01
86	  0.037034072	-3.049000E+00	  0.037034072	8.335800E+01	  0.037034072	1.892800E+01	  0.037034072	5.246500E+01
87	  0.037234470	-3.163000E+00	  0.037234470	8.124300E+01	  0.037234470	2.034800E+01	  0.037234470	5.401700E+01
88	  0.037434869	-3.277000E+00	  0.037434869	7.909800E+01	  0.037434869	2.187800E+01	  0.037434869	5.560800E+01
89	  0.037635271	-3.382000E+00	  0.037635271	7.691200E+01	  0.037635271	2.348100E+01	  0.037635271	5.727100E+01
90	  0.037835669	-3.486000E+00	  0.037835669	7.467400E+01	  0.037835669	2.521900E+01	  0.037835669	5.899800E+01
91	  0.038036071	-3.581000E+00	  0.038036071	7.238400E+01	  0.038036071	2.706300E+01	  0.038036071	6.081600E+01
92	  0.038236473	-3.668000E+00	  0.038236473	7.009500E+01	  0.038236473	2.899500E+01	  0.038236473	6.267900E+01
93	  0.038436871	-3.739000E+00	  0.038436871	6.777300E+01	  0.038436871	3.100700E+01	  0.038436871	6.465800E+01
94	  0.038637273	-3.795000E+00	  0.038637273	6.546100E+01	  0.038637273	3.307700E+01	  0.038637273	6.672300E+01
95	  0.038837675	-3.846000E+00	  0.038837675	6.314500E+01	  0.038837675	3.530200E+01	  0.038837675	6.884400E+01
96	  0.039038073	-3.880000E+00	  0.039038073	6.085500E+01	  0.039038073	3.757300E+01	  0.039038073	7.107200E+01
97	  0.039238475	-3.908000E+00	  0.039238475	5.863200E+01	  0.039238475	3.994400E+01	  0.039238475	7.330100E+01
98	  0.039438877	-3.928000E+00	  0.039438877	5.642100E+01	  0.039438877	4.246100E+01	  0.039438877	7.560400E+01
99	  0.039639279	-3.947000E+00	  0.039639279	5.424500E+01	  0.039639279	4.515100E+01	  0.039639279	7.792100E+01
100	  0.039839678	-3.962000E+00	  0.039839678	5.205600E+01	  0.039839678	4.808700E+01	  0.039839678	8.030600E+01
101	  0.040040080	-3.972000E+00	  0.040040080	4.992200E+01	  0.040040080	5.116900E+01	  0.040040080	8.270800E+01
102	  0.040240481	-3.978000E+00	  0.040240481	4.778200E+01	  0.040240481	5.453100E+01	  0.040240481	8.516800E+01
103	  0.040440880	-3.981000E+00	  0.040440880	4.567600E+01	  0.040440880	5.813700E+01	  0.040440880	8.762400E+01
104	  0.040641282	-3.985000E+00	  0.040641282	4.361800E+01	  0.040641282	6.199600E+01	  0.040641282	9.001800E+01
105	  0.040841684	-3.985000E+00	  0.040841684	4.155100E+01	  0.040841684	6.621400E+01	  0.040841684	9.243800E+01
106	  0.041042086	-3.986000E+00	  0.041042086	3.955500E+01	  0.041042086	7.068300E+01	  0.041042086	9.471500E+01
107	  0.041242484	-3.993000E+00	  0.041242484	3.757500E+01	  0.041242484	7.557500E+01	  0.041242484	9.678700E+01
108	  0.041442886	-4.001000E+00	  0.041442886	3.561400E+01	  0.041442886	8.085900E+01	  0.041442886	9.867900E+01
109	  0.041643288	-4.012000E+00	  0.041643288	3.369500E+01	  0.041643288	8.650100E+01	  0.041643288	1.002890E+02
110	  0.041843686	-4.029000E+00	  0.041843686	3.179100E+01	  0.041843686	9.259900E+01	  0.041843686	1.014680E+02
111	  0.042044088	-4.050000E+00	  0.042044088	2.995000E+01	  0.042044088	9.895500E+01	  0.042044088	1.021860E+02
112	  0.042244490	-4.076000E+00	  0.042244490	2.810500E+01	  0.042244490	1.057720E+02	  0.042244490	1.023810E+02
113	  0.042444889	-4.113000E+00	  0.042444889	2.632500E+01	  0.042444889	1.127460E+02	  0.042444889	1.017370E+02
114	  0.042645290	-4.158000E+00	  0.042645290	2.456300E+01	  0.042645290	1.199300E+02	  0.042645290	1.002500E+02
115	  0.042845692	-4.211000E+00	  0.042845692	2.279400E+01	  0.042845692	1.273160E+02	  0.042845692	9.784400E+01
116	  0.043046094	-4.272000E+00	  0.043046094	2.102300E+01	  0.043046094	1.347300E+02	  0.043046094	9.441800E+01
117	  0.043246493	-4.342000E+00	  0.043246493	1.926700E+01	  0.043246493	1.418860E+02	  0.043246493	8.985900E+01
118	  0.043446895	-4.419000E+00	  0.043446895	1.749700E+01	  0.043446895	1.487310E+02	  0.043446895	8.420700E+01
119	  0.043647297	-4.502000E+00	  0.043647297	1.573600E+01	  0.043647297	1.549470E+02	  0.043647297	7.755200E+01
120	  0.043847695	-4.593000E+00	  0.043847695	1.392800E+01	  0.043847695	1.604990E+02	  0.043847695	6.975200E+01
121	  0.044048097	-4.691000E+00	  0.044048097	1.214300E+01	  0.044048097	1.649330E+02	  0.044048097	6.121600E+01
122	  0.044248499	-4.794000E+00	  0.044248499	1.030500E+01	  0.044248499	1.683650E+02	  0.044248499	5.189200E+01
123	  0.044448901	-4.898000E+00	  0.044448901	8.470000E+00	  0.044448901	1.705830E+02	  0.044448901	4.227300E+01
124	  0.044649299	-5.006000E+00	  0.044649299	6.573000E+00	  0.044649299	1.716700E+02	  0.044649299	3.228100E+01
125	  0.044849701	-5.110000E+00	  0.044849701	4.655000E+00	  0.044849701	1.716590E+02	  0.044849701	2.236500E+01
126	  0.045050103	-5.210000E+00	  0.045050103	2.685000E+00	  0.045050103	1.706700E+02	  0.045050103	1.256400E+01
127	  0.045250501	-5.310000E+00	  0.045250501	6.970000E-01	  0.045250501	1.685590E+02	  0.045250501	3.154000E+00
128	  0.045450903	-5.406000E+00	  0.045450903	-1.307000E+00	  0.045450903	1.655950E+02	  0.045450903	-5.696000E+00
129	  0.045651305	-5.500000E+00	  0.045651305	-3.339000E+00	  0.045651305	1.618350E+02	  0.045651305	-1.393600E+01
130	  0.045851704	-5.585000E+00	  0.045851704	-5.398000E+00	  0.045851704	1.575570E+02	  0.045851704	-2.153600E+01
131	  0.046052106	-5.665000E+00	  0.046052106	-7.478000E+00	  0.046052106	1.528040E+02	  0.046052106	-2.842900E+01
132	  0.046252504	-5.737000E+00	  0.046252504	-9.599000E+00	  0.046252504	1.477060E+02	  0.046252504	-3.470900E+01
133	  0.046452906	-5.797000E+00	  0.046452906	-1.170900E+01	  0.046452906	1.425040E+02	  0.046452906	-4.026900E+01
134	  0.046653304	-5.849000E+00	  0.046653304	-1.381000E+01	  0.046653304	1.372120E+02	  0.046653304	-4.514400E+01
135	  0.046853706	-5.890000E+00	  0.046853706	-1.594100E+01	  0.046853706	1.318400E+02	  0.046853706	-4.951100E+01
136	  0.047054108	-5.916000E+00	  0.047054108	-1.806700E+01	  0.047054108	1.265570E+02	  0.047054108	-5.339300E+01
137	  0.047254506	-5.929000E+00	  0.047254506	-2.014900E+01	  0.047254506	1.214470E+02	  0.047254506	-5.677400E+01
138	  0.047454908	-5.932000E+00	  0.047454908	-2.223600E+01	  0.047454908	1.163650E+02	  0.047454908	-5.972000E+01
139	  0.047655310	-5.924000E+00	  0.047655310	-2.427100E+01	  0.047655310	1.114880E+02	  0.047655310	-6.224900E+01
140	  0.047855709	-5.911000E+00	  0.047855709	-2.623100E+01	  0.047855709	1.068440E+02	  0.047855709	-6.431100E+01
141	  0.048056111	-5.892000E+00	  0.048056111	-2.814400E+01	  0.048056111	1.023830E+02	  0.048056111	-6.601200E+01
142	  0.048256513	-5.865000E+00	  0.048256513	-3.003400E+01	  0.048256513	9.806400E+01	  0.048256513	-6.743900E+01
143	  0.048456915	-5.837000E+00	  0.048456915	-3.186000E+01	  0.048456915	9.396900E+01	  0.048456915	-6.852300E+01
144	  0.048657313	-5.801000E+00	  0.048657313	-3.365000E+01	  0.048657313	9.005300E+01	  0.048657313	-6.942900E+01
145	  0.048857715	-5.766000E+00	  0.048857715	-3.539000E+01	  0.048857715	8.633200E+01	  0.048857715	-7.005000E+01
146	  0.049058117	-5.732000E+00	  0.049058117	-3.710600E+01	  0.049058117	8.276400E+01	  0.049058117	-7.043000E+01
147	  0.049258515	-5.700000E+00	  0.049258515	-3.873700E+01	  0.049258515	7.947300E+01	  0.049258515	-7.059800E+01
148	  0.049458917	-5.669000E+00	  0.049458917	-4.036400E+01	  0.049458917	7.630000E+01	  0.049458917	-7.059000E+01
149	  0.049659319	-5.645000E+00	  0.049659319	-4.192400E+01	  0.049659319	7.337800E+01	  0.049659319	-7.036700E+01
150	  0.049859721	-5.621000E+00	  0.049859721	-4.341100E+01	  0.049859721	7.069000E+01	  0.049859721	-7.006700E+01
151	  0.050060119	-5.605000E+00	  0.050060119	-4.489800E+01	  0.050060119	6.812700E+01	  0.050060119	-6.957900E+01
152	  0.050260521	-5.592000E+00	  0.050260521	-4.636400E+01	  0.050260521	6.571000E+01	  0.050260521	-6.900200E+01
153	  0.050460923	-5.583000E+00	  0.050460923	-4.779600E+01	  0.050460923	6.346400E+01	  0.050460923	-6.832400E+01
154	  0.050661322	-5.585000E+00	  0.050661322	-4.921800E+01	  0.050661322	6.136600E+01	  0.050661322	-6.751000E+01
155	  0.050861724	-5.595000E+00	  0.050861724	-5.061900E+01	  0.050861724	5.942600E+01	  0.050861724	-6.659500E+01
156	  0.051062126	-5.609000E+00	  0.051062126	-5.198400E+01	  0.051062126	5.763400E+01	  0.051062126	-6.565600E+01
157	  0.051262524	-5.634000E+00	  0.051262524	-5.333100E+01	  0.051262524	5.599600E+01	  0.051262524	-6.461400E+01
158	  0.051462926	-5.666000E+00	  0.051462926	-5.466700E+01	  0.051462926	5.447900E+01	  0.051462926	-6.352000E+01
159	  0.051663328	-5.706000E+00	  0.051663328	-5.598500E+01	  0.051663328	5.308500E+01	  0.051663328	-6.238900E+01
160	  0.051863730	-5.757000E+00	  0.051863730	-5.732800E+01	  0.051863730	5.177600E+01	  0.051863730	-6.117200E+01
161	  0.052064128	-5.818000E+00	  0.052064128	-5.869000E+01	  0.052064128	5.055200E+01	  0.052064128	-5.989700E+01
162	  0.052264530	-5.879000E+00	  0.052264530	-6.008300E+01	  0.052264530	4.936100E+01	  0.052264530	-5.862300E+01
163	  0.052464932	-5.949000E+00	  0.052464932	-6.147000E+01	  0.052464932	4.827100E+01	  0.052464932	-5.732600E+01
164	  0.052665330	-6.025000E+00	  0.052665330	-6.294300E+01	  0.052665330	4.718000E+01	  0.052665330	-5.597200E+01
165	  0.052865732	-6.100000E+00	  0.052865732	-6.448100E+01	  0.052865732	4.608800E+01	  0.052865732	-5.461800E+01
166	  0.053066134	-6.169000E+00	  0.053066134	-6.606100E+01	  0.053066134	4.499700E+01	  0.053066134	-5.330900E+01
167	  0.053266536	-6.243000E+00	  0.053266536	-6.762200E+01	  0.053266536	4.400300E+01	  0.053266536	-5.200800E+01
168	  0.053466935	-6.317000E+00	  0.053466935	-6.922400E+01	  0.053466935	4.303000E+01	  0.053466935	-5.072000E+01
169	  0.053667337	-6.383000E+00	  0.053667337	-7.088800E+01	  0.053667337	4.203600E+01	  0.053667337	-4.946700E+01
170	  0.053867739	-6.446000E+00	  0.053867739	-7.254300E+01	  0.053867739	4.109200E+01	  0.053867739	-4.826000E+01
171	  0.054068137	-6.500000E+00	  0.054068137	-7.423100E+01	  0.054068137	4.014300E+01	  0.054068137	-4.710100E+01
172	  0.054268539	-6.549000E+00	  0.054268539	-7.593200E+01	  0.054268539	3.922300E+01	  0.054268539	-4.597200E+01
173	  0.054468941	-6.595000E+00	  0.054468941	-7.762100E+01	  0.054468941	3.834700E+01	  0.054468941	-4.488300E+01
174	  0.054669339	-6.634000E+00	  0.054669339	-7.935200E+01	  0.054669339	3.746500E+01	  0.054669339	-4.381900E+01
175	  0.054869737	-6.664000E+00	  0.054869737	-8.104300E+01	  0.054869737	3.662000E+01	  0.054869737	-4.282200E+01
176	  0.055070139	-6.685000E+00	  0.055070139	-8.278000E+01	  0.055070139	3.576400E+01	  0.055070139	-4.184400E+01
177	  0.055270538	-6.700000E+00	  0.055270538	-8.446900E+01	  0.055270538	3.495400E+01	  0.055270538	-4.091800E+01
178	  0.055470940	-6.703000E+00	  0.055470940	-8.614300E+01	  0.055470940	3.414800E+01	  0.055470940	-4.004800E+01
179	  0.055671342	-6.698000E+00	  0.055671342	-8.784600E+01	  0.055671342	3.333600E+01	  0.055671342	-3.919200E+01
180	  0.055871744	-6.684000E+00	  0.055871744	-8.949300E+01	  0.055871744	3.255500E+01	  0.055871744	-3.839400E+01
181	  0.056072142	-6.664000E+00	  0.056072142	-9.112800E+01	  0.056072142	3.178800E+01	  0.056072142	-3.762100E+01
182	  0.056272544	-6.637000E+00	  0.056272544	-9.274300E+01	  0.056272544	3.103900E+01	  0.056272544	-3.687500E+01
183	  0.056472946	-6.602000E+00	  0.056472946	-9.430500E+01	  0.056472946	3.031200E+01	  0.056472946	-3.617700E+01
184	  0.056673344	-6.557000E+00	  0.056673344	-9.584700E+01	  0.056673344	2.958400E+01	  0.056673344	-3.551100E+01
185	  0.056873746	-6.516000E+00	  0.056873746	-9.732800E+01	  0.056873746	2.891500E+01	  0.056873746	-3.486400E+01
186	  0.057074148	-6.459000E+00	  0.057074148	-9.873800E+01	  0.057074148	2.824000E+01	  0.057074148	-3.428500E+01
187	  0.057274550	-6.406000E+00	  0.057274550	-1.001390E+02	  0.057274550	2.760000E+01	  0.057274550	-3.369800E+01
188	  0.057474948	-6.349000E+00	  0.057474948	-1.014880E+02	  0.057474948	2.698400E+01	  0.057474948	-3.314000E+01
189	  0.057675350	-6.291000E+00	  0.057675350	-1.027800E+02	  0.057675350	2.639500E+01	  0.057675350	-3.261100E+01
190	  0.057875752	-6.236000E+00	  0.057875752	-1.040200E+02	  0.057875752	2.584800E+01	  0.057875752	-3.209800E+01
191	  0.058076151	-6.187000E+00	  0.058076151	-1.051850E+02	  0.058076151	2.535700E+01	  0.058076151	-3.160800E+01
192	  0.058276553	-6.144000E+00	  0.058276553	-1.063100E+02	  0.058276553	2.490300E+01	  0.058276553	-3.112700E+01
193	  0.058476955	-6.105000E+00	  0.058476955	-1.074150E+02	  0.058476955	2.448100E+01	  0.058476955	-3.064700E+01
194	  0.058677353	-6.069000E+00	  0.058677353	-1.084790E+02	  0.058677353	2.409200E+01	  0.058677353	-3.018000E+01
195	  0.058877755	-6.042000E+00	  0.058877755	-1.095450E+02	  0.058877755	2.373700E+01	  0.058877755	-2.970000E+01
196	  0.059078157	-6.018000E+00	  0.059078157	-1.105810E+02	  0.059078157	2.340800E+01	  0.059078157	-2.923000E+01
197	  0.059278559	-6.007000E+00	  0.059278559	-1.116150E+02	  0.059278559	2.312900E+01	  0.059278559	-2.874200E+01
198	  0.059478957	-5.999000E+00	  0.059478957	-1.126120E+02	  0.059478957	2.287400E+01	  0.059478957	-2.827000E+01
199	  0.059679359	-6.004000E+00	  0.059679359	-1.136470E+02	  0.059679359	2.266100E+01	  0.059679359	-2.776300E+01
200	  0.059879761	-6.008000E+00	  0.059879761	-1.146710E+02	  0.059879761	2.245200E+01	  0.059879761	-2.726500E+01
201	  0.060080159	-6.022000E+00	  0.060080159	-1.156660E+02	  0.060080159	2.228500E+01	  0.060080159	-2.677200E+01
202	  0.060280561	-6.046000E+00	  0.060280561	-1.166940E+02	  0.060280561	2.214900E+01	  0.060280561	-2.625400E+01
203	  0.060480963	-6.074000E+00	  0.060480963	-1.177210E+02	  0.060480963	2.202800E+01	  0.060480963	-2.573500E+01
204	  0.060681365	-6.102000E+00	  0.060681365	-1.187710E+02	  0.060681365	2.191000E+01	  0.060681365	-2.521000E+01
205	  0.060881764	-6.141000E+00	  0.060881764	-1.198120E+02	  0.060881764	2.183100E+01	  0.060881764	-2.468100E+01
206	  0.061082166	-6.183000E+00	  0.061082166	-1.208900E+02	  0.061082166	2.175800E+01	  0.061082166	-2.413600E+01
207	  0.061282568	-6.231000E+00	  0.061282568	-1.219850E+02	  0.061282568	2.170200E+01	  0.061282568	-2.358300E+01
208	  0.061482966	-6.280000E+00	  0.061482966	-1.230700E+02	  0.061482966	2.165600E+01	  0.061482966	-2.303800E+01
209	  0.061683368	-6.336000E+00	  0.061683368	-1.241980E+02	  0.061683368	2.162700E+01	  0.061683368	-2.247300E+01
210	  0.061883770	-6.389000E+00	  0.061883770	-1.253770E+02	  0.061883770	2.158400E+01	  0.061883770	-2.189500E+01
211	  0.062084168	-6.445000E+00	  0.062084168	-1.265340E+02	  0.062084168	2.155800E+01	  0.062084168	-2.132900E+01
212	  0.062284570	-6.500000E+00	  0.062284570	-1.277300E+02	  0.062284570	2.152600E+01	  0.062284570	-2.075400E+01
213	  0.062484972	-6.551000E+00	  0.062484972	-1.289550E+02	  0.062484972	2.148000E+01	  0.062484972	-2.017800E+01
214	  0.062685370	-6.604000E+00	  0.062685370	-1.302270E+02	  0.062685370	2.143800E+01	  0.062685370	-1.958500E+01
215	  0.062885776	-6.649000E+00	  0.062885776	-1.315330E+02	  0.062885776	2.137700E+01	  0.062885776	-1.899200E+01
216	  0.063086174	-6.695000E+00	  0.063086174	-1.328980E+02	  0.063086174	2.131400E+01	  0.063086174	-1.837900E+01
217	  0.063286573	-6.730000E+00	  0.063286573	-1.342590E+02	  0.063286573	2.122700E+01	  0.063286573	-1.778400E+01
218	  0.063486971	-6.764000E+00	  0.063486971	-1.356800E+02	  0.063486971	2.113500E+01	  0.063486971	-1.717100E+01
219	  0.063687377	-6.792000E+00	  0.063687377	-1.370800E+02	  0.063687377	2.103600E+01	  0.063687377	-1.657700E+01
220	  0.063887775	-6.806000E+00	  0.063887775	-1.384920E+02	  0.063887775	2.090600E+01	  0.063887775	-1.599200E+01
221	  0.064088173	-6.812000E+00	  0.064088173	-1.398650E+02	  0.064088173	2.076500E+01	  0.064088173	-1.543300E+01
222	  0.064288579	-6.811000E+00	  0.064288579	-1.413130E+02	  0.064288579	2.060400E+01	  0.064288579	-1.485300E+01
223	  0.064488977	-6.801000E+00	  0.064488977	-1.427220E+02	  0.064488977	2.043000E+01	  0.064488977	-1.429600E+01
224	  0.064689375	-6.783000E+00	  0.064689375	-1.440560E+02	  0.064689375	2.025100E+01	  0.064689375	-1.377600E+01
225	  0.064889781	-6.764000E+00	  0.064889781	-1.454100E+02	  0.064889781	2.007100E+01	  0.064889781	-1.325000E+01
226	  0.065090179	-6.733000E+00	  0.065090179	-1.467310E+02	  0.065090179	1.987100E+01	  0.065090179	-1.274500E+01
227	  0.065290578	-6.697000E+00	  0.065290578	-1.479900E+02	  0.065290578	1.966700E+01	  0.065290578	-1.226800E+01
228	  0.065490983	-6.656000E+00	  0.065490983	-1.492280E+02	  0.065490983	1.946000E+01	  0.065490983	-1.180100E+01
229	  0.065691382	-6.612000E+00	  0.065691382	-1.504630E+02	  0.065691382	1.924800E+01	  0.065691382	-1.133700E+01
230	  0.065891780	-6.569000E+00	  0.065891780	-1.516730E+02	  0.065891780	1.904800E+01	  0.065891780	-1.088100E+01
231	  0.066092186	-6.524000E+00	  0.066092186	-1.527950E+02	  0.066092186	1.885200E+01	  0.066092186	-1.046100E+01
232	  0.066292584	-6.467000E+00	  0.066292584	-1.539000E+02	  0.066292584	1.862800E+01	  0.066292584	-1.005200E+01
233	  0.066492982	-6.423000E+00	  0.066492982	-1.549500E+02	  0.066492982	1.844700E+01	  0.066492982	-9.657000E+00
234	  0.066693388	-6.373000E+00	  0.066693388	-1.559360E+02	  0.066693388	1.825800E+01	  0.066693388	-9.290000E+00
235	  0.066893786	-6.326000E+00	  0.066893786	-1.569130E+02	  0.066893786	1.807900E+01	  0.066893786	-8.923000E+00
236	  0.067094192	-6.277000E+00	  0.067094192	-1.578250E+02	  0.067094192	1.790300E+01	  0.067094192	-8.582000E+00
237	  0.067294590	-6.239000E+00	  0.067294590	-1.587650E+02	  0.067294590	1.775600E+01	  0.067294590	-8.226000E+00
238	  0.067494988	-6.201000E+00	  0.067494988	-1.596170E+02	  0.067494988	1.761400E+01	  0.067494988	-7.903000E+00
239	  0.067695394	-6.172000E+00	  0.067695394	-1.604390E+02	  0.067695394	1.749900E+01	  0.067695394	-7.590000E+00
240	  0.067895792	-6.146000E+00	  0.067895792	-1.612840E+02	  0.067895792	1.739400E+01	  0.067895792	-7.265000E+00
241	  0.068096191	-6.126000E+00	  0.068096191	-1.620660E+02	  0.068096191	1.731000E+01	  0.068096191	-6.964000E+00
242	  0.068296596	-6.113000E+00	  0.068296596	-1.628360E+02	  0.068296596	1.724400E+01	  0.068296596	-6.665000E+00
243	  0.068496995	-6.108000E+00	  0.068496995	-1.635540E+02	  0.068496995	1.720300E+01	  0.068496995	-6.385000E+00
244	  0.068697393	-6.109000E+00	  0.068697393	-1.643150E+02	  0.068697393	1.717700E+01	  0.068697393	-6.087000E+00
245	  0.068897791	-6.118000E+00	  0.068897791	-1.650580E+02	  0.068897791	1.717200E+01	  0.068897791	-5.794000E+00
246	  0.069098189	-6.132000E+00	  0.069098189	-1.657660E+02	  0.069098189	1.718500E+01	  0.069098189	-5.515000E+00
247	  0.069298595	-6.152000E+00	  0.069298595	-1.665330E+02	  0.069298595	1.721300E+01	  0.069298595	-5.211000E+00
248	  0.069498993	-6.179000E+00	  0.069498993	-1.672590E+02	  0.069498993	1.725800E+01	  0.069498993	-4.924000E+00
249	  0.069699399	-6.215000E+00	  0.069699399	-1.680600E+02	  0.069699399	1.732900E+01	  0.069699399	-4.606000E+00
250	  0.069899797	-6.256000E+00	  0.069899797	-1.688260E+02	  0.069899797	1.741100E+01	  0.069899797	-4.302000E+00
251	  0.070100196	-6.300000E+00	  0.070100196	-1.696220E+02	  0.070100196	1.750400E+01	  0.070100196	-3.988000E+00
252	  0.070300601	-6.346000E+00	  0.070300601	-1.704260E+02	  0.070300601	1.760300E+01	  0.070300601	-3.671000E+00
253	  0.070501000	-6.399000E+00	  0.070501000	-1.713000E+02	  0.070501000	1.771800E+01	  0.070501000	-3.328000E+00
254	  0.070701398	-6.452000E+00	  0.070701398	-1.721630E+02	  0.070701398	1.783400E+01	  0.070701398	-2.990000E+00
255	  0.070901804	-6.513000E+00	  0.070901804	-1.730840E+02	  0.070901804	1.797100E+01	  0.070901804	-2.632000E+00
256	  0.071102202	-6.566000E+00	  0.071102202	-1.740040E+02	  0.071102202	1.809000E+01	  0.071102202	-2.276000E+00
257	  0.071302600	-6.630000E+00	  0.071302600	-1.749850E+02	  0.071302600	1.823800E+01	  0.071302600	-1.898000E+00
258	  0.071503006	-6.690000E+00	  0.071503006	-1.759780E+02	  0.071503006	1.837700E+01	  0.071503006	-1.518000E+00
259	  0.071703404	-6.742000E+00	  0.071703404	-1.770200E+02	  0.071703404	1.849800E+01	  0.071703404	-1.122000E+00
260	  0.071903802	-6.798000E+00	  0.071903802	-1.780750E+02	  0.071903802	1.863100E+01	  0.071903802	-7.230000E-01
261	  0.072104208	-6.851000E+00	  0.072104208	-1.792040E+02	  0.072104208	1.875800E+01	  0.072104208	-2.980000E-01
262	  0.072304606	-6.892000E+00	  0.072304606	1.796650E+02	  0.072304606	1.885800E+01	  0.072304606	1.250000E-01
263	  0.072505005	-6.926000E+00	  0.072505005	1.785140E+02	  0.072505005	1.894600E+01	  0.072505005	5.550000E-01
264	  0.072705410	-6.954000E+00	  0.072705410	1.773190E+02	  0.072705410	1.902000E+01	  0.072705410	1.000000E+00
265	  0.072905809	-6.979000E+00	  0.072905809	1.761410E+02	  0.072905809	1.909200E+01	  0.072905809	1.438000E+00
266	  0.073106214	-6.996000E+00	  0.073106214	1.749320E+02	  0.073106214	1.914800E+01	  0.073106214	1.888000E+00
267	  0.073306613	-7.001000E+00	  0.073306613	1.737360E+02	  0.073306613	1.917500E+01	  0.073306613	2.334000E+00
268	  0.073507011	-7.006000E+00	  0.073507011	1.725070E+02	  0.073507011	1.920800E+01	  0.073507011	2.792000E+00
269	  0.073707417	-6.998000E+00	  0.073707417	1.713340E+02	  0.073707417	1.921200E+01	  0.073707417	3.231000E+00
270	  0.073907815	-6.984000E+00	  0.073907815	1.701920E+02	  0.073907815	1.920400E+01	  0.073907815	3.660000E+00
271	  0.074108213	-6.964000E+00	  0.074108213	1.690450E+02	  0.074108213	1.918600E+01	  0.074108213	4.093000E+00
272	  0.074308619	-6.935000E+00	  0.074308619	1.679140E+02	  0.074308619	1.914700E+01	  0.074308619	4.523000E+00
273	  0.074509017	-6.908000E+00	  0.074509017	1.667990E+02	  0.074509017	1.911400E+01	  0.074509017	4.949000E+00
274	  0.074709415	-6.871000E+00	  0.074709415	1.657390E+02	  0.074709415	1.905800E+01	  0.074709415	5.357000E+00
275	  0.074909821	-6.832000E+00	  0.074909821	1.647080E+02	  0.074909821	1.900000E+01	  0.074909821	5.757000E+00
276	  0.075110219	-6.792000E+00	  0.075110219	1.637320E+02	  0.075110219	1.893700E+01	  0.075110219	6.138000E+00
277	  0.075310618	-6.748000E+00	  0.075310618	1.628110E+02	  0.075310618	1.886400E+01	  0.075310618	6.501000E+00
278	  0.075511023	-6.703000E+00	  0.075511023	1.618860E+02	  0.075511023	1.879400E+01	  0.075511023	6.867000E+00
279	  0.075711422	-6.656000E+00	  0.075711422	1.610490E+02	  0.075711422	1.871300E+01	  0.075711422	7.203000E+00
280	  0.075911827	-6.620000E+00	  0.075911827	1.602100E+02	  0.075911827	1.866000E+01	  0.075911827	7.538000E+00
281	  0.076112226	-6.577000E+00	  0.076112226	1.593610E+02	  0.076112226	1.859500E+01	  0.076112226	7.879000E+00
282	  0.076312624	-6.546000E+00	  0.076312624	1.585740E+02	  0.076312624	1.855700E+01	  0.076312624	8.195000E+00
283	  0.076513030	-6.514000E+00	  0.076513030	1.577120E+02	  0.076513030	1.852100E+01	  0.076513030	8.541000E+00
284	  0.076713428	-6.486000E+00	  0.076713428	1.568120E+02	  0.076713428	1.849900E+01	  0.076713428	8.903000E+00
285	  0.076913826	-6.448000E+00	  0.076913826	1.561410E+02	  0.076913826	1.844000E+01	  0.076913826	9.180000E+00
286	  0.077114232	-6.415000E+00	  0.077114232	1.555310E+02	  0.077114232	1.839100E+01	  0.077114232	9.432000E+00
287	  0.077314630	-6.387000E+00	  0.077314630	1.549590E+02	  0.077314630	1.835400E+01	  0.077314630	9.668000E+00
288	  0.077515028	-6.371000E+00	  0.077515028	1.544160E+02	  0.077515028	1.834700E+01	  0.077515028	9.889000E+00
289	  0.077715434	-6.362000E+00	  0.077715434	1.538720E+02	  0.077715434	1.835800E+01	  0.077715434	1.010800E+01
290	  0.077915832	-6.368000E+00	  0.077915832	1.533110E+02	  0.077915832	1.841000E+01	  0.077915832	1.032700E+01
291	  0.078116231	-6.384000E+00	  0.078116231	1.527920E+02	  0.078116231	1.848600E+01	  0.078116231	1.052500E+01
292	  0.078316636	-6.403000E+00	  0.078316636	1.522440E+02	  0.078316636	1.857300E+01	  0.078316636	1.073400E+01
293	  0.078517035	-6.433000E+00	  0.078517035	1.517200E+02	  0.078517035	1.868800E+01	  0.078517035	1.092800E+01
294	  0.078717433	-6.469000E+00	  0.078717433	1.511700E+02	  0.078717433	1.882400E+01	  0.078717433	1.112800E+01
295	  0.078917839	-6.510000E+00	  0.078917839	1.505940E+02	  0.078917839	1.897400E+01	  0.078917839	1.133600E+01
296	  0.079118237	-6.563000E+00	  0.079118237	1.500600E+02	  0.079118237	1.915200E+01	  0.079118237	1.152100E+01
297	  0.079318643	-6.627000E+00	  0.079318643	1.494660E+02	  0.079318643	1.936500E+01	  0.079318643	1.172300E+01
298	  0.079519041	-6.685000E+00	  0.079519041	1.488340E+02	  0.079519041	1.956600E+01	  0.079519041	1.194200E+01
299	  0.079719439	-6.756000E+00	  0.079719439	1.481910E+02	  0.079719439	1.980500E+01	  0.079719439	1.215600E+01
300	  0.079919845	-6.833000E+00	  0.079919845	1.475000E+02	  0.079919845	2.006300E+01	  0.079919845	1.238500E+01
301	  0.080120243	-6.908000E+00	  0.080120243	1.467500E+02	  0.080120243	2.032400E+01	  0.080120243	1.263500E+01
302	  0.080320641	-6.990000E+00	  0.080320641	1.460120E+02	  0.080320641	2.060300E+01	  0.080320641	1.287500E+01
303	  0.080521047	-7.072000E+00	  0.080521047	1.452120E+02	  0.080521047	2.088800E+01	  0.080521047	1.313700E+01
304	  0.080721445	-7.150000E+00	  0.080721445	1.443780E+02	  0.080721445	2.117200E+01	  0.080721445	1.341200E+01
305	  0.080921844	-7.229000E+00	  0.080921844	1.434900E+02	  0.080921844	2.146300E+01	  0.080921844	1.370500E+01
306	  0.081122249	-7.307000E+00	  0.081122249	1.425470E+02	  0.081122249	2.176300E+01	  0.081122249	1.401700E+01
307	  0.081322648	-7.387000E+00	  0.081322648	1.416190E+02	  0.081322648	2.206600E+01	  0.081322648	1.432000E+01
308	  0.081523046	-7.454000E+00	  0.081523046	1.406340E+02	  0.081523046	2.234900E+01	  0.081523046	1.465100E+01
309	  0.081723452	-7.526000E+00	  0.081723452	1.396220E+02	  0.081723452	2.265100E+01	  0.081723452	1.498600E+01
310	  0.081923850	-7.590000E+00	  0.081923850	1.386100E+02	  0.081923850	2.293600E+01	  0.081923850	1.532500E+01
311	  0.082124248	-7.645000E+00	  0.082124248	1.375650E+02	  0.082124248	2.320400E+01	  0.082124248	1.568300E+01
312	  0.082324654	-7.687000E+00	  0.082324654	1.364650E+02	  0.082324654	2.345500E+01	  0.082324654	1.607100E+01
313	  0.082525052	-7.720000E+00	  0.082525052	1.353530E+02	  0.082525052	2.368800E+01	  0.082525052	1.647100E+01
314	  0.082725458	-7.750000E+00	  0.082725458	1.342260E+02	  0.082725458	2.391900E+01	  0.082725458	1.687900E+01
315	  0.082925856	-7.767000E+00	  0.082925856	1.331150E+02	  0.082925856	2.412200E+01	  0.082925856	1.729200E+01
316	  0.083126254	-7.771000E+00	  0.083126254	1.320190E+02	  0.083126254	2.429600E+01	  0.083126254	1.771300E+01
317	  0.083326660	-7.772000E+00	  0.083326660	1.309080E+02	  0.083326660	2.446700E+01	  0.083326660	1.814400E+01
318	  0.083527058	-7.760000E+00	  0.083527058	1.298130E+02	  0.083527058	2.460700E+01	  0.083527058	1.858300E+01
319	  0.083727457	-7.736000E+00	  0.083727457	1.287620E+02	  0.083727457	2.471700E+01	  0.083727457	1.902000E+01
320	  0.083927862	-7.704000E+00	  0.083927862	1.277580E+02	  0.083927862	2.480100E+01	  0.083927862	1.945100E+01
321	  0.084128261	-7.671000E+00	  0.084128261	1.267740E+02	  0.084128261	2.488100E+01	  0.084128261	1.987800E+01
322	  0.084328659	-7.631000E+00	  0.084328659	1.258840E+02	  0.084328659	2.493200E+01	  0.084328659	2.027900E+01
323	  0.084529065	-7.590000E+00	  0.084529065	1.250600E+02	  0.084529065	2.497100E+01	  0.084529065	2.065700E+01
324	  0.084729463	-7.546000E+00	  0.084729463	1.242630E+02	  0.084729463	2.499800E+01	  0.084729463	2.103100E+01
325	  0.084929861	-7.505000E+00	  0.084929861	1.234930E+02	  0.084929861	2.503100E+01	  0.084929861	2.139400E+01
326	  0.085130267	-7.457000E+00	  0.085130267	1.228150E+02	  0.085130267	2.503000E+01	  0.085130267	2.173000E+01
327	  0.085330658	-7.418000E+00	  0.085330658	1.221440E+02	  0.085330658	2.505300E+01	  0.085330658	2.205500E+01
328	  0.085531056	-7.378000E+00	  0.085531056	1.215600E+02	  0.085531056	2.505700E+01	  0.085531056	2.234700E+01
329	  0.085731462	-7.349000E+00	  0.085731462	1.209620E+02	  0.085731462	2.509400E+01	  0.085731462	2.263300E+01
330	  0.085931860	-7.317000E+00	  0.085931860	1.204020E+02	  0.085931860	2.512000E+01	  0.085931860	2.290800E+01
331	  0.086132258	-7.294000E+00	  0.086132258	1.199090E+02	  0.086132258	2.515400E+01	  0.086132258	2.314600E+01
332	  0.086332664	-7.278000E+00	  0.086332664	1.194500E+02	  0.086332664	2.520500E+01	  0.086332664	2.336000E+01
333	  0.086533062	-7.265000E+00	  0.086533062	1.189680E+02	  0.086533062	2.526900E+01	  0.086533062	2.358000E+01
334	  0.086733460	-7.256000E+00	  0.086733460	1.185330E+02	  0.086733460	2.533300E+01	  0.086733460	2.377700E+01
335	  0.086933866	-7.254000E+00	  0.086933866	1.181050E+02	  0.086933866	2.541700E+01	  0.086933866	2.396200E+01
336	  0.087134264	-7.258000E+00	  0.087134264	1.177060E+02	  0.087134264	2.551600E+01	  0.087134264	2.412400E+01
337	  0.087334670	-7.268000E+00	  0.087334670	1.173470E+02	  0.087334670	2.561900E+01	  0.087334670	2.426300E+01
338	  0.087535068	-7.289000E+00	  0.087535068	1.169710E+02	  0.087535068	2.576200E+01	  0.087535068	2.439200E+01
339	  0.087735467	-7.319000E+00	  0.087735467	1.166450E+02	  0.087735467	2.591800E+01	  0.087735467	2.448600E+01
340	  0.087935872	-7.358000E+00	  0.087935872	1.162750E+02	  0.087935872	2.610800E+01	  0.087935872	2.458700E+01
341	  0.088136271	-7.398000E+00	  0.088136271	1.159670E+02	  0.088136271	2.628800E+01	  0.088136271	2.465700E+01
342	  0.088336669	-7.448000E+00	  0.088336669	1.156010E+02	  0.088336669	2.651000E+01	  0.088336669	2.473600E+01
343	  0.088537075	-7.502000E+00	  0.088537075	1.152130E+02	  0.088537075	2.674900E+01	  0.088537075	2.481700E+01
344	  0.088737473	-7.567000E+00	  0.088737473	1.148650E+02	  0.088737473	2.701100E+01	  0.088737473	2.486200E+01
345	  0.088937871	-7.635000E+00	  0.088937871	1.144530E+02	  0.088937871	2.729400E+01	  0.088937871	2.492700E+01
346	  0.089138277	-7.713000E+00	  0.089138277	1.140760E+02	  0.089138277	2.759700E+01	  0.089138277	2.496000E+01
347	  0.089338675	-7.793000E+00	  0.089338675	1.136700E+02	  0.089338675	2.791300E+01	  0.089338675	2.499900E+01
348	  0.089539073	-7.886000E+00	  0.089539073	1.132230E+02	  0.089539073	2.827100E+01	  0.089539073	2.503200E+01
349	  0.089739479	-7.978000E+00	  0.089739479	1.127470E+02	  0.089739479	2.863700E+01	  0.089739479	2.507200E+01
350	  0.089939877	-8.076000E+00	  0.089939877	1.122240E+02	  0.089939877	2.902900E+01	  0.089939877	2.511900E+01
351	  0.090140276	-8.172000E+00	  0.090140276	1.116250E+02	  0.090140276	2.943300E+01	  0.090140276	2.519500E+01
352	  0.090340681	-8.268000E+00	  0.090340681	1.110100E+02	  0.090340681	2.984500E+01	  0.090340681	2.527100E+01
353	  0.090541080	-8.359000E+00	  0.090541080	1.102990E+02	  0.090541080	3.026700E+01	  0.090541080	2.539100E+01
354	  0.090741485	-8.456000E+00	  0.090741485	1.095560E+02	  0.090741485	3.071500E+01	  0.090741485	2.550500E+01
355	  0.090941884	-8.544000E+00	  0.090941884	1.087950E+02	  0.090941884	3.114700E+01	  0.090941884	2.563700E+01
356	  0.091142282	-8.633000E+00	  0.091142282	1.080100E+02	  0.091142282	3.159200E+01	  0.091142282	2.577000E+01
357	  0.091342688	-8.713000E+00	  0.091342688	1.071640E+02	  0.091342688	3.203400E+01	  0.091342688	2.593600E+01
358	  0.091543086	-8.784000E+00	  0.091543086	1.063170E+02	  0.091543086	3.245700E+01	  0.091543086	2.611500E+01
359	  0.091743484	-8.849000E+00	  0.091743484	1.054120E+02	  0.091743484	3.288700E+01	  0.091743484	2.632000E+01
360	  0.091943890	-8.908000E+00	  0.091943890	1.044890E+02	  0.091943890	3.331100E+01	  0.091943890	2.654100E+01
361	  0.092144288	-8.960000E+00	  0.092144288	1.035560E+02	  0.092144288	3.372700E+01	  0.092144288	2.677400E+01
362	  0.092344686	-8.988000E+00	  0.092344686	1.025700E+02	  0.092344686	3.410700E+01	  0.092344686	2.707300E+01
363	  0.092545092	-9.018000E+00	  0.092545092	1.016480E+02	  0.092545092	3.448000E+01	  0.092545092	2.734000E+01
364	  0.092745490	-9.028000E+00	  0.092745490	1.006670E+02	  0.092745490	3.482900E+01	  0.092745490	2.767000E+01
365	  0.092945889	-9.038000E+00	  0.092945889	9.979900E+01	  0.092945889	3.514900E+01	  0.092945889	2.795700E+01
366	  0.093146294	-9.032000E+00	  0.093146294	9.889900E+01	  0.093146294	3.544700E+01	  0.093146294	2.829200E+01
367	  0.093346693	-9.014000E+00	  0.093346693	9.803500E+01	  0.093346693	3.570800E+01	  0.093346693	2.864400E+01
368	  0.093547091	-8.994000E+00	  0.093547091	9.718000E+01	  0.093547091	3.597100E+01	  0.093547091	2.899500E+01
369	  0.093747497	-8.963000E+00	  0.093747497	9.641100E+01	  0.093747497	3.617900E+01	  0.093747497	2.934700E+01
370	  0.093947895	-8.925000E+00	  0.093947895	9.562100E+01	  0.093947895	3.638400E+01	  0.093947895	2.972500E+01
371	  0.094148301	-8.885000E+00	  0.094148301	9.490800E+01	  0.094148301	3.656000E+01	  0.094148301	3.008200E+01
372	  0.094348699	-8.838000E+00	  0.094348699	9.432700E+01	  0.094348699	3.667400E+01	  0.094348699	3.041100E+01
373	  0.094549097	-8.789000E+00	  0.094549097	9.378600E+01	  0.094549097	3.676800E+01	  0.094549097	3.073400E+01
374	  0.094749503	-8.736000E+00	  0.094749503	9.331900E+01	  0.094749503	3.682400E+01	  0.094749503	3.104600E+01
375	  0.094949901	-8.683000E+00	  0.094949901	9.283900E+01	  0.094949901	3.688800E+01	  0.094949901	3.136300E+01
376	  0.095150299	-8.631000E+00	  0.095150299	9.250300E+01	  0.095150299	3.689800E+01	  0.095150299	3.162600E+01
377	  0.095350705	-8.581000E+00	  0.095350705	9.217300E+01	  0.095350705	3.691000E+01	  0.095350705	3.188400E+01
378	  0.095551103	-8.541000E+00	  0.095551103	9.191000E+01	  0.095551103	3.691700E+01	  0.095551103	3.209400E+01
379	  0.095751502	-8.497000E+00	  0.095751502	9.167000E+01	  0.095751502	3.690600E+01	  0.095751502	3.230500E+01
380	  0.095951907	-8.465000E+00	  0.095951907	9.149500E+01	  0.095951907	3.689900E+01	  0.095951907	3.245900E+01
381	  0.096152306	-8.436000E+00	  0.096152306	9.136200E+01	  0.096152306	3.688200E+01	  0.096152306	3.259000E+01
382	  0.096352704	-8.411000E+00	  0.096352704	9.125800E+01	  0.096352704	3.686200E+01	  0.096352704	3.270000E+01
383	  0.096553110	-8.397000E+00	  0.096553110	9.120100E+01	  0.096553110	3.685200E+01	  0.096553110	3.275900E+01
384	  0.096753508	-8.386000E+00	  0.096753508	9.114000E+01	  0.096753508	3.684900E+01	  0.096753508	3.281400E+01
385	  0.096953906	-8.384000E+00	  0.096953906	9.109400E+01	  0.096953906	3.686300E+01	  0.096953906	3.283800E+01
386	  0.097154312	-8.395000E+00	  0.097154312	9.105500E+01	  0.097154312	3.690600E+01	  0.097154312	3.282400E+01
387	  0.097354710	-8.409000E+00	  0.097354710	9.104300E+01	  0.097354710	3.694800E+01	  0.097354710	3.278800E+01
388	  0.097555116	-8.430000E+00	  0.097555116	9.099600E+01	  0.097555116	3.702000E+01	  0.097555116	3.274900E+01
389	  0.097755514	-8.459000E+00	  0.097755514	9.098800E+01	  0.097755514	3.709900E+01	  0.097755514	3.266800E+01
390	  0.097955912	-8.497000E+00	  0.097955912	9.094700E+01	  0.097955912	3.721100E+01	  0.097955912	3.258000E+01
391	  0.098156318	-8.545000E+00	  0.098156318	9.087400E+01	  0.098156318	3.736200E+01	  0.098156318	3.247300E+01
392	  0.098356716	-8.586000E+00	  0.098356716	9.079400E+01	  0.098356716	3.749700E+01	  0.098356716	3.238800E+01
393	  0.098557115	-8.645000E+00	  0.098557115	9.069300E+01	  0.098557115	3.768400E+01	  0.098557115	3.226100E+01
394	  0.098757520	-8.705000E+00	  0.098757520	9.055500E+01	  0.098757520	3.788800E+01	  0.098757520	3.214400E+01
395	  0.098957919	-8.767000E+00	  0.098957919	9.035000E+01	  0.098957919	3.812400E+01	  0.098957919	3.204500E+01
396	  0.099158317	-8.837000E+00	  0.099158317	9.011900E+01	  0.099158317	3.839000E+01	  0.099158317	3.192900E+01
397	  0.099358723	-8.908000E+00	  0.099358723	8.988200E+01	  0.099358723	3.865600E+01	  0.099358723	3.181400E+01
398	  0.099559121	-8.979000E+00	  0.099559121	8.961100E+01	  0.099559121	3.893700E+01	  0.099559121	3.170700E+01
399	  0.099759519	-9.060000E+00	  0.099759519	8.923600E+01	  0.099759519	3.928400E+01	  0.099759519	3.160500E+01
400	  0.099959925	-9.136000E+00	  0.099959925	8.882100E+01	  0.099959925	3.963300E+01	  0.099959925	3.152700E+01
401	  0.100160323	-9.213000E+00	  0.100160323	8.837200E+01	  0.100160323	3.999900E+01	  0.100160323	3.145400E+01
402	  0.100360721	-9.282000E+00	  0.100360721	8.787400E+01	  0.100360721	4.036800E+01	  0.100360721	3.141600E+01
403	  0.100561127	-9.355000E+00	  0.100561127	8.730600E+01	  0.100561127	4.077500E+01	  0.100561127	3.138500E+01
404	  0.100761525	-9.413000E+00	  0.100761525	8.660200E+01	  0.100761525	4.121100E+01	  0.100761525	3.143600E+01
405	  0.100961931	-9.471000E+00	  0.100961931	8.590900E+01	  0.100961931	4.164600E+01	  0.100961931	3.147500E+01
406	  0.101162329	-9.515000E+00	  0.101162329	8.512600E+01	  0.101162329	4.209500E+01	  0.101162329	3.157800E+01
407	  0.101362728	-9.550000E+00	  0.101362728	8.440700E+01	  0.101362728	4.249900E+01	  0.101362728	3.168600E+01
408	  0.101563133	-9.587000E+00	  0.101563133	8.358600E+01	  0.101563133	4.296000E+01	  0.101563133	3.181100E+01
409	  0.101763532	-9.605000E+00	  0.101763532	8.276900E+01	  0.101763532	4.338600E+01	  0.101763532	3.199200E+01
410	  0.101963930	-9.615000E+00	  0.101963930	8.191500E+01	  0.101963930	4.382300E+01	  0.101963930	3.220000E+01
411	  0.102164336	-9.609000E+00	  0.102164336	8.104600E+01	  0.102164336	4.424300E+01	  0.102164336	3.246400E+01
412	  0.102364734	-9.593000E+00	  0.102364734	8.014600E+01	  0.102364734	4.467000E+01	  0.102364734	3.276700E+01
413	  0.102565132	-9.579000E+00	  0.102565132	7.926800E+01	  0.102565132	4.509700E+01	  0.102565132	3.305500E+01
414	  0.102765530	-9.552000E+00	  0.102765530	7.847500E+01	  0.102765530	4.546500E+01	  0.102765530	3.336400E+01
415	  0.102965929	-9.501000E+00	  0.102965929	7.770700E+01	  0.102965929	4.578600E+01	  0.102965929	3.374900E+01
416	  0.103166327	-9.449000E+00	  0.103166327	7.683400E+01	  0.103166327	4.616900E+01	  0.103166327	3.417000E+01
417	  0.103366733	-9.368000E+00	  0.103366733	7.619400E+01	  0.103366733	4.638100E+01	  0.103366733	3.464000E+01
418	  0.103567131	-9.459000E+00	  0.103567131	7.517100E+01	  0.103567131	4.711700E+01	  0.103567131	3.457000E+01
419	  0.103767529	-9.375000E+00	  0.103767529	7.442100E+01	  0.103767529	4.740500E+01	  0.103767529	3.508400E+01
420	  0.103967935	-9.293000E+00	  0.103967935	7.374800E+01	  0.103967935	4.765800E+01	  0.103967935	3.557700E+01
421	  0.104168333	-9.197000E+00	  0.104168333	7.303700E+01	  0.104168333	4.791700E+01	  0.104168333	3.614200E+01
422	  0.104368731	-9.098000E+00	  0.104368731	7.256100E+01	  0.104368731	4.803400E+01	  0.104368731	3.666700E+01
423	  0.104569137	-9.002000E+00	  0.104569137	7.204900E+01	  0.104569137	4.818100E+01	  0.104569137	3.719500E+01
424	  0.104769535	-8.907000E+00	  0.104769535	7.158700E+01	  0.104769535	4.830100E+01	  0.104769535	3.771700E+01
425	  0.104969934	-8.812000E+00	  0.104969934	7.113200E+01	  0.104969934	4.841700E+01	  0.104969934	3.824700E+01
426	  0.105170339	-8.723000E+00	  0.105170339	7.080400E+01	  0.105170339	4.846300E+01	  0.105170339	3.872200E+01
427	  0.105370738	-8.625000E+00	  0.105370738	7.046400E+01	  0.105370738	4.849700E+01	  0.105370738	3.925100E+01
428	  0.105571143	-8.542000E+00	  0.105571143	7.008900E+01	  0.105571143	4.858600E+01	  0.105571143	3.972800E+01
429	  0.105771542	-8.452000E+00	  0.105771542	6.988300E+01	  0.105771542	4.854600E+01	  0.105771542	4.019100E+01
430	  0.105971940	-8.388000E+00	  0.105971940	6.966300E+01	  0.105971940	4.856600E+01	  0.105971940	4.054800E+01
431	  0.106172346	-8.314000E+00	  0.106172346	6.942600E+01	  0.106172346	4.857500E+01	  0.106172346	4.096200E+01
432	  0.106372744	-8.252000E+00	  0.106372744	6.919600E+01	  0.106372744	4.860600E+01	  0.106372744	4.131900E+01
433	  0.106573142	-8.207000E+00	  0.106573142	6.902600E+01	  0.106573142	4.862900E+01	  0.106573142	4.158300E+01
434	  0.106773548	-8.158000E+00	  0.106773548	6.885500E+01	  0.106773548	4.864400E+01	  0.106773548	4.187000E+01
435	  0.106973946	-8.122000E+00	  0.106973946	6.866800E+01	  0.106973946	4.870000E+01	  0.106973946	4.209800E+01
436	  0.107174344	-8.096000E+00	  0.107174344	6.856100E+01	  0.107174344	4.871800E+01	  0.107174344	4.226000E+01
437	  0.107374750	-8.079000E+00	  0.107374750	6.834700E+01	  0.107374750	4.883700E+01	  0.107374750	4.241000E+01
438	  0.107575148	-8.070000E+00	  0.107575148	6.815200E+01	  0.107575148	4.895700E+01	  0.107575148	4.251800E+01
439	  0.107775547	-8.072000E+00	  0.107775547	6.791500E+01	  0.107775547	4.913300E+01	  0.107775547	4.258900E+01
440	  0.107975952	-8.087000E+00	  0.107975952	6.767500E+01	  0.107975952	4.934300E+01	  0.107975952	4.259400E+01
441	  0.108176351	-8.109000E+00	  0.108176351	6.747800E+01	  0.108176351	4.953500E+01	  0.108176351	4.255200E+01
442	  0.108376749	-8.148000E+00	  0.108376749	6.714300E+01	  0.108376749	4.986400E+01	  0.108376749	4.247000E+01
443	  0.108577155	-8.179000E+00	  0.108577155	6.686800E+01	  0.108577155	5.013300E+01	  0.108577155	4.240400E+01
444	  0.108777553	-8.229000E+00	  0.108777553	6.648700E+01	  0.108777553	5.051800E+01	  0.108777553	4.227500E+01
445	  0.108977959	-8.290000E+00	  0.108977959	6.607000E+01	  0.108977959	5.094700E+01	  0.108977959	4.210200E+01
446	  0.109178357	-8.346000E+00	  0.109178357	6.556700E+01	  0.109178357	5.143300E+01	  0.109178357	4.196600E+01
447	  0.109378755	-8.415000E+00	  0.109378755	6.504600E+01	  0.109378755	5.195100E+01	  0.109378755	4.176900E+01
448	  0.109579161	-8.481000E+00	  0.109579161	6.451300E+01	  0.109579161	5.247200E+01	  0.109579161	4.157500E+01
449	  0.109779559	-8.556000E+00	  0.109779559	6.389000E+01	  0.109779559	5.307100E+01	  0.109779559	4.135600E+01
450	  0.109979957	-8.630000E+00	  0.109979957	6.321100E+01	  0.109979957	5.370800E+01	  0.109979957	4.114100E+01
451	  0.110180363	-8.710000E+00	  0.110180363	6.242700E+01	  0.110180363	5.443100E+01	  0.110180363	4.090300E+01
452	  0.110380761	-8.780000E+00	  0.110380761	6.151700E+01	  0.110380761	5.523500E+01	  0.110380761	4.072700E+01
453	  0.110581160	-8.847000E+00	  0.110581160	6.059100E+01	  0.110581160	5.604700E+01	  0.110581160	4.055100E+01
454	  0.110781565	-8.912000E+00	  0.110781565	5.955800E+01	  0.110781565	5.694200E+01	  0.110781565	4.037700E+01
455	  0.110981964	-8.974000E+00	  0.110981964	5.847700E+01	  0.110981964	5.787400E+01	  0.110981964	4.020500E+01
456	  0.111182362	-9.024000E+00	  0.111182362	5.739000E+01	  0.111182362	5.880400E+01	  0.111182362	4.006900E+01
457	  0.111382768	-9.071000E+00	  0.111382768	5.623000E+01	  0.111382768	5.979600E+01	  0.111382768	3.993000E+01
458	  0.111583166	-9.109000E+00	  0.111583166	5.503000E+01	  0.111583166	6.082300E+01	  0.111583166	3.981600E+01
459	  0.111783572	-9.132000E+00	  0.111783572	5.377100E+01	  0.111783572	6.190400E+01	  0.111783572	3.975300E+01
460	  0.111983970	-9.146000E+00	  0.111983970	5.248500E+01	  0.111983970	6.302100E+01	  0.111983970	3.971200E+01
461	  0.112184368	-9.139000E+00	  0.112184368	5.114500E+01	  0.112184368	6.420400E+01	  0.112184368	3.976000E+01
462	  0.112384774	-9.130000E+00	  0.112384774	4.984100E+01	  0.112384774	6.537800E+01	  0.112384774	3.978800E+01
463	  0.112585172	-9.104000E+00	  0.112585172	4.855000E+01	  0.112585172	6.657000E+01	  0.112585172	3.988700E+01
464	  0.112785570	-9.057000E+00	  0.112785570	4.721500E+01	  0.112785570	6.784600E+01	  0.112785570	4.008300E+01
465	  0.112985976	-8.992000E+00	  0.112985976	4.596700E+01	  0.112985976	6.908800E+01	  0.112985976	4.036800E+01
466	  0.113186374	-8.932000E+00	  0.113186374	4.480100E+01	  0.113186374	7.028500E+01	  0.113186374	4.061100E+01
467	  0.113386773	-8.861000E+00	  0.113386773	4.364800E+01	  0.113386773	7.151900E+01	  0.113386773	4.091200E+01
468	  0.113587178	-8.784000E+00	  0.113587178	4.248600E+01	  0.113587178	7.281200E+01	  0.113587178	4.122800E+01
469	  0.113787577	-8.708000E+00	  0.113787577	4.139000E+01	  0.113787577	7.407800E+01	  0.113787577	4.153600E+01
470	  0.113987975	-8.627000E+00	  0.113987975	4.039500E+01	  0.113987975	7.528500E+01	  0.113987975	4.188200E+01
471	  0.114188381	-8.551000E+00	  0.114188381	3.941800E+01	  0.114188381	7.650300E+01	  0.114188381	4.218700E+01
472	  0.114388779	-8.478000E+00	  0.114388779	3.848900E+01	  0.114388779	7.770100E+01	  0.114388779	4.247100E+01
473	  0.114589177	-8.396000E+00	  0.114589177	3.760900E+01	  0.114589177	7.889800E+01	  0.114589177	4.282400E+01
474	  0.114789583	-8.317000E+00	  0.114789583	3.682100E+01	  0.114789583	8.001500E+01	  0.114789583	4.317000E+01
475	  0.114989981	-8.242000E+00	  0.114989981	3.612300E+01	  0.114989981	8.105000E+01	  0.114989981	4.352100E+01
476	  0.115190387	-8.173000E+00	  0.115190387	3.540500E+01	  0.115190387	8.211800E+01	  0.115190387	4.379900E+01
477	  0.115390785	-8.120000E+00	  0.115390785	3.479700E+01	  0.115390785	8.303600E+01	  0.115390785	4.399200E+01
478	  0.115591183	-8.061000E+00	  0.115591183	3.414500E+01	  0.115591183	8.404500E+01	  0.115591183	4.420100E+01
479	  0.115791589	-8.023000E+00	  0.115791589	3.361100E+01	  0.115791589	8.486000E+01	  0.115791589	4.428200E+01
480	  0.115991987	-7.991000E+00	  0.115991987	3.311500E+01	  0.115991987	8.561800E+01	  0.115991987	4.431900E+01
481	  0.116192386	-7.970000E+00	  0.116192386	3.261500E+01	  0.116192386	8.635100E+01	  0.116192386	4.424500E+01
482	  0.116392791	-7.960000E+00	  0.116392791	3.211300E+01	  0.116392791	8.706000E+01	  0.116392791	4.406800E+01
483	  0.116593190	-7.970000E+00	  0.116593190	3.167200E+01	  0.116593190	8.761000E+01	  0.116593190	4.372900E+01
484	  0.116793588	-7.991000E+00	  0.116793588	3.121800E+01	  0.116793588	8.813700E+01	  0.116793588	4.328100E+01
485	  0.116993994	-8.031000E+00	  0.116993994	3.073500E+01	  0.116993994	8.861900E+01	  0.116993994	4.264200E+01
486	  0.117194392	-8.082000E+00	  0.117194392	3.025900E+01	  0.117194392	8.902900E+01	  0.117194392	4.189800E+01
487	  0.117394790	-8.147000E+00	  0.117394790	2.977300E+01	  0.117394790	8.937700E+01	  0.117394790	4.102900E+01
488	  0.117595196	-8.233000E+00	  0.117595196	2.922200E+01	  0.117595196	8.969000E+01	  0.117595196	3.993500E+01
489	  0.117795594	-8.335000E+00	  0.117795594	2.868100E+01	  0.117795594	8.988400E+01	  0.117795594	3.872700E+01
490	  0.117995992	-8.448000E+00	  0.117995992	2.800800E+01	  0.117995992	9.014800E+01	  0.117995992	3.734800E+01
491	  0.118196398	-8.573000E+00	  0.118196398	2.730000E+01	  0.118196398	9.034800E+01	  0.118196398	3.587000E+01
492	  0.118396796	-8.711000E+00	  0.118396796	2.651600E+01	  0.118396796	9.050700E+01	  0.118396796	3.425100E+01
493	  0.118597202	-8.858000E+00	  0.118597202	2.566500E+01	  0.118597202	9.062900E+01	  0.118597202	3.254600E+01
494	  0.118797600	-9.026000E+00	  0.118797600	2.473300E+01	  0.118797600	9.065000E+01	  0.118797600	3.067200E+01
495	  0.118997999	-9.204000E+00	  0.118997999	2.372300E+01	  0.118997999	9.060500E+01	  0.118997999	2.871300E+01
496	  0.119198404	-9.383000E+00	  0.119198404	2.261700E+01	  0.119198404	9.055700E+01	  0.119198404	2.672500E+01
497	  0.119398803	-9.570000E+00	  0.119398803	2.136700E+01	  0.119398803	9.048900E+01	  0.119398803	2.462800E+01
498	  0.119599201	-9.760000E+00	  0.119599201	2.001800E+01	  0.119599201	9.036800E+01	  0.119599201	2.248800E+01
499	  0.119799607	-9.949000E+00	  0.119799607	1.851000E+01	  0.119799607	9.025300E+01	  0.119799607	2.027700E+01
500	  0.120000005	-1.014300E+01	  0.120000005	1.682800E+01	  0.120000005	9.009000E+01	  0.120000005	1.796200E+01
