! Anritsu VNA Master:             	Model: MS2036C/10/77
! SN:             	1601066
! /bd0/18may26.balun/4a.me3.txt
! Existing Calibration Information:
! TYPE:             	Current Settings	Active Cal Settings
! TIME:             	05/26/2018 03:29:16 PM	05/26/2018 02:51:55 PM
! INTERNAL TEMP:    	59.8 C	59.5 C
! # POINTS:         	500	500
! START FREQ:       	20.000 MHz	20.000 MHz
! STOP FREQ:        	120.000 MHz	120.000 MHz
! SOURCE POWER:     	High	High
! IFBW:             	50 Hz	50 Hz
! AVG FACTOR:       	  1 	  1 
! REF PLANE 1:      	0 mm	0 mm
! REF PLANE 2:      	0 mm	0 mm
! CAL TYPE:         	Full S11	Full S11
! CAL METHOD:       	SOLT	SOLT
! CAL LINE TYPE:    	Coax	Coax
! DUT PORT 1:       	K-Conn(M)	K-Conn(M)
! DUT PORT 2:       	K-Conn(M)	K-Conn(M)
! CAL STATUS:       	OK: Accuracy High	--
! PROP-V:       	0.700
! CABLE LOSS:       	0.000 dB/m
! REF IMPEDANCE:       	50.0
! Trace Specific Parameters:	TR1	TR2	TR3	TR4
! TRACE.#.Y (GRAPH TYPE)	LOG MAG	PHASE	REAL IMPEDANCE	IMAGINARY IMPEDANCE
! TRACE.#.X 	FREQ.GHZ	FREQ.GHZ	FREQ.GHZ	FREQ.GHZ
! S-PARAMETER	S11	S11	S11	S11
! SMOOTH/APERTURE %	0	0	0	0
! WINDOW	NSL	NSL	NSL	NSL
! GATING	OFF	OFF	OFF	OFF
! FGTD	OFF	OFF	OFF	OFF
Marker Information per Trace:	TR1	TR2	TR3	TR4
!MK1	--	--	--	--
!MK2	--	--	--	--
!MK3	--	--	--	--
!MK4	--	--	--	--
!MK5	--	--	--	--
!MK6	--	--	--	--
!MK7	--	--	--	--
!MK8	--	--	--	--
PNT	TR1.FREQ.GHZ	TR1.LOG MAG.dB	TR2.FREQ.GHZ	TR2.PHASE.deg	TR3.FREQ.GHZ	TR3.REAL IMPEDANCE.ohm	TR4.FREQ.GHZ	TR4.IMAGINARY IMPEDANCE.ohm
1	  0.020000000	-6.610000E-01	  0.020000000	-1.260070E+02	  0.020000000	2.395000E+00	  0.020000000	-2.542500E+01
2	  0.020200402	-6.590000E-01	  0.020200402	-1.275240E+02	  0.020200402	2.358000E+00	  0.020200402	-2.460000E+01
3	  0.020400802	-6.580000E-01	  0.020400802	-1.289970E+02	  0.020400802	2.323000E+00	  0.020400802	-2.380800E+01
4	  0.020601204	-6.590000E-01	  0.020601204	-1.304690E+02	  0.020601204	2.298000E+00	  0.020601204	-2.302600E+01
5	  0.020801604	-6.620000E-01	  0.020801604	-1.319560E+02	  0.020801604	2.282000E+00	  0.020801604	-2.224500E+01
6	  0.021002004	-6.680000E-01	  0.021002004	-1.334980E+02	  0.021002004	2.278000E+00	  0.021002004	-2.144400E+01
7	  0.021202406	-6.750000E-01	  0.021202406	-1.350320E+02	  0.021202406	2.275000E+00	  0.021202406	-2.065700E+01
8	  0.021402806	-6.790000E-01	  0.021402806	-1.365950E+02	  0.021402806	2.265000E+00	  0.021402806	-1.986400E+01
9	  0.021603208	-6.840000E-01	  0.021603208	-1.381460E+02	  0.021603208	2.256000E+00	  0.021603208	-1.908500E+01
10	  0.021803608	-6.890000E-01	  0.021803608	-1.397100E+02	  0.021803608	2.249000E+00	  0.021803608	-1.830800E+01
11	  0.022004008	-6.940000E-01	  0.022004008	-1.412680E+02	  0.022004008	2.245000E+00	  0.022004008	-1.754200E+01
12	  0.022204408	-6.940000E-01	  0.022204408	-1.428800E+02	  0.022204408	2.224000E+00	  0.022204408	-1.675800E+01
13	  0.022404809	-6.950000E-01	  0.022404809	-1.444730E+02	  0.022404809	2.206000E+00	  0.022404809	-1.598900E+01
14	  0.022605211	-6.990000E-01	  0.022605211	-1.460460E+02	  0.022605211	2.199000E+00	  0.022605211	-1.523700E+01
15	  0.022805611	-7.000000E-01	  0.022805611	-1.476130E+02	  0.022805611	2.185000E+00	  0.022805611	-1.449400E+01
16	  0.023006011	-6.980000E-01	  0.023006011	-1.491760E+02	  0.023006011	2.162000E+00	  0.023006011	-1.375900E+01
17	  0.023206413	-7.040000E-01	  0.023206413	-1.507660E+02	  0.023206413	2.163000E+00	  0.023206413	-1.301600E+01
18	  0.023406813	-7.120000E-01	  0.023406813	-1.523720E+02	  0.023406813	2.173000E+00	  0.023406813	-1.227100E+01
19	  0.023607215	-7.190000E-01	  0.023607215	-1.539860E+02	  0.023607215	2.180000E+00	  0.023607215	-1.152800E+01
20	  0.023807615	-7.270000E-01	  0.023807615	-1.556120E+02	  0.023807615	2.188000E+00	  0.023807615	-1.078500E+01
21	  0.024008015	-7.360000E-01	  0.024008015	-1.572150E+02	  0.024008015	2.203000E+00	  0.024008015	-1.005500E+01
22	  0.024208417	-7.460000E-01	  0.024208417	-1.588520E+02	  0.024208417	2.221000E+00	  0.024208417	-9.315000E+00
23	  0.024408817	-7.580000E-01	  0.024408817	-1.604840E+02	  0.024408817	2.245000E+00	  0.024408817	-8.581000E+00
24	  0.024609219	-7.710000E-01	  0.024609219	-1.621620E+02	  0.024609219	2.273000E+00	  0.024609219	-7.830000E+00
25	  0.024809619	-7.800000E-01	  0.024809619	-1.638630E+02	  0.024809619	2.288000E+00	  0.024809619	-7.073000E+00
26	  0.025010020	-7.850000E-01	  0.025010020	-1.655550E+02	  0.025010020	2.295000E+00	  0.025010020	-6.322000E+00
27	  0.025210422	-7.950000E-01	  0.025210422	-1.672670E+02	  0.025210422	2.315000E+00	  0.025210422	-5.566000E+00
28	  0.025410822	-8.040000E-01	  0.025410822	-1.689830E+02	  0.025410822	2.336000E+00	  0.025410822	-4.811000E+00
29	  0.025611224	-8.160000E-01	  0.025611224	-1.706990E+02	  0.025611224	2.364000E+00	  0.025611224	-4.057000E+00
30	  0.025811624	-8.250000E-01	  0.025811624	-1.724290E+02	  0.025811624	2.384000E+00	  0.025811624	-3.300000E+00
31	  0.026012026	-8.380000E-01	  0.026012026	-1.741830E+02	  0.026012026	2.416000E+00	  0.026012026	-2.533000E+00
32	  0.026212426	-8.510000E-01	  0.026212426	-1.759340E+02	  0.026212426	2.451000E+00	  0.026212426	-1.770000E+00
33	  0.026412826	-8.660000E-01	  0.026412826	-1.776990E+02	  0.026412826	2.491000E+00	  0.026412826	-1.001000E+00
34	  0.026613226	-8.820000E-01	  0.026613226	-1.794710E+02	  0.026613226	2.538000E+00	  0.026613226	-2.300000E-01
35	  0.026813626	-8.950000E-01	  0.026813626	1.787490E+02	  0.026813626	2.575000E+00	  0.026813626	5.440000E-01
36	  0.027014028	-9.080000E-01	  0.027014028	1.769960E+02	  0.027014028	2.613000E+00	  0.027014028	1.307000E+00
37	  0.027214428	-9.210000E-01	  0.027214428	1.752380E+02	  0.027214428	2.653000E+00	  0.027214428	2.072000E+00
38	  0.027414829	-9.340000E-01	  0.027414829	1.734730E+02	  0.027414829	2.694000E+00	  0.027414829	2.842000E+00
39	  0.027615231	-9.480000E-01	  0.027615231	1.717170E+02	  0.027615231	2.740000E+00	  0.027615231	3.609000E+00
40	  0.027815631	-9.650000E-01	  0.027815631	1.699430E+02	  0.027815631	2.797000E+00	  0.027815631	4.385000E+00
41	  0.028016033	-9.830000E-01	  0.028016033	1.681460E+02	  0.028016033	2.858000E+00	  0.028016033	5.173000E+00
42	  0.028216433	-1.001000E+00	  0.028216433	1.663350E+02	  0.028216433	2.919000E+00	  0.028216433	5.970000E+00
43	  0.028416833	-1.021000E+00	  0.028416833	1.645280E+02	  0.028416833	2.989000E+00	  0.028416833	6.768000E+00
44	  0.028617235	-1.043000E+00	  0.028617235	1.627230E+02	  0.028617235	3.069000E+00	  0.028617235	7.567000E+00
45	  0.028817635	-1.066000E+00	  0.028817635	1.608900E+02	  0.028817635	3.152000E+00	  0.028817635	8.383000E+00
46	  0.029018037	-1.091000E+00	  0.029018037	1.590410E+02	  0.029018037	3.245000E+00	  0.029018037	9.210000E+00
47	  0.029218437	-1.117000E+00	  0.029218437	1.571500E+02	  0.029218437	3.342000E+00	  0.029218437	1.006000E+01
48	  0.029418837	-1.140000E+00	  0.029418837	1.552460E+02	  0.029418837	3.434000E+00	  0.029418837	1.092200E+01
49	  0.029619239	-1.164000E+00	  0.029619239	1.533880E+02	  0.029619239	3.531000E+00	  0.029619239	1.176800E+01
50	  0.029819639	-1.188000E+00	  0.029819639	1.514960E+02	  0.029819639	3.633000E+00	  0.029819639	1.263600E+01
51	  0.030020041	-1.211000E+00	  0.030020041	1.495920E+02	  0.030020041	3.738000E+00	  0.030020041	1.351700E+01
52	  0.030220442	-1.238000E+00	  0.030220442	1.476910E+02	  0.030220442	3.856000E+00	  0.030220442	1.440300E+01
53	  0.030420844	-1.271000E+00	  0.030420844	1.457840E+02	  0.030420844	3.997000E+00	  0.030420844	1.529900E+01
54	  0.030621244	-1.308000E+00	  0.030621244	1.438240E+02	  0.030621244	4.156000E+00	  0.030621244	1.622800E+01
55	  0.030821644	-1.343000E+00	  0.030821644	1.418230E+02	  0.030821644	4.317000E+00	  0.030821644	1.718700E+01
56	  0.031022044	-1.375000E+00	  0.031022044	1.398020E+02	  0.031022044	4.476000E+00	  0.031022044	1.816600E+01
57	  0.031222444	-1.402000E+00	  0.031222444	1.377450E+02	  0.031222444	4.623000E+00	  0.031222444	1.917600E+01
58	  0.031422846	-1.426000E+00	  0.031422846	1.357170E+02	  0.031422846	4.769000E+00	  0.031422846	2.018600E+01
59	  0.031623244	-1.451000E+00	  0.031623244	1.336960E+02	  0.031623244	4.924000E+00	  0.031623244	2.120400E+01
60	  0.031823646	-1.472000E+00	  0.031823646	1.317050E+02	  0.031823646	5.069000E+00	  0.031823646	2.222300E+01
61	  0.032024048	-1.490000E+00	  0.032024048	1.297150E+02	  0.032024048	5.214000E+00	  0.032024048	2.325600E+01
62	  0.032224450	-1.514000E+00	  0.032224450	1.277640E+02	  0.032224450	5.382000E+00	  0.032224450	2.428400E+01
63	  0.032424849	-1.539000E+00	  0.032424849	1.258580E+02	  0.032424849	5.562000E+00	  0.032424849	2.530300E+01
64	  0.032625251	-1.569000E+00	  0.032625251	1.239080E+02	  0.032625251	5.771000E+00	  0.032625251	2.635900E+01
65	  0.032825653	-1.607000E+00	  0.032825653	1.219940E+02	  0.032825653	6.017000E+00	  0.032825653	2.741000E+01
66	  0.033026051	-1.648000E+00	  0.033026051	1.200690E+02	  0.033026051	6.285000E+00	  0.033026051	2.848400E+01
67	  0.033226453	-1.691000E+00	  0.033226453	1.181090E+02	  0.033226453	6.577000E+00	  0.033226453	2.959500E+01
68	  0.033426855	-1.740000E+00	  0.033426855	1.161420E+02	  0.033426855	6.905000E+00	  0.033426855	3.072700E+01
69	  0.033627257	-1.787000E+00	  0.033627257	1.141280E+02	  0.033627257	7.246000E+00	  0.033627257	3.190900E+01
70	  0.033827655	-1.834000E+00	  0.033827655	1.120560E+02	  0.033827655	7.609000E+00	  0.033827655	3.315000E+01
71	  0.034028057	-1.880000E+00	  0.034028057	1.100060E+02	  0.034028057	7.990000E+00	  0.034028057	3.440200E+01
72	  0.034228459	-1.929000E+00	  0.034228459	1.078920E+02	  0.034228459	8.405000E+00	  0.034228459	3.572200E+01
73	  0.034428857	-1.976000E+00	  0.034428857	1.058080E+02	  0.034428857	8.840000E+00	  0.034428857	3.705100E+01
74	  0.034629259	-2.021000E+00	  0.034629259	1.037000E+02	  0.034629259	9.287000E+00	  0.034629259	3.842900E+01
75	  0.034829661	-2.060000E+00	  0.034829661	1.015910E+02	  0.034829661	9.740000E+00	  0.034829661	3.984700E+01
76	  0.035030060	-2.094000E+00	  0.035030060	9.952300E+01	  0.035030060	1.019100E+01	  0.035030060	4.127500E+01
77	  0.035230462	-2.141000E+00	  0.035230462	9.745900E+01	  0.035230462	1.073000E+01	  0.035230462	4.272500E+01
78	  0.035430863	-2.185000E+00	  0.035430863	9.539800E+01	  0.035430863	1.129200E+01	  0.035430863	4.421100E+01
79	  0.035631265	-2.239000E+00	  0.035631265	9.332600E+01	  0.035631265	1.194300E+01	  0.035631265	4.573200E+01
80	  0.035831664	-2.296000E+00	  0.035831664	9.121800E+01	  0.035831664	1.266200E+01	  0.035831664	4.731800E+01
81	  0.036032066	-2.350000E+00	  0.036032066	8.907400E+01	  0.036032066	1.341800E+01	  0.036032066	4.897900E+01
82	  0.036232468	-2.403000E+00	  0.036232468	8.689400E+01	  0.036232468	1.423400E+01	  0.036232468	5.072000E+01
83	  0.036432866	-2.453000E+00	  0.036432866	8.472100E+01	  0.036432866	1.509500E+01	  0.036432866	5.250900E+01
84	  0.036633268	-2.498000E+00	  0.036633268	8.252900E+01	  0.036633268	1.599400E+01	  0.036633268	5.438000E+01
85	  0.036833670	-2.542000E+00	  0.036833670	8.035800E+01	  0.036833670	1.695500E+01	  0.036833670	5.629200E+01
86	  0.037034072	-2.578000E+00	  0.037034072	7.821700E+01	  0.037034072	1.792900E+01	  0.037034072	5.825500E+01
87	  0.037234470	-2.615000E+00	  0.037234470	7.612200E+01	  0.037234470	1.896500E+01	  0.037234470	6.023700E+01
88	  0.037434869	-2.652000E+00	  0.037434869	7.406100E+01	  0.037434869	2.007600E+01	  0.037434869	6.224600E+01
89	  0.037635271	-2.689000E+00	  0.037635271	7.202300E+01	  0.037635271	2.126800E+01	  0.037635271	6.429400E+01
90	  0.037835669	-2.739000E+00	  0.037835669	6.997900E+01	  0.037835669	2.264900E+01	  0.037835669	6.637400E+01
91	  0.038036071	-2.791000E+00	  0.038036071	6.796800E+01	  0.038036071	2.415000E+01	  0.038036071	6.846200E+01
92	  0.038236473	-2.850000E+00	  0.038236473	6.600200E+01	  0.038236473	2.579100E+01	  0.038236473	7.053000E+01
93	  0.038436871	-2.908000E+00	  0.038436871	6.400100E+01	  0.038436871	2.759200E+01	  0.038436871	7.268800E+01
94	  0.038637273	-2.974000E+00	  0.038637273	6.199200E+01	  0.038637273	2.961400E+01	  0.038637273	7.486600E+01
95	  0.038837675	-3.040000E+00	  0.038837675	5.992900E+01	  0.038837675	3.185000E+01	  0.038837675	7.715300E+01
96	  0.039038073	-3.107000E+00	  0.039038073	5.782600E+01	  0.039038073	3.433200E+01	  0.039038073	7.952400E+01
97	  0.039238475	-3.165000E+00	  0.039238475	5.567200E+01	  0.039238475	3.702000E+01	  0.039238475	8.205000E+01
98	  0.039438877	-3.219000E+00	  0.039438877	5.349100E+01	  0.039438877	3.994900E+01	  0.039438877	8.469200E+01
99	  0.039639279	-3.266000E+00	  0.039639279	5.137800E+01	  0.039639279	4.302300E+01	  0.039639279	8.732100E+01
100	  0.039839678	-3.312000E+00	  0.039839678	4.928000E+01	  0.039839678	4.637400E+01	  0.039839678	8.995500E+01
101	  0.040040080	-3.358000E+00	  0.040040080	4.718300E+01	  0.040040080	5.004000E+01	  0.040040080	9.261100E+01
102	  0.040240481	-3.407000E+00	  0.040240481	4.513400E+01	  0.040240481	5.401900E+01	  0.040240481	9.513500E+01
103	  0.040440880	-3.459000E+00	  0.040440880	4.306300E+01	  0.040440880	5.845200E+01	  0.040440880	9.760700E+01
104	  0.040641282	-3.515000E+00	  0.040641282	4.095400E+01	  0.040641282	6.343100E+01	  0.040641282	9.998400E+01
105	  0.040841684	-3.568000E+00	  0.040841684	3.886300E+01	  0.040841684	6.882000E+01	  0.040841684	1.022120E+02
106	  0.041042086	-3.620000E+00	  0.041042086	3.676300E+01	  0.041042086	7.473300E+01	  0.041042086	1.042610E+02
107	  0.041242484	-3.667000E+00	  0.041242484	3.468300E+01	  0.041242484	8.108600E+01	  0.041242484	1.060970E+02
108	  0.041442886	-3.716000E+00	  0.041442886	3.260200E+01	  0.041442886	8.802700E+01	  0.041442886	1.075500E+02
109	  0.041643288	-3.759000E+00	  0.041643288	3.053300E+01	  0.041643288	9.547800E+01	  0.041643288	1.086420E+02
110	  0.041843686	-3.804000E+00	  0.041843686	2.848000E+01	  0.041843686	1.034730E+02	  0.041843686	1.091210E+02
111	  0.042044088	-3.841000E+00	  0.042044088	2.644000E+01	  0.042044088	1.119610E+02	  0.042044088	1.091210E+02
112	  0.042244490	-3.883000E+00	  0.042244490	2.445800E+01	  0.042244490	1.207480E+02	  0.042244490	1.081730E+02
113	  0.042444889	-3.924000E+00	  0.042444889	2.249700E+01	  0.042444889	1.298740E+02	  0.042444889	1.063280E+02
114	  0.042645290	-3.967000E+00	  0.042645290	2.051800E+01	  0.042645290	1.394060E+02	  0.042645290	1.033510E+02
115	  0.042845692	-4.012000E+00	  0.042845692	1.859500E+01	  0.042845692	1.487900E+02	  0.042845692	9.915300E+01
116	  0.043046094	-4.052000E+00	  0.043046094	1.664400E+01	  0.043046094	1.583390E+02	  0.043046094	9.375700E+01
117	  0.043246493	-4.099000E+00	  0.043246493	1.470400E+01	  0.043246493	1.674580E+02	  0.043246493	8.680600E+01
118	  0.043446895	-4.146000E+00	  0.043446895	1.277900E+01	  0.043446895	1.759190E+02	  0.043446895	7.850100E+01
119	  0.043647297	-4.195000E+00	  0.043647297	1.083400E+01	  0.043647297	1.835220E+02	  0.043647297	6.870500E+01
120	  0.043847695	-4.242000E+00	  0.043847695	8.885000E+00	  0.043847695	1.900390E+02	  0.043847695	5.777100E+01
121	  0.044048097	-4.293000E+00	  0.044048097	6.941000E+00	  0.044048097	1.949430E+02	  0.044048097	4.577500E+01
122	  0.044248499	-4.338000E+00	  0.044248499	4.983000E+00	  0.044248499	1.984530E+02	  0.044248499	3.312000E+01
123	  0.044448901	-4.382000E+00	  0.044448901	3.007000E+00	  0.044448901	2.002520E+02	  0.044448901	1.996600E+01
124	  0.044649299	-4.421000E+00	  0.044649299	1.043000E+00	  0.044649299	2.004100E+02	  0.044649299	6.866000E+00
125	  0.044849701	-4.463000E+00	  0.044849701	-8.920000E-01	  0.044849701	1.986740E+02	  0.044849701	-5.761000E+00
126	  0.045050103	-4.506000E+00	  0.045050103	-2.817000E+00	  0.045050103	1.953120E+02	  0.045050103	-1.769600E+01
127	  0.045250501	-4.545000E+00	  0.045250501	-4.752000E+00	  0.045250501	1.907600E+02	  0.045250501	-2.886500E+01
128	  0.045450903	-4.578000E+00	  0.045450903	-6.679000E+00	  0.045450903	1.852230E+02	  0.045450903	-3.903200E+01
129	  0.045651305	-4.611000E+00	  0.045651305	-8.625000E+00	  0.045651305	1.787540E+02	  0.045651305	-4.820300E+01
130	  0.045851704	-4.641000E+00	  0.045851704	-1.053600E+01	  0.045851704	1.717630E+02	  0.045851704	-5.607300E+01
131	  0.046052106	-4.667000E+00	  0.046052106	-1.243200E+01	  0.046052106	1.644730E+02	  0.046052106	-6.282800E+01
132	  0.046252504	-4.693000E+00	  0.046252504	-1.431500E+01	  0.046252504	1.569700E+02	  0.046252504	-6.845400E+01
133	  0.046452906	-4.721000E+00	  0.046452906	-1.616400E+01	  0.046452906	1.494540E+02	  0.046452906	-7.290400E+01
134	  0.046653304	-4.746000E+00	  0.046653304	-1.796100E+01	  0.046653304	1.422440E+02	  0.046653304	-7.641700E+01
135	  0.046853706	-4.773000E+00	  0.046853706	-1.974900E+01	  0.046853706	1.351670E+02	  0.046853706	-7.906100E+01
136	  0.047054108	-4.806000E+00	  0.047054108	-2.153900E+01	  0.047054108	1.282680E+02	  0.047054108	-8.091500E+01
137	  0.047254506	-4.833000E+00	  0.047254506	-2.329600E+01	  0.047254506	1.218060E+02	  0.047254506	-8.226300E+01
138	  0.047454908	-4.859000E+00	  0.047454908	-2.504500E+01	  0.047454908	1.156660E+02	  0.047454908	-8.311300E+01
139	  0.047655310	-4.891000E+00	  0.047655310	-2.678700E+01	  0.047655310	1.098360E+02	  0.047655310	-8.342100E+01
140	  0.047855709	-4.918000E+00	  0.047855709	-2.851000E+01	  0.047855709	1.043980E+02	  0.047855709	-8.346800E+01
141	  0.048056111	-4.950000E+00	  0.048056111	-3.023900E+01	  0.048056111	9.924600E+01	  0.048056111	-8.313100E+01
142	  0.048256513	-4.979000E+00	  0.048256513	-3.197800E+01	  0.048256513	9.437700E+01	  0.048256513	-8.258600E+01
143	  0.048456915	-5.011000E+00	  0.048456915	-3.370600E+01	  0.048456915	8.984100E+01	  0.048456915	-8.179300E+01
144	  0.048657313	-5.036000E+00	  0.048657313	-3.546900E+01	  0.048657313	8.549000E+01	  0.048657313	-8.094700E+01
145	  0.048857715	-5.067000E+00	  0.048857715	-3.721400E+01	  0.048857715	8.147500E+01	  0.048857715	-7.985200E+01
146	  0.049058117	-5.090000E+00	  0.049058117	-3.893200E+01	  0.049058117	7.775300E+01	  0.049058117	-7.877800E+01
147	  0.049258515	-5.117000E+00	  0.049258515	-4.063900E+01	  0.049258515	7.430200E+01	  0.049258515	-7.756300E+01
148	  0.049458917	-5.142000E+00	  0.049458917	-4.232500E+01	  0.049458917	7.109800E+01	  0.049458917	-7.632800E+01
149	  0.049659319	-5.165000E+00	  0.049659319	-4.403700E+01	  0.049659319	6.804100E+01	  0.049659319	-7.503400E+01
150	  0.049859721	-5.196000E+00	  0.049859721	-4.575000E+01	  0.049859721	6.520800E+01	  0.049859721	-7.360800E+01
151	  0.050060119	-5.216000E+00	  0.050060119	-4.748700E+01	  0.050060119	6.247300E+01	  0.050060119	-7.225800E+01
152	  0.050260521	-5.240000E+00	  0.050260521	-4.920500E+01	  0.050260521	5.995500E+01	  0.050260521	-7.085100E+01
153	  0.050460923	-5.258000E+00	  0.050460923	-5.091000E+01	  0.050460923	5.758200E+01	  0.050460923	-6.950000E+01
154	  0.050661322	-5.274000E+00	  0.050661322	-5.263200E+01	  0.050661322	5.532000E+01	  0.050661322	-6.814100E+01
155	  0.050861724	-5.285000E+00	  0.050861724	-5.435400E+01	  0.050861724	5.317500E+01	  0.050861724	-6.680800E+01
156	  0.051062126	-5.292000E+00	  0.051062126	-5.601000E+01	  0.051062126	5.121200E+01	  0.051062126	-6.555200E+01
157	  0.051262524	-5.299000E+00	  0.051262524	-5.765700E+01	  0.051262524	4.936600E+01	  0.051262524	-6.430000E+01
158	  0.051462926	-5.303000E+00	  0.051462926	-5.927000E+01	  0.051462926	4.764800E+01	  0.051462926	-6.308600E+01
159	  0.051663328	-5.309000E+00	  0.051663328	-6.083300E+01	  0.051663328	4.608000E+01	  0.051663328	-6.189500E+01
160	  0.051863730	-5.317000E+00	  0.051863730	-6.234700E+01	  0.051863730	4.465000E+01	  0.051863730	-6.073200E+01
161	  0.052064128	-5.329000E+00	  0.052064128	-6.385800E+01	  0.052064128	4.331000E+01	  0.052064128	-5.956000E+01
162	  0.052264530	-5.340000E+00	  0.052264530	-6.536700E+01	  0.052264530	4.203900E+01	  0.052264530	-5.839900E+01
163	  0.052464932	-5.352000E+00	  0.052464932	-6.687100E+01	  0.052464932	4.083600E+01	  0.052464932	-5.725200E+01
164	  0.052665330	-5.363000E+00	  0.052665330	-6.836500E+01	  0.052665330	3.969800E+01	  0.052665330	-5.612500E+01
165	  0.052865732	-5.377000E+00	  0.052865732	-6.984000E+01	  0.052865732	3.864100E+01	  0.052865732	-5.501300E+01
166	  0.053066134	-5.395000E+00	  0.053066134	-7.131100E+01	  0.053066134	3.766000E+01	  0.053066134	-5.389400E+01
167	  0.053266536	-5.412000E+00	  0.053266536	-7.281600E+01	  0.053266536	3.669400E+01	  0.053266536	-5.277800E+01
168	  0.053466935	-5.423000E+00	  0.053466935	-7.430600E+01	  0.053466935	3.576200E+01	  0.053466935	-5.170900E+01
169	  0.053667337	-5.437000E+00	  0.053667337	-7.580800E+01	  0.053667337	3.487500E+01	  0.053667337	-5.063800E+01
170	  0.053867739	-5.446000E+00	  0.053867739	-7.730400E+01	  0.053867739	3.401300E+01	  0.053867739	-4.960400E+01
171	  0.054068137	-5.458000E+00	  0.054068137	-7.877600E+01	  0.054068137	3.321600E+01	  0.054068137	-4.858800E+01
172	  0.054268539	-5.470000E+00	  0.054268539	-8.021800E+01	  0.054268539	3.247600E+01	  0.054268539	-4.760100E+01
173	  0.054468941	-5.482000E+00	  0.054468941	-8.165300E+01	  0.054468941	3.176600E+01	  0.054468941	-4.663800E+01
174	  0.054669339	-5.492000E+00	  0.054669339	-8.309200E+01	  0.054669339	3.108100E+01	  0.054669339	-4.568800E+01
175	  0.054869737	-5.506000E+00	  0.054869737	-8.453100E+01	  0.054869737	3.044100E+01	  0.054869737	-4.473900E+01
176	  0.055070139	-5.514000E+00	  0.055070139	-8.597500E+01	  0.055070139	2.980000E+01	  0.055070139	-4.382000E+01
177	  0.055270538	-5.531000E+00	  0.055270538	-8.742800E+01	  0.055270538	2.922100E+01	  0.055270538	-4.287900E+01
178	  0.055470940	-5.543000E+00	  0.055470940	-8.890600E+01	  0.055470940	2.863600E+01	  0.055470940	-4.195200E+01
179	  0.055671342	-5.554000E+00	  0.055671342	-9.036100E+01	  0.055671342	2.808100E+01	  0.055671342	-4.105500E+01
180	  0.055871744	-5.562000E+00	  0.055871744	-9.181500E+01	  0.055871744	2.753700E+01	  0.055871744	-4.017800E+01
181	  0.056072142	-5.565000E+00	  0.056072142	-9.324400E+01	  0.056072142	2.701000E+01	  0.056072142	-3.933700E+01
182	  0.056272544	-5.566000E+00	  0.056272544	-9.465400E+01	  0.056272544	2.650200E+01	  0.056272544	-3.852300E+01
183	  0.056472946	-5.560000E+00	  0.056472946	-9.607300E+01	  0.056472946	2.598200E+01	  0.056472946	-3.772800E+01
184	  0.056673344	-5.569000E+00	  0.056673344	-9.741200E+01	  0.056673344	2.556400E+01	  0.056673344	-3.695400E+01
185	  0.056873746	-5.565000E+00	  0.056873746	-9.879300E+01	  0.056873746	2.510500E+01	  0.056873746	-3.619200E+01
186	  0.057074148	-5.569000E+00	  0.057074148	-1.000640E+02	  0.057074148	2.472300E+01	  0.057074148	-3.548200E+01
187	  0.057274550	-5.576000E+00	  0.057274550	-1.013580E+02	  0.057274550	2.436000E+01	  0.057274550	-3.476000E+01
188	  0.057474948	-5.581000E+00	  0.057474948	-1.026870E+02	  0.057474948	2.399200E+01	  0.057474948	-3.403100E+01
189	  0.057675350	-5.588000E+00	  0.057675350	-1.039820E+02	  0.057675350	2.365100E+01	  0.057675350	-3.332700E+01
190	  0.057875752	-5.597000E+00	  0.057875752	-1.052800E+02	  0.057875752	2.333400E+01	  0.057875752	-3.262200E+01
191	  0.058076151	-5.609000E+00	  0.058076151	-1.065890E+02	  0.058076151	2.303500E+01	  0.058076151	-3.191500E+01
192	  0.058276553	-5.617000E+00	  0.058276553	-1.078970E+02	  0.058276553	2.273000E+01	  0.058276553	-3.122400E+01
193	  0.058476955	-5.626000E+00	  0.058476955	-1.092050E+02	  0.058476955	2.244100E+01	  0.058476955	-3.053800E+01
194	  0.058677353	-5.626000E+00	  0.058677353	-1.105310E+02	  0.058677353	2.213300E+01	  0.058677353	-2.986100E+01
195	  0.058877755	-5.632000E+00	  0.058877755	-1.118330E+02	  0.058877755	2.185800E+01	  0.058877755	-2.919600E+01
196	  0.059078157	-5.636000E+00	  0.059078157	-1.131590E+02	  0.059078157	2.157900E+01	  0.059078157	-2.852900E+01
197	  0.059278559	-5.639000E+00	  0.059278559	-1.144600E+02	  0.059278559	2.131300E+01	  0.059278559	-2.788100E+01
198	  0.059478957	-5.642000E+00	  0.059478957	-1.157120E+02	  0.059478957	2.106900E+01	  0.059478957	-2.726200E+01
199	  0.059679359	-5.648000E+00	  0.059679359	-1.169690E+02	  0.059679359	2.084100E+01	  0.059679359	-2.664300E+01
200	  0.059879761	-5.653000E+00	  0.059879761	-1.182230E+02	  0.059879761	2.061700E+01	  0.059879761	-2.603200E+01
201	  0.060080159	-5.656000E+00	  0.060080159	-1.194680E+02	  0.060080159	2.039600E+01	  0.060080159	-2.543300E+01
202	  0.060280561	-5.657000E+00	  0.060280561	-1.207160E+02	  0.060280561	2.017800E+01	  0.060280561	-2.483900E+01
203	  0.060480963	-5.661000E+00	  0.060480963	-1.219840E+02	  0.060480963	1.997300E+01	  0.060480963	-2.423700E+01
204	  0.060681365	-5.664000E+00	  0.060681365	-1.232250E+02	  0.060681365	1.977600E+01	  0.060681365	-2.365300E+01
205	  0.060881764	-5.667000E+00	  0.060881764	-1.244480E+02	  0.060881764	1.958900E+01	  0.060881764	-2.308300E+01
206	  0.061082166	-5.668000E+00	  0.061082166	-1.256730E+02	  0.061082166	1.940200E+01	  0.061082166	-2.251700E+01
207	  0.061282568	-5.665000E+00	  0.061282568	-1.268980E+02	  0.061282568	1.920900E+01	  0.061282568	-2.196000E+01
208	  0.061482966	-5.664000E+00	  0.061482966	-1.280870E+02	  0.061482966	1.903400E+01	  0.061482966	-2.142000E+01
209	  0.061683368	-5.660000E+00	  0.061683368	-1.292670E+02	  0.061683368	1.885600E+01	  0.061683368	-2.089100E+01
210	  0.061883770	-5.659000E+00	  0.061883770	-1.304270E+02	  0.061883770	1.869500E+01	  0.061883770	-2.037100E+01
211	  0.062084168	-5.656000E+00	  0.062084168	-1.315770E+02	  0.062084168	1.853800E+01	  0.062084168	-1.986000E+01
212	  0.062284570	-5.656000E+00	  0.062284570	-1.326900E+02	  0.062284570	1.839500E+01	  0.062284570	-1.936600E+01
213	  0.062484972	-5.652000E+00	  0.062484972	-1.337610E+02	  0.062484972	1.825500E+01	  0.062484972	-1.889600E+01
214	  0.062685370	-5.657000E+00	  0.062685370	-1.348610E+02	  0.062685370	1.813700E+01	  0.062685370	-1.840900E+01
215	  0.062885776	-5.661000E+00	  0.062885776	-1.359710E+02	  0.062885776	1.802200E+01	  0.062885776	-1.792100E+01
216	  0.063086174	-5.665000E+00	  0.063086174	-1.370280E+02	  0.063086174	1.791600E+01	  0.063086174	-1.745900E+01
217	  0.063286573	-5.675000E+00	  0.063286573	-1.381940E+02	  0.063286573	1.781900E+01	  0.063286573	-1.694800E+01
218	  0.063486971	-5.680000E+00	  0.063486971	-1.393120E+02	  0.063486971	1.771900E+01	  0.063486971	-1.646400E+01
219	  0.063687377	-5.687000E+00	  0.063687377	-1.404380E+02	  0.063687377	1.762500E+01	  0.063687377	-1.597800E+01
220	  0.063887775	-5.693000E+00	  0.063887775	-1.415520E+02	  0.063887775	1.753500E+01	  0.063887775	-1.549900E+01
221	  0.064088173	-5.695000E+00	  0.064088173	-1.426790E+02	  0.064088173	1.743700E+01	  0.064088173	-1.502000E+01
222	  0.064288579	-5.703000E+00	  0.064288579	-1.438090E+02	  0.064288579	1.735600E+01	  0.064288579	-1.454000E+01
223	  0.064488977	-5.707000E+00	  0.064488977	-1.448960E+02	  0.064488977	1.727400E+01	  0.064488977	-1.408100E+01
224	  0.064689375	-5.711000E+00	  0.064689375	-1.460040E+02	  0.064689375	1.719300E+01	  0.064689375	-1.361600E+01
225	  0.064889781	-5.717000E+00	  0.064889781	-1.471100E+02	  0.064889781	1.711900E+01	  0.064889781	-1.315200E+01
226	  0.065090179	-5.723000E+00	  0.065090179	-1.482220E+02	  0.065090179	1.705000E+01	  0.065090179	-1.268800E+01
227	  0.065290578	-5.729000E+00	  0.065290578	-1.493760E+02	  0.065290578	1.698200E+01	  0.065290578	-1.220900E+01
228	  0.065490983	-5.736000E+00	  0.065490983	-1.504500E+02	  0.065490983	1.692300E+01	  0.065490983	-1.176400E+01
229	  0.065691382	-5.742000E+00	  0.065691382	-1.515470E+02	  0.065691382	1.686600E+01	  0.065691382	-1.131200E+01
230	  0.065891780	-5.741000E+00	  0.065891780	-1.526790E+02	  0.065891780	1.679100E+01	  0.065891780	-1.085000E+01
231	  0.066092186	-5.747000E+00	  0.066092186	-1.537510E+02	  0.066092186	1.673900E+01	  0.066092186	-1.041100E+01
232	  0.066292584	-5.745000E+00	  0.066292584	-1.548380E+02	  0.066292584	1.666900E+01	  0.066292584	-9.971000E+00
233	  0.066492982	-5.752000E+00	  0.066492982	-1.559560E+02	  0.066492982	1.662400E+01	  0.066492982	-9.516000E+00
234	  0.066693388	-5.752000E+00	  0.066693388	-1.570130E+02	  0.066693388	1.656900E+01	  0.066693388	-9.089000E+00
235	  0.066893786	-5.757000E+00	  0.066893786	-1.580980E+02	  0.066893786	1.652400E+01	  0.066893786	-8.652000E+00
236	  0.067094192	-5.756000E+00	  0.067094192	-1.591550E+02	  0.067094192	1.647200E+01	  0.067094192	-8.227000E+00
237	  0.067294590	-5.757000E+00	  0.067294590	-1.601620E+02	  0.067294590	1.642700E+01	  0.067294590	-7.824000E+00
238	  0.067494988	-5.757000E+00	  0.067494988	-1.612230E+02	  0.067494988	1.638100E+01	  0.067494988	-7.400000E+00
239	  0.067695394	-5.763000E+00	  0.067695394	-1.622170E+02	  0.067695394	1.635500E+01	  0.067695394	-7.002000E+00
240	  0.067895792	-5.759000E+00	  0.067895792	-1.632200E+02	  0.067895792	1.630600E+01	  0.067895792	-6.604000E+00
241	  0.068096191	-5.760000E+00	  0.068096191	-1.642520E+02	  0.068096191	1.627100E+01	  0.068096191	-6.194000E+00
242	  0.068296596	-5.770000E+00	  0.068296596	-1.652200E+02	  0.068296596	1.626400E+01	  0.068296596	-5.808000E+00
243	  0.068496995	-5.773000E+00	  0.068496995	-1.662140E+02	  0.068496995	1.624100E+01	  0.068496995	-5.414000E+00
244	  0.068697393	-5.777000E+00	  0.068697393	-1.672200E+02	  0.068697393	1.622200E+01	  0.068697393	-5.016000E+00
245	  0.068897791	-5.777000E+00	  0.068897791	-1.681800E+02	  0.068897791	1.619600E+01	  0.068897791	-4.637000E+00
246	  0.069098189	-5.781000E+00	  0.069098189	-1.691790E+02	  0.069098189	1.618100E+01	  0.069098189	-4.243000E+00
247	  0.069298595	-5.785000E+00	  0.069298595	-1.701550E+02	  0.069298595	1.616800E+01	  0.069298595	-3.858000E+00
248	  0.069498993	-5.789000E+00	  0.069498993	-1.711520E+02	  0.069498993	1.615900E+01	  0.069498993	-3.466000E+00
249	  0.069699399	-5.797000E+00	  0.069699399	-1.720930E+02	  0.069699399	1.616100E+01	  0.069699399	-3.095000E+00
250	  0.069899797	-5.796000E+00	  0.069899797	-1.730490E+02	  0.069899797	1.614400E+01	  0.069899797	-2.721000E+00
251	  0.070100196	-5.803000E+00	  0.070100196	-1.740440E+02	  0.070100196	1.614800E+01	  0.070100196	-2.330000E+00
252	  0.070300601	-5.809000E+00	  0.070300601	-1.749770E+02	  0.070300601	1.615200E+01	  0.070300601	-1.964000E+00
253	  0.070501000	-5.809000E+00	  0.070501000	-1.759750E+02	  0.070501000	1.614200E+01	  0.070501000	-1.573000E+00
254	  0.070701398	-5.814000E+00	  0.070701398	-1.769960E+02	  0.070701398	1.614700E+01	  0.070701398	-1.174000E+00
255	  0.070901804	-5.822000E+00	  0.070901804	-1.779270E+02	  0.070901804	1.616300E+01	  0.070901804	-8.090000E-01
256	  0.071102202	-5.827000E+00	  0.071102202	-1.789140E+02	  0.071102202	1.617200E+01	  0.071102202	-4.240000E-01
257	  0.071302600	-5.832000E+00	  0.071302600	-1.799020E+02	  0.071302600	1.618300E+01	  0.071302600	-3.800000E-02
258	  0.071503006	-5.829000E+00	  0.071503006	1.791560E+02	  0.071503006	1.617600E+01	  0.071503006	3.290000E-01
259	  0.071703404	-5.834000E+00	  0.071703404	1.781550E+02	  0.071703404	1.619100E+01	  0.071703404	7.200000E-01
260	  0.071903802	-5.838000E+00	  0.071903802	1.771610E+02	  0.071903802	1.620700E+01	  0.071903802	1.108000E+00
261	  0.072104208	-5.845000E+00	  0.072104208	1.761890E+02	  0.072104208	1.623200E+01	  0.072104208	1.488000E+00
262	  0.072304606	-5.849000E+00	  0.072304606	1.752170E+02	  0.072304606	1.625300E+01	  0.072304606	1.867000E+00
263	  0.072505005	-5.851000E+00	  0.072505005	1.742840E+02	  0.072505005	1.626700E+01	  0.072505005	2.232000E+00
264	  0.072705410	-5.853000E+00	  0.072705410	1.732950E+02	  0.072705410	1.628800E+01	  0.072705410	2.618000E+00
265	  0.072905809	-5.855000E+00	  0.072905809	1.723660E+02	  0.072905809	1.630700E+01	  0.072905809	2.982000E+00
266	  0.073106214	-5.854000E+00	  0.073106214	1.713890E+02	  0.073106214	1.632100E+01	  0.073106214	3.365000E+00
267	  0.073306613	-5.859000E+00	  0.073306613	1.704250E+02	  0.073306613	1.635400E+01	  0.073306613	3.742000E+00
268	  0.073507011	-5.866000E+00	  0.073507011	1.694890E+02	  0.073507011	1.639500E+01	  0.073507011	4.108000E+00
269	  0.073707417	-5.866000E+00	  0.073707417	1.685740E+02	  0.073707417	1.641500E+01	  0.073707417	4.467000E+00
270	  0.073907815	-5.864000E+00	  0.073907815	1.676600E+02	  0.073907815	1.643500E+01	  0.073907815	4.826000E+00
271	  0.074108213	-5.865000E+00	  0.074108213	1.667500E+02	  0.074108213	1.646500E+01	  0.074108213	5.184000E+00
272	  0.074308619	-5.871000E+00	  0.074308619	1.658070E+02	  0.074308619	1.650900E+01	  0.074308619	5.555000E+00
273	  0.074509017	-5.879000E+00	  0.074509017	1.649130E+02	  0.074509017	1.656000E+01	  0.074509017	5.905000E+00
274	  0.074709415	-5.884000E+00	  0.074709415	1.639920E+02	  0.074709415	1.660600E+01	  0.074709415	6.268000E+00
275	  0.074909821	-5.889000E+00	  0.074909821	1.630840E+02	  0.074909821	1.665100E+01	  0.074909821	6.626000E+00
276	  0.075110219	-5.897000E+00	  0.075110219	1.622160E+02	  0.075110219	1.670700E+01	  0.075110219	6.967000E+00
277	  0.075310618	-5.907000E+00	  0.075310618	1.613230E+02	  0.075310618	1.676900E+01	  0.075310618	7.318000E+00
278	  0.075511023	-5.911000E+00	  0.075511023	1.604510E+02	  0.075511023	1.681900E+01	  0.075511023	7.663000E+00
279	  0.075711422	-5.924000E+00	  0.075711422	1.595440E+02	  0.075711422	1.689600E+01	  0.075711422	8.020000E+00
280	  0.075911827	-5.932000E+00	  0.075911827	1.586300E+02	  0.075911827	1.696100E+01	  0.075911827	8.381000E+00
281	  0.076112226	-5.941000E+00	  0.076112226	1.577410E+02	  0.076112226	1.703000E+01	  0.076112226	8.733000E+00
282	  0.076312624	-5.955000E+00	  0.076312624	1.568170E+02	  0.076312624	1.711600E+01	  0.076312624	9.096000E+00
283	  0.076513030	-5.965000E+00	  0.076513030	1.559620E+02	  0.076513030	1.718900E+01	  0.076513030	9.435000E+00
284	  0.076713428	-5.975000E+00	  0.076713428	1.550740E+02	  0.076713428	1.726800E+01	  0.076713428	9.786000E+00
285	  0.076913826	-5.988000E+00	  0.076913826	1.541620E+02	  0.076913826	1.735500E+01	  0.076913826	1.014800E+01
286	  0.077114232	-5.996000E+00	  0.077114232	1.532710E+02	  0.077114232	1.743200E+01	  0.077114232	1.050300E+01
287	  0.077314630	-6.011000E+00	  0.077314630	1.523440E+02	  0.077314630	1.753400E+01	  0.077314630	1.087000E+01
288	  0.077515028	-6.021000E+00	  0.077515028	1.514480E+02	  0.077515028	1.762100E+01	  0.077515028	1.122700E+01
289	  0.077715434	-6.037000E+00	  0.077715434	1.505870E+02	  0.077715434	1.772500E+01	  0.077715434	1.156800E+01
290	  0.077915832	-6.044000E+00	  0.077915832	1.496890E+02	  0.077915832	1.780800E+01	  0.077915832	1.192800E+01
291	  0.078116231	-6.054000E+00	  0.078116231	1.487790E+02	  0.078116231	1.790500E+01	  0.078116231	1.229300E+01
292	  0.078316636	-6.067000E+00	  0.078316636	1.478770E+02	  0.078316636	1.801000E+01	  0.078316636	1.265400E+01
293	  0.078517035	-6.078000E+00	  0.078517035	1.469510E+02	  0.078517035	1.811400E+01	  0.078517035	1.302600E+01
294	  0.078717433	-6.084000E+00	  0.078717433	1.460490E+02	  0.078717433	1.820400E+01	  0.078717433	1.339200E+01
295	  0.078917839	-6.089000E+00	  0.078917839	1.451660E+02	  0.078917839	1.829400E+01	  0.078917839	1.375100E+01
296	  0.079118237	-6.095000E+00	  0.079118237	1.443030E+02	  0.079118237	1.838700E+01	  0.079118237	1.410300E+01
297	  0.079318643	-6.100000E+00	  0.079318643	1.434190E+02	  0.079318643	1.848300E+01	  0.079318643	1.446500E+01
298	  0.079519041	-6.106000E+00	  0.079519041	1.425540E+02	  0.079519041	1.858300E+01	  0.079519041	1.481800E+01
299	  0.079719439	-6.116000E+00	  0.079719439	1.417120E+02	  0.079719439	1.869200E+01	  0.079719439	1.516100E+01
300	  0.079919845	-6.118000E+00	  0.079919845	1.408320E+02	  0.079919845	1.878500E+01	  0.079919845	1.552700E+01
301	  0.080120243	-6.129000E+00	  0.080120243	1.400220E+02	  0.080120243	1.889900E+01	  0.080120243	1.585700E+01
302	  0.080320641	-6.142000E+00	  0.080320641	1.391840E+02	  0.080320641	1.902400E+01	  0.080320641	1.619800E+01
303	  0.080521047	-6.150000E+00	  0.080521047	1.383870E+02	  0.080521047	1.913400E+01	  0.080521047	1.652700E+01
304	  0.080721445	-6.164000E+00	  0.080721445	1.375650E+02	  0.080721445	1.926400E+01	  0.080721445	1.686300E+01
305	  0.080921844	-6.175000E+00	  0.080921844	1.367300E+02	  0.080921844	1.939100E+01	  0.080921844	1.720600E+01
306	  0.081122249	-6.186000E+00	  0.081122249	1.359270E+02	  0.081122249	1.951600E+01	  0.081122249	1.753800E+01
307	  0.081322648	-6.195000E+00	  0.081322648	1.350950E+02	  0.081322648	1.964100E+01	  0.081322648	1.788400E+01
308	  0.081523046	-6.207000E+00	  0.081523046	1.343120E+02	  0.081523046	1.977100E+01	  0.081523046	1.820700E+01
309	  0.081723452	-6.223000E+00	  0.081723452	1.334880E+02	  0.081723452	1.992200E+01	  0.081723452	1.854500E+01
310	  0.081923850	-6.233000E+00	  0.081923850	1.326780E+02	  0.081923850	2.005700E+01	  0.081923850	1.888200E+01
311	  0.082124248	-6.250000E+00	  0.082124248	1.319210E+02	  0.082124248	2.020600E+01	  0.082124248	1.919200E+01
312	  0.082324654	-6.259000E+00	  0.082324654	1.311380E+02	  0.082324654	2.033900E+01	  0.082324654	1.952000E+01
313	  0.082525052	-6.272000E+00	  0.082525052	1.303290E+02	  0.082525052	2.048900E+01	  0.082525052	1.985800E+01
314	  0.082725458	-6.297000E+00	  0.082725458	1.295250E+02	  0.082725458	2.067700E+01	  0.082725458	2.018100E+01
315	  0.082925856	-6.316000E+00	  0.082925856	1.287580E+02	  0.082925856	2.084200E+01	  0.082925856	2.049600E+01
316	  0.083126254	-6.335000E+00	  0.083126254	1.279810E+02	  0.083126254	2.101600E+01	  0.083126254	2.081400E+01
317	  0.083326660	-6.355000E+00	  0.083326660	1.272160E+02	  0.083326660	2.119200E+01	  0.083326660	2.112600E+01
318	  0.083527058	-6.375000E+00	  0.083527058	1.263970E+02	  0.083527058	2.137700E+01	  0.083527058	2.146400E+01
319	  0.083727457	-6.397000E+00	  0.083727457	1.255720E+02	  0.083727457	2.157600E+01	  0.083727457	2.180000E+01
320	  0.083927862	-6.414000E+00	  0.083927862	1.247070E+02	  0.083927862	2.176800E+01	  0.083927862	2.216100E+01
321	  0.084128261	-6.436000E+00	  0.084128261	1.239080E+02	  0.084128261	2.196700E+01	  0.084128261	2.248900E+01
322	  0.084328659	-6.456000E+00	  0.084328659	1.230990E+02	  0.084328659	2.216700E+01	  0.084328659	2.282200E+01
323	  0.084529065	-6.478000E+00	  0.084529065	1.222970E+02	  0.084529065	2.237500E+01	  0.084529065	2.315100E+01
324	  0.084729463	-6.497000E+00	  0.084729463	1.214680E+02	  0.084729463	2.258100E+01	  0.084729463	2.349500E+01
325	  0.084929861	-6.515000E+00	  0.084929861	1.206680E+02	  0.084929861	2.278500E+01	  0.084929861	2.382800E+01
326	  0.085130267	-6.534000E+00	  0.085130267	1.198630E+02	  0.085130267	2.299400E+01	  0.085130267	2.416300E+01
327	  0.085330658	-6.555000E+00	  0.085330658	1.190480E+02	  0.085330658	2.321600E+01	  0.085330658	2.449900E+01
328	  0.085531056	-6.582000E+00	  0.085531056	1.182050E+02	  0.085531056	2.346700E+01	  0.085531056	2.484000E+01
329	  0.085731462	-6.604000E+00	  0.085731462	1.174300E+02	  0.085731462	2.369100E+01	  0.085731462	2.515800E+01
330	  0.085931860	-6.633000E+00	  0.085931860	1.166220E+02	  0.085931860	2.394500E+01	  0.085931860	2.548100E+01
331	  0.086132258	-6.650000E+00	  0.086132258	1.157810E+02	  0.086132258	2.417800E+01	  0.086132258	2.583500E+01
332	  0.086332664	-6.674000E+00	  0.086332664	1.149680E+02	  0.086332664	2.442900E+01	  0.086332664	2.616700E+01
333	  0.086533062	-6.688000E+00	  0.086533062	1.141340E+02	  0.086533062	2.466000E+01	  0.086533062	2.652300E+01
334	  0.086733460	-6.710000E+00	  0.086733460	1.132460E+02	  0.086733460	2.493000E+01	  0.086733460	2.689300E+01
335	  0.086933866	-6.731000E+00	  0.086933866	1.124220E+02	  0.086933866	2.518900E+01	  0.086933866	2.723400E+01
336	  0.087134264	-6.750000E+00	  0.087134264	1.116730E+02	  0.087134264	2.542600E+01	  0.087134264	2.754600E+01
337	  0.087334670	-6.768000E+00	  0.087334670	1.108230E+02	  0.087334670	2.569000E+01	  0.087334670	2.790400E+01
338	  0.087535068	-6.782000E+00	  0.087535068	1.100690E+02	  0.087535068	2.592300E+01	  0.087535068	2.822600E+01
339	  0.087735467	-6.797000E+00	  0.087735467	1.092810E+02	  0.087735467	2.617100E+01	  0.087735467	2.856200E+01
340	  0.087935872	-6.815000E+00	  0.087935872	1.085250E+02	  0.087935872	2.642600E+01	  0.087935872	2.887800E+01
341	  0.088136271	-6.835000E+00	  0.088136271	1.077750E+02	  0.088136271	2.669000E+01	  0.088136271	2.918700E+01
342	  0.088336669	-6.858000E+00	  0.088336669	1.070330E+02	  0.088336669	2.696300E+01	  0.088336669	2.948800E+01
343	  0.088537075	-6.887000E+00	  0.088537075	1.062970E+02	  0.088537075	2.725700E+01	  0.088537075	2.977400E+01
344	  0.088737473	-6.907000E+00	  0.088737473	1.055360E+02	  0.088737473	2.753600E+01	  0.088737473	3.008700E+01
345	  0.088937871	-6.932000E+00	  0.088937871	1.048300E+02	  0.088937871	2.781800E+01	  0.088937871	3.036600E+01
346	  0.089138277	-6.956000E+00	  0.089138277	1.040810E+02	  0.089138277	2.811400E+01	  0.089138277	3.066500E+01
347	  0.089338675	-6.983000E+00	  0.089338675	1.033610E+02	  0.089338675	2.841700E+01	  0.089338675	3.094200E+01
348	  0.089539073	-7.010000E+00	  0.089539073	1.026480E+02	  0.089539073	2.871800E+01	  0.089539073	3.121900E+01
349	  0.089739479	-7.037000E+00	  0.089739479	1.019120E+02	  0.089739479	2.903300E+01	  0.089739479	3.150200E+01
350	  0.089939877	-7.071000E+00	  0.089939877	1.012380E+02	  0.089939877	2.935400E+01	  0.089939877	3.174200E+01
351	  0.090140276	-7.096000E+00	  0.090140276	1.005340E+02	  0.090140276	2.966200E+01	  0.090140276	3.201200E+01
352	  0.090340681	-7.139000E+00	  0.090340681	9.987600E+01	  0.090340681	3.001200E+01	  0.090340681	3.222100E+01
353	  0.090541080	-7.168000E+00	  0.090541080	9.914600E+01	  0.090541080	3.035000E+01	  0.090541080	3.249200E+01
354	  0.090741485	-7.209000E+00	  0.090741485	9.846900E+01	  0.090741485	3.070900E+01	  0.090741485	3.270900E+01
355	  0.090941884	-7.252000E+00	  0.090941884	9.780300E+01	  0.090941884	3.107500E+01	  0.090941884	3.291200E+01
356	  0.091142282	-7.300000E+00	  0.091142282	9.711000E+01	  0.091142282	3.147000E+01	  0.091142282	3.311300E+01
357	  0.091342688	-7.341000E+00	  0.091342688	9.637800E+01	  0.091342688	3.186200E+01	  0.091342688	3.334600E+01
358	  0.091543086	-7.383000E+00	  0.091543086	9.568100E+01	  0.091543086	3.224700E+01	  0.091543086	3.355800E+01
359	  0.091743484	-7.425000E+00	  0.091743484	9.492400E+01	  0.091743484	3.266100E+01	  0.091743484	3.379400E+01
360	  0.091943890	-7.462000E+00	  0.091943890	9.419000E+01	  0.091943890	3.305500E+01	  0.091943890	3.402900E+01
361	  0.092144288	-7.506000E+00	  0.092144288	9.345300E+01	  0.092144288	3.347800E+01	  0.092144288	3.424200E+01
362	  0.092344686	-7.546000E+00	  0.092344686	9.273200E+01	  0.092344686	3.388500E+01	  0.092344686	3.445600E+01
363	  0.092545092	-7.585000E+00	  0.092545092	9.207700E+01	  0.092545092	3.427000E+01	  0.092545092	3.463900E+01
364	  0.092745490	-7.615000E+00	  0.092745490	9.133700E+01	  0.092745490	3.466700E+01	  0.092745490	3.488100E+01
365	  0.092945889	-7.654000E+00	  0.092945889	9.065600E+01	  0.092945889	3.506900E+01	  0.092945889	3.507000E+01
366	  0.093146294	-7.689000E+00	  0.093146294	8.995300E+01	  0.093146294	3.547200E+01	  0.093146294	3.527800E+01
367	  0.093346693	-7.727000E+00	  0.093346693	8.930200E+01	  0.093346693	3.586900E+01	  0.093346693	3.544700E+01
368	  0.093547091	-7.760000E+00	  0.093547091	8.867500E+01	  0.093547091	3.624300E+01	  0.093547091	3.562000E+01
369	  0.093747497	-7.801000E+00	  0.093747497	8.802300E+01	  0.093747497	3.665300E+01	  0.093747497	3.577600E+01
370	  0.093947895	-7.835000E+00	  0.093947895	8.739800E+01	  0.093947895	3.703700E+01	  0.093947895	3.593800E+01
371	  0.094148301	-7.867000E+00	  0.094148301	8.675800E+01	  0.094148301	3.742400E+01	  0.094148301	3.610900E+01
372	  0.094348699	-7.908000E+00	  0.094348699	8.614500E+01	  0.094348699	3.783000E+01	  0.094348699	3.623500E+01
373	  0.094549097	-7.941000E+00	  0.094549097	8.557300E+01	  0.094549097	3.819500E+01	  0.094549097	3.636800E+01
374	  0.094749503	-7.982000E+00	  0.094749503	8.501100E+01	  0.094749503	3.858100E+01	  0.094749503	3.646600E+01
375	  0.094949901	-8.015000E+00	  0.094949901	8.447700E+01	  0.094949901	3.893300E+01	  0.094949901	3.657500E+01
376	  0.095150299	-8.053000E+00	  0.095150299	8.395600E+01	  0.095150299	3.929500E+01	  0.095150299	3.666000E+01
377	  0.095350705	-8.087000E+00	  0.095350705	8.342800E+01	  0.095350705	3.965000E+01	  0.095350705	3.676000E+01
378	  0.095551103	-8.129000E+00	  0.095551103	8.288900E+01	  0.095551103	4.003700E+01	  0.095551103	3.682800E+01
379	  0.095751502	-8.178000E+00	  0.095751502	8.243000E+01	  0.095751502	4.039900E+01	  0.095751502	3.684300E+01
380	  0.095951907	-8.223000E+00	  0.095951907	8.198300E+01	  0.095951907	4.074900E+01	  0.095951907	3.685800E+01
381	  0.096152306	-8.278000E+00	  0.096152306	8.150300E+01	  0.096152306	4.114000E+01	  0.096152306	3.685100E+01
382	  0.096352704	-8.327000E+00	  0.096352704	8.100400E+01	  0.096352704	4.152700E+01	  0.096352704	3.686600E+01
383	  0.096553110	-8.384000E+00	  0.096553110	8.052700E+01	  0.096553110	4.192000E+01	  0.096553110	3.684200E+01
384	  0.096753508	-8.440000E+00	  0.096753508	8.002300E+01	  0.096753508	4.232800E+01	  0.096753508	3.682500E+01
385	  0.096953906	-8.492000E+00	  0.096953906	7.948700E+01	  0.096953906	4.274400E+01	  0.096953906	3.682700E+01
386	  0.097154312	-8.552000E+00	  0.097154312	7.897700E+01	  0.097154312	4.316300E+01	  0.097154312	3.679100E+01
387	  0.097354710	-8.609000E+00	  0.097354710	7.847300E+01	  0.097354710	4.357300E+01	  0.097354710	3.675400E+01
388	  0.097555116	-8.661000E+00	  0.097555116	7.797200E+01	  0.097555116	4.397100E+01	  0.097555116	3.672900E+01
389	  0.097755514	-8.704000E+00	  0.097755514	7.739600E+01	  0.097755514	4.439100E+01	  0.097755514	3.676100E+01
390	  0.097955912	-8.763000E+00	  0.097955912	7.684300E+01	  0.097955912	4.483400E+01	  0.097955912	3.671600E+01
391	  0.098156318	-8.809000E+00	  0.098156318	7.636700E+01	  0.098156318	4.520500E+01	  0.098156318	3.669100E+01
392	  0.098356716	-8.859000E+00	  0.098356716	7.586900E+01	  0.098356716	4.559600E+01	  0.098356716	3.665700E+01
393	  0.098557115	-8.902000E+00	  0.098557115	7.532300E+01	  0.098557115	4.600300E+01	  0.098557115	3.665700E+01
394	  0.098757520	-8.947000E+00	  0.098757520	7.483900E+01	  0.098757520	4.637800E+01	  0.098757520	3.662500E+01
395	  0.098957919	-8.991000E+00	  0.098957919	7.434000E+01	  0.098957919	4.675900E+01	  0.098957919	3.660000E+01
396	  0.099158317	-9.035000E+00	  0.099158317	7.382300E+01	  0.099158317	4.715200E+01	  0.099158317	3.657200E+01
397	  0.099358723	-9.069000E+00	  0.099358723	7.333300E+01	  0.099358723	4.751100E+01	  0.099358723	3.657300E+01
398	  0.099559121	-9.108000E+00	  0.099559121	7.290200E+01	  0.099559121	4.784400E+01	  0.099559121	3.653200E+01
399	  0.099759519	-9.138000E+00	  0.099759519	7.240600E+01	  0.099759519	4.820000E+01	  0.099759519	3.654400E+01
400	  0.099959925	-9.161000E+00	  0.099959925	7.205300E+01	  0.099959925	4.845700E+01	  0.099959925	3.654500E+01
401	  0.100160323	-9.197000E+00	  0.100160323	7.162200E+01	  0.100160323	4.878500E+01	  0.100160323	3.650800E+01
402	  0.100360721	-9.224000E+00	  0.100360721	7.121500E+01	  0.100360721	4.908400E+01	  0.100360721	3.649800E+01
403	  0.100561127	-9.260000E+00	  0.100561127	7.080900E+01	  0.100561127	4.939600E+01	  0.100561127	3.645000E+01
404	  0.100761525	-9.285000E+00	  0.100761525	7.049900E+01	  0.100761525	4.963100E+01	  0.100761525	3.642000E+01
405	  0.100961931	-9.315000E+00	  0.100961931	7.012200E+01	  0.100961931	4.991700E+01	  0.100961931	3.638100E+01
406	  0.101162329	-9.359000E+00	  0.101162329	6.987900E+01	  0.101162329	5.013700E+01	  0.101162329	3.625400E+01
407	  0.101362728	-9.374000E+00	  0.101362728	6.966400E+01	  0.101362728	5.029700E+01	  0.101362728	3.623800E+01
408	  0.101563133	-9.415000E+00	  0.101563133	6.932900E+01	  0.101563133	5.057000E+01	  0.101563133	3.614100E+01
409	  0.101763532	-9.443000E+00	  0.101763532	6.903600E+01	  0.101763532	5.079700E+01	  0.101763532	3.608700E+01
410	  0.101963930	-9.468000E+00	  0.101963930	6.877300E+01	  0.101963930	5.100000E+01	  0.101963930	3.603600E+01
411	  0.102164336	-9.507000E+00	  0.102164336	6.843300E+01	  0.102164336	5.127100E+01	  0.102164336	3.594200E+01
412	  0.102364734	-9.562000E+00	  0.102364734	6.816000E+01	  0.102364734	5.152000E+01	  0.102364734	3.576100E+01
413	  0.102565132	-9.590000E+00	  0.102565132	6.796900E+01	  0.102565132	5.167800E+01	  0.102565132	3.568200E+01
414	  0.102765530	-9.632000E+00	  0.102765530	6.757700E+01	  0.102765530	5.198300E+01	  0.102765530	3.557700E+01
415	  0.102965929	-9.664000E+00	  0.102965929	6.726500E+01	  0.102965929	5.222400E+01	  0.102965929	3.549600E+01
416	  0.103166327	-9.695000E+00	  0.103166327	6.697800E+01	  0.103166327	5.244600E+01	  0.103166327	3.541600E+01
417	  0.103366733	-9.725000E+00	  0.103366733	6.669700E+01	  0.103366733	5.266200E+01	  0.103366733	3.533500E+01
418	  0.103567131	-9.735000E+00	  0.103567131	6.632600E+01	  0.103567131	5.291500E+01	  0.103567131	3.535400E+01
419	  0.103767529	-9.771000E+00	  0.103767529	6.608700E+01	  0.103767529	5.311000E+01	  0.103767529	3.523800E+01
420	  0.103967935	-9.803000E+00	  0.103967935	6.574600E+01	  0.103967935	5.336600E+01	  0.103967935	3.515300E+01
421	  0.104168333	-9.824000E+00	  0.104168333	6.543100E+01	  0.104168333	5.359400E+01	  0.104168333	3.511200E+01
422	  0.104368731	-9.849000E+00	  0.104368731	6.502900E+01	  0.104368731	5.388200E+01	  0.104368731	3.506400E+01
423	  0.104569137	-9.863000E+00	  0.104569137	6.471200E+01	  0.104569137	5.410600E+01	  0.104569137	3.504500E+01
424	  0.104769535	-9.877000E+00	  0.104769535	6.438700E+01	  0.104769535	5.433400E+01	  0.104769535	3.502900E+01
425	  0.104969934	-9.876000E+00	  0.104969934	6.399500E+01	  0.104969934	5.459400E+01	  0.104969934	3.508600E+01
426	  0.105170339	-9.908000E+00	  0.105170339	6.371700E+01	  0.105170339	5.480700E+01	  0.105170339	3.498100E+01
427	  0.105370738	-9.894000E+00	  0.105370738	6.329300E+01	  0.105370738	5.508000E+01	  0.105370738	3.509600E+01
428	  0.105571143	-9.916000E+00	  0.105571143	6.297200E+01	  0.105571143	5.531500E+01	  0.105571143	3.503700E+01
429	  0.105771542	-9.901000E+00	  0.105771542	6.262200E+01	  0.105771542	5.554100E+01	  0.105771542	3.514300E+01
430	  0.105971940	-9.903000E+00	  0.105971940	6.219300E+01	  0.105971940	5.583600E+01	  0.105971940	3.518100E+01
431	  0.106172346	-9.895000E+00	  0.106172346	6.192600E+01	  0.106172346	5.601300E+01	  0.106172346	3.524800E+01
432	  0.106372744	-9.901000E+00	  0.106372744	6.159800E+01	  0.106372744	5.624400E+01	  0.106372744	3.525200E+01
433	  0.106573142	-9.888000E+00	  0.106573142	6.126200E+01	  0.106573142	5.646900E+01	  0.106573142	3.534800E+01
434	  0.106773548	-9.887000E+00	  0.106773548	6.091200E+01	  0.106773548	5.671300E+01	  0.106773548	3.538500E+01
435	  0.106973946	-9.882000E+00	  0.106973946	6.055100E+01	  0.106973946	5.696400E+01	  0.106973946	3.543800E+01
436	  0.107174344	-9.859000E+00	  0.107174344	6.019500E+01	  0.107174344	5.720200E+01	  0.107174344	3.558000E+01
437	  0.107374750	-9.850000E+00	  0.107374750	5.992200E+01	  0.107374750	5.739200E+01	  0.107374750	3.564300E+01
438	  0.107575148	-9.845000E+00	  0.107575148	5.953600E+01	  0.107575148	5.766500E+01	  0.107575148	3.569800E+01
439	  0.107775547	-9.847000E+00	  0.107775547	5.910000E+01	  0.107775547	5.798100E+01	  0.107775547	3.572300E+01
440	  0.107975952	-9.828000E+00	  0.107975952	5.879100E+01	  0.107975952	5.819600E+01	  0.107975952	3.583300E+01
441	  0.108176351	-9.818000E+00	  0.108176351	5.832800E+01	  0.108176351	5.853000E+01	  0.108176351	3.591300E+01
442	  0.108376749	-9.798000E+00	  0.108376749	5.799400E+01	  0.108376749	5.876800E+01	  0.108376749	3.603200E+01
443	  0.108577155	-9.787000E+00	  0.108577155	5.763300E+01	  0.108577155	5.903100E+01	  0.108577155	3.610700E+01
444	  0.108777553	-9.768000E+00	  0.108777553	5.722700E+01	  0.108777553	5.932800E+01	  0.108777553	3.622200E+01
445	  0.108977959	-9.744000E+00	  0.108977959	5.683600E+01	  0.108977959	5.961500E+01	  0.108977959	3.635800E+01
446	  0.109178357	-9.735000E+00	  0.109178357	5.634900E+01	  0.109178357	5.998200E+01	  0.109178357	3.642800E+01
447	  0.109378755	-9.718000E+00	  0.109378755	5.593900E+01	  0.109378755	6.029200E+01	  0.109378755	3.652700E+01
448	  0.109579161	-9.702000E+00	  0.109579161	5.548300E+01	  0.109579161	6.064000E+01	  0.109579161	3.662600E+01
449	  0.109779559	-9.688000E+00	  0.109779559	5.500600E+01	  0.109779559	6.101000E+01	  0.109779559	3.670700E+01
450	  0.109979957	-9.660000E+00	  0.109979957	5.458500E+01	  0.109979957	6.133700E+01	  0.109979957	3.686100E+01
451	  0.110180363	-9.643000E+00	  0.110180363	5.410000E+01	  0.110180363	6.172000E+01	  0.110180363	3.695500E+01
452	  0.110380761	-9.624000E+00	  0.110380761	5.362000E+01	  0.110380761	6.210300E+01	  0.110380761	3.706100E+01
453	  0.110581160	-9.600000E+00	  0.110581160	5.314900E+01	  0.110581160	6.248300E+01	  0.110581160	3.718500E+01
454	  0.110781565	-9.587000E+00	  0.110781565	5.257800E+01	  0.110781565	6.294900E+01	  0.110781565	3.725100E+01
455	  0.110981964	-9.566000E+00	  0.110981964	5.207000E+01	  0.110981964	6.337000E+01	  0.110981964	3.736000E+01
456	  0.111182362	-9.549000E+00	  0.111182362	5.155000E+01	  0.111182362	6.380300E+01	  0.111182362	3.743800E+01
457	  0.111382768	-9.519000E+00	  0.111382768	5.096700E+01	  0.111382768	6.430000E+01	  0.111382768	3.758400E+01
458	  0.111583166	-9.499000E+00	  0.111583166	5.044200E+01	  0.111583166	6.475000E+01	  0.111583166	3.767300E+01
459	  0.111783572	-9.493000E+00	  0.111783572	4.994300E+01	  0.111783572	6.517900E+01	  0.111783572	3.768200E+01
460	  0.111983970	-9.474000E+00	  0.111983970	4.922100E+01	  0.111983970	6.580900E+01	  0.111983970	3.774200E+01
461	  0.112184368	-9.447000E+00	  0.112184368	4.861500E+01	  0.112184368	6.635100E+01	  0.112184368	3.785300E+01
462	  0.112384774	-9.427000E+00	  0.112384774	4.802700E+01	  0.112384774	6.688100E+01	  0.112384774	3.791800E+01
463	  0.112585172	-9.414000E+00	  0.112585172	4.738200E+01	  0.112585172	6.746200E+01	  0.112585172	3.792800E+01
464	  0.112785570	-9.399000E+00	  0.112785570	4.677100E+01	  0.112785570	6.802200E+01	  0.112785570	3.794600E+01
465	  0.112985976	-9.382000E+00	  0.112985976	4.614200E+01	  0.112985976	6.860600E+01	  0.112985976	3.796900E+01
466	  0.113186374	-9.368000E+00	  0.113186374	4.537900E+01	  0.113186374	6.931600E+01	  0.113186374	3.794400E+01
467	  0.113386773	-9.347000E+00	  0.113386773	4.473100E+01	  0.113386773	6.993500E+01	  0.113386773	3.796800E+01
468	  0.113587178	-9.329000E+00	  0.113587178	4.401700E+01	  0.113587178	7.062100E+01	  0.113587178	3.795700E+01
469	  0.113787577	-9.315000E+00	  0.113787577	4.327200E+01	  0.113787577	7.133900E+01	  0.113787577	3.789800E+01
470	  0.113987975	-9.300000E+00	  0.113987975	4.255000E+01	  0.113987975	7.204500E+01	  0.113987975	3.784300E+01
471	  0.114188381	-9.295000E+00	  0.114188381	4.186000E+01	  0.114188381	7.271100E+01	  0.114188381	3.771700E+01
472	  0.114388779	-9.277000E+00	  0.114388779	4.104300E+01	  0.114388779	7.352600E+01	  0.114388779	3.762800E+01
473	  0.114589177	-9.263000E+00	  0.114589177	4.024000E+01	  0.114589177	7.432800E+01	  0.114589177	3.749800E+01
474	  0.114789583	-9.258000E+00	  0.114789583	3.947000E+01	  0.114789583	7.509100E+01	  0.114789583	3.730700E+01
475	  0.114989981	-9.243000E+00	  0.114989981	3.872900E+01	  0.114989981	7.584700E+01	  0.114989981	3.716500E+01
476	  0.115190387	-9.240000E+00	  0.115190387	3.787800E+01	  0.115190387	7.669300E+01	  0.115190387	3.689600E+01
477	  0.115390785	-9.233000E+00	  0.115390785	3.710200E+01	  0.115390785	7.747800E+01	  0.115390785	3.665900E+01
478	  0.115591183	-9.235000E+00	  0.115591183	3.626200E+01	  0.115591183	7.830700E+01	  0.115591183	3.632000E+01
479	  0.115791589	-9.229000E+00	  0.115791589	3.542500E+01	  0.115791589	7.915600E+01	  0.115791589	3.601000E+01
480	  0.115991987	-9.238000E+00	  0.115991987	3.453400E+01	  0.115991987	8.001500E+01	  0.115991987	3.555400E+01
481	  0.116192386	-9.243000E+00	  0.116192386	3.369900E+01	  0.116192386	8.082900E+01	  0.116192386	3.512700E+01
482	  0.116392791	-9.251000E+00	  0.116392791	3.276300E+01	  0.116392791	8.172800E+01	  0.116392791	3.460300E+01
483	  0.116593190	-9.262000E+00	  0.116593190	3.187100E+01	  0.116593190	8.256400E+01	  0.116593190	3.404900E+01
484	  0.116793588	-9.283000E+00	  0.116793588	3.096300E+01	  0.116793588	8.337500E+01	  0.116793588	3.340200E+01
485	  0.116993994	-9.290000E+00	  0.116993994	2.990900E+01	  0.116993994	8.436600E+01	  0.116993994	3.272300E+01
486	  0.117194392	-9.310000E+00	  0.117194392	2.889300E+01	  0.117194392	8.525400E+01	  0.117194392	3.194700E+01
487	  0.117394790	-9.331000E+00	  0.117394790	2.788300E+01	  0.117394790	8.611700E+01	  0.117394790	3.114300E+01
488	  0.117595196	-9.349000E+00	  0.117595196	2.689600E+01	  0.117595196	8.694700E+01	  0.117595196	3.033300E+01
489	  0.117795594	-9.365000E+00	  0.117795594	2.579700E+01	  0.117795594	8.787200E+01	  0.117795594	2.942300E+01
490	  0.117995992	-9.391000E+00	  0.117995992	2.464200E+01	  0.117995992	8.876600E+01	  0.117995992	2.836900E+01
491	  0.118196398	-9.418000E+00	  0.118196398	2.353600E+01	  0.118196398	8.958000E+01	  0.118196398	2.731300E+01
492	  0.118396796	-9.448000E+00	  0.118396796	2.238600E+01	  0.118396796	9.037800E+01	  0.118396796	2.616700E+01
493	  0.118597202	-9.474000E+00	  0.118597202	2.121500E+01	  0.118597202	9.117700E+01	  0.118597202	2.499000E+01
494	  0.118797600	-9.510000E+00	  0.118797600	2.000900E+01	  0.118797600	9.189400E+01	  0.118797600	2.369100E+01
495	  0.118997999	-9.536000E+00	  0.118997999	1.878100E+01	  0.118997999	9.264200E+01	  0.118997999	2.238900E+01
496	  0.119198404	-9.573000E+00	  0.119198404	1.749800E+01	  0.119198404	9.330200E+01	  0.119198404	2.094700E+01
497	  0.119398803	-9.604000E+00	  0.119398803	1.624000E+01	  0.119398803	9.392300E+01	  0.119398803	1.952500E+01
498	  0.119599201	-9.637000E+00	  0.119599201	1.498400E+01	  0.119599201	9.447100E+01	  0.119599201	1.807000E+01
499	  0.119799607	-9.685000E+00	  0.119799607	1.371700E+01	  0.119799607	9.485500E+01	  0.119799607	1.652600E+01
500	  0.120000005	-9.725000E+00	  0.120000005	1.244700E+01	  0.120000005	9.523000E+01	  0.120000005	1.499500E+01
