! Anritsu VNA Master:             	Model: MS2036C/10/77
! SN:             	1601066
! /bd0/18may26.balun/4a.me1.txt
! Existing Calibration Information:
! TYPE:             	Current Settings	Active Cal Settings
! TIME:             	05/26/2018 02:56:59 PM	05/26/2018 02:51:55 PM
! INTERNAL TEMP:    	59.8 C	59.5 C
! # POINTS:         	500	500
! START FREQ:       	20.000 MHz	20.000 MHz
! STOP FREQ:        	120.000 MHz	120.000 MHz
! SOURCE POWER:     	High	High
! IFBW:             	50 Hz	50 Hz
! AVG FACTOR:       	  1 	  1 
! REF PLANE 1:      	0 mm	0 mm
! REF PLANE 2:      	0 mm	0 mm
! CAL TYPE:         	Full S11	Full S11
! CAL METHOD:       	SOLT	SOLT
! CAL LINE TYPE:    	Coax	Coax
! DUT PORT 1:       	K-Conn(M)	K-Conn(M)
! DUT PORT 2:       	K-Conn(M)	K-Conn(M)
! CAL STATUS:       	OK: Accuracy High	--
! PROP-V:       	0.700
! CABLE LOSS:       	0.000 dB/m
! REF IMPEDANCE:       	50.0
! Trace Specific Parameters:	TR1	TR2	TR3	TR4
! TRACE.#.Y (GRAPH TYPE)	LOG MAG	PHASE	REAL IMPEDANCE	IMAGINARY IMPEDANCE
! TRACE.#.X 	FREQ.GHZ	FREQ.GHZ	FREQ.GHZ	FREQ.GHZ
! S-PARAMETER	S11	S11	S11	S11
! SMOOTH/APERTURE %	0	0	0	0
! WINDOW	NSL	NSL	NSL	NSL
! GATING	OFF	OFF	OFF	OFF
! FGTD	OFF	OFF	OFF	OFF
Marker Information per Trace:	TR1	TR2	TR3	TR4
!MK1	--	--	--	--
!MK2	--	--	--	--
!MK3	--	--	--	--
!MK4	--	--	--	--
!MK5	--	--	--	--
!MK6	--	--	--	--
!MK7	--	--	--	--
!MK8	--	--	--	--
PNT	TR1.FREQ.GHZ	TR1.LOG MAG.dB	TR2.FREQ.GHZ	TR2.PHASE.deg	TR3.FREQ.GHZ	TR3.REAL IMPEDANCE.ohm	TR4.FREQ.GHZ	TR4.IMAGINARY IMPEDANCE.ohm
1	  0.020000000	-6.540000E-01	  0.020000000	-1.263870E+02	  0.020000000	2.362000E+00	  0.020000000	-2.521800E+01
2	  0.020200402	-6.530000E-01	  0.020200402	-1.279120E+02	  0.020200402	2.327000E+00	  0.020200402	-2.439100E+01
3	  0.020400802	-6.500000E-01	  0.020400802	-1.293760E+02	  0.020400802	2.290000E+00	  0.020400802	-2.360600E+01
4	  0.020601204	-6.510000E-01	  0.020601204	-1.308500E+02	  0.020601204	2.264000E+00	  0.020601204	-2.282600E+01
5	  0.020801604	-6.540000E-01	  0.020801604	-1.323460E+02	  0.020801604	2.248000E+00	  0.020801604	-2.204300E+01
6	  0.021002004	-6.600000E-01	  0.021002004	-1.338790E+02	  0.021002004	2.243000E+00	  0.021002004	-2.124900E+01
7	  0.021202406	-6.660000E-01	  0.021202406	-1.354140E+02	  0.021202406	2.240000E+00	  0.021202406	-2.046300E+01
8	  0.021402806	-6.710000E-01	  0.021402806	-1.369650E+02	  0.021402806	2.230000E+00	  0.021402806	-1.967800E+01
9	  0.021603208	-6.750000E-01	  0.021603208	-1.385180E+02	  0.021603208	2.222000E+00	  0.021603208	-1.890100E+01
10	  0.021803608	-6.840000E-01	  0.021803608	-1.400730E+02	  0.021803608	2.228000E+00	  0.021803608	-1.813000E+01
11	  0.022004008	-6.890000E-01	  0.022004008	-1.416300E+02	  0.022004008	2.221000E+00	  0.022004008	-1.736600E+01
12	  0.022204408	-6.910000E-01	  0.022204408	-1.432360E+02	  0.022204408	2.208000E+00	  0.022204408	-1.658500E+01
13	  0.022404809	-6.920000E-01	  0.022404809	-1.448360E+02	  0.022404809	2.191000E+00	  0.022404809	-1.581500E+01
14	  0.022605211	-6.930000E-01	  0.022605211	-1.464300E+02	  0.022605211	2.176000E+00	  0.022605211	-1.505400E+01
15	  0.022805611	-6.970000E-01	  0.022805611	-1.480110E+02	  0.022805611	2.170000E+00	  0.022805611	-1.430600E+01
16	  0.023006011	-6.980000E-01	  0.023006011	-1.495850E+02	  0.023006011	2.157000E+00	  0.023006011	-1.356700E+01
17	  0.023206413	-7.040000E-01	  0.023206413	-1.511810E+02	  0.023206413	2.160000E+00	  0.023206413	-1.282300E+01
18	  0.023406813	-7.110000E-01	  0.023406813	-1.528080E+02	  0.023406813	2.167000E+00	  0.023406813	-1.207100E+01
19	  0.023607215	-7.180000E-01	  0.023607215	-1.544290E+02	  0.023607215	2.173000E+00	  0.023607215	-1.132500E+01
20	  0.023807615	-7.260000E-01	  0.023807615	-1.560620E+02	  0.023807615	2.183000E+00	  0.023807615	-1.058000E+01
21	  0.024008015	-7.350000E-01	  0.024008015	-1.576780E+02	  0.024008015	2.198000E+00	  0.024008015	-9.846000E+00
22	  0.024208417	-7.460000E-01	  0.024208417	-1.593150E+02	  0.024208417	2.217000E+00	  0.024208417	-9.107000E+00
23	  0.024408817	-7.570000E-01	  0.024408817	-1.609510E+02	  0.024408817	2.239000E+00	  0.024408817	-8.372000E+00
24	  0.024609219	-7.670000E-01	  0.024609219	-1.626220E+02	  0.024609219	2.260000E+00	  0.024609219	-7.625000E+00
25	  0.024809619	-7.760000E-01	  0.024809619	-1.643220E+02	  0.024809619	2.276000E+00	  0.024809619	-6.869000E+00
26	  0.025010020	-7.810000E-01	  0.025010020	-1.660030E+02	  0.025010020	2.282000E+00	  0.025010020	-6.125000E+00
27	  0.025210422	-7.910000E-01	  0.025210422	-1.677000E+02	  0.025210422	2.302000E+00	  0.025210422	-5.376000E+00
28	  0.025410822	-8.000000E-01	  0.025410822	-1.693860E+02	  0.025410822	2.321000E+00	  0.025410822	-4.634000E+00
29	  0.025611224	-8.110000E-01	  0.025611224	-1.710890E+02	  0.025611224	2.348000E+00	  0.025611224	-3.887000E+00
30	  0.025811624	-8.220000E-01	  0.025811624	-1.727990E+02	  0.025811624	2.374000E+00	  0.025811624	-3.138000E+00
31	  0.026012026	-8.360000E-01	  0.026012026	-1.745370E+02	  0.026012026	2.409000E+00	  0.026012026	-2.379000E+00
32	  0.026212426	-8.490000E-01	  0.026212426	-1.762740E+02	  0.026212426	2.445000E+00	  0.026212426	-1.622000E+00
33	  0.026412826	-8.650000E-01	  0.026412826	-1.780180E+02	  0.026412826	2.490000E+00	  0.026412826	-8.620000E-01
34	  0.026613226	-8.830000E-01	  0.026613226	-1.797910E+02	  0.026613226	2.539000E+00	  0.026613226	-9.000000E-02
35	  0.026813626	-8.990000E-01	  0.026813626	1.784250E+02	  0.026813626	2.585000E+00	  0.026813626	6.850000E-01
36	  0.027014028	-9.120000E-01	  0.027014028	1.766650E+02	  0.027014028	2.627000E+00	  0.027014028	1.451000E+00
37	  0.027214428	-9.280000E-01	  0.027214428	1.748970E+02	  0.027214428	2.674000E+00	  0.027214428	2.221000E+00
38	  0.027414829	-9.410000E-01	  0.027414829	1.731130E+02	  0.027414829	2.717000E+00	  0.027414829	2.999000E+00
39	  0.027615231	-9.580000E-01	  0.027615231	1.713270E+02	  0.027615231	2.773000E+00	  0.027615231	3.779000E+00
40	  0.027815631	-9.770000E-01	  0.027815631	1.695170E+02	  0.027815631	2.835000E+00	  0.027815631	4.572000E+00
41	  0.028016033	-9.960000E-01	  0.028016033	1.676820E+02	  0.028016033	2.899000E+00	  0.028016033	5.377000E+00
42	  0.028216433	-1.014000E+00	  0.028216433	1.658330E+02	  0.028216433	2.962000E+00	  0.028216433	6.191000E+00
43	  0.028416833	-1.035000E+00	  0.028416833	1.639880E+02	  0.028416833	3.035000E+00	  0.028416833	7.006000E+00
44	  0.028617235	-1.059000E+00	  0.028617235	1.621490E+02	  0.028617235	3.119000E+00	  0.028617235	7.822000E+00
45	  0.028817635	-1.081000E+00	  0.028817635	1.602740E+02	  0.028817635	3.201000E+00	  0.028817635	8.658000E+00
46	  0.029018037	-1.105000E+00	  0.029018037	1.583940E+02	  0.029018037	3.292000E+00	  0.029018037	9.500000E+00
47	  0.029218437	-1.127000E+00	  0.029218437	1.564860E+02	  0.029218437	3.381000E+00	  0.029218437	1.036000E+01
48	  0.029418837	-1.150000E+00	  0.029418837	1.545770E+02	  0.029418837	3.473000E+00	  0.029418837	1.122600E+01
49	  0.029619239	-1.171000E+00	  0.029619239	1.526990E+02	  0.029619239	3.563000E+00	  0.029619239	1.208400E+01
50	  0.029819639	-1.194000E+00	  0.029819639	1.508130E+02	  0.029819639	3.662000E+00	  0.029819639	1.295200E+01
51	  0.030020041	-1.216000E+00	  0.030020041	1.489180E+02	  0.030020041	3.763000E+00	  0.030020041	1.383100E+01
52	  0.030220442	-1.242000E+00	  0.030220442	1.470330E+02	  0.030220442	3.882000E+00	  0.030220442	1.471200E+01
53	  0.030420844	-1.274000E+00	  0.030420844	1.451400E+02	  0.030420844	4.019000E+00	  0.030420844	1.560400E+01
54	  0.030621244	-1.312000E+00	  0.030621244	1.432030E+02	  0.030621244	4.184000E+00	  0.030621244	1.652600E+01
55	  0.030821644	-1.348000E+00	  0.030821644	1.412180E+02	  0.030821644	4.349000E+00	  0.030821644	1.748000E+01
56	  0.031022044	-1.381000E+00	  0.031022044	1.392060E+02	  0.031022044	4.512000E+00	  0.031022044	1.845800E+01
57	  0.031222444	-1.407000E+00	  0.031222444	1.371680E+02	  0.031222444	4.659000E+00	  0.031222444	1.946200E+01
58	  0.031422846	-1.432000E+00	  0.031422846	1.351350E+02	  0.031422846	4.810000E+00	  0.031422846	2.047700E+01
59	  0.031623244	-1.459000E+00	  0.031623244	1.331110E+02	  0.031623244	4.971000E+00	  0.031623244	2.150100E+01
60	  0.031823646	-1.482000E+00	  0.031823646	1.311100E+02	  0.031823646	5.127000E+00	  0.031823646	2.252900E+01
61	  0.032024048	-1.502000E+00	  0.032024048	1.291110E+02	  0.032024048	5.282000E+00	  0.032024048	2.357200E+01
62	  0.032224450	-1.528000E+00	  0.032224450	1.271310E+02	  0.032224450	5.461000E+00	  0.032224450	2.461900E+01
63	  0.032424849	-1.555000E+00	  0.032424849	1.251820E+02	  0.032424849	5.652000E+00	  0.032424849	2.566500E+01
64	  0.032625251	-1.589000E+00	  0.032625251	1.232040E+02	  0.032625251	5.880000E+00	  0.032625251	2.674200E+01
65	  0.032825653	-1.625000E+00	  0.032825653	1.212250E+02	  0.032825653	6.128000E+00	  0.032825653	2.783600E+01
66	  0.033026051	-1.667000E+00	  0.033026051	1.192580E+02	  0.033026051	6.408000E+00	  0.033026051	2.894000E+01
67	  0.033226453	-1.710000E+00	  0.033226453	1.172570E+02	  0.033226453	6.705000E+00	  0.033226453	3.008400E+01
68	  0.033426855	-1.756000E+00	  0.033426855	1.152360E+02	  0.033426855	7.037000E+00	  0.033426855	3.125800E+01
69	  0.033627257	-1.802000E+00	  0.033627257	1.131860E+02	  0.033627257	7.385000E+00	  0.033627257	3.247300E+01
70	  0.033827655	-1.845000E+00	  0.033827655	1.110930E+02	  0.033827655	7.741000E+00	  0.033827655	3.374200E+01
71	  0.034028057	-1.887000E+00	  0.034028057	1.090180E+02	  0.034028057	8.114000E+00	  0.034028057	3.502600E+01
72	  0.034228459	-1.932000E+00	  0.034228459	1.069080E+02	  0.034228459	8.525000E+00	  0.034228459	3.635900E+01
73	  0.034428857	-1.975000E+00	  0.034428857	1.048290E+02	  0.034428857	8.946000E+00	  0.034428857	3.770400E+01
74	  0.034629259	-2.015000E+00	  0.034629259	1.027510E+02	  0.034629259	9.380000E+00	  0.034629259	3.908300E+01
75	  0.034829661	-2.050000E+00	  0.034829661	1.006830E+02	  0.034829661	9.817000E+00	  0.034829661	4.049300E+01
76	  0.035030060	-2.082000E+00	  0.035030060	9.865200E+01	  0.035030060	1.026100E+01	  0.035030060	4.191400E+01
77	  0.035230462	-2.125000E+00	  0.035230462	9.665900E+01	  0.035230462	1.078300E+01	  0.035230462	4.333300E+01
78	  0.035430863	-2.172000E+00	  0.035430863	9.464600E+01	  0.035430863	1.135700E+01	  0.035430863	4.479800E+01
79	  0.035631265	-2.225000E+00	  0.035631265	9.262300E+01	  0.035631265	1.200500E+01	  0.035631265	4.630000E+01
80	  0.035831664	-2.284000E+00	  0.035831664	9.056400E+01	  0.035831664	1.273300E+01	  0.035831664	4.786100E+01
81	  0.036032066	-2.341000E+00	  0.036032066	8.847200E+01	  0.036032066	1.350700E+01	  0.036032066	4.949200E+01
82	  0.036232468	-2.397000E+00	  0.036232468	8.631300E+01	  0.036232468	1.434800E+01	  0.036232468	5.122700E+01
83	  0.036432866	-2.449000E+00	  0.036432866	8.416300E+01	  0.036432866	1.522600E+01	  0.036432866	5.300900E+01
84	  0.036633268	-2.500000E+00	  0.036633268	8.197500E+01	  0.036633268	1.617600E+01	  0.036633268	5.488200E+01
85	  0.036833670	-2.547000E+00	  0.036833670	7.978300E+01	  0.036833670	1.717600E+01	  0.036833670	5.682500E+01
86	  0.037034072	-2.589000E+00	  0.037034072	7.762400E+01	  0.037034072	1.821700E+01	  0.037034072	5.880800E+01
87	  0.037234470	-2.627000E+00	  0.037234470	7.548200E+01	  0.037234470	1.930900E+01	  0.037234470	6.085000E+01
88	  0.037434869	-2.668000E+00	  0.037434869	7.336400E+01	  0.037434869	2.049600E+01	  0.037434869	6.292900E+01
89	  0.037635271	-2.707000E+00	  0.037635271	7.126400E+01	  0.037635271	2.176300E+01	  0.037635271	6.506200E+01
90	  0.037835669	-2.754000E+00	  0.037835669	6.913400E+01	  0.037835669	2.321600E+01	  0.037835669	6.726900E+01
91	  0.038036071	-2.811000E+00	  0.038036071	6.703900E+01	  0.038036071	2.484900E+01	  0.038036071	6.946600E+01
92	  0.038236473	-2.867000E+00	  0.038236473	6.501300E+01	  0.038236473	2.656900E+01	  0.038236473	7.164200E+01
93	  0.038436871	-2.924000E+00	  0.038436871	6.295500E+01	  0.038436871	2.847100E+01	  0.038436871	7.390700E+01
94	  0.038637273	-2.985000E+00	  0.038637273	6.091600E+01	  0.038637273	3.055800E+01	  0.038637273	7.618100E+01
95	  0.038837675	-3.045000E+00	  0.038837675	5.880700E+01	  0.038837675	3.287800E+01	  0.038837675	7.859700E+01
96	  0.039038073	-3.104000E+00	  0.039038073	5.669800E+01	  0.039038073	3.540800E+01	  0.039038073	8.106400E+01
97	  0.039238475	-3.157000E+00	  0.039238475	5.454500E+01	  0.039238475	3.817000E+01	  0.039238475	8.367400E+01
98	  0.039438877	-3.205000E+00	  0.039438877	5.238900E+01	  0.039438877	4.115600E+01	  0.039438877	8.637200E+01
99	  0.039639279	-3.244000E+00	  0.039639279	5.030400E+01	  0.039639279	4.426100E+01	  0.039639279	8.908000E+01
100	  0.039839678	-3.287000E+00	  0.039839678	4.826700E+01	  0.039839678	4.763300E+01	  0.039839678	9.171800E+01
101	  0.040040080	-3.325000E+00	  0.040040080	4.624400E+01	  0.040040080	5.126800E+01	  0.040040080	9.438700E+01
102	  0.040240481	-3.375000E+00	  0.040240481	4.426300E+01	  0.040240481	5.528900E+01	  0.040240481	9.685300E+01
103	  0.040440880	-3.425000E+00	  0.040440880	4.225500E+01	  0.040440880	5.975600E+01	  0.040440880	9.928200E+01
104	  0.040641282	-3.482000E+00	  0.040641282	4.023200E+01	  0.040641282	6.473300E+01	  0.040641282	1.015500E+02
105	  0.040841684	-3.536000E+00	  0.040841684	3.818400E+01	  0.040841684	7.021800E+01	  0.040841684	1.037100E+02
106	  0.041042086	-3.594000E+00	  0.041042086	3.615000E+01	  0.041042086	7.619200E+01	  0.041042086	1.055730E+02
107	  0.041242484	-3.645000E+00	  0.041242484	3.410500E+01	  0.041242484	8.266700E+01	  0.041242484	1.072610E+02
108	  0.041442886	-3.699000E+00	  0.041442886	3.204500E+01	  0.041442886	8.977100E+01	  0.041442886	1.085250E+02
109	  0.041643288	-3.749000E+00	  0.041643288	2.998700E+01	  0.041643288	9.742600E+01	  0.041643288	1.093610E+02
110	  0.041843686	-3.801000E+00	  0.041843686	2.791200E+01	  0.041843686	1.057300E+02	  0.041843686	1.095430E+02
111	  0.042044088	-3.845000E+00	  0.042044088	2.583700E+01	  0.042044088	1.145730E+02	  0.042044088	1.091700E+02
112	  0.042244490	-3.889000E+00	  0.042244490	2.380400E+01	  0.042244490	1.237590E+02	  0.042244490	1.078990E+02
113	  0.042444889	-3.936000E+00	  0.042444889	2.179400E+01	  0.042444889	1.332490E+02	  0.042444889	1.055240E+02
114	  0.042645290	-3.980000E+00	  0.042645290	1.975600E+01	  0.042645290	1.431590E+02	  0.042645290	1.019850E+02
115	  0.042845692	-4.024000E+00	  0.042845692	1.774500E+01	  0.042845692	1.530420E+02	  0.042845692	9.716200E+01
116	  0.043046094	-4.064000E+00	  0.043046094	1.573300E+01	  0.043046094	1.628620E+02	  0.043046094	9.102400E+01
117	  0.043246493	-4.107000E+00	  0.043246493	1.373800E+01	  0.043246493	1.721440E+02	  0.043246493	8.330100E+01
118	  0.043446895	-4.149000E+00	  0.043446895	1.173700E+01	  0.043446895	1.807740E+02	  0.043446895	7.411400E+01
119	  0.043647297	-4.191000E+00	  0.043647297	9.769000E+00	  0.043647297	1.882370E+02	  0.043647297	6.368900E+01
120	  0.043847695	-4.234000E+00	  0.043847695	7.793000E+00	  0.043847695	1.943540E+02	  0.043847695	5.197800E+01
121	  0.044048097	-4.276000E+00	  0.044048097	5.840000E+00	  0.044048097	1.988290E+02	  0.044048097	3.947800E+01
122	  0.044248499	-4.315000E+00	  0.044248499	3.891000E+00	  0.044248499	2.017050E+02	  0.044248499	2.645000E+01
123	  0.044448901	-4.351000E+00	  0.044448901	1.949000E+00	  0.044448901	2.028590E+02	  0.044448901	1.321300E+01
124	  0.044649299	-4.383000E+00	  0.044649299	3.200000E-02	  0.044649299	2.023490E+02	  0.044649299	2.180000E-01
125	  0.044849701	-4.420000E+00	  0.044849701	-1.855000E+00	  0.044849701	1.999080E+02	  0.044849701	-1.218500E+01
126	  0.045050103	-4.458000E+00	  0.045050103	-3.734000E+00	  0.045050103	1.959690E+02	  0.045050103	-2.380200E+01
127	  0.045250501	-4.498000E+00	  0.045250501	-5.605000E+00	  0.045250501	1.907110E+02	  0.045250501	-3.440500E+01
128	  0.045450903	-4.536000E+00	  0.045450903	-7.468000E+00	  0.045450903	1.845650E+02	  0.045450903	-4.390700E+01
129	  0.045651305	-4.571000E+00	  0.045651305	-9.339000E+00	  0.045651305	1.777450E+02	  0.045651305	-5.235400E+01
130	  0.045851704	-4.607000E+00	  0.045851704	-1.119900E+01	  0.045851704	1.703760E+02	  0.045851704	-5.954500E+01
131	  0.046052106	-4.641000E+00	  0.046052106	-1.305400E+01	  0.046052106	1.627880E+02	  0.046052106	-6.564000E+01
132	  0.046252504	-4.673000E+00	  0.046252504	-1.490600E+01	  0.046252504	1.551060E+02	  0.046252504	-7.068900E+01
133	  0.046452906	-4.705000E+00	  0.046452906	-1.675500E+01	  0.046452906	1.474480E+02	  0.046452906	-7.474900E+01
134	  0.046653304	-4.739000E+00	  0.046653304	-1.857400E+01	  0.046653304	1.400000E+02	  0.046653304	-7.781000E+01
135	  0.046853706	-4.774000E+00	  0.046853706	-2.038200E+01	  0.046853706	1.328090E+02	  0.046853706	-8.006200E+01
136	  0.047054108	-4.808000E+00	  0.047054108	-2.222300E+01	  0.047054108	1.257840E+02	  0.047054108	-8.169600E+01
137	  0.047254506	-4.842000E+00	  0.047254506	-2.404300E+01	  0.047254506	1.191590E+02	  0.047254506	-8.272200E+01
138	  0.047454908	-4.870000E+00	  0.047454908	-2.587100E+01	  0.047454908	1.128800E+02	  0.047454908	-8.341100E+01
139	  0.047655310	-4.901000E+00	  0.047655310	-2.767400E+01	  0.047655310	1.070110E+02	  0.047655310	-8.357300E+01
140	  0.047855709	-4.930000E+00	  0.047855709	-2.948200E+01	  0.047855709	1.014690E+02	  0.047855709	-8.341700E+01
141	  0.048056111	-4.958000E+00	  0.048056111	-3.129200E+01	  0.048056111	9.626000E+01	  0.048056111	-8.299600E+01
142	  0.048256513	-4.985000E+00	  0.048256513	-3.307700E+01	  0.048256513	9.144300E+01	  0.048256513	-8.235500E+01
143	  0.048456915	-5.008000E+00	  0.048456915	-3.487500E+01	  0.048456915	8.688900E+01	  0.048456915	-8.157000E+01
144	  0.048657313	-5.026000E+00	  0.048657313	-3.665500E+01	  0.048657313	8.265700E+01	  0.048657313	-8.068900E+01
145	  0.048857715	-5.046000E+00	  0.048857715	-3.842300E+01	  0.048857715	7.872100E+01	  0.048857715	-7.964100E+01
146	  0.049058117	-5.064000E+00	  0.049058117	-4.014300E+01	  0.049058117	7.512700E+01	  0.049058117	-7.853900E+01
147	  0.049258515	-5.083000E+00	  0.049258515	-4.182900E+01	  0.049258515	7.182600E+01	  0.049258515	-7.734900E+01
148	  0.049458917	-5.102000E+00	  0.049458917	-4.347400E+01	  0.049458917	6.880200E+01	  0.049458917	-7.612900E+01
149	  0.049659319	-5.118000E+00	  0.049659319	-4.512200E+01	  0.049659319	6.594500E+01	  0.049659319	-7.488300E+01
150	  0.049859721	-5.142000E+00	  0.049859721	-4.678700E+01	  0.049859721	6.326500E+01	  0.049859721	-7.350500E+01
151	  0.050060119	-5.161000E+00	  0.050060119	-4.843500E+01	  0.050060119	6.075400E+01	  0.050060119	-7.216800E+01
152	  0.050260521	-5.184000E+00	  0.050260521	-5.008400E+01	  0.050260521	5.841200E+01	  0.050260521	-7.077300E+01
153	  0.050460923	-5.206000E+00	  0.050460923	-5.173500E+01	  0.050460923	5.620000E+01	  0.050460923	-6.938400E+01
154	  0.050661322	-5.225000E+00	  0.050661322	-5.337500E+01	  0.050661322	5.412300E+01	  0.050661322	-6.802100E+01
155	  0.050861724	-5.243000E+00	  0.050861724	-5.504600E+01	  0.050861724	5.212100E+01	  0.050861724	-6.664800E+01
156	  0.051062126	-5.257000E+00	  0.051062126	-5.667700E+01	  0.051062126	5.026600E+01	  0.051062126	-6.533300E+01
157	  0.051262524	-5.268000E+00	  0.051262524	-5.827800E+01	  0.051262524	4.853600E+01	  0.051262524	-6.406300E+01
158	  0.051462926	-5.282000E+00	  0.051462926	-5.989300E+01	  0.051462926	4.689900E+01	  0.051462926	-6.276900E+01
159	  0.051663328	-5.296000E+00	  0.051663328	-6.145800E+01	  0.051663328	4.540200E+01	  0.051663328	-6.151900E+01
160	  0.051863730	-5.313000E+00	  0.051863730	-6.300300E+01	  0.051863730	4.401500E+01	  0.051863730	-6.027700E+01
161	  0.052064128	-5.332000E+00	  0.052064128	-6.456500E+01	  0.052064128	4.269500E+01	  0.052064128	-5.902800E+01
162	  0.052264530	-5.348000E+00	  0.052264530	-6.611200E+01	  0.052264530	4.144600E+01	  0.052264530	-5.781500E+01
163	  0.052464932	-5.363000E+00	  0.052464932	-6.769100E+01	  0.052464932	4.023000E+01	  0.052464932	-5.660400E+01
164	  0.052665330	-5.378000E+00	  0.052665330	-6.926000E+01	  0.052665330	3.908300E+01	  0.052665330	-5.541300E+01
165	  0.052865732	-5.394000E+00	  0.052865732	-7.080700E+01	  0.052865732	3.801400E+01	  0.052865732	-5.425300E+01
166	  0.053066134	-5.411000E+00	  0.053066134	-7.234000E+01	  0.053066134	3.701400E+01	  0.053066134	-5.311100E+01
167	  0.053266536	-5.423000E+00	  0.053266536	-7.391700E+01	  0.053266536	3.601200E+01	  0.053266536	-5.197700E+01
168	  0.053466935	-5.433000E+00	  0.053466935	-7.546100E+01	  0.053466935	3.507200E+01	  0.053466935	-5.088800E+01
169	  0.053667337	-5.439000E+00	  0.053667337	-7.700400E+01	  0.053667337	3.415800E+01	  0.053667337	-4.983100E+01
170	  0.053867739	-5.442000E+00	  0.053867739	-7.853300E+01	  0.053867739	3.328700E+01	  0.053867739	-4.880500E+01
171	  0.054068137	-5.449000E+00	  0.054068137	-8.002800E+01	  0.054068137	3.248600E+01	  0.054068137	-4.780200E+01
172	  0.054268539	-5.455000E+00	  0.054268539	-8.147200E+01	  0.054268539	3.174700E+01	  0.054268539	-4.684500E+01
173	  0.054468941	-5.462000E+00	  0.054468941	-8.291000E+01	  0.054468941	3.104400E+01	  0.054468941	-4.590300E+01
174	  0.054669339	-5.467000E+00	  0.054669339	-8.431500E+01	  0.054669339	3.038100E+01	  0.054669339	-4.499800E+01
175	  0.054869737	-5.476000E+00	  0.054869737	-8.573500E+01	  0.054869737	2.975700E+01	  0.054869737	-4.408100E+01
176	  0.055070139	-5.486000E+00	  0.055070139	-8.713500E+01	  0.055070139	2.916600E+01	  0.055070139	-4.319000E+01
177	  0.055270538	-5.498000E+00	  0.055270538	-8.855700E+01	  0.055270538	2.860400E+01	  0.055270538	-4.228700E+01
178	  0.055470940	-5.508000E+00	  0.055470940	-8.999100E+01	  0.055470940	2.805000E+01	  0.055470940	-4.139700E+01
179	  0.055671342	-5.520000E+00	  0.055671342	-9.140300E+01	  0.055671342	2.753500E+01	  0.055671342	-4.052700E+01
180	  0.055871744	-5.531000E+00	  0.055871744	-9.284900E+01	  0.055871744	2.702500E+01	  0.055871744	-3.965100E+01
181	  0.056072142	-5.539000E+00	  0.056072142	-9.425800E+01	  0.056072142	2.654000E+01	  0.056072142	-3.881400E+01
182	  0.056272544	-5.541000E+00	  0.056272544	-9.566200E+01	  0.056272544	2.605400E+01	  0.056272544	-3.800400E+01
183	  0.056472946	-5.541000E+00	  0.056472946	-9.703500E+01	  0.056472946	2.558700E+01	  0.056472946	-3.722700E+01
184	  0.056673344	-5.550000E+00	  0.056673344	-9.839800E+01	  0.056673344	2.517600E+01	  0.056673344	-3.644200E+01
185	  0.056873746	-5.553000E+00	  0.056873746	-9.978600E+01	  0.056873746	2.475200E+01	  0.056873746	-3.566700E+01
186	  0.057074148	-5.560000E+00	  0.057074148	-1.010840E+02	  0.057074148	2.438300E+01	  0.057074148	-3.494100E+01
187	  0.057274550	-5.567000E+00	  0.057274550	-1.024060E+02	  0.057274550	2.402300E+01	  0.057274550	-3.421000E+01
188	  0.057474948	-5.574000E+00	  0.057474948	-1.037580E+02	  0.057474948	2.366600E+01	  0.057474948	-3.347100E+01
189	  0.057675350	-5.582000E+00	  0.057675350	-1.050940E+02	  0.057675350	2.333000E+01	  0.057675350	-3.274700E+01
190	  0.057875752	-5.589000E+00	  0.057875752	-1.064260E+02	  0.057875752	2.300600E+01	  0.057875752	-3.203400E+01
191	  0.058076151	-5.598000E+00	  0.058076151	-1.077680E+02	  0.058076151	2.269900E+01	  0.058076151	-3.132100E+01
192	  0.058276553	-5.603000E+00	  0.058276553	-1.090910E+02	  0.058276553	2.239200E+01	  0.058276553	-3.063200E+01
193	  0.058476955	-5.609000E+00	  0.058476955	-1.104390E+02	  0.058476955	2.209600E+01	  0.058476955	-2.993500E+01
194	  0.058677353	-5.606000E+00	  0.058677353	-1.117610E+02	  0.058677353	2.178600E+01	  0.058677353	-2.927100E+01
195	  0.058877755	-5.607000E+00	  0.058877755	-1.130420E+02	  0.058877755	2.150900E+01	  0.058877755	-2.862800E+01
196	  0.059078157	-5.606000E+00	  0.059078157	-1.143580E+02	  0.059078157	2.122700E+01	  0.059078157	-2.797700E+01
197	  0.059278559	-5.604000E+00	  0.059278559	-1.156310E+02	  0.059278559	2.096200E+01	  0.059278559	-2.735300E+01
198	  0.059478957	-5.607000E+00	  0.059478957	-1.168490E+02	  0.059478957	2.073300E+01	  0.059478957	-2.675400E+01
199	  0.059679359	-5.611000E+00	  0.059679359	-1.180660E+02	  0.059679359	2.051300E+01	  0.059679359	-2.615900E+01
200	  0.059879761	-5.615000E+00	  0.059879761	-1.192880E+02	  0.059879761	2.030100E+01	  0.059879761	-2.556700E+01
201	  0.060080159	-5.616000E+00	  0.060080159	-1.204910E+02	  0.060080159	2.008900E+01	  0.060080159	-2.499300E+01
202	  0.060280561	-5.621000E+00	  0.060280561	-1.217140E+02	  0.060280561	1.989300E+01	  0.060280561	-2.440900E+01
203	  0.060480963	-5.628000E+00	  0.060480963	-1.229420E+02	  0.060480963	1.971100E+01	  0.060480963	-2.382500E+01
204	  0.060681365	-5.637000E+00	  0.060681365	-1.241470E+02	  0.060681365	1.954400E+01	  0.060681365	-2.325400E+01
205	  0.060881764	-5.644000E+00	  0.060881764	-1.253700E+02	  0.060881764	1.937500E+01	  0.060881764	-2.268100E+01
206	  0.061082166	-5.649000E+00	  0.061082166	-1.266000E+02	  0.061082166	1.920500E+01	  0.061082166	-2.211100E+01
207	  0.061282568	-5.654000E+00	  0.061282568	-1.277970E+02	  0.061282568	1.904400E+01	  0.061282568	-2.156200E+01
208	  0.061482966	-5.659000E+00	  0.061482966	-1.290110E+02	  0.061482966	1.888900E+01	  0.061482966	-2.100700E+01
209	  0.061683368	-5.659000E+00	  0.061683368	-1.302180E+02	  0.061683368	1.872500E+01	  0.061683368	-2.046400E+01
210	  0.061883770	-5.665000E+00	  0.061883770	-1.314220E+02	  0.061883770	1.858400E+01	  0.061883770	-1.992100E+01
211	  0.062084168	-5.666000E+00	  0.062084168	-1.326080E+02	  0.062084168	1.843700E+01	  0.062084168	-1.939400E+01
212	  0.062284570	-5.669000E+00	  0.062284570	-1.337820E+02	  0.062284570	1.830200E+01	  0.062284570	-1.887300E+01
213	  0.062484972	-5.664000E+00	  0.062484972	-1.348990E+02	  0.062484972	1.815400E+01	  0.062484972	-1.838700E+01
214	  0.062685370	-5.672000E+00	  0.062685370	-1.360690E+02	  0.062685370	1.804300E+01	  0.062685370	-1.787000E+01
215	  0.062885776	-5.673000E+00	  0.062885776	-1.372480E+02	  0.062885776	1.791700E+01	  0.062885776	-1.735700E+01
216	  0.063086174	-5.680000E+00	  0.063086174	-1.383750E+02	  0.063086174	1.781500E+01	  0.063086174	-1.686600E+01
217	  0.063286573	-5.684000E+00	  0.063286573	-1.395770E+02	  0.063286573	1.770400E+01	  0.063286573	-1.634700E+01
218	  0.063486971	-5.688000E+00	  0.063486971	-1.407400E+02	  0.063486971	1.759900E+01	  0.063486971	-1.584800E+01
219	  0.063687377	-5.686000E+00	  0.063687377	-1.418930E+02	  0.063687377	1.748200E+01	  0.063687377	-1.535900E+01
220	  0.063887775	-5.688000E+00	  0.063887775	-1.430600E+02	  0.063887775	1.738000E+01	  0.063887775	-1.486400E+01
221	  0.064088173	-5.684000E+00	  0.064088173	-1.441870E+02	  0.064088173	1.726900E+01	  0.064088173	-1.439200E+01
222	  0.064288579	-5.686000E+00	  0.064288579	-1.453030E+02	  0.064288579	1.718000E+01	  0.064288579	-1.392200E+01
223	  0.064488977	-5.687000E+00	  0.064488977	-1.464050E+02	  0.064488977	1.709300E+01	  0.064488977	-1.346100E+01
224	  0.064689375	-5.681000E+00	  0.064689375	-1.474880E+02	  0.064689375	1.699100E+01	  0.064689375	-1.301400E+01
225	  0.064889781	-5.687000E+00	  0.064889781	-1.485590E+02	  0.064889781	1.692600E+01	  0.064889781	-1.256700E+01
226	  0.065090179	-5.689000E+00	  0.065090179	-1.496380E+02	  0.065090179	1.685400E+01	  0.065090179	-1.212000E+01
227	  0.065290578	-5.695000E+00	  0.065290578	-1.507550E+02	  0.065290578	1.679200E+01	  0.065290578	-1.165700E+01
228	  0.065490983	-5.698000E+00	  0.065490983	-1.518120E+02	  0.065490983	1.673000E+01	  0.065490983	-1.122200E+01
229	  0.065691382	-5.703000E+00	  0.065691382	-1.528590E+02	  0.065691382	1.667600E+01	  0.065691382	-1.079200E+01
230	  0.065891780	-5.710000E+00	  0.065891780	-1.539410E+02	  0.065891780	1.662800E+01	  0.065891780	-1.034900E+01
231	  0.066092186	-5.712000E+00	  0.066092186	-1.549950E+02	  0.066092186	1.657000E+01	  0.066092186	-9.920000E+00
232	  0.066292584	-5.717000E+00	  0.066292584	-1.560630E+02	  0.066292584	1.652500E+01	  0.066292584	-9.485000E+00
233	  0.066492982	-5.726000E+00	  0.066492982	-1.571410E+02	  0.066492982	1.649100E+01	  0.066492982	-9.047000E+00
234	  0.066693388	-5.728000E+00	  0.066693388	-1.582040E+02	  0.066693388	1.644200E+01	  0.066693388	-8.618000E+00
235	  0.066893786	-5.735000E+00	  0.066893786	-1.592910E+02	  0.066893786	1.640900E+01	  0.066893786	-8.180000E+00
236	  0.067094192	-5.740000E+00	  0.067094192	-1.603370E+02	  0.067094192	1.637600E+01	  0.067094192	-7.759000E+00
237	  0.067294590	-5.745000E+00	  0.067294590	-1.614090E+02	  0.067294590	1.634100E+01	  0.067294590	-7.329000E+00
238	  0.067494988	-5.748000E+00	  0.067494988	-1.624310E+02	  0.067494988	1.630900E+01	  0.067494988	-6.921000E+00
239	  0.067695394	-5.757000E+00	  0.067695394	-1.635100E+02	  0.067695394	1.629000E+01	  0.067695394	-6.489000E+00
240	  0.067895792	-5.754000E+00	  0.067895792	-1.645370E+02	  0.067895792	1.624600E+01	  0.067895792	-6.083000E+00
241	  0.068096191	-5.757000E+00	  0.068096191	-1.655810E+02	  0.068096191	1.621800E+01	  0.068096191	-5.668000E+00
242	  0.068296596	-5.771000E+00	  0.068296596	-1.665980E+02	  0.068296596	1.622500E+01	  0.068296596	-5.263000E+00
243	  0.068496995	-5.775000E+00	  0.068496995	-1.676420E+02	  0.068496995	1.620300E+01	  0.068496995	-4.850000E+00
244	  0.068697393	-5.774000E+00	  0.068697393	-1.686820E+02	  0.068697393	1.617600E+01	  0.068697393	-4.440000E+00
245	  0.068897791	-5.774000E+00	  0.068897791	-1.696950E+02	  0.068897791	1.614900E+01	  0.068897791	-4.041000E+00
246	  0.069098189	-5.774000E+00	  0.069098189	-1.706840E+02	  0.069098189	1.612900E+01	  0.069098189	-3.652000E+00
247	  0.069298595	-5.774000E+00	  0.069298595	-1.717140E+02	  0.069298595	1.611000E+01	  0.069298595	-3.247000E+00
248	  0.069498993	-5.779000E+00	  0.069498993	-1.727050E+02	  0.069498993	1.610400E+01	  0.069498993	-2.857000E+00
249	  0.069699399	-5.783000E+00	  0.069699399	-1.736810E+02	  0.069699399	1.610200E+01	  0.069699399	-2.474000E+00
250	  0.069899797	-5.783000E+00	  0.069899797	-1.746290E+02	  0.069899797	1.608800E+01	  0.069899797	-2.102000E+00
251	  0.070100196	-5.790000E+00	  0.070100196	-1.756060E+02	  0.070100196	1.609500E+01	  0.070100196	-1.719000E+00
252	  0.070300601	-5.788000E+00	  0.070300601	-1.765860E+02	  0.070300601	1.608200E+01	  0.070300601	-1.335000E+00
253	  0.070501000	-5.788000E+00	  0.070501000	-1.775680E+02	  0.070501000	1.607600E+01	  0.070501000	-9.510000E-01
254	  0.070701398	-5.792000E+00	  0.070701398	-1.785230E+02	  0.070701398	1.608300E+01	  0.070701398	-5.770000E-01
255	  0.070901804	-5.797000E+00	  0.070901804	-1.794640E+02	  0.070901804	1.609300E+01	  0.070901804	-2.090000E-01
256	  0.071102202	-5.798000E+00	  0.071102202	1.795700E+02	  0.071102202	1.609600E+01	  0.071102202	1.670000E-01
257	  0.071302600	-5.808000E+00	  0.071302600	1.786070E+02	  0.071302600	1.612200E+01	  0.071302600	5.440000E-01
258	  0.071503006	-5.808000E+00	  0.071503006	1.776510E+02	  0.071503006	1.612800E+01	  0.071503006	9.180000E-01
259	  0.071703404	-5.814000E+00	  0.071703404	1.767080E+02	  0.071703404	1.614800E+01	  0.071703404	1.286000E+00
260	  0.071903802	-5.818000E+00	  0.071903802	1.757390E+02	  0.071903802	1.616600E+01	  0.071903802	1.665000E+00
261	  0.072104208	-5.823000E+00	  0.072104208	1.747620E+02	  0.072104208	1.619100E+01	  0.072104208	2.047000E+00
262	  0.072304606	-5.833000E+00	  0.072304606	1.737920E+02	  0.072304606	1.622900E+01	  0.072304606	2.426000E+00
263	  0.072505005	-5.835000E+00	  0.072505005	1.728620E+02	  0.072505005	1.624800E+01	  0.072505005	2.790000E+00
264	  0.072705410	-5.841000E+00	  0.072705410	1.718880E+02	  0.072705410	1.627900E+01	  0.072705410	3.171000E+00
265	  0.072905809	-5.849000E+00	  0.072905809	1.709620E+02	  0.072905809	1.631800E+01	  0.072905809	3.532000E+00
266	  0.073106214	-5.847000E+00	  0.073106214	1.699690E+02	  0.073106214	1.633200E+01	  0.073106214	3.922000E+00
267	  0.073306613	-5.856000E+00	  0.073306613	1.690080E+02	  0.073306613	1.637800E+01	  0.073306613	4.298000E+00
268	  0.073507011	-5.862000E+00	  0.073507011	1.680450E+02	  0.073507011	1.641900E+01	  0.073507011	4.675000E+00
269	  0.073707417	-5.863000E+00	  0.073707417	1.671060E+02	  0.073707417	1.644800E+01	  0.073707417	5.045000E+00
270	  0.073907815	-5.865000E+00	  0.073907815	1.661690E+02	  0.073907815	1.648200E+01	  0.073907815	5.413000E+00
271	  0.074108213	-5.866000E+00	  0.074108213	1.652470E+02	  0.074108213	1.651300E+01	  0.074108213	5.777000E+00
272	  0.074308619	-5.869000E+00	  0.074308619	1.643210E+02	  0.074308619	1.655400E+01	  0.074308619	6.142000E+00
273	  0.074509017	-5.880000E+00	  0.074509017	1.633830E+02	  0.074509017	1.661600E+01	  0.074509017	6.510000E+00
274	  0.074709415	-5.883000E+00	  0.074709415	1.624540E+02	  0.074709415	1.666100E+01	  0.074709415	6.877000E+00
275	  0.074909821	-5.885000E+00	  0.074909821	1.615190E+02	  0.074909821	1.670500E+01	  0.074909821	7.247000E+00
276	  0.075110219	-5.896000E+00	  0.075110219	1.606350E+02	  0.075110219	1.677100E+01	  0.075110219	7.595000E+00
277	  0.075310618	-5.902000E+00	  0.075310618	1.597500E+02	  0.075310618	1.682800E+01	  0.075310618	7.945000E+00
278	  0.075511023	-5.905000E+00	  0.075511023	1.588580E+02	  0.075511023	1.687700E+01	  0.075511023	8.299000E+00
279	  0.075711422	-5.917000E+00	  0.075711422	1.579410E+02	  0.075711422	1.695600E+01	  0.075711422	8.661000E+00
280	  0.075911827	-5.924000E+00	  0.075911827	1.570320E+02	  0.075911827	1.702200E+01	  0.075911827	9.022000E+00
281	  0.076112226	-5.929000E+00	  0.076112226	1.561330E+02	  0.076112226	1.708500E+01	  0.076112226	9.380000E+00
282	  0.076312624	-5.941000E+00	  0.076312624	1.552300E+02	  0.076312624	1.716800E+01	  0.076312624	9.737000E+00
283	  0.076513030	-5.946000E+00	  0.076513030	1.543290E+02	  0.076513030	1.723500E+01	  0.076513030	1.009700E+01
284	  0.076713428	-5.954000E+00	  0.076713428	1.534660E+02	  0.076713428	1.730900E+01	  0.076713428	1.044200E+01
285	  0.076913826	-5.966000E+00	  0.076913826	1.525560E+02	  0.076913826	1.740000E+01	  0.076913826	1.080400E+01
286	  0.077114232	-5.972000E+00	  0.077114232	1.516790E+02	  0.077114232	1.747300E+01	  0.077114232	1.115600E+01
287	  0.077314630	-5.985000E+00	  0.077314630	1.507700E+02	  0.077314630	1.757300E+01	  0.077314630	1.151800E+01
288	  0.077515028	-5.995000E+00	  0.077515028	1.499040E+02	  0.077515028	1.766100E+01	  0.077515028	1.186500E+01
289	  0.077715434	-6.008000E+00	  0.077715434	1.490370E+02	  0.077715434	1.776200E+01	  0.077715434	1.221100E+01
290	  0.077915832	-6.016000E+00	  0.077915832	1.481640E+02	  0.077915832	1.784900E+01	  0.077915832	1.256400E+01
291	  0.078116231	-6.027000E+00	  0.078116231	1.472650E+02	  0.078116231	1.795200E+01	  0.078116231	1.292500E+01
292	  0.078316636	-6.037000E+00	  0.078316636	1.463630E+02	  0.078316636	1.805300E+01	  0.078316636	1.328900E+01
293	  0.078517035	-6.052000E+00	  0.078517035	1.454870E+02	  0.078517035	1.816700E+01	  0.078517035	1.364000E+01
294	  0.078717433	-6.065000E+00	  0.078717433	1.446140E+02	  0.078717433	1.827900E+01	  0.078717433	1.399300E+01
295	  0.078917839	-6.067000E+00	  0.078917839	1.437380E+02	  0.078917839	1.836300E+01	  0.078917839	1.435300E+01
296	  0.079118237	-6.076000E+00	  0.079118237	1.429000E+02	  0.079118237	1.846600E+01	  0.079118237	1.469500E+01
297	  0.079318643	-6.082000E+00	  0.079318643	1.420390E+02	  0.079318643	1.856600E+01	  0.079318643	1.504800E+01
298	  0.079519041	-6.094000E+00	  0.079519041	1.411900E+02	  0.079519041	1.868200E+01	  0.079519041	1.539400E+01
299	  0.079719439	-6.107000E+00	  0.079719439	1.403520E+02	  0.079719439	1.880500E+01	  0.079719439	1.573400E+01
300	  0.079919845	-6.115000E+00	  0.079919845	1.394620E+02	  0.079919845	1.891800E+01	  0.079919845	1.610200E+01
301	  0.080120243	-6.129000E+00	  0.080120243	1.386530E+02	  0.080120243	1.904500E+01	  0.080120243	1.643100E+01
302	  0.080320641	-6.148000E+00	  0.080320641	1.378220E+02	  0.080320641	1.919100E+01	  0.080320641	1.676600E+01
303	  0.080521047	-6.157000E+00	  0.080521047	1.369750E+02	  0.080521047	1.931100E+01	  0.080521047	1.711700E+01
304	  0.080721445	-6.174000E+00	  0.080721445	1.361350E+02	  0.080721445	1.945700E+01	  0.080721445	1.745900E+01
305	  0.080921844	-6.189000E+00	  0.080921844	1.352870E+02	  0.080921844	1.960200E+01	  0.080921844	1.780600E+01
306	  0.081122249	-6.203000E+00	  0.081122249	1.344450E+02	  0.081122249	1.974500E+01	  0.081122249	1.815300E+01
307	  0.081322648	-6.213000E+00	  0.081322648	1.335910E+02	  0.081322648	1.988000E+01	  0.081322648	1.851000E+01
308	  0.081523046	-6.230000E+00	  0.081523046	1.327870E+02	  0.081523046	2.003400E+01	  0.081523046	1.883800E+01
309	  0.081723452	-6.246000E+00	  0.081723452	1.319140E+02	  0.081723452	2.019500E+01	  0.081723452	1.919900E+01
310	  0.081923850	-6.257000E+00	  0.081923850	1.310700E+02	  0.081923850	2.034300E+01	  0.081923850	1.955200E+01
311	  0.082124248	-6.267000E+00	  0.082124248	1.302800E+02	  0.082124248	2.048200E+01	  0.082124248	1.988300E+01
312	  0.082324654	-6.283000E+00	  0.082324654	1.294540E+02	  0.082324654	2.064600E+01	  0.082324654	2.022600E+01
313	  0.082525052	-6.293000E+00	  0.082525052	1.286040E+02	  0.082525052	2.080200E+01	  0.082525052	2.058500E+01
314	  0.082725458	-6.314000E+00	  0.082725458	1.277680E+02	  0.082725458	2.098600E+01	  0.082725458	2.092800E+01
315	  0.082925856	-6.328000E+00	  0.082925856	1.270010E+02	  0.082925856	2.114600E+01	  0.082925856	2.124800E+01
316	  0.083126254	-6.344000E+00	  0.083126254	1.261720E+02	  0.083126254	2.132600E+01	  0.083126254	2.159400E+01
317	  0.083326660	-6.360000E+00	  0.083326660	1.253760E+02	  0.083326660	2.150000E+01	  0.083326660	2.192700E+01
318	  0.083527058	-6.377000E+00	  0.083527058	1.245260E+02	  0.083527058	2.169200E+01	  0.083527058	2.228200E+01
319	  0.083727457	-6.395000E+00	  0.083727457	1.237150E+02	  0.083727457	2.188200E+01	  0.083727457	2.262000E+01
320	  0.083927862	-6.410000E+00	  0.083927862	1.228650E+02	  0.083927862	2.207500E+01	  0.083927862	2.297900E+01
321	  0.084128261	-6.424000E+00	  0.084128261	1.220490E+02	  0.084128261	2.226200E+01	  0.084128261	2.332400E+01
322	  0.084328659	-6.441000E+00	  0.084328659	1.212530E+02	  0.084328659	2.245700E+01	  0.084328659	2.365900E+01
323	  0.084529065	-6.458000E+00	  0.084529065	1.204720E+02	  0.084529065	2.265400E+01	  0.084529065	2.398700E+01
324	  0.084729463	-6.473000E+00	  0.084729463	1.196750E+02	  0.084729463	2.285100E+01	  0.084729463	2.432400E+01
325	  0.084929861	-6.489000E+00	  0.084929861	1.188790E+02	  0.084929861	2.305400E+01	  0.084929861	2.466100E+01
326	  0.085130267	-6.507000E+00	  0.085130267	1.180880E+02	  0.085130267	2.326700E+01	  0.085130267	2.499400E+01
327	  0.085330658	-6.526000E+00	  0.085330658	1.173220E+02	  0.085330658	2.348100E+01	  0.085330658	2.531300E+01
328	  0.085531056	-6.549000E+00	  0.085531056	1.165390E+02	  0.085531056	2.371400E+01	  0.085531056	2.563600E+01
329	  0.085731462	-6.571000E+00	  0.085731462	1.157780E+02	  0.085731462	2.394400E+01	  0.085731462	2.595000E+01
330	  0.085931860	-6.595000E+00	  0.085931860	1.149880E+02	  0.085931860	2.418900E+01	  0.085931860	2.627300E+01
331	  0.086132258	-6.614000E+00	  0.086132258	1.142200E+02	  0.086132258	2.441700E+01	  0.086132258	2.659600E+01
332	  0.086332664	-6.641000E+00	  0.086332664	1.134170E+02	  0.086332664	2.468300E+01	  0.086332664	2.692100E+01
333	  0.086533062	-6.655000E+00	  0.086533062	1.126170E+02	  0.086533062	2.491100E+01	  0.086533062	2.726600E+01
334	  0.086733460	-6.683000E+00	  0.086733460	1.117730E+02	  0.086733460	2.520000E+01	  0.086733460	2.760700E+01
335	  0.086933866	-6.702000E+00	  0.086933866	1.109810E+02	  0.086933866	2.545300E+01	  0.086933866	2.793900E+01
336	  0.087134264	-6.727000E+00	  0.087134264	1.102370E+02	  0.087134264	2.571500E+01	  0.087134264	2.824000E+01
337	  0.087334670	-6.748000E+00	  0.087334670	1.094280E+02	  0.087334670	2.598500E+01	  0.087334670	2.857800E+01
338	  0.087535068	-6.771000E+00	  0.087535068	1.086740E+02	  0.087535068	2.625300E+01	  0.087535068	2.888600E+01
339	  0.087735467	-6.789000E+00	  0.087735467	1.079070E+02	  0.087735467	2.651300E+01	  0.087735467	2.920900E+01
340	  0.087935872	-6.817000E+00	  0.087935872	1.071400E+02	  0.087935872	2.680700E+01	  0.087935872	2.951400E+01
341	  0.088136271	-6.840000E+00	  0.088136271	1.064030E+02	  0.088136271	2.708500E+01	  0.088136271	2.981200E+01
342	  0.088336669	-6.869000E+00	  0.088336669	1.056370E+02	  0.088336669	2.739000E+01	  0.088336669	3.011300E+01
343	  0.088537075	-6.903000E+00	  0.088537075	1.048780E+02	  0.088537075	2.771500E+01	  0.088537075	3.040000E+01
344	  0.088737473	-6.929000E+00	  0.088737473	1.041010E+02	  0.088737473	2.802700E+01	  0.088737473	3.070800E+01
345	  0.088937871	-6.961000E+00	  0.088937871	1.033350E+02	  0.088937871	2.835500E+01	  0.088937871	3.100100E+01
346	  0.089138277	-6.985000E+00	  0.089138277	1.025530E+02	  0.089138277	2.867400E+01	  0.089138277	3.131300E+01
347	  0.089338675	-7.021000E+00	  0.089338675	1.017820E+02	  0.089338675	2.902700E+01	  0.089338675	3.159600E+01
348	  0.089539073	-7.047000E+00	  0.089539073	1.010010E+02	  0.089539073	2.935900E+01	  0.089539073	3.190200E+01
349	  0.089739479	-7.082000E+00	  0.089739479	1.002330E+02	  0.089739479	2.972100E+01	  0.089739479	3.218100E+01
350	  0.089939877	-7.113000E+00	  0.089939877	9.950900E+01	  0.089939877	3.005900E+01	  0.089939877	3.244800E+01
351	  0.090140276	-7.142000E+00	  0.090140276	9.877300E+01	  0.090140276	3.040100E+01	  0.090140276	3.272200E+01
352	  0.090340681	-7.177000E+00	  0.090340681	9.803500E+01	  0.090340681	3.076600E+01	  0.090340681	3.298100E+01
353	  0.090541080	-7.209000E+00	  0.090541080	9.729100E+01	  0.090541080	3.112800E+01	  0.090541080	3.324900E+01
354	  0.090741485	-7.247000E+00	  0.090741485	9.655700E+01	  0.090741485	3.151200E+01	  0.090741485	3.349500E+01
355	  0.090941884	-7.289000E+00	  0.090941884	9.587200E+01	  0.090941884	3.189500E+01	  0.090941884	3.370400E+01
356	  0.091142282	-7.331000E+00	  0.091142282	9.511800E+01	  0.091142282	3.230700E+01	  0.091142282	3.394400E+01
357	  0.091342688	-7.365000E+00	  0.091342688	9.441600E+01	  0.091342688	3.267900E+01	  0.091342688	3.417700E+01
358	  0.091543086	-7.404000E+00	  0.091543086	9.369800E+01	  0.091543086	3.307900E+01	  0.091543086	3.440000E+01
359	  0.091743484	-7.438000E+00	  0.091743484	9.293300E+01	  0.091743484	3.348700E+01	  0.091743484	3.465500E+01
360	  0.091943890	-7.476000E+00	  0.091943890	9.222700E+01	  0.091943890	3.388600E+01	  0.091943890	3.487100E+01
361	  0.092144288	-7.515000E+00	  0.092144288	9.152600E+01	  0.092144288	3.429400E+01	  0.092144288	3.507700E+01
362	  0.092344686	-7.552000E+00	  0.092344686	9.080400E+01	  0.092344686	3.470700E+01	  0.092344686	3.529600E+01
363	  0.092545092	-7.590000E+00	  0.092545092	9.015000E+01	  0.092545092	3.510100E+01	  0.092545092	3.547600E+01
364	  0.092745490	-7.616000E+00	  0.092745490	8.949100E+01	  0.092745490	3.546500E+01	  0.092745490	3.569000E+01
365	  0.092945889	-7.661000E+00	  0.092945889	8.883500E+01	  0.092945889	3.588700E+01	  0.092945889	3.584500E+01
366	  0.093146294	-7.699000E+00	  0.093146294	8.817500E+01	  0.093146294	3.629600E+01	  0.093146294	3.601800E+01
367	  0.093346693	-7.738000E+00	  0.093346693	8.754700E+01	  0.093346693	3.669500E+01	  0.093346693	3.617100E+01
368	  0.093547091	-7.778000E+00	  0.093547091	8.696400E+01	  0.093547091	3.708100E+01	  0.093547091	3.629600E+01
369	  0.093747497	-7.823000E+00	  0.093747497	8.632000E+01	  0.093747497	3.751000E+01	  0.093747497	3.643100E+01
370	  0.093947895	-7.861000E+00	  0.093947895	8.573200E+01	  0.093947895	3.789800E+01	  0.093947895	3.655800E+01
371	  0.094148301	-7.908000E+00	  0.094148301	8.506700E+01	  0.094148301	3.835100E+01	  0.094148301	3.668400E+01
372	  0.094348699	-7.953000E+00	  0.094348699	8.446700E+01	  0.094348699	3.877200E+01	  0.094348699	3.678300E+01
373	  0.094549097	-7.999000E+00	  0.094549097	8.383100E+01	  0.094549097	3.921400E+01	  0.094549097	3.689000E+01
374	  0.094749503	-8.037000E+00	  0.094749503	8.322800E+01	  0.094749503	3.962200E+01	  0.094749503	3.700600E+01
375	  0.094949901	-8.084000E+00	  0.094949901	8.264700E+01	  0.094949901	4.004300E+01	  0.094949901	3.708000E+01
376	  0.095150299	-8.123000E+00	  0.095150299	8.209600E+01	  0.095150299	4.043400E+01	  0.095150299	3.716000E+01
377	  0.095350705	-8.168000E+00	  0.095350705	8.149700E+01	  0.095350705	4.086400E+01	  0.095350705	3.724000E+01
378	  0.095551103	-8.209000E+00	  0.095551103	8.087600E+01	  0.095551103	4.130000E+01	  0.095551103	3.733300E+01
379	  0.095751502	-8.258000E+00	  0.095751502	8.037000E+01	  0.095751502	4.169800E+01	  0.095751502	3.734800E+01
380	  0.095951907	-8.304000E+00	  0.095951907	7.980600E+01	  0.095951907	4.211800E+01	  0.095951907	3.739500E+01
381	  0.096152306	-8.358000E+00	  0.096152306	7.928300E+01	  0.096152306	4.253800E+01	  0.096152306	3.739100E+01
382	  0.096352704	-8.398000E+00	  0.096352704	7.871500E+01	  0.096352704	4.295200E+01	  0.096352704	3.744600E+01
383	  0.096553110	-8.446000E+00	  0.096553110	7.814900E+01	  0.096553110	4.338300E+01	  0.096553110	3.747200E+01
384	  0.096753508	-8.494000E+00	  0.096753508	7.758100E+01	  0.096753508	4.381900E+01	  0.096753508	3.748800E+01
385	  0.096953906	-8.540000E+00	  0.096953906	7.701400E+01	  0.096953906	4.425000E+01	  0.096953906	3.750700E+01
386	  0.097154312	-8.589000E+00	  0.097154312	7.648900E+01	  0.097154312	4.466300E+01	  0.097154312	3.749800E+01
387	  0.097354710	-8.632000E+00	  0.097354710	7.594300E+01	  0.097354710	4.507800E+01	  0.097354710	3.751000E+01
388	  0.097555116	-8.673000E+00	  0.097555116	7.541000E+01	  0.097555116	4.548100E+01	  0.097555116	3.752500E+01
389	  0.097755514	-8.708000E+00	  0.097755514	7.490200E+01	  0.097755514	4.585900E+01	  0.097755514	3.754800E+01
390	  0.097955912	-8.751000E+00	  0.097955912	7.437500E+01	  0.097955912	4.626700E+01	  0.097955912	3.753900E+01
391	  0.098156318	-8.791000E+00	  0.098156318	7.393000E+01	  0.098156318	4.661800E+01	  0.098156318	3.751500E+01
392	  0.098356716	-8.832000E+00	  0.098356716	7.344900E+01	  0.098356716	4.699300E+01	  0.098356716	3.749400E+01
393	  0.098557115	-8.867000E+00	  0.098557115	7.300600E+01	  0.098557115	4.733400E+01	  0.098557115	3.748100E+01
394	  0.098757520	-8.910000E+00	  0.098757520	7.259900E+01	  0.098757520	4.766900E+01	  0.098757520	3.742100E+01
395	  0.098957919	-8.951000E+00	  0.098957919	7.215500E+01	  0.098957919	4.802100E+01	  0.098957919	3.738000E+01
396	  0.099158317	-8.992000E+00	  0.099158317	7.171500E+01	  0.099158317	4.837200E+01	  0.099158317	3.733000E+01
397	  0.099358723	-9.033000E+00	  0.099358723	7.133000E+01	  0.099358723	4.868800E+01	  0.099358723	3.726300E+01
398	  0.099559121	-9.072000E+00	  0.099559121	7.088300E+01	  0.099559121	4.904000E+01	  0.099559121	3.721300E+01
399	  0.099759519	-9.109000E+00	  0.099759519	7.049000E+01	  0.099759519	4.935300E+01	  0.099759519	3.715800E+01
400	  0.099959925	-9.130000E+00	  0.099959925	7.010900E+01	  0.099959925	4.963300E+01	  0.099959925	3.716400E+01
401	  0.100160323	-9.183000E+00	  0.100160323	6.977900E+01	  0.100160323	4.992900E+01	  0.100160323	3.702200E+01
402	  0.100360721	-9.223000E+00	  0.100360721	6.936400E+01	  0.100360721	5.026100E+01	  0.100360721	3.694800E+01
403	  0.100561127	-9.253000E+00	  0.100561127	6.902100E+01	  0.100561127	5.053000E+01	  0.100561127	3.690000E+01
404	  0.100761525	-9.290000E+00	  0.100761525	6.864100E+01	  0.100761525	5.083200E+01	  0.100761525	3.682700E+01
405	  0.100961931	-9.329000E+00	  0.100961931	6.823400E+01	  0.100961931	5.115400E+01	  0.100961931	3.674800E+01
406	  0.101162329	-9.368000E+00	  0.101162329	6.793400E+01	  0.101162329	5.140700E+01	  0.101162329	3.663900E+01
407	  0.101362728	-9.400000E+00	  0.101362728	6.765900E+01	  0.101362728	5.163200E+01	  0.101362728	3.655700E+01
408	  0.101563133	-9.429000E+00	  0.101563133	6.723300E+01	  0.101563133	5.195200E+01	  0.101563133	3.651600E+01
409	  0.101763532	-9.480000E+00	  0.101763532	6.690400E+01	  0.101763532	5.223400E+01	  0.101763532	3.635800E+01
410	  0.101963930	-9.500000E+00	  0.101963930	6.655100E+01	  0.101963930	5.249400E+01	  0.101963930	3.633700E+01
411	  0.102164336	-9.529000E+00	  0.102164336	6.621600E+01	  0.102164336	5.275200E+01	  0.102164336	3.627300E+01
412	  0.102364734	-9.565000E+00	  0.102364734	6.588000E+01	  0.102364734	5.301900E+01	  0.102364734	3.617200E+01
413	  0.102565132	-9.590000E+00	  0.102565132	6.557400E+01	  0.102565132	5.325200E+01	  0.102565132	3.611600E+01
414	  0.102765530	-9.635000E+00	  0.102765530	6.516400E+01	  0.102765530	5.357700E+01	  0.102765530	3.598500E+01
415	  0.102965929	-9.645000E+00	  0.102965929	6.479500E+01	  0.102965929	5.383700E+01	  0.102965929	3.599500E+01
416	  0.103166327	-9.675000E+00	  0.103166327	6.448200E+01	  0.103166327	5.407900E+01	  0.103166327	3.591200E+01
417	  0.103366733	-9.696000E+00	  0.103366733	6.422200E+01	  0.103366733	5.427700E+01	  0.103366733	3.585300E+01
418	  0.103567131	-9.695000E+00	  0.103567131	6.381300E+01	  0.103567131	5.455500E+01	  0.103567131	3.591700E+01
419	  0.103767529	-9.714000E+00	  0.103767529	6.356100E+01	  0.103767529	5.474500E+01	  0.103767529	3.586800E+01
420	  0.103967935	-9.731000E+00	  0.103967935	6.325500E+01	  0.103967935	5.497000E+01	  0.103967935	3.583300E+01
421	  0.104168333	-9.747000E+00	  0.104168333	6.299100E+01	  0.104168333	5.516500E+01	  0.104168333	3.579400E+01
422	  0.104368731	-9.773000E+00	  0.104368731	6.262700E+01	  0.104368731	5.543800E+01	  0.104368731	3.572200E+01
423	  0.104569137	-9.773000E+00	  0.104569137	6.237400E+01	  0.104569137	5.561300E+01	  0.104569137	3.575400E+01
424	  0.104769535	-9.786000E+00	  0.104769535	6.209000E+01	  0.104769535	5.582000E+01	  0.104769535	3.572600E+01
425	  0.104969934	-9.785000E+00	  0.104969934	6.179300E+01	  0.104969934	5.602700E+01	  0.104969934	3.576700E+01
426	  0.105170339	-9.810000E+00	  0.105170339	6.152400E+01	  0.105170339	5.623300E+01	  0.105170339	3.568100E+01
427	  0.105370738	-9.807000E+00	  0.105370738	6.129000E+01	  0.105370738	5.639500E+01	  0.105370738	3.571800E+01
428	  0.105571143	-9.819000E+00	  0.105571143	6.095000E+01	  0.105571143	5.664300E+01	  0.105571143	3.569800E+01
429	  0.105771542	-9.814000E+00	  0.105771542	6.057800E+01	  0.105771542	5.690400E+01	  0.105771542	3.575400E+01
430	  0.105971940	-9.819000E+00	  0.105971940	6.030000E+01	  0.105971940	5.710400E+01	  0.105971940	3.575700E+01
431	  0.106172346	-9.814000E+00	  0.106172346	6.002000E+01	  0.106172346	5.730100E+01	  0.106172346	3.580500E+01
432	  0.106372744	-9.828000E+00	  0.106372744	5.972000E+01	  0.106372744	5.752400E+01	  0.106372744	3.576600E+01
433	  0.106573142	-9.823000E+00	  0.106573142	5.937100E+01	  0.106573142	5.777300E+01	  0.106573142	3.581800E+01
434	  0.106773548	-9.816000E+00	  0.106773548	5.905300E+01	  0.106773548	5.800000E+01	  0.106773548	3.587200E+01
435	  0.106973946	-9.826000E+00	  0.106973946	5.864400E+01	  0.106973946	5.830200E+01	  0.106973946	3.585500E+01
436	  0.107174344	-9.808000E+00	  0.107174344	5.828100E+01	  0.107174344	5.856100E+01	  0.107174344	3.596400E+01
437	  0.107374750	-9.809000E+00	  0.107374750	5.802500E+01	  0.107374750	5.874900E+01	  0.107374750	3.597500E+01
438	  0.107575148	-9.806000E+00	  0.107575148	5.762100E+01	  0.107575148	5.904700E+01	  0.107575148	3.601700E+01
439	  0.107775547	-9.803000E+00	  0.107775547	5.718100E+01	  0.107775547	5.937400E+01	  0.107775547	3.605000E+01
440	  0.107975952	-9.792000E+00	  0.107975952	5.684800E+01	  0.107975952	5.962000E+01	  0.107975952	3.612400E+01
441	  0.108176351	-9.781000E+00	  0.108176351	5.644200E+01	  0.108176351	5.992300E+01	  0.108176351	3.619200E+01
442	  0.108376749	-9.772000E+00	  0.108376749	5.601200E+01	  0.108376749	6.024800E+01	  0.108376749	3.625400E+01
443	  0.108577155	-9.761000E+00	  0.108577155	5.563100E+01	  0.108577155	6.053700E+01	  0.108577155	3.631800E+01
444	  0.108777553	-9.736000E+00	  0.108777553	5.521700E+01	  0.108777553	6.085200E+01	  0.108777553	3.645700E+01
445	  0.108977959	-9.717000E+00	  0.108977959	5.475000E+01	  0.108977959	6.121300E+01	  0.108977959	3.656300E+01
446	  0.109178357	-9.703000E+00	  0.109178357	5.428500E+01	  0.109178357	6.157700E+01	  0.109178357	3.664400E+01
447	  0.109378755	-9.698000E+00	  0.109378755	5.386300E+01	  0.109378755	6.191000E+01	  0.109378755	3.666900E+01
448	  0.109579161	-9.674000E+00	  0.109579161	5.338900E+01	  0.109579161	6.228800E+01	  0.109579161	3.679400E+01
449	  0.109779559	-9.653000E+00	  0.109779559	5.288300E+01	  0.109779559	6.269500E+01	  0.109779559	3.690200E+01
450	  0.109979957	-9.638000E+00	  0.109979957	5.250200E+01	  0.109979957	6.300600E+01	  0.109979957	3.697400E+01
451	  0.110180363	-9.619000E+00	  0.110180363	5.203300E+01	  0.110180363	6.339200E+01	  0.110180363	3.707100E+01
452	  0.110380761	-9.604000E+00	  0.110380761	5.151700E+01	  0.110380761	6.381900E+01	  0.110380761	3.713600E+01
453	  0.110581160	-9.586000E+00	  0.110581160	5.102800E+01	  0.110581160	6.423000E+01	  0.110581160	3.721800E+01
454	  0.110781565	-9.573000E+00	  0.110781565	5.046700E+01	  0.110781565	6.470400E+01	  0.110781565	3.726100E+01
455	  0.110981964	-9.552000E+00	  0.110981964	4.993600E+01	  0.110981964	6.516100E+01	  0.110981964	3.734600E+01
456	  0.111182362	-9.538000E+00	  0.111182362	4.947900E+01	  0.111182362	6.555700E+01	  0.111182362	3.739500E+01
457	  0.111382768	-9.518000E+00	  0.111382768	4.884200E+01	  0.111382768	6.611500E+01	  0.111382768	3.746000E+01
458	  0.111583166	-9.503000E+00	  0.111583166	4.833700E+01	  0.111583166	6.656200E+01	  0.111583166	3.750200E+01
459	  0.111783572	-9.488000E+00	  0.111783572	4.776300E+01	  0.111783572	6.707300E+01	  0.111783572	3.753500E+01
460	  0.111983970	-9.475000E+00	  0.111983970	4.709700E+01	  0.111983970	6.767100E+01	  0.111983970	3.753800E+01
461	  0.112184368	-9.465000E+00	  0.112184368	4.645400E+01	  0.112184368	6.825200E+01	  0.112184368	3.752000E+01
462	  0.112384774	-9.437000E+00	  0.112384774	4.587100E+01	  0.112384774	6.880100E+01	  0.112384774	3.760200E+01
463	  0.112585172	-9.424000E+00	  0.112585172	4.520200E+01	  0.112585172	6.942000E+01	  0.112585172	3.757700E+01
464	  0.112785570	-9.412000E+00	  0.112785570	4.457400E+01	  0.112785570	7.000800E+01	  0.112785570	3.754500E+01
465	  0.112985976	-9.402000E+00	  0.112985976	4.387600E+01	  0.112985976	7.066300E+01	  0.112985976	3.748300E+01
466	  0.113186374	-9.386000E+00	  0.113186374	4.308600E+01	  0.113186374	7.141700E+01	  0.113186374	3.742100E+01
467	  0.113386773	-9.363000E+00	  0.113386773	4.243000E+01	  0.113386773	7.206500E+01	  0.113386773	3.742300E+01
468	  0.113587178	-9.360000E+00	  0.113587178	4.165200E+01	  0.113587178	7.280500E+01	  0.113587178	3.726000E+01
469	  0.113787577	-9.344000E+00	  0.113787577	4.094900E+01	  0.113787577	7.349900E+01	  0.113787577	3.717800E+01
470	  0.113987975	-9.328000E+00	  0.113987975	4.021000E+01	  0.113987975	7.423600E+01	  0.113987975	3.707700E+01
471	  0.114188381	-9.332000E+00	  0.114188381	3.940800E+01	  0.114188381	7.500100E+01	  0.114188381	3.681400E+01
472	  0.114388779	-9.309000E+00	  0.114388779	3.856100E+01	  0.114388779	7.586900E+01	  0.114388779	3.668800E+01
473	  0.114589177	-9.296000E+00	  0.114589177	3.777900E+01	  0.114589177	7.665900E+01	  0.114589177	3.649800E+01
474	  0.114789583	-9.290000E+00	  0.114789583	3.692800E+01	  0.114789583	7.750600E+01	  0.114789583	3.622200E+01
475	  0.114989981	-9.274000E+00	  0.114989981	3.615500E+01	  0.114989981	7.830800E+01	  0.114989981	3.602300E+01
476	  0.115190387	-9.271000E+00	  0.115190387	3.528200E+01	  0.115190387	7.917700E+01	  0.115190387	3.567300E+01
477	  0.115390785	-9.262000E+00	  0.115390785	3.443600E+01	  0.115390785	8.003800E+01	  0.115390785	3.535200E+01
478	  0.115591183	-9.260000E+00	  0.115591183	3.360400E+01	  0.115591183	8.086700E+01	  0.115591183	3.496900E+01
479	  0.115791589	-9.250000E+00	  0.115791589	3.267200E+01	  0.115791589	8.181900E+01	  0.115791589	3.455800E+01
480	  0.115991987	-9.246000E+00	  0.115991987	3.178800E+01	  0.115991987	8.270400E+01	  0.115991987	3.410600E+01
481	  0.116192386	-9.250000E+00	  0.116192386	3.090000E+01	  0.116192386	8.356200E+01	  0.116192386	3.357600E+01
482	  0.116392791	-9.259000E+00	  0.116392791	2.999500E+01	  0.116392791	8.441000E+01	  0.116392791	3.297500E+01
483	  0.116593190	-9.253000E+00	  0.116593190	2.905300E+01	  0.116593190	8.534900E+01	  0.116593190	3.241600E+01
484	  0.116793588	-9.271000E+00	  0.116793588	2.815800E+01	  0.116793588	8.612600E+01	  0.116793588	3.170200E+01
485	  0.116993994	-9.275000E+00	  0.116993994	2.710500E+01	  0.116993994	8.710700E+01	  0.116993994	3.094100E+01
486	  0.117194392	-9.284000E+00	  0.117194392	2.611000E+01	  0.117194392	8.798900E+01	  0.117194392	3.014700E+01
487	  0.117394790	-9.299000E+00	  0.117394790	2.509000E+01	  0.117394790	8.884800E+01	  0.117394790	2.926700E+01
488	  0.117595196	-9.307000E+00	  0.117595196	2.414100E+01	  0.117595196	8.966100E+01	  0.117595196	2.845500E+01
489	  0.117795594	-9.329000E+00	  0.117795594	2.310200E+01	  0.117795594	9.045100E+01	  0.117795594	2.745000E+01
490	  0.117995992	-9.348000E+00	  0.117995992	2.197800E+01	  0.117995992	9.130200E+01	  0.117995992	2.635700E+01
491	  0.118196398	-9.376000E+00	  0.118196398	2.087100E+01	  0.118196398	9.204500E+01	  0.118196398	2.519100E+01
492	  0.118396796	-9.398000E+00	  0.118396796	1.981200E+01	  0.118396796	9.274800E+01	  0.118396796	2.407200E+01
493	  0.118597202	-9.425000E+00	  0.118597202	1.867000E+01	  0.118597202	9.344500E+01	  0.118597202	2.281700E+01
494	  0.118797600	-9.461000E+00	  0.118797600	1.754200E+01	  0.118797600	9.402300E+01	  0.118797600	2.150400E+01
495	  0.118997999	-9.495000E+00	  0.118997999	1.636300E+01	  0.118997999	9.459700E+01	  0.118997999	2.012300E+01
496	  0.119198404	-9.540000E+00	  0.119198404	1.509400E+01	  0.119198404	9.508900E+01	  0.119198404	1.857500E+01
497	  0.119398803	-9.581000E+00	  0.119398803	1.383200E+01	  0.119398803	9.554800E+01	  0.119398803	1.703800E+01
498	  0.119599201	-9.620000E+00	  0.119599201	1.260400E+01	  0.119599201	9.592700E+01	  0.119599201	1.552500E+01
499	  0.119799607	-9.671000E+00	  0.119799607	1.130800E+01	  0.119799607	9.618000E+01	  0.119799607	1.388500E+01
500	  0.120000005	-9.722000E+00	  0.120000005	1.002500E+01	  0.120000005	9.635500E+01	  0.120000005	1.225900E+01
