! Anritsu VNA Master:             	Model: MS2036C/10/77
! SN:             	1601066
! /bd0/18may26.balun/4a.r50.txt
! Existing Calibration Information:
! TYPE:             	Current Settings	Active Cal Settings
! TIME:             	05/26/2018 03:07:32 PM	05/26/2018 02:51:55 PM
! INTERNAL TEMP:    	59.3 C	59.5 C
! # POINTS:         	500	500
! START FREQ:       	20.000 MHz	20.000 MHz
! STOP FREQ:        	120.000 MHz	120.000 MHz
! SOURCE POWER:     	High	High
! IFBW:             	50 Hz	50 Hz
! AVG FACTOR:       	  1 	  1 
! REF PLANE 1:      	0 mm	0 mm
! REF PLANE 2:      	0 mm	0 mm
! CAL TYPE:         	Full S11	Full S11
! CAL METHOD:       	SOLT	SOLT
! CAL LINE TYPE:    	Coax	Coax
! DUT PORT 1:       	K-Conn(M)	K-Conn(M)
! DUT PORT 2:       	K-Conn(M)	K-Conn(M)
! CAL STATUS:       	OK: Accuracy High	--
! PROP-V:       	0.700
! CABLE LOSS:       	0.000 dB/m
! REF IMPEDANCE:       	50.0
! Trace Specific Parameters:	TR1	TR2	TR3	TR4
! TRACE.#.Y (GRAPH TYPE)	LOG MAG	PHASE	REAL IMPEDANCE	IMAGINARY IMPEDANCE
! TRACE.#.X 	FREQ.GHZ	FREQ.GHZ	FREQ.GHZ	FREQ.GHZ
! S-PARAMETER	S11	S11	S11	S11
! SMOOTH/APERTURE %	0	0	0	0
! WINDOW	NSL	NSL	NSL	NSL
! GATING	OFF	OFF	OFF	OFF
! FGTD	OFF	OFF	OFF	OFF
Marker Information per Trace:	TR1	TR2	TR3	TR4
!MK1	--	--	--	--
!MK2	--	--	--	--
!MK3	--	--	--	--
!MK4	--	--	--	--
!MK5	--	--	--	--
!MK6	--	--	--	--
!MK7	--	--	--	--
!MK8	--	--	--	--
PNT	TR1.FREQ.GHZ	TR1.LOG MAG.dB	TR2.FREQ.GHZ	TR2.PHASE.deg	TR3.FREQ.GHZ	TR3.REAL IMPEDANCE.ohm	TR4.FREQ.GHZ	TR4.IMAGINARY IMPEDANCE.ohm
1	  0.020000000	-3.930900E+01	  0.020000000	4.869500E+01	  0.020000000	5.071300E+01	  0.020000000	8.250000E-01
2	  0.020200402	-3.923200E+01	  0.020200402	4.899200E+01	  0.020200402	5.071500E+01	  0.020200402	8.360000E-01
3	  0.020400802	-3.920500E+01	  0.020400802	4.838800E+01	  0.020400802	5.072600E+01	  0.020400802	8.310000E-01
4	  0.020601204	-3.907100E+01	  0.020601204	4.853000E+01	  0.020601204	5.073500E+01	  0.020601204	8.460000E-01
5	  0.020801604	-3.895300E+01	  0.020801604	4.743400E+01	  0.020801604	5.076100E+01	  0.020801604	8.430000E-01
6	  0.021002004	-3.893800E+01	  0.021002004	4.817000E+01	  0.021002004	5.075200E+01	  0.021002004	8.540000E-01
7	  0.021202406	-3.873300E+01	  0.021202406	4.742600E+01	  0.021202406	5.078100E+01	  0.021202406	8.650000E-01
8	  0.021402806	-3.877000E+01	  0.021402806	4.747300E+01	  0.021402806	5.077700E+01	  0.021402806	8.620000E-01
9	  0.021603208	-3.863200E+01	  0.021603208	4.672800E+01	  0.021603208	5.080100E+01	  0.021603208	8.660000E-01
10	  0.021803608	-3.844700E+01	  0.021803608	4.734900E+01	  0.021803608	5.080800E+01	  0.021803608	8.930000E-01
11	  0.022004008	-3.835500E+01	  0.022004008	4.677000E+01	  0.022004008	5.082600E+01	  0.022004008	8.950000E-01
12	  0.022204408	-3.835300E+01	  0.022204408	4.656300E+01	  0.022204408	5.083000E+01	  0.022204408	8.920000E-01
13	  0.022404809	-3.812900E+01	  0.022404809	4.693200E+01	  0.022404809	5.084500E+01	  0.022404809	9.210000E-01
14	  0.022605211	-3.809000E+01	  0.022605211	4.689200E+01	  0.022605211	5.085000E+01	  0.022605211	9.250000E-01
15	  0.022805611	-3.788000E+01	  0.022805611	4.700700E+01	  0.022805611	5.086900E+01	  0.022805611	9.490000E-01
16	  0.023006011	-3.788800E+01	  0.023006011	4.714900E+01	  0.023006011	5.086500E+01	  0.023006011	9.510000E-01
17	  0.023206413	-3.783400E+01	  0.023206413	4.741400E+01	  0.023206413	5.086600E+01	  0.023206413	9.610000E-01
18	  0.023406813	-3.775400E+01	  0.023406813	4.796800E+01	  0.023406813	5.086500E+01	  0.023406813	9.780000E-01
19	  0.023607215	-3.759300E+01	  0.023607215	4.862000E+01	  0.023607215	5.086900E+01	  0.023607215	1.007000E+00
20	  0.023807615	-3.763900E+01	  0.023807615	4.842000E+01	  0.023807615	5.086800E+01	  0.023807615	9.980000E-01
21	  0.024008015	-3.763800E+01	  0.024008015	4.865900E+01	  0.024008015	5.086400E+01	  0.024008015	1.002000E+00
22	  0.024208417	-3.765500E+01	  0.024208417	4.886100E+01	  0.024208417	5.085900E+01	  0.024208417	1.003000E+00
23	  0.024408817	-3.761100E+01	  0.024408817	4.872700E+01	  0.024408817	5.086500E+01	  0.024408817	1.006000E+00
24	  0.024609219	-3.765200E+01	  0.024609219	4.857300E+01	  0.024609219	5.086400E+01	  0.024609219	9.990000E-01
25	  0.024809619	-3.760900E+01	  0.024809619	4.868700E+01	  0.024809619	5.086600E+01	  0.024809619	1.006000E+00
26	  0.025010020	-3.773600E+01	  0.025010020	4.845300E+01	  0.025010020	5.085800E+01	  0.025010020	9.880000E-01
27	  0.025210422	-3.768700E+01	  0.025210422	4.853400E+01	  0.025210422	5.086100E+01	  0.025210422	9.940000E-01
28	  0.025410822	-3.759400E+01	  0.025410822	4.759700E+01	  0.025410822	5.088700E+01	  0.025410822	9.910000E-01
29	  0.025611224	-3.767000E+01	  0.025611224	4.721400E+01	  0.025611224	5.088600E+01	  0.025611224	9.760000E-01
30	  0.025811624	-3.762400E+01	  0.025811624	4.751800E+01	  0.025811624	5.088600E+01	  0.025811624	9.860000E-01
31	  0.026012026	-3.758000E+01	  0.026012026	4.682000E+01	  0.026012026	5.090200E+01	  0.026012026	9.800000E-01
32	  0.026212426	-3.756800E+01	  0.026212426	4.584200E+01	  0.026212426	5.092000E+01	  0.026212426	9.660000E-01
33	  0.026412826	-3.745600E+01	  0.026412826	4.506200E+01	  0.026412826	5.094600E+01	  0.026412826	9.660000E-01
34	  0.026613226	-3.743400E+01	  0.026613226	4.464100E+01	  0.026613226	5.095600E+01	  0.026613226	9.620000E-01
35	  0.026813626	-3.723800E+01	  0.026813626	4.462100E+01	  0.026813626	5.097800E+01	  0.026813626	9.840000E-01
36	  0.027014028	-3.711700E+01	  0.027014028	4.396100E+01	  0.027014028	5.100300E+01	  0.027014028	9.860000E-01
37	  0.027214428	-3.699800E+01	  0.027214428	4.366000E+01	  0.027214428	5.102200E+01	  0.027214428	9.950000E-01
38	  0.027414829	-3.696300E+01	  0.027414829	4.346000E+01	  0.027414829	5.103000E+01	  0.027414829	9.950000E-01
39	  0.027615231	-3.692900E+01	  0.027615231	4.323900E+01	  0.027615231	5.103800E+01	  0.027615231	9.950000E-01
40	  0.027815631	-3.674400E+01	  0.027815631	4.329600E+01	  0.027815631	5.105900E+01	  0.027815631	1.019000E+00
41	  0.028016033	-3.658600E+01	  0.028016033	4.376100E+01	  0.028016033	5.107000E+01	  0.028016033	1.046000E+00
42	  0.028216433	-3.647700E+01	  0.028216433	4.382400E+01	  0.028216433	5.108200E+01	  0.028216433	1.061000E+00
43	  0.028416833	-3.634500E+01	  0.028416833	4.409100E+01	  0.028416833	5.109400E+01	  0.028416833	1.083000E+00
44	  0.028617235	-3.623400E+01	  0.028617235	4.399000E+01	  0.028617235	5.111000E+01	  0.028617235	1.095000E+00
45	  0.028817635	-3.613300E+01	  0.028817635	4.472400E+01	  0.028817635	5.110800E+01	  0.028817635	1.122000E+00
46	  0.029018037	-3.617400E+01	  0.029018037	4.479500E+01	  0.029018037	5.110200E+01	  0.029018037	1.118000E+00
47	  0.029218437	-3.608300E+01	  0.029218437	4.521600E+01	  0.029218437	5.110500E+01	  0.029218437	1.139000E+00
48	  0.029418837	-3.604100E+01	  0.029418837	4.551700E+01	  0.029418837	5.110400E+01	  0.029418837	1.150000E+00
49	  0.029619239	-3.610900E+01	  0.029619239	4.641500E+01	  0.029619239	5.107700E+01	  0.029619239	1.158000E+00
50	  0.029819639	-3.608400E+01	  0.029819639	4.649500E+01	  0.029819639	5.107800E+01	  0.029819639	1.163000E+00
51	  0.030020041	-3.604400E+01	  0.030020041	4.639100E+01	  0.030020041	5.108600E+01	  0.030020041	1.166000E+00
52	  0.030220442	-3.616400E+01	  0.030220442	4.657100E+01	  0.030220442	5.106700E+01	  0.030220442	1.153000E+00
53	  0.030420844	-3.616500E+01	  0.030420844	4.667100E+01	  0.030420844	5.106500E+01	  0.030420844	1.155000E+00
54	  0.030621244	-3.619900E+01	  0.030621244	4.636800E+01	  0.030621244	5.106700E+01	  0.030621244	1.145000E+00
55	  0.030821644	-3.621900E+01	  0.030821644	4.585400E+01	  0.030821644	5.107500E+01	  0.030821644	1.133000E+00
56	  0.031022044	-3.616700E+01	  0.031022044	4.580300E+01	  0.031022044	5.108200E+01	  0.031022044	1.139000E+00
57	  0.031222444	-3.626700E+01	  0.031222444	4.551100E+01	  0.031222444	5.107600E+01	  0.031222444	1.120000E+00
58	  0.031422846	-3.615400E+01	  0.031422846	4.496800E+01	  0.031422846	5.110100E+01	  0.031422846	1.124000E+00
59	  0.031623244	-3.612500E+01	  0.031623244	4.369300E+01	  0.031623244	5.113000E+01	  0.031623244	1.103000E+00
60	  0.031823646	-3.614400E+01	  0.031823646	4.329900E+01	  0.031823646	5.113500E+01	  0.031823646	1.093000E+00
61	  0.032024048	-3.598100E+01	  0.032024048	4.234300E+01	  0.032024048	5.117500E+01	  0.032024048	1.095000E+00
62	  0.032224450	-3.590100E+01	  0.032224450	4.228900E+01	  0.032224450	5.118800E+01	  0.032224450	1.104000E+00
63	  0.032424849	-3.587700E+01	  0.032424849	4.201700E+01	  0.032424849	5.119600E+01	  0.032424849	1.102000E+00
64	  0.032625251	-3.573700E+01	  0.032625251	4.185000E+01	  0.032625251	5.121900E+01	  0.032625251	1.116000E+00
65	  0.032825653	-3.567400E+01	  0.032825653	4.138600E+01	  0.032825653	5.123700E+01	  0.032825653	1.115000E+00
66	  0.033026051	-3.547600E+01	  0.033026051	4.125300E+01	  0.033026051	5.126800E+01	  0.033026051	1.138000E+00
67	  0.033226453	-3.533400E+01	  0.033226453	4.149900E+01	  0.033226453	5.128400E+01	  0.033226453	1.163000E+00
68	  0.033426855	-3.519900E+01	  0.033426855	4.158700E+01	  0.033426855	5.130300E+01	  0.033426855	1.183000E+00
69	  0.033627257	-3.506900E+01	  0.033627257	4.139300E+01	  0.033627257	5.132700E+01	  0.033627257	1.197000E+00
70	  0.033827655	-3.502000E+01	  0.033827655	4.173100E+01	  0.033827655	5.132700E+01	  0.033827655	1.212000E+00
71	  0.034028057	-3.492800E+01	  0.034028057	4.227800E+01	  0.034028057	5.132900E+01	  0.034028057	1.238000E+00
72	  0.034228459	-3.483700E+01	  0.034228459	4.258800E+01	  0.034228459	5.133600E+01	  0.034228459	1.259000E+00
73	  0.034428857	-3.474000E+01	  0.034428857	4.327700E+01	  0.034428857	5.133500E+01	  0.034428857	1.289000E+00
74	  0.034629259	-3.468900E+01	  0.034629259	4.367700E+01	  0.034629259	5.133400E+01	  0.034629259	1.307000E+00
75	  0.034829661	-3.475500E+01	  0.034829661	4.424800E+01	  0.034829661	5.131000E+01	  0.034829661	1.310000E+00
76	  0.035030060	-3.472100E+01	  0.035030060	4.547400E+01	  0.035030060	5.128600E+01	  0.035030060	1.343000E+00
77	  0.035230462	-3.481600E+01	  0.035230462	4.519600E+01	  0.035230462	5.127900E+01	  0.035230462	1.322000E+00
78	  0.035430863	-3.476300E+01	  0.035430863	4.639500E+01	  0.035430863	5.125800E+01	  0.035430863	1.356000E+00
79	  0.035631265	-3.486800E+01	  0.035631265	4.676700E+01	  0.035631265	5.123400E+01	  0.035631265	1.348000E+00
80	  0.035831664	-3.493000E+01	  0.035831664	4.647600E+01	  0.035831664	5.123200E+01	  0.035831664	1.332000E+00
81	  0.036032066	-3.504100E+01	  0.036032066	4.587500E+01	  0.036032066	5.123000E+01	  0.036032066	1.302000E+00
82	  0.036232468	-3.511500E+01	  0.036232468	4.601600E+01	  0.036232468	5.121700E+01	  0.036232468	1.293000E+00
83	  0.036432866	-3.519100E+01	  0.036432866	4.553500E+01	  0.036432866	5.121700E+01	  0.036432866	1.272000E+00
84	  0.036633268	-3.525000E+01	  0.036633268	4.530600E+01	  0.036633268	5.121400E+01	  0.036633268	1.258000E+00
85	  0.036833670	-3.530400E+01	  0.036833670	4.427200E+01	  0.036833670	5.122900E+01	  0.036833670	1.228000E+00
86	  0.037034072	-3.527000E+01	  0.037034072	4.342200E+01	  0.037034072	5.125300E+01	  0.037034072	1.214000E+00
87	  0.037234470	-3.525200E+01	  0.037234470	4.279600E+01	  0.037234470	5.126900E+01	  0.037234470	1.203000E+00
88	  0.037434869	-3.520000E+01	  0.037434869	4.171100E+01	  0.037434869	5.130000E+01	  0.037434869	1.186000E+00
89	  0.037635271	-3.512900E+01	  0.037635271	4.073600E+01	  0.037635271	5.133100E+01	  0.037635271	1.174000E+00
90	  0.037835669	-3.509800E+01	  0.037835669	4.048100E+01	  0.037835669	5.134100E+01	  0.037835669	1.172000E+00
91	  0.038036071	-3.491800E+01	  0.038036071	3.975100E+01	  0.038036071	5.138500E+01	  0.038036071	1.180000E+00
92	  0.038236473	-3.485800E+01	  0.038236473	3.924300E+01	  0.038236473	5.140600E+01	  0.038236473	1.175000E+00
93	  0.038436871	-3.469400E+01	  0.038436871	3.895300E+01	  0.038436871	5.143900E+01	  0.038436871	1.191000E+00
94	  0.038637273	-3.461400E+01	  0.038637273	3.878400E+01	  0.038637273	5.145600E+01	  0.038637273	1.198000E+00
95	  0.038837675	-3.443900E+01	  0.038837675	3.845800E+01	  0.038837675	5.149300E+01	  0.038837675	1.215000E+00
96	  0.039038073	-3.436000E+01	  0.039038073	3.840100E+01	  0.039038073	5.150800E+01	  0.039038073	1.225000E+00
97	  0.039238475	-3.418200E+01	  0.039238475	3.891600E+01	  0.039238475	5.152700E+01	  0.039238475	1.265000E+00
98	  0.039438877	-3.401100E+01	  0.039438877	3.903800E+01	  0.039438877	5.155500E+01	  0.039438877	1.294000E+00
99	  0.039639279	-3.390200E+01	  0.039639279	4.015000E+01	  0.039639279	5.154800E+01	  0.039639279	1.341000E+00
100	  0.039839678	-3.388000E+01	  0.039839678	4.061100E+01	  0.039839678	5.154100E+01	  0.039839678	1.357000E+00
101	  0.040040080	-3.376200E+01	  0.040040080	4.133900E+01	  0.040040080	5.154400E+01	  0.040040080	1.396000E+00
102	  0.040240481	-3.377700E+01	  0.040240481	4.203400E+01	  0.040240481	5.152400E+01	  0.040240481	1.413000E+00
103	  0.040440880	-3.376400E+01	  0.040440880	4.317200E+01	  0.040440880	5.149700E+01	  0.040440880	1.445000E+00
104	  0.040641282	-3.375200E+01	  0.040641282	4.353800E+01	  0.040641282	5.148900E+01	  0.040641282	1.456000E+00
105	  0.040841684	-3.386200E+01	  0.040841684	4.383500E+01	  0.040841684	5.146300E+01	  0.040841684	1.445000E+00
106	  0.041042086	-3.391800E+01	  0.041042086	4.440900E+01	  0.041042086	5.143800E+01	  0.041042086	1.450000E+00
107	  0.041242484	-3.401400E+01	  0.041242484	4.475400E+01	  0.041242484	5.141400E+01	  0.041242484	1.442000E+00
108	  0.041442886	-3.410100E+01	  0.041442886	4.488200E+01	  0.041442886	5.139700E+01	  0.041442886	1.431000E+00
109	  0.041643288	-3.418700E+01	  0.041643288	4.463900E+01	  0.041643288	5.138900E+01	  0.041643288	1.410000E+00
110	  0.041843686	-3.430400E+01	  0.041843686	4.439800E+01	  0.041843686	5.137600E+01	  0.041843686	1.385000E+00
111	  0.042044088	-3.434400E+01	  0.042044088	4.423700E+01	  0.042044088	5.137400E+01	  0.042044088	1.375000E+00
112	  0.042244490	-3.452900E+01	  0.042244490	4.315500E+01	  0.042244490	5.137100E+01	  0.042244490	1.319000E+00
113	  0.042444889	-3.455500E+01	  0.042444889	4.282800E+01	  0.042444889	5.137400E+01	  0.042444889	1.307000E+00
114	  0.042645290	-3.460900E+01	  0.042645290	4.186000E+01	  0.042645290	5.138800E+01	  0.042645290	1.276000E+00
115	  0.042845692	-3.472100E+01	  0.042845692	4.082700E+01	  0.042845692	5.139300E+01	  0.042845692	1.234000E+00
116	  0.043046094	-3.460600E+01	  0.043046094	3.987400E+01	  0.043046094	5.143300E+01	  0.043046094	1.227000E+00
117	  0.043246493	-3.454500E+01	  0.043246493	3.866700E+01	  0.043246493	5.147000E+01	  0.043246493	1.205000E+00
118	  0.043446895	-3.450100E+01	  0.043446895	3.761400E+01	  0.043446895	5.150000E+01	  0.043446895	1.184000E+00
119	  0.043647297	-3.433900E+01	  0.043647297	3.679000E+01	  0.043647297	5.154600E+01	  0.043647297	1.185000E+00
120	  0.043847695	-3.425400E+01	  0.043847695	3.623700E+01	  0.043847695	5.157300E+01	  0.043847695	1.181000E+00
121	  0.044048097	-3.409800E+01	  0.044048097	3.570700E+01	  0.044048097	5.161400E+01	  0.044048097	1.189000E+00
122	  0.044248499	-3.394600E+01	  0.044248499	3.514000E+01	  0.044248499	5.165500E+01	  0.044248499	1.194000E+00
123	  0.044448901	-3.374700E+01	  0.044448901	3.512200E+01	  0.044448901	5.169400E+01	  0.044448901	1.222000E+00
124	  0.044649299	-3.361700E+01	  0.044649299	3.498500E+01	  0.044649299	5.172300E+01	  0.044649299	1.237000E+00
125	  0.044849701	-3.342800E+01	  0.044849701	3.555200E+01	  0.044849701	5.174800E+01	  0.044849701	1.282000E+00
126	  0.045050103	-3.329300E+01	  0.045050103	3.599900E+01	  0.045050103	5.176500E+01	  0.045050103	1.317000E+00
127	  0.045250501	-3.321200E+01	  0.045250501	3.599100E+01	  0.045250501	5.178200E+01	  0.045250501	1.330000E+00
128	  0.045450903	-3.314700E+01	  0.045450903	3.681600E+01	  0.045450903	5.177500E+01	  0.045450903	1.366000E+00
129	  0.045651305	-3.305200E+01	  0.045651305	3.723900E+01	  0.045651305	5.178400E+01	  0.045651305	1.395000E+00
130	  0.045851704	-3.300500E+01	  0.045851704	3.820900E+01	  0.045851704	5.176900E+01	  0.045851704	1.433000E+00
131	  0.046052106	-3.297400E+01	  0.046052106	3.898100E+01	  0.046052106	5.175500E+01	  0.046052106	1.462000E+00
132	  0.046252504	-3.300900E+01	  0.046252504	3.933800E+01	  0.046252504	5.173800E+01	  0.046252504	1.467000E+00
133	  0.046452906	-3.298100E+01	  0.046452906	3.972300E+01	  0.046452906	5.173400E+01	  0.046452906	1.484000E+00
134	  0.046653304	-3.309900E+01	  0.046653304	4.057400E+01	  0.046653304	5.168800E+01	  0.046653304	1.488000E+00
135	  0.046853706	-3.316300E+01	  0.046853706	4.140000E+01	  0.046853706	5.165300E+01	  0.046853706	1.501000E+00
136	  0.047054108	-3.324800E+01	  0.047054108	4.096100E+01	  0.047054108	5.164800E+01	  0.047054108	1.473000E+00
137	  0.047254506	-3.337400E+01	  0.047254506	4.174700E+01	  0.047254506	5.160400E+01	  0.047254506	1.474000E+00
138	  0.047454908	-3.345700E+01	  0.047454908	4.106800E+01	  0.047454908	5.160600E+01	  0.047454908	1.440000E+00
139	  0.047655310	-3.353300E+01	  0.047655310	4.133000E+01	  0.047655310	5.158500E+01	  0.047655310	1.435000E+00
140	  0.047855709	-3.364400E+01	  0.047855709	4.113900E+01	  0.047855709	5.157000E+01	  0.047855709	1.411000E+00
141	  0.048056111	-3.372800E+01	  0.048056111	4.033100E+01	  0.048056111	5.157500E+01	  0.048056111	1.374000E+00
142	  0.048256513	-3.381000E+01	  0.048256513	3.962500E+01	  0.048256513	5.157800E+01	  0.048256513	1.342000E+00
143	  0.048456915	-3.385100E+01	  0.048456915	3.849100E+01	  0.048456915	5.159700E+01	  0.048456915	1.304000E+00
144	  0.048657313	-3.382300E+01	  0.048657313	3.706800E+01	  0.048657313	5.163500E+01	  0.048657313	1.268000E+00
145	  0.048857715	-3.383500E+01	  0.048857715	3.679100E+01	  0.048857715	5.163900E+01	  0.048857715	1.258000E+00
146	  0.049058117	-3.384000E+01	  0.049058117	3.554800E+01	  0.049058117	5.166600E+01	  0.049058117	1.221000E+00
147	  0.049258515	-3.370100E+01	  0.049258515	3.481100E+01	  0.049258515	5.171000E+01	  0.049258515	1.219000E+00
148	  0.049458917	-3.357500E+01	  0.049458917	3.436600E+01	  0.049458917	5.174500E+01	  0.049458917	1.224000E+00
149	  0.049659319	-3.350000E+01	  0.049659319	3.342500E+01	  0.049659319	5.178100E+01	  0.049659319	1.206000E+00
150	  0.049859721	-3.334500E+01	  0.049859721	3.304500E+01	  0.049859721	5.182100E+01	  0.049859721	1.216000E+00
151	  0.050060119	-3.323000E+01	  0.050060119	3.243000E+01	  0.050060119	5.186000E+01	  0.050060119	1.213000E+00
152	  0.050260521	-3.308000E+01	  0.050260521	3.208900E+01	  0.050260521	5.190000E+01	  0.050260521	1.223000E+00
153	  0.050460923	-3.291200E+01	  0.050460923	3.208700E+01	  0.050460923	5.193800E+01	  0.050460923	1.248000E+00
154	  0.050661322	-3.276600E+01	  0.050661322	3.247000E+01	  0.050661322	5.196200E+01	  0.050661322	1.283000E+00
155	  0.050861724	-3.274000E+01	  0.050861724	3.312300E+01	  0.050861724	5.195300E+01	  0.050861724	1.310000E+00
156	  0.051062126	-3.257500E+01	  0.051062126	3.355500E+01	  0.051062126	5.198000E+01	  0.051062126	1.351000E+00
157	  0.051262524	-3.254500E+01	  0.051262524	3.398700E+01	  0.051262524	5.197600E+01	  0.051262524	1.371000E+00
158	  0.051462926	-3.247000E+01	  0.051462926	3.473600E+01	  0.051462926	5.197400E+01	  0.051462926	1.410000E+00
159	  0.051663328	-3.248400E+01	  0.051663328	3.509400E+01	  0.051663328	5.196200E+01	  0.051663328	1.420000E+00
160	  0.051863730	-3.245000E+01	  0.051863730	3.551000E+01	  0.051863730	5.195900E+01	  0.051863730	1.440000E+00
161	  0.052064128	-3.247300E+01	  0.052064128	3.635200E+01	  0.052064128	5.193200E+01	  0.052064128	1.465000E+00
162	  0.052264530	-3.249100E+01	  0.052264530	3.638100E+01	  0.052264530	5.192700E+01	  0.052264530	1.463000E+00
163	  0.052464932	-3.252400E+01	  0.052464932	3.678000E+01	  0.052464932	5.190900E+01	  0.052464932	1.470000E+00
164	  0.052665330	-3.260500E+01	  0.052665330	3.708000E+01	  0.052665330	5.188300E+01	  0.052665330	1.466000E+00
165	  0.052865732	-3.259700E+01	  0.052865732	3.685400E+01	  0.052865732	5.189100E+01	  0.052865732	1.460000E+00
166	  0.053066134	-3.269700E+01	  0.053066134	3.720100E+01	  0.053066134	5.186000E+01	  0.053066134	1.454000E+00
167	  0.053266536	-3.279700E+01	  0.053266536	3.687400E+01	  0.053266536	5.184700E+01	  0.053266536	1.426000E+00
168	  0.053466935	-3.283700E+01	  0.053466935	3.657000E+01	  0.053466935	5.184600E+01	  0.053466935	1.410000E+00
169	  0.053667337	-3.292700E+01	  0.053667337	3.622800E+01	  0.053667337	5.183600E+01	  0.053667337	1.383000E+00
170	  0.053867739	-3.300700E+01	  0.053867739	3.566500E+01	  0.053867739	5.183200E+01	  0.053867739	1.352000E+00
171	  0.054068137	-3.300300E+01	  0.054068137	3.496400E+01	  0.054068137	5.185000E+01	  0.054068137	1.330000E+00
172	  0.054268539	-3.300700E+01	  0.054268539	3.463500E+01	  0.054268539	5.185700E+01	  0.054268539	1.319000E+00
173	  0.054468941	-3.299500E+01	  0.054468941	3.381300E+01	  0.054468941	5.187900E+01	  0.054468941	1.293000E+00
174	  0.054669339	-3.296500E+01	  0.054669339	3.298500E+01	  0.054669339	5.190500E+01	  0.054669339	1.270000E+00
175	  0.054869737	-3.295000E+01	  0.054869737	3.220300E+01	  0.054869737	5.192600E+01	  0.054869737	1.246000E+00
176	  0.055070139	-3.282400E+01	  0.055070139	3.135900E+01	  0.055070139	5.197400E+01	  0.055070139	1.236000E+00
177	  0.055270538	-3.273300E+01	  0.055270538	3.140800E+01	  0.055270538	5.199400E+01	  0.055270538	1.251000E+00
178	  0.055470940	-3.270200E+01	  0.055470940	3.100000E+01	  0.055470940	5.201000E+01	  0.055470940	1.241000E+00
179	  0.055671342	-3.257400E+01	  0.055671342	3.080300E+01	  0.055671342	5.204500E+01	  0.055671342	1.253000E+00
180	  0.055871744	-3.250600E+01	  0.055871744	3.094600E+01	  0.055871744	5.205800E+01	  0.055871744	1.269000E+00
181	  0.056072142	-3.240200E+01	  0.056072142	3.079300E+01	  0.056072142	5.208700E+01	  0.056072142	1.279000E+00
182	  0.056272544	-3.231500E+01	  0.056272544	3.053300E+01	  0.056272544	5.211400E+01	  0.056272544	1.283000E+00
183	  0.056472946	-3.227300E+01	  0.056472946	3.051100E+01	  0.056472946	5.212500E+01	  0.056472946	1.289000E+00
184	  0.056673344	-3.213900E+01	  0.056673344	3.138500E+01	  0.056673344	5.213800E+01	  0.056673344	1.343000E+00
185	  0.056873746	-3.217500E+01	  0.056873746	3.122900E+01	  0.056873746	5.213200E+01	  0.056873746	1.331000E+00
186	  0.057074148	-3.206900E+01	  0.057074148	3.171900E+01	  0.057074148	5.214700E+01	  0.057074148	1.367000E+00
187	  0.057274550	-3.208900E+01	  0.057274550	3.189000E+01	  0.057274550	5.213800E+01	  0.057274550	1.370000E+00
188	  0.057474948	-3.209300E+01	  0.057474948	3.239900E+01	  0.057474948	5.212400E+01	  0.057474948	1.388000E+00
189	  0.057675350	-3.211700E+01	  0.057675350	3.249300E+01	  0.057675350	5.211500E+01	  0.057675350	1.388000E+00
190	  0.057875752	-3.212300E+01	  0.057875752	3.286700E+01	  0.057875752	5.210400E+01	  0.057875752	1.401000E+00
191	  0.058076151	-3.219900E+01	  0.058076151	3.310100E+01	  0.058076151	5.208000E+01	  0.058076151	1.397000E+00
192	  0.058276553	-3.223600E+01	  0.058276553	3.274900E+01	  0.058276553	5.208000E+01	  0.058276553	1.378000E+00
193	  0.058476955	-3.227500E+01	  0.058476955	3.282900E+01	  0.058476955	5.206800E+01	  0.058476955	1.374000E+00
194	  0.058677353	-3.233600E+01	  0.058677353	3.245300E+01	  0.058677353	5.206300E+01	  0.058677353	1.351000E+00
195	  0.058877755	-3.235800E+01	  0.058877755	3.247900E+01	  0.058877755	5.205700E+01	  0.058877755	1.348000E+00
196	  0.059078157	-3.244800E+01	  0.059078157	3.190800E+01	  0.059078157	5.204900E+01	  0.059078157	1.313000E+00
197	  0.059278559	-3.250200E+01	  0.059278559	3.132300E+01	  0.059278559	5.205000E+01	  0.059278559	1.283000E+00
198	  0.059478957	-3.252200E+01	  0.059478957	3.097200E+01	  0.059478957	5.205400E+01	  0.059478957	1.267000E+00
199	  0.059679359	-3.254500E+01	  0.059679359	2.991500E+01	  0.059679359	5.207200E+01	  0.059679359	1.225000E+00
200	  0.059879761	-3.251100E+01	  0.059879761	2.948600E+01	  0.059879761	5.209000E+01	  0.059879761	1.215000E+00
201	  0.060080159	-3.244100E+01	  0.060080159	2.861400E+01	  0.060080159	5.212600E+01	  0.060080159	1.192000E+00
202	  0.060280561	-3.237900E+01	  0.060280561	2.821200E+01	  0.060280561	5.215000E+01	  0.060280561	1.186000E+00
203	  0.060480963	-3.232300E+01	  0.060480963	2.759400E+01	  0.060480963	5.217800E+01	  0.060480963	1.170000E+00
204	  0.060681365	-3.224300E+01	  0.060681365	2.707800E+01	  0.060681365	5.220900E+01	  0.060681365	1.161000E+00
205	  0.060881764	-3.216200E+01	  0.060881764	2.696300E+01	  0.060881764	5.223300E+01	  0.060881764	1.168000E+00
206	  0.061082166	-3.205500E+01	  0.061082166	2.682900E+01	  0.061082166	5.226400E+01	  0.061082166	1.178000E+00
207	  0.061282568	-3.196300E+01	  0.061282568	2.657800E+01	  0.061282568	5.229400E+01	  0.061282568	1.181000E+00
208	  0.061482966	-3.189700E+01	  0.061482966	2.676200E+01	  0.061482966	5.230700E+01	  0.061482966	1.198000E+00
209	  0.061683368	-3.183400E+01	  0.061683368	2.657800E+01	  0.061683368	5.232900E+01	  0.061683368	1.199000E+00
210	  0.061883770	-3.172600E+01	  0.061883770	2.685100E+01	  0.061883770	5.235200E+01	  0.061883770	1.226000E+00
211	  0.062084168	-3.167400E+01	  0.062084168	2.697500E+01	  0.062084168	5.236400E+01	  0.062084168	1.239000E+00
212	  0.062284570	-3.161600E+01	  0.062284570	2.741000E+01	  0.062284570	5.237000E+01	  0.062284570	1.266000E+00
213	  0.062484972	-3.159200E+01	  0.062484972	2.771600E+01	  0.062484972	5.236900E+01	  0.062484972	1.283000E+00
214	  0.062685370	-3.149400E+01	  0.062685370	2.778000E+01	  0.062685370	5.239500E+01	  0.062685370	1.301000E+00
215	  0.062885776	-3.150000E+01	  0.062885776	2.840800E+01	  0.062885776	5.237900E+01	  0.062885776	1.326000E+00
216	  0.063086174	-3.147800E+01	  0.063086174	2.805600E+01	  0.063086174	5.239300E+01	  0.063086174	1.315000E+00
217	  0.063286573	-3.154800E+01	  0.063286573	2.856200E+01	  0.063286573	5.236200E+01	  0.063286573	1.325000E+00
218	  0.063486971	-3.161700E+01	  0.063486971	2.880000E+01	  0.063486971	5.233700E+01	  0.063486971	1.324000E+00
219	  0.063687377	-3.163100E+01	  0.063687377	2.921800E+01	  0.063687377	5.232300E+01	  0.063687377	1.339000E+00
220	  0.063887775	-3.169100E+01	  0.063887775	2.882500E+01	  0.063887775	5.231600E+01	  0.063887775	1.313000E+00
221	  0.064088173	-3.170500E+01	  0.064088173	2.889000E+01	  0.064088173	5.231100E+01	  0.064088173	1.314000E+00
222	  0.064288579	-3.179200E+01	  0.064288579	2.881500E+01	  0.064288579	5.228900E+01	  0.064288579	1.297000E+00
223	  0.064488977	-3.174100E+01	  0.064488977	2.824300E+01	  0.064488977	5.231600E+01	  0.064488977	1.282000E+00
224	  0.064689375	-3.183800E+01	  0.064689375	2.748200E+01	  0.064689375	5.230700E+01	  0.064689375	1.236000E+00
225	  0.064889781	-3.180100E+01	  0.064889781	2.767800E+01	  0.064889781	5.231300E+01	  0.064889781	1.249000E+00
226	  0.065090179	-3.184500E+01	  0.065090179	2.668600E+01	  0.065090179	5.232300E+01	  0.065090179	1.202000E+00
227	  0.065290578	-3.177200E+01	  0.065290578	2.650200E+01	  0.065290578	5.234700E+01	  0.065290578	1.205000E+00
228	  0.065490983	-3.182900E+01	  0.065490983	2.615700E+01	  0.065490983	5.233900E+01	  0.065490983	1.182000E+00
229	  0.065691382	-3.179500E+01	  0.065691382	2.539600E+01	  0.065691382	5.236500E+01	  0.065691382	1.155000E+00
230	  0.065891780	-3.176300E+01	  0.065891780	2.484500E+01	  0.065891780	5.238500E+01	  0.065891780	1.137000E+00
231	  0.066092186	-3.170000E+01	  0.066092186	2.454500E+01	  0.066092186	5.240900E+01	  0.066092186	1.132000E+00
232	  0.066292584	-3.169000E+01	  0.066292584	2.333000E+01	  0.066292584	5.243700E+01	  0.066292584	1.081000E+00
233	  0.066492982	-3.162100E+01	  0.066492982	2.350900E+01	  0.066492982	5.245300E+01	  0.066492982	1.098000E+00
234	  0.066693388	-3.148900E+01	  0.066693388	2.357500E+01	  0.066693388	5.249000E+01	  0.066693388	1.119000E+00
235	  0.066893786	-3.140300E+01	  0.066893786	2.339700E+01	  0.066893786	5.251900E+01	  0.066893786	1.123000E+00
236	  0.067094192	-3.138100E+01	  0.067094192	2.338100E+01	  0.067094192	5.252600E+01	  0.067094192	1.125000E+00
237	  0.067294590	-3.125100E+01	  0.067294590	2.291000E+01	  0.067294590	5.257500E+01	  0.067294590	1.121000E+00
238	  0.067494988	-3.124100E+01	  0.067494988	2.310600E+01	  0.067494988	5.257300E+01	  0.067494988	1.131000E+00
239	  0.067695394	-3.115500E+01	  0.067695394	2.351400E+01	  0.067695394	5.259100E+01	  0.067695394	1.162000E+00
240	  0.067895792	-3.108600E+01	  0.067895792	2.361600E+01	  0.067895792	5.261000E+01	  0.067895792	1.177000E+00
241	  0.068096191	-3.111000E+01	  0.068096191	2.397000E+01	  0.068096191	5.259500E+01	  0.068096191	1.190000E+00
242	  0.068296596	-3.106800E+01	  0.068296596	2.367200E+01	  0.068296596	5.261400E+01	  0.068296596	1.182000E+00
243	  0.068496995	-3.101200E+01	  0.068496995	2.432700E+01	  0.068496995	5.261700E+01	  0.068496995	1.220000E+00
244	  0.068697393	-3.104400E+01	  0.068697393	2.474600E+01	  0.068697393	5.259800E+01	  0.068697393	1.235000E+00
245	  0.068897791	-3.101200E+01	  0.068897791	2.501000E+01	  0.068897791	5.260100E+01	  0.068897791	1.252000E+00
246	  0.069098189	-3.103100E+01	  0.069098189	2.473400E+01	  0.069098189	5.260200E+01	  0.069098189	1.237000E+00
247	  0.069298595	-3.100500E+01	  0.069298595	2.499400E+01	  0.069298595	5.260400E+01	  0.069298595	1.253000E+00
248	  0.069498993	-3.112500E+01	  0.069498993	2.511300E+01	  0.069498993	5.256500E+01	  0.069498993	1.240000E+00
249	  0.069699399	-3.109000E+01	  0.069699399	2.480700E+01	  0.069699399	5.258200E+01	  0.069699399	1.231000E+00
250	  0.069899797	-3.113100E+01	  0.069899797	2.451500E+01	  0.069899797	5.257700E+01	  0.069899797	1.212000E+00
251	  0.070100196	-3.108000E+01	  0.070100196	2.465000E+01	  0.070100196	5.258900E+01	  0.070100196	1.225000E+00
252	  0.070300601	-3.118300E+01	  0.070300601	2.425900E+01	  0.070300601	5.256600E+01	  0.070300601	1.192000E+00
253	  0.070501000	-3.120400E+01	  0.070501000	2.406600E+01	  0.070501000	5.256400E+01	  0.070501000	1.181000E+00
254	  0.070701398	-3.122700E+01	  0.070701398	2.434900E+01	  0.070701398	5.255100E+01	  0.070701398	1.190000E+00
255	  0.070901804	-3.116600E+01	  0.070901804	2.328800E+01	  0.070901804	5.259200E+01	  0.070901804	1.150000E+00
256	  0.071102202	-3.115700E+01	  0.071102202	2.328100E+01	  0.071102202	5.259500E+01	  0.071102202	1.151000E+00
257	  0.071302600	-3.115900E+01	  0.071302600	2.281900E+01	  0.071302600	5.260400E+01	  0.071302600	1.129000E+00
258	  0.071503006	-3.121700E+01	  0.071503006	2.240100E+01	  0.071503006	5.259500E+01	  0.071503006	1.102000E+00
259	  0.071703404	-3.110200E+01	  0.071703404	2.247000E+01	  0.071703404	5.262900E+01	  0.071703404	1.121000E+00
260	  0.071903802	-3.107000E+01	  0.071903802	2.190200E+01	  0.071903802	5.265100E+01	  0.071903802	1.099000E+00
261	  0.072104208	-3.104200E+01	  0.072104208	2.199100E+01	  0.072104208	5.265800E+01	  0.072104208	1.107000E+00
262	  0.072304606	-3.100200E+01	  0.072304606	2.156600E+01	  0.072304606	5.267900E+01	  0.072304606	1.092000E+00
263	  0.072505005	-3.091400E+01	  0.072505005	2.165300E+01	  0.072505005	5.270500E+01	  0.072505005	1.107000E+00
264	  0.072705410	-3.087800E+01	  0.072705410	2.136700E+01	  0.072705410	5.272200E+01	  0.072705410	1.098000E+00
265	  0.072905809	-3.078100E+01	  0.072905809	2.128500E+01	  0.072905809	5.275500E+01	  0.072905809	1.107000E+00
266	  0.073106214	-3.084600E+01	  0.073106214	2.147300E+01	  0.073106214	5.273000E+01	  0.073106214	1.108000E+00
267	  0.073306613	-3.076800E+01	  0.073306613	2.173700E+01	  0.073306613	5.275000E+01	  0.073306613	1.131000E+00
268	  0.073507011	-3.074800E+01	  0.073507011	2.175200E+01	  0.073507011	5.275600E+01	  0.073507011	1.135000E+00
269	  0.073707417	-3.079800E+01	  0.073707417	2.175800E+01	  0.073707417	5.274000E+01	  0.073707417	1.128000E+00
270	  0.073907815	-3.078800E+01	  0.073907815	2.193400E+01	  0.073907815	5.273900E+01	  0.073907815	1.138000E+00
271	  0.074108213	-3.074800E+01	  0.074108213	2.187700E+01	  0.074108213	5.275300E+01	  0.074108213	1.141000E+00
272	  0.074308619	-3.073300E+01	  0.074308619	2.191800E+01	  0.074308619	5.275800E+01	  0.074308619	1.145000E+00
273	  0.074509017	-3.075200E+01	  0.074509017	2.202700E+01	  0.074509017	5.274900E+01	  0.074509017	1.148000E+00
274	  0.074709415	-3.070300E+01	  0.074709415	2.211500E+01	  0.074709415	5.276300E+01	  0.074709415	1.159000E+00
275	  0.074909821	-3.079300E+01	  0.074909821	2.222100E+01	  0.074909821	5.273200E+01	  0.074909821	1.152000E+00
276	  0.075110219	-3.085900E+01	  0.075110219	2.228600E+01	  0.075110219	5.270900E+01	  0.075110219	1.146000E+00
277	  0.075310618	-3.077100E+01	  0.075310618	2.198000E+01	  0.075310618	5.274400E+01	  0.075310618	1.143000E+00
278	  0.075511023	-3.088900E+01	  0.075511023	2.174100E+01	  0.075511023	5.271100E+01	  0.075511023	1.115000E+00
279	  0.075711422	-3.087800E+01	  0.075711422	2.159300E+01	  0.075711422	5.271800E+01	  0.075711422	1.109000E+00
280	  0.075911827	-3.091300E+01	  0.075911827	2.160400E+01	  0.075911827	5.270600E+01	  0.075911827	1.105000E+00
281	  0.076112226	-3.094100E+01	  0.076112226	2.088500E+01	  0.076112226	5.271200E+01	  0.076112226	1.067000E+00
282	  0.076312624	-3.087500E+01	  0.076312624	2.063100E+01	  0.076312624	5.273800E+01	  0.076312624	1.063000E+00
283	  0.076513030	-3.094100E+01	  0.076513030	2.052700E+01	  0.076513030	5.271900E+01	  0.076513030	1.049000E+00
284	  0.076713428	-3.093800E+01	  0.076713428	1.992800E+01	  0.076713428	5.273100E+01	  0.076713428	1.021000E+00
285	  0.076913826	-3.093900E+01	  0.076913826	1.964000E+01	  0.076913826	5.273600E+01	  0.076913826	1.006000E+00
286	  0.077114232	-3.095700E+01	  0.077114232	1.959500E+01	  0.077114232	5.273100E+01	  0.077114232	1.002000E+00
287	  0.077314630	-3.079800E+01	  0.077314630	1.917800E+01	  0.077314630	5.279100E+01	  0.077314630	1.001000E+00
288	  0.077515028	-3.087400E+01	  0.077515028	1.872400E+01	  0.077515028	5.277400E+01	  0.077515028	9.690000E-01
289	  0.077715434	-3.085200E+01	  0.077715434	1.830400E+01	  0.077715434	5.278800E+01	  0.077715434	9.510000E-01
290	  0.077915832	-3.076200E+01	  0.077915832	1.818400E+01	  0.077915832	5.282000E+01	  0.077915832	9.550000E-01
291	  0.078116231	-3.074100E+01	  0.078116231	1.848000E+01	  0.078116231	5.282200E+01	  0.078116231	9.730000E-01
292	  0.078316636	-3.070800E+01	  0.078316636	1.804900E+01	  0.078316636	5.284100E+01	  0.078316636	9.550000E-01
293	  0.078517035	-3.068000E+01	  0.078517035	1.824700E+01	  0.078517035	5.284700E+01	  0.078517035	9.680000E-01
294	  0.078717433	-3.061400E+01	  0.078717433	1.728100E+01	  0.078717433	5.288600E+01	  0.078717433	9.260000E-01
295	  0.078917839	-3.061800E+01	  0.078917839	1.728500E+01	  0.078917839	5.288400E+01	  0.078917839	9.260000E-01
296	  0.079118237	-3.062200E+01	  0.079118237	1.752600E+01	  0.079118237	5.287900E+01	  0.079118237	9.380000E-01
297	  0.079318643	-3.055500E+01	  0.079318643	1.767800E+01	  0.079318643	5.289900E+01	  0.079318643	9.530000E-01
298	  0.079519041	-3.055300E+01	  0.079519041	1.749600E+01	  0.079519041	5.290300E+01	  0.079519041	9.440000E-01
299	  0.079719439	-3.054400E+01	  0.079719439	1.756300E+01	  0.079719439	5.290500E+01	  0.079719439	9.490000E-01
300	  0.079919845	-3.052300E+01	  0.079919845	1.794000E+01	  0.079919845	5.290500E+01	  0.079919845	9.710000E-01
301	  0.080120243	-3.051800E+01	  0.080120243	1.781700E+01	  0.080120243	5.290900E+01	  0.080120243	9.650000E-01
302	  0.080320641	-3.046000E+01	  0.080320641	1.725400E+01	  0.080320641	5.293900E+01	  0.080320641	9.420000E-01
303	  0.080521047	-3.052400E+01	  0.080521047	1.785600E+01	  0.080521047	5.290700E+01	  0.080521047	9.660000E-01
304	  0.080721445	-3.050000E+01	  0.080721445	1.728000E+01	  0.080721445	5.292500E+01	  0.080721445	9.390000E-01
305	  0.080921844	-3.050900E+01	  0.080921844	1.745700E+01	  0.080921844	5.291900E+01	  0.080921844	9.470000E-01
306	  0.081122249	-3.054300E+01	  0.081122249	1.667100E+01	  0.081122249	5.292100E+01	  0.081122249	9.020000E-01
307	  0.081322648	-3.046600E+01	  0.081322648	1.728500E+01	  0.081322648	5.293700E+01	  0.081322648	9.430000E-01
308	  0.081523046	-3.054300E+01	  0.081523046	1.716000E+01	  0.081523046	5.291200E+01	  0.081523046	9.280000E-01
309	  0.081723452	-3.055500E+01	  0.081723452	1.649400E+01	  0.081723452	5.291900E+01	  0.081723452	8.920000E-01
310	  0.081923850	-3.056300E+01	  0.081923850	1.671800E+01	  0.081923850	5.291300E+01	  0.081923850	9.030000E-01
311	  0.082124248	-3.060900E+01	  0.082124248	1.646900E+01	  0.082124248	5.290100E+01	  0.082124248	8.850000E-01
312	  0.082324654	-3.058200E+01	  0.082324654	1.621900E+01	  0.082324654	5.291500E+01	  0.082324654	8.740000E-01
313	  0.082525052	-3.057600E+01	  0.082525052	1.635000E+01	  0.082525052	5.291400E+01	  0.082525052	8.820000E-01
314	  0.082725458	-3.051600E+01	  0.082725458	1.592300E+01	  0.082725458	5.294200E+01	  0.082725458	8.660000E-01
315	  0.082925856	-3.059100E+01	  0.082925856	1.515400E+01	  0.082925856	5.292800E+01	  0.082925856	8.180000E-01
316	  0.083126254	-3.052600E+01	  0.083126254	1.517600E+01	  0.083126254	5.295000E+01	  0.083126254	8.250000E-01
317	  0.083326660	-3.054200E+01	  0.083326660	1.487200E+01	  0.083326660	5.294900E+01	  0.083326660	8.080000E-01
318	  0.083527058	-3.051400E+01	  0.083527058	1.500700E+01	  0.083527058	5.295700E+01	  0.083527058	8.180000E-01
319	  0.083727457	-3.052700E+01	  0.083727457	1.460700E+01	  0.083727457	5.295800E+01	  0.083727457	7.950000E-01
320	  0.083927862	-3.045200E+01	  0.083927862	1.420800E+01	  0.083927862	5.299100E+01	  0.083927862	7.810000E-01
321	  0.084128261	-3.046400E+01	  0.084128261	1.427700E+01	  0.084128261	5.298500E+01	  0.084128261	7.840000E-01
322	  0.084328659	-3.040700E+01	  0.084328659	1.369800E+01	  0.084328659	5.301400E+01	  0.084328659	7.580000E-01
323	  0.084529065	-3.037000E+01	  0.084529065	1.346600E+01	  0.084529065	5.303100E+01	  0.084529065	7.490000E-01
324	  0.084729463	-3.032200E+01	  0.084729463	1.367400E+01	  0.084729463	5.304500E+01	  0.084729463	7.640000E-01
325	  0.084929861	-3.036200E+01	  0.084929861	1.348300E+01	  0.084929861	5.303300E+01	  0.084929861	7.500000E-01
326	  0.085130267	-3.029500E+01	  0.085130267	1.333800E+01	  0.085130267	5.305900E+01	  0.085130267	7.480000E-01
327	  0.085330658	-3.025400E+01	  0.085330658	1.320600E+01	  0.085330658	5.307600E+01	  0.085330658	7.450000E-01
328	  0.085531056	-3.021700E+01	  0.085531056	1.336700E+01	  0.085531056	5.308700E+01	  0.085531056	7.570000E-01
329	  0.085731462	-3.022200E+01	  0.085731462	1.322800E+01	  0.085731462	5.308700E+01	  0.085731462	7.490000E-01
330	  0.085931860	-3.014000E+01	  0.085931860	1.324300E+01	  0.085931860	5.311700E+01	  0.085931860	7.580000E-01
331	  0.086132258	-3.023500E+01	  0.086132258	1.359300E+01	  0.086132258	5.307700E+01	  0.086132258	7.680000E-01
332	  0.086332664	-3.020900E+01	  0.086332664	1.354400E+01	  0.086332664	5.308800E+01	  0.086332664	7.680000E-01
333	  0.086533062	-3.021000E+01	  0.086533062	1.356800E+01	  0.086533062	5.308700E+01	  0.086533062	7.690000E-01
334	  0.086733460	-3.023900E+01	  0.086733460	1.321400E+01	  0.086733460	5.308100E+01	  0.086733460	7.470000E-01
335	  0.086933866	-3.020400E+01	  0.086933866	1.338800E+01	  0.086933866	5.309200E+01	  0.086933866	7.600000E-01
336	  0.087134264	-3.029600E+01	  0.087134264	1.339000E+01	  0.087134264	5.305800E+01	  0.087134264	7.510000E-01
337	  0.087334670	-3.025400E+01	  0.087334670	1.332900E+01	  0.087334670	5.307400E+01	  0.087334670	7.520000E-01
338	  0.087535068	-3.030300E+01	  0.087535068	1.325300E+01	  0.087535068	5.305700E+01	  0.087535068	7.430000E-01
339	  0.087735467	-3.038500E+01	  0.087735467	1.288600E+01	  0.087735467	5.303300E+01	  0.087735467	7.160000E-01
340	  0.087935872	-3.042600E+01	  0.087935872	1.259600E+01	  0.087935872	5.302200E+01	  0.087935872	6.960000E-01
341	  0.088136271	-3.043200E+01	  0.088136271	1.246600E+01	  0.088136271	5.302200E+01	  0.088136271	6.890000E-01
342	  0.088336669	-3.048400E+01	  0.088336669	1.203300E+01	  0.088336669	5.300800E+01	  0.088336669	6.610000E-01
343	  0.088537075	-3.045900E+01	  0.088537075	1.158300E+01	  0.088537075	5.302300E+01	  0.088537075	6.390000E-01
344	  0.088737473	-3.048700E+01	  0.088737473	1.104100E+01	  0.088737473	5.301900E+01	  0.088737473	6.070000E-01
345	  0.088937871	-3.057000E+01	  0.088937871	1.078700E+01	  0.088937871	5.299200E+01	  0.088937871	5.870000E-01
346	  0.089138277	-3.056100E+01	  0.089138277	9.903000E+00	  0.089138277	5.300500E+01	  0.089138277	5.400000E-01
347	  0.089338675	-3.053200E+01	  0.089338675	9.187000E+00	  0.089338675	5.302200E+01	  0.089338675	5.040000E-01
348	  0.089539073	-3.043900E+01	  0.089539073	8.518000E+00	  0.089539073	5.306100E+01	  0.089539073	4.730000E-01
349	  0.089739479	-3.036800E+01	  0.089739479	8.245000E+00	  0.089739479	5.309000E+01	  0.089739479	4.610000E-01
350	  0.089939877	-3.035800E+01	  0.089939877	7.579000E+00	  0.089939877	5.309900E+01	  0.089939877	4.250000E-01
351	  0.090140276	-3.027300E+01	  0.090140276	7.003000E+00	  0.090140276	5.313500E+01	  0.090140276	3.970000E-01
352	  0.090340681	-3.023500E+01	  0.090340681	6.799000E+00	  0.090340681	5.315000E+01	  0.090340681	3.870000E-01
353	  0.090541080	-3.013800E+01	  0.090541080	6.742000E+00	  0.090541080	5.318700E+01	  0.090541080	3.890000E-01
354	  0.090741485	-3.001100E+01	  0.090741485	6.387000E+00	  0.090741485	5.323800E+01	  0.090741485	3.740000E-01
355	  0.090941884	-2.998700E+01	  0.090941884	6.169000E+00	  0.090941884	5.324900E+01	  0.090941884	3.620000E-01
356	  0.091142282	-2.988900E+01	  0.091142282	5.812000E+00	  0.091142282	5.328900E+01	  0.091142282	3.460000E-01
357	  0.091342688	-2.977700E+01	  0.091342688	6.233000E+00	  0.091342688	5.333100E+01	  0.091342688	3.760000E-01
358	  0.091543086	-2.974500E+01	  0.091543086	6.321000E+00	  0.091543086	5.334300E+01	  0.091543086	3.820000E-01
359	  0.091743484	-2.965800E+01	  0.091743484	6.723000E+00	  0.091743484	5.337400E+01	  0.091743484	4.110000E-01
360	  0.091943890	-2.962400E+01	  0.091943890	6.889000E+00	  0.091943890	5.338700E+01	  0.091943890	4.230000E-01
361	  0.092144288	-2.960500E+01	  0.092144288	7.397000E+00	  0.092144288	5.339100E+01	  0.092144288	4.550000E-01
362	  0.092344686	-2.952900E+01	  0.092344686	7.509000E+00	  0.092344686	5.342100E+01	  0.092344686	4.660000E-01
363	  0.092545092	-2.953900E+01	  0.092545092	7.786000E+00	  0.092545092	5.341400E+01	  0.092545092	4.830000E-01
364	  0.092745490	-2.954700E+01	  0.092745490	8.412000E+00	  0.092745490	5.340500E+01	  0.092745490	5.210000E-01
365	  0.092945889	-2.959100E+01	  0.092945889	8.564000E+00	  0.092945889	5.338600E+01	  0.092945889	5.270000E-01
366	  0.093146294	-2.958200E+01	  0.093146294	8.666000E+00	  0.093146294	5.338800E+01	  0.093146294	5.340000E-01
367	  0.093346693	-2.966000E+01	  0.093346693	8.577000E+00	  0.093346693	5.335800E+01	  0.093346693	5.230000E-01
368	  0.093547091	-2.974100E+01	  0.093547091	8.931000E+00	  0.093547091	5.332200E+01	  0.093547091	5.390000E-01
369	  0.093747497	-2.972600E+01	  0.093747497	8.733000E+00	  0.093747497	5.333000E+01	  0.093747497	5.290000E-01
370	  0.093947895	-2.984500E+01	  0.093947895	9.081000E+00	  0.093947895	5.328000E+01	  0.093947895	5.410000E-01
371	  0.094148301	-2.985200E+01	  0.094148301	8.747000E+00	  0.094148301	5.328000E+01	  0.094148301	5.210000E-01
372	  0.094348699	-2.994900E+01	  0.094348699	8.148000E+00	  0.094348699	5.324800E+01	  0.094348699	4.800000E-01
373	  0.094549097	-2.993900E+01	  0.094549097	7.615000E+00	  0.094549097	5.325700E+01	  0.094549097	4.490000E-01
374	  0.094749503	-3.001200E+01	  0.094749503	7.352000E+00	  0.094749503	5.323100E+01	  0.094749503	4.300000E-01
375	  0.094949901	-3.003100E+01	  0.094949901	6.875000E+00	  0.094949901	5.322700E+01	  0.094949901	4.010000E-01
376	  0.095150299	-3.006900E+01	  0.095150299	6.396000E+00	  0.095150299	5.321600E+01	  0.095150299	3.720000E-01
377	  0.095350705	-3.001900E+01	  0.095350705	5.754000E+00	  0.095350705	5.323900E+01	  0.095350705	3.370000E-01
378	  0.095551103	-2.996300E+01	  0.095551103	5.378000E+00	  0.095551103	5.326300E+01	  0.095551103	3.170000E-01
379	  0.095751502	-2.998200E+01	  0.095751502	4.421000E+00	  0.095751502	5.326100E+01	  0.095751502	2.600000E-01
380	  0.095951907	-2.991600E+01	  0.095951907	4.014000E+00	  0.095951907	5.328900E+01	  0.095951907	2.380000E-01
381	  0.096152306	-2.986800E+01	  0.096152306	3.468000E+00	  0.096152306	5.331000E+01	  0.096152306	2.070000E-01
382	  0.096352704	-2.974300E+01	  0.096352704	3.428000E+00	  0.096352704	5.335900E+01	  0.096352704	2.080000E-01
383	  0.096553110	-2.973300E+01	  0.096553110	2.777000E+00	  0.096553110	5.336600E+01	  0.096553110	1.680000E-01
384	  0.096753508	-2.958900E+01	  0.096753508	2.531000E+00	  0.096753508	5.342500E+01	  0.096753508	1.560000E-01
385	  0.096953906	-2.951000E+01	  0.096953906	2.731000E+00	  0.096953906	5.345600E+01	  0.096953906	1.700000E-01
386	  0.097154312	-2.943500E+01	  0.097154312	2.510000E+00	  0.097154312	5.348800E+01	  0.097154312	1.580000E-01
387	  0.097354710	-2.938300E+01	  0.097354710	2.968000E+00	  0.097354710	5.350900E+01	  0.097354710	1.880000E-01
388	  0.097555116	-2.932700E+01	  0.097555116	2.878000E+00	  0.097555116	5.353200E+01	  0.097555116	1.830000E-01
389	  0.097755514	-2.919200E+01	  0.097755514	3.512000E+00	  0.097755514	5.358700E+01	  0.097755514	2.280000E-01
390	  0.097955912	-2.913100E+01	  0.097955912	3.628000E+00	  0.097955912	5.361300E+01	  0.097955912	2.370000E-01
391	  0.098156318	-2.923800E+01	  0.098156318	3.986000E+00	  0.098156318	5.356500E+01	  0.098156318	2.570000E-01
392	  0.098356716	-2.918000E+01	  0.098356716	4.492000E+00	  0.098356716	5.358800E+01	  0.098356716	2.920000E-01
393	  0.098557115	-2.915300E+01	  0.098557115	4.613000E+00	  0.098557115	5.359800E+01	  0.098557115	3.000000E-01
394	  0.098757520	-2.920100E+01	  0.098757520	4.729000E+00	  0.098757520	5.357700E+01	  0.098757520	3.060000E-01
395	  0.098957919	-2.919500E+01	  0.098957919	5.066000E+00	  0.098957919	5.357800E+01	  0.098957919	3.280000E-01
396	  0.099158317	-2.928700E+01	  0.099158317	5.378000E+00	  0.099158317	5.353700E+01	  0.099158317	3.440000E-01
397	  0.099358723	-2.932800E+01	  0.099358723	5.538000E+00	  0.099358723	5.351900E+01	  0.099358723	3.530000E-01
398	  0.099559121	-2.936700E+01	  0.099559121	5.653000E+00	  0.099559121	5.350100E+01	  0.099559121	3.580000E-01
399	  0.099759519	-2.937500E+01	  0.099759519	5.465000E+00	  0.099759519	5.349900E+01	  0.099759519	3.460000E-01
400	  0.099959925	-2.949300E+01	  0.099959925	5.901000E+00	  0.099959925	5.344800E+01	  0.099959925	3.680000E-01
401	  0.100160323	-2.953200E+01	  0.100160323	5.272000E+00	  0.100160323	5.343600E+01	  0.100160323	3.280000E-01
402	  0.100360721	-2.954400E+01	  0.100360721	5.187000E+00	  0.100360721	5.343100E+01	  0.100360721	3.220000E-01
403	  0.100561127	-2.953700E+01	  0.100561127	4.555000E+00	  0.100561127	5.343800E+01	  0.100561127	2.830000E-01
404	  0.100761525	-2.961100E+01	  0.100761525	4.557000E+00	  0.100761525	5.340700E+01	  0.100761525	2.800000E-01
405	  0.100961931	-2.961100E+01	  0.100961931	3.565000E+00	  0.100961931	5.341200E+01	  0.100961931	2.190000E-01
406	  0.101162329	-2.961900E+01	  0.101162329	3.113000E+00	  0.101162329	5.341100E+01	  0.101162329	1.910000E-01
407	  0.101362728	-2.966000E+01	  0.101362728	3.118000E+00	  0.101362728	5.339400E+01	  0.101362728	1.910000E-01
408	  0.101563133	-2.960200E+01	  0.101563133	2.527000E+00	  0.101563133	5.342000E+01	  0.101563133	1.560000E-01
409	  0.101763532	-2.953600E+01	  0.101763532	2.344000E+00	  0.101763532	5.344700E+01	  0.101763532	1.460000E-01
410	  0.101963930	-2.945100E+01	  0.101963930	2.095000E+00	  0.101963930	5.348300E+01	  0.101963930	1.310000E-01
411	  0.102164336	-2.934300E+01	  0.102164336	1.487000E+00	  0.102164336	5.352900E+01	  0.102164336	9.400000E-02
412	  0.102364734	-2.935400E+01	  0.102364734	5.510000E-01	  0.102364734	5.352600E+01	  0.102364734	3.500000E-02
413	  0.102565132	-2.934300E+01	  0.102565132	1.484000E+00	  0.102565132	5.352900E+01	  0.102565132	9.400000E-02
414	  0.102765530	-2.924000E+01	  0.102765530	1.076000E+00	  0.102765530	5.357300E+01	  0.102765530	6.900000E-02
415	  0.102965929	-2.924400E+01	  0.102965929	9.580000E-01	  0.102965929	5.357200E+01	  0.102965929	6.100000E-02
416	  0.103166327	-2.914200E+01	  0.103166327	1.502000E+00	  0.103166327	5.361500E+01	  0.103166327	9.800000E-02
417	  0.103366733	-2.925700E+01	  0.103366733	1.227000E+00	  0.103366733	5.356600E+01	  0.103366733	7.900000E-02
418	  0.103567131	-2.912300E+01	  0.103567131	1.849000E+00	  0.103567131	5.362200E+01	  0.103567131	1.210000E-01
419	  0.103767529	-2.910900E+01	  0.103767529	1.966000E+00	  0.103767529	5.362800E+01	  0.103767529	1.290000E-01
420	  0.103967935	-2.911700E+01	  0.103967935	2.158000E+00	  0.103967935	5.362400E+01	  0.103967935	1.410000E-01
421	  0.104168333	-2.917500E+01	  0.104168333	2.494000E+00	  0.104168333	5.359800E+01	  0.104168333	1.620000E-01
422	  0.104368731	-2.906600E+01	  0.104368731	2.159000E+00	  0.104368731	5.364600E+01	  0.104368731	1.420000E-01
423	  0.104569137	-2.919800E+01	  0.104569137	2.980000E+00	  0.104569137	5.358700E+01	  0.104569137	1.930000E-01
424	  0.104769535	-2.928900E+01	  0.104769535	3.063000E+00	  0.104769535	5.354800E+01	  0.104769535	1.960000E-01
425	  0.104969934	-2.925700E+01	  0.104969934	2.871000E+00	  0.104969934	5.356200E+01	  0.104969934	1.850000E-01
426	  0.105170339	-2.933800E+01	  0.105170339	2.915000E+00	  0.105170339	5.352800E+01	  0.105170339	1.860000E-01
427	  0.105370738	-2.935500E+01	  0.105370738	2.627000E+00	  0.105370738	5.352100E+01	  0.105370738	1.670000E-01
428	  0.105571143	-2.946400E+01	  0.105571143	2.623000E+00	  0.105571143	5.347600E+01	  0.105571143	1.640000E-01
429	  0.105771542	-2.955000E+01	  0.105771542	1.959000E+00	  0.105771542	5.344200E+01	  0.105771542	1.210000E-01
430	  0.105971940	-2.954600E+01	  0.105971940	2.105000E+00	  0.105971940	5.344400E+01	  0.105971940	1.300000E-01
431	  0.106172346	-2.950400E+01	  0.106172346	1.994000E+00	  0.106172346	5.346100E+01	  0.106172346	1.240000E-01
432	  0.106372744	-2.954100E+01	  0.106372744	1.087000E+00	  0.106372744	5.344700E+01	  0.106372744	6.700000E-02
433	  0.106573142	-2.956000E+01	  0.106573142	5.730000E-01	  0.106573142	5.344000E+01	  0.106573142	3.500000E-02
434	  0.106773548	-2.952400E+01	  0.106773548	9.700000E-02	  0.106773548	5.345500E+01	  0.106773548	6.000000E-03
435	  0.106973946	-2.956600E+01	  0.106973946	-4.760000E-01	  0.106973946	5.343800E+01	  0.106973946	-2.900000E-02
436	  0.107174344	-2.949200E+01	  0.107174344	1.010000E-01	  0.107174344	5.346800E+01	  0.107174344	6.000000E-03
437	  0.107374750	-2.957900E+01	  0.107374750	-8.990000E-01	  0.107374750	5.343200E+01	  0.107374750	-5.500000E-02
438	  0.107575148	-2.951400E+01	  0.107575148	-1.135000E+00	  0.107575148	5.345800E+01	  0.107575148	-7.000000E-02
439	  0.107775547	-2.935400E+01	  0.107775547	-1.925000E+00	  0.107775547	5.352400E+01	  0.107775547	-1.220000E-01
440	  0.107975952	-2.944400E+01	  0.107975952	-9.360000E-01	  0.107975952	5.348800E+01	  0.107975952	-5.900000E-02
441	  0.108176351	-2.929400E+01	  0.108176351	-1.482000E+00	  0.108176351	5.355000E+01	  0.108176351	-9.500000E-02
442	  0.108376749	-2.927700E+01	  0.108376749	-1.717000E+00	  0.108376749	5.355700E+01	  0.108376749	-1.100000E-01
443	  0.108577155	-2.934900E+01	  0.108577155	-1.621000E+00	  0.108577155	5.352600E+01	  0.108577155	-1.030000E-01
444	  0.108777553	-2.929800E+01	  0.108777553	-9.050000E-01	  0.108777553	5.354900E+01	  0.108777553	-5.800000E-02
445	  0.108977959	-2.923200E+01	  0.108977959	-1.233000E+00	  0.108977959	5.357600E+01	  0.108977959	-7.900000E-02
446	  0.109178357	-2.920300E+01	  0.109178357	-1.032000E+00	  0.109178357	5.358900E+01	  0.109178357	-6.700000E-02
447	  0.109378755	-2.925200E+01	  0.109378755	-1.145000E+00	  0.109378755	5.356800E+01	  0.109378755	-7.300000E-02
448	  0.109579161	-2.933100E+01	  0.109579161	-9.820000E-01	  0.109579161	5.353500E+01	  0.109579161	-6.200000E-02
449	  0.109779559	-2.929100E+01	  0.109779559	-9.500000E-01	  0.109779559	5.355200E+01	  0.109779559	-6.100000E-02
450	  0.109979957	-2.939400E+01	  0.109979957	-7.590000E-01	  0.109979957	5.350900E+01	  0.109979957	-4.800000E-02
451	  0.110180363	-2.945200E+01	  0.110180363	-2.800000E-01	  0.110180363	5.348500E+01	  0.110180363	-1.700000E-02
452	  0.110380761	-2.945300E+01	  0.110380761	-4.480000E-01	  0.110380761	5.348400E+01	  0.110380761	-2.800000E-02
453	  0.110581160	-2.953200E+01	  0.110581160	-4.900000E-01	  0.110581160	5.345200E+01	  0.110581160	-3.000000E-02
454	  0.110781565	-2.957000E+01	  0.110781565	-1.144000E+00	  0.110781565	5.343600E+01	  0.110781565	-7.100000E-02
455	  0.110981964	-2.963100E+01	  0.110981964	-1.738000E+00	  0.110981964	5.341000E+01	  0.110981964	-1.070000E-01
456	  0.111182362	-2.968000E+01	  0.111182362	-2.177000E+00	  0.111182362	5.338900E+01	  0.111182362	-1.330000E-01
457	  0.111382768	-2.970100E+01	  0.111382768	-2.582000E+00	  0.111382768	5.337900E+01	  0.111382768	-1.570000E-01
458	  0.111583166	-2.976800E+01	  0.111583166	-2.483000E+00	  0.111583166	5.335300E+01	  0.111583166	-1.500000E-01
459	  0.111783572	-2.980400E+01	  0.111783572	-3.514000E+00	  0.111783572	5.333500E+01	  0.111783572	-2.110000E-01
460	  0.111983970	-2.976500E+01	  0.111983970	-4.009000E+00	  0.111983970	5.334900E+01	  0.111983970	-2.420000E-01
461	  0.112184368	-2.972700E+01	  0.112184368	-4.802000E+00	  0.112184368	5.336000E+01	  0.112184368	-2.910000E-01
462	  0.112384774	-2.981400E+01	  0.112384774	-4.639000E+00	  0.112384774	5.332600E+01	  0.112384774	-2.780000E-01
463	  0.112585172	-2.972600E+01	  0.112585172	-5.618000E+00	  0.112585172	5.335500E+01	  0.112585172	-3.410000E-01
464	  0.112785570	-2.966100E+01	  0.112785570	-6.107000E+00	  0.112785570	5.337800E+01	  0.112785570	-3.730000E-01
465	  0.112985976	-2.970700E+01	  0.112985976	-6.467000E+00	  0.112985976	5.335700E+01	  0.112985976	-3.930000E-01
466	  0.113186374	-2.960100E+01	  0.113186374	-7.436000E+00	  0.113186374	5.339200E+01	  0.113186374	-4.580000E-01
467	  0.113386773	-2.952900E+01	  0.113386773	-7.159000E+00	  0.113386773	5.342300E+01	  0.113386773	-4.440000E-01
468	  0.113587178	-2.950500E+01	  0.113587178	-7.431000E+00	  0.113587178	5.343100E+01	  0.113587178	-4.630000E-01
469	  0.113787577	-2.938100E+01	  0.113787577	-7.651000E+00	  0.113787577	5.348000E+01	  0.113787577	-4.840000E-01
470	  0.113987975	-2.936600E+01	  0.113987975	-7.827000E+00	  0.113987975	5.348400E+01	  0.113987975	-4.960000E-01
471	  0.114188381	-2.938200E+01	  0.114188381	-8.094000E+00	  0.114188381	5.347500E+01	  0.114188381	-5.110000E-01
472	  0.114388779	-2.927600E+01	  0.114388779	-7.780000E+00	  0.114388779	5.352200E+01	  0.114388779	-4.980000E-01
473	  0.114589177	-2.918700E+01	  0.114589177	-7.481000E+00	  0.114589177	5.356300E+01	  0.114589177	-4.840000E-01
474	  0.114789583	-2.916200E+01	  0.114789583	-8.235000E+00	  0.114789583	5.356600E+01	  0.114789583	-5.350000E-01
475	  0.114989981	-2.912800E+01	  0.114989981	-7.448000E+00	  0.114989981	5.358800E+01	  0.114989981	-4.860000E-01
476	  0.115190387	-2.917400E+01	  0.115190387	-7.956000E+00	  0.115190387	5.356400E+01	  0.115190387	-5.160000E-01
477	  0.115390785	-2.917900E+01	  0.115390785	-7.661000E+00	  0.115390785	5.356400E+01	  0.115390785	-4.960000E-01
478	  0.115591183	-2.916100E+01	  0.115591183	-7.970000E+00	  0.115591183	5.356900E+01	  0.115591183	-5.180000E-01
479	  0.115791589	-2.915300E+01	  0.115791589	-7.233000E+00	  0.115791589	5.358000E+01	  0.115791589	-4.700000E-01
480	  0.115991987	-2.916400E+01	  0.115991987	-7.618000E+00	  0.115991987	5.357100E+01	  0.115991987	-4.950000E-01
481	  0.116192386	-2.917500E+01	  0.116192386	-7.834000E+00	  0.116192386	5.356400E+01	  0.116192386	-5.080000E-01
482	  0.116392791	-2.926500E+01	  0.116392791	-8.239000E+00	  0.116392791	5.352300E+01	  0.116392791	-5.280000E-01
483	  0.116593190	-2.918100E+01	  0.116593190	-7.950000E+00	  0.116593190	5.356100E+01	  0.116593190	-5.150000E-01
484	  0.116793588	-2.930900E+01	  0.116793588	-8.060000E+00	  0.116793588	5.350600E+01	  0.116793588	-5.140000E-01
485	  0.116993994	-2.919100E+01	  0.116993994	-8.118000E+00	  0.116993994	5.355500E+01	  0.116993994	-5.250000E-01
486	  0.117194392	-2.919900E+01	  0.117194392	-8.393000E+00	  0.117194392	5.354900E+01	  0.117194392	-5.420000E-01
487	  0.117394790	-2.920600E+01	  0.117394790	-8.738000E+00	  0.117394790	5.354200E+01	  0.117394790	-5.640000E-01
488	  0.117595196	-2.935200E+01	  0.117595196	-8.451000E+00	  0.117595196	5.348400E+01	  0.117595196	-5.360000E-01
489	  0.117795594	-2.927400E+01	  0.117795594	-9.059000E+00	  0.117795594	5.351100E+01	  0.117795594	-5.800000E-01
490	  0.117995992	-2.916800E+01	  0.117995992	-8.813000E+00	  0.117995992	5.355800E+01	  0.117995992	-5.710000E-01
491	  0.118196398	-2.920700E+01	  0.118196398	-9.037000E+00	  0.118196398	5.353900E+01	  0.118196398	-5.830000E-01
492	  0.118396796	-2.923400E+01	  0.118396796	-9.377000E+00	  0.118396796	5.352400E+01	  0.118396796	-6.030000E-01
493	  0.118597202	-2.925100E+01	  0.118597202	-8.862000E+00	  0.118597202	5.352200E+01	  0.118597202	-5.690000E-01
494	  0.118797600	-2.927400E+01	  0.118797600	-9.511000E+00	  0.118797600	5.350600E+01	  0.118797600	-6.080000E-01
495	  0.118997999	-2.923600E+01	  0.118997999	-9.508000E+00	  0.118997999	5.352200E+01	  0.118997999	-6.110000E-01
496	  0.119198404	-2.922100E+01	  0.119198404	-9.753000E+00	  0.119198404	5.352500E+01	  0.119198404	-6.280000E-01
497	  0.119398803	-2.921200E+01	  0.119398803	-1.006300E+01	  0.119398803	5.352500E+01	  0.119398803	-6.480000E-01
498	  0.119599201	-2.923600E+01	  0.119599201	-9.813000E+00	  0.119599201	5.351800E+01	  0.119599201	-6.300000E-01
499	  0.119799607	-2.928000E+01	  0.119799607	-1.051400E+01	  0.119799607	5.349100E+01	  0.119799607	-6.710000E-01
500	  0.120000005	-2.928100E+01	  0.120000005	-1.036900E+01	  0.120000005	5.349200E+01	  0.120000005	-6.620000E-01
