! Anritsu VNA Master:             	Model: MS2036C/10/77
! SN:             	1601066
! /card0/usr/18may27.balun/252b.47.5.txt
! Existing Calibration Information:
! TYPE:             	Current Settings	Active Cal Settings
! TIME:             	05/27/2018 01:19:23 PM	05/27/2018 01:14:08 PM
! INTERNAL TEMP:    	52.0 C	52.0 C
! # POINTS:         	500	500
! START FREQ:       	20.000 MHz	20.000 MHz
! STOP FREQ:        	120.000 MHz	120.000 MHz
! SOURCE POWER:     	High	High
! IFBW:             	50 Hz	50 Hz
! AVG FACTOR:       	  1 	  1 
! REF PLANE 1:      	0 mm	0 mm
! REF PLANE 2:      	0 mm	0 mm
! CAL TYPE:         	Full S11	Full S11
! CAL METHOD:       	SOLT	SOLT
! CAL LINE TYPE:    	Coax	Coax
! DUT PORT 1:       	K-Conn(M)	K-Conn(M)
! DUT PORT 2:       	K-Conn(M)	K-Conn(M)
! CAL STATUS:       	OK: Accuracy High	--
! PROP-V:       	0.700
! CABLE LOSS:       	0.000 dB/m
! REF IMPEDANCE:       	50.0
! Trace Specific Parameters:	TR1	TR2	TR3	TR4
! TRACE.#.Y (GRAPH TYPE)	LOG MAG	PHASE	REAL IMPEDANCE	IMAGINARY IMPEDANCE
! TRACE.#.X 	FREQ.GHZ	FREQ.GHZ	FREQ.GHZ	FREQ.GHZ
! S-PARAMETER	S11	S11	S11	S11
! SMOOTH/APERTURE %	0	0	0	0
! WINDOW	NSL	NSL	NSL	NSL
! GATING	OFF	OFF	OFF	OFF
! FGTD	OFF	OFF	OFF	OFF
Marker Information per Trace:	TR1	TR2	TR3	TR4
!MK1	--	--	--	"MK1 TR4:  70.100 200 MHz,Z:(0.741 ohm, -1.467 ohm)"
!MK2	--	--	--	--
!MK3	--	--	--	--
!MK4	--	--	--	--
!MK5	--	--	--	--
!MK6	--	--	--	--
!MK7	--	--	--	--
!MK8	--	--	--	--
PNT	TR1.FREQ.GHZ	TR1.LOG MAG.dB	TR2.FREQ.GHZ	TR2.PHASE.deg	TR3.FREQ.GHZ	TR3.REAL IMPEDANCE.ohm	TR4.FREQ.GHZ	TR4.IMAGINARY IMPEDANCE.ohm
1	  0.020000000	-2.900000E-02	  0.020000000	-5.592400E+01	  0.020000000	3.880000E-01	  0.020000000	-9.418300E+01
2	  0.020200402	-2.400000E-02	  0.020200402	-5.648300E+01	  0.020200402	3.130000E-01	  0.020200402	-9.308500E+01
3	  0.020400802	-2.100000E-02	  0.020400802	-5.702500E+01	  0.020400802	2.770000E-01	  0.020400802	-9.203900E+01
4	  0.020601204	-2.200000E-02	  0.020601204	-5.756800E+01	  0.020601204	2.790000E-01	  0.020601204	-9.100800E+01
5	  0.020801604	-2.100000E-02	  0.020801604	-5.810000E+01	  0.020801604	2.570000E-01	  0.020801604	-9.001500E+01
6	  0.021002004	-2.200000E-02	  0.021002004	-5.866400E+01	  0.021002004	2.680000E-01	  0.021002004	-8.898000E+01
7	  0.021202406	-2.400000E-02	  0.021202406	-5.922800E+01	  0.021202406	2.890000E-01	  0.021202406	-8.796400E+01
8	  0.021402806	-2.600000E-02	  0.021402806	-5.977300E+01	  0.021402806	3.100000E-01	  0.021402806	-8.699700E+01
9	  0.021603208	-3.000000E-02	  0.021603208	-6.031300E+01	  0.021603208	3.500000E-01	  0.021603208	-8.605700E+01
10	  0.021803608	-3.600000E-02	  0.021803608	-6.083400E+01	  0.021803608	4.050000E-01	  0.021803608	-8.516300E+01
11	  0.022004008	-3.600000E-02	  0.022004008	-6.137400E+01	  0.022004008	4.050000E-01	  0.022004008	-8.425000E+01
12	  0.022204408	-4.100000E-02	  0.022204408	-6.192000E+01	  0.022204408	4.470000E-01	  0.022204408	-8.334200E+01
13	  0.022404809	-4.400000E-02	  0.022404809	-6.248200E+01	  0.022404809	4.700000E-01	  0.022404809	-8.242400E+01
14	  0.022605211	-4.500000E-02	  0.022605211	-6.304900E+01	  0.022605211	4.820000E-01	  0.022605211	-8.151100E+01
15	  0.022805611	-4.300000E-02	  0.022805611	-6.361700E+01	  0.022805611	4.480000E-01	  0.022805611	-8.061100E+01
16	  0.023006011	-3.500000E-02	  0.023006011	-6.418300E+01	  0.023006011	3.660000E-01	  0.023006011	-7.973100E+01
17	  0.023206413	-2.900000E-02	  0.023206413	-6.474300E+01	  0.023206413	2.990000E-01	  0.023206413	-7.887200E+01
18	  0.023406813	-2.400000E-02	  0.023406813	-6.531200E+01	  0.023406813	2.370000E-01	  0.023406813	-7.801200E+01
19	  0.023607215	-2.100000E-02	  0.023607215	-6.586000E+01	  0.023607215	2.100000E-01	  0.023607215	-7.719800E+01
20	  0.023807615	-2.000000E-02	  0.023807615	-6.637900E+01	  0.023807615	1.920000E-01	  0.023807615	-7.643700E+01
21	  0.024008015	-2.300000E-02	  0.024008015	-6.687400E+01	  0.024008015	2.220000E-01	  0.024008015	-7.572100E+01
22	  0.024208417	-2.700000E-02	  0.024208417	-6.736900E+01	  0.024208417	2.570000E-01	  0.024208417	-7.501500E+01
23	  0.024408817	-3.400000E-02	  0.024408817	-6.784700E+01	  0.024408817	3.150000E-01	  0.024408817	-7.433900E+01
24	  0.024609219	-3.900000E-02	  0.024609219	-6.833800E+01	  0.024609219	3.630000E-01	  0.024609219	-7.365600E+01
25	  0.024809619	-4.600000E-02	  0.024809619	-6.886700E+01	  0.024809619	4.210000E-01	  0.024809619	-7.292800E+01
26	  0.025010020	-4.500000E-02	  0.025010020	-6.941900E+01	  0.025010020	4.010000E-01	  0.025010020	-7.218200E+01
27	  0.025210422	-4.500000E-02	  0.025210422	-6.997600E+01	  0.025210422	3.970000E-01	  0.025210422	-7.143600E+01
28	  0.025410822	-4.800000E-02	  0.025410822	-7.054500E+01	  0.025410822	4.140000E-01	  0.025410822	-7.068700E+01
29	  0.025611224	-4.900000E-02	  0.025611224	-7.109200E+01	  0.025611224	4.170000E-01	  0.025611224	-6.997600E+01
30	  0.025811624	-4.800000E-02	  0.025811624	-7.165400E+01	  0.025811624	4.070000E-01	  0.025811624	-6.925500E+01
31	  0.026012026	-4.500000E-02	  0.026012026	-7.220200E+01	  0.026012026	3.740000E-01	  0.026012026	-6.856200E+01
32	  0.026212426	-4.300000E-02	  0.026212426	-7.275200E+01	  0.026212426	3.580000E-01	  0.026212426	-6.787600E+01
33	  0.026412826	-4.100000E-02	  0.026412826	-7.328300E+01	  0.026412826	3.350000E-01	  0.026412826	-6.722200E+01
34	  0.026613226	-4.300000E-02	  0.026613226	-7.379200E+01	  0.026613226	3.510000E-01	  0.026613226	-6.660100E+01
35	  0.026813626	-4.700000E-02	  0.026813626	-7.429100E+01	  0.026813626	3.710000E-01	  0.026813626	-6.600100E+01
36	  0.027014028	-5.300000E-02	  0.027014028	-7.477200E+01	  0.027014028	4.140000E-01	  0.027014028	-6.542700E+01
37	  0.027214428	-6.000000E-02	  0.027214428	-7.525800E+01	  0.027214428	4.680000E-01	  0.027214428	-6.485500E+01
38	  0.027414829	-7.200000E-02	  0.027414829	-7.581000E+01	  0.027414829	5.540000E-01	  0.027414829	-6.421200E+01
39	  0.027615231	-8.000000E-02	  0.027615231	-7.639500E+01	  0.027615231	6.060000E-01	  0.027615231	-6.354000E+01
40	  0.027815631	-8.400000E-02	  0.027815631	-7.699800E+01	  0.027815631	6.290000E-01	  0.027815631	-6.285600E+01
41	  0.028016033	-8.300000E-02	  0.028016033	-7.762000E+01	  0.028016033	6.090000E-01	  0.028016033	-6.216000E+01
42	  0.028216433	-7.400000E-02	  0.028216433	-7.826300E+01	  0.028216433	5.370000E-01	  0.028216433	-6.145200E+01
43	  0.028416833	-6.500000E-02	  0.028416833	-7.886100E+01	  0.028416833	4.640000E-01	  0.028416833	-6.080200E+01
44	  0.028617235	-5.600000E-02	  0.028617235	-7.946900E+01	  0.028617235	3.980000E-01	  0.028617235	-6.014900E+01
45	  0.028817635	-4.800000E-02	  0.028817635	-8.001400E+01	  0.028817635	3.380000E-01	  0.028817635	-5.957000E+01
46	  0.029018037	-3.800000E-02	  0.029018037	-8.050000E+01	  0.029018037	2.670000E-01	  0.029018037	-5.906100E+01
47	  0.029218437	-3.100000E-02	  0.029218437	-8.096400E+01	  0.029218437	2.130000E-01	  0.029218437	-5.857800E+01
48	  0.029418837	-2.400000E-02	  0.029418837	-8.138800E+01	  0.029418837	1.650000E-01	  0.029418837	-5.814200E+01
49	  0.029619239	-2.100000E-02	  0.029619239	-8.179500E+01	  0.029619239	1.430000E-01	  0.029619239	-5.772600E+01
50	  0.029819639	-2.300000E-02	  0.029819639	-8.223800E+01	  0.029819639	1.560000E-01	  0.029819639	-5.727600E+01
51	  0.030020041	-2.800000E-02	  0.030020041	-8.271300E+01	  0.030020041	1.900000E-01	  0.030020041	-5.680000E+01
52	  0.030220442	-3.600000E-02	  0.030220442	-8.320400E+01	  0.030220442	2.400000E-01	  0.030220442	-5.631100E+01
53	  0.030420844	-4.700000E-02	  0.030420844	-8.372200E+01	  0.030420844	3.060000E-01	  0.030420844	-5.580100E+01
54	  0.030621244	-5.700000E-02	  0.030621244	-8.427600E+01	  0.030621244	3.660000E-01	  0.030621244	-5.526000E+01
55	  0.030821644	-6.100000E-02	  0.030821644	-8.482200E+01	  0.030821644	3.870000E-01	  0.030821644	-5.473300E+01
56	  0.031022044	-6.200000E-02	  0.031022044	-8.536300E+01	  0.031022044	3.890000E-01	  0.031022044	-5.421800E+01
57	  0.031222444	-6.000000E-02	  0.031222444	-8.590000E+01	  0.031222444	3.760000E-01	  0.031222444	-5.371000E+01
58	  0.031422846	-6.000000E-02	  0.031422846	-8.644600E+01	  0.031422846	3.680000E-01	  0.031422846	-5.320000E+01
59	  0.031623244	-6.400000E-02	  0.031623244	-8.694800E+01	  0.031623244	3.950000E-01	  0.031623244	-5.273500E+01
60	  0.031823646	-6.200000E-02	  0.031823646	-8.746900E+01	  0.031823646	3.750000E-01	  0.031823646	-5.225700E+01
61	  0.032024048	-5.800000E-02	  0.032024048	-8.794600E+01	  0.032024048	3.490000E-01	  0.032024048	-5.182300E+01
62	  0.032224450	-6.100000E-02	  0.032224450	-8.840400E+01	  0.032224450	3.640000E-01	  0.032224450	-5.141000E+01
63	  0.032424849	-7.000000E-02	  0.032424849	-8.886000E+01	  0.032424849	4.150000E-01	  0.032424849	-5.100200E+01
64	  0.032625251	-8.100000E-02	  0.032625251	-8.936700E+01	  0.032625251	4.720000E-01	  0.032625251	-5.055300E+01
65	  0.032825653	-9.300000E-02	  0.032825653	-8.988600E+01	  0.032825653	5.390000E-01	  0.032825653	-5.009600E+01
66	  0.033026051	-1.020000E-01	  0.033026051	-9.045100E+01	  0.033026051	5.830000E-01	  0.033026051	-4.960400E+01
67	  0.033226453	-1.060000E-01	  0.033226453	-9.102100E+01	  0.033226453	6.020000E-01	  0.033226453	-4.911200E+01
68	  0.033426855	-1.110000E-01	  0.033426855	-9.159800E+01	  0.033426855	6.260000E-01	  0.033426855	-4.861900E+01
69	  0.033627257	-1.140000E-01	  0.033627257	-9.222800E+01	  0.033627257	6.320000E-01	  0.033627257	-4.808800E+01
70	  0.033827655	-1.160000E-01	  0.033827655	-9.284000E+01	  0.033827655	6.380000E-01	  0.033827655	-4.757600E+01
71	  0.034028057	-1.100000E-01	  0.034028057	-9.341500E+01	  0.034028057	5.990000E-01	  0.034028057	-4.710100E+01
72	  0.034228459	-1.000000E-01	  0.034228459	-9.400000E+01	  0.034228459	5.420000E-01	  0.034228459	-4.662200E+01
73	  0.034428857	-8.900000E-02	  0.034428857	-9.453300E+01	  0.034428857	4.790000E-01	  0.034428857	-4.618900E+01
74	  0.034629259	-7.800000E-02	  0.034629259	-9.504400E+01	  0.034629259	4.130000E-01	  0.034629259	-4.577900E+01
75	  0.034829661	-7.100000E-02	  0.034829661	-9.551700E+01	  0.034829661	3.750000E-01	  0.034829661	-4.540100E+01
76	  0.035030060	-6.300000E-02	  0.035030060	-9.596600E+01	  0.035030060	3.310000E-01	  0.035030060	-4.504500E+01
77	  0.035230462	-5.800000E-02	  0.035230462	-9.640300E+01	  0.035230462	3.040000E-01	  0.035230462	-4.470100E+01
78	  0.035430863	-5.500000E-02	  0.035430863	-9.682800E+01	  0.035430863	2.870000E-01	  0.035430863	-4.436800E+01
79	  0.035631265	-6.300000E-02	  0.035631265	-9.727600E+01	  0.035631265	3.250000E-01	  0.035631265	-4.402000E+01
80	  0.035831664	-7.100000E-02	  0.035831664	-9.775300E+01	  0.035831664	3.640000E-01	  0.035831664	-4.365200E+01
81	  0.036032066	-8.100000E-02	  0.036032066	-9.827800E+01	  0.036032066	4.110000E-01	  0.036032066	-4.324900E+01
82	  0.036232468	-8.700000E-02	  0.036232468	-9.879700E+01	  0.036232468	4.350000E-01	  0.036232468	-4.285500E+01
83	  0.036432866	-9.300000E-02	  0.036432866	-9.936700E+01	  0.036432866	4.610000E-01	  0.036432866	-4.242500E+01
84	  0.036633268	-9.700000E-02	  0.036633268	-9.989600E+01	  0.036633268	4.780000E-01	  0.036633268	-4.202900E+01
85	  0.036833670	-9.900000E-02	  0.036833670	-1.004480E+02	  0.036833670	4.830000E-01	  0.036833670	-4.162000E+01
86	  0.037034072	-9.300000E-02	  0.037034072	-1.009810E+02	  0.037034072	4.530000E-01	  0.037034072	-4.122800E+01
87	  0.037234470	-8.300000E-02	  0.037234470	-1.014850E+02	  0.037234470	4.000000E-01	  0.037234470	-4.086000E+01
88	  0.037434869	-7.600000E-02	  0.037434869	-1.019360E+02	  0.037434869	3.630000E-01	  0.037434869	-4.053400E+01
89	  0.037635271	-6.900000E-02	  0.037635271	-1.023760E+02	  0.037635271	3.310000E-01	  0.037635271	-4.021600E+01
90	  0.037835669	-7.200000E-02	  0.037835669	-1.028100E+02	  0.037835669	3.410000E-01	  0.037835669	-3.990500E+01
91	  0.038036071	-8.100000E-02	  0.038036071	-1.032640E+02	  0.038036071	3.790000E-01	  0.038036071	-3.958200E+01
92	  0.038236473	-8.800000E-02	  0.038236473	-1.037540E+02	  0.038236473	4.130000E-01	  0.038236473	-3.923500E+01
93	  0.038436871	-9.800000E-02	  0.038436871	-1.042610E+02	  0.038436871	4.540000E-01	  0.038436871	-3.887800E+01
94	  0.038637273	-1.060000E-01	  0.038637273	-1.047700E+02	  0.038637273	4.880000E-01	  0.038637273	-3.852300E+01
95	  0.038837675	-1.140000E-01	  0.038837675	-1.052930E+02	  0.038837675	5.210000E-01	  0.038837675	-3.816000E+01
96	  0.039038073	-1.240000E-01	  0.039038073	-1.058500E+02	  0.039038073	5.620000E-01	  0.039038073	-3.777600E+01
97	  0.039238475	-1.300000E-01	  0.039238475	-1.064060E+02	  0.039238475	5.860000E-01	  0.039238475	-3.739700E+01
98	  0.039438877	-1.300000E-01	  0.039438877	-1.069780E+02	  0.039438877	5.810000E-01	  0.039438877	-3.700900E+01
99	  0.039639279	-1.270000E-01	  0.039639279	-1.075250E+02	  0.039639279	5.650000E-01	  0.039639279	-3.664100E+01
100	  0.039839678	-1.210000E-01	  0.039839678	-1.080510E+02	  0.039839678	5.320000E-01	  0.039839678	-3.629000E+01
101	  0.040040080	-1.110000E-01	  0.040040080	-1.085470E+02	  0.040040080	4.860000E-01	  0.040040080	-3.596100E+01
102	  0.040240481	-1.020000E-01	  0.040240481	-1.090320E+02	  0.040240481	4.460000E-01	  0.040240481	-3.564100E+01
103	  0.040440880	-9.900000E-02	  0.040440880	-1.094980E+02	  0.040440880	4.290000E-01	  0.040440880	-3.533500E+01
104	  0.040641282	-9.300000E-02	  0.040641282	-1.099600E+02	  0.040641282	4.000000E-01	  0.040641282	-3.503400E+01
105	  0.040841684	-9.500000E-02	  0.040841684	-1.104260E+02	  0.040841684	4.080000E-01	  0.040841684	-3.473200E+01
106	  0.041042086	-9.600000E-02	  0.041042086	-1.108880E+02	  0.041042086	4.080000E-01	  0.041042086	-3.443400E+01
107	  0.041242484	-1.020000E-01	  0.041242484	-1.113510E+02	  0.041242484	4.330000E-01	  0.041242484	-3.413700E+01
108	  0.041442886	-1.140000E-01	  0.041442886	-1.118210E+02	  0.041442886	4.810000E-01	  0.041442886	-3.383600E+01
109	  0.041643288	-1.250000E-01	  0.041643288	-1.123470E+02	  0.041643288	5.240000E-01	  0.041643288	-3.350300E+01
110	  0.041843686	-1.310000E-01	  0.041843686	-1.128860E+02	  0.041843686	5.460000E-01	  0.041843686	-3.316200E+01
111	  0.042044088	-1.330000E-01	  0.042044088	-1.134320E+02	  0.042044088	5.510000E-01	  0.042044088	-3.282000E+01
112	  0.042244490	-1.270000E-01	  0.042244490	-1.139790E+02	  0.042244490	5.190000E-01	  0.042244490	-3.248000E+01
113	  0.042444889	-1.180000E-01	  0.042444889	-1.145160E+02	  0.042444889	4.810000E-01	  0.042444889	-3.214800E+01
114	  0.042645290	-1.090000E-01	  0.042645290	-1.149790E+02	  0.042645290	4.430000E-01	  0.042645290	-3.186400E+01
115	  0.042845692	-1.010000E-01	  0.042845692	-1.154440E+02	  0.042845692	4.080000E-01	  0.042845692	-3.158000E+01
116	  0.043046094	-1.020000E-01	  0.043046094	-1.159040E+02	  0.043046094	4.100000E-01	  0.043046094	-3.130000E+01
117	  0.043246493	-1.050000E-01	  0.043246493	-1.163660E+02	  0.043246493	4.190000E-01	  0.043246493	-3.101900E+01
118	  0.043446895	-1.110000E-01	  0.043446895	-1.168350E+02	  0.043446895	4.410000E-01	  0.043446895	-3.073700E+01
119	  0.043647297	-1.150000E-01	  0.043647297	-1.172970E+02	  0.043647297	4.560000E-01	  0.043647297	-3.045900E+01
120	  0.043847695	-1.220000E-01	  0.043847695	-1.177700E+02	  0.043847695	4.790000E-01	  0.043847695	-3.017700E+01
121	  0.044048097	-1.290000E-01	  0.044048097	-1.182570E+02	  0.044048097	5.050000E-01	  0.044048097	-2.988800E+01
122	  0.044248499	-1.390000E-01	  0.044248499	-1.187350E+02	  0.044248499	5.410000E-01	  0.044248499	-2.960500E+01
123	  0.044448901	-1.440000E-01	  0.044448901	-1.192590E+02	  0.044448901	5.590000E-01	  0.044448901	-2.929700E+01
124	  0.044649299	-1.470000E-01	  0.044649299	-1.197620E+02	  0.044649299	5.660000E-01	  0.044649299	-2.900300E+01
125	  0.044849701	-1.480000E-01	  0.044849701	-1.202730E+02	  0.044849701	5.670000E-01	  0.044849701	-2.870500E+01
126	  0.045050103	-1.450000E-01	  0.045050103	-1.207510E+02	  0.045050103	5.550000E-01	  0.045050103	-2.842900E+01
127	  0.045250501	-1.420000E-01	  0.045250501	-1.212180E+02	  0.045250501	5.410000E-01	  0.045250501	-2.816000E+01
128	  0.045450903	-1.410000E-01	  0.045450903	-1.216950E+02	  0.045450903	5.320000E-01	  0.045450903	-2.788700E+01
129	  0.045651305	-1.410000E-01	  0.045651305	-1.221730E+02	  0.045651305	5.300000E-01	  0.045651305	-2.761300E+01
130	  0.045851704	-1.370000E-01	  0.045851704	-1.226460E+02	  0.045851704	5.130000E-01	  0.045851704	-2.734500E+01
131	  0.046052106	-1.340000E-01	  0.046052106	-1.230850E+02	  0.046052106	5.000000E-01	  0.046052106	-2.709700E+01
132	  0.046252504	-1.350000E-01	  0.046252504	-1.235270E+02	  0.046252504	5.010000E-01	  0.046252504	-2.684800E+01
133	  0.046452906	-1.380000E-01	  0.046452906	-1.239550E+02	  0.046452906	5.100000E-01	  0.046452906	-2.660800E+01
134	  0.046653304	-1.480000E-01	  0.046653304	-1.243860E+02	  0.046653304	5.460000E-01	  0.046653304	-2.636700E+01
135	  0.046853706	-1.580000E-01	  0.046853706	-1.248370E+02	  0.046853706	5.820000E-01	  0.046853706	-2.611500E+01
136	  0.047054108	-1.670000E-01	  0.047054108	-1.253420E+02	  0.047054108	6.100000E-01	  0.047054108	-2.583500E+01
137	  0.047254506	-1.680000E-01	  0.047254506	-1.258760E+02	  0.047254506	6.110000E-01	  0.047254506	-2.554100E+01
138	  0.047454908	-1.670000E-01	  0.047454908	-1.264080E+02	  0.047454908	6.030000E-01	  0.047454908	-2.524900E+01
139	  0.047655310	-1.570000E-01	  0.047655310	-1.269210E+02	  0.047655310	5.650000E-01	  0.047655310	-2.496900E+01
140	  0.047855709	-1.510000E-01	  0.047855709	-1.273990E+02	  0.047855709	5.420000E-01	  0.047855709	-2.470900E+01
141	  0.048056111	-1.470000E-01	  0.048056111	-1.278930E+02	  0.048056111	5.250000E-01	  0.048056111	-2.444200E+01
142	  0.048256513	-1.430000E-01	  0.048256513	-1.283610E+02	  0.048256513	5.110000E-01	  0.048256513	-2.418900E+01
143	  0.048456915	-1.410000E-01	  0.048456915	-1.288280E+02	  0.048456915	5.010000E-01	  0.048456915	-2.393800E+01
144	  0.048657313	-1.440000E-01	  0.048657313	-1.292930E+02	  0.048657313	5.100000E-01	  0.048657313	-2.368900E+01
145	  0.048857715	-1.460000E-01	  0.048857715	-1.297660E+02	  0.048857715	5.150000E-01	  0.048857715	-2.343700E+01
146	  0.049058117	-1.490000E-01	  0.049058117	-1.302400E+02	  0.049058117	5.240000E-01	  0.049058117	-2.318500E+01
147	  0.049258515	-1.560000E-01	  0.049258515	-1.307330E+02	  0.049258515	5.450000E-01	  0.049258515	-2.292400E+01
148	  0.049458917	-1.610000E-01	  0.049458917	-1.312250E+02	  0.049458917	5.580000E-01	  0.049458917	-2.266500E+01
149	  0.049659319	-1.650000E-01	  0.049659319	-1.317320E+02	  0.049659319	5.710000E-01	  0.049659319	-2.239900E+01
150	  0.049859721	-1.640000E-01	  0.049859721	-1.322330E+02	  0.049859721	5.650000E-01	  0.049859721	-2.213600E+01
151	  0.050060119	-1.650000E-01	  0.050060119	-1.327340E+02	  0.050060119	5.650000E-01	  0.050060119	-2.187600E+01
152	  0.050260521	-1.610000E-01	  0.050260521	-1.332070E+02	  0.050260521	5.520000E-01	  0.050260521	-2.163000E+01
153	  0.050460923	-1.640000E-01	  0.050460923	-1.336850E+02	  0.050460923	5.600000E-01	  0.050460923	-2.138300E+01
154	  0.050661322	-1.640000E-01	  0.050661322	-1.341580E+02	  0.050661322	5.560000E-01	  0.050661322	-2.114000E+01
155	  0.050861724	-1.650000E-01	  0.050861724	-1.346460E+02	  0.050861724	5.610000E-01	  0.050861724	-2.088900E+01
156	  0.051062126	-1.610000E-01	  0.051062126	-1.351180E+02	  0.051062126	5.450000E-01	  0.051062126	-2.064800E+01
157	  0.051262524	-1.580000E-01	  0.051262524	-1.355610E+02	  0.051262524	5.310000E-01	  0.051262524	-2.042200E+01
158	  0.051462926	-1.580000E-01	  0.051462926	-1.359840E+02	  0.051462926	5.310000E-01	  0.051462926	-2.020700E+01
159	  0.051663328	-1.590000E-01	  0.051663328	-1.363930E+02	  0.051663328	5.340000E-01	  0.051663328	-1.999900E+01
160	  0.051863730	-1.680000E-01	  0.051863730	-1.368170E+02	  0.051863730	5.610000E-01	  0.051863730	-1.978500E+01
161	  0.052064128	-1.760000E-01	  0.052064128	-1.372370E+02	  0.052064128	5.870000E-01	  0.052064128	-1.957300E+01
162	  0.052264530	-1.830000E-01	  0.052264530	-1.376980E+02	  0.052264530	6.050000E-01	  0.052264530	-1.934100E+01
163	  0.052464932	-1.870000E-01	  0.052464932	-1.381810E+02	  0.052464932	6.180000E-01	  0.052464932	-1.909900E+01
164	  0.052665330	-1.860000E-01	  0.052665330	-1.386600E+02	  0.052665330	6.130000E-01	  0.052665330	-1.886000E+01
165	  0.052865732	-1.820000E-01	  0.052865732	-1.391220E+02	  0.052865732	5.970000E-01	  0.052865732	-1.863100E+01
166	  0.053066134	-1.830000E-01	  0.053066134	-1.395820E+02	  0.053066134	5.980000E-01	  0.053066134	-1.840200E+01
167	  0.053266536	-1.760000E-01	  0.053266536	-1.400390E+02	  0.053266536	5.740000E-01	  0.053266536	-1.817600E+01
168	  0.053466935	-1.770000E-01	  0.053466935	-1.404940E+02	  0.053466935	5.780000E-01	  0.053466935	-1.795200E+01
169	  0.053667337	-1.760000E-01	  0.053667337	-1.409430E+02	  0.053667337	5.720000E-01	  0.053667337	-1.773100E+01
170	  0.053867739	-1.750000E-01	  0.053867739	-1.413910E+02	  0.053867739	5.680000E-01	  0.053867739	-1.751100E+01
171	  0.054068137	-1.780000E-01	  0.054068137	-1.418270E+02	  0.054068137	5.740000E-01	  0.054068137	-1.729800E+01
172	  0.054268539	-1.830000E-01	  0.054268539	-1.422600E+02	  0.054268539	5.900000E-01	  0.054268539	-1.708700E+01
173	  0.054468941	-1.900000E-01	  0.054468941	-1.427270E+02	  0.054468941	6.090000E-01	  0.054468941	-1.685900E+01
174	  0.054669339	-1.910000E-01	  0.054669339	-1.431930E+02	  0.054669339	6.110000E-01	  0.054669339	-1.663300E+01
175	  0.054869737	-1.920000E-01	  0.054869737	-1.436680E+02	  0.054869737	6.140000E-01	  0.054869737	-1.640400E+01
176	  0.055070139	-1.930000E-01	  0.055070139	-1.441540E+02	  0.055070139	6.150000E-01	  0.055070139	-1.616900E+01
177	  0.055270538	-1.920000E-01	  0.055270538	-1.446090E+02	  0.055270538	6.090000E-01	  0.055270538	-1.595000E+01
178	  0.055470940	-1.910000E-01	  0.055470940	-1.450650E+02	  0.055470940	6.060000E-01	  0.055470940	-1.573100E+01
179	  0.055671342	-1.950000E-01	  0.055671342	-1.455110E+02	  0.055671342	6.160000E-01	  0.055671342	-1.551700E+01
180	  0.055871744	-1.940000E-01	  0.055871744	-1.459840E+02	  0.055871744	6.130000E-01	  0.055871744	-1.529100E+01
181	  0.056072142	-1.960000E-01	  0.056072142	-1.464720E+02	  0.056072142	6.150000E-01	  0.056072142	-1.505900E+01
182	  0.056272544	-1.940000E-01	  0.056272544	-1.469310E+02	  0.056272544	6.090000E-01	  0.056272544	-1.484100E+01
183	  0.056472946	-1.900000E-01	  0.056472946	-1.473940E+02	  0.056472946	5.950000E-01	  0.056472946	-1.462100E+01
184	  0.056673344	-1.900000E-01	  0.056673344	-1.478310E+02	  0.056673344	5.930000E-01	  0.056673344	-1.441500E+01
185	  0.056873746	-1.920000E-01	  0.056873746	-1.482550E+02	  0.056873746	5.980000E-01	  0.056873746	-1.421500E+01
186	  0.057074148	-1.920000E-01	  0.057074148	-1.486750E+02	  0.057074148	5.960000E-01	  0.057074148	-1.401700E+01
187	  0.057274550	-1.960000E-01	  0.057274550	-1.490970E+02	  0.057274550	6.080000E-01	  0.057274550	-1.381800E+01
188	  0.057474948	-2.030000E-01	  0.057474948	-1.495310E+02	  0.057474948	6.280000E-01	  0.057474948	-1.361400E+01
189	  0.057675350	-2.070000E-01	  0.057675350	-1.499810E+02	  0.057675350	6.410000E-01	  0.057675350	-1.340300E+01
190	  0.057875752	-2.100000E-01	  0.057875752	-1.504420E+02	  0.057875752	6.470000E-01	  0.057875752	-1.318800E+01
191	  0.058076151	-2.120000E-01	  0.058076151	-1.508920E+02	  0.058076151	6.520000E-01	  0.058076151	-1.297800E+01
192	  0.058276553	-2.080000E-01	  0.058276553	-1.513540E+02	  0.058276553	6.390000E-01	  0.058276553	-1.276300E+01
193	  0.058476955	-2.080000E-01	  0.058476955	-1.518150E+02	  0.058476955	6.370000E-01	  0.058476955	-1.254900E+01
194	  0.058677353	-2.060000E-01	  0.058677353	-1.522720E+02	  0.058677353	6.310000E-01	  0.058677353	-1.233800E+01
195	  0.058877755	-2.050000E-01	  0.058877755	-1.527020E+02	  0.058877755	6.260000E-01	  0.058877755	-1.213900E+01
196	  0.059078157	-2.050000E-01	  0.059078157	-1.531400E+02	  0.059078157	6.240000E-01	  0.059078157	-1.193700E+01
197	  0.059278559	-2.090000E-01	  0.059278559	-1.535680E+02	  0.059278559	6.360000E-01	  0.059278559	-1.174000E+01
198	  0.059478957	-2.110000E-01	  0.059478957	-1.540090E+02	  0.059478957	6.410000E-01	  0.059478957	-1.153700E+01
199	  0.059679359	-2.150000E-01	  0.059679359	-1.544630E+02	  0.059679359	6.510000E-01	  0.059679359	-1.132800E+01
200	  0.059879761	-2.190000E-01	  0.059879761	-1.549250E+02	  0.059879761	6.640000E-01	  0.059879761	-1.111600E+01
201	  0.060080159	-2.190000E-01	  0.060080159	-1.553780E+02	  0.060080159	6.610000E-01	  0.060080159	-1.090900E+01
202	  0.060280561	-2.160000E-01	  0.060280561	-1.558370E+02	  0.060280561	6.530000E-01	  0.060280561	-1.070000E+01
203	  0.060480963	-2.160000E-01	  0.060480963	-1.562830E+02	  0.060480963	6.510000E-01	  0.060480963	-1.049600E+01
204	  0.060681365	-2.200000E-01	  0.060681365	-1.567270E+02	  0.060681365	6.600000E-01	  0.060681365	-1.029400E+01
205	  0.060881764	-2.200000E-01	  0.060881764	-1.571670E+02	  0.060881764	6.610000E-01	  0.060881764	-1.009400E+01
206	  0.061082166	-2.200000E-01	  0.061082166	-1.576210E+02	  0.061082166	6.590000E-01	  0.061082166	-9.888000E+00
207	  0.061282568	-2.220000E-01	  0.061282568	-1.580800E+02	  0.061282568	6.640000E-01	  0.061282568	-9.680000E+00
208	  0.061482966	-2.190000E-01	  0.061482966	-1.585390E+02	  0.061482966	6.530000E-01	  0.061482966	-9.473000E+00
209	  0.061683368	-2.180000E-01	  0.061683368	-1.589850E+02	  0.061683368	6.490000E-01	  0.061683368	-9.271000E+00
210	  0.061883770	-2.190000E-01	  0.061883770	-1.594050E+02	  0.061883770	6.510000E-01	  0.061883770	-9.082000E+00
211	  0.062084168	-2.160000E-01	  0.062084168	-1.598230E+02	  0.062084168	6.420000E-01	  0.062084168	-8.894000E+00
212	  0.062284570	-2.180000E-01	  0.062284570	-1.602520E+02	  0.062284570	6.460000E-01	  0.062284570	-8.701000E+00
213	  0.062484972	-2.170000E-01	  0.062484972	-1.606400E+02	  0.062484972	6.430000E-01	  0.062484972	-8.527000E+00
214	  0.062685370	-2.180000E-01	  0.062685370	-1.610380E+02	  0.062685370	6.450000E-01	  0.062685370	-8.348000E+00
215	  0.062885776	-2.220000E-01	  0.062885776	-1.614450E+02	  0.062885776	6.570000E-01	  0.062885776	-8.165000E+00
216	  0.063086174	-2.260000E-01	  0.063086174	-1.618720E+02	  0.063086174	6.670000E-01	  0.063086174	-7.974000E+00
217	  0.063286573	-2.290000E-01	  0.063286573	-1.623070E+02	  0.063286573	6.760000E-01	  0.063286573	-7.780000E+00
218	  0.063486971	-2.270000E-01	  0.063486971	-1.627260E+02	  0.063486971	6.690000E-01	  0.063486971	-7.593000E+00
219	  0.063687377	-2.270000E-01	  0.063687377	-1.631530E+02	  0.063687377	6.700000E-01	  0.063687377	-7.402000E+00
220	  0.063887775	-2.240000E-01	  0.063887775	-1.635600E+02	  0.063887775	6.590000E-01	  0.063887775	-7.221000E+00
221	  0.064088173	-2.240000E-01	  0.064088173	-1.639480E+02	  0.064088173	6.580000E-01	  0.064088173	-7.048000E+00
222	  0.064288579	-2.270000E-01	  0.064288579	-1.643680E+02	  0.064288579	6.670000E-01	  0.064288579	-6.861000E+00
223	  0.064488977	-2.320000E-01	  0.064488977	-1.647740E+02	  0.064488977	6.810000E-01	  0.064488977	-6.681000E+00
224	  0.064689375	-2.320000E-01	  0.064689375	-1.651990E+02	  0.064689375	6.800000E-01	  0.064689375	-6.493000E+00
225	  0.064889781	-2.360000E-01	  0.064889781	-1.656300E+02	  0.064889781	6.900000E-01	  0.064889781	-6.301000E+00
226	  0.065090179	-2.380000E-01	  0.065090179	-1.660540E+02	  0.065090179	6.950000E-01	  0.065090179	-6.113000E+00
227	  0.065290578	-2.390000E-01	  0.065290578	-1.664820E+02	  0.065290578	6.990000E-01	  0.065290578	-5.924000E+00
228	  0.065490983	-2.390000E-01	  0.065490983	-1.669010E+02	  0.065490983	6.970000E-01	  0.065490983	-5.739000E+00
229	  0.065691382	-2.420000E-01	  0.065691382	-1.673250E+02	  0.065691382	7.050000E-01	  0.065691382	-5.551000E+00
230	  0.065891780	-2.410000E-01	  0.065891780	-1.677650E+02	  0.065891780	7.040000E-01	  0.065891780	-5.357000E+00
231	  0.066092186	-2.440000E-01	  0.066092186	-1.681820E+02	  0.066092186	7.120000E-01	  0.066092186	-5.173000E+00
232	  0.066292584	-2.470000E-01	  0.066292584	-1.686440E+02	  0.066292584	7.170000E-01	  0.066292584	-4.969000E+00
233	  0.066492982	-2.480000E-01	  0.066492982	-1.690770E+02	  0.066492982	7.210000E-01	  0.066492982	-4.779000E+00
234	  0.066693388	-2.460000E-01	  0.066693388	-1.695280E+02	  0.066693388	7.160000E-01	  0.066693388	-4.580000E+00
235	  0.066893786	-2.480000E-01	  0.066893786	-1.699700E+02	  0.066893786	7.210000E-01	  0.066893786	-4.386000E+00
236	  0.067094192	-2.500000E-01	  0.067094192	-1.704210E+02	  0.067094192	7.240000E-01	  0.067094192	-4.188000E+00
237	  0.067294590	-2.500000E-01	  0.067294590	-1.708700E+02	  0.067294590	7.240000E-01	  0.067294590	-3.991000E+00
238	  0.067494988	-2.500000E-01	  0.067494988	-1.712740E+02	  0.067494988	7.250000E-01	  0.067494988	-3.813000E+00
239	  0.067695394	-2.500000E-01	  0.067695394	-1.717060E+02	  0.067695394	7.240000E-01	  0.067695394	-3.624000E+00
240	  0.067895792	-2.480000E-01	  0.067895792	-1.720970E+02	  0.067895792	7.170000E-01	  0.067895792	-3.452000E+00
241	  0.068096191	-2.510000E-01	  0.068096191	-1.725220E+02	  0.068096191	7.270000E-01	  0.068096191	-3.266000E+00
242	  0.068296596	-2.530000E-01	  0.068296596	-1.729270E+02	  0.068296596	7.310000E-01	  0.068296596	-3.089000E+00
243	  0.068496995	-2.550000E-01	  0.068496995	-1.733680E+02	  0.068496995	7.380000E-01	  0.068496995	-2.896000E+00
244	  0.068697393	-2.540000E-01	  0.068697393	-1.737900E+02	  0.068697393	7.350000E-01	  0.068697393	-2.711000E+00
245	  0.068897791	-2.540000E-01	  0.068897791	-1.742050E+02	  0.068897791	7.340000E-01	  0.068897791	-2.529000E+00
246	  0.069098189	-2.500000E-01	  0.069098189	-1.746020E+02	  0.069098189	7.230000E-01	  0.069098189	-2.356000E+00
247	  0.069298595	-2.500000E-01	  0.069298595	-1.749980E+02	  0.069298595	7.200000E-01	  0.069298595	-2.183000E+00
248	  0.069498993	-2.520000E-01	  0.069498993	-1.754000E+02	  0.069498993	7.260000E-01	  0.069498993	-2.007000E+00
249	  0.069699399	-2.560000E-01	  0.069699399	-1.758200E+02	  0.069699399	7.380000E-01	  0.069699399	-1.824000E+00
250	  0.069899797	-2.570000E-01	  0.069899797	-1.762340E+02	  0.069899797	7.410000E-01	  0.069899797	-1.643000E+00
251	  0.070100196	-2.570000E-01	  0.070100196	-1.766380E+02	  0.070100196	7.410000E-01	  0.070100196	-1.466000E+00
252	  0.070300601	-2.610000E-01	  0.070300601	-1.770450E+02	  0.070300601	7.530000E-01	  0.070300601	-1.289000E+00
253	  0.070501000	-2.600000E-01	  0.070501000	-1.774490E+02	  0.070501000	7.500000E-01	  0.070501000	-1.113000E+00
254	  0.070701398	-2.640000E-01	  0.070701398	-1.778290E+02	  0.070701398	7.610000E-01	  0.070701398	-9.460000E-01
255	  0.070901804	-2.650000E-01	  0.070901804	-1.782530E+02	  0.070901804	7.630000E-01	  0.070901804	-7.610000E-01
256	  0.071102202	-2.660000E-01	  0.071102202	-1.786690E+02	  0.071102202	7.660000E-01	  0.071102202	-5.800000E-01
257	  0.071302600	-2.670000E-01	  0.071302600	-1.790910E+02	  0.071302600	7.680000E-01	  0.071302600	-3.960000E-01
258	  0.071503006	-2.680000E-01	  0.071503006	-1.795120E+02	  0.071503006	7.730000E-01	  0.071503006	-2.120000E-01
259	  0.071703404	-2.680000E-01	  0.071703404	-1.799440E+02	  0.071703404	7.730000E-01	  0.071703404	-2.400000E-02
260	  0.071903802	-2.710000E-01	  0.071903802	1.796220E+02	  0.071903802	7.800000E-01	  0.071903802	1.640000E-01
261	  0.072104208	-2.730000E-01	  0.072104208	1.792010E+02	  0.072104208	7.870000E-01	  0.072104208	3.480000E-01
262	  0.072304606	-2.750000E-01	  0.072304606	1.787730E+02	  0.072304606	7.940000E-01	  0.072304606	5.350000E-01
263	  0.072505005	-2.770000E-01	  0.072505005	1.783350E+02	  0.072505005	7.990000E-01	  0.072505005	7.260000E-01
264	  0.072705410	-2.770000E-01	  0.072705410	1.779270E+02	  0.072705410	7.970000E-01	  0.072705410	9.040000E-01
265	  0.072905809	-2.760000E-01	  0.072905809	1.775050E+02	  0.072905809	7.950000E-01	  0.072905809	1.088000E+00
266	  0.073106214	-2.760000E-01	  0.073106214	1.771110E+02	  0.073106214	7.970000E-01	  0.073106214	1.260000E+00
267	  0.073306613	-2.780000E-01	  0.073306613	1.767010E+02	  0.073306613	8.010000E-01	  0.073306613	1.439000E+00
268	  0.073507011	-2.770000E-01	  0.073507011	1.762700E+02	  0.073507011	7.980000E-01	  0.073507011	1.627000E+00
269	  0.073707417	-2.790000E-01	  0.073707417	1.758780E+02	  0.073707417	8.040000E-01	  0.073707417	1.798000E+00
270	  0.073907815	-2.750000E-01	  0.073907815	1.754760E+02	  0.073907815	7.950000E-01	  0.073907815	1.974000E+00
271	  0.074108213	-2.730000E-01	  0.074108213	1.750730E+02	  0.074108213	7.880000E-01	  0.074108213	2.150000E+00
272	  0.074308619	-2.720000E-01	  0.074308619	1.746850E+02	  0.074308619	7.870000E-01	  0.074308619	2.320000E+00
273	  0.074509017	-2.740000E-01	  0.074509017	1.743080E+02	  0.074509017	7.900000E-01	  0.074509017	2.484000E+00
274	  0.074709415	-2.750000E-01	  0.074709415	1.739130E+02	  0.074709415	7.940000E-01	  0.074709415	2.657000E+00
275	  0.074909821	-2.760000E-01	  0.074909821	1.735270E+02	  0.074909821	7.990000E-01	  0.074909821	2.826000E+00
276	  0.075110219	-2.770000E-01	  0.075110219	1.731390E+02	  0.075110219	8.020000E-01	  0.075110219	2.996000E+00
277	  0.075310618	-2.780000E-01	  0.075310618	1.727380E+02	  0.075310618	8.060000E-01	  0.075310618	3.171000E+00
278	  0.075511023	-2.780000E-01	  0.075511023	1.723590E+02	  0.075511023	8.060000E-01	  0.075511023	3.337000E+00
279	  0.075711422	-2.800000E-01	  0.075711422	1.719790E+02	  0.075711422	8.100000E-01	  0.075711422	3.504000E+00
280	  0.075911827	-2.840000E-01	  0.075911827	1.716080E+02	  0.075911827	8.210000E-01	  0.075911827	3.667000E+00
281	  0.076112226	-2.850000E-01	  0.076112226	1.712330E+02	  0.076112226	8.260000E-01	  0.076112226	3.831000E+00
282	  0.076312624	-2.830000E-01	  0.076312624	1.708240E+02	  0.076312624	8.220000E-01	  0.076312624	4.010000E+00
283	  0.076513030	-2.850000E-01	  0.076513030	1.704450E+02	  0.076513030	8.260000E-01	  0.076513030	4.177000E+00
284	  0.076713428	-2.890000E-01	  0.076713428	1.700590E+02	  0.076713428	8.380000E-01	  0.076713428	4.346000E+00
285	  0.076913826	-2.880000E-01	  0.076913826	1.696250E+02	  0.076913826	8.360000E-01	  0.076913826	4.538000E+00
286	  0.077114232	-2.880000E-01	  0.077114232	1.692430E+02	  0.077114232	8.370000E-01	  0.077114232	4.705000E+00
287	  0.077314630	-2.890000E-01	  0.077314630	1.688180E+02	  0.077314630	8.410000E-01	  0.077314630	4.892000E+00
288	  0.077515028	-2.930000E-01	  0.077515028	1.684060E+02	  0.077515028	8.520000E-01	  0.077515028	5.074000E+00
289	  0.077715434	-2.940000E-01	  0.077715434	1.680290E+02	  0.077715434	8.580000E-01	  0.077715434	5.240000E+00
290	  0.077915832	-2.950000E-01	  0.077915832	1.676250E+02	  0.077915832	8.590000E-01	  0.077915832	5.418000E+00
291	  0.078116231	-2.970000E-01	  0.078116231	1.672290E+02	  0.078116231	8.670000E-01	  0.078116231	5.593000E+00
292	  0.078316636	-2.990000E-01	  0.078316636	1.668270E+02	  0.078316636	8.720000E-01	  0.078316636	5.771000E+00
293	  0.078517035	-3.010000E-01	  0.078517035	1.664220E+02	  0.078517035	8.800000E-01	  0.078517035	5.950000E+00
294	  0.078717433	-3.020000E-01	  0.078717433	1.659790E+02	  0.078717433	8.830000E-01	  0.078717433	6.146000E+00
295	  0.078917839	-3.030000E-01	  0.078917839	1.655760E+02	  0.078917839	8.860000E-01	  0.078917839	6.325000E+00
296	  0.079118237	-3.000000E-01	  0.079118237	1.651710E+02	  0.079118237	8.800000E-01	  0.079118237	6.504000E+00
297	  0.079318643	-2.990000E-01	  0.079318643	1.647810E+02	  0.079318643	8.770000E-01	  0.079318643	6.677000E+00
298	  0.079519041	-2.970000E-01	  0.079519041	1.643930E+02	  0.079519041	8.710000E-01	  0.079519041	6.849000E+00
299	  0.079719439	-2.990000E-01	  0.079719439	1.640060E+02	  0.079719439	8.780000E-01	  0.079719439	7.022000E+00
300	  0.079919845	-3.010000E-01	  0.079919845	1.635920E+02	  0.079919845	8.860000E-01	  0.079919845	7.206000E+00
301	  0.080120243	-3.030000E-01	  0.080120243	1.631980E+02	  0.080120243	8.930000E-01	  0.080120243	7.381000E+00
302	  0.080320641	-3.010000E-01	  0.080320641	1.628040E+02	  0.080320641	8.880000E-01	  0.080320641	7.557000E+00
303	  0.080521047	-3.030000E-01	  0.080521047	1.624240E+02	  0.080521047	8.950000E-01	  0.080521047	7.727000E+00
304	  0.080721445	-3.050000E-01	  0.080721445	1.620450E+02	  0.080721445	9.000000E-01	  0.080721445	7.896000E+00
305	  0.080921844	-3.070000E-01	  0.080921844	1.616810E+02	  0.080921844	9.070000E-01	  0.080921844	8.059000E+00
306	  0.081122249	-3.050000E-01	  0.081122249	1.613070E+02	  0.081122249	9.010000E-01	  0.081122249	8.226000E+00
307	  0.081322648	-3.040000E-01	  0.081322648	1.609200E+02	  0.081322648	9.000000E-01	  0.081322648	8.400000E+00
308	  0.081523046	-3.070000E-01	  0.081523046	1.605410E+02	  0.081523046	9.120000E-01	  0.081523046	8.570000E+00
309	  0.081723452	-3.050000E-01	  0.081723452	1.601600E+02	  0.081723452	9.070000E-01	  0.081723452	8.741000E+00
310	  0.081923850	-3.070000E-01	  0.081923850	1.597790E+02	  0.081923850	9.140000E-01	  0.081923850	8.912000E+00
311	  0.082124248	-3.060000E-01	  0.082124248	1.594050E+02	  0.082124248	9.110000E-01	  0.082124248	9.081000E+00
312	  0.082324654	-3.060000E-01	  0.082324654	1.590240E+02	  0.082324654	9.120000E-01	  0.082324654	9.252000E+00
313	  0.082525052	-3.060000E-01	  0.082525052	1.586450E+02	  0.082525052	9.140000E-01	  0.082525052	9.424000E+00
314	  0.082725458	-3.040000E-01	  0.082725458	1.582740E+02	  0.082725458	9.090000E-01	  0.082725458	9.591000E+00
315	  0.082925856	-3.060000E-01	  0.082925856	1.579140E+02	  0.082925856	9.160000E-01	  0.082925856	9.754000E+00
316	  0.083126254	-3.070000E-01	  0.083126254	1.575530E+02	  0.083126254	9.190000E-01	  0.083126254	9.918000E+00
317	  0.083326660	-3.090000E-01	  0.083326660	1.571950E+02	  0.083326660	9.270000E-01	  0.083326660	1.008000E+01
318	  0.083527058	-3.130000E-01	  0.083527058	1.568300E+02	  0.083527058	9.400000E-01	  0.083527058	1.024600E+01
319	  0.083727457	-3.160000E-01	  0.083727457	1.564500E+02	  0.083727457	9.500000E-01	  0.083727457	1.041900E+01
320	  0.083927862	-3.160000E-01	  0.083927862	1.560150E+02	  0.083927862	9.510000E-01	  0.083927862	1.061700E+01
321	  0.084128261	-3.170000E-01	  0.084128261	1.556100E+02	  0.084128261	9.570000E-01	  0.084128261	1.080100E+01
322	  0.084328659	-3.170000E-01	  0.084328659	1.552410E+02	  0.084328659	9.560000E-01	  0.084328659	1.097000E+01
323	  0.084529065	-3.150000E-01	  0.084529065	1.548690E+02	  0.084529065	9.530000E-01	  0.084529065	1.114000E+01
324	  0.084729463	-3.160000E-01	  0.084729463	1.545010E+02	  0.084729463	9.580000E-01	  0.084729463	1.130900E+01
325	  0.084929861	-3.190000E-01	  0.084929861	1.541040E+02	  0.084929861	9.680000E-01	  0.084929861	1.149100E+01
326	  0.085130267	-3.190000E-01	  0.085130267	1.537290E+02	  0.085130267	9.680000E-01	  0.085130267	1.166300E+01
327	  0.085330658	-3.230000E-01	  0.085330658	1.533340E+02	  0.085330658	9.830000E-01	  0.085330658	1.184500E+01
328	  0.085531056	-3.230000E-01	  0.085531056	1.529460E+02	  0.085531056	9.840000E-01	  0.085531056	1.202400E+01
329	  0.085731462	-3.250000E-01	  0.085731462	1.525720E+02	  0.085731462	9.930000E-01	  0.085731462	1.219600E+01
330	  0.085931860	-3.280000E-01	  0.085931860	1.521890E+02	  0.085931860	1.004000E+00	  0.085931860	1.237300E+01
331	  0.086132258	-3.300000E-01	  0.086132258	1.518100E+02	  0.086132258	1.010000E+00	  0.086132258	1.254900E+01
332	  0.086332664	-3.300000E-01	  0.086332664	1.514260E+02	  0.086332664	1.013000E+00	  0.086332664	1.272700E+01
333	  0.086533062	-3.300000E-01	  0.086533062	1.510260E+02	  0.086533062	1.015000E+00	  0.086533062	1.291300E+01
334	  0.086733460	-3.280000E-01	  0.086733460	1.506500E+02	  0.086733460	1.009000E+00	  0.086733460	1.308800E+01
335	  0.086933866	-3.280000E-01	  0.086933866	1.502610E+02	  0.086933866	1.012000E+00	  0.086933866	1.327000E+01
336	  0.087134264	-3.290000E-01	  0.087134264	1.498630E+02	  0.087134264	1.017000E+00	  0.087134264	1.345600E+01
337	  0.087334670	-3.280000E-01	  0.087334670	1.495050E+02	  0.087334670	1.016000E+00	  0.087334670	1.362300E+01
338	  0.087535068	-3.270000E-01	  0.087535068	1.491380E+02	  0.087535068	1.014000E+00	  0.087535068	1.379600E+01
339	  0.087735467	-3.230000E-01	  0.087735467	1.487720E+02	  0.087735467	1.003000E+00	  0.087735467	1.396800E+01
340	  0.087935872	-3.200000E-01	  0.087935872	1.483920E+02	  0.087935872	9.940000E-01	  0.087935872	1.414700E+01
341	  0.088136271	-3.190000E-01	  0.088136271	1.480460E+02	  0.088136271	9.950000E-01	  0.088136271	1.430900E+01
342	  0.088336669	-3.170000E-01	  0.088336669	1.477010E+02	  0.088336669	9.900000E-01	  0.088336669	1.447300E+01
343	  0.088537075	-3.190000E-01	  0.088537075	1.473810E+02	  0.088537075	9.970000E-01	  0.088537075	1.462400E+01
344	  0.088737473	-3.210000E-01	  0.088737473	1.470240E+02	  0.088737473	1.005000E+00	  0.088737473	1.479300E+01
345	  0.088937871	-3.230000E-01	  0.088937871	1.466800E+02	  0.088937871	1.013000E+00	  0.088937871	1.495600E+01
346	  0.089138277	-3.220000E-01	  0.089138277	1.462910E+02	  0.089138277	1.013000E+00	  0.089138277	1.514100E+01
347	  0.089338675	-3.220000E-01	  0.089338675	1.459400E+02	  0.089338675	1.015000E+00	  0.089338675	1.530900E+01
348	  0.089539073	-3.220000E-01	  0.089539073	1.455710E+02	  0.089539073	1.016000E+00	  0.089539073	1.548500E+01
349	  0.089739479	-3.240000E-01	  0.089739479	1.452120E+02	  0.089739479	1.026000E+00	  0.089739479	1.565600E+01
350	  0.089939877	-3.250000E-01	  0.089939877	1.448710E+02	  0.089939877	1.030000E+00	  0.089939877	1.582000E+01
351	  0.090140276	-3.280000E-01	  0.090140276	1.445040E+02	  0.090140276	1.041000E+00	  0.090140276	1.599600E+01
352	  0.090340681	-3.280000E-01	  0.090340681	1.441300E+02	  0.090340681	1.045000E+00	  0.090340681	1.617600E+01
353	  0.090541080	-3.310000E-01	  0.090541080	1.437510E+02	  0.090541080	1.055000E+00	  0.090541080	1.635900E+01
354	  0.090741485	-3.310000E-01	  0.090741485	1.433980E+02	  0.090741485	1.057000E+00	  0.090741485	1.653000E+01
355	  0.090941884	-3.350000E-01	  0.090941884	1.430250E+02	  0.090941884	1.072000E+00	  0.090941884	1.671000E+01
356	  0.091142282	-3.390000E-01	  0.091142282	1.426590E+02	  0.091142282	1.088000E+00	  0.091142282	1.688700E+01
357	  0.091342688	-3.440000E-01	  0.091342688	1.422910E+02	  0.091342688	1.106000E+00	  0.091342688	1.706600E+01
358	  0.091543086	-3.480000E-01	  0.091543086	1.419020E+02	  0.091543086	1.122000E+00	  0.091543086	1.725600E+01
359	  0.091743484	-3.470000E-01	  0.091743484	1.415010E+02	  0.091743484	1.122000E+00	  0.091743484	1.745200E+01
360	  0.091943890	-3.490000E-01	  0.091943890	1.411060E+02	  0.091943890	1.131000E+00	  0.091943890	1.764500E+01
361	  0.092144288	-3.510000E-01	  0.092144288	1.406950E+02	  0.092144288	1.139000E+00	  0.092144288	1.784700E+01
362	  0.092344686	-3.510000E-01	  0.092344686	1.403060E+02	  0.092344686	1.141000E+00	  0.092344686	1.803800E+01
363	  0.092545092	-3.540000E-01	  0.092545092	1.399100E+02	  0.092545092	1.156000E+00	  0.092545092	1.823400E+01
364	  0.092745490	-3.520000E-01	  0.092745490	1.395440E+02	  0.092745490	1.151000E+00	  0.092745490	1.841500E+01
365	  0.092945889	-3.500000E-01	  0.092945889	1.391310E+02	  0.092945889	1.150000E+00	  0.092945889	1.862000E+01
366	  0.093146294	-3.490000E-01	  0.093146294	1.387560E+02	  0.093146294	1.147000E+00	  0.093146294	1.880600E+01
367	  0.093346693	-3.420000E-01	  0.093346693	1.384080E+02	  0.093346693	1.129000E+00	  0.093346693	1.898000E+01
368	  0.093547091	-3.450000E-01	  0.093547091	1.380490E+02	  0.093547091	1.138000E+00	  0.093547091	1.915900E+01
369	  0.093747497	-3.420000E-01	  0.093747497	1.377080E+02	  0.093747497	1.133000E+00	  0.093747497	1.933000E+01
370	  0.093947895	-3.450000E-01	  0.093947895	1.373550E+02	  0.093947895	1.145000E+00	  0.093947895	1.950700E+01
371	  0.094148301	-3.440000E-01	  0.094148301	1.370010E+02	  0.094148301	1.144000E+00	  0.094148301	1.968500E+01
372	  0.094348699	-3.420000E-01	  0.094348699	1.366480E+02	  0.094348699	1.139000E+00	  0.094348699	1.986400E+01
373	  0.094549097	-3.400000E-01	  0.094549097	1.363090E+02	  0.094549097	1.137000E+00	  0.094549097	2.003500E+01
374	  0.094749503	-3.410000E-01	  0.094749503	1.359690E+02	  0.094749503	1.142000E+00	  0.094749503	2.020700E+01
375	  0.094949901	-3.390000E-01	  0.094949901	1.356330E+02	  0.094949901	1.138000E+00	  0.094949901	2.037800E+01
376	  0.095150299	-3.350000E-01	  0.095150299	1.353020E+02	  0.095150299	1.129000E+00	  0.095150299	2.054700E+01
377	  0.095350705	-3.370000E-01	  0.095350705	1.349630E+02	  0.095350705	1.139000E+00	  0.095350705	2.072000E+01
378	  0.095551103	-3.350000E-01	  0.095551103	1.346320E+02	  0.095551103	1.134000E+00	  0.095551103	2.088900E+01
379	  0.095751502	-3.310000E-01	  0.095751502	1.343080E+02	  0.095751502	1.121000E+00	  0.095751502	2.105600E+01
380	  0.095951907	-3.310000E-01	  0.095951907	1.339790E+02	  0.095951907	1.126000E+00	  0.095951907	2.122500E+01
381	  0.096152306	-3.330000E-01	  0.096152306	1.336440E+02	  0.096152306	1.135000E+00	  0.096152306	2.139700E+01
382	  0.096352704	-3.360000E-01	  0.096352704	1.333460E+02	  0.096352704	1.148000E+00	  0.096352704	2.155100E+01
383	  0.096553110	-3.400000E-01	  0.096553110	1.330080E+02	  0.096553110	1.163000E+00	  0.096553110	2.172600E+01
384	  0.096753508	-3.420000E-01	  0.096753508	1.326570E+02	  0.096753508	1.173000E+00	  0.096753508	2.190800E+01
385	  0.096953906	-3.420000E-01	  0.096953906	1.322980E+02	  0.096953906	1.179000E+00	  0.096953906	2.209500E+01
386	  0.097154312	-3.420000E-01	  0.097154312	1.319410E+02	  0.097154312	1.182000E+00	  0.097154312	2.228100E+01
387	  0.097354710	-3.500000E-01	  0.097354710	1.315790E+02	  0.097354710	1.212000E+00	  0.097354710	2.247000E+01
388	  0.097555116	-3.520000E-01	  0.097555116	1.312160E+02	  0.097555116	1.222000E+00	  0.097555116	2.266100E+01
389	  0.097755514	-3.520000E-01	  0.097755514	1.308320E+02	  0.097755514	1.227000E+00	  0.097755514	2.286300E+01
390	  0.097955912	-3.530000E-01	  0.097955912	1.304600E+02	  0.097955912	1.232000E+00	  0.097955912	2.305900E+01
391	  0.098156318	-3.520000E-01	  0.098156318	1.300800E+02	  0.098156318	1.235000E+00	  0.098156318	2.326000E+01
392	  0.098356716	-3.540000E-01	  0.098356716	1.296930E+02	  0.098356716	1.246000E+00	  0.098356716	2.346600E+01
393	  0.098557115	-3.570000E-01	  0.098557115	1.293200E+02	  0.098557115	1.260000E+00	  0.098557115	2.366500E+01
394	  0.098757520	-3.590000E-01	  0.098757520	1.289530E+02	  0.098757520	1.270000E+00	  0.098757520	2.386100E+01
395	  0.098957919	-3.570000E-01	  0.098957919	1.285830E+02	  0.098957919	1.265000E+00	  0.098957919	2.405900E+01
396	  0.099158317	-3.570000E-01	  0.099158317	1.281980E+02	  0.099158317	1.272000E+00	  0.099158317	2.426600E+01
397	  0.099358723	-3.570000E-01	  0.099358723	1.278460E+02	  0.099358723	1.276000E+00	  0.099358723	2.445600E+01
398	  0.099559121	-3.560000E-01	  0.099559121	1.274700E+02	  0.099559121	1.276000E+00	  0.099559121	2.466000E+01
399	  0.099759519	-3.570000E-01	  0.099759519	1.271020E+02	  0.099759519	1.281000E+00	  0.099759519	2.486000E+01
400	  0.099959925	-3.610000E-01	  0.099959925	1.267480E+02	  0.099959925	1.302000E+00	  0.099959925	2.505200E+01
401	  0.100160323	-3.610000E-01	  0.100160323	1.264250E+02	  0.100160323	1.305000E+00	  0.100160323	2.522900E+01
402	  0.100360721	-3.580000E-01	  0.100360721	1.260610E+02	  0.100360721	1.297000E+00	  0.100360721	2.542800E+01
403	  0.100561127	-3.580000E-01	  0.100561127	1.256820E+02	  0.100561127	1.301000E+00	  0.100561127	2.563700E+01
404	  0.100761525	-3.490000E-01	  0.100761525	1.253060E+02	  0.100761525	1.273000E+00	  0.100761525	2.584500E+01
405	  0.100961931	-3.510000E-01	  0.100961931	1.250010E+02	  0.100961931	1.286000E+00	  0.100961931	2.601400E+01
406	  0.101162329	-3.520000E-01	  0.101162329	1.246690E+02	  0.101162329	1.292000E+00	  0.101162329	2.619700E+01
407	  0.101362728	-3.450000E-01	  0.101362728	1.243570E+02	  0.101362728	1.269000E+00	  0.101362728	2.637200E+01
408	  0.101563133	-3.510000E-01	  0.101563133	1.240190E+02	  0.101563133	1.297000E+00	  0.101563133	2.656000E+01
409	  0.101763532	-3.490000E-01	  0.101763532	1.237120E+02	  0.101763532	1.293000E+00	  0.101763532	2.673200E+01
410	  0.101963930	-3.520000E-01	  0.101963930	1.234170E+02	  0.101963930	1.308000E+00	  0.101963930	2.689800E+01
411	  0.102164336	-3.490000E-01	  0.102164336	1.230500E+02	  0.102164336	1.300000E+00	  0.102164336	2.710500E+01
412	  0.102364734	-3.510000E-01	  0.102364734	1.227160E+02	  0.102364734	1.313000E+00	  0.102364734	2.729300E+01
413	  0.102565132	-3.540000E-01	  0.102565132	1.224040E+02	  0.102565132	1.328000E+00	  0.102565132	2.747000E+01
414	  0.102765530	-3.510000E-01	  0.102765530	1.221000E+02	  0.102765530	1.320000E+00	  0.102765530	2.764300E+01
415	  0.102965929	-3.610000E-01	  0.102965929	1.217160E+02	  0.102965929	1.363000E+00	  0.102965929	2.786100E+01
416	  0.103166327	-3.580000E-01	  0.103166327	1.214030E+02	  0.103166327	1.354000E+00	  0.103166327	2.804100E+01
417	  0.103366733	-3.560000E-01	  0.103366733	1.210850E+02	  0.103366733	1.354000E+00	  0.103366733	2.822300E+01
418	  0.103567131	-3.550000E-01	  0.103567131	1.207050E+02	  0.103567131	1.355000E+00	  0.103567131	2.844200E+01
419	  0.103767529	-3.600000E-01	  0.103767529	1.203540E+02	  0.103767529	1.376000E+00	  0.103767529	2.864500E+01
420	  0.103967935	-3.620000E-01	  0.103967935	1.200120E+02	  0.103967935	1.391000E+00	  0.103967935	2.884300E+01
421	  0.104168333	-3.610000E-01	  0.104168333	1.197180E+02	  0.104168333	1.392000E+00	  0.104168333	2.901400E+01
422	  0.104368731	-3.600000E-01	  0.104368731	1.193220E+02	  0.104368731	1.393000E+00	  0.104368731	2.924500E+01
423	  0.104569137	-3.610000E-01	  0.104569137	1.189440E+02	  0.104569137	1.400000E+00	  0.104569137	2.946700E+01
424	  0.104769535	-3.620000E-01	  0.104769535	1.186250E+02	  0.104769535	1.408000E+00	  0.104769535	2.965500E+01
425	  0.104969934	-3.650000E-01	  0.104969934	1.182870E+02	  0.104969934	1.426000E+00	  0.104969934	2.985400E+01
426	  0.105170339	-3.680000E-01	  0.105170339	1.178980E+02	  0.105170339	1.443000E+00	  0.105170339	3.008500E+01
427	  0.105370738	-3.700000E-01	  0.105370738	1.176100E+02	  0.105370738	1.457000E+00	  0.105370738	3.025500E+01
428	  0.105571143	-3.730000E-01	  0.105571143	1.172310E+02	  0.105571143	1.475000E+00	  0.105571143	3.048200E+01
429	  0.105771542	-3.700000E-01	  0.105771542	1.168800E+02	  0.105771542	1.468000E+00	  0.105771542	3.069200E+01
430	  0.105971940	-3.600000E-01	  0.105971940	1.165330E+02	  0.105971940	1.433000E+00	  0.105971940	3.090200E+01
431	  0.106172346	-3.660000E-01	  0.106172346	1.161670E+02	  0.106172346	1.461000E+00	  0.106172346	3.112300E+01
432	  0.106372744	-3.660000E-01	  0.106372744	1.158480E+02	  0.106372744	1.468000E+00	  0.106372744	3.131600E+01
433	  0.106573142	-3.680000E-01	  0.106573142	1.154890E+02	  0.106573142	1.483000E+00	  0.106573142	3.153400E+01
434	  0.106773548	-3.670000E-01	  0.106773548	1.151720E+02	  0.106773548	1.485000E+00	  0.106773548	3.172700E+01
435	  0.106973946	-3.640000E-01	  0.106973946	1.148170E+02	  0.106973946	1.475000E+00	  0.106973946	3.194500E+01
436	  0.107174344	-3.630000E-01	  0.107174344	1.145150E+02	  0.107174344	1.480000E+00	  0.107174344	3.213100E+01
437	  0.107374750	-3.620000E-01	  0.107374750	1.141880E+02	  0.107374750	1.479000E+00	  0.107374750	3.233300E+01
438	  0.107575148	-3.620000E-01	  0.107575148	1.138260E+02	  0.107575148	1.486000E+00	  0.107575148	3.255800E+01
439	  0.107775547	-3.650000E-01	  0.107775547	1.135370E+02	  0.107775547	1.502000E+00	  0.107775547	3.273700E+01
440	  0.107975952	-3.590000E-01	  0.107975952	1.132000E+02	  0.107975952	1.485000E+00	  0.107975952	3.294800E+01
441	  0.108176351	-3.610000E-01	  0.108176351	1.128610E+02	  0.108176351	1.498000E+00	  0.108176351	3.316000E+01
442	  0.108376749	-3.650000E-01	  0.108376749	1.125380E+02	  0.108376749	1.519000E+00	  0.108376749	3.336300E+01
443	  0.108577155	-3.570000E-01	  0.108577155	1.122270E+02	  0.108577155	1.491000E+00	  0.108577155	3.356000E+01
444	  0.108777553	-3.600000E-01	  0.108777553	1.118790E+02	  0.108777553	1.511000E+00	  0.108777553	3.378000E+01
445	  0.108977959	-3.620000E-01	  0.108977959	1.115690E+02	  0.108977959	1.524000E+00	  0.108977959	3.397700E+01
446	  0.109178357	-3.600000E-01	  0.109178357	1.112210E+02	  0.109178357	1.522000E+00	  0.109178357	3.420000E+01
447	  0.109378755	-3.620000E-01	  0.109378755	1.108830E+02	  0.109378755	1.537000E+00	  0.109378755	3.441600E+01
448	  0.109579161	-3.650000E-01	  0.109579161	1.105500E+02	  0.109579161	1.557000E+00	  0.109579161	3.463000E+01
449	  0.109779559	-3.630000E-01	  0.109779559	1.101940E+02	  0.109779559	1.554000E+00	  0.109779559	3.486100E+01
450	  0.109979957	-3.620000E-01	  0.109979957	1.098880E+02	  0.109979957	1.556000E+00	  0.109979957	3.506000E+01
451	  0.110180363	-3.710000E-01	  0.110180363	1.095240E+02	  0.110180363	1.603000E+00	  0.110180363	3.529600E+01
452	  0.110380761	-3.630000E-01	  0.110380761	1.091910E+02	  0.110380761	1.574000E+00	  0.110380761	3.551500E+01
453	  0.110581160	-3.680000E-01	  0.110581160	1.088540E+02	  0.110581160	1.603000E+00	  0.110581160	3.573500E+01
454	  0.110781565	-3.740000E-01	  0.110781565	1.085450E+02	  0.110781565	1.633000E+00	  0.110781565	3.593900E+01
455	  0.110981964	-3.710000E-01	  0.110981964	1.081470E+02	  0.110981964	1.629000E+00	  0.110981964	3.620300E+01
456	  0.111182362	-3.660000E-01	  0.111182362	1.078290E+02	  0.111182362	1.614000E+00	  0.111182362	3.641600E+01
457	  0.111382768	-3.690000E-01	  0.111382768	1.074610E+02	  0.111382768	1.636000E+00	  0.111382768	3.666100E+01
458	  0.111583166	-3.660000E-01	  0.111583166	1.071600E+02	  0.111583166	1.626000E+00	  0.111583166	3.686400E+01
459	  0.111783572	-3.660000E-01	  0.111783572	1.068160E+02	  0.111783572	1.635000E+00	  0.111783572	3.709600E+01
460	  0.111983970	-3.710000E-01	  0.111983970	1.064830E+02	  0.111983970	1.665000E+00	  0.111983970	3.732100E+01
461	  0.112184368	-3.720000E-01	  0.112184368	1.061820E+02	  0.112184368	1.675000E+00	  0.112184368	3.752600E+01
462	  0.112384774	-3.710000E-01	  0.112384774	1.058700E+02	  0.112384774	1.677000E+00	  0.112384774	3.773900E+01
463	  0.112585172	-3.680000E-01	  0.112585172	1.055490E+02	  0.112585172	1.670000E+00	  0.112585172	3.795900E+01
464	  0.112785570	-3.620000E-01	  0.112785570	1.052160E+02	  0.112785570	1.652000E+00	  0.112785570	3.819000E+01
465	  0.112985976	-3.700000E-01	  0.112985976	1.048980E+02	  0.112985976	1.695000E+00	  0.112985976	3.840800E+01
466	  0.113186374	-3.660000E-01	  0.113186374	1.045810E+02	  0.113186374	1.682000E+00	  0.113186374	3.862900E+01
467	  0.113386773	-3.680000E-01	  0.113386773	1.042400E+02	  0.113386773	1.700000E+00	  0.113386773	3.886700E+01
468	  0.113587178	-3.600000E-01	  0.113587178	1.039490E+02	  0.113587178	1.673000E+00	  0.113587178	3.907200E+01
469	  0.113787577	-3.630000E-01	  0.113787577	1.036160E+02	  0.113787577	1.690000E+00	  0.113787577	3.930600E+01
470	  0.113987975	-3.630000E-01	  0.113987975	1.033000E+02	  0.113987975	1.698000E+00	  0.113987975	3.952900E+01
471	  0.114188381	-3.650000E-01	  0.114188381	1.030110E+02	  0.114188381	1.718000E+00	  0.114188381	3.973400E+01
472	  0.114388779	-3.650000E-01	  0.114388779	1.026770E+02	  0.114388779	1.726000E+00	  0.114388779	3.997200E+01
473	  0.114589177	-3.640000E-01	  0.114589177	1.023750E+02	  0.114589177	1.728000E+00	  0.114589177	4.018900E+01
474	  0.114789583	-3.650000E-01	  0.114789583	1.020240E+02	  0.114789583	1.741000E+00	  0.114789583	4.044200E+01
475	  0.114989981	-3.650000E-01	  0.114989981	1.017160E+02	  0.114989981	1.746000E+00	  0.114989981	4.066400E+01
476	  0.115190387	-3.630000E-01	  0.115190387	1.013890E+02	  0.115190387	1.746000E+00	  0.115190387	4.090200E+01
477	  0.115390785	-3.630000E-01	  0.115390785	1.010830E+02	  0.115390785	1.753000E+00	  0.115390785	4.112500E+01
478	  0.115591183	-3.660000E-01	  0.115591183	1.007430E+02	  0.115591183	1.776000E+00	  0.115591183	4.137400E+01
479	  0.115791589	-3.680000E-01	  0.115791589	1.004160E+02	  0.115791589	1.794000E+00	  0.115791589	4.161400E+01
480	  0.115991987	-3.700000E-01	  0.115991987	1.000650E+02	  0.115991987	1.813000E+00	  0.115991987	4.187400E+01
481	  0.116192386	-3.700000E-01	  0.116192386	9.974700E+01	  0.116192386	1.822000E+00	  0.116192386	4.211000E+01
482	  0.116392791	-3.690000E-01	  0.116392791	9.939200E+01	  0.116392791	1.829000E+00	  0.116392791	4.237600E+01
483	  0.116593190	-3.670000E-01	  0.116593190	9.907000E+01	  0.116593190	1.826000E+00	  0.116593190	4.261700E+01
484	  0.116793588	-3.710000E-01	  0.116793588	9.874500E+01	  0.116793588	1.853000E+00	  0.116793588	4.286200E+01
485	  0.116993994	-3.710000E-01	  0.116993994	9.841800E+01	  0.116993994	1.864000E+00	  0.116993994	4.311000E+01
486	  0.117194392	-3.680000E-01	  0.117194392	9.807600E+01	  0.117194392	1.858000E+00	  0.117194392	4.337100E+01
487	  0.117394790	-3.730000E-01	  0.117394790	9.769600E+01	  0.117394790	1.894000E+00	  0.117394790	4.366200E+01
488	  0.117595196	-3.700000E-01	  0.117595196	9.744000E+01	  0.117595196	1.887000E+00	  0.117595196	4.385900E+01
489	  0.117795594	-3.650000E-01	  0.117795594	9.710900E+01	  0.117795594	1.872000E+00	  0.117795594	4.411600E+01
490	  0.117995992	-3.700000E-01	  0.117995992	9.675600E+01	  0.117995992	1.904000E+00	  0.117995992	4.439000E+01
491	  0.118196398	-3.670000E-01	  0.118196398	9.646000E+01	  0.118196398	1.901000E+00	  0.118196398	4.462200E+01
492	  0.118396796	-3.720000E-01	  0.118396796	9.614400E+01	  0.118396796	1.934000E+00	  0.118396796	4.486800E+01
493	  0.118597202	-3.680000E-01	  0.118597202	9.582200E+01	  0.118597202	1.924000E+00	  0.118597202	4.512300E+01
494	  0.118797600	-3.710000E-01	  0.118797600	9.551400E+01	  0.118797600	1.948000E+00	  0.118797600	4.536700E+01
495	  0.118997999	-3.680000E-01	  0.118997999	9.519700E+01	  0.118997999	1.945000E+00	  0.118997999	4.562000E+01
496	  0.119198404	-3.670000E-01	  0.119198404	9.485100E+01	  0.119198404	1.950000E+00	  0.119198404	4.589800E+01
497	  0.119398803	-3.680000E-01	  0.119398803	9.456000E+01	  0.119398803	1.963000E+00	  0.119398803	4.613200E+01
498	  0.119599201	-3.710000E-01	  0.119599201	9.425900E+01	  0.119599201	1.991000E+00	  0.119599201	4.637400E+01
499	  0.119799607	-3.700000E-01	  0.119799607	9.393300E+01	  0.119799607	1.994000E+00	  0.119799607	4.664000E+01
500	  0.120000005	-3.670000E-01	  0.120000005	9.360000E+01	  0.120000005	1.990000E+00	  0.120000005	4.691200E+01
