! Anritsu VNA Master:             	Model: MS2036C/10/77
! SN:             	1601066
! /bd0/18may26.balun/2a.47.2.txt
! Existing Calibration Information:
! TYPE:             	Current Settings	Active Cal Settings
! TIME:             	05/26/2018 07:53:19 PM	05/26/2018 07:26:54 PM
! INTERNAL TEMP:    	45.3 C	45.5 C
! # POINTS:         	500	500
! START FREQ:       	20.000 MHz	20.000 MHz
! STOP FREQ:        	120.000 MHz	120.000 MHz
! SOURCE POWER:     	High	High
! IFBW:             	50 Hz	50 Hz
! AVG FACTOR:       	  1 	  1 
! REF PLANE 1:      	0 mm	0 mm
! REF PLANE 2:      	0 mm	0 mm
! CAL TYPE:         	Full S11	Full S11
! CAL METHOD:       	SOLT	SOLT
! CAL LINE TYPE:    	Coax	Coax
! DUT PORT 1:       	K-Conn(M)	K-Conn(M)
! DUT PORT 2:       	K-Conn(M)	K-Conn(M)
! CAL STATUS:       	OK: Accuracy High	--
! PROP-V:       	0.700
! CABLE LOSS:       	0.000 dB/m
! REF IMPEDANCE:       	50.0
! Trace Specific Parameters:	TR1	TR2	TR3	TR4
! TRACE.#.Y (GRAPH TYPE)	LOG MAG	PHASE	REAL IMPEDANCE	IMAGINARY IMPEDANCE
! TRACE.#.X 	FREQ.GHZ	FREQ.GHZ	FREQ.GHZ	FREQ.GHZ
! S-PARAMETER	S11	S11	S11	S11
! SMOOTH/APERTURE %	0	0	0	0
! WINDOW	NSL	NSL	NSL	NSL
! GATING	OFF	OFF	OFF	OFF
! FGTD	OFF	OFF	OFF	OFF
Marker Information per Trace:	TR1	TR2	TR3	TR4
!MK1	--	--	--	--
!MK2	--	--	--	--
!MK3	--	--	--	--
!MK4	--	--	--	--
!MK5	--	--	--	--
!MK6	--	--	--	--
!MK7	--	--	--	--
!MK8	--	--	--	--
PNT	TR1.FREQ.GHZ	TR1.LOG MAG.dB	TR2.FREQ.GHZ	TR2.PHASE.deg	TR3.FREQ.GHZ	TR3.REAL IMPEDANCE.ohm	TR4.FREQ.GHZ	TR4.IMAGINARY IMPEDANCE.ohm
1	  0.020000000	-1.900000E-02	  0.020000000	-5.628900E+01	  0.020000000	2.570000E-01	  0.020000000	-9.346500E+01
2	  0.020200402	-1.500000E-02	  0.020200402	-5.686600E+01	  0.020200402	1.990000E-01	  0.020200402	-9.234500E+01
3	  0.020400802	-1.500000E-02	  0.020400802	-5.741600E+01	  0.020400802	1.940000E-01	  0.020400802	-9.129400E+01
4	  0.020601204	-1.400000E-02	  0.020601204	-5.796800E+01	  0.020601204	1.730000E-01	  0.020601204	-9.025900E+01
5	  0.020801604	-1.500000E-02	  0.020801604	-5.853600E+01	  0.020801604	1.820000E-01	  0.020801604	-8.921300E+01
6	  0.021002004	-1.300000E-02	  0.021002004	-5.909400E+01	  0.021002004	1.650000E-01	  0.021002004	-8.820400E+01
7	  0.021202406	-1.800000E-02	  0.021202406	-5.967400E+01	  0.021202406	2.180000E-01	  0.021202406	-8.717300E+01
8	  0.021402806	-2.000000E-02	  0.021402806	-6.021800E+01	  0.021402806	2.340000E-01	  0.021402806	-8.622100E+01
9	  0.021603208	-2.200000E-02	  0.021603208	-6.076000E+01	  0.021603208	2.560000E-01	  0.021603208	-8.529000E+01
10	  0.021803608	-2.600000E-02	  0.021803608	-6.129200E+01	  0.021803608	2.910000E-01	  0.021803608	-8.438900E+01
11	  0.022004008	-2.700000E-02	  0.022004008	-6.181400E+01	  0.022004008	3.020000E-01	  0.022004008	-8.351900E+01
12	  0.022204408	-3.100000E-02	  0.022204408	-6.237100E+01	  0.022204408	3.400000E-01	  0.022204408	-8.260400E+01
13	  0.022404809	-3.400000E-02	  0.022404809	-6.292900E+01	  0.022404809	3.680000E-01	  0.022404809	-8.170400E+01
14	  0.022605211	-3.000000E-02	  0.022605211	-6.349000E+01	  0.022605211	3.180000E-01	  0.022605211	-8.081300E+01
15	  0.022805611	-2.900000E-02	  0.022805611	-6.405000E+01	  0.022805611	2.980000E-01	  0.022805611	-7.993600E+01
16	  0.023006011	-2.200000E-02	  0.023006011	-6.459500E+01	  0.023006011	2.280000E-01	  0.023006011	-7.909900E+01
17	  0.023206413	-1.700000E-02	  0.023206413	-6.514000E+01	  0.023206413	1.700000E-01	  0.023206413	-7.827200E+01
18	  0.023406813	-1.000000E-02	  0.023406813	-6.569500E+01	  0.023406813	1.050000E-01	  0.023406813	-7.744300E+01
19	  0.023607215	-9.000000E-03	  0.023607215	-6.626500E+01	  0.023607215	9.400000E-02	  0.023607215	-7.660400E+01
20	  0.023807615	-9.000000E-03	  0.023807615	-6.676300E+01	  0.023807615	9.400000E-02	  0.023807615	-7.588100E+01
21	  0.024008015	-1.600000E-02	  0.024008015	-6.726000E+01	  0.024008015	1.590000E-01	  0.024008015	-7.517000E+01
22	  0.024208417	-2.300000E-02	  0.024208417	-6.774100E+01	  0.024208417	2.140000E-01	  0.024208417	-7.448900E+01
23	  0.024408817	-3.000000E-02	  0.024408817	-6.824500E+01	  0.024408817	2.810000E-01	  0.024408817	-7.378500E+01
24	  0.024609219	-3.600000E-02	  0.024609219	-6.876300E+01	  0.024609219	3.280000E-01	  0.024609219	-7.307100E+01
25	  0.024809619	-3.900000E-02	  0.024809619	-6.930800E+01	  0.024809619	3.480000E-01	  0.024809619	-7.233100E+01
26	  0.025010020	-4.100000E-02	  0.025010020	-6.987700E+01	  0.025010020	3.610000E-01	  0.025010020	-7.156800E+01
27	  0.025210422	-4.400000E-02	  0.025210422	-7.045600E+01	  0.025210422	3.840000E-01	  0.025210422	-7.080300E+01
28	  0.025410822	-4.400000E-02	  0.025410822	-7.102500E+01	  0.025410822	3.790000E-01	  0.025410822	-7.006300E+01
29	  0.025611224	-4.500000E-02	  0.025611224	-7.162100E+01	  0.025611224	3.800000E-01	  0.025611224	-6.929700E+01
30	  0.025811624	-4.300000E-02	  0.025811624	-7.217200E+01	  0.025811624	3.630000E-01	  0.025811624	-6.860000E+01
31	  0.026012026	-4.200000E-02	  0.026012026	-7.273400E+01	  0.026012026	3.510000E-01	  0.026012026	-6.789800E+01
32	  0.026212426	-3.800000E-02	  0.026212426	-7.327000E+01	  0.026212426	3.150000E-01	  0.026212426	-6.723800E+01
33	  0.026412826	-3.700000E-02	  0.026412826	-7.381900E+01	  0.026412826	3.010000E-01	  0.026412826	-6.656900E+01
34	  0.026613226	-3.800000E-02	  0.026613226	-7.431100E+01	  0.026613226	3.060000E-01	  0.026613226	-6.597700E+01
35	  0.026813626	-4.100000E-02	  0.026813626	-7.479300E+01	  0.026813626	3.230000E-01	  0.026813626	-6.540400E+01
36	  0.027014028	-4.700000E-02	  0.027014028	-7.526600E+01	  0.027014028	3.640000E-01	  0.027014028	-6.484700E+01
37	  0.027214428	-5.500000E-02	  0.027214428	-7.577600E+01	  0.027214428	4.210000E-01	  0.027214428	-6.425300E+01
38	  0.027414829	-6.400000E-02	  0.027414829	-7.633000E+01	  0.027414829	4.870000E-01	  0.027414829	-6.361500E+01
39	  0.027615231	-7.000000E-02	  0.027615231	-7.690300E+01	  0.027615231	5.210000E-01	  0.027615231	-6.296400E+01
40	  0.027815631	-7.100000E-02	  0.027815631	-7.748700E+01	  0.027815631	5.250000E-01	  0.027815631	-6.230900E+01
41	  0.028016033	-6.700000E-02	  0.028016033	-7.808700E+01	  0.028016033	4.910000E-01	  0.028016033	-6.164500E+01
42	  0.028216433	-5.900000E-02	  0.028216433	-7.868800E+01	  0.028216433	4.250000E-01	  0.028216433	-6.099000E+01
43	  0.028416833	-5.000000E-02	  0.028416833	-7.928700E+01	  0.028416833	3.580000E-01	  0.028416833	-6.034400E+01
44	  0.028617235	-4.200000E-02	  0.028617235	-7.986200E+01	  0.028617235	2.950000E-01	  0.028617235	-5.973200E+01
45	  0.028817635	-3.400000E-02	  0.028817635	-8.038800E+01	  0.028817635	2.370000E-01	  0.028817635	-5.917800E+01
46	  0.029018037	-2.600000E-02	  0.029018037	-8.084700E+01	  0.029018037	1.790000E-01	  0.029018037	-5.869900E+01
47	  0.029218437	-1.900000E-02	  0.029218437	-8.129100E+01	  0.029218437	1.350000E-01	  0.029218437	-5.824100E+01
48	  0.029418837	-1.600000E-02	  0.029418837	-8.171500E+01	  0.029418837	1.140000E-01	  0.029418837	-5.780700E+01
49	  0.029619239	-1.700000E-02	  0.029619239	-8.215700E+01	  0.029619239	1.160000E-01	  0.029619239	-5.735800E+01
50	  0.029819639	-2.200000E-02	  0.029819639	-8.260900E+01	  0.029819639	1.460000E-01	  0.029819639	-5.690400E+01
51	  0.030020041	-2.800000E-02	  0.030020041	-8.311600E+01	  0.030020041	1.830000E-01	  0.030020041	-5.639800E+01
52	  0.030220442	-4.000000E-02	  0.030220442	-8.363000E+01	  0.030220442	2.610000E-01	  0.030220442	-5.589100E+01
53	  0.030420844	-5.100000E-02	  0.030420844	-8.419000E+01	  0.030420844	3.270000E-01	  0.030420844	-5.534300E+01
54	  0.030621244	-5.900000E-02	  0.030621244	-8.476900E+01	  0.030621244	3.760000E-01	  0.030621244	-5.478400E+01
55	  0.030821644	-6.100000E-02	  0.030821644	-8.533400E+01	  0.030821644	3.820000E-01	  0.030821644	-5.424500E+01
56	  0.031022044	-6.100000E-02	  0.031022044	-8.589100E+01	  0.031022044	3.840000E-01	  0.031022044	-5.371800E+01
57	  0.031222444	-5.800000E-02	  0.031222444	-8.644200E+01	  0.031222444	3.590000E-01	  0.031222444	-5.320300E+01
58	  0.031422846	-5.900000E-02	  0.031422846	-8.697900E+01	  0.031422846	3.620000E-01	  0.031422846	-5.270600E+01
59	  0.031623244	-5.700000E-02	  0.031623244	-8.749500E+01	  0.031623244	3.480000E-01	  0.031623244	-5.223300E+01
60	  0.031823646	-5.600000E-02	  0.031823646	-8.799000E+01	  0.031823646	3.370000E-01	  0.031823646	-5.178300E+01
61	  0.032024048	-5.500000E-02	  0.032024048	-8.846500E+01	  0.032024048	3.260000E-01	  0.032024048	-5.135600E+01
62	  0.032224450	-5.900000E-02	  0.032224450	-8.890500E+01	  0.032224450	3.510000E-01	  0.032224450	-5.096300E+01
63	  0.032424849	-6.700000E-02	  0.032424849	-8.937000E+01	  0.032424849	3.940000E-01	  0.032424849	-5.055100E+01
64	  0.032625251	-7.800000E-02	  0.032625251	-8.987200E+01	  0.032625251	4.540000E-01	  0.032625251	-5.010900E+01
65	  0.032825653	-8.700000E-02	  0.032825653	-9.038600E+01	  0.032825653	4.990000E-01	  0.032825653	-4.966100E+01
66	  0.033026051	-9.500000E-02	  0.033026051	-9.093400E+01	  0.033026051	5.390000E-01	  0.033026051	-4.918800E+01
67	  0.033226453	-1.030000E-01	  0.033226453	-9.151700E+01	  0.033226453	5.780000E-01	  0.033226453	-4.868900E+01
68	  0.033426855	-1.060000E-01	  0.033426855	-9.210200E+01	  0.033426855	5.900000E-01	  0.033426855	-4.819400E+01
69	  0.033627257	-1.080000E-01	  0.033627257	-9.273500E+01	  0.033627257	5.960000E-01	  0.033627257	-4.766400E+01
70	  0.033827655	-1.050000E-01	  0.033827655	-9.332000E+01	  0.033827655	5.730000E-01	  0.033827655	-4.718000E+01
71	  0.034028057	-9.800000E-02	  0.034028057	-9.387900E+01	  0.034028057	5.280000E-01	  0.034028057	-4.672100E+01
72	  0.034228459	-8.500000E-02	  0.034228459	-9.443500E+01	  0.034228459	4.560000E-01	  0.034228459	-4.626900E+01
73	  0.034428857	-7.500000E-02	  0.034428857	-9.495900E+01	  0.034428857	3.990000E-01	  0.034428857	-4.584700E+01
74	  0.034629259	-6.300000E-02	  0.034629259	-9.544100E+01	  0.034629259	3.350000E-01	  0.034629259	-4.546200E+01
75	  0.034829661	-5.500000E-02	  0.034829661	-9.590600E+01	  0.034829661	2.890000E-01	  0.034829661	-4.509200E+01
76	  0.035030060	-5.100000E-02	  0.035030060	-9.638900E+01	  0.035030060	2.660000E-01	  0.035030060	-4.471200E+01
77	  0.035230462	-4.700000E-02	  0.035230462	-9.681600E+01	  0.035230462	2.440000E-01	  0.035230462	-4.437800E+01
78	  0.035430863	-5.000000E-02	  0.035430863	-9.725500E+01	  0.035430863	2.560000E-01	  0.035430863	-4.403700E+01
79	  0.035631265	-5.800000E-02	  0.035631265	-9.773100E+01	  0.035631265	2.970000E-01	  0.035631265	-4.366900E+01
80	  0.035831664	-6.600000E-02	  0.035831664	-9.823600E+01	  0.035831664	3.330000E-01	  0.035831664	-4.328200E+01
81	  0.036032066	-7.700000E-02	  0.036032066	-9.877000E+01	  0.036032066	3.850000E-01	  0.036032066	-4.287600E+01
82	  0.036232468	-8.100000E-02	  0.036232468	-9.935400E+01	  0.036232468	4.050000E-01	  0.036232468	-4.243500E+01
83	  0.036432866	-8.400000E-02	  0.036432866	-9.991500E+01	  0.036432866	4.140000E-01	  0.036432866	-4.201600E+01
84	  0.036633268	-8.500000E-02	  0.036633268	-1.004790E+02	  0.036633268	4.140000E-01	  0.036633268	-4.159800E+01
85	  0.036833670	-8.600000E-02	  0.036833670	-1.010280E+02	  0.036833670	4.150000E-01	  0.036833670	-4.119400E+01
86	  0.037034072	-7.600000E-02	  0.037034072	-1.015550E+02	  0.037034072	3.640000E-01	  0.037034072	-4.081000E+01
87	  0.037234470	-6.400000E-02	  0.037234470	-1.020200E+02	  0.037234470	3.080000E-01	  0.037234470	-4.047300E+01
88	  0.037434869	-5.800000E-02	  0.037434869	-1.024620E+02	  0.037434869	2.780000E-01	  0.037434869	-4.015500E+01
89	  0.037635271	-5.500000E-02	  0.037635271	-1.028840E+02	  0.037635271	2.620000E-01	  0.037635271	-3.985300E+01
90	  0.037835669	-6.000000E-02	  0.037835669	-1.033130E+02	  0.037835669	2.810000E-01	  0.037835669	-3.954800E+01
91	  0.038036071	-7.000000E-02	  0.038036071	-1.037860E+02	  0.038036071	3.260000E-01	  0.038036071	-3.921300E+01
92	  0.038236473	-7.600000E-02	  0.038236473	-1.042600E+02	  0.038236473	3.510000E-01	  0.038236473	-3.888000E+01
93	  0.038436871	-8.300000E-02	  0.038436871	-1.047590E+02	  0.038436871	3.830000E-01	  0.038436871	-3.853100E+01
94	  0.038637273	-9.500000E-02	  0.038637273	-1.052620E+02	  0.038637273	4.330000E-01	  0.038637273	-3.818200E+01
95	  0.038837675	-1.030000E-01	  0.038837675	-1.058000E+02	  0.038837675	4.680000E-01	  0.038837675	-3.781200E+01
96	  0.039038073	-1.140000E-01	  0.039038073	-1.063420E+02	  0.039038073	5.130000E-01	  0.039038073	-3.744100E+01
97	  0.039238475	-1.190000E-01	  0.039238475	-1.069080E+02	  0.039238475	5.310000E-01	  0.039238475	-3.705700E+01
98	  0.039438877	-1.180000E-01	  0.039438877	-1.074660E+02	  0.039438877	5.260000E-01	  0.039438877	-3.668100E+01
99	  0.039639279	-1.140000E-01	  0.039639279	-1.080140E+02	  0.039639279	5.020000E-01	  0.039639279	-3.631500E+01
100	  0.039839678	-1.050000E-01	  0.039839678	-1.085470E+02	  0.039839678	4.590000E-01	  0.039839678	-3.596100E+01
101	  0.040040080	-1.010000E-01	  0.040040080	-1.090540E+02	  0.040040080	4.400000E-01	  0.040040080	-3.562700E+01
102	  0.040240481	-9.400000E-02	  0.040240481	-1.095360E+02	  0.040240481	4.090000E-01	  0.040240481	-3.531000E+01
103	  0.040440880	-8.800000E-02	  0.040440880	-1.100220E+02	  0.040440880	3.810000E-01	  0.040440880	-3.499400E+01
104	  0.040641282	-8.700000E-02	  0.040641282	-1.104940E+02	  0.040641282	3.710000E-01	  0.040641282	-3.468800E+01
105	  0.040841684	-8.900000E-02	  0.040841684	-1.109730E+02	  0.040841684	3.780000E-01	  0.040841684	-3.437900E+01
106	  0.041042086	-9.100000E-02	  0.041042086	-1.114490E+02	  0.041042086	3.850000E-01	  0.041042086	-3.407400E+01
107	  0.041242484	-1.000000E-01	  0.041242484	-1.119360E+02	  0.041242484	4.190000E-01	  0.041242484	-3.376400E+01
108	  0.041442886	-1.130000E-01	  0.041442886	-1.124420E+02	  0.041442886	4.720000E-01	  0.041442886	-3.344300E+01
109	  0.041643288	-1.220000E-01	  0.041643288	-1.129810E+02	  0.041643288	5.050000E-01	  0.041643288	-3.310300E+01
110	  0.041843686	-1.260000E-01	  0.041843686	-1.135410E+02	  0.041843686	5.210000E-01	  0.041843686	-3.275200E+01
111	  0.042044088	-1.220000E-01	  0.042044088	-1.140920E+02	  0.042044088	5.010000E-01	  0.042044088	-3.241000E+01
112	  0.042244490	-1.150000E-01	  0.042244490	-1.146270E+02	  0.042244490	4.700000E-01	  0.042244490	-3.208000E+01
113	  0.042444889	-1.030000E-01	  0.042444889	-1.151260E+02	  0.042444889	4.170000E-01	  0.042444889	-3.177400E+01
114	  0.042645290	-8.800000E-02	  0.042645290	-1.155760E+02	  0.042645290	3.570000E-01	  0.042645290	-3.150000E+01
115	  0.042845692	-8.400000E-02	  0.042845692	-1.160070E+02	  0.042845692	3.380000E-01	  0.042845692	-3.123700E+01
116	  0.043046094	-8.700000E-02	  0.043046094	-1.164490E+02	  0.043046094	3.460000E-01	  0.043046094	-3.097000E+01
117	  0.043246493	-8.900000E-02	  0.043246493	-1.168930E+02	  0.043246493	3.530000E-01	  0.043246493	-3.070200E+01
118	  0.043446895	-9.600000E-02	  0.043446895	-1.173490E+02	  0.043446895	3.790000E-01	  0.043446895	-3.042900E+01
119	  0.043647297	-9.900000E-02	  0.043647297	-1.178110E+02	  0.043647297	3.910000E-01	  0.043647297	-3.015300E+01
120	  0.043847695	-1.070000E-01	  0.043847695	-1.182800E+02	  0.043847695	4.180000E-01	  0.043847695	-2.987400E+01
121	  0.044048097	-1.140000E-01	  0.044048097	-1.187560E+02	  0.044048097	4.450000E-01	  0.044048097	-2.959300E+01
122	  0.044248499	-1.230000E-01	  0.044248499	-1.192780E+02	  0.044248499	4.760000E-01	  0.044248499	-2.928600E+01
123	  0.044448901	-1.280000E-01	  0.044448901	-1.197990E+02	  0.044448901	4.920000E-01	  0.044448901	-2.898200E+01
124	  0.044649299	-1.290000E-01	  0.044649299	-1.203190E+02	  0.044649299	4.970000E-01	  0.044649299	-2.867900E+01
125	  0.044849701	-1.300000E-01	  0.044849701	-1.208320E+02	  0.044849701	4.960000E-01	  0.044849701	-2.838300E+01
126	  0.045050103	-1.260000E-01	  0.045050103	-1.213270E+02	  0.045050103	4.800000E-01	  0.045050103	-2.809800E+01
127	  0.045250501	-1.250000E-01	  0.045250501	-1.218320E+02	  0.045250501	4.720000E-01	  0.045250501	-2.780900E+01
128	  0.045450903	-1.260000E-01	  0.045450903	-1.223270E+02	  0.045450903	4.750000E-01	  0.045450903	-2.752700E+01
129	  0.045651305	-1.250000E-01	  0.045651305	-1.228340E+02	  0.045651305	4.690000E-01	  0.045651305	-2.723900E+01
130	  0.045851704	-1.220000E-01	  0.045851704	-1.233280E+02	  0.045851704	4.550000E-01	  0.045851704	-2.696000E+01
131	  0.046052106	-1.190000E-01	  0.046052106	-1.238190E+02	  0.046052106	4.430000E-01	  0.046052106	-2.668500E+01
132	  0.046252504	-1.210000E-01	  0.046252504	-1.242760E+02	  0.046252504	4.460000E-01	  0.046252504	-2.642900E+01
133	  0.046452906	-1.260000E-01	  0.046452906	-1.247190E+02	  0.046452906	4.630000E-01	  0.046452906	-2.618200E+01
134	  0.046653304	-1.380000E-01	  0.046653304	-1.251780E+02	  0.046653304	5.050000E-01	  0.046653304	-2.592700E+01
135	  0.046853706	-1.430000E-01	  0.046853706	-1.256710E+02	  0.046853706	5.230000E-01	  0.046853706	-2.565500E+01
136	  0.047054108	-1.500000E-01	  0.047054108	-1.262220E+02	  0.047054108	5.450000E-01	  0.047054108	-2.535100E+01
137	  0.047254506	-1.490000E-01	  0.047254506	-1.267390E+02	  0.047254506	5.380000E-01	  0.047254506	-2.506800E+01
138	  0.047454908	-1.430000E-01	  0.047454908	-1.272920E+02	  0.047454908	5.140000E-01	  0.047454908	-2.476800E+01
139	  0.047655310	-1.330000E-01	  0.047655310	-1.277600E+02	  0.047655310	4.750000E-01	  0.047655310	-2.451400E+01
140	  0.047855709	-1.280000E-01	  0.047855709	-1.282080E+02	  0.047855709	4.580000E-01	  0.047855709	-2.427200E+01
141	  0.048056111	-1.240000E-01	  0.048056111	-1.286810E+02	  0.048056111	4.390000E-01	  0.048056111	-2.401800E+01
142	  0.048256513	-1.230000E-01	  0.048256513	-1.291090E+02	  0.048256513	4.340000E-01	  0.048256513	-2.378800E+01
143	  0.048456915	-1.240000E-01	  0.048456915	-1.295600E+02	  0.048456915	4.360000E-01	  0.048456915	-2.354800E+01
144	  0.048657313	-1.260000E-01	  0.048657313	-1.299960E+02	  0.048657313	4.440000E-01	  0.048657313	-2.331500E+01
145	  0.048857715	-1.290000E-01	  0.048857715	-1.304290E+02	  0.048857715	4.530000E-01	  0.048857715	-2.308600E+01
146	  0.049058117	-1.380000E-01	  0.049058117	-1.308770E+02	  0.049058117	4.800000E-01	  0.049058117	-2.284900E+01
147	  0.049258515	-1.450000E-01	  0.049258515	-1.313440E+02	  0.049258515	5.030000E-01	  0.049258515	-2.260300E+01
148	  0.049458917	-1.510000E-01	  0.049458917	-1.318080E+02	  0.049458917	5.230000E-01	  0.049458917	-2.235900E+01
149	  0.049659319	-1.560000E-01	  0.049659319	-1.323170E+02	  0.049659319	5.370000E-01	  0.049659319	-2.209300E+01
150	  0.049859721	-1.530000E-01	  0.049859721	-1.327910E+02	  0.049859721	5.270000E-01	  0.049859721	-2.184600E+01
151	  0.050060119	-1.580000E-01	  0.050060119	-1.332870E+02	  0.050060119	5.410000E-01	  0.050060119	-2.158900E+01
152	  0.050260521	-1.590000E-01	  0.050260521	-1.337410E+02	  0.050260521	5.430000E-01	  0.050260521	-2.135400E+01
153	  0.050460923	-1.610000E-01	  0.050460923	-1.342180E+02	  0.050460923	5.480000E-01	  0.050460923	-2.110800E+01
154	  0.050661322	-1.620000E-01	  0.050661322	-1.347220E+02	  0.050661322	5.500000E-01	  0.050661322	-2.085000E+01
155	  0.050861724	-1.580000E-01	  0.050861724	-1.352300E+02	  0.050861724	5.340000E-01	  0.050861724	-2.059000E+01
156	  0.051062126	-1.570000E-01	  0.051062126	-1.357180E+02	  0.051062126	5.280000E-01	  0.051062126	-2.034200E+01
157	  0.051262524	-1.550000E-01	  0.051262524	-1.361850E+02	  0.051262524	5.210000E-01	  0.051262524	-2.010500E+01
158	  0.051462926	-1.550000E-01	  0.051462926	-1.366340E+02	  0.051462926	5.170000E-01	  0.051462926	-1.987800E+01
159	  0.051663328	-1.580000E-01	  0.051663328	-1.370660E+02	  0.051663328	5.270000E-01	  0.051663328	-1.966000E+01
160	  0.051863730	-1.640000E-01	  0.051863730	-1.374980E+02	  0.051863730	5.460000E-01	  0.051863730	-1.944200E+01
161	  0.052064128	-1.720000E-01	  0.052064128	-1.379720E+02	  0.052064128	5.690000E-01	  0.052064128	-1.920400E+01
162	  0.052264530	-1.770000E-01	  0.052264530	-1.384460E+02	  0.052264530	5.840000E-01	  0.052264530	-1.896700E+01
163	  0.052464932	-1.770000E-01	  0.052464932	-1.389600E+02	  0.052464932	5.810000E-01	  0.052464932	-1.871100E+01
164	  0.052665330	-1.760000E-01	  0.052665330	-1.394570E+02	  0.052665330	5.780000E-01	  0.052665330	-1.846400E+01
165	  0.052865732	-1.690000E-01	  0.052865732	-1.399280E+02	  0.052865732	5.530000E-01	  0.052865732	-1.823100E+01
166	  0.053066134	-1.630000E-01	  0.053066134	-1.403940E+02	  0.053066134	5.320000E-01	  0.053066134	-1.800200E+01
167	  0.053266536	-1.600000E-01	  0.053266536	-1.408270E+02	  0.053266536	5.210000E-01	  0.053266536	-1.778900E+01
168	  0.053466935	-1.610000E-01	  0.053466935	-1.412730E+02	  0.053466935	5.220000E-01	  0.053466935	-1.757000E+01
169	  0.053667337	-1.590000E-01	  0.053667337	-1.417010E+02	  0.053667337	5.150000E-01	  0.053667337	-1.736000E+01
170	  0.053867739	-1.580000E-01	  0.053867739	-1.421460E+02	  0.053867739	5.110000E-01	  0.053867739	-1.714300E+01
171	  0.054068137	-1.610000E-01	  0.054068137	-1.425550E+02	  0.054068137	5.180000E-01	  0.054068137	-1.694400E+01
172	  0.054268539	-1.680000E-01	  0.054268539	-1.430000E+02	  0.054268539	5.400000E-01	  0.054268539	-1.672700E+01
173	  0.054468941	-1.750000E-01	  0.054468941	-1.434430E+02	  0.054468941	5.590000E-01	  0.054468941	-1.651300E+01
174	  0.054669339	-1.770000E-01	  0.054669339	-1.439040E+02	  0.054669339	5.640000E-01	  0.054669339	-1.629000E+01
175	  0.054869737	-1.810000E-01	  0.054869737	-1.443610E+02	  0.054869737	5.740000E-01	  0.054869737	-1.606900E+01
176	  0.055070139	-1.800000E-01	  0.055070139	-1.448330E+02	  0.055070139	5.730000E-01	  0.055070139	-1.584200E+01
177	  0.055270538	-1.800000E-01	  0.055270538	-1.452800E+02	  0.055270538	5.700000E-01	  0.055270538	-1.562800E+01
178	  0.055470940	-1.830000E-01	  0.055470940	-1.457260E+02	  0.055470940	5.770000E-01	  0.055470940	-1.541500E+01
179	  0.055671342	-1.860000E-01	  0.055671342	-1.462150E+02	  0.055671342	5.850000E-01	  0.055671342	-1.518100E+01
180	  0.055871744	-1.870000E-01	  0.055871744	-1.466800E+02	  0.055871744	5.860000E-01	  0.055871744	-1.496000E+01
181	  0.056072142	-1.880000E-01	  0.056072142	-1.471780E+02	  0.056072142	5.880000E-01	  0.056072142	-1.472400E+01
182	  0.056272544	-1.870000E-01	  0.056272544	-1.476500E+02	  0.056272544	5.840000E-01	  0.056272544	-1.450000E+01
183	  0.056472946	-1.840000E-01	  0.056472946	-1.481090E+02	  0.056472946	5.750000E-01	  0.056472946	-1.428300E+01
184	  0.056673344	-1.840000E-01	  0.056673344	-1.485570E+02	  0.056673344	5.720000E-01	  0.056673344	-1.407200E+01
185	  0.056873746	-1.870000E-01	  0.056873746	-1.489990E+02	  0.056873746	5.790000E-01	  0.056873746	-1.386400E+01
186	  0.057074148	-1.870000E-01	  0.057074148	-1.494370E+02	  0.057074148	5.800000E-01	  0.057074148	-1.365800E+01
187	  0.057274550	-1.910000E-01	  0.057274550	-1.498750E+02	  0.057274550	5.920000E-01	  0.057274550	-1.345300E+01
188	  0.057474948	-1.960000E-01	  0.057474948	-1.503290E+02	  0.057474948	6.050000E-01	  0.057474948	-1.324100E+01
189	  0.057675350	-1.980000E-01	  0.057675350	-1.507930E+02	  0.057675350	6.090000E-01	  0.057675350	-1.302500E+01
190	  0.057875752	-1.990000E-01	  0.057875752	-1.512690E+02	  0.057875752	6.110000E-01	  0.057875752	-1.280300E+01
191	  0.058076151	-1.980000E-01	  0.058076151	-1.517300E+02	  0.058076151	6.060000E-01	  0.058076151	-1.258900E+01
192	  0.058276553	-1.930000E-01	  0.058276553	-1.521890E+02	  0.058276553	5.920000E-01	  0.058276553	-1.237600E+01
193	  0.058476955	-1.930000E-01	  0.058476955	-1.526370E+02	  0.058476955	5.880000E-01	  0.058476955	-1.216900E+01
194	  0.058677353	-1.890000E-01	  0.058677353	-1.530790E+02	  0.058677353	5.770000E-01	  0.058677353	-1.196500E+01
195	  0.058877755	-1.890000E-01	  0.058877755	-1.535060E+02	  0.058877755	5.750000E-01	  0.058877755	-1.176800E+01
196	  0.059078157	-1.880000E-01	  0.059078157	-1.539370E+02	  0.059078157	5.710000E-01	  0.059078157	-1.157000E+01
197	  0.059278559	-1.920000E-01	  0.059278559	-1.543600E+02	  0.059278559	5.830000E-01	  0.059278559	-1.137600E+01
198	  0.059478957	-1.970000E-01	  0.059478957	-1.547890E+02	  0.059478957	5.970000E-01	  0.059478957	-1.117900E+01
199	  0.059679359	-2.020000E-01	  0.059679359	-1.552260E+02	  0.059679359	6.100000E-01	  0.059679359	-1.097900E+01
200	  0.059879761	-2.030000E-01	  0.059879761	-1.556970E+02	  0.059879761	6.110000E-01	  0.059879761	-1.076400E+01
201	  0.060080159	-2.030000E-01	  0.060080159	-1.561260E+02	  0.060080159	6.110000E-01	  0.060080159	-1.056800E+01
202	  0.060280561	-2.020000E-01	  0.060280561	-1.565660E+02	  0.060280561	6.090000E-01	  0.060280561	-1.036800E+01
203	  0.060480963	-2.050000E-01	  0.060480963	-1.570070E+02	  0.060480963	6.160000E-01	  0.060480963	-1.016700E+01
204	  0.060681365	-2.080000E-01	  0.060681365	-1.574650E+02	  0.060681365	6.230000E-01	  0.060681365	-9.959000E+00
205	  0.060881764	-2.110000E-01	  0.060881764	-1.579060E+02	  0.060881764	6.310000E-01	  0.060881764	-9.759000E+00
206	  0.061082166	-2.110000E-01	  0.061082166	-1.583720E+02	  0.061082166	6.310000E-01	  0.061082166	-9.548000E+00
207	  0.061282568	-2.130000E-01	  0.061282568	-1.588390E+02	  0.061282568	6.360000E-01	  0.061282568	-9.337000E+00
208	  0.061482966	-2.110000E-01	  0.061482966	-1.592960E+02	  0.061482966	6.300000E-01	  0.061482966	-9.131000E+00
209	  0.061683368	-2.110000E-01	  0.061683368	-1.597500E+02	  0.061683368	6.270000E-01	  0.061683368	-8.927000E+00
210	  0.061883770	-2.110000E-01	  0.061883770	-1.601920E+02	  0.061883770	6.260000E-01	  0.061883770	-8.728000E+00
211	  0.062084168	-2.120000E-01	  0.062084168	-1.606460E+02	  0.062084168	6.300000E-01	  0.062084168	-8.524000E+00
212	  0.062284570	-2.130000E-01	  0.062284570	-1.610750E+02	  0.062284570	6.320000E-01	  0.062284570	-8.331000E+00
213	  0.062484972	-2.120000E-01	  0.062484972	-1.614780E+02	  0.062484972	6.280000E-01	  0.062484972	-8.151000E+00
214	  0.062685370	-2.150000E-01	  0.062685370	-1.619170E+02	  0.062685370	6.360000E-01	  0.062685370	-7.955000E+00
215	  0.062885776	-2.180000E-01	  0.062885776	-1.623420E+02	  0.062885776	6.440000E-01	  0.062885776	-7.765000E+00
216	  0.063086174	-2.200000E-01	  0.063086174	-1.628000E+02	  0.063086174	6.480000E-01	  0.063086174	-7.560000E+00
217	  0.063286573	-2.160000E-01	  0.063286573	-1.632680E+02	  0.063286573	6.350000E-01	  0.063286573	-7.351000E+00
218	  0.063486971	-2.150000E-01	  0.063486971	-1.637130E+02	  0.063486971	6.320000E-01	  0.063486971	-7.153000E+00
219	  0.063687377	-2.150000E-01	  0.063687377	-1.641330E+02	  0.063687377	6.310000E-01	  0.063687377	-6.966000E+00
220	  0.063887775	-2.120000E-01	  0.063887775	-1.645730E+02	  0.063887775	6.220000E-01	  0.063887775	-6.770000E+00
221	  0.064088173	-2.120000E-01	  0.064088173	-1.650040E+02	  0.064088173	6.210000E-01	  0.064088173	-6.579000E+00
222	  0.064288579	-2.150000E-01	  0.064288579	-1.654150E+02	  0.064288579	6.310000E-01	  0.064288579	-6.397000E+00
223	  0.064488977	-2.140000E-01	  0.064488977	-1.658480E+02	  0.064488977	6.270000E-01	  0.064488977	-6.205000E+00
224	  0.064689375	-2.180000E-01	  0.064689375	-1.662750E+02	  0.064689375	6.370000E-01	  0.064689375	-6.016000E+00
225	  0.064889781	-2.200000E-01	  0.064889781	-1.667160E+02	  0.064889781	6.430000E-01	  0.064889781	-5.821000E+00
226	  0.065090179	-2.220000E-01	  0.065090179	-1.671490E+02	  0.065090179	6.490000E-01	  0.065090179	-5.629000E+00
227	  0.065290578	-2.220000E-01	  0.065290578	-1.675550E+02	  0.065290578	6.470000E-01	  0.065290578	-5.450000E+00
228	  0.065490983	-2.230000E-01	  0.065490983	-1.679840E+02	  0.065490983	6.510000E-01	  0.065490983	-5.261000E+00
229	  0.065691382	-2.240000E-01	  0.065691382	-1.684170E+02	  0.065691382	6.540000E-01	  0.065691382	-5.070000E+00
230	  0.065891780	-2.280000E-01	  0.065891780	-1.688410E+02	  0.065891780	6.620000E-01	  0.065891780	-4.883000E+00
231	  0.066092186	-2.270000E-01	  0.066092186	-1.692760E+02	  0.066092186	6.590000E-01	  0.066092186	-4.691000E+00
232	  0.066292584	-2.270000E-01	  0.066292584	-1.697100E+02	  0.066292584	6.590000E-01	  0.066292584	-4.501000E+00
233	  0.066492982	-2.330000E-01	  0.066492982	-1.701520E+02	  0.066492982	6.770000E-01	  0.066492982	-4.306000E+00
234	  0.066693388	-2.320000E-01	  0.066693388	-1.705860E+02	  0.066693388	6.740000E-01	  0.066693388	-4.115000E+00
235	  0.066893786	-2.310000E-01	  0.066893786	-1.710310E+02	  0.066893786	6.690000E-01	  0.066893786	-3.920000E+00
236	  0.067094192	-2.340000E-01	  0.067094192	-1.714840E+02	  0.067094192	6.770000E-01	  0.067094192	-3.721000E+00
237	  0.067294590	-2.350000E-01	  0.067294590	-1.718940E+02	  0.067294590	6.800000E-01	  0.067294590	-3.541000E+00
238	  0.067494988	-2.320000E-01	  0.067494988	-1.723030E+02	  0.067494988	6.730000E-01	  0.067494988	-3.362000E+00
239	  0.067695394	-2.330000E-01	  0.067695394	-1.727200E+02	  0.067695394	6.730000E-01	  0.067695394	-3.180000E+00
240	  0.067895792	-2.300000E-01	  0.067895792	-1.731280E+02	  0.067895792	6.650000E-01	  0.067895792	-3.001000E+00
241	  0.068096191	-2.360000E-01	  0.068096191	-1.735280E+02	  0.068096191	6.810000E-01	  0.068096191	-2.826000E+00
242	  0.068296596	-2.380000E-01	  0.068296596	-1.739530E+02	  0.068296596	6.890000E-01	  0.068296596	-2.640000E+00
243	  0.068496995	-2.380000E-01	  0.068496995	-1.743740E+02	  0.068496995	6.870000E-01	  0.068496995	-2.456000E+00
244	  0.068697393	-2.370000E-01	  0.068697393	-1.748180E+02	  0.068697393	6.830000E-01	  0.068697393	-2.261000E+00
245	  0.068897791	-2.360000E-01	  0.068897791	-1.752020E+02	  0.068897791	6.820000E-01	  0.068897791	-2.094000E+00
246	  0.069098189	-2.350000E-01	  0.069098189	-1.755790E+02	  0.069098189	6.780000E-01	  0.069098189	-1.929000E+00
247	  0.069298595	-2.330000E-01	  0.069298595	-1.759910E+02	  0.069298595	6.720000E-01	  0.069298595	-1.749000E+00
248	  0.069498993	-2.380000E-01	  0.069498993	-1.764070E+02	  0.069498993	6.870000E-01	  0.069498993	-1.567000E+00
249	  0.069699399	-2.400000E-01	  0.069699399	-1.768150E+02	  0.069699399	6.920000E-01	  0.069699399	-1.389000E+00
250	  0.069899797	-2.420000E-01	  0.069899797	-1.772270E+02	  0.069899797	6.960000E-01	  0.069899797	-1.209000E+00
251	  0.070100196	-2.430000E-01	  0.070100196	-1.776220E+02	  0.070100196	7.020000E-01	  0.070100196	-1.037000E+00
252	  0.070300601	-2.460000E-01	  0.070300601	-1.780420E+02	  0.070300601	7.080000E-01	  0.070300601	-8.540000E-01
253	  0.070501000	-2.460000E-01	  0.070501000	-1.784400E+02	  0.070501000	7.090000E-01	  0.070501000	-6.800000E-01
254	  0.070701398	-2.510000E-01	  0.070701398	-1.788190E+02	  0.070701398	7.230000E-01	  0.070701398	-5.150000E-01
255	  0.070901804	-2.510000E-01	  0.070901804	-1.792340E+02	  0.070901804	7.230000E-01	  0.070901804	-3.330000E-01
256	  0.071102202	-2.510000E-01	  0.071102202	-1.796690E+02	  0.071102202	7.240000E-01	  0.071102202	-1.440000E-01
257	  0.071302600	-2.530000E-01	  0.071302600	1.799310E+02	  0.071302600	7.300000E-01	  0.071302600	3.000000E-02
258	  0.071503006	-2.550000E-01	  0.071503006	1.795030E+02	  0.071503006	7.350000E-01	  0.071503006	2.160000E-01
259	  0.071703404	-2.550000E-01	  0.071703404	1.790820E+02	  0.071703404	7.360000E-01	  0.071703404	4.000000E-01
260	  0.071903802	-2.580000E-01	  0.071903802	1.786500E+02	  0.071903802	7.440000E-01	  0.071903802	5.880000E-01
261	  0.072104208	-2.580000E-01	  0.072104208	1.782120E+02	  0.072104208	7.440000E-01	  0.072104208	7.790000E-01
262	  0.072304606	-2.590000E-01	  0.072304606	1.778030E+02	  0.072304606	7.480000E-01	  0.072304606	9.580000E-01
263	  0.072505005	-2.610000E-01	  0.072505005	1.773820E+02	  0.072505005	7.510000E-01	  0.072505005	1.142000E+00
264	  0.072705410	-2.590000E-01	  0.072705410	1.769840E+02	  0.072705410	7.460000E-01	  0.072705410	1.315000E+00
265	  0.072905809	-2.600000E-01	  0.072905809	1.765660E+02	  0.072905809	7.490000E-01	  0.072905809	1.498000E+00
266	  0.073106214	-2.600000E-01	  0.073106214	1.761610E+02	  0.073106214	7.490000E-01	  0.073106214	1.675000E+00
267	  0.073306613	-2.610000E-01	  0.073306613	1.757480E+02	  0.073306613	7.530000E-01	  0.073306613	1.855000E+00
268	  0.073507011	-2.630000E-01	  0.073507011	1.753300E+02	  0.073507011	7.590000E-01	  0.073507011	2.038000E+00
269	  0.073707417	-2.610000E-01	  0.073707417	1.749240E+02	  0.073707417	7.540000E-01	  0.073707417	2.215000E+00
270	  0.073907815	-2.600000E-01	  0.073907815	1.745230E+02	  0.073907815	7.500000E-01	  0.073907815	2.390000E+00
271	  0.074108213	-2.580000E-01	  0.074108213	1.741480E+02	  0.074108213	7.450000E-01	  0.074108213	2.554000E+00
272	  0.074308619	-2.560000E-01	  0.074308619	1.737500E+02	  0.074308619	7.410000E-01	  0.074308619	2.729000E+00
273	  0.074509017	-2.600000E-01	  0.074509017	1.733520E+02	  0.074509017	7.530000E-01	  0.074509017	2.902000E+00
274	  0.074709415	-2.600000E-01	  0.074709415	1.729440E+02	  0.074709415	7.530000E-01	  0.074709415	3.081000E+00
275	  0.074909821	-2.650000E-01	  0.074909821	1.725480E+02	  0.074909821	7.660000E-01	  0.074909821	3.255000E+00
276	  0.075110219	-2.650000E-01	  0.075110219	1.721370E+02	  0.075110219	7.670000E-01	  0.075110219	3.435000E+00
277	  0.075310618	-2.670000E-01	  0.075310618	1.717330E+02	  0.075310618	7.720000E-01	  0.075310618	3.612000E+00
278	  0.075511023	-2.690000E-01	  0.075511023	1.713610E+02	  0.075511023	7.800000E-01	  0.075511023	3.775000E+00
279	  0.075711422	-2.690000E-01	  0.075711422	1.709750E+02	  0.075711422	7.800000E-01	  0.075711422	3.945000E+00
280	  0.075911827	-2.700000E-01	  0.075911827	1.705830E+02	  0.075911827	7.820000E-01	  0.075911827	4.117000E+00
281	  0.076112226	-2.710000E-01	  0.076112226	1.701820E+02	  0.076112226	7.860000E-01	  0.076112226	4.293000E+00
282	  0.076312624	-2.710000E-01	  0.076312624	1.697680E+02	  0.076312624	7.870000E-01	  0.076312624	4.475000E+00
283	  0.076513030	-2.720000E-01	  0.076513030	1.693920E+02	  0.076513030	7.910000E-01	  0.076513030	4.640000E+00
284	  0.076713428	-2.720000E-01	  0.076713428	1.689830E+02	  0.076713428	7.910000E-01	  0.076713428	4.820000E+00
285	  0.076913826	-2.730000E-01	  0.076913826	1.685820E+02	  0.076913826	7.960000E-01	  0.076913826	4.996000E+00
286	  0.077114232	-2.740000E-01	  0.077114232	1.681910E+02	  0.077114232	7.990000E-01	  0.077114232	5.169000E+00
287	  0.077314630	-2.730000E-01	  0.077314630	1.678010E+02	  0.077314630	7.950000E-01	  0.077314630	5.341000E+00
288	  0.077515028	-2.730000E-01	  0.077515028	1.673920E+02	  0.077515028	7.970000E-01	  0.077515028	5.522000E+00
289	  0.077715434	-2.770000E-01	  0.077715434	1.670150E+02	  0.077715434	8.100000E-01	  0.077715434	5.688000E+00
290	  0.077915832	-2.750000E-01	  0.077915832	1.666560E+02	  0.077915832	8.040000E-01	  0.077915832	5.847000E+00
291	  0.078116231	-2.770000E-01	  0.078116231	1.662600E+02	  0.078116231	8.110000E-01	  0.078116231	6.022000E+00
292	  0.078316636	-2.780000E-01	  0.078316636	1.658780E+02	  0.078316636	8.140000E-01	  0.078316636	6.191000E+00
293	  0.078517035	-2.810000E-01	  0.078517035	1.654600E+02	  0.078517035	8.220000E-01	  0.078517035	6.376000E+00
294	  0.078717433	-2.790000E-01	  0.078717433	1.650690E+02	  0.078717433	8.180000E-01	  0.078717433	6.550000E+00
295	  0.078917839	-2.790000E-01	  0.078917839	1.647080E+02	  0.078917839	8.190000E-01	  0.078917839	6.710000E+00
296	  0.079118237	-2.780000E-01	  0.079118237	1.643150E+02	  0.079118237	8.170000E-01	  0.079118237	6.885000E+00
297	  0.079318643	-2.760000E-01	  0.079318643	1.639250E+02	  0.079318643	8.110000E-01	  0.079318643	7.058000E+00
298	  0.079519041	-2.760000E-01	  0.079519041	1.635510E+02	  0.079519041	8.110000E-01	  0.079519041	7.225000E+00
299	  0.079719439	-2.770000E-01	  0.079719439	1.631580E+02	  0.079719439	8.170000E-01	  0.079719439	7.399000E+00
300	  0.079919845	-2.820000E-01	  0.079919845	1.627680E+02	  0.079919845	8.300000E-01	  0.079919845	7.573000E+00
301	  0.080120243	-2.840000E-01	  0.080120243	1.623740E+02	  0.080120243	8.380000E-01	  0.080120243	7.749000E+00
302	  0.080320641	-2.870000E-01	  0.080320641	1.619870E+02	  0.080320641	8.480000E-01	  0.080320641	7.922000E+00
303	  0.080521047	-2.890000E-01	  0.080521047	1.615900E+02	  0.080521047	8.550000E-01	  0.080521047	8.100000E+00
304	  0.080721445	-2.910000E-01	  0.080721445	1.612040E+02	  0.080721445	8.620000E-01	  0.080721445	8.273000E+00
305	  0.080921844	-2.910000E-01	  0.080921844	1.608160E+02	  0.080921844	8.620000E-01	  0.080921844	8.447000E+00
306	  0.081122249	-2.920000E-01	  0.081122249	1.604080E+02	  0.081122249	8.650000E-01	  0.081122249	8.630000E+00
307	  0.081322648	-2.950000E-01	  0.081322648	1.600130E+02	  0.081322648	8.760000E-01	  0.081322648	8.807000E+00
308	  0.081523046	-2.910000E-01	  0.081523046	1.595910E+02	  0.081523046	8.660000E-01	  0.081523046	8.997000E+00
309	  0.081723452	-2.910000E-01	  0.081723452	1.592110E+02	  0.081723452	8.670000E-01	  0.081723452	9.168000E+00
310	  0.081923850	-2.910000E-01	  0.081923850	1.588060E+02	  0.081923850	8.690000E-01	  0.081923850	9.351000E+00
311	  0.082124248	-2.910000E-01	  0.082124248	1.584200E+02	  0.082124248	8.700000E-01	  0.082124248	9.526000E+00
312	  0.082324654	-2.910000E-01	  0.082324654	1.580140E+02	  0.082324654	8.690000E-01	  0.082324654	9.709000E+00
313	  0.082525052	-2.880000E-01	  0.082525052	1.576300E+02	  0.082525052	8.630000E-01	  0.082525052	9.883000E+00
314	  0.082725458	-2.880000E-01	  0.082725458	1.572460E+02	  0.082725458	8.650000E-01	  0.082725458	1.005700E+01
315	  0.082925856	-2.890000E-01	  0.082925856	1.568950E+02	  0.082925856	8.690000E-01	  0.082925856	1.021700E+01
316	  0.083126254	-2.900000E-01	  0.083126254	1.565160E+02	  0.083126254	8.730000E-01	  0.083126254	1.038900E+01
317	  0.083326660	-2.930000E-01	  0.083326660	1.561700E+02	  0.083326660	8.800000E-01	  0.083326660	1.054600E+01
318	  0.083527058	-2.930000E-01	  0.083527058	1.557770E+02	  0.083527058	8.830000E-01	  0.083527058	1.072600E+01
319	  0.083727457	-2.970000E-01	  0.083727457	1.553720E+02	  0.083727457	8.960000E-01	  0.083727457	1.091100E+01
320	  0.083927862	-2.940000E-01	  0.083927862	1.549780E+02	  0.083927862	8.900000E-01	  0.083927862	1.109100E+01
321	  0.084128261	-2.950000E-01	  0.084128261	1.546020E+02	  0.084128261	8.940000E-01	  0.084128261	1.126300E+01
322	  0.084328659	-2.930000E-01	  0.084328659	1.542230E+02	  0.084328659	8.900000E-01	  0.084328659	1.143700E+01
323	  0.084529065	-2.920000E-01	  0.084529065	1.538810E+02	  0.084529065	8.860000E-01	  0.084529065	1.159400E+01
324	  0.084729463	-2.930000E-01	  0.084729463	1.535070E+02	  0.084729463	8.920000E-01	  0.084729463	1.176600E+01
325	  0.084929861	-2.960000E-01	  0.084929861	1.531220E+02	  0.084929861	9.010000E-01	  0.084929861	1.194300E+01
326	  0.085130267	-2.980000E-01	  0.085130267	1.527230E+02	  0.085130267	9.100000E-01	  0.085130267	1.212700E+01
327	  0.085330658	-3.010000E-01	  0.085330658	1.523410E+02	  0.085330658	9.190000E-01	  0.085330658	1.230400E+01
328	  0.085531056	-3.030000E-01	  0.085531056	1.519700E+02	  0.085531056	9.270000E-01	  0.085531056	1.247600E+01
329	  0.085731462	-3.050000E-01	  0.085731462	1.515980E+02	  0.085731462	9.350000E-01	  0.085731462	1.264800E+01
330	  0.085931860	-3.110000E-01	  0.085931860	1.512000E+02	  0.085931860	9.550000E-01	  0.085931860	1.283300E+01
331	  0.086132258	-3.120000E-01	  0.086132258	1.508280E+02	  0.086132258	9.590000E-01	  0.086132258	1.300600E+01
332	  0.086332664	-3.120000E-01	  0.086332664	1.504190E+02	  0.086332664	9.620000E-01	  0.086332664	1.319600E+01
333	  0.086533062	-3.100000E-01	  0.086533062	1.500220E+02	  0.086533062	9.560000E-01	  0.086533062	1.338200E+01
334	  0.086733460	-3.090000E-01	  0.086733460	1.496280E+02	  0.086733460	9.550000E-01	  0.086733460	1.356600E+01
335	  0.086933866	-3.110000E-01	  0.086933866	1.492450E+02	  0.086933866	9.630000E-01	  0.086933866	1.374600E+01
336	  0.087134264	-3.090000E-01	  0.087134264	1.488370E+02	  0.087134264	9.600000E-01	  0.087134264	1.393800E+01
337	  0.087334670	-3.090000E-01	  0.087334670	1.484640E+02	  0.087334670	9.610000E-01	  0.087334670	1.411300E+01
338	  0.087535068	-3.070000E-01	  0.087535068	1.480830E+02	  0.087535068	9.570000E-01	  0.087535068	1.429200E+01
339	  0.087735467	-3.030000E-01	  0.087735467	1.477000E+02	  0.087735467	9.470000E-01	  0.087735467	1.447400E+01
340	  0.087935872	-3.020000E-01	  0.087935872	1.473260E+02	  0.087935872	9.440000E-01	  0.087935872	1.465100E+01
341	  0.088136271	-3.000000E-01	  0.088136271	1.469830E+02	  0.088136271	9.420000E-01	  0.088136271	1.481300E+01
342	  0.088336669	-3.040000E-01	  0.088336669	1.466590E+02	  0.088336669	9.530000E-01	  0.088336669	1.496700E+01
343	  0.088537075	-3.010000E-01	  0.088537075	1.462730E+02	  0.088537075	9.470000E-01	  0.088537075	1.515100E+01
344	  0.088737473	-3.040000E-01	  0.088737473	1.459180E+02	  0.088737473	9.570000E-01	  0.088737473	1.532000E+01
345	  0.088937871	-3.070000E-01	  0.088937871	1.455220E+02	  0.088937871	9.700000E-01	  0.088937871	1.550900E+01
346	  0.089138277	-3.070000E-01	  0.089138277	1.451520E+02	  0.089138277	9.700000E-01	  0.089138277	1.568600E+01
347	  0.089338675	-3.090000E-01	  0.089338675	1.447790E+02	  0.089338675	9.790000E-01	  0.089338675	1.586500E+01
348	  0.089539073	-3.070000E-01	  0.089539073	1.444090E+02	  0.089539073	9.750000E-01	  0.089539073	1.604300E+01
349	  0.089739479	-3.100000E-01	  0.089739479	1.440910E+02	  0.089739479	9.850000E-01	  0.089739479	1.619600E+01
350	  0.089939877	-3.080000E-01	  0.089939877	1.436780E+02	  0.089939877	9.810000E-01	  0.089939877	1.639500E+01
351	  0.090140276	-3.120000E-01	  0.090140276	1.433120E+02	  0.090140276	9.970000E-01	  0.090140276	1.657200E+01
352	  0.090340681	-3.110000E-01	  0.090340681	1.429430E+02	  0.090340681	9.980000E-01	  0.090340681	1.675100E+01
353	  0.090541080	-3.130000E-01	  0.090541080	1.425650E+02	  0.090541080	1.006000E+00	  0.090541080	1.693400E+01
354	  0.090741485	-3.170000E-01	  0.090741485	1.422050E+02	  0.090741485	1.019000E+00	  0.090741485	1.710900E+01
355	  0.090941884	-3.210000E-01	  0.090941884	1.418380E+02	  0.090941884	1.035000E+00	  0.090941884	1.728800E+01
356	  0.091142282	-3.280000E-01	  0.091142282	1.414550E+02	  0.091142282	1.059000E+00	  0.091142282	1.747500E+01
357	  0.091342688	-3.280000E-01	  0.091342688	1.410670E+02	  0.091342688	1.062000E+00	  0.091342688	1.766500E+01
358	  0.091543086	-3.280000E-01	  0.091543086	1.406840E+02	  0.091543086	1.065000E+00	  0.091543086	1.785300E+01
359	  0.091743484	-3.300000E-01	  0.091743484	1.402740E+02	  0.091743484	1.074000E+00	  0.091743484	1.805500E+01
360	  0.091943890	-3.280000E-01	  0.091943890	1.399040E+02	  0.091943890	1.070000E+00	  0.091943890	1.823800E+01
361	  0.092144288	-3.280000E-01	  0.092144288	1.395150E+02	  0.092144288	1.075000E+00	  0.092144288	1.843000E+01
362	  0.092344686	-3.280000E-01	  0.092344686	1.391540E+02	  0.092344686	1.078000E+00	  0.092344686	1.860900E+01
363	  0.092545092	-3.290000E-01	  0.092545092	1.387600E+02	  0.092545092	1.083000E+00	  0.092545092	1.880500E+01
364	  0.092745490	-3.250000E-01	  0.092745490	1.383620E+02	  0.092745490	1.071000E+00	  0.092745490	1.900400E+01
365	  0.092945889	-3.270000E-01	  0.092945889	1.379940E+02	  0.092945889	1.080000E+00	  0.092945889	1.918800E+01
366	  0.093146294	-3.200000E-01	  0.093146294	1.376270E+02	  0.093146294	1.060000E+00	  0.093146294	1.937200E+01
367	  0.093346693	-3.230000E-01	  0.093346693	1.372900E+02	  0.093346693	1.074000E+00	  0.093346693	1.954100E+01
368	  0.093547091	-3.170000E-01	  0.093547091	1.369360E+02	  0.093547091	1.056000E+00	  0.093547091	1.971900E+01
369	  0.093747497	-3.230000E-01	  0.093747497	1.365920E+02	  0.093747497	1.078000E+00	  0.093747497	1.989300E+01
370	  0.093947895	-3.200000E-01	  0.093947895	1.362340E+02	  0.093947895	1.069000E+00	  0.093947895	2.007400E+01
371	  0.094148301	-3.210000E-01	  0.094148301	1.358680E+02	  0.094148301	1.077000E+00	  0.094148301	2.025900E+01
372	  0.094348699	-3.190000E-01	  0.094348699	1.355120E+02	  0.094348699	1.074000E+00	  0.094348699	2.044100E+01
373	  0.094549097	-3.240000E-01	  0.094549097	1.351580E+02	  0.094549097	1.093000E+00	  0.094549097	2.062100E+01
374	  0.094749503	-3.220000E-01	  0.094749503	1.348110E+02	  0.094749503	1.088000E+00	  0.094749503	2.079800E+01
375	  0.094949901	-3.230000E-01	  0.094949901	1.344800E+02	  0.094949901	1.094000E+00	  0.094949901	2.096800E+01
376	  0.095150299	-3.250000E-01	  0.095150299	1.341000E+02	  0.095150299	1.104000E+00	  0.095150299	2.116300E+01
377	  0.095350705	-3.230000E-01	  0.095350705	1.337430E+02	  0.095350705	1.099000E+00	  0.095350705	2.134700E+01
378	  0.095551103	-3.230000E-01	  0.095551103	1.333980E+02	  0.095551103	1.104000E+00	  0.095551103	2.152500E+01
379	  0.095751502	-3.220000E-01	  0.095751502	1.330500E+02	  0.095751502	1.102000E+00	  0.095751502	2.170500E+01
380	  0.095951907	-3.270000E-01	  0.095951907	1.327050E+02	  0.095951907	1.121000E+00	  0.095951907	2.188400E+01
381	  0.096152306	-3.280000E-01	  0.096152306	1.323550E+02	  0.096152306	1.130000E+00	  0.096152306	2.206600E+01
382	  0.096352704	-3.320000E-01	  0.096352704	1.319980E+02	  0.096352704	1.145000E+00	  0.096352704	2.225200E+01
383	  0.096553110	-3.340000E-01	  0.096553110	1.316290E+02	  0.096553110	1.155000E+00	  0.096553110	2.244500E+01
384	  0.096753508	-3.370000E-01	  0.096753508	1.312410E+02	  0.096753508	1.170000E+00	  0.096753508	2.264900E+01
385	  0.096953906	-3.360000E-01	  0.096953906	1.308880E+02	  0.096953906	1.169000E+00	  0.096953906	2.283400E+01
386	  0.097154312	-3.380000E-01	  0.097154312	1.305190E+02	  0.097154312	1.180000E+00	  0.097154312	2.302900E+01
387	  0.097354710	-3.370000E-01	  0.097354710	1.301670E+02	  0.097354710	1.180000E+00	  0.097354710	2.321600E+01
388	  0.097555116	-3.390000E-01	  0.097555116	1.297860E+02	  0.097555116	1.191000E+00	  0.097555116	2.341800E+01
389	  0.097755514	-3.410000E-01	  0.097755514	1.294320E+02	  0.097755514	1.201000E+00	  0.097755514	2.360600E+01
390	  0.097955912	-3.340000E-01	  0.097955912	1.290520E+02	  0.097955912	1.182000E+00	  0.097955912	2.380900E+01
391	  0.098156318	-3.330000E-01	  0.098156318	1.286990E+02	  0.098156318	1.180000E+00	  0.098156318	2.399900E+01
392	  0.098356716	-3.330000E-01	  0.098356716	1.283440E+02	  0.098356716	1.182000E+00	  0.098356716	2.418900E+01
393	  0.098557115	-3.320000E-01	  0.098557115	1.280080E+02	  0.098557115	1.185000E+00	  0.098557115	2.437000E+01
394	  0.098757520	-3.310000E-01	  0.098757520	1.276630E+02	  0.098757520	1.183000E+00	  0.098757520	2.455700E+01
395	  0.098957919	-3.330000E-01	  0.098957919	1.273340E+02	  0.098957919	1.195000E+00	  0.098957919	2.473500E+01
396	  0.099158317	-3.310000E-01	  0.099158317	1.269670E+02	  0.099158317	1.189000E+00	  0.099158317	2.493500E+01
397	  0.099358723	-3.290000E-01	  0.099358723	1.266400E+02	  0.099358723	1.186000E+00	  0.099358723	2.511400E+01
398	  0.099559121	-3.300000E-01	  0.099559121	1.263050E+02	  0.099559121	1.194000E+00	  0.099559121	2.529700E+01
399	  0.099759519	-3.300000E-01	  0.099759519	1.259550E+02	  0.099759519	1.200000E+00	  0.099759519	2.548900E+01
400	  0.099959925	-3.270000E-01	  0.099959925	1.256180E+02	  0.099959925	1.192000E+00	  0.099959925	2.567400E+01
401	  0.100160323	-3.360000E-01	  0.100160323	1.252640E+02	  0.100160323	1.228000E+00	  0.100160323	2.586900E+01
402	  0.100360721	-3.240000E-01	  0.100360721	1.248970E+02	  0.100360721	1.187000E+00	  0.100360721	2.607300E+01
403	  0.100561127	-3.310000E-01	  0.100561127	1.245520E+02	  0.100561127	1.216000E+00	  0.100561127	2.626400E+01
404	  0.100761525	-3.210000E-01	  0.100761525	1.242320E+02	  0.100761525	1.185000E+00	  0.100761525	2.644400E+01
405	  0.100961931	-3.330000E-01	  0.100961931	1.238500E+02	  0.100961931	1.232000E+00	  0.100961931	2.665600E+01
406	  0.101162329	-3.330000E-01	  0.101162329	1.234900E+02	  0.101162329	1.234000E+00	  0.101162329	2.685800E+01
407	  0.101362728	-3.340000E-01	  0.101362728	1.231190E+02	  0.101362728	1.244000E+00	  0.101362728	2.706700E+01
408	  0.101563133	-3.420000E-01	  0.101563133	1.228050E+02	  0.101563133	1.277000E+00	  0.101563133	2.724400E+01
409	  0.101763532	-3.400000E-01	  0.101763532	1.224630E+02	  0.101763532	1.273000E+00	  0.101763532	2.743800E+01
410	  0.101963930	-3.380000E-01	  0.101963930	1.220700E+02	  0.101963930	1.272000E+00	  0.101963930	2.766100E+01
411	  0.102164336	-3.410000E-01	  0.102164336	1.217180E+02	  0.102164336	1.289000E+00	  0.102164336	2.786100E+01
412	  0.102364734	-3.410000E-01	  0.102364734	1.213840E+02	  0.102364734	1.293000E+00	  0.102364734	2.805300E+01
413	  0.102565132	-3.420000E-01	  0.102565132	1.210040E+02	  0.102565132	1.300000E+00	  0.102565132	2.827100E+01
414	  0.102765530	-3.410000E-01	  0.102765530	1.206570E+02	  0.102765530	1.301000E+00	  0.102765530	2.847100E+01
415	  0.102965929	-3.400000E-01	  0.102965929	1.202920E+02	  0.102965929	1.303000E+00	  0.102965929	2.868200E+01
416	  0.103166327	-3.380000E-01	  0.103166327	1.199050E+02	  0.103166327	1.298000E+00	  0.103166327	2.890700E+01
417	  0.103366733	-3.390000E-01	  0.103366733	1.195580E+02	  0.103366733	1.309000E+00	  0.103366733	2.910900E+01
418	  0.103567131	-3.350000E-01	  0.103567131	1.192070E+02	  0.103567131	1.299000E+00	  0.103567131	2.931500E+01
419	  0.103767529	-3.440000E-01	  0.103767529	1.188230E+02	  0.103767529	1.339000E+00	  0.103767529	2.954000E+01
420	  0.103967935	-3.330000E-01	  0.103967935	1.184860E+02	  0.103967935	1.298000E+00	  0.103967935	2.974000E+01
421	  0.104168333	-3.440000E-01	  0.104168333	1.181540E+02	  0.104168333	1.346000E+00	  0.104168333	2.993500E+01
422	  0.104368731	-3.340000E-01	  0.104368731	1.177940E+02	  0.104368731	1.313000E+00	  0.104368731	3.014900E+01
423	  0.104569137	-3.350000E-01	  0.104569137	1.174470E+02	  0.104569137	1.321000E+00	  0.104569137	3.035600E+01
424	  0.104769535	-3.370000E-01	  0.104769535	1.170840E+02	  0.104769535	1.333000E+00	  0.104769535	3.057300E+01
425	  0.104969934	-3.420000E-01	  0.104969934	1.167890E+02	  0.104969934	1.357000E+00	  0.104969934	3.074900E+01
426	  0.105170339	-3.480000E-01	  0.105170339	1.164480E+02	  0.105170339	1.387000E+00	  0.105170339	3.095400E+01
427	  0.105370738	-3.460000E-01	  0.105370738	1.160850E+02	  0.105370738	1.384000E+00	  0.105370738	3.117400E+01
428	  0.105571143	-3.490000E-01	  0.105571143	1.157340E+02	  0.105571143	1.402000E+00	  0.105571143	3.138700E+01
429	  0.105771542	-3.450000E-01	  0.105771542	1.153750E+02	  0.105771542	1.393000E+00	  0.105771542	3.160600E+01
430	  0.105971940	-3.410000E-01	  0.105971940	1.150410E+02	  0.105971940	1.381000E+00	  0.105971940	3.181000E+01
431	  0.106172346	-3.460000E-01	  0.106172346	1.146430E+02	  0.106172346	1.408000E+00	  0.106172346	3.205400E+01
432	  0.106372744	-3.450000E-01	  0.106372744	1.143500E+02	  0.106372744	1.407000E+00	  0.106372744	3.223500E+01
433	  0.106573142	-3.510000E-01	  0.106573142	1.140160E+02	  0.106573142	1.436000E+00	  0.106573142	3.244100E+01
434	  0.106773548	-3.450000E-01	  0.106773548	1.136640E+02	  0.106773548	1.418000E+00	  0.106773548	3.266000E+01
435	  0.106973946	-3.500000E-01	  0.106973946	1.133030E+02	  0.106973946	1.446000E+00	  0.106973946	3.288500E+01
436	  0.107174344	-3.460000E-01	  0.107174344	1.129780E+02	  0.107174344	1.433000E+00	  0.107174344	3.308900E+01
437	  0.107374750	-3.460000E-01	  0.107374750	1.126350E+02	  0.107374750	1.441000E+00	  0.107374750	3.330400E+01
438	  0.107575148	-3.500000E-01	  0.107575148	1.123020E+02	  0.107575148	1.461000E+00	  0.107575148	3.351300E+01
439	  0.107775547	-3.460000E-01	  0.107775547	1.119460E+02	  0.107775547	1.450000E+00	  0.107775547	3.373900E+01
440	  0.107975952	-3.480000E-01	  0.107975952	1.116570E+02	  0.107975952	1.466000E+00	  0.107975952	3.392300E+01
441	  0.108176351	-3.460000E-01	  0.108176351	1.113050E+02	  0.108176351	1.462000E+00	  0.108176351	3.414800E+01
442	  0.108376749	-3.460000E-01	  0.108376749	1.109750E+02	  0.108376749	1.466000E+00	  0.108376749	3.435900E+01
443	  0.108577155	-3.440000E-01	  0.108577155	1.106190E+02	  0.108577155	1.467000E+00	  0.108577155	3.458800E+01
444	  0.108777553	-3.410000E-01	  0.108777553	1.103210E+02	  0.108777553	1.460000E+00	  0.108777553	3.478100E+01
445	  0.108977959	-3.410000E-01	  0.108977959	1.099730E+02	  0.108977959	1.465000E+00	  0.108977959	3.500700E+01
446	  0.109178357	-3.480000E-01	  0.109178357	1.096760E+02	  0.109178357	1.500000E+00	  0.109178357	3.519900E+01
447	  0.109378755	-3.410000E-01	  0.109378755	1.093310E+02	  0.109378755	1.478000E+00	  0.109378755	3.542600E+01
448	  0.109579161	-3.420000E-01	  0.109579161	1.090090E+02	  0.109579161	1.486000E+00	  0.109579161	3.563700E+01
449	  0.109779559	-3.380000E-01	  0.109779559	1.086620E+02	  0.109779559	1.475000E+00	  0.109779559	3.586600E+01
450	  0.109979957	-3.390000E-01	  0.109979957	1.083380E+02	  0.109979957	1.484000E+00	  0.109979957	3.608100E+01
451	  0.110180363	-3.430000E-01	  0.110180363	1.080420E+02	  0.110180363	1.508000E+00	  0.110180363	3.627700E+01
452	  0.110380761	-3.480000E-01	  0.110380761	1.077110E+02	  0.110380761	1.537000E+00	  0.110380761	3.649700E+01
453	  0.110581160	-3.460000E-01	  0.110581160	1.073620E+02	  0.110581160	1.537000E+00	  0.110581160	3.673100E+01
454	  0.110781565	-3.480000E-01	  0.110781565	1.070160E+02	  0.110781565	1.551000E+00	  0.110781565	3.696300E+01
455	  0.110981964	-3.480000E-01	  0.110981964	1.066660E+02	  0.110981964	1.560000E+00	  0.110981964	3.720000E+01
456	  0.111182362	-3.480000E-01	  0.111182362	1.063150E+02	  0.111182362	1.567000E+00	  0.111182362	3.743800E+01
457	  0.111382768	-3.470000E-01	  0.111382768	1.060010E+02	  0.111382768	1.565000E+00	  0.111382768	3.765300E+01
458	  0.111583166	-3.440000E-01	  0.111583166	1.056520E+02	  0.111583166	1.562000E+00	  0.111583166	3.789200E+01
459	  0.111783572	-3.530000E-01	  0.111783572	1.053160E+02	  0.111783572	1.609000E+00	  0.111783572	3.812200E+01
460	  0.111983970	-3.540000E-01	  0.111983970	1.049730E+02	  0.111983970	1.620000E+00	  0.111983970	3.835900E+01
461	  0.112184368	-3.490000E-01	  0.112184368	1.046490E+02	  0.112184368	1.605000E+00	  0.112184368	3.858400E+01
462	  0.112384774	-3.490000E-01	  0.112384774	1.042660E+02	  0.112384774	1.612000E+00	  0.112384774	3.885100E+01
463	  0.112585172	-3.430000E-01	  0.112585172	1.039610E+02	  0.112585172	1.592000E+00	  0.112585172	3.906600E+01
464	  0.112785570	-3.450000E-01	  0.112785570	1.035920E+02	  0.112785570	1.611000E+00	  0.112785570	3.932600E+01
465	  0.112985976	-3.490000E-01	  0.112985976	1.032510E+02	  0.112985976	1.634000E+00	  0.112985976	3.956600E+01
466	  0.113186374	-3.520000E-01	  0.113186374	1.029560E+02	  0.113186374	1.658000E+00	  0.113186374	3.977600E+01
467	  0.113386773	-3.440000E-01	  0.113386773	1.026110E+02	  0.113386773	1.626000E+00	  0.113386773	4.002300E+01
468	  0.113587178	-3.450000E-01	  0.113587178	1.022890E+02	  0.113587178	1.639000E+00	  0.113587178	4.025400E+01
469	  0.113787577	-3.460000E-01	  0.113787577	1.019600E+02	  0.113787577	1.650000E+00	  0.113787577	4.049100E+01
470	  0.113987975	-3.390000E-01	  0.113987975	1.016420E+02	  0.113987975	1.627000E+00	  0.113987975	4.072200E+01
471	  0.114188381	-3.520000E-01	  0.114188381	1.012930E+02	  0.114188381	1.696000E+00	  0.114188381	4.097300E+01
472	  0.114388779	-3.510000E-01	  0.114388779	1.009940E+02	  0.114388779	1.699000E+00	  0.114388779	4.119200E+01
473	  0.114589177	-3.460000E-01	  0.114589177	1.006570E+02	  0.114589177	1.682000E+00	  0.114589177	4.144000E+01
474	  0.114789583	-3.460000E-01	  0.114789583	1.003310E+02	  0.114789583	1.690000E+00	  0.114789583	4.168000E+01
475	  0.114989981	-3.460000E-01	  0.114989981	1.000350E+02	  0.114989981	1.700000E+00	  0.114989981	4.189900E+01
476	  0.115190387	-3.500000E-01	  0.115190387	9.973500E+01	  0.115190387	1.727000E+00	  0.115190387	4.212200E+01
477	  0.115390785	-3.510000E-01	  0.115390785	9.940900E+01	  0.115390785	1.736000E+00	  0.115390785	4.236600E+01
478	  0.115591183	-3.540000E-01	  0.115591183	9.906500E+01	  0.115591183	1.762000E+00	  0.115591183	4.262300E+01
479	  0.115791589	-3.520000E-01	  0.115791589	9.873500E+01	  0.115791589	1.762000E+00	  0.115791589	4.287300E+01
480	  0.115991987	-3.560000E-01	  0.115991987	9.839400E+01	  0.115991987	1.792000E+00	  0.115991987	4.313000E+01
481	  0.116192386	-3.550000E-01	  0.116192386	9.807700E+01	  0.116192386	1.791000E+00	  0.116192386	4.337300E+01
482	  0.116392791	-3.550000E-01	  0.116392791	9.771800E+01	  0.116392791	1.800000E+00	  0.116392791	4.364800E+01
483	  0.116593190	-3.600000E-01	  0.116593190	9.740200E+01	  0.116593190	1.838000E+00	  0.116593190	4.389000E+01
484	  0.116793588	-3.590000E-01	  0.116793588	9.708800E+01	  0.116793588	1.840000E+00	  0.116793588	4.413300E+01
485	  0.116993994	-3.610000E-01	  0.116993994	9.676900E+01	  0.116993994	1.860000E+00	  0.116993994	4.438100E+01
486	  0.117194392	-3.610000E-01	  0.117194392	9.638700E+01	  0.117194392	1.872000E+00	  0.117194392	4.468000E+01
487	  0.117394790	-3.620000E-01	  0.117394790	9.606500E+01	  0.117394790	1.887000E+00	  0.117394790	4.493300E+01
488	  0.117595196	-3.600000E-01	  0.117595196	9.573500E+01	  0.117595196	1.883000E+00	  0.117595196	4.519400E+01
489	  0.117795594	-3.570000E-01	  0.117795594	9.541000E+01	  0.117795594	1.878000E+00	  0.117795594	4.545300E+01
490	  0.117995992	-3.570000E-01	  0.117995992	9.508100E+01	  0.117995992	1.889000E+00	  0.117995992	4.571500E+01
491	  0.118196398	-3.570000E-01	  0.118196398	9.475100E+01	  0.118196398	1.897000E+00	  0.118196398	4.598000E+01
492	  0.118396796	-3.550000E-01	  0.118396796	9.442000E+01	  0.118396796	1.897000E+00	  0.118396796	4.624800E+01
493	  0.118597202	-3.560000E-01	  0.118597202	9.412200E+01	  0.118597202	1.915000E+00	  0.118597202	4.648900E+01
494	  0.118797600	-3.510000E-01	  0.118797600	9.380400E+01	  0.118797600	1.894000E+00	  0.118797600	4.674900E+01
495	  0.118997999	-3.540000E-01	  0.118997999	9.347700E+01	  0.118997999	1.920000E+00	  0.118997999	4.701600E+01
496	  0.119198404	-3.530000E-01	  0.119198404	9.317600E+01	  0.119198404	1.928000E+00	  0.119198404	4.726500E+01
497	  0.119398803	-3.540000E-01	  0.119398803	9.287000E+01	  0.119398803	1.940000E+00	  0.119398803	4.751800E+01
498	  0.119599201	-3.540000E-01	  0.119599201	9.253700E+01	  0.119599201	1.950000E+00	  0.119599201	4.779500E+01
499	  0.119799607	-3.510000E-01	  0.119799607	9.223700E+01	  0.119799607	1.947000E+00	  0.119799607	4.804600E+01
500	  0.120000005	-3.520000E-01	  0.120000005	9.191300E+01	  0.120000005	1.963000E+00	  0.120000005	4.831900E+01
