! Anritsu VNA Master:             	Model: MS2036C/10/77
! SN:             	1601066
! /bd0/18may26.balun/2a.47.txt
! Existing Calibration Information:
! TYPE:             	Current Settings	Active Cal Settings
! TIME:             	05/26/2018 07:37:59 PM	05/26/2018 07:26:54 PM
! INTERNAL TEMP:    	45.3 C	45.5 C
! # POINTS:         	500	500
! START FREQ:       	20.000 MHz	20.000 MHz
! STOP FREQ:        	120.000 MHz	120.000 MHz
! SOURCE POWER:     	High	High
! IFBW:             	50 Hz	50 Hz
! AVG FACTOR:       	  1 	  1 
! REF PLANE 1:      	0 mm	0 mm
! REF PLANE 2:      	0 mm	0 mm
! CAL TYPE:         	Full S11	Full S11
! CAL METHOD:       	SOLT	SOLT
! CAL LINE TYPE:    	Coax	Coax
! DUT PORT 1:       	K-Conn(M)	K-Conn(M)
! DUT PORT 2:       	K-Conn(M)	K-Conn(M)
! CAL STATUS:       	OK: Accuracy High	--
! PROP-V:       	0.700
! CABLE LOSS:       	0.000 dB/m
! REF IMPEDANCE:       	50.0
! Trace Specific Parameters:	TR1	TR2	TR3	TR4
! TRACE.#.Y (GRAPH TYPE)	LOG MAG	PHASE	REAL IMPEDANCE	IMAGINARY IMPEDANCE
! TRACE.#.X 	FREQ.GHZ	FREQ.GHZ	FREQ.GHZ	FREQ.GHZ
! S-PARAMETER	S11	S11	S11	S11
! SMOOTH/APERTURE %	0	0	0	0
! WINDOW	NSL	NSL	NSL	NSL
! GATING	OFF	OFF	OFF	OFF
! FGTD	OFF	OFF	OFF	OFF
Marker Information per Trace:	TR1	TR2	TR3	TR4
!MK1	--	--	--	--
!MK2	--	--	--	--
!MK3	--	--	--	--
!MK4	--	--	--	--
!MK5	--	--	--	--
!MK6	--	--	--	--
!MK7	--	--	--	--
!MK8	--	--	--	--
PNT	TR1.FREQ.GHZ	TR1.LOG MAG.dB	TR2.FREQ.GHZ	TR2.PHASE.deg	TR3.FREQ.GHZ	TR3.REAL IMPEDANCE.ohm	TR4.FREQ.GHZ	TR4.IMAGINARY IMPEDANCE.ohm
1	  0.020000000	-2.100000E-02	  0.020000000	-5.608000E+01	  0.020000000	2.830000E-01	  0.020000000	-9.387700E+01
2	  0.020200402	-1.700000E-02	  0.020200402	-5.664700E+01	  0.020200402	2.220000E-01	  0.020200402	-9.276600E+01
3	  0.020400802	-1.700000E-02	  0.020400802	-5.718900E+01	  0.020400802	2.160000E-01	  0.020400802	-9.172600E+01
4	  0.020601204	-1.500000E-02	  0.020601204	-5.773200E+01	  0.020601204	1.930000E-01	  0.020601204	-9.070000E+01
5	  0.020801604	-1.600000E-02	  0.020801604	-5.829200E+01	  0.020801604	2.000000E-01	  0.020801604	-8.966100E+01
6	  0.021002004	-1.500000E-02	  0.021002004	-5.885600E+01	  0.021002004	1.860000E-01	  0.021002004	-8.863300E+01
7	  0.021202406	-2.100000E-02	  0.021202406	-5.942200E+01	  0.021202406	2.480000E-01	  0.021202406	-8.761800E+01
8	  0.021402806	-2.200000E-02	  0.021402806	-5.996300E+01	  0.021402806	2.570000E-01	  0.021402806	-8.666600E+01
9	  0.021603208	-2.600000E-02	  0.021603208	-6.050600E+01	  0.021603208	3.000000E-01	  0.021603208	-8.572400E+01
10	  0.021803608	-2.800000E-02	  0.021803608	-6.103200E+01	  0.021803608	3.150000E-01	  0.021803608	-8.482700E+01
11	  0.022004008	-3.200000E-02	  0.022004008	-6.155200E+01	  0.022004008	3.520000E-01	  0.022004008	-8.395400E+01
12	  0.022204408	-3.400000E-02	  0.022204408	-6.211300E+01	  0.022204408	3.720000E-01	  0.022204408	-8.302500E+01
13	  0.022404809	-3.800000E-02	  0.022404809	-6.267800E+01	  0.022404809	4.090000E-01	  0.022404809	-8.210600E+01
14	  0.022605211	-3.600000E-02	  0.022605211	-6.323300E+01	  0.022605211	3.800000E-01	  0.022605211	-8.121900E+01
15	  0.022805611	-3.500000E-02	  0.022805611	-6.379600E+01	  0.022805611	3.640000E-01	  0.022805611	-8.033200E+01
16	  0.023006011	-2.600000E-02	  0.023006011	-6.434900E+01	  0.023006011	2.700000E-01	  0.023006011	-7.947500E+01
17	  0.023206413	-2.100000E-02	  0.023206413	-6.489900E+01	  0.023206413	2.170000E-01	  0.023206413	-7.863600E+01
18	  0.023406813	-1.400000E-02	  0.023406813	-6.546000E+01	  0.023406813	1.440000E-01	  0.023406813	-7.779200E+01
19	  0.023607215	-1.300000E-02	  0.023607215	-6.602000E+01	  0.023607215	1.300000E-01	  0.023607215	-7.696200E+01
20	  0.023807615	-1.300000E-02	  0.023807615	-6.652900E+01	  0.023807615	1.260000E-01	  0.023807615	-7.621900E+01
21	  0.024008015	-2.100000E-02	  0.024008015	-6.701500E+01	  0.024008015	2.000000E-01	  0.024008015	-7.551900E+01
22	  0.024208417	-2.600000E-02	  0.024208417	-6.750000E+01	  0.024208417	2.460000E-01	  0.024208417	-7.482900E+01
23	  0.024408817	-3.300000E-02	  0.024408817	-6.800100E+01	  0.024408817	3.070000E-01	  0.024408817	-7.412500E+01
24	  0.024609219	-3.700000E-02	  0.024609219	-6.851200E+01	  0.024609219	3.420000E-01	  0.024609219	-7.341600E+01
25	  0.024809619	-4.000000E-02	  0.024809619	-6.904700E+01	  0.024809619	3.620000E-01	  0.024809619	-7.268400E+01
26	  0.025010020	-4.200000E-02	  0.025010020	-6.961300E+01	  0.025010020	3.750000E-01	  0.025010020	-7.192100E+01
27	  0.025210422	-4.400000E-02	  0.025210422	-7.018200E+01	  0.025210422	3.850000E-01	  0.025210422	-7.116400E+01
28	  0.025410822	-4.500000E-02	  0.025410822	-7.074400E+01	  0.025410822	3.860000E-01	  0.025410822	-7.042700E+01
29	  0.025611224	-4.500000E-02	  0.025611224	-7.133300E+01	  0.025611224	3.830000E-01	  0.025611224	-6.966500E+01
30	  0.025811624	-4.500000E-02	  0.025811624	-7.188500E+01	  0.025811624	3.760000E-01	  0.025811624	-6.896300E+01
31	  0.026012026	-4.300000E-02	  0.026012026	-7.243500E+01	  0.026012026	3.560000E-01	  0.026012026	-6.827000E+01
32	  0.026212426	-3.900000E-02	  0.026212426	-7.297400E+01	  0.026212426	3.210000E-01	  0.026212426	-6.760100E+01
33	  0.026412826	-3.800000E-02	  0.026412826	-7.351600E+01	  0.026412826	3.110000E-01	  0.026412826	-6.693700E+01
34	  0.026613226	-4.000000E-02	  0.026613226	-7.400700E+01	  0.026613226	3.210000E-01	  0.026613226	-6.634100E+01
35	  0.026813626	-4.400000E-02	  0.026813626	-7.449100E+01	  0.026813626	3.470000E-01	  0.026813626	-6.576200E+01
36	  0.027014028	-4.900000E-02	  0.027014028	-7.496600E+01	  0.027014028	3.840000E-01	  0.027014028	-6.519900E+01
37	  0.027214428	-5.800000E-02	  0.027214428	-7.547300E+01	  0.027214428	4.500000E-01	  0.027214428	-6.460400E+01
38	  0.027414829	-6.700000E-02	  0.027414829	-7.602500E+01	  0.027414829	5.150000E-01	  0.027414829	-6.396500E+01
39	  0.027615231	-7.300000E-02	  0.027615231	-7.660600E+01	  0.027615231	5.530000E-01	  0.027615231	-6.330100E+01
40	  0.027815631	-7.500000E-02	  0.027815631	-7.719300E+01	  0.027815631	5.600000E-01	  0.027815631	-6.263800E+01
41	  0.028016033	-7.200000E-02	  0.028016033	-7.779700E+01	  0.028016033	5.260000E-01	  0.028016033	-6.196500E+01
42	  0.028216433	-6.200000E-02	  0.028216433	-7.840100E+01	  0.028216433	4.530000E-01	  0.028216433	-6.130200E+01
43	  0.028416833	-5.500000E-02	  0.028416833	-7.901300E+01	  0.028416833	3.910000E-01	  0.028416833	-6.063800E+01
44	  0.028617235	-4.500000E-02	  0.028617235	-7.957900E+01	  0.028617235	3.190000E-01	  0.028617235	-6.003300E+01
45	  0.028817635	-3.800000E-02	  0.028817635	-8.011600E+01	  0.028817635	2.660000E-01	  0.028817635	-5.946400E+01
46	  0.029018037	-2.900000E-02	  0.029018037	-8.057600E+01	  0.029018037	2.030000E-01	  0.029018037	-5.898200E+01
47	  0.029218437	-2.100000E-02	  0.029218437	-8.101400E+01	  0.029218437	1.490000E-01	  0.029218437	-5.852600E+01
48	  0.029418837	-1.800000E-02	  0.029418837	-8.144300E+01	  0.029418837	1.220000E-01	  0.029418837	-5.808500E+01
49	  0.029619239	-1.800000E-02	  0.029619239	-8.187300E+01	  0.029619239	1.230000E-01	  0.029619239	-5.764600E+01
50	  0.029819639	-2.200000E-02	  0.029819639	-8.231700E+01	  0.029819639	1.510000E-01	  0.029819639	-5.719700E+01
51	  0.030020041	-2.800000E-02	  0.030020041	-8.281800E+01	  0.030020041	1.880000E-01	  0.030020041	-5.669400E+01
52	  0.030220442	-3.900000E-02	  0.030220442	-8.332600E+01	  0.030220442	2.560000E-01	  0.030220442	-5.619000E+01
53	  0.030420844	-5.100000E-02	  0.030420844	-8.387400E+01	  0.030420844	3.300000E-01	  0.030420844	-5.565100E+01
54	  0.030621244	-5.800000E-02	  0.030621244	-8.444500E+01	  0.030621244	3.730000E-01	  0.030621244	-5.509700E+01
55	  0.030821644	-6.100000E-02	  0.030821644	-8.499900E+01	  0.030821644	3.870000E-01	  0.030821644	-5.456400E+01
56	  0.031022044	-6.200000E-02	  0.031022044	-8.555300E+01	  0.031022044	3.880000E-01	  0.031022044	-5.403700E+01
57	  0.031222444	-5.900000E-02	  0.031222444	-8.609600E+01	  0.031222444	3.670000E-01	  0.031222444	-5.352700E+01
58	  0.031422846	-6.000000E-02	  0.031422846	-8.662800E+01	  0.031422846	3.700000E-01	  0.031422846	-5.303000E+01
59	  0.031623244	-5.700000E-02	  0.031623244	-8.714100E+01	  0.031623244	3.510000E-01	  0.031623244	-5.255700E+01
60	  0.031823646	-5.700000E-02	  0.031823646	-8.763800E+01	  0.031823646	3.450000E-01	  0.031823646	-5.210300E+01
61	  0.032024048	-5.700000E-02	  0.032024048	-8.810900E+01	  0.032024048	3.400000E-01	  0.032024048	-5.167600E+01
62	  0.032224450	-6.200000E-02	  0.032224450	-8.854800E+01	  0.032224450	3.710000E-01	  0.032224450	-5.128100E+01
63	  0.032424849	-6.900000E-02	  0.032424849	-8.902200E+01	  0.032424849	4.080000E-01	  0.032424849	-5.085800E+01
64	  0.032625251	-8.200000E-02	  0.032625251	-8.952200E+01	  0.032625251	4.790000E-01	  0.032625251	-5.041600E+01
65	  0.032825653	-9.000000E-02	  0.032825653	-9.005000E+01	  0.032825653	5.200000E-01	  0.032825653	-4.995200E+01
66	  0.033026051	-9.900000E-02	  0.033026051	-9.060100E+01	  0.033026051	5.670000E-01	  0.033026051	-4.947400E+01
67	  0.033226453	-1.050000E-01	  0.033226453	-9.117700E+01	  0.033226453	5.950000E-01	  0.033226453	-4.897900E+01
68	  0.033426855	-1.090000E-01	  0.033426855	-9.177400E+01	  0.033426855	6.090000E-01	  0.033426855	-4.847100E+01
69	  0.033627257	-1.110000E-01	  0.033627257	-9.240000E+01	  0.033627257	6.170000E-01	  0.033627257	-4.794300E+01
70	  0.033827655	-1.100000E-01	  0.033827655	-9.299800E+01	  0.033827655	6.030000E-01	  0.033827655	-4.744500E+01
71	  0.034028057	-1.010000E-01	  0.034028057	-9.355500E+01	  0.034028057	5.500000E-01	  0.034028057	-4.698700E+01
72	  0.034228459	-8.800000E-02	  0.034228459	-9.411300E+01	  0.034228459	4.750000E-01	  0.034228459	-4.653100E+01
73	  0.034428857	-7.700000E-02	  0.034428857	-9.463200E+01	  0.034428857	4.120000E-01	  0.034428857	-4.611100E+01
74	  0.034629259	-6.500000E-02	  0.034629259	-9.510900E+01	  0.034629259	3.480000E-01	  0.034629259	-4.572700E+01
75	  0.034829661	-5.500000E-02	  0.034829661	-9.557100E+01	  0.034829661	2.900000E-01	  0.034829661	-4.535800E+01
76	  0.035030060	-5.300000E-02	  0.035030060	-9.604200E+01	  0.035030060	2.810000E-01	  0.035030060	-4.498500E+01
77	  0.035230462	-4.700000E-02	  0.035230462	-9.646500E+01	  0.035230462	2.460000E-01	  0.035230462	-4.465300E+01
78	  0.035430863	-4.900000E-02	  0.035430863	-9.689700E+01	  0.035430863	2.560000E-01	  0.035430863	-4.431500E+01
79	  0.035631265	-5.800000E-02	  0.035631265	-9.735000E+01	  0.035631265	2.970000E-01	  0.035631265	-4.396300E+01
80	  0.035831664	-6.600000E-02	  0.035831664	-9.785800E+01	  0.035831664	3.390000E-01	  0.035831664	-4.357100E+01
81	  0.036032066	-7.600000E-02	  0.036032066	-9.838600E+01	  0.036032066	3.820000E-01	  0.036032066	-4.316800E+01
82	  0.036232468	-8.100000E-02	  0.036232468	-9.895600E+01	  0.036232468	4.050000E-01	  0.036232468	-4.273500E+01
83	  0.036432866	-8.400000E-02	  0.036432866	-9.950300E+01	  0.036432866	4.190000E-01	  0.036432866	-4.232300E+01
84	  0.036633268	-8.500000E-02	  0.036633268	-1.000650E+02	  0.036633268	4.170000E-01	  0.036633268	-4.190400E+01
85	  0.036833670	-8.700000E-02	  0.036833670	-1.006110E+02	  0.036833670	4.250000E-01	  0.036833670	-4.150000E+01
86	  0.037034072	-7.700000E-02	  0.037034072	-1.011380E+02	  0.037034072	3.760000E-01	  0.037034072	-4.111400E+01
87	  0.037234470	-6.600000E-02	  0.037234470	-1.016010E+02	  0.037234470	3.200000E-01	  0.037234470	-4.077600E+01
88	  0.037434869	-6.100000E-02	  0.037434869	-1.020450E+02	  0.037434869	2.950000E-01	  0.037434869	-4.045500E+01
89	  0.037635271	-5.900000E-02	  0.037635271	-1.024760E+02	  0.037635271	2.830000E-01	  0.037635271	-4.014500E+01
90	  0.037835669	-6.300000E-02	  0.037835669	-1.029100E+02	  0.037835669	3.010000E-01	  0.037835669	-3.983400E+01
91	  0.038036071	-7.400000E-02	  0.038036071	-1.033800E+02	  0.038036071	3.480000E-01	  0.038036071	-3.950000E+01
92	  0.038236473	-8.100000E-02	  0.038236473	-1.038690E+02	  0.038236473	3.760000E-01	  0.038236473	-3.915400E+01
93	  0.038436871	-8.800000E-02	  0.038436871	-1.043670E+02	  0.038436871	4.060000E-01	  0.038436871	-3.880400E+01
94	  0.038637273	-9.900000E-02	  0.038637273	-1.048760E+02	  0.038637273	4.550000E-01	  0.038637273	-3.845000E+01
95	  0.038837675	-1.090000E-01	  0.038837675	-1.054180E+02	  0.038837675	4.980000E-01	  0.038837675	-3.807400E+01
96	  0.039038073	-1.170000E-01	  0.039038073	-1.059630E+02	  0.039038073	5.290000E-01	  0.039038073	-3.770000E+01
97	  0.039238475	-1.210000E-01	  0.039238475	-1.065220E+02	  0.039238475	5.460000E-01	  0.039238475	-3.731800E+01
98	  0.039438877	-1.210000E-01	  0.039438877	-1.070890E+02	  0.039438877	5.410000E-01	  0.039438877	-3.693400E+01
99	  0.039639279	-1.160000E-01	  0.039639279	-1.076290E+02	  0.039639279	5.140000E-01	  0.039639279	-3.657100E+01
100	  0.039839678	-1.070000E-01	  0.039839678	-1.081550E+02	  0.039839678	4.720000E-01	  0.039839678	-3.622100E+01
101	  0.040040080	-1.010000E-01	  0.040040080	-1.086540E+02	  0.040040080	4.440000E-01	  0.040040080	-3.589000E+01
102	  0.040240481	-9.600000E-02	  0.040240481	-1.091390E+02	  0.040240481	4.160000E-01	  0.040240481	-3.557100E+01
103	  0.040440880	-9.000000E-02	  0.040440880	-1.096050E+02	  0.040440880	3.900000E-01	  0.040440880	-3.526500E+01
104	  0.040641282	-8.700000E-02	  0.040641282	-1.100700E+02	  0.040641282	3.750000E-01	  0.040641282	-3.496300E+01
105	  0.040841684	-8.900000E-02	  0.040841684	-1.105470E+02	  0.040841684	3.820000E-01	  0.040841684	-3.465400E+01
106	  0.041042086	-9.100000E-02	  0.041042086	-1.110090E+02	  0.041042086	3.870000E-01	  0.041042086	-3.435600E+01
107	  0.041242484	-1.000000E-01	  0.041242484	-1.114810E+02	  0.041242484	4.250000E-01	  0.041242484	-3.405400E+01
108	  0.041442886	-1.140000E-01	  0.041442886	-1.119690E+02	  0.041442886	4.800000E-01	  0.041442886	-3.374200E+01
109	  0.041643288	-1.230000E-01	  0.041643288	-1.125080E+02	  0.041643288	5.150000E-01	  0.041643288	-3.340100E+01
110	  0.041843686	-1.270000E-01	  0.041843686	-1.130620E+02	  0.041843686	5.280000E-01	  0.041843686	-3.305200E+01
111	  0.042044088	-1.230000E-01	  0.042044088	-1.136090E+02	  0.042044088	5.080000E-01	  0.042044088	-3.271100E+01
112	  0.042244490	-1.180000E-01	  0.042244490	-1.141480E+02	  0.042244490	4.820000E-01	  0.042244490	-3.237600E+01
113	  0.042444889	-1.060000E-01	  0.042444889	-1.146520E+02	  0.042444889	4.320000E-01	  0.042444889	-3.206500E+01
114	  0.042645290	-9.200000E-02	  0.042645290	-1.151000E+02	  0.042645290	3.750000E-01	  0.042645290	-3.179000E+01
115	  0.042845692	-8.900000E-02	  0.042845692	-1.155280E+02	  0.042845692	3.580000E-01	  0.042845692	-3.152900E+01
116	  0.043046094	-9.000000E-02	  0.043046094	-1.159800E+02	  0.043046094	3.600000E-01	  0.043046094	-3.125400E+01
117	  0.043246493	-9.300000E-02	  0.043246493	-1.164260E+02	  0.043246493	3.730000E-01	  0.043246493	-3.098400E+01
118	  0.043446895	-1.000000E-01	  0.043446895	-1.168790E+02	  0.043446895	4.000000E-01	  0.043446895	-3.071100E+01
119	  0.043647297	-1.040000E-01	  0.043647297	-1.173460E+02	  0.043647297	4.110000E-01	  0.043647297	-3.043100E+01
120	  0.043847695	-1.110000E-01	  0.043847695	-1.178200E+02	  0.043847695	4.370000E-01	  0.043847695	-3.014800E+01
121	  0.044048097	-1.180000E-01	  0.044048097	-1.183030E+02	  0.044048097	4.620000E-01	  0.044048097	-2.986100E+01
122	  0.044248499	-1.270000E-01	  0.044248499	-1.188210E+02	  0.044248499	4.940000E-01	  0.044248499	-2.955500E+01
123	  0.044448901	-1.310000E-01	  0.044448901	-1.193370E+02	  0.044448901	5.070000E-01	  0.044448901	-2.925100E+01
124	  0.044649299	-1.320000E-01	  0.044649299	-1.198620E+02	  0.044649299	5.110000E-01	  0.044649299	-2.894500E+01
125	  0.044849701	-1.330000E-01	  0.044849701	-1.203710E+02	  0.044849701	5.090000E-01	  0.044849701	-2.864900E+01
126	  0.045050103	-1.290000E-01	  0.045050103	-1.208770E+02	  0.045050103	4.930000E-01	  0.045050103	-2.835700E+01
127	  0.045250501	-1.280000E-01	  0.045250501	-1.213670E+02	  0.045250501	4.870000E-01	  0.045250501	-2.807500E+01
128	  0.045450903	-1.280000E-01	  0.045450903	-1.218540E+02	  0.045450903	4.820000E-01	  0.045450903	-2.779600E+01
129	  0.045651305	-1.260000E-01	  0.045651305	-1.223580E+02	  0.045651305	4.730000E-01	  0.045651305	-2.750900E+01
130	  0.045851704	-1.220000E-01	  0.045851704	-1.228520E+02	  0.045851704	4.550000E-01	  0.045851704	-2.722900E+01
131	  0.046052106	-1.190000E-01	  0.046052106	-1.233350E+02	  0.046052106	4.430000E-01	  0.046052106	-2.695600E+01
132	  0.046252504	-1.190000E-01	  0.046252504	-1.237840E+02	  0.046252504	4.420000E-01	  0.046252504	-2.670400E+01
133	  0.046452906	-1.260000E-01	  0.046452906	-1.242220E+02	  0.046452906	4.650000E-01	  0.046452906	-2.645900E+01
134	  0.046653304	-1.380000E-01	  0.046653304	-1.246730E+02	  0.046653304	5.070000E-01	  0.046653304	-2.620700E+01
135	  0.046853706	-1.450000E-01	  0.046853706	-1.251660E+02	  0.046853706	5.310000E-01	  0.046853706	-2.593300E+01
136	  0.047054108	-1.520000E-01	  0.047054108	-1.257060E+02	  0.047054108	5.530000E-01	  0.047054108	-2.563500E+01
137	  0.047254506	-1.510000E-01	  0.047254506	-1.262170E+02	  0.047254506	5.480000E-01	  0.047254506	-2.535400E+01
138	  0.047454908	-1.460000E-01	  0.047454908	-1.267690E+02	  0.047454908	5.260000E-01	  0.047454908	-2.505200E+01
139	  0.047655310	-1.360000E-01	  0.047655310	-1.272430E+02	  0.047655310	4.910000E-01	  0.047655310	-2.479400E+01
140	  0.047855709	-1.310000E-01	  0.047855709	-1.276960E+02	  0.047855709	4.700000E-01	  0.047855709	-2.454800E+01
141	  0.048056111	-1.260000E-01	  0.048056111	-1.281740E+02	  0.048056111	4.500000E-01	  0.048056111	-2.429100E+01
142	  0.048256513	-1.270000E-01	  0.048256513	-1.286010E+02	  0.048256513	4.520000E-01	  0.048256513	-2.406100E+01
143	  0.048456915	-1.260000E-01	  0.048456915	-1.290570E+02	  0.048456915	4.470000E-01	  0.048456915	-2.381600E+01
144	  0.048657313	-1.300000E-01	  0.048657313	-1.294920E+02	  0.048657313	4.570000E-01	  0.048657313	-2.358400E+01
145	  0.048857715	-1.330000E-01	  0.048857715	-1.299220E+02	  0.048857715	4.670000E-01	  0.048857715	-2.335400E+01
146	  0.049058117	-1.410000E-01	  0.049058117	-1.303660E+02	  0.049058117	4.940000E-01	  0.049058117	-2.311900E+01
147	  0.049258515	-1.460000E-01	  0.049258515	-1.308340E+02	  0.049258515	5.080000E-01	  0.049258515	-2.287100E+01
148	  0.049458917	-1.520000E-01	  0.049458917	-1.313090E+02	  0.049458917	5.280000E-01	  0.049458917	-2.262100E+01
149	  0.049659319	-1.580000E-01	  0.049659319	-1.318040E+02	  0.049659319	5.460000E-01	  0.049659319	-2.236100E+01
150	  0.049859721	-1.560000E-01	  0.049859721	-1.322800E+02	  0.049859721	5.370000E-01	  0.049859721	-2.211200E+01
151	  0.050060119	-1.590000E-01	  0.050060119	-1.327670E+02	  0.050060119	5.470000E-01	  0.050060119	-2.185900E+01
152	  0.050260521	-1.590000E-01	  0.050260521	-1.332100E+02	  0.050260521	5.440000E-01	  0.050260521	-2.162900E+01
153	  0.050460923	-1.600000E-01	  0.050460923	-1.336850E+02	  0.050460923	5.480000E-01	  0.050460923	-2.138300E+01
154	  0.050661322	-1.620000E-01	  0.050661322	-1.341820E+02	  0.050661322	5.490000E-01	  0.050661322	-2.112700E+01
155	  0.050861724	-1.580000E-01	  0.050861724	-1.346770E+02	  0.050861724	5.350000E-01	  0.050861724	-2.087300E+01
156	  0.051062126	-1.570000E-01	  0.051062126	-1.351610E+02	  0.051062126	5.290000E-01	  0.051062126	-2.062600E+01
157	  0.051262524	-1.560000E-01	  0.051262524	-1.356150E+02	  0.051262524	5.250000E-01	  0.051262524	-2.039400E+01
158	  0.051462926	-1.530000E-01	  0.051462926	-1.360580E+02	  0.051462926	5.140000E-01	  0.051462926	-2.016900E+01
159	  0.051663328	-1.570000E-01	  0.051663328	-1.364850E+02	  0.051663328	5.240000E-01	  0.051663328	-1.995300E+01
160	  0.051863730	-1.650000E-01	  0.051863730	-1.369250E+02	  0.051863730	5.490000E-01	  0.051863730	-1.973100E+01
161	  0.052064128	-1.710000E-01	  0.052064128	-1.373880E+02	  0.052064128	5.690000E-01	  0.052064128	-1.949700E+01
162	  0.052264530	-1.790000E-01	  0.052264530	-1.378690E+02	  0.052264530	5.920000E-01	  0.052264530	-1.925600E+01
163	  0.052464932	-1.780000E-01	  0.052464932	-1.383750E+02	  0.052464932	5.870000E-01	  0.052464932	-1.900300E+01
164	  0.052665330	-1.780000E-01	  0.052665330	-1.388830E+02	  0.052665330	5.860000E-01	  0.052665330	-1.874900E+01
165	  0.052865732	-1.720000E-01	  0.052865732	-1.393470E+02	  0.052865732	5.640000E-01	  0.052865732	-1.851900E+01
166	  0.053066134	-1.660000E-01	  0.053066134	-1.398300E+02	  0.053066134	5.440000E-01	  0.053066134	-1.828000E+01
167	  0.053266536	-1.640000E-01	  0.053266536	-1.402640E+02	  0.053266536	5.330000E-01	  0.053266536	-1.806600E+01
168	  0.053466935	-1.630000E-01	  0.053466935	-1.407110E+02	  0.053466935	5.290000E-01	  0.053466935	-1.784600E+01
169	  0.053667337	-1.620000E-01	  0.053667337	-1.411570E+02	  0.053667337	5.260000E-01	  0.053667337	-1.762600E+01
170	  0.053867739	-1.600000E-01	  0.053867739	-1.416040E+02	  0.053867739	5.170000E-01	  0.053867739	-1.740700E+01
171	  0.054068137	-1.640000E-01	  0.054068137	-1.420180E+02	  0.054068137	5.280000E-01	  0.054068137	-1.720500E+01
172	  0.054268539	-1.700000E-01	  0.054268539	-1.424630E+02	  0.054268539	5.480000E-01	  0.054268539	-1.698800E+01
173	  0.054468941	-1.760000E-01	  0.054468941	-1.429060E+02	  0.054468941	5.640000E-01	  0.054468941	-1.677300E+01
174	  0.054669339	-1.790000E-01	  0.054669339	-1.433670E+02	  0.054669339	5.740000E-01	  0.054669339	-1.654900E+01
175	  0.054869737	-1.820000E-01	  0.054869737	-1.438260E+02	  0.054869737	5.800000E-01	  0.054869737	-1.632700E+01
176	  0.055070139	-1.820000E-01	  0.055070139	-1.443010E+02	  0.055070139	5.790000E-01	  0.055070139	-1.609800E+01
177	  0.055270538	-1.800000E-01	  0.055270538	-1.447340E+02	  0.055270538	5.700000E-01	  0.055270538	-1.589000E+01
178	  0.055470940	-1.820000E-01	  0.055470940	-1.451740E+02	  0.055470940	5.770000E-01	  0.055470940	-1.567900E+01
179	  0.055671342	-1.860000E-01	  0.055671342	-1.456490E+02	  0.055671342	5.870000E-01	  0.055671342	-1.545100E+01
180	  0.055871744	-1.860000E-01	  0.055871744	-1.461130E+02	  0.055871744	5.850000E-01	  0.055871744	-1.523000E+01
181	  0.056072142	-1.860000E-01	  0.056072142	-1.466080E+02	  0.056072142	5.840000E-01	  0.056072142	-1.499400E+01
182	  0.056272544	-1.870000E-01	  0.056272544	-1.470740E+02	  0.056272544	5.850000E-01	  0.056272544	-1.477300E+01
183	  0.056472946	-1.840000E-01	  0.056472946	-1.475210E+02	  0.056472946	5.740000E-01	  0.056472946	-1.456100E+01
184	  0.056673344	-1.820000E-01	  0.056673344	-1.479590E+02	  0.056673344	5.670000E-01	  0.056673344	-1.435400E+01
185	  0.056873746	-1.850000E-01	  0.056873746	-1.483950E+02	  0.056873746	5.760000E-01	  0.056873746	-1.414900E+01
186	  0.057074148	-1.860000E-01	  0.057074148	-1.488210E+02	  0.057074148	5.790000E-01	  0.057074148	-1.394800E+01
187	  0.057274550	-1.910000E-01	  0.057274550	-1.492600E+02	  0.057274550	5.940000E-01	  0.057274550	-1.374200E+01
188	  0.057474948	-1.950000E-01	  0.057474948	-1.497120E+02	  0.057474948	6.040000E-01	  0.057474948	-1.353000E+01
189	  0.057675350	-1.980000E-01	  0.057675350	-1.501670E+02	  0.057675350	6.120000E-01	  0.057675350	-1.331700E+01
190	  0.057875752	-1.980000E-01	  0.057875752	-1.506410E+02	  0.057875752	6.120000E-01	  0.057875752	-1.309500E+01
191	  0.058076151	-1.990000E-01	  0.058076151	-1.510990E+02	  0.058076151	6.110000E-01	  0.058076151	-1.288200E+01
192	  0.058276553	-1.940000E-01	  0.058276553	-1.515660E+02	  0.058276553	5.950000E-01	  0.058276553	-1.266500E+01
193	  0.058476955	-1.930000E-01	  0.058476955	-1.520180E+02	  0.058476955	5.920000E-01	  0.058476955	-1.245600E+01
194	  0.058677353	-1.910000E-01	  0.058677353	-1.524630E+02	  0.058677353	5.840000E-01	  0.058677353	-1.225000E+01
195	  0.058877755	-1.900000E-01	  0.058877755	-1.528920E+02	  0.058877755	5.790000E-01	  0.058877755	-1.205200E+01
196	  0.059078157	-1.890000E-01	  0.059078157	-1.533170E+02	  0.059078157	5.760000E-01	  0.059078157	-1.185500E+01
197	  0.059278559	-1.930000E-01	  0.059278559	-1.537480E+02	  0.059278559	5.860000E-01	  0.059278559	-1.165700E+01
198	  0.059478957	-1.980000E-01	  0.059478957	-1.541700E+02	  0.059478957	6.020000E-01	  0.059478957	-1.146300E+01
199	  0.059679359	-2.020000E-01	  0.059679359	-1.546110E+02	  0.059679359	6.120000E-01	  0.059679359	-1.126000E+01
200	  0.059879761	-2.040000E-01	  0.059879761	-1.550770E+02	  0.059879761	6.150000E-01	  0.059879761	-1.104700E+01
201	  0.060080159	-2.030000E-01	  0.060080159	-1.555070E+02	  0.060080159	6.130000E-01	  0.060080159	-1.085000E+01
202	  0.060280561	-2.030000E-01	  0.060280561	-1.559430E+02	  0.060280561	6.100000E-01	  0.060280561	-1.065200E+01
203	  0.060480963	-2.040000E-01	  0.060480963	-1.563730E+02	  0.060480963	6.130000E-01	  0.060480963	-1.045500E+01
204	  0.060681365	-2.090000E-01	  0.060681365	-1.568210E+02	  0.060681365	6.270000E-01	  0.060681365	-1.025200E+01
205	  0.060881764	-2.090000E-01	  0.060881764	-1.572520E+02	  0.060881764	6.270000E-01	  0.060881764	-1.005600E+01
206	  0.061082166	-2.120000E-01	  0.061082166	-1.577200E+02	  0.061082166	6.350000E-01	  0.061082166	-9.844000E+00
207	  0.061282568	-2.130000E-01	  0.061282568	-1.581760E+02	  0.061282568	6.360000E-01	  0.061282568	-9.637000E+00
208	  0.061482966	-2.110000E-01	  0.061482966	-1.586260E+02	  0.061482966	6.290000E-01	  0.061482966	-9.434000E+00
209	  0.061683368	-2.090000E-01	  0.061683368	-1.590740E+02	  0.061683368	6.240000E-01	  0.061683368	-9.231000E+00
210	  0.061883770	-2.100000E-01	  0.061883770	-1.595040E+02	  0.061883770	6.260000E-01	  0.061883770	-9.038000E+00
211	  0.062084168	-2.110000E-01	  0.062084168	-1.599530E+02	  0.062084168	6.280000E-01	  0.062084168	-8.836000E+00
212	  0.062284570	-2.120000E-01	  0.062284570	-1.603730E+02	  0.062284570	6.300000E-01	  0.062284570	-8.647000E+00
213	  0.062484972	-2.120000E-01	  0.062484972	-1.607700E+02	  0.062484972	6.290000E-01	  0.062484972	-8.468000E+00
214	  0.062685370	-2.140000E-01	  0.062685370	-1.612060E+02	  0.062685370	6.330000E-01	  0.062685370	-8.273000E+00
215	  0.062885776	-2.160000E-01	  0.062885776	-1.616160E+02	  0.062885776	6.390000E-01	  0.062885776	-8.089000E+00
216	  0.063086174	-2.210000E-01	  0.063086174	-1.620800E+02	  0.063086174	6.520000E-01	  0.063086174	-7.881000E+00
217	  0.063286573	-2.180000E-01	  0.063286573	-1.625510E+02	  0.063286573	6.440000E-01	  0.063286573	-7.671000E+00
218	  0.063486971	-2.170000E-01	  0.063486971	-1.629880E+02	  0.063486971	6.390000E-01	  0.063486971	-7.476000E+00
219	  0.063687377	-2.170000E-01	  0.063687377	-1.634250E+02	  0.063687377	6.400000E-01	  0.063687377	-7.281000E+00
220	  0.063887775	-2.150000E-01	  0.063887775	-1.638600E+02	  0.063887775	6.310000E-01	  0.063887775	-7.088000E+00
221	  0.064088173	-2.140000E-01	  0.064088173	-1.642900E+02	  0.064088173	6.280000E-01	  0.064088173	-6.896000E+00
222	  0.064288579	-2.170000E-01	  0.064288579	-1.647150E+02	  0.064288579	6.360000E-01	  0.064288579	-6.708000E+00
223	  0.064488977	-2.170000E-01	  0.064488977	-1.651480E+02	  0.064488977	6.350000E-01	  0.064488977	-6.515000E+00
224	  0.064689375	-2.190000E-01	  0.064689375	-1.655690E+02	  0.064689375	6.430000E-01	  0.064689375	-6.329000E+00
225	  0.064889781	-2.220000E-01	  0.064889781	-1.659960E+02	  0.064889781	6.490000E-01	  0.064889781	-6.139000E+00
226	  0.065090179	-2.230000E-01	  0.065090179	-1.664370E+02	  0.065090179	6.530000E-01	  0.065090179	-5.944000E+00
227	  0.065290578	-2.230000E-01	  0.065290578	-1.668420E+02	  0.065290578	6.500000E-01	  0.065290578	-5.765000E+00
228	  0.065490983	-2.240000E-01	  0.065490983	-1.672820E+02	  0.065490983	6.540000E-01	  0.065490983	-5.570000E+00
229	  0.065691382	-2.250000E-01	  0.065691382	-1.677030E+02	  0.065691382	6.570000E-01	  0.065691382	-5.384000E+00
230	  0.065891780	-2.280000E-01	  0.065891780	-1.681170E+02	  0.065891780	6.640000E-01	  0.065891780	-5.202000E+00
231	  0.066092186	-2.290000E-01	  0.066092186	-1.685440E+02	  0.066092186	6.660000E-01	  0.066092186	-5.014000E+00
232	  0.066292584	-2.300000E-01	  0.066292584	-1.689890E+02	  0.066292584	6.680000E-01	  0.066292584	-4.818000E+00
233	  0.066492982	-2.320000E-01	  0.066492982	-1.694200E+02	  0.066492982	6.740000E-01	  0.066492982	-4.628000E+00
234	  0.066693388	-2.320000E-01	  0.066693388	-1.698450E+02	  0.066693388	6.750000E-01	  0.066693388	-4.441000E+00
235	  0.066893786	-2.330000E-01	  0.066893786	-1.702940E+02	  0.066893786	6.760000E-01	  0.066893786	-4.244000E+00
236	  0.067094192	-2.320000E-01	  0.067094192	-1.707370E+02	  0.067094192	6.740000E-01	  0.067094192	-4.049000E+00
237	  0.067294590	-2.360000E-01	  0.067294590	-1.711570E+02	  0.067294590	6.850000E-01	  0.067294590	-3.865000E+00
238	  0.067494988	-2.350000E-01	  0.067494988	-1.715530E+02	  0.067494988	6.800000E-01	  0.067494988	-3.691000E+00
239	  0.067695394	-2.320000E-01	  0.067695394	-1.719690E+02	  0.067695394	6.730000E-01	  0.067695394	-3.509000E+00
240	  0.067895792	-2.320000E-01	  0.067895792	-1.723690E+02	  0.067895792	6.710000E-01	  0.067895792	-3.333000E+00
241	  0.068096191	-2.360000E-01	  0.068096191	-1.727840E+02	  0.068096191	6.820000E-01	  0.068096191	-3.151000E+00
242	  0.068296596	-2.390000E-01	  0.068296596	-1.732060E+02	  0.068296596	6.910000E-01	  0.068296596	-2.966000E+00
243	  0.068496995	-2.390000E-01	  0.068496995	-1.736220E+02	  0.068496995	6.920000E-01	  0.068496995	-2.784000E+00
244	  0.068697393	-2.390000E-01	  0.068697393	-1.740600E+02	  0.068697393	6.890000E-01	  0.068697393	-2.593000E+00
245	  0.068897791	-2.380000E-01	  0.068897791	-1.744540E+02	  0.068897791	6.890000E-01	  0.068897791	-2.421000E+00
246	  0.069098189	-2.360000E-01	  0.069098189	-1.748250E+02	  0.069098189	6.810000E-01	  0.069098189	-2.259000E+00
247	  0.069298595	-2.360000E-01	  0.069298595	-1.752510E+02	  0.069298595	6.800000E-01	  0.069298595	-2.072000E+00
248	  0.069498993	-2.410000E-01	  0.069498993	-1.756610E+02	  0.069498993	6.950000E-01	  0.069498993	-1.893000E+00
249	  0.069699399	-2.440000E-01	  0.069699399	-1.760770E+02	  0.069699399	7.050000E-01	  0.069699399	-1.711000E+00
250	  0.069899797	-2.450000E-01	  0.069899797	-1.764970E+02	  0.069899797	7.060000E-01	  0.069899797	-1.528000E+00
251	  0.070100196	-2.460000E-01	  0.070100196	-1.768880E+02	  0.070100196	7.090000E-01	  0.070100196	-1.357000E+00
252	  0.070300601	-2.480000E-01	  0.070300601	-1.773200E+02	  0.070300601	7.150000E-01	  0.070300601	-1.169000E+00
253	  0.070501000	-2.480000E-01	  0.070501000	-1.777060E+02	  0.070501000	7.150000E-01	  0.070501000	-1.000000E+00
254	  0.070701398	-2.520000E-01	  0.070701398	-1.780950E+02	  0.070701398	7.260000E-01	  0.070701398	-8.310000E-01
255	  0.070901804	-2.520000E-01	  0.070901804	-1.785120E+02	  0.070901804	7.270000E-01	  0.070901804	-6.480000E-01
256	  0.071102202	-2.500000E-01	  0.071102202	-1.789210E+02	  0.071102202	7.220000E-01	  0.071102202	-4.700000E-01
257	  0.071302600	-2.540000E-01	  0.071302600	-1.793420E+02	  0.071302600	7.330000E-01	  0.071302600	-2.860000E-01
258	  0.071503006	-2.530000E-01	  0.071503006	-1.797600E+02	  0.071503006	7.290000E-01	  0.071503006	-1.040000E-01
259	  0.071703404	-2.540000E-01	  0.071703404	1.798140E+02	  0.071703404	7.320000E-01	  0.071703404	8.000000E-02
260	  0.071903802	-2.570000E-01	  0.071903802	1.793920E+02	  0.071903802	7.410000E-01	  0.071903802	2.650000E-01
261	  0.072104208	-2.580000E-01	  0.072104208	1.789700E+02	  0.072104208	7.440000E-01	  0.072104208	4.490000E-01
262	  0.072304606	-2.610000E-01	  0.072304606	1.785510E+02	  0.072304606	7.510000E-01	  0.072304606	6.310000E-01
263	  0.072505005	-2.600000E-01	  0.072505005	1.781550E+02	  0.072505005	7.480000E-01	  0.072505005	8.040000E-01
264	  0.072705410	-2.590000E-01	  0.072705410	1.777390E+02	  0.072705410	7.470000E-01	  0.072705410	9.860000E-01
265	  0.072905809	-2.600000E-01	  0.072905809	1.773300E+02	  0.072905809	7.500000E-01	  0.072905809	1.164000E+00
266	  0.073106214	-2.600000E-01	  0.073106214	1.769390E+02	  0.073106214	7.490000E-01	  0.073106214	1.335000E+00
267	  0.073306613	-2.610000E-01	  0.073306613	1.765200E+02	  0.073306613	7.540000E-01	  0.073306613	1.518000E+00
268	  0.073507011	-2.630000E-01	  0.073507011	1.761120E+02	  0.073507011	7.600000E-01	  0.073507011	1.696000E+00
269	  0.073707417	-2.620000E-01	  0.073707417	1.757030E+02	  0.073707417	7.560000E-01	  0.073707417	1.875000E+00
270	  0.073907815	-2.610000E-01	  0.073907815	1.753100E+02	  0.073907815	7.550000E-01	  0.073907815	2.046000E+00
271	  0.074108213	-2.600000E-01	  0.074108213	1.749210E+02	  0.074108213	7.500000E-01	  0.074108213	2.216000E+00
272	  0.074308619	-2.590000E-01	  0.074308619	1.745360E+02	  0.074308619	7.480000E-01	  0.074308619	2.385000E+00
273	  0.074509017	-2.610000E-01	  0.074509017	1.741360E+02	  0.074509017	7.530000E-01	  0.074509017	2.560000E+00
274	  0.074709415	-2.610000E-01	  0.074709415	1.737260E+02	  0.074709415	7.550000E-01	  0.074709415	2.739000E+00
275	  0.074909821	-2.660000E-01	  0.074909821	1.733380E+02	  0.074909821	7.680000E-01	  0.074909821	2.909000E+00
276	  0.075110219	-2.670000E-01	  0.075110219	1.729340E+02	  0.075110219	7.720000E-01	  0.075110219	3.086000E+00
277	  0.075310618	-2.680000E-01	  0.075310618	1.725400E+02	  0.075310618	7.770000E-01	  0.075310618	3.258000E+00
278	  0.075511023	-2.700000E-01	  0.075511023	1.721540E+02	  0.075511023	7.810000E-01	  0.075511023	3.427000E+00
279	  0.075711422	-2.700000E-01	  0.075711422	1.717630E+02	  0.075711422	7.830000E-01	  0.075711422	3.599000E+00
280	  0.075911827	-2.710000E-01	  0.075911827	1.713870E+02	  0.075911827	7.860000E-01	  0.075911827	3.764000E+00
281	  0.076112226	-2.720000E-01	  0.076112226	1.709740E+02	  0.076112226	7.890000E-01	  0.076112226	3.945000E+00
282	  0.076312624	-2.710000E-01	  0.076312624	1.705740E+02	  0.076312624	7.870000E-01	  0.076312624	4.121000E+00
283	  0.076513030	-2.710000E-01	  0.076513030	1.701880E+02	  0.076513030	7.860000E-01	  0.076513030	4.290000E+00
284	  0.076713428	-2.710000E-01	  0.076713428	1.697900E+02	  0.076713428	7.870000E-01	  0.076713428	4.465000E+00
285	  0.076913826	-2.740000E-01	  0.076913826	1.693890E+02	  0.076913826	7.970000E-01	  0.076913826	4.641000E+00
286	  0.077114232	-2.740000E-01	  0.077114232	1.690080E+02	  0.077114232	7.980000E-01	  0.077114232	4.809000E+00
287	  0.077314630	-2.740000E-01	  0.077314630	1.686050E+02	  0.077314630	7.980000E-01	  0.077314630	4.987000E+00
288	  0.077515028	-2.740000E-01	  0.077515028	1.682010E+02	  0.077515028	7.990000E-01	  0.077515028	5.164000E+00
289	  0.077715434	-2.770000E-01	  0.077715434	1.678130E+02	  0.077715434	8.090000E-01	  0.077715434	5.335000E+00
290	  0.077915832	-2.780000E-01	  0.077915832	1.674660E+02	  0.077915832	8.110000E-01	  0.077915832	5.489000E+00
291	  0.078116231	-2.780000E-01	  0.078116231	1.670730E+02	  0.078116231	8.110000E-01	  0.078116231	5.662000E+00
292	  0.078316636	-2.800000E-01	  0.078316636	1.666970E+02	  0.078316636	8.160000E-01	  0.078316636	5.828000E+00
293	  0.078517035	-2.810000E-01	  0.078517035	1.662780E+02	  0.078517035	8.230000E-01	  0.078517035	6.014000E+00
294	  0.078717433	-2.820000E-01	  0.078717433	1.658780E+02	  0.078717433	8.260000E-01	  0.078717433	6.191000E+00
295	  0.078917839	-2.790000E-01	  0.078917839	1.655050E+02	  0.078917839	8.170000E-01	  0.078917839	6.356000E+00
296	  0.079118237	-2.800000E-01	  0.079118237	1.651190E+02	  0.079118237	8.200000E-01	  0.079118237	6.527000E+00
297	  0.079318643	-2.760000E-01	  0.079318643	1.647400E+02	  0.079318643	8.100000E-01	  0.079318643	6.696000E+00
298	  0.079519041	-2.780000E-01	  0.079519041	1.643700E+02	  0.079519041	8.150000E-01	  0.079519041	6.860000E+00
299	  0.079719439	-2.790000E-01	  0.079719439	1.639700E+02	  0.079719439	8.200000E-01	  0.079719439	7.038000E+00
300	  0.079919845	-2.830000E-01	  0.079919845	1.635800E+02	  0.079919845	8.310000E-01	  0.079919845	7.211000E+00
301	  0.080120243	-2.860000E-01	  0.080120243	1.631890E+02	  0.080120243	8.410000E-01	  0.080120243	7.386000E+00
302	  0.080320641	-2.880000E-01	  0.080320641	1.628030E+02	  0.080320641	8.480000E-01	  0.080320641	7.558000E+00
303	  0.080521047	-2.890000E-01	  0.080521047	1.624130E+02	  0.080521047	8.520000E-01	  0.080521047	7.732000E+00
304	  0.080721445	-2.920000E-01	  0.080721445	1.620290E+02	  0.080721445	8.640000E-01	  0.080721445	7.903000E+00
305	  0.080921844	-2.920000E-01	  0.080921844	1.616410E+02	  0.080921844	8.640000E-01	  0.080921844	8.077000E+00
306	  0.081122249	-2.920000E-01	  0.081122249	1.612490E+02	  0.081122249	8.650000E-01	  0.081122249	8.252000E+00
307	  0.081322648	-2.930000E-01	  0.081322648	1.608510E+02	  0.081322648	8.690000E-01	  0.081322648	8.431000E+00
308	  0.081523046	-2.940000E-01	  0.081523046	1.604500E+02	  0.081523046	8.730000E-01	  0.081523046	8.611000E+00
309	  0.081723452	-2.920000E-01	  0.081723452	1.600640E+02	  0.081723452	8.670000E-01	  0.081723452	8.784000E+00
310	  0.081923850	-2.920000E-01	  0.081923850	1.596680E+02	  0.081923850	8.680000E-01	  0.081923850	8.962000E+00
311	  0.082124248	-2.930000E-01	  0.082124248	1.592920E+02	  0.082124248	8.740000E-01	  0.082124248	9.132000E+00
312	  0.082324654	-2.910000E-01	  0.082324654	1.589000E+02	  0.082324654	8.670000E-01	  0.082324654	9.308000E+00
313	  0.082525052	-2.890000E-01	  0.082525052	1.585120E+02	  0.082525052	8.620000E-01	  0.082525052	9.484000E+00
314	  0.082725458	-2.890000E-01	  0.082725458	1.581310E+02	  0.082725458	8.650000E-01	  0.082725458	9.656000E+00
315	  0.082925856	-2.900000E-01	  0.082925856	1.577930E+02	  0.082925856	8.670000E-01	  0.082925856	9.809000E+00
316	  0.083126254	-2.910000E-01	  0.083126254	1.574090E+02	  0.083126254	8.730000E-01	  0.083126254	9.983000E+00
317	  0.083326660	-2.940000E-01	  0.083326660	1.570570E+02	  0.083326660	8.800000E-01	  0.083326660	1.014300E+01
318	  0.083527058	-2.930000E-01	  0.083527058	1.566680E+02	  0.083527058	8.810000E-01	  0.083527058	1.032000E+01
319	  0.083727457	-2.970000E-01	  0.083727457	1.562820E+02	  0.083727457	8.930000E-01	  0.083727457	1.049500E+01
320	  0.083927862	-2.950000E-01	  0.083927862	1.558850E+02	  0.083927862	8.880000E-01	  0.083927862	1.067600E+01
321	  0.084128261	-2.950000E-01	  0.084128261	1.555090E+02	  0.084128261	8.890000E-01	  0.084128261	1.084800E+01
322	  0.084328659	-2.940000E-01	  0.084328659	1.551340E+02	  0.084328659	8.880000E-01	  0.084328659	1.101900E+01
323	  0.084529065	-2.940000E-01	  0.084529065	1.547840E+02	  0.084529065	8.890000E-01	  0.084529065	1.118000E+01
324	  0.084729463	-2.950000E-01	  0.084729463	1.544130E+02	  0.084729463	8.930000E-01	  0.084729463	1.134900E+01
325	  0.084929861	-2.980000E-01	  0.084929861	1.540240E+02	  0.084929861	9.050000E-01	  0.084929861	1.152800E+01
326	  0.085130267	-2.980000E-01	  0.085130267	1.536500E+02	  0.085130267	9.040000E-01	  0.085130267	1.170000E+01
327	  0.085330658	-3.010000E-01	  0.085330658	1.532610E+02	  0.085330658	9.160000E-01	  0.085330658	1.187900E+01
328	  0.085531056	-3.030000E-01	  0.085531056	1.528830E+02	  0.085531056	9.250000E-01	  0.085531056	1.205400E+01
329	  0.085731462	-3.060000E-01	  0.085731462	1.525040E+02	  0.085731462	9.330000E-01	  0.085731462	1.222800E+01
330	  0.085931860	-3.110000E-01	  0.085931860	1.521160E+02	  0.085931860	9.510000E-01	  0.085931860	1.240800E+01
331	  0.086132258	-3.110000E-01	  0.086132258	1.517460E+02	  0.086132258	9.530000E-01	  0.086132258	1.257900E+01
332	  0.086332664	-3.110000E-01	  0.086332664	1.513430E+02	  0.086332664	9.550000E-01	  0.086332664	1.276600E+01
333	  0.086533062	-3.110000E-01	  0.086533062	1.509530E+02	  0.086533062	9.560000E-01	  0.086533062	1.294800E+01
334	  0.086733460	-3.090000E-01	  0.086733460	1.505520E+02	  0.086733460	9.510000E-01	  0.086733460	1.313400E+01
335	  0.086933866	-3.100000E-01	  0.086933866	1.501810E+02	  0.086933866	9.550000E-01	  0.086933866	1.330700E+01
336	  0.087134264	-3.090000E-01	  0.087134264	1.497830E+02	  0.087134264	9.540000E-01	  0.087134264	1.349400E+01
337	  0.087334670	-3.090000E-01	  0.087334670	1.493980E+02	  0.087334670	9.580000E-01	  0.087334670	1.367400E+01
338	  0.087535068	-3.090000E-01	  0.087535068	1.490200E+02	  0.087535068	9.570000E-01	  0.087535068	1.385100E+01
339	  0.087735467	-3.050000E-01	  0.087735467	1.486390E+02	  0.087735467	9.490000E-01	  0.087735467	1.403100E+01
340	  0.087935872	-3.050000E-01	  0.087935872	1.482740E+02	  0.087935872	9.500000E-01	  0.087935872	1.420200E+01
341	  0.088136271	-3.020000E-01	  0.088136271	1.479170E+02	  0.088136271	9.410000E-01	  0.088136271	1.437100E+01
342	  0.088336669	-3.050000E-01	  0.088336669	1.475880E+02	  0.088336669	9.540000E-01	  0.088336669	1.452600E+01
343	  0.088537075	-3.040000E-01	  0.088537075	1.472100E+02	  0.088537075	9.510000E-01	  0.088537075	1.470500E+01
344	  0.088737473	-3.050000E-01	  0.088737473	1.468490E+02	  0.088737473	9.580000E-01	  0.088737473	1.487700E+01
345	  0.088937871	-3.100000E-01	  0.088937871	1.464610E+02	  0.088937871	9.730000E-01	  0.088937871	1.506100E+01
346	  0.089138277	-3.100000E-01	  0.089138277	1.460910E+02	  0.089138277	9.770000E-01	  0.089138277	1.523700E+01
347	  0.089338675	-3.090000E-01	  0.089338675	1.457210E+02	  0.089338675	9.760000E-01	  0.089338675	1.541400E+01
348	  0.089539073	-3.090000E-01	  0.089539073	1.453530E+02	  0.089539073	9.770000E-01	  0.089539073	1.559000E+01
349	  0.089739479	-3.110000E-01	  0.089739479	1.450220E+02	  0.089739479	9.840000E-01	  0.089739479	1.574800E+01
350	  0.089939877	-3.090000E-01	  0.089939877	1.446330E+02	  0.089939877	9.810000E-01	  0.089939877	1.593500E+01
351	  0.090140276	-3.120000E-01	  0.090140276	1.442640E+02	  0.090140276	9.940000E-01	  0.090140276	1.611200E+01
352	  0.090340681	-3.110000E-01	  0.090340681	1.438910E+02	  0.090340681	9.910000E-01	  0.090340681	1.629200E+01
353	  0.090541080	-3.120000E-01	  0.090541080	1.435220E+02	  0.090541080	9.970000E-01	  0.090541080	1.647000E+01
354	  0.090741485	-3.170000E-01	  0.090741485	1.431690E+02	  0.090741485	1.014000E+00	  0.090741485	1.664100E+01
355	  0.090941884	-3.200000E-01	  0.090941884	1.427950E+02	  0.090941884	1.025000E+00	  0.090941884	1.682200E+01
356	  0.091142282	-3.270000E-01	  0.091142282	1.424370E+02	  0.091142282	1.052000E+00	  0.091142282	1.699600E+01
357	  0.091342688	-3.260000E-01	  0.091342688	1.420590E+02	  0.091342688	1.052000E+00	  0.091342688	1.718000E+01
358	  0.091543086	-3.270000E-01	  0.091543086	1.416700E+02	  0.091543086	1.057000E+00	  0.091543086	1.737000E+01
359	  0.091743484	-3.280000E-01	  0.091743484	1.412690E+02	  0.091743484	1.061000E+00	  0.091743484	1.756600E+01
360	  0.091943890	-3.250000E-01	  0.091943890	1.409080E+02	  0.091943890	1.054000E+00	  0.091943890	1.774300E+01
361	  0.092144288	-3.280000E-01	  0.092144288	1.405140E+02	  0.092144288	1.068000E+00	  0.092144288	1.793700E+01
362	  0.092344686	-3.280000E-01	  0.092344686	1.401600E+02	  0.092344686	1.069000E+00	  0.092344686	1.811200E+01
363	  0.092545092	-3.270000E-01	  0.092545092	1.397430E+02	  0.092545092	1.069000E+00	  0.092545092	1.831700E+01
364	  0.092745490	-3.270000E-01	  0.092745490	1.393790E+02	  0.092745490	1.071000E+00	  0.092745490	1.849800E+01
365	  0.092945889	-3.260000E-01	  0.092945889	1.390090E+02	  0.092945889	1.070000E+00	  0.092945889	1.868200E+01
366	  0.093146294	-3.210000E-01	  0.093146294	1.386340E+02	  0.093146294	1.055000E+00	  0.093146294	1.886900E+01
367	  0.093346693	-3.240000E-01	  0.093346693	1.383040E+02	  0.093346693	1.069000E+00	  0.093346693	1.903300E+01
368	  0.093547091	-3.200000E-01	  0.093547091	1.379540E+02	  0.093547091	1.057000E+00	  0.093547091	1.920800E+01
369	  0.093747497	-3.230000E-01	  0.093747497	1.376150E+02	  0.093747497	1.070000E+00	  0.093747497	1.937800E+01
370	  0.093947895	-3.220000E-01	  0.093947895	1.372520E+02	  0.093947895	1.069000E+00	  0.093947895	1.956000E+01
371	  0.094148301	-3.230000E-01	  0.094148301	1.368870E+02	  0.094148301	1.077000E+00	  0.094148301	1.974400E+01
372	  0.094348699	-3.220000E-01	  0.094348699	1.365160E+02	  0.094348699	1.076000E+00	  0.094348699	1.993100E+01
373	  0.094549097	-3.250000E-01	  0.094549097	1.361780E+02	  0.094549097	1.087000E+00	  0.094549097	2.010200E+01
374	  0.094749503	-3.250000E-01	  0.094749503	1.358290E+02	  0.094749503	1.090000E+00	  0.094749503	2.027900E+01
375	  0.094949901	-3.250000E-01	  0.094949901	1.354900E+02	  0.094949901	1.095000E+00	  0.094949901	2.045100E+01
376	  0.095150299	-3.260000E-01	  0.095150299	1.351130E+02	  0.095150299	1.101000E+00	  0.095150299	2.064400E+01
377	  0.095350705	-3.240000E-01	  0.095350705	1.347610E+02	  0.095350705	1.095000E+00	  0.095350705	2.082400E+01
378	  0.095551103	-3.240000E-01	  0.095551103	1.344170E+02	  0.095551103	1.098000E+00	  0.095551103	2.100000E+01
379	  0.095751502	-3.230000E-01	  0.095751502	1.340660E+02	  0.095751502	1.098000E+00	  0.095751502	2.118000E+01
380	  0.095951907	-3.270000E-01	  0.095951907	1.337160E+02	  0.095951907	1.113000E+00	  0.095951907	2.136000E+01
381	  0.096152306	-3.300000E-01	  0.096152306	1.333870E+02	  0.096152306	1.126000E+00	  0.096152306	2.153000E+01
382	  0.096352704	-3.320000E-01	  0.096352704	1.330180E+02	  0.096352704	1.136000E+00	  0.096352704	2.172100E+01
383	  0.096553110	-3.330000E-01	  0.096553110	1.326590E+02	  0.096553110	1.144000E+00	  0.096553110	2.190700E+01
384	  0.096753508	-3.360000E-01	  0.096753508	1.322870E+02	  0.096753508	1.156000E+00	  0.096753508	2.210100E+01
385	  0.096953906	-3.330000E-01	  0.096953906	1.319280E+02	  0.096953906	1.151000E+00	  0.096953906	2.228800E+01
386	  0.097154312	-3.360000E-01	  0.097154312	1.315670E+02	  0.097154312	1.163000E+00	  0.097154312	2.247800E+01
387	  0.097354710	-3.360000E-01	  0.097354710	1.312090E+02	  0.097354710	1.168000E+00	  0.097354710	2.266500E+01
388	  0.097555116	-3.380000E-01	  0.097555116	1.308330E+02	  0.097555116	1.177000E+00	  0.097555116	2.286300E+01
389	  0.097755514	-3.400000E-01	  0.097755514	1.304830E+02	  0.097755514	1.186000E+00	  0.097755514	2.304800E+01
390	  0.097955912	-3.350000E-01	  0.097955912	1.301100E+02	  0.097955912	1.175000E+00	  0.097955912	2.324600E+01
391	  0.098156318	-3.340000E-01	  0.098156318	1.297530E+02	  0.098156318	1.174000E+00	  0.098156318	2.343600E+01
392	  0.098356716	-3.340000E-01	  0.098356716	1.294050E+02	  0.098356716	1.176000E+00	  0.098356716	2.362100E+01
393	  0.098557115	-3.340000E-01	  0.098557115	1.290590E+02	  0.098557115	1.182000E+00	  0.098557115	2.380500E+01
394	  0.098757520	-3.320000E-01	  0.098757520	1.287120E+02	  0.098757520	1.178000E+00	  0.098757520	2.399100E+01
395	  0.098957919	-3.340000E-01	  0.098957919	1.283720E+02	  0.098957919	1.187000E+00	  0.098957919	2.417400E+01
396	  0.099158317	-3.320000E-01	  0.099158317	1.280150E+02	  0.099158317	1.185000E+00	  0.099158317	2.436700E+01
397	  0.099358723	-3.310000E-01	  0.099358723	1.276670E+02	  0.099358723	1.185000E+00	  0.099358723	2.455500E+01
398	  0.099559121	-3.320000E-01	  0.099559121	1.273350E+02	  0.099559121	1.190000E+00	  0.099559121	2.473500E+01
399	  0.099759519	-3.330000E-01	  0.099759519	1.269880E+02	  0.099759519	1.197000E+00	  0.099759519	2.492300E+01
400	  0.099959925	-3.320000E-01	  0.099959925	1.266280E+02	  0.099959925	1.199000E+00	  0.099959925	2.512000E+01
401	  0.100160323	-3.360000E-01	  0.100160323	1.262590E+02	  0.100160323	1.218000E+00	  0.100160323	2.532100E+01
402	  0.100360721	-3.290000E-01	  0.100360721	1.259260E+02	  0.100360721	1.196000E+00	  0.100360721	2.550500E+01
403	  0.100561127	-3.340000E-01	  0.100561127	1.255760E+02	  0.100561127	1.216000E+00	  0.100561127	2.569700E+01
404	  0.100761525	-3.240000E-01	  0.100761525	1.252730E+02	  0.100761525	1.183000E+00	  0.100761525	2.586500E+01
405	  0.100961931	-3.340000E-01	  0.100961931	1.248850E+02	  0.100961931	1.225000E+00	  0.100961931	2.607900E+01
406	  0.101162329	-3.360000E-01	  0.101162329	1.245350E+02	  0.101162329	1.236000E+00	  0.101162329	2.627300E+01
407	  0.101362728	-3.330000E-01	  0.101362728	1.241640E+02	  0.101362728	1.230000E+00	  0.101362728	2.648100E+01
408	  0.101563133	-3.410000E-01	  0.101563133	1.238580E+02	  0.101563133	1.261000E+00	  0.101563133	2.665100E+01
409	  0.101763532	-3.400000E-01	  0.101763532	1.235350E+02	  0.101763532	1.261000E+00	  0.101763532	2.683200E+01
410	  0.101963930	-3.360000E-01	  0.101963930	1.231430E+02	  0.101963930	1.251000E+00	  0.101963930	2.705300E+01
411	  0.102164336	-3.400000E-01	  0.102164336	1.228020E+02	  0.102164336	1.270000E+00	  0.102164336	2.724500E+01
412	  0.102364734	-3.400000E-01	  0.102364734	1.224710E+02	  0.102364734	1.273000E+00	  0.102364734	2.743300E+01
413	  0.102565132	-3.400000E-01	  0.102565132	1.220960E+02	  0.102565132	1.279000E+00	  0.102565132	2.764600E+01
414	  0.102765530	-3.380000E-01	  0.102765530	1.217550E+02	  0.102765530	1.278000E+00	  0.102765530	2.784100E+01
415	  0.102965929	-3.380000E-01	  0.102965929	1.214240E+02	  0.102965929	1.281000E+00	  0.102965929	2.803000E+01
416	  0.103166327	-3.370000E-01	  0.103166327	1.210450E+02	  0.103166327	1.281000E+00	  0.103166327	2.824800E+01
417	  0.103366733	-3.380000E-01	  0.103366733	1.206920E+02	  0.103366733	1.291000E+00	  0.103366733	2.845100E+01
418	  0.103567131	-3.360000E-01	  0.103567131	1.203520E+02	  0.103567131	1.286000E+00	  0.103567131	2.864800E+01
419	  0.103767529	-3.440000E-01	  0.103767529	1.199970E+02	  0.103767529	1.320000E+00	  0.103767529	2.885400E+01
420	  0.103967935	-3.340000E-01	  0.103967935	1.196630E+02	  0.103967935	1.287000E+00	  0.103967935	2.904900E+01
421	  0.104168333	-3.400000E-01	  0.104168333	1.193450E+02	  0.104168333	1.316000E+00	  0.104168333	2.923400E+01
422	  0.104368731	-3.350000E-01	  0.104368731	1.189890E+02	  0.104368731	1.300000E+00	  0.104368731	2.944300E+01
423	  0.104569137	-3.340000E-01	  0.104569137	1.186490E+02	  0.104569137	1.300000E+00	  0.104569137	2.964300E+01
424	  0.104769535	-3.370000E-01	  0.104769535	1.182880E+02	  0.104769535	1.318000E+00	  0.104769535	2.985600E+01
425	  0.104969934	-3.410000E-01	  0.104969934	1.179780E+02	  0.104969934	1.339000E+00	  0.104969934	3.003900E+01
426	  0.105170339	-3.480000E-01	  0.105170339	1.176410E+02	  0.105170339	1.370000E+00	  0.105170339	3.023900E+01
427	  0.105370738	-3.460000E-01	  0.105370738	1.172960E+02	  0.105370738	1.366000E+00	  0.105370738	3.044500E+01
428	  0.105571143	-3.500000E-01	  0.105571143	1.169410E+02	  0.105571143	1.386000E+00	  0.105571143	3.065700E+01
429	  0.105771542	-3.480000E-01	  0.105771542	1.165940E+02	  0.105771542	1.385000E+00	  0.105771542	3.086600E+01
430	  0.105971940	-3.430000E-01	  0.105971940	1.162360E+02	  0.105971940	1.369000E+00	  0.105971940	3.108300E+01
431	  0.106172346	-3.480000E-01	  0.106172346	1.158560E+02	  0.106172346	1.396000E+00	  0.106172346	3.131300E+01
432	  0.106372744	-3.490000E-01	  0.106372744	1.155510E+02	  0.106372744	1.404000E+00	  0.106372744	3.149800E+01
433	  0.106573142	-3.470000E-01	  0.106573142	1.152110E+02	  0.106573142	1.403000E+00	  0.106573142	3.170500E+01
434	  0.106773548	-3.470000E-01	  0.106773548	1.148590E+02	  0.106773548	1.407000E+00	  0.106773548	3.192100E+01
435	  0.106973946	-3.520000E-01	  0.106973946	1.145140E+02	  0.106973946	1.433000E+00	  0.106973946	3.213300E+01
436	  0.107174344	-3.470000E-01	  0.107174344	1.141840E+02	  0.107174344	1.416000E+00	  0.107174344	3.233700E+01
437	  0.107374750	-3.450000E-01	  0.107374750	1.138270E+02	  0.107374750	1.415000E+00	  0.107374750	3.255900E+01
438	  0.107575148	-3.510000E-01	  0.107575148	1.134960E+02	  0.107575148	1.444000E+00	  0.107575148	3.276400E+01
439	  0.107775547	-3.460000E-01	  0.107775547	1.131490E+02	  0.107775547	1.429000E+00	  0.107775547	3.298100E+01
440	  0.107975952	-3.490000E-01	  0.107975952	1.128450E+02	  0.107975952	1.450000E+00	  0.107975952	3.317100E+01
441	  0.108176351	-3.450000E-01	  0.108176351	1.124750E+02	  0.108176351	1.439000E+00	  0.108176351	3.340500E+01
442	  0.108376749	-3.470000E-01	  0.108376749	1.121580E+02	  0.108376749	1.452000E+00	  0.108376749	3.360500E+01
443	  0.108577155	-3.430000E-01	  0.108577155	1.118030E+02	  0.108577155	1.439000E+00	  0.108577155	3.383000E+01
444	  0.108777553	-3.420000E-01	  0.108777553	1.114950E+02	  0.108777553	1.440000E+00	  0.108777553	3.402700E+01
445	  0.108977959	-3.410000E-01	  0.108977959	1.111580E+02	  0.108977959	1.445000E+00	  0.108977959	3.424300E+01
446	  0.109178357	-3.490000E-01	  0.109178357	1.108420E+02	  0.109178357	1.483000E+00	  0.109178357	3.444400E+01
447	  0.109378755	-3.420000E-01	  0.109378755	1.105230E+02	  0.109378755	1.461000E+00	  0.109378755	3.465100E+01
448	  0.109579161	-3.430000E-01	  0.109579161	1.101890E+02	  0.109579161	1.471000E+00	  0.109579161	3.486600E+01
449	  0.109779559	-3.420000E-01	  0.109779559	1.098610E+02	  0.109779559	1.469000E+00	  0.109779559	3.508000E+01
450	  0.109979957	-3.390000E-01	  0.109979957	1.095220E+02	  0.109979957	1.463000E+00	  0.109979957	3.530100E+01
451	  0.110180363	-3.430000E-01	  0.110180363	1.092270E+02	  0.110180363	1.486000E+00	  0.110180363	3.549400E+01
452	  0.110380761	-3.500000E-01	  0.110380761	1.088840E+02	  0.110380761	1.522000E+00	  0.110380761	3.571800E+01
453	  0.110581160	-3.480000E-01	  0.110581160	1.085410E+02	  0.110581160	1.520000E+00	  0.110581160	3.594500E+01
454	  0.110781565	-3.500000E-01	  0.110781565	1.082050E+02	  0.110781565	1.535000E+00	  0.110781565	3.616700E+01
455	  0.110981964	-3.490000E-01	  0.110981964	1.078510E+02	  0.110981964	1.538000E+00	  0.110981964	3.640300E+01
456	  0.111182362	-3.480000E-01	  0.111182362	1.075150E+02	  0.111182362	1.541000E+00	  0.111182362	3.662800E+01
457	  0.111382768	-3.470000E-01	  0.111382768	1.071940E+02	  0.111382768	1.544000E+00	  0.111382768	3.684400E+01
458	  0.111583166	-3.450000E-01	  0.111583166	1.068490E+02	  0.111583166	1.541000E+00	  0.111583166	3.707600E+01
459	  0.111783572	-3.540000E-01	  0.111783572	1.065280E+02	  0.111783572	1.589000E+00	  0.111783572	3.729300E+01
460	  0.111983970	-3.540000E-01	  0.111983970	1.061880E+02	  0.111983970	1.597000E+00	  0.111983970	3.752400E+01
461	  0.112184368	-3.510000E-01	  0.112184368	1.058540E+02	  0.112184368	1.588000E+00	  0.112184368	3.775200E+01
462	  0.112384774	-3.500000E-01	  0.112384774	1.054860E+02	  0.112384774	1.591000E+00	  0.112384774	3.800500E+01
463	  0.112585172	-3.460000E-01	  0.112585172	1.051620E+02	  0.112585172	1.580000E+00	  0.112585172	3.822900E+01
464	  0.112785570	-3.510000E-01	  0.112785570	1.048120E+02	  0.112785570	1.609000E+00	  0.112785570	3.847100E+01
465	  0.112985976	-3.510000E-01	  0.112985976	1.044670E+02	  0.112985976	1.620000E+00	  0.112985976	3.871100E+01
466	  0.113186374	-3.540000E-01	  0.113186374	1.041670E+02	  0.113186374	1.637000E+00	  0.113186374	3.892000E+01
467	  0.113386773	-3.480000E-01	  0.113386773	1.038160E+02	  0.113386773	1.616000E+00	  0.113386773	3.916800E+01
468	  0.113587178	-3.480000E-01	  0.113587178	1.034830E+02	  0.113587178	1.626000E+00	  0.113587178	3.940200E+01
469	  0.113787577	-3.470000E-01	  0.113787577	1.031510E+02	  0.113787577	1.628000E+00	  0.113787577	3.963700E+01
470	  0.113987975	-3.440000E-01	  0.113987975	1.028540E+02	  0.113987975	1.619000E+00	  0.113987975	3.984900E+01
471	  0.114188381	-3.510000E-01	  0.114188381	1.024990E+02	  0.114188381	1.664000E+00	  0.114188381	4.010200E+01
472	  0.114388779	-3.520000E-01	  0.114388779	1.022010E+02	  0.114388779	1.674000E+00	  0.114388779	4.031600E+01
473	  0.114589177	-3.470000E-01	  0.114589177	1.018610E+02	  0.114589177	1.657000E+00	  0.114589177	4.056200E+01
474	  0.114789583	-3.460000E-01	  0.114789583	1.015570E+02	  0.114789583	1.660000E+00	  0.114789583	4.078200E+01
475	  0.114989981	-3.460000E-01	  0.114989981	1.012410E+02	  0.114989981	1.670000E+00	  0.114989981	4.101200E+01
476	  0.115190387	-3.500000E-01	  0.115190387	1.009440E+02	  0.115190387	1.696000E+00	  0.115190387	4.122800E+01
477	  0.115390785	-3.500000E-01	  0.115390785	1.006130E+02	  0.115390785	1.704000E+00	  0.115390785	4.147200E+01
478	  0.115591183	-3.510000E-01	  0.115591183	1.002990E+02	  0.115591183	1.718000E+00	  0.115591183	4.170300E+01
479	  0.115791589	-3.500000E-01	  0.115791589	9.996100E+01	  0.115791589	1.720000E+00	  0.115791589	4.195400E+01
480	  0.115991987	-3.550000E-01	  0.115991987	9.962300E+01	  0.115991987	1.751000E+00	  0.115991987	4.220500E+01
481	  0.116192386	-3.530000E-01	  0.116192386	9.931400E+01	  0.116192386	1.752000E+00	  0.116192386	4.243700E+01
482	  0.116392791	-3.540000E-01	  0.116392791	9.897600E+01	  0.116392791	1.763000E+00	  0.116392791	4.269000E+01
483	  0.116593190	-3.570000E-01	  0.116593190	9.866400E+01	  0.116593190	1.785000E+00	  0.116593190	4.292600E+01
484	  0.116793588	-3.560000E-01	  0.116793588	9.835100E+01	  0.116793588	1.792000E+00	  0.116793588	4.316400E+01
485	  0.116993994	-3.580000E-01	  0.116993994	9.801500E+01	  0.116993994	1.808000E+00	  0.116993994	4.342000E+01
486	  0.117194392	-3.590000E-01	  0.117194392	9.766000E+01	  0.117194392	1.826000E+00	  0.117194392	4.369100E+01
487	  0.117394790	-3.610000E-01	  0.117394790	9.734400E+01	  0.117394790	1.845000E+00	  0.117394790	4.393500E+01
488	  0.117595196	-3.610000E-01	  0.117595196	9.701100E+01	  0.117595196	1.853000E+00	  0.117595196	4.419300E+01
489	  0.117795594	-3.560000E-01	  0.117795594	9.668700E+01	  0.117795594	1.838000E+00	  0.117795594	4.444600E+01
490	  0.117995992	-3.570000E-01	  0.117995992	9.635300E+01	  0.117995992	1.853000E+00	  0.117995992	4.470700E+01
491	  0.118196398	-3.560000E-01	  0.118196398	9.603200E+01	  0.118196398	1.853000E+00	  0.118196398	4.496000E+01
492	  0.118396796	-3.540000E-01	  0.118396796	9.571300E+01	  0.118396796	1.856000E+00	  0.118396796	4.521200E+01
493	  0.118597202	-3.570000E-01	  0.118597202	9.539400E+01	  0.118597202	1.879000E+00	  0.118597202	4.546500E+01
494	  0.118797600	-3.500000E-01	  0.118797600	9.507000E+01	  0.118797600	1.853000E+00	  0.118797600	4.572500E+01
495	  0.118997999	-3.560000E-01	  0.118997999	9.473600E+01	  0.118997999	1.894000E+00	  0.118997999	4.599300E+01
496	  0.119198404	-3.570000E-01	  0.119198404	9.442700E+01	  0.119198404	1.907000E+00	  0.119198404	4.624100E+01
497	  0.119398803	-3.590000E-01	  0.119398803	9.412100E+01	  0.119398803	1.929000E+00	  0.119398803	4.648900E+01
498	  0.119599201	-3.570000E-01	  0.119599201	9.380500E+01	  0.119599201	1.926000E+00	  0.119599201	4.674700E+01
499	  0.119799607	-3.540000E-01	  0.119799607	9.348900E+01	  0.119799607	1.925000E+00	  0.119799607	4.700600E+01
500	  0.120000005	-3.540000E-01	  0.120000005	9.317600E+01	  0.120000005	1.931000E+00	  0.120000005	4.726400E+01
