! Anritsu VNA Master:             	Model: MS2036C/10/77
! SN:             	1601066
! /bd0/18may26.balun/2a.r20.2.txt
! Existing Calibration Information:
! TYPE:             	Current Settings	Active Cal Settings
! TIME:             	05/26/2018 07:57:42 PM	05/26/2018 07:26:54 PM
! INTERNAL TEMP:    	45.5 C	45.5 C
! # POINTS:         	500	500
! START FREQ:       	20.000 MHz	20.000 MHz
! STOP FREQ:        	120.000 MHz	120.000 MHz
! SOURCE POWER:     	High	High
! IFBW:             	50 Hz	50 Hz
! AVG FACTOR:       	  1 	  1 
! REF PLANE 1:      	0 mm	0 mm
! REF PLANE 2:      	0 mm	0 mm
! CAL TYPE:         	Full S11	Full S11
! CAL METHOD:       	SOLT	SOLT
! CAL LINE TYPE:    	Coax	Coax
! DUT PORT 1:       	K-Conn(M)	K-Conn(M)
! DUT PORT 2:       	K-Conn(M)	K-Conn(M)
! CAL STATUS:       	OK: Accuracy High	--
! PROP-V:       	0.700
! CABLE LOSS:       	0.000 dB/m
! REF IMPEDANCE:       	50.0
! Trace Specific Parameters:	TR1	TR2	TR3	TR4
! TRACE.#.Y (GRAPH TYPE)	LOG MAG	PHASE	REAL IMPEDANCE	IMAGINARY IMPEDANCE
! TRACE.#.X 	FREQ.GHZ	FREQ.GHZ	FREQ.GHZ	FREQ.GHZ
! S-PARAMETER	S11	S11	S11	S11
! SMOOTH/APERTURE %	0	0	0	0
! WINDOW	NSL	NSL	NSL	NSL
! GATING	OFF	OFF	OFF	OFF
! FGTD	OFF	OFF	OFF	OFF
Marker Information per Trace:	TR1	TR2	TR3	TR4
!MK1	--	--	--	--
!MK2	--	--	--	--
!MK3	--	--	--	--
!MK4	--	--	--	--
!MK5	--	--	--	--
!MK6	--	--	--	--
!MK7	--	--	--	--
!MK8	--	--	--	--
PNT	TR1.FREQ.GHZ	TR1.LOG MAG.dB	TR2.FREQ.GHZ	TR2.PHASE.deg	TR3.FREQ.GHZ	TR3.REAL IMPEDANCE.ohm	TR4.FREQ.GHZ	TR4.IMAGINARY IMPEDANCE.ohm
1	  0.020000000	-7.270000E+00	  0.020000000	1.544730E+02	  0.020000000	2.063300E+01	  0.020000000	9.476000E+00
2	  0.020200402	-7.268000E+00	  0.020200402	1.542510E+02	  0.020200402	2.064400E+01	  0.020200402	9.561000E+00
3	  0.020400802	-7.269000E+00	  0.020400802	1.539870E+02	  0.020400802	2.066400E+01	  0.020400802	9.660000E+00
4	  0.020601204	-7.266000E+00	  0.020601204	1.537570E+02	  0.020601204	2.067400E+01	  0.020601204	9.748000E+00
5	  0.020801604	-7.264000E+00	  0.020801604	1.535160E+02	  0.020801604	2.068600E+01	  0.020801604	9.841000E+00
6	  0.021002004	-7.263000E+00	  0.021002004	1.532910E+02	  0.021002004	2.069900E+01	  0.021002004	9.926000E+00
7	  0.021202406	-7.264000E+00	  0.021202406	1.530300E+02	  0.021202406	2.072100E+01	  0.021202406	1.002500E+01
8	  0.021402806	-7.266000E+00	  0.021402806	1.528170E+02	  0.021402806	2.074000E+01	  0.021402806	1.010500E+01
9	  0.021603208	-7.269000E+00	  0.021603208	1.525860E+02	  0.021603208	2.076400E+01	  0.021603208	1.019100E+01
10	  0.021803608	-7.275000E+00	  0.021803608	1.523360E+02	  0.021803608	2.079900E+01	  0.021803608	1.028200E+01
11	  0.022004008	-7.282000E+00	  0.022004008	1.520910E+02	  0.022004008	2.083500E+01	  0.022004008	1.037200E+01
12	  0.022204408	-7.282000E+00	  0.022204408	1.518670E+02	  0.022204408	2.085200E+01	  0.022204408	1.045700E+01
13	  0.022404809	-7.285000E+00	  0.022404809	1.516060E+02	  0.022404809	2.088000E+01	  0.022404809	1.055400E+01
14	  0.022605211	-7.288000E+00	  0.022605211	1.513480E+02	  0.022605211	2.090600E+01	  0.022605211	1.065100E+01
15	  0.022805611	-7.288000E+00	  0.022805611	1.510990E+02	  0.022805611	2.092700E+01	  0.022805611	1.074500E+01
16	  0.023006011	-7.292000E+00	  0.023006011	1.508420E+02	  0.023006011	2.095700E+01	  0.023006011	1.084100E+01
17	  0.023206413	-7.291000E+00	  0.023206413	1.505510E+02	  0.023206413	2.097600E+01	  0.023206413	1.095200E+01
18	  0.023406813	-7.292000E+00	  0.023406813	1.502860E+02	  0.023406813	2.100100E+01	  0.023406813	1.105200E+01
19	  0.023607215	-7.287000E+00	  0.023607215	1.499910E+02	  0.023607215	2.101200E+01	  0.023607215	1.116800E+01
20	  0.023807615	-7.287000E+00	  0.023807615	1.497060E+02	  0.023807615	2.103600E+01	  0.023807615	1.127600E+01
21	  0.024008015	-7.287000E+00	  0.024008015	1.494590E+02	  0.024008015	2.105600E+01	  0.024008015	1.137100E+01
22	  0.024208417	-7.287000E+00	  0.024208417	1.492170E+02	  0.024208417	2.107600E+01	  0.024208417	1.146300E+01
23	  0.024408817	-7.287000E+00	  0.024408817	1.489800E+02	  0.024408817	2.109600E+01	  0.024408817	1.155400E+01
24	  0.024609219	-7.288000E+00	  0.024609219	1.487530E+02	  0.024609219	2.111800E+01	  0.024609219	1.164000E+01
25	  0.024809619	-7.289000E+00	  0.024809619	1.485470E+02	  0.024809619	2.114000E+01	  0.024809619	1.171800E+01
26	  0.025010020	-7.286000E+00	  0.025010020	1.482780E+02	  0.025010020	2.115400E+01	  0.025010020	1.182200E+01
27	  0.025210422	-7.293000E+00	  0.025210422	1.480270E+02	  0.025210422	2.119400E+01	  0.025210422	1.191500E+01
28	  0.025410822	-7.295000E+00	  0.025410822	1.477670E+02	  0.025410822	2.122200E+01	  0.025410822	1.201300E+01
29	  0.025611224	-7.292000E+00	  0.025611224	1.475280E+02	  0.025611224	2.123600E+01	  0.025611224	1.210600E+01
30	  0.025811624	-7.289000E+00	  0.025811624	1.472610E+02	  0.025811624	2.125200E+01	  0.025811624	1.221000E+01
31	  0.026012026	-7.281000E+00	  0.026012026	1.469890E+02	  0.026012026	2.125700E+01	  0.026012026	1.231900E+01
32	  0.026212426	-7.282000E+00	  0.026212426	1.467320E+02	  0.026212426	2.128200E+01	  0.026212426	1.241800E+01
33	  0.026412826	-7.282000E+00	  0.026412826	1.464890E+02	  0.026412826	2.130400E+01	  0.026412826	1.251100E+01
34	  0.026613226	-7.281000E+00	  0.026613226	1.462670E+02	  0.026613226	2.132300E+01	  0.026613226	1.259700E+01
35	  0.026813626	-7.284000E+00	  0.026813626	1.460570E+02	  0.026813626	2.135200E+01	  0.026813626	1.267600E+01
36	  0.027014028	-7.285000E+00	  0.027014028	1.458350E+02	  0.027014028	2.137500E+01	  0.027014028	1.276100E+01
37	  0.027214428	-7.289000E+00	  0.027214428	1.456500E+02	  0.027214428	2.140100E+01	  0.027214428	1.283000E+01
38	  0.027414829	-7.293000E+00	  0.027414829	1.454410E+02	  0.027414829	2.143400E+01	  0.027414829	1.290700E+01
39	  0.027615231	-7.300000E+00	  0.027615231	1.451880E+02	  0.027615231	2.147600E+01	  0.027615231	1.300000E+01
40	  0.027815631	-7.309000E+00	  0.027815631	1.449180E+02	  0.027815631	2.152400E+01	  0.027815631	1.309900E+01
41	  0.028016033	-7.313000E+00	  0.028016033	1.446480E+02	  0.028016033	2.156200E+01	  0.028016033	1.320000E+01
42	  0.028216433	-7.314000E+00	  0.028216433	1.443430E+02	  0.028216433	2.159600E+01	  0.028216433	1.331700E+01
43	  0.028416833	-7.315000E+00	  0.028416833	1.440480E+02	  0.028416833	2.162700E+01	  0.028416833	1.343000E+01
44	  0.028617235	-7.316000E+00	  0.028617235	1.437540E+02	  0.028617235	2.166000E+01	  0.028617235	1.354300E+01
45	  0.028817635	-7.312000E+00	  0.028817635	1.434360E+02	  0.028817635	2.168200E+01	  0.028817635	1.366900E+01
46	  0.029018037	-7.314000E+00	  0.029018037	1.431450E+02	  0.029018037	2.171600E+01	  0.029018037	1.378000E+01
47	  0.029218437	-7.308000E+00	  0.029218437	1.428860E+02	  0.029218437	2.172800E+01	  0.029218437	1.388500E+01
48	  0.029418837	-7.302000E+00	  0.029418837	1.426510E+02	  0.029418837	2.174000E+01	  0.029418837	1.398000E+01
49	  0.029619239	-7.294000E+00	  0.029619239	1.424430E+02	  0.029619239	2.174000E+01	  0.029619239	1.406600E+01
50	  0.029819639	-7.292000E+00	  0.029819639	1.422410E+02	  0.029819639	2.175700E+01	  0.029819639	1.414600E+01
51	  0.030020041	-7.291000E+00	  0.030020041	1.420630E+02	  0.030020041	2.177300E+01	  0.030020041	1.421600E+01
52	  0.030220442	-7.294000E+00	  0.030220442	1.418410E+02	  0.030220442	2.180500E+01	  0.030220442	1.430000E+01
53	  0.030420844	-7.300000E+00	  0.030420844	1.416040E+02	  0.030420844	2.184700E+01	  0.030420844	1.438800E+01
54	  0.030621244	-7.306000E+00	  0.030621244	1.413600E+02	  0.030621244	2.188900E+01	  0.030621244	1.447900E+01
55	  0.030821644	-7.308000E+00	  0.030821644	1.410600E+02	  0.030821644	2.192800E+01	  0.030821644	1.459400E+01
56	  0.031022044	-7.306000E+00	  0.031022044	1.407720E+02	  0.031022044	2.195400E+01	  0.031022044	1.470800E+01
57	  0.031222444	-7.299000E+00	  0.031222444	1.405420E+02	  0.031222444	2.196200E+01	  0.031222444	1.480300E+01
58	  0.031422846	-7.297000E+00	  0.031422846	1.402560E+02	  0.031422846	2.199000E+01	  0.031422846	1.491600E+01
59	  0.031623244	-7.298000E+00	  0.031623244	1.399800E+02	  0.031623244	2.202300E+01	  0.031623244	1.502300E+01
60	  0.031823646	-7.292000E+00	  0.031823646	1.397550E+02	  0.031823646	2.203500E+01	  0.031823646	1.511600E+01
61	  0.032024048	-7.285000E+00	  0.032024048	1.395360E+02	  0.032024048	2.204100E+01	  0.032024048	1.520700E+01
62	  0.032224450	-7.279000E+00	  0.032224450	1.393000E+02	  0.032224450	2.205300E+01	  0.032224450	1.530500E+01
63	  0.032424849	-7.277000E+00	  0.032424849	1.390690E+02	  0.032424849	2.207600E+01	  0.032424849	1.539600E+01
64	  0.032625251	-7.275000E+00	  0.032625251	1.388720E+02	  0.032625251	2.209300E+01	  0.032625251	1.547600E+01
65	  0.032825653	-7.277000E+00	  0.032825653	1.386660E+02	  0.032825653	2.212500E+01	  0.032825653	1.555400E+01
66	  0.033026051	-7.283000E+00	  0.033026051	1.384210E+02	  0.033026051	2.216800E+01	  0.033026051	1.564700E+01
67	  0.033226453	-7.288000E+00	  0.033226453	1.381610E+02	  0.033226453	2.221300E+01	  0.033226453	1.574500E+01
68	  0.033426855	-7.294000E+00	  0.033426855	1.379020E+02	  0.033426855	2.226300E+01	  0.033426855	1.584100E+01
69	  0.033627257	-7.298000E+00	  0.033627257	1.376210E+02	  0.033627257	2.230700E+01	  0.033627257	1.594900E+01
70	  0.033827655	-7.301000E+00	  0.033827655	1.373090E+02	  0.033827655	2.235300E+01	  0.033827655	1.607000E+01
71	  0.034028057	-7.309000E+00	  0.034028057	1.370180E+02	  0.034028057	2.241000E+01	  0.034028057	1.617800E+01
72	  0.034228459	-7.312000E+00	  0.034228459	1.367110E+02	  0.034228459	2.245900E+01	  0.034228459	1.629600E+01
73	  0.034428857	-7.307000E+00	  0.034428857	1.364510E+02	  0.034428857	2.247900E+01	  0.034428857	1.640300E+01
74	  0.034629259	-7.309000E+00	  0.034629259	1.361550E+02	  0.034629259	2.252100E+01	  0.034629259	1.651800E+01
75	  0.034829661	-7.300000E+00	  0.034829661	1.358830E+02	  0.034829661	2.253400E+01	  0.034829661	1.663300E+01
76	  0.035030060	-7.286000E+00	  0.035030060	1.356180E+02	  0.035030060	2.253200E+01	  0.035030060	1.675100E+01
77	  0.035230462	-7.280000E+00	  0.035230462	1.353890E+02	  0.035230462	2.254700E+01	  0.035230462	1.684700E+01
78	  0.035430863	-7.270000E+00	  0.035430863	1.351940E+02	  0.035430863	2.254700E+01	  0.035430863	1.693300E+01
79	  0.035631265	-7.267000E+00	  0.035631265	1.350030E+02	  0.035631265	2.256300E+01	  0.035631265	1.701200E+01
80	  0.035831664	-7.269000E+00	  0.035831664	1.348210E+02	  0.035831664	2.259300E+01	  0.035831664	1.708200E+01
81	  0.036032066	-7.275000E+00	  0.036032066	1.346090E+02	  0.036032066	2.263700E+01	  0.036032066	1.716200E+01
82	  0.036232468	-7.280000E+00	  0.036232468	1.343700E+02	  0.036232468	2.268400E+01	  0.036232468	1.725200E+01
83	  0.036432866	-7.292000E+00	  0.036432866	1.340860E+02	  0.036432866	2.275500E+01	  0.036432866	1.735400E+01
84	  0.036633268	-7.297000E+00	  0.036633268	1.338320E+02	  0.036633268	2.280300E+01	  0.036633268	1.745100E+01
85	  0.036833670	-7.298000E+00	  0.036833670	1.335500E+02	  0.036833670	2.284300E+01	  0.036833670	1.756400E+01
86	  0.037034072	-7.299000E+00	  0.037034072	1.332720E+02	  0.037034072	2.288600E+01	  0.037034072	1.767300E+01
87	  0.037234470	-7.297000E+00	  0.037234470	1.329950E+02	  0.037234470	2.292000E+01	  0.037234470	1.778500E+01
88	  0.037434869	-7.291000E+00	  0.037434869	1.327000E+02	  0.037434869	2.294600E+01	  0.037434869	1.790900E+01
89	  0.037635271	-7.286000E+00	  0.037635271	1.324700E+02	  0.037635271	2.296500E+01	  0.037635271	1.800600E+01
90	  0.037835669	-7.278000E+00	  0.037835669	1.322370E+02	  0.037835669	2.297800E+01	  0.037835669	1.810700E+01
91	  0.038036071	-7.272000E+00	  0.038036071	1.320140E+02	  0.038036071	2.299600E+01	  0.038036071	1.820200E+01
92	  0.038236473	-7.272000E+00	  0.038236473	1.318150E+02	  0.038236473	2.302400E+01	  0.038236473	1.828300E+01
93	  0.038436871	-7.276000E+00	  0.038436871	1.316030E+02	  0.038436871	2.306600E+01	  0.038436871	1.836400E+01
94	  0.038637273	-7.281000E+00	  0.038637273	1.313670E+02	  0.038637273	2.311600E+01	  0.038637273	1.845400E+01
95	  0.038837675	-7.285000E+00	  0.038837675	1.311040E+02	  0.038837675	2.316500E+01	  0.038837675	1.855600E+01
96	  0.039038073	-7.295000E+00	  0.039038073	1.308130E+02	  0.039038073	2.323400E+01	  0.039038073	1.866300E+01
97	  0.039238475	-7.295000E+00	  0.039238475	1.305320E+02	  0.039238475	2.327800E+01	  0.039238475	1.877700E+01
98	  0.039438877	-7.298000E+00	  0.039438877	1.302490E+02	  0.039438877	2.332800E+01	  0.039438877	1.888800E+01
99	  0.039639279	-7.300000E+00	  0.039639279	1.299790E+02	  0.039639279	2.337600E+01	  0.039639279	1.899500E+01
100	  0.039839678	-7.296000E+00	  0.039839678	1.297190E+02	  0.039839678	2.340500E+01	  0.039839678	1.910400E+01
101	  0.040040080	-7.289000E+00	  0.040040080	1.294570E+02	  0.040040080	2.342900E+01	  0.040040080	1.921700E+01
102	  0.040240481	-7.282000E+00	  0.040240481	1.291650E+02	  0.040240481	2.345500E+01	  0.040240481	1.934300E+01
103	  0.040440880	-7.272000E+00	  0.040440880	1.288800E+02	  0.040440880	2.347400E+01	  0.040440880	1.946900E+01
104	  0.040641282	-7.263000E+00	  0.040641282	1.286490E+02	  0.040641282	2.348700E+01	  0.040641282	1.957200E+01
105	  0.040841684	-7.255000E+00	  0.040841684	1.284580E+02	  0.040841684	2.349600E+01	  0.040841684	1.965900E+01
106	  0.041042086	-7.256000E+00	  0.041042086	1.282820E+02	  0.041042086	2.352600E+01	  0.041042086	1.973000E+01
107	  0.041242484	-7.256000E+00	  0.041242484	1.281250E+02	  0.041242484	2.355300E+01	  0.041242484	1.979300E+01
108	  0.041442886	-7.262000E+00	  0.041442886	1.279190E+02	  0.041442886	2.360300E+01	  0.041442886	1.987100E+01
109	  0.041643288	-7.270000E+00	  0.041643288	1.276900E+02	  0.041643288	2.366300E+01	  0.041643288	1.995500E+01
110	  0.041843686	-7.275000E+00	  0.041843686	1.274260E+02	  0.041843686	2.371900E+01	  0.041843686	2.005800E+01
111	  0.042044088	-7.283000E+00	  0.042044088	1.271730E+02	  0.042044088	2.378300E+01	  0.042044088	2.015200E+01
112	  0.042244490	-7.288000E+00	  0.042244490	1.269260E+02	  0.042244490	2.383700E+01	  0.042244490	2.024800E+01
113	  0.042444889	-7.290000E+00	  0.042444889	1.266550E+02	  0.042444889	2.388900E+01	  0.042444889	2.035600E+01
114	  0.042645290	-7.291000E+00	  0.042645290	1.263900E+02	  0.042645290	2.393700E+01	  0.042645290	2.046300E+01
115	  0.042845692	-7.287000E+00	  0.042845692	1.260970E+02	  0.042845692	2.397700E+01	  0.042845692	2.058800E+01
116	  0.043046094	-7.280000E+00	  0.043046094	1.258150E+02	  0.043046094	2.400500E+01	  0.043046094	2.071300E+01
117	  0.043246493	-7.277000E+00	  0.043246493	1.255530E+02	  0.043246493	2.404300E+01	  0.043246493	2.082300E+01
118	  0.043446895	-7.270000E+00	  0.043446895	1.253300E+02	  0.043446895	2.406400E+01	  0.043446895	2.092300E+01
119	  0.043647297	-7.274000E+00	  0.043647297	1.250800E+02	  0.043647297	2.411800E+01	  0.043647297	2.102100E+01
120	  0.043847695	-7.276000E+00	  0.043847695	1.248570E+02	  0.043847695	2.416300E+01	  0.043847695	2.111100E+01
121	  0.044048097	-7.280000E+00	  0.044048097	1.246080E+02	  0.044048097	2.421900E+01	  0.044048097	2.120800E+01
122	  0.044248499	-7.285000E+00	  0.044248499	1.243690E+02	  0.044248499	2.427500E+01	  0.044248499	2.130200E+01
123	  0.044448901	-7.288000E+00	  0.044448901	1.240930E+02	  0.044448901	2.433400E+01	  0.044448901	2.141200E+01
124	  0.044649299	-7.288000E+00	  0.044649299	1.238340E+02	  0.044649299	2.438000E+01	  0.044649299	2.151900E+01
125	  0.044849701	-7.289000E+00	  0.044849701	1.235510E+02	  0.044849701	2.443600E+01	  0.044849701	2.163400E+01
126	  0.045050103	-7.289000E+00	  0.045050103	1.232850E+02	  0.045050103	2.448400E+01	  0.045050103	2.174500E+01
127	  0.045250501	-7.282000E+00	  0.045250501	1.230370E+02	  0.045250501	2.451200E+01	  0.045250501	2.185600E+01
128	  0.045450903	-7.280000E+00	  0.045450903	1.227500E+02	  0.045450903	2.456100E+01	  0.045450903	2.197800E+01
129	  0.045651305	-7.269000E+00	  0.045651305	1.224880E+02	  0.045651305	2.458100E+01	  0.045651305	2.210000E+01
130	  0.045851704	-7.260000E+00	  0.045851704	1.222470E+02	  0.045851704	2.460100E+01	  0.045851704	2.221200E+01
131	  0.046052106	-7.253000E+00	  0.046052106	1.220070E+02	  0.046052106	2.462700E+01	  0.046052106	2.232100E+01
132	  0.046252504	-7.247000E+00	  0.046252504	1.218160E+02	  0.046252504	2.464600E+01	  0.046252504	2.240900E+01
133	  0.046452906	-7.242000E+00	  0.046452906	1.216550E+02	  0.046452906	2.466600E+01	  0.046452906	2.248200E+01
134	  0.046653304	-7.243000E+00	  0.046653304	1.214670E+02	  0.046653304	2.470500E+01	  0.046653304	2.255900E+01
135	  0.046853706	-7.250000E+00	  0.046853706	1.212700E+02	  0.046853706	2.476100E+01	  0.046853706	2.263400E+01
136	  0.047054108	-7.256000E+00	  0.047054108	1.210640E+02	  0.047054108	2.482000E+01	  0.047054108	2.271100E+01
137	  0.047254506	-7.267000E+00	  0.047254506	1.208320E+02	  0.047254506	2.489400E+01	  0.047254506	2.279500E+01
138	  0.047454908	-7.268000E+00	  0.047454908	1.206040E+02	  0.047454908	2.494300E+01	  0.047454908	2.288900E+01
139	  0.047655310	-7.275000E+00	  0.047655310	1.203120E+02	  0.047655310	2.502200E+01	  0.047655310	2.300100E+01
140	  0.047855709	-7.275000E+00	  0.047855709	1.200500E+02	  0.047855709	2.507400E+01	  0.047855709	2.311200E+01
141	  0.048056111	-7.277000E+00	  0.048056111	1.197840E+02	  0.048056111	2.513300E+01	  0.048056111	2.322100E+01
142	  0.048256513	-7.272000E+00	  0.048256513	1.194970E+02	  0.048256513	2.517700E+01	  0.048256513	2.334900E+01
143	  0.048456915	-7.267000E+00	  0.048456915	1.192540E+02	  0.048456915	2.521300E+01	  0.048456915	2.345800E+01
144	  0.048657313	-7.266000E+00	  0.048657313	1.189910E+02	  0.048657313	2.526700E+01	  0.048657313	2.356900E+01
145	  0.048857715	-7.264000E+00	  0.048857715	1.187530E+02	  0.048857715	2.531100E+01	  0.048857715	2.367200E+01
146	  0.049058117	-7.263000E+00	  0.049058117	1.185280E+02	  0.049058117	2.535500E+01	  0.049058117	2.376900E+01
147	  0.049258515	-7.270000E+00	  0.049258515	1.182980E+02	  0.049258515	2.542200E+01	  0.049258515	2.385700E+01
148	  0.049458917	-7.273000E+00	  0.049458917	1.180510E+02	  0.049458917	2.548400E+01	  0.049458917	2.395700E+01
149	  0.049659319	-7.273000E+00	  0.049659319	1.177840E+02	  0.049659319	2.554000E+01	  0.049659319	2.407000E+01
150	  0.049859721	-7.279000E+00	  0.049859721	1.175240E+02	  0.049859721	2.561400E+01	  0.049859721	2.417100E+01
151	  0.050060119	-7.277000E+00	  0.050060119	1.172610E+02	  0.050060119	2.566400E+01	  0.050060119	2.428600E+01
152	  0.050260521	-7.276000E+00	  0.050260521	1.170010E+02	  0.050260521	2.571800E+01	  0.050260521	2.439800E+01
153	  0.050460923	-7.275000E+00	  0.050460923	1.167220E+02	  0.050460923	2.577600E+01	  0.050460923	2.451900E+01
154	  0.050661322	-7.273000E+00	  0.050661322	1.164580E+02	  0.050661322	2.582900E+01	  0.050661322	2.463400E+01
155	  0.050861724	-7.264000E+00	  0.050861724	1.161800E+02	  0.050861724	2.586500E+01	  0.050861724	2.476600E+01
156	  0.051062126	-7.255000E+00	  0.051062126	1.159030E+02	  0.051062126	2.590400E+01	  0.051062126	2.489600E+01
157	  0.051262524	-7.247000E+00	  0.051262524	1.156300E+02	  0.051262524	2.594100E+01	  0.051262524	2.502600E+01
158	  0.051462926	-7.245000E+00	  0.051462926	1.154490E+02	  0.051462926	2.597800E+01	  0.051462926	2.510600E+01
159	  0.051663328	-7.240000E+00	  0.051663328	1.152650E+02	  0.051663328	2.600500E+01	  0.051663328	2.519300E+01
160	  0.051863730	-7.239000E+00	  0.051863730	1.150580E+02	  0.051863730	2.605000E+01	  0.051863730	2.528300E+01
161	  0.052064128	-7.240000E+00	  0.052064128	1.148740E+02	  0.052064128	2.609500E+01	  0.052064128	2.536000E+01
162	  0.052264530	-7.244000E+00	  0.052264530	1.146920E+02	  0.052264530	2.614800E+01	  0.052264530	2.543300E+01
163	  0.052464932	-7.249000E+00	  0.052464932	1.144750E+02	  0.052464932	2.621500E+01	  0.052464932	2.551700E+01
164	  0.052665330	-7.254000E+00	  0.052665330	1.142290E+02	  0.052665330	2.628500E+01	  0.052665330	2.561600E+01
165	  0.052865732	-7.260000E+00	  0.052865732	1.139820E+02	  0.052865732	2.636100E+01	  0.052865732	2.571300E+01
166	  0.053066134	-7.265000E+00	  0.053066134	1.137350E+02	  0.053066134	2.643300E+01	  0.053066134	2.581200E+01
167	  0.053266536	-7.267000E+00	  0.053266536	1.134320E+02	  0.053266536	2.651300E+01	  0.053266536	2.593800E+01
168	  0.053466935	-7.263000E+00	  0.053466935	1.131640E+02	  0.053466935	2.656600E+01	  0.053466935	2.606000E+01
169	  0.053667337	-7.262000E+00	  0.053667337	1.128930E+02	  0.053667337	2.662700E+01	  0.053667337	2.618000E+01
170	  0.053867739	-7.262000E+00	  0.053867739	1.126140E+02	  0.053867739	2.669700E+01	  0.053867739	2.630000E+01
171	  0.054068137	-7.262000E+00	  0.054068137	1.123620E+02	  0.054068137	2.675900E+01	  0.054068137	2.640900E+01
172	  0.054268539	-7.257000E+00	  0.054268539	1.121610E+02	  0.054268539	2.679500E+01	  0.054268539	2.650400E+01
173	  0.054468941	-7.259000E+00	  0.054468941	1.119120E+02	  0.054468941	2.686000E+01	  0.054468941	2.661000E+01
174	  0.054669339	-7.259000E+00	  0.054669339	1.116530E+02	  0.054669339	2.692600E+01	  0.054669339	2.672200E+01
175	  0.054869737	-7.262000E+00	  0.054869737	1.113900E+02	  0.054869737	2.700000E+01	  0.054869737	2.683100E+01
176	  0.055070139	-7.263000E+00	  0.055070139	1.111330E+02	  0.055070139	2.707000E+01	  0.055070139	2.694000E+01
177	  0.055270538	-7.262000E+00	  0.055270538	1.108630E+02	  0.055270538	2.713600E+01	  0.055270538	2.706000E+01
178	  0.055470940	-7.268000E+00	  0.055470940	1.106300E+02	  0.055470940	2.721300E+01	  0.055470940	2.715100E+01
179	  0.055671342	-7.261000E+00	  0.055671342	1.103680E+02	  0.055671342	2.726000E+01	  0.055671342	2.727800E+01
180	  0.055871744	-7.260000E+00	  0.055871744	1.100910E+02	  0.055871744	2.732900E+01	  0.055871744	2.740000E+01
181	  0.056072142	-7.256000E+00	  0.056072142	1.098330E+02	  0.056072142	2.738500E+01	  0.056072142	2.752100E+01
182	  0.056272544	-7.251000E+00	  0.056272544	1.095590E+02	  0.056272544	2.744400E+01	  0.056272544	2.764800E+01
183	  0.056472946	-7.243000E+00	  0.056472946	1.092680E+02	  0.056472946	2.749800E+01	  0.056472946	2.779000E+01
184	  0.056673344	-7.238000E+00	  0.056673344	1.090220E+02	  0.056673344	2.754800E+01	  0.056673344	2.790800E+01
185	  0.056873746	-7.233000E+00	  0.056873746	1.088510E+02	  0.056873746	2.758000E+01	  0.056873746	2.799200E+01
186	  0.057074148	-7.231000E+00	  0.057074148	1.086260E+02	  0.057074148	2.763600E+01	  0.057074148	2.809400E+01
187	  0.057274550	-7.231000E+00	  0.057274550	1.084240E+02	  0.057274550	2.769000E+01	  0.057274550	2.818400E+01
188	  0.057474948	-7.228000E+00	  0.057474948	1.082330E+02	  0.057474948	2.773400E+01	  0.057474948	2.827300E+01
189	  0.057675350	-7.235000E+00	  0.057675350	1.080310E+02	  0.057675350	2.780900E+01	  0.057675350	2.835000E+01
190	  0.057875752	-7.242000E+00	  0.057875752	1.078080E+02	  0.057875752	2.789000E+01	  0.057875752	2.843600E+01
191	  0.058076151	-7.245000E+00	  0.058076151	1.075960E+02	  0.058076151	2.795800E+01	  0.058076151	2.852400E+01
192	  0.058276553	-7.249000E+00	  0.058276553	1.073420E+02	  0.058276553	2.804200E+01	  0.058276553	2.862800E+01
193	  0.058476955	-7.248000E+00	  0.058476955	1.070560E+02	  0.058476955	2.811800E+01	  0.058476955	2.875700E+01
194	  0.058677353	-7.251000E+00	  0.058677353	1.068000E+02	  0.058677353	2.820100E+01	  0.058677353	2.886400E+01
195	  0.058877755	-7.245000E+00	  0.058877755	1.065270E+02	  0.058877755	2.826000E+01	  0.058877755	2.899700E+01
196	  0.059078157	-7.249000E+00	  0.059078157	1.062540E+02	  0.059078157	2.835000E+01	  0.059078157	2.911100E+01
197	  0.059278559	-7.248000E+00	  0.059278559	1.059910E+02	  0.059278559	2.842300E+01	  0.059278559	2.923000E+01
198	  0.059478957	-7.244000E+00	  0.059478957	1.057360E+02	  0.059478957	2.848700E+01	  0.059478957	2.935000E+01
199	  0.059679359	-7.240000E+00	  0.059679359	1.054830E+02	  0.059679359	2.854900E+01	  0.059679359	2.947000E+01
200	  0.059879761	-7.242000E+00	  0.059879761	1.052600E+02	  0.059879761	2.862100E+01	  0.059879761	2.956600E+01
201	  0.060080159	-7.237000E+00	  0.060080159	1.050000E+02	  0.060080159	2.868300E+01	  0.060080159	2.969100E+01
202	  0.060280561	-7.243000E+00	  0.060280561	1.047420E+02	  0.060280561	2.877600E+01	  0.060280561	2.979600E+01
203	  0.060480963	-7.241000E+00	  0.060480963	1.045150E+02	  0.060480963	2.883900E+01	  0.060480963	2.990100E+01
204	  0.060681365	-7.239000E+00	  0.060681365	1.042650E+02	  0.060681365	2.890900E+01	  0.060681365	3.001700E+01
205	  0.060881764	-7.240000E+00	  0.060881764	1.040210E+02	  0.060881764	2.898700E+01	  0.060881764	3.012400E+01
206	  0.061082166	-7.236000E+00	  0.061082166	1.037490E+02	  0.061082166	2.905800E+01	  0.061082166	3.025400E+01
207	  0.061282568	-7.232000E+00	  0.061282568	1.034900E+02	  0.061282568	2.912600E+01	  0.061282568	3.037700E+01
208	  0.061482966	-7.230000E+00	  0.061482966	1.032060E+02	  0.061482966	2.920600E+01	  0.061482966	3.051100E+01
209	  0.061683368	-7.223000E+00	  0.061683368	1.029230E+02	  0.061683368	2.927400E+01	  0.061683368	3.065300E+01
210	  0.061883770	-7.221000E+00	  0.061883770	1.026990E+02	  0.061883770	2.933800E+01	  0.061883770	3.075800E+01
211	  0.062084168	-7.214000E+00	  0.062084168	1.024850E+02	  0.062084168	2.938700E+01	  0.062084168	3.086800E+01
212	  0.062284570	-7.208000E+00	  0.062284570	1.022720E+02	  0.062284570	2.943500E+01	  0.062284570	3.097800E+01
213	  0.062484972	-7.201000E+00	  0.062484972	1.020790E+02	  0.062484972	2.947500E+01	  0.062484972	3.108000E+01
214	  0.062685370	-7.197000E+00	  0.062685370	1.019240E+02	  0.062685370	2.951500E+01	  0.062685370	3.115700E+01
215	  0.062885776	-7.201000E+00	  0.062885776	1.016750E+02	  0.062885776	2.960600E+01	  0.062885776	3.126300E+01
216	  0.063086174	-7.200000E+00	  0.063086174	1.015180E+02	  0.063086174	2.965300E+01	  0.063086174	3.133700E+01
217	  0.063286573	-7.205000E+00	  0.063286573	1.012970E+02	  0.063286573	2.974100E+01	  0.063286573	3.142600E+01
218	  0.063486971	-7.207000E+00	  0.063486971	1.010670E+02	  0.063486971	2.982200E+01	  0.063486971	3.152700E+01
219	  0.063687377	-7.211000E+00	  0.063687377	1.008200E+02	  0.063687377	2.991600E+01	  0.063687377	3.163000E+01
220	  0.063887775	-7.209000E+00	  0.063887775	1.005710E+02	  0.063887775	2.999200E+01	  0.063887775	3.174700E+01
221	  0.064088173	-7.211000E+00	  0.064088173	1.003150E+02	  0.064088173	3.008400E+01	  0.064088173	3.185900E+01
222	  0.064288579	-7.215000E+00	  0.064288579	1.000170E+02	  0.064288579	3.019700E+01	  0.064288579	3.198600E+01
223	  0.064488977	-7.212000E+00	  0.064488977	9.975100E+01	  0.064488977	3.027600E+01	  0.064488977	3.211500E+01
224	  0.064689375	-7.210000E+00	  0.064689375	9.951900E+01	  0.064689375	3.034900E+01	  0.064689375	3.222500E+01
225	  0.064889781	-7.208000E+00	  0.064889781	9.925700E+01	  0.064889781	3.043400E+01	  0.064889781	3.234900E+01
226	  0.065090179	-7.204000E+00	  0.065090179	9.901700E+01	  0.065090179	3.050300E+01	  0.065090179	3.246900E+01
227	  0.065290578	-7.202000E+00	  0.065290578	9.879300E+01	  0.065290578	3.057500E+01	  0.065290578	3.257500E+01
228	  0.065490983	-7.200000E+00	  0.065490983	9.856300E+01	  0.065490983	3.065000E+01	  0.065490983	3.268600E+01
229	  0.065691382	-7.201000E+00	  0.065691382	9.831700E+01	  0.065691382	3.073900E+01	  0.065691382	3.279600E+01
230	  0.065891780	-7.200000E+00	  0.065891780	9.810100E+01	  0.065891780	3.081200E+01	  0.065891780	3.289700E+01
231	  0.066092186	-7.198000E+00	  0.066092186	9.786500E+01	  0.066092186	3.088900E+01	  0.066092186	3.301100E+01
232	  0.066292584	-7.194000E+00	  0.066292584	9.759200E+01	  0.066292584	3.097500E+01	  0.066292584	3.314500E+01
233	  0.066492982	-7.193000E+00	  0.066492982	9.736700E+01	  0.066492982	3.105300E+01	  0.066492982	3.325200E+01
234	  0.066693388	-7.195000E+00	  0.066693388	9.712000E+01	  0.066693388	3.114800E+01	  0.066693388	3.336200E+01
235	  0.066893786	-7.191000E+00	  0.066893786	9.684600E+01	  0.066893786	3.123700E+01	  0.066893786	3.349700E+01
236	  0.067094192	-7.190000E+00	  0.067094192	9.662900E+01	  0.067094192	3.131200E+01	  0.067094192	3.360000E+01
237	  0.067294590	-7.189000E+00	  0.067294590	9.641000E+01	  0.067294590	3.139000E+01	  0.067294590	3.370400E+01
238	  0.067494988	-7.179000E+00	  0.067494988	9.615300E+01	  0.067494988	3.145400E+01	  0.067494988	3.384700E+01
239	  0.067695394	-7.179000E+00	  0.067695394	9.595400E+01	  0.067695394	3.153000E+01	  0.067695394	3.393800E+01
240	  0.067895792	-7.172000E+00	  0.067895792	9.573600E+01	  0.067895792	3.158800E+01	  0.067895792	3.405900E+01
241	  0.068096191	-7.176000E+00	  0.068096191	9.553500E+01	  0.068096191	3.167800E+01	  0.068096191	3.414100E+01
242	  0.068296596	-7.173000E+00	  0.068296596	9.536200E+01	  0.068296596	3.173300E+01	  0.068296596	3.422900E+01
243	  0.068496995	-7.181000E+00	  0.068496995	9.516000E+01	  0.068496995	3.183400E+01	  0.068496995	3.430300E+01
244	  0.068697393	-7.183000E+00	  0.068697393	9.489800E+01	  0.068697393	3.194000E+01	  0.068697393	3.442000E+01
245	  0.068897791	-7.182000E+00	  0.068897791	9.468800E+01	  0.068897791	3.201800E+01	  0.068897791	3.452000E+01
246	  0.069098189	-7.187000E+00	  0.069098189	9.444800E+01	  0.069098189	3.212800E+01	  0.069098189	3.461800E+01
247	  0.069298595	-7.194000E+00	  0.069298595	9.420300E+01	  0.069298595	3.224400E+01	  0.069298595	3.471500E+01
248	  0.069498993	-7.198000E+00	  0.069498993	9.389600E+01	  0.069498993	3.237800E+01	  0.069498993	3.484600E+01
249	  0.069699399	-7.200000E+00	  0.069699399	9.368400E+01	  0.069699399	3.246800E+01	  0.069699399	3.494000E+01
250	  0.069899797	-7.201000E+00	  0.069899797	9.340300E+01	  0.069899797	3.258100E+01	  0.069899797	3.506900E+01
251	  0.070100196	-7.195000E+00	  0.070100196	9.312200E+01	  0.070100196	3.267600E+01	  0.070100196	3.521500E+01
252	  0.070300601	-7.198000E+00	  0.070300601	9.286200E+01	  0.070300601	3.278800E+01	  0.070300601	3.533000E+01
253	  0.070501000	-7.192000E+00	  0.070501000	9.262300E+01	  0.070501000	3.286700E+01	  0.070501000	3.545700E+01
254	  0.070701398	-7.192000E+00	  0.070701398	9.238300E+01	  0.070701398	3.296500E+01	  0.070701398	3.557000E+01
255	  0.070901804	-7.192000E+00	  0.070901804	9.214600E+01	  0.070901804	3.306400E+01	  0.070901804	3.567900E+01
256	  0.071102202	-7.182000E+00	  0.071102202	9.190600E+01	  0.071102202	3.313200E+01	  0.071102202	3.581800E+01
257	  0.071302600	-7.188000E+00	  0.071302600	9.171700E+01	  0.071302600	3.322900E+01	  0.071302600	3.589100E+01
258	  0.071503006	-7.189000E+00	  0.071503006	9.141400E+01	  0.071503006	3.335800E+01	  0.071503006	3.603100E+01
259	  0.071703404	-7.184000E+00	  0.071703404	9.117600E+01	  0.071703404	3.344200E+01	  0.071703404	3.615700E+01
260	  0.071903802	-7.183000E+00	  0.071903802	9.089900E+01	  0.071903802	3.355800E+01	  0.071903802	3.628800E+01
261	  0.072104208	-7.181000E+00	  0.072104208	9.066300E+01	  0.072104208	3.365100E+01	  0.072104208	3.640600E+01
262	  0.072304606	-7.182000E+00	  0.072304606	9.040500E+01	  0.072304606	3.376600E+01	  0.072304606	3.652300E+01
263	  0.072505005	-7.183000E+00	  0.072505005	9.021300E+01	  0.072505005	3.385200E+01	  0.072505005	3.661100E+01
264	  0.072705410	-7.174000E+00	  0.072705410	8.995300E+01	  0.072705410	3.393500E+01	  0.072705410	3.676100E+01
265	  0.072905809	-7.175000E+00	  0.072905809	8.973800E+01	  0.072905809	3.403400E+01	  0.072905809	3.685700E+01
266	  0.073106214	-7.166000E+00	  0.073106214	8.948600E+01	  0.073106214	3.411700E+01	  0.073106214	3.700200E+01
267	  0.073306613	-7.161000E+00	  0.073306613	8.929600E+01	  0.073306613	3.418300E+01	  0.073306613	3.710800E+01
268	  0.073507011	-7.160000E+00	  0.073507011	8.908700E+01	  0.073507011	3.427200E+01	  0.073507011	3.721000E+01
269	  0.073707417	-7.158000E+00	  0.073707417	8.887500E+01	  0.073707417	3.436200E+01	  0.073707417	3.731500E+01
270	  0.073907815	-7.161000E+00	  0.073907815	8.865800E+01	  0.073907815	3.447000E+01	  0.073907815	3.740800E+01
271	  0.074108213	-7.155000E+00	  0.074108213	8.843900E+01	  0.074108213	3.454900E+01	  0.074108213	3.753000E+01
272	  0.074308619	-7.161000E+00	  0.074308619	8.818700E+01	  0.074308619	3.468100E+01	  0.074308619	3.763400E+01
273	  0.074509017	-7.165000E+00	  0.074509017	8.795800E+01	  0.074509017	3.480000E+01	  0.074509017	3.772700E+01
274	  0.074709415	-7.171000E+00	  0.074709415	8.770400E+01	  0.074709415	3.493500E+01	  0.074709415	3.783000E+01
275	  0.074909821	-7.169000E+00	  0.074909821	8.747200E+01	  0.074909821	3.503500E+01	  0.074909821	3.794700E+01
276	  0.075110219	-7.177000E+00	  0.075110219	8.721500E+01	  0.075110219	3.517900E+01	  0.075110219	3.804500E+01
277	  0.075310618	-7.175000E+00	  0.075310618	8.692700E+01	  0.075310618	3.530900E+01	  0.075310618	3.818600E+01
278	  0.075511023	-7.175000E+00	  0.075511023	8.672100E+01	  0.075511023	3.540800E+01	  0.075511023	3.828200E+01
279	  0.075711422	-7.176000E+00	  0.075711422	8.642000E+01	  0.075711422	3.555200E+01	  0.075711422	3.842300E+01
280	  0.075911827	-7.169000E+00	  0.075911827	8.622200E+01	  0.075911827	3.562700E+01	  0.075911827	3.853700E+01
281	  0.076112226	-7.169000E+00	  0.076112226	8.599300E+01	  0.076112226	3.573400E+01	  0.076112226	3.864900E+01
282	  0.076312624	-7.162000E+00	  0.076312624	8.576100E+01	  0.076312624	3.582700E+01	  0.076312624	3.877900E+01
283	  0.076513030	-7.167000E+00	  0.076513030	8.552300E+01	  0.076513030	3.595700E+01	  0.076513030	3.887700E+01
284	  0.076713428	-7.157000E+00	  0.076713428	8.529500E+01	  0.076713428	3.603900E+01	  0.076713428	3.901600E+01
285	  0.076913826	-7.162000E+00	  0.076913826	8.506400E+01	  0.076913826	3.616600E+01	  0.076913826	3.911100E+01
286	  0.077114232	-7.165000E+00	  0.077114232	8.483200E+01	  0.077114232	3.629200E+01	  0.077114232	3.921000E+01
287	  0.077314630	-7.165000E+00	  0.077314630	8.457600E+01	  0.077314630	3.642000E+01	  0.077314630	3.933100E+01
288	  0.077515028	-7.164000E+00	  0.077515028	8.431400E+01	  0.077515028	3.654800E+01	  0.077515028	3.946000E+01
289	  0.077715434	-7.169000E+00	  0.077715434	8.405300E+01	  0.077715434	3.669500E+01	  0.077715434	3.956700E+01
290	  0.077915832	-7.162000E+00	  0.077915832	8.383100E+01	  0.077915832	3.678500E+01	  0.077915832	3.969600E+01
291	  0.078116231	-7.164000E+00	  0.078116231	8.356700E+01	  0.078116231	3.692700E+01	  0.078116231	3.981500E+01
292	  0.078316636	-7.163000E+00	  0.078316636	8.333600E+01	  0.078316636	3.704300E+01	  0.078316636	3.992800E+01
293	  0.078517035	-7.161000E+00	  0.078517035	8.308600E+01	  0.078517035	3.716700E+01	  0.078517035	4.005300E+01
294	  0.078717433	-7.155000E+00	  0.078717433	8.283600E+01	  0.078717433	3.727800E+01	  0.078717433	4.019300E+01
295	  0.078917839	-7.155000E+00	  0.078917839	8.266800E+01	  0.078917839	3.736500E+01	  0.078917839	4.027400E+01
296	  0.079118237	-7.154000E+00	  0.079118237	8.241800E+01	  0.079118237	3.749300E+01	  0.079118237	4.039700E+01
297	  0.079318643	-7.151000E+00	  0.079318643	8.220500E+01	  0.079318643	3.759800E+01	  0.079318643	4.050700E+01
298	  0.079519041	-7.153000E+00	  0.079519041	8.196200E+01	  0.079519041	3.773200E+01	  0.079519041	4.061800E+01
299	  0.079719439	-7.153000E+00	  0.079719439	8.170300E+01	  0.079719439	3.787200E+01	  0.079719439	4.074000E+01
300	  0.079919845	-7.161000E+00	  0.079919845	8.146100E+01	  0.079919845	3.802800E+01	  0.079919845	4.082600E+01
301	  0.080120243	-7.163000E+00	  0.080120243	8.121800E+01	  0.080120243	3.816600E+01	  0.080120243	4.093500E+01
302	  0.080320641	-7.169000E+00	  0.080320641	8.095800E+01	  0.080320641	3.832800E+01	  0.080320641	4.103500E+01
303	  0.080521047	-7.167000E+00	  0.080521047	8.065900E+01	  0.080521047	3.848700E+01	  0.080521047	4.118400E+01
304	  0.080721445	-7.167000E+00	  0.080721445	8.041400E+01	  0.080721445	3.862100E+01	  0.080721445	4.130100E+01
305	  0.080921844	-7.167000E+00	  0.080921844	8.013800E+01	  0.080921844	3.877500E+01	  0.080921844	4.143300E+01
306	  0.081122249	-7.159000E+00	  0.081122249	7.985200E+01	  0.081122249	3.891200E+01	  0.081122249	4.159800E+01
307	  0.081322648	-7.156000E+00	  0.081322648	7.962500E+01	  0.081322648	3.903100E+01	  0.081322648	4.171600E+01
308	  0.081523046	-7.151000E+00	  0.081523046	7.939800E+01	  0.081523046	3.914600E+01	  0.081523046	4.184000E+01
309	  0.081723452	-7.145000E+00	  0.081723452	7.915400E+01	  0.081723452	3.926700E+01	  0.081723452	4.198000E+01
310	  0.081923850	-7.143000E+00	  0.081923850	7.894500E+01	  0.081923850	3.938000E+01	  0.081923850	4.208800E+01
311	  0.082124248	-7.151000E+00	  0.082124248	7.870600E+01	  0.082124248	3.954600E+01	  0.082124248	4.216900E+01
312	  0.082324654	-7.142000E+00	  0.082324654	7.845700E+01	  0.082324654	3.966300E+01	  0.082324654	4.232100E+01
313	  0.082525052	-7.144000E+00	  0.082525052	7.823800E+01	  0.082525052	3.979600E+01	  0.082525052	4.242000E+01
314	  0.082725458	-7.146000E+00	  0.082725458	7.798100E+01	  0.082725458	3.995400E+01	  0.082725458	4.253400E+01
315	  0.082925856	-7.145000E+00	  0.082925856	7.774400E+01	  0.082925856	4.009400E+01	  0.082925856	4.264800E+01
316	  0.083126254	-7.142000E+00	  0.083126254	7.751600E+01	  0.083126254	4.022000E+01	  0.083126254	4.276900E+01
317	  0.083326660	-7.148000E+00	  0.083326660	7.727600E+01	  0.083326660	4.038400E+01	  0.083326660	4.285700E+01
318	  0.083527058	-7.141000E+00	  0.083527058	7.700400E+01	  0.083527058	4.052600E+01	  0.083527058	4.301500E+01
319	  0.083727457	-7.143000E+00	  0.083727457	7.677400E+01	  0.083727457	4.067300E+01	  0.083727457	4.311400E+01
320	  0.083927862	-7.141000E+00	  0.083927862	7.652800E+01	  0.083927862	4.081800E+01	  0.083927862	4.323900E+01
321	  0.084128261	-7.139000E+00	  0.084128261	7.630600E+01	  0.084128261	4.095000E+01	  0.084128261	4.335200E+01
322	  0.084328659	-7.138000E+00	  0.084328659	7.604200E+01	  0.084328659	4.111000E+01	  0.084328659	4.348000E+01
323	  0.084529065	-7.135000E+00	  0.084529065	7.587700E+01	  0.084529065	4.120500E+01	  0.084529065	4.356900E+01
324	  0.084729463	-7.129000E+00	  0.084729463	7.561800E+01	  0.084729463	4.134800E+01	  0.084729463	4.371700E+01
325	  0.084929861	-7.137000E+00	  0.084929861	7.537300E+01	  0.084929861	4.152700E+01	  0.084929861	4.380000E+01
326	  0.085130267	-7.141000E+00	  0.085130267	7.515200E+01	  0.085130267	4.168100E+01	  0.085130267	4.388600E+01
327	  0.085330658	-7.139000E+00	  0.085330658	7.488400E+01	  0.085330658	4.184700E+01	  0.085330658	4.402100E+01
328	  0.085531056	-7.143000E+00	  0.085531056	7.463400E+01	  0.085531056	4.201900E+01	  0.085531056	4.412300E+01
329	  0.085731462	-7.141000E+00	  0.085731462	7.442400E+01	  0.085731462	4.215100E+01	  0.085731462	4.422600E+01
330	  0.085931860	-7.145000E+00	  0.085931860	7.411900E+01	  0.085931860	4.236000E+01	  0.085931860	4.435500E+01
331	  0.086132258	-7.144000E+00	  0.086132258	7.385400E+01	  0.086132258	4.253300E+01	  0.086132258	4.448200E+01
332	  0.086332664	-7.143000E+00	  0.086332664	7.358800E+01	  0.086332664	4.270500E+01	  0.086332664	4.461100E+01
333	  0.086533062	-7.134000E+00	  0.086533062	7.334500E+01	  0.086533062	4.284000E+01	  0.086533062	4.476400E+01
334	  0.086733460	-7.125000E+00	  0.086733460	7.307500E+01	  0.086733460	4.299500E+01	  0.086733460	4.492600E+01
335	  0.086933866	-7.123000E+00	  0.086933866	7.291100E+01	  0.086933866	4.309800E+01	  0.086933866	4.501500E+01
336	  0.087134264	-7.115000E+00	  0.087134264	7.263000E+01	  0.087134264	4.326500E+01	  0.087134264	4.518100E+01
337	  0.087334670	-7.118000E+00	  0.087334670	7.243300E+01	  0.087334670	4.340900E+01	  0.087334670	4.525900E+01
338	  0.087535068	-7.119000E+00	  0.087535068	7.222100E+01	  0.087535068	4.355800E+01	  0.087535068	4.535300E+01
339	  0.087735467	-7.116000E+00	  0.087735467	7.198700E+01	  0.087735467	4.371200E+01	  0.087735467	4.547300E+01
340	  0.087935872	-7.119000E+00	  0.087935872	7.176000E+01	  0.087935872	4.387900E+01	  0.087935872	4.556500E+01
341	  0.088136271	-7.116000E+00	  0.088136271	7.153500E+01	  0.088136271	4.402500E+01	  0.088136271	4.568600E+01
342	  0.088336669	-7.120000E+00	  0.088336669	7.132300E+01	  0.088336669	4.418800E+01	  0.088336669	4.576300E+01
343	  0.088537075	-7.121000E+00	  0.088537075	7.101500E+01	  0.088537075	4.441000E+01	  0.088537075	4.590000E+01
344	  0.088737473	-7.118000E+00	  0.088737473	7.079400E+01	  0.088737473	4.455900E+01	  0.088737473	4.601400E+01
345	  0.088937871	-7.123000E+00	  0.088937871	7.053400E+01	  0.088937871	4.475900E+01	  0.088937871	4.611400E+01
346	  0.089138277	-7.118000E+00	  0.089138277	7.029900E+01	  0.089138277	4.491300E+01	  0.089138277	4.624500E+01
347	  0.089338675	-7.116000E+00	  0.089338675	7.006600E+01	  0.089338675	4.507800E+01	  0.089338675	4.635800E+01
348	  0.089539073	-7.113000E+00	  0.089539073	6.983500E+01	  0.089539073	4.523800E+01	  0.089539073	4.647900E+01
349	  0.089739479	-7.115000E+00	  0.089739479	6.962900E+01	  0.089739479	4.539500E+01	  0.089739479	4.656300E+01
350	  0.089939877	-7.109000E+00	  0.089939877	6.935000E+01	  0.089939877	4.558400E+01	  0.089939877	4.671800E+01
351	  0.090140276	-7.116000E+00	  0.090140276	6.912000E+01	  0.090140276	4.577600E+01	  0.090140276	4.678900E+01
352	  0.090340681	-7.113000E+00	  0.090340681	6.888700E+01	  0.090340681	4.594300E+01	  0.090340681	4.690900E+01
353	  0.090541080	-7.114000E+00	  0.090541080	6.863800E+01	  0.090541080	4.613400E+01	  0.090541080	4.701500E+01
354	  0.090741485	-7.117000E+00	  0.090741485	6.841400E+01	  0.090741485	4.631300E+01	  0.090741485	4.710100E+01
355	  0.090941884	-7.117000E+00	  0.090941884	6.815700E+01	  0.090941884	4.650900E+01	  0.090941884	4.721700E+01
356	  0.091142282	-7.124000E+00	  0.091142282	6.788600E+01	  0.091142282	4.673600E+01	  0.091142282	4.730600E+01
357	  0.091342688	-7.121000E+00	  0.091342688	6.763300E+01	  0.091342688	4.692500E+01	  0.091342688	4.743200E+01
358	  0.091543086	-7.120000E+00	  0.091543086	6.737600E+01	  0.091543086	4.712100E+01	  0.091543086	4.755200E+01
359	  0.091743484	-7.110000E+00	  0.091743484	6.710500E+01	  0.091743484	4.730600E+01	  0.091743484	4.772100E+01
360	  0.091943890	-7.105000E+00	  0.091943890	6.689500E+01	  0.091943890	4.745500E+01	  0.091943890	4.784400E+01
361	  0.092144288	-7.102000E+00	  0.092144288	6.666700E+01	  0.092144288	4.762800E+01	  0.092144288	4.796000E+01
362	  0.092344686	-7.096000E+00	  0.092344686	6.645400E+01	  0.092344686	4.778200E+01	  0.092344686	4.808500E+01
363	  0.092545092	-7.091000E+00	  0.092545092	6.621000E+01	  0.092545092	4.796400E+01	  0.092545092	4.821800E+01
364	  0.092745490	-7.089000E+00	  0.092745490	6.600800E+01	  0.092745490	4.812300E+01	  0.092745490	4.831500E+01
365	  0.092945889	-7.091000E+00	  0.092945889	6.583000E+01	  0.092945889	4.827200E+01	  0.092945889	4.838700E+01
366	  0.093146294	-7.083000E+00	  0.093146294	6.557300E+01	  0.093146294	4.846100E+01	  0.093146294	4.853900E+01
367	  0.093346693	-7.091000E+00	  0.093346693	6.537300E+01	  0.093346693	4.864800E+01	  0.093346693	4.858300E+01
368	  0.093547091	-7.085000E+00	  0.093547091	6.513100E+01	  0.093547091	4.883100E+01	  0.093547091	4.872200E+01
369	  0.093747497	-7.094000E+00	  0.093747497	6.494100E+01	  0.093747497	4.901500E+01	  0.093747497	4.875300E+01
370	  0.093947895	-7.088000E+00	  0.093947895	6.470700E+01	  0.093947895	4.919300E+01	  0.093947895	4.889000E+01
371	  0.094148301	-7.095000E+00	  0.094148301	6.445200E+01	  0.094148301	4.942700E+01	  0.094148301	4.896100E+01
372	  0.094348699	-7.088000E+00	  0.094348699	6.419200E+01	  0.094348699	4.962800E+01	  0.094348699	4.911200E+01
373	  0.094549097	-7.090000E+00	  0.094549097	6.398900E+01	  0.094549097	4.980800E+01	  0.094549097	4.918500E+01
374	  0.094749503	-7.086000E+00	  0.094749503	6.377800E+01	  0.094749503	4.997600E+01	  0.094749503	4.930000E+01
375	  0.094949901	-7.088000E+00	  0.094949901	6.353500E+01	  0.094949901	5.019000E+01	  0.094949901	4.939200E+01
376	  0.095150299	-7.086000E+00	  0.095150299	6.328500E+01	  0.095150299	5.040300E+01	  0.095150299	4.950800E+01
377	  0.095350705	-7.085000E+00	  0.095350705	6.306900E+01	  0.095350705	5.058800E+01	  0.095350705	4.960500E+01
378	  0.095551103	-7.090000E+00	  0.095551103	6.285300E+01	  0.095551103	5.079400E+01	  0.095551103	4.966400E+01
379	  0.095751502	-7.087000E+00	  0.095751502	6.259300E+01	  0.095751502	5.101500E+01	  0.095751502	4.978800E+01
380	  0.095951907	-7.092000E+00	  0.095951907	6.235100E+01	  0.095951907	5.124400E+01	  0.095951907	4.985900E+01
381	  0.096152306	-7.093000E+00	  0.096152306	6.216000E+01	  0.096152306	5.141500E+01	  0.096152306	4.993600E+01
382	  0.096352704	-7.093000E+00	  0.096352704	6.187300E+01	  0.096352704	5.167500E+01	  0.096352704	5.004900E+01
383	  0.096553110	-7.093000E+00	  0.096553110	6.161800E+01	  0.096553110	5.190600E+01	  0.096553110	5.015400E+01
384	  0.096753508	-7.097000E+00	  0.096753508	6.132900E+01	  0.096753508	5.217900E+01	  0.096753508	5.025000E+01
385	  0.096953906	-7.089000E+00	  0.096953906	6.111100E+01	  0.096953906	5.235900E+01	  0.096953906	5.038300E+01
386	  0.097154312	-7.088000E+00	  0.097154312	6.088900E+01	  0.097154312	5.256000E+01	  0.097154312	5.048100E+01
387	  0.097354710	-7.086000E+00	  0.097354710	6.064300E+01	  0.097354710	5.278500E+01	  0.097354710	5.058700E+01
388	  0.097555116	-7.082000E+00	  0.097555116	6.039000E+01	  0.097555116	5.301200E+01	  0.097555116	5.071000E+01
389	  0.097755514	-7.085000E+00	  0.097755514	6.017400E+01	  0.097755514	5.322100E+01	  0.097755514	5.078000E+01
390	  0.097955912	-7.080000E+00	  0.097955912	5.994300E+01	  0.097955912	5.342800E+01	  0.097955912	5.089900E+01
391	  0.098156318	-7.073000E+00	  0.098156318	5.972300E+01	  0.098156318	5.361900E+01	  0.098156318	5.103100E+01
392	  0.098356716	-7.078000E+00	  0.098356716	5.950700E+01	  0.098356716	5.383700E+01	  0.098356716	5.108500E+01
393	  0.098557115	-7.076000E+00	  0.098557115	5.927900E+01	  0.098557115	5.405200E+01	  0.098557115	5.118400E+01
394	  0.098757520	-7.076000E+00	  0.098757520	5.905500E+01	  0.098757520	5.427100E+01	  0.098757520	5.126600E+01
395	  0.098957919	-7.083000E+00	  0.098957919	5.883000E+01	  0.098957919	5.450600E+01	  0.098957919	5.131100E+01
396	  0.099158317	-7.082000E+00	  0.099158317	5.856600E+01	  0.099158317	5.476400E+01	  0.099158317	5.141100E+01
397	  0.099358723	-7.079000E+00	  0.099358723	5.834000E+01	  0.099358723	5.497900E+01	  0.099358723	5.151800E+01
398	  0.099559121	-7.081000E+00	  0.099559121	5.810500E+01	  0.099559121	5.521600E+01	  0.099559121	5.159200E+01
399	  0.099759519	-7.081000E+00	  0.099759519	5.786500E+01	  0.099759519	5.545500E+01	  0.099759519	5.168200E+01
400	  0.099959925	-7.070000E+00	  0.099959925	5.762000E+01	  0.099959925	5.567400E+01	  0.099959925	5.184500E+01
401	  0.100160323	-7.074000E+00	  0.100160323	5.734900E+01	  0.100160323	5.595800E+01	  0.100160323	5.191500E+01
402	  0.100360721	-7.059000E+00	  0.100360721	5.713400E+01	  0.100360721	5.614100E+01	  0.100360721	5.209400E+01
403	  0.100561127	-7.076000E+00	  0.100561127	5.688200E+01	  0.100561127	5.643800E+01	  0.100561127	5.207000E+01
404	  0.100761525	-7.067000E+00	  0.100761525	5.670900E+01	  0.100761525	5.659600E+01	  0.100761525	5.219100E+01
405	  0.100961931	-7.073000E+00	  0.100961931	5.641400E+01	  0.100961931	5.691500E+01	  0.100961931	5.225200E+01
406	  0.101162329	-7.073000E+00	  0.101162329	5.616400E+01	  0.101162329	5.717600E+01	  0.101162329	5.233900E+01
407	  0.101362728	-7.069000E+00	  0.101362728	5.586700E+01	  0.101362728	5.747900E+01	  0.101362728	5.246500E+01
408	  0.101563133	-7.072000E+00	  0.101563133	5.563600E+01	  0.101563133	5.772900E+01	  0.101563133	5.252600E+01
409	  0.101763532	-7.072000E+00	  0.101763532	5.542300E+01	  0.101763532	5.795500E+01	  0.101763532	5.259500E+01
410	  0.101963930	-7.068000E+00	  0.101963930	5.515600E+01	  0.101963930	5.823100E+01	  0.101963930	5.271500E+01
411	  0.102164336	-7.070000E+00	  0.102164336	5.491900E+01	  0.102164336	5.849000E+01	  0.102164336	5.277700E+01
412	  0.102364734	-7.068000E+00	  0.102364734	5.471400E+01	  0.102364734	5.870800E+01	  0.102364734	5.285500E+01
413	  0.102565132	-7.059000E+00	  0.102565132	5.440300E+01	  0.102565132	5.902700E+01	  0.102565132	5.301800E+01
414	  0.102765530	-7.051000E+00	  0.102765530	5.417300E+01	  0.102765530	5.926100E+01	  0.102765530	5.315500E+01
415	  0.102965929	-7.050000E+00	  0.102965929	5.394600E+01	  0.102965929	5.951000E+01	  0.102965929	5.323000E+01
416	  0.103166327	-7.045000E+00	  0.103166327	5.370700E+01	  0.103166327	5.976500E+01	  0.103166327	5.334200E+01
417	  0.103366733	-7.051000E+00	  0.103366733	5.347600E+01	  0.103366733	6.003400E+01	  0.103366733	5.337100E+01
418	  0.103567131	-7.037000E+00	  0.103567131	5.329100E+01	  0.103567131	6.021500E+01	  0.103567131	5.352400E+01
419	  0.103767529	-7.044000E+00	  0.103767529	5.304200E+01	  0.103767529	6.050900E+01	  0.103767529	5.355000E+01
420	  0.103967935	-7.032000E+00	  0.103967935	5.283400E+01	  0.103967935	6.072200E+01	  0.103967935	5.370200E+01
421	  0.104168333	-7.047000E+00	  0.104168333	5.259000E+01	  0.104168333	6.102900E+01	  0.104168333	5.366100E+01
422	  0.104368731	-7.036000E+00	  0.104368731	5.239400E+01	  0.104368731	6.123400E+01	  0.104368731	5.379800E+01
423	  0.104569137	-7.040000E+00	  0.104569137	5.213600E+01	  0.104569137	6.153800E+01	  0.104569137	5.384000E+01
424	  0.104769535	-7.029000E+00	  0.104769535	5.186700E+01	  0.104769535	6.183000E+01	  0.104769535	5.400100E+01
425	  0.104969934	-7.035000E+00	  0.104969934	5.165700E+01	  0.104969934	6.208700E+01	  0.104969934	5.401300E+01
426	  0.105170339	-7.041000E+00	  0.105170339	5.145000E+01	  0.105170339	6.233900E+01	  0.105170339	5.402700E+01
427	  0.105370738	-7.036000E+00	  0.105370738	5.118500E+01	  0.105370738	6.264300E+01	  0.105370738	5.413500E+01
428	  0.105571143	-7.037000E+00	  0.105571143	5.097300E+01	  0.105571143	6.289700E+01	  0.105571143	5.418200E+01
429	  0.105771542	-7.040000E+00	  0.105771542	5.074900E+01	  0.105771542	6.317000E+01	  0.105771542	5.421100E+01
430	  0.105971940	-7.034000E+00	  0.105971940	5.049200E+01	  0.105971940	6.346800E+01	  0.105971940	5.432300E+01
431	  0.106172346	-7.037000E+00	  0.106172346	5.020000E+01	  0.106172346	6.382500E+01	  0.106172346	5.437600E+01
432	  0.106372744	-7.034000E+00	  0.106372744	5.003600E+01	  0.106372744	6.401900E+01	  0.106372744	5.443900E+01
433	  0.106573142	-7.037000E+00	  0.106573142	4.980200E+01	  0.106573142	6.430800E+01	  0.106573142	5.447000E+01
434	  0.106773548	-7.028000E+00	  0.106773548	4.959800E+01	  0.106773548	6.454600E+01	  0.106773548	5.458700E+01
435	  0.106973946	-7.032000E+00	  0.106973946	4.934100E+01	  0.106973946	6.486900E+01	  0.106973946	5.461300E+01
436	  0.107174344	-7.032000E+00	  0.107174344	4.913200E+01	  0.107174344	6.512800E+01	  0.107174344	5.465700E+01
437	  0.107374750	-7.026000E+00	  0.107374750	4.893000E+01	  0.107374750	6.537000E+01	  0.107374750	5.475500E+01
438	  0.107575148	-7.027000E+00	  0.107575148	4.868100E+01	  0.107575148	6.568400E+01	  0.107575148	5.479900E+01
439	  0.107775547	-7.028000E+00	  0.107775547	4.845900E+01	  0.107775547	6.596500E+01	  0.107775547	5.483200E+01
440	  0.107975952	-7.031000E+00	  0.107975952	4.825200E+01	  0.107975952	6.623200E+01	  0.107975952	5.484600E+01
441	  0.108176351	-7.021000E+00	  0.108176351	4.800400E+01	  0.108176351	6.653400E+01	  0.108176351	5.498000E+01
442	  0.108376749	-7.020000E+00	  0.108376749	4.778300E+01	  0.108376749	6.681500E+01	  0.108376749	5.503000E+01
443	  0.108577155	-7.026000E+00	  0.108577155	4.757200E+01	  0.108577155	6.709400E+01	  0.108577155	5.502100E+01
444	  0.108777553	-7.015000E+00	  0.108777553	4.734500E+01	  0.108777553	6.737400E+01	  0.108777553	5.515400E+01
445	  0.108977959	-7.017000E+00	  0.108977959	4.713700E+01	  0.108977959	6.764700E+01	  0.108977959	5.517400E+01
446	  0.109178357	-7.028000E+00	  0.109178357	4.687600E+01	  0.109178357	6.800000E+01	  0.109178357	5.512000E+01
447	  0.109378755	-7.024000E+00	  0.109378755	4.668600E+01	  0.109378755	6.824500E+01	  0.109378755	5.518800E+01
448	  0.109579161	-7.026000E+00	  0.109579161	4.643900E+01	  0.109579161	6.857200E+01	  0.109579161	5.520600E+01
449	  0.109779559	-7.024000E+00	  0.109779559	4.621700E+01	  0.109779559	6.886400E+01	  0.109779559	5.525600E+01
450	  0.109979957	-7.019000E+00	  0.109979957	4.599900E+01	  0.109979957	6.915000E+01	  0.109979957	5.533000E+01
451	  0.110180363	-7.024000E+00	  0.110180363	4.574100E+01	  0.110180363	6.950000E+01	  0.110180363	5.532100E+01
452	  0.110380761	-7.035000E+00	  0.110380761	4.544800E+01	  0.110380761	6.990300E+01	  0.110380761	5.525700E+01
453	  0.110581160	-7.026000E+00	  0.110581160	4.524300E+01	  0.110581160	7.017400E+01	  0.110581160	5.536300E+01
454	  0.110781565	-7.029000E+00	  0.110781565	4.500100E+01	  0.110781565	7.050500E+01	  0.110781565	5.535800E+01
455	  0.110981964	-7.026000E+00	  0.110981964	4.471600E+01	  0.110981964	7.089200E+01	  0.110981964	5.541800E+01
456	  0.111182362	-7.026000E+00	  0.111182362	4.448300E+01	  0.111182362	7.121200E+01	  0.111182362	5.544000E+01
457	  0.111382768	-7.021000E+00	  0.111382768	4.426700E+01	  0.111382768	7.150900E+01	  0.111382768	5.549900E+01
458	  0.111583166	-7.015000E+00	  0.111583166	4.397900E+01	  0.111583166	7.190500E+01	  0.111583166	5.558000E+01
459	  0.111783572	-7.024000E+00	  0.111783572	4.372700E+01	  0.111783572	7.226200E+01	  0.111783572	5.551300E+01
460	  0.111983970	-7.022000E+00	  0.111983970	4.353000E+01	  0.111983970	7.253700E+01	  0.111983970	5.553900E+01
461	  0.112184368	-7.012000E+00	  0.112184368	4.333200E+01	  0.112184368	7.281400E+01	  0.112184368	5.564300E+01
462	  0.112384774	-7.010000E+00	  0.112384774	4.306600E+01	  0.112384774	7.319000E+01	  0.112384774	5.567900E+01
463	  0.112585172	-7.007000E+00	  0.112585172	4.285900E+01	  0.112585172	7.348400E+01	  0.112585172	5.571100E+01
464	  0.112785570	-7.005000E+00	  0.112785570	4.260200E+01	  0.112785570	7.385200E+01	  0.112785570	5.573600E+01
465	  0.112985976	-7.004000E+00	  0.112985976	4.234000E+01	  0.112985976	7.423000E+01	  0.112985976	5.575000E+01
466	  0.113186374	-7.013000E+00	  0.113186374	4.215900E+01	  0.113186374	7.449100E+01	  0.113186374	5.567400E+01
467	  0.113386773	-7.001000E+00	  0.113386773	4.194400E+01	  0.113386773	7.480300E+01	  0.113386773	5.578500E+01
468	  0.113587178	-6.998000E+00	  0.113587178	4.171500E+01	  0.113587178	7.513900E+01	  0.113587178	5.581100E+01
469	  0.113787577	-6.997000E+00	  0.113787577	4.149300E+01	  0.113787577	7.546400E+01	  0.113787577	5.582800E+01
470	  0.113987975	-6.990000E+00	  0.113987975	4.128500E+01	  0.113987975	7.577200E+01	  0.113987975	5.589100E+01
471	  0.114188381	-7.000000E+00	  0.114188381	4.101100E+01	  0.114188381	7.617500E+01	  0.114188381	5.578200E+01
472	  0.114388779	-7.005000E+00	  0.114388779	4.085800E+01	  0.114388779	7.640200E+01	  0.114388779	5.572800E+01
473	  0.114589177	-6.999000E+00	  0.114589177	4.063000E+01	  0.114589177	7.674300E+01	  0.114589177	5.577900E+01
474	  0.114789583	-7.000000E+00	  0.114789583	4.039700E+01	  0.114789583	7.709100E+01	  0.114789583	5.575600E+01
475	  0.114989981	-7.000000E+00	  0.114989981	4.020200E+01	  0.114989981	7.738400E+01	  0.114989981	5.573900E+01
476	  0.115190387	-7.005000E+00	  0.115190387	3.995700E+01	  0.115190387	7.775200E+01	  0.115190387	5.567600E+01
477	  0.115390785	-7.007000E+00	  0.115390785	3.972900E+01	  0.115390785	7.809600E+01	  0.115390785	5.564000E+01
478	  0.115591183	-7.007000E+00	  0.115591183	3.948200E+01	  0.115591183	7.847200E+01	  0.115591183	5.560900E+01
479	  0.115791589	-7.006000E+00	  0.115791589	3.923200E+01	  0.115791589	7.885400E+01	  0.115791589	5.560000E+01
480	  0.115991987	-7.009000E+00	  0.115991987	3.898300E+01	  0.115991987	7.923300E+01	  0.115991987	5.554100E+01
481	  0.116192386	-7.008000E+00	  0.116192386	3.874000E+01	  0.116192386	7.960800E+01	  0.116192386	5.551700E+01
482	  0.116392791	-7.001000E+00	  0.116392791	3.851100E+01	  0.116392791	7.996900E+01	  0.116392791	5.556100E+01
483	  0.116593190	-7.009000E+00	  0.116593190	3.826200E+01	  0.116593190	8.034700E+01	  0.116593190	5.543500E+01
484	  0.116793588	-7.009000E+00	  0.116793588	3.801300E+01	  0.116793588	8.073500E+01	  0.116793588	5.539500E+01
485	  0.116993994	-7.007000E+00	  0.116993994	3.779500E+01	  0.116993994	8.107800E+01	  0.116993994	5.538500E+01
486	  0.117194392	-7.002000E+00	  0.117194392	3.753300E+01	  0.117194392	8.149600E+01	  0.117194392	5.538900E+01
487	  0.117394790	-6.999000E+00	  0.117394790	3.728200E+01	  0.117394790	8.189700E+01	  0.117394790	5.536800E+01
488	  0.117595196	-6.998000E+00	  0.117595196	3.708400E+01	  0.117595196	8.221200E+01	  0.117595196	5.533800E+01
489	  0.117795594	-6.992000E+00	  0.117795594	3.687400E+01	  0.117795594	8.255500E+01	  0.117795594	5.535500E+01
490	  0.117995992	-6.991000E+00	  0.117995992	3.662300E+01	  0.117995992	8.295700E+01	  0.117995992	5.531400E+01
491	  0.118196398	-6.993000E+00	  0.118196398	3.638700E+01	  0.118196398	8.333300E+01	  0.118196398	5.523700E+01
492	  0.118396796	-6.989000E+00	  0.118396796	3.617200E+01	  0.118396796	8.368500E+01	  0.118396796	5.522300E+01
493	  0.118597202	-6.992000E+00	  0.118597202	3.594500E+01	  0.118597202	8.404800E+01	  0.118597202	5.513700E+01
494	  0.118797600	-6.983000E+00	  0.118797600	3.575000E+01	  0.118797600	8.437900E+01	  0.118797600	5.517800E+01
495	  0.118997999	-6.982000E+00	  0.118997999	3.550500E+01	  0.118997999	8.477900E+01	  0.118997999	5.511400E+01
496	  0.119198404	-6.985000E+00	  0.119198404	3.530500E+01	  0.119198404	8.510200E+01	  0.119198404	5.503300E+01
497	  0.119398803	-6.984000E+00	  0.119398803	3.508400E+01	  0.119398803	8.546500E+01	  0.119398803	5.497400E+01
498	  0.119599201	-6.980000E+00	  0.119599201	3.486800E+01	  0.119599201	8.582800E+01	  0.119599201	5.494700E+01
499	  0.119799607	-6.984000E+00	  0.119799607	3.464600E+01	  0.119799607	8.618400E+01	  0.119799607	5.482500E+01
500	  0.120000005	-6.984000E+00	  0.120000005	3.441500E+01	  0.120000005	8.656700E+01	  0.120000005	5.475100E+01
