! Anritsu VNA Master:             	Model: MS2036C/10/77
! SN:             	1601066
! /bd0/18may10/bot20.txt
! Existing Calibration Information:
! TYPE:             	Current Settings	Active Cal Settings
! TIME:             	05/10/2018 01:19:48 PM	05/10/2018 01:17:32 PM
! INTERNAL TEMP:    	52.3 C	52.0 C
! # POINTS:         	492	492
! START FREQ:       	20.000 MHz	20.000 MHz
! STOP FREQ:        	118.396 793 MHz	118.396 793 MHz
! SOURCE POWER:     	High	High
! IFBW:             	50 Hz	50 Hz
! AVG FACTOR:       	  1 	  1 
! REF PLANE 1:      	0 mm	0 mm
! REF PLANE 2:      	0 mm	0 mm
! CAL TYPE:         	Full S22	Full S22
! CAL METHOD:       	SOLT	SOLT
! CAL LINE TYPE:    	Coax	Coax
! DUT PORT 1:       	K-Conn(M)	K-Conn(M)
! DUT PORT 2:       	K-Conn(M)	K-Conn(M)
! CAL STATUS:       	OK: Accuracy High	--
! PROP-V:       	0.700
! CABLE LOSS:       	0.000 dB/m
! REF IMPEDANCE:       	50.0
! Trace Specific Parameters:	TR1	TR2	TR3	TR4
! TRACE.#.Y (GRAPH TYPE)	LOG MAG	PHASE	REAL IMPEDANCE	IMAGINARY IMPEDANCE
! TRACE.#.X 	FREQ.GHZ	FREQ.GHZ	FREQ.GHZ	FREQ.GHZ
! S-PARAMETER	S22	S22	S22	S22
! SMOOTH/APERTURE %	0	0	0	0
! WINDOW	NSL	NSL	NSL	NSL
! GATING	OFF	OFF	OFF	OFF
! FGTD	OFF	OFF	OFF	OFF
Marker Information per Trace:	TR1	TR2	TR3	TR4
!MK1	--	"MK1 TR2:  20.000 MHz,PH:154.49°"	--	--
!MK2	--	--	"MK2 TR3:  70.100 200 MHz,Z:(32.415 ohm, 35.222 ohm)"	--
!MK3	--	--	--	--
!MK4	--	--	--	--
!MK5	--	--	--	--
!MK6	--	--	--	--
!MK7	--	--	--	--
!MK8	--	--	--	--
PNT	TR1.FREQ.GHZ	TR1.LOG MAG.dB	TR2.FREQ.GHZ	TR2.PHASE.deg	TR3.FREQ.GHZ	TR3.REAL IMPEDANCE.ohm	TR4.FREQ.GHZ	TR4.IMAGINARY IMPEDANCE.ohm
1	  0.020000000	-7.264000E+00	  0.020000000	1.544900E+02	  0.020000000	2.061600E+01	  0.020000000	9.473000E+00
2	  0.020200402	-7.263000E+00	  0.020200402	1.542420E+02	  0.020200402	2.063200E+01	  0.020200402	9.567000E+00
3	  0.020400802	-7.263000E+00	  0.020400802	1.540000E+02	  0.020400802	2.064800E+01	  0.020400802	9.658000E+00
4	  0.020601204	-7.262000E+00	  0.020601204	1.537360E+02	  0.020601204	2.066300E+01	  0.020601204	9.759000E+00
5	  0.020801604	-7.261000E+00	  0.020801604	1.534930E+02	  0.020801604	2.068000E+01	  0.020801604	9.851000E+00
6	  0.021002004	-7.261000E+00	  0.021002004	1.532390E+02	  0.021002004	2.069700E+01	  0.021002004	9.947000E+00
7	  0.021202406	-7.262000E+00	  0.021202406	1.529900E+02	  0.021202406	2.071800E+01	  0.021202406	1.004100E+01
8	  0.021402806	-7.262000E+00	  0.021402806	1.527480E+02	  0.021402806	2.073400E+01	  0.021402806	1.013300E+01
9	  0.021603208	-7.264000E+00	  0.021603208	1.524880E+02	  0.021603208	2.075900E+01	  0.021603208	1.023000E+01
10	  0.021803608	-7.266000E+00	  0.021803608	1.522360E+02	  0.021803608	2.078200E+01	  0.021803608	1.032500E+01
11	  0.022004008	-7.264000E+00	  0.022004008	1.519970E+02	  0.022004008	2.079600E+01	  0.022004008	1.041700E+01
12	  0.022204408	-7.264000E+00	  0.022204408	1.517290E+02	  0.022204408	2.081600E+01	  0.022204408	1.051900E+01
13	  0.022404809	-7.267000E+00	  0.022404809	1.514920E+02	  0.022404809	2.084200E+01	  0.022404809	1.060700E+01
14	  0.022605211	-7.267000E+00	  0.022605211	1.512400E+02	  0.022605211	2.086100E+01	  0.022605211	1.070300E+01
15	  0.022805611	-7.261000E+00	  0.022805611	1.509810E+02	  0.022805611	2.086800E+01	  0.022805611	1.080400E+01
16	  0.023006011	-7.262000E+00	  0.023006011	1.507350E+02	  0.023006011	2.089000E+01	  0.023006011	1.089700E+01
17	  0.023206413	-7.264000E+00	  0.023206413	1.504920E+02	  0.023206413	2.091300E+01	  0.023206413	1.098900E+01
18	  0.023406813	-7.266000E+00	  0.023406813	1.502140E+02	  0.023406813	2.094000E+01	  0.023406813	1.109400E+01
19	  0.023607215	-7.268000E+00	  0.023607215	1.499900E+02	  0.023607215	2.096500E+01	  0.023607215	1.117800E+01
20	  0.023807615	-7.267000E+00	  0.023807615	1.497560E+02	  0.023807615	2.098000E+01	  0.023807615	1.126800E+01
21	  0.024008015	-7.265000E+00	  0.024008015	1.495000E+02	  0.024008015	2.099800E+01	  0.024008015	1.136700E+01
22	  0.024208417	-7.268000E+00	  0.024208417	1.492510E+02	  0.024208417	2.102500E+01	  0.024208417	1.146100E+01
23	  0.024408817	-7.268000E+00	  0.024408817	1.490000E+02	  0.024408817	2.104600E+01	  0.024408817	1.155700E+01
24	  0.024609219	-7.271000E+00	  0.024609219	1.487520E+02	  0.024609219	2.107400E+01	  0.024609219	1.165000E+01
25	  0.024809619	-7.269000E+00	  0.024809619	1.485140E+02	  0.024809619	2.109100E+01	  0.024809619	1.174200E+01
26	  0.025010020	-7.272000E+00	  0.025010020	1.482660E+02	  0.025010020	2.112000E+01	  0.025010020	1.183500E+01
27	  0.025210422	-7.272000E+00	  0.025210422	1.480300E+02	  0.025210422	2.114000E+01	  0.025210422	1.192600E+01
28	  0.025410822	-7.273000E+00	  0.025410822	1.477570E+02	  0.025410822	2.116700E+01	  0.025410822	1.203000E+01
29	  0.025611224	-7.272000E+00	  0.025611224	1.474990E+02	  0.025611224	2.118900E+01	  0.025611224	1.212900E+01
30	  0.025811624	-7.274000E+00	  0.025811624	1.472570E+02	  0.025811624	2.121500E+01	  0.025811624	1.222100E+01
31	  0.026012026	-7.276000E+00	  0.026012026	1.470010E+02	  0.026012026	2.124300E+01	  0.026012026	1.231800E+01
32	  0.026212426	-7.275000E+00	  0.026212426	1.467380E+02	  0.026212426	2.126400E+01	  0.026212426	1.242000E+01
33	  0.026412826	-7.275000E+00	  0.026412826	1.464960E+02	  0.026412826	2.128700E+01	  0.026412826	1.251300E+01
34	  0.026613226	-7.274000E+00	  0.026613226	1.462470E+02	  0.026613226	2.130900E+01	  0.026613226	1.260900E+01
35	  0.026813626	-7.273000E+00	  0.026813626	1.459890E+02	  0.026813626	2.133000E+01	  0.026813626	1.270900E+01
36	  0.027014028	-7.275000E+00	  0.027014028	1.457530E+02	  0.027014028	2.135700E+01	  0.027014028	1.279900E+01
37	  0.027214428	-7.275000E+00	  0.027214428	1.454880E+02	  0.027214428	2.138200E+01	  0.027214428	1.290100E+01
38	  0.027414829	-7.275000E+00	  0.027414829	1.452350E+02	  0.027414829	2.140800E+01	  0.027414829	1.299800E+01
39	  0.027615231	-7.276000E+00	  0.027615231	1.449790E+02	  0.027615231	2.143500E+01	  0.027615231	1.309600E+01
40	  0.027815631	-7.277000E+00	  0.027815631	1.447260E+02	  0.027815631	2.146100E+01	  0.027815631	1.319400E+01
41	  0.028016033	-7.276000E+00	  0.028016033	1.444790E+02	  0.028016033	2.148300E+01	  0.028016033	1.329000E+01
42	  0.028216433	-7.278000E+00	  0.028216433	1.442270E+02	  0.028216433	2.151300E+01	  0.028216433	1.338600E+01
43	  0.028416833	-7.278000E+00	  0.028416833	1.439790E+02	  0.028416833	2.154000E+01	  0.028416833	1.348100E+01
44	  0.028617235	-7.276000E+00	  0.028617235	1.437340E+02	  0.028617235	2.155900E+01	  0.028617235	1.357800E+01
45	  0.028817635	-7.276000E+00	  0.028817635	1.434800E+02	  0.028817635	2.158600E+01	  0.028817635	1.367600E+01
46	  0.029018037	-7.275000E+00	  0.029018037	1.432320E+02	  0.029018037	2.160900E+01	  0.029018037	1.377300E+01
47	  0.029218437	-7.278000E+00	  0.029218437	1.429930E+02	  0.029218437	2.164100E+01	  0.029218437	1.386400E+01
48	  0.029418837	-7.277000E+00	  0.029418837	1.427390E+02	  0.029418837	2.166600E+01	  0.029418837	1.396300E+01
49	  0.029619239	-7.276000E+00	  0.029619239	1.424800E+02	  0.029619239	2.168900E+01	  0.029619239	1.406500E+01
50	  0.029819639	-7.278000E+00	  0.029819639	1.422330E+02	  0.029819639	2.172200E+01	  0.029819639	1.415900E+01
51	  0.030020041	-7.277000E+00	  0.030020041	1.419810E+02	  0.030020041	2.174700E+01	  0.030020041	1.425800E+01
52	  0.030220442	-7.279000E+00	  0.030220442	1.417440E+02	  0.030220442	2.177600E+01	  0.030220442	1.434900E+01
53	  0.030420844	-7.278000E+00	  0.030420844	1.414900E+02	  0.030420844	2.180200E+01	  0.030420844	1.444900E+01
54	  0.030621244	-7.278000E+00	  0.030621244	1.412380E+02	  0.030621244	2.182900E+01	  0.030621244	1.454700E+01
55	  0.030821642	-7.278000E+00	  0.030821642	1.409940E+02	  0.030821642	2.185700E+01	  0.030821642	1.464200E+01
56	  0.031022044	-7.279000E+00	  0.031022044	1.407360E+02	  0.031022044	2.188800E+01	  0.031022044	1.474200E+01
57	  0.031222444	-7.261000E+00	  0.031222444	1.405700E+02	  0.031222444	2.186000E+01	  0.031222444	1.482100E+01
58	  0.031422846	-7.262000E+00	  0.031422846	1.403230E+02	  0.031422846	2.189200E+01	  0.031422846	1.491600E+01
59	  0.031623244	-7.264000E+00	  0.031623244	1.400640E+02	  0.031623244	2.192700E+01	  0.031623244	1.501600E+01
60	  0.031823646	-7.262000E+00	  0.031823646	1.398280E+02	  0.031823646	2.194800E+01	  0.031823646	1.511000E+01
61	  0.032024048	-7.264000E+00	  0.032024048	1.395590E+02	  0.032024048	2.198400E+01	  0.032024048	1.521400E+01
62	  0.032224450	-7.265000E+00	  0.032224450	1.393180E+02	  0.032224450	2.201700E+01	  0.032224450	1.530800E+01
63	  0.032424849	-7.264000E+00	  0.032424849	1.390710E+02	  0.032424849	2.204200E+01	  0.032424849	1.540600E+01
64	  0.032625251	-7.266000E+00	  0.032625251	1.388100E+02	  0.032625251	2.207900E+01	  0.032625251	1.550700E+01
65	  0.032825653	-7.265000E+00	  0.032825653	1.385590E+02	  0.032825653	2.210600E+01	  0.032825653	1.560600E+01
66	  0.033026051	-7.265000E+00	  0.033026051	1.383060E+02	  0.033026051	2.213800E+01	  0.033026051	1.570500E+01
67	  0.033226453	-7.264000E+00	  0.033226453	1.380560E+02	  0.033226453	2.216600E+01	  0.033226453	1.580500E+01
68	  0.033426855	-7.262000E+00	  0.033426855	1.378190E+02	  0.033426855	2.218800E+01	  0.033426855	1.590100E+01
69	  0.033627257	-7.265000E+00	  0.033627257	1.375660E+02	  0.033627257	2.222800E+01	  0.033627257	1.599700E+01
70	  0.033827655	-7.265000E+00	  0.033827655	1.373250E+02	  0.033827655	2.225700E+01	  0.033827655	1.609300E+01
71	  0.034028057	-7.266000E+00	  0.034028057	1.370590E+02	  0.034028057	2.229400E+01	  0.034028057	1.619700E+01
72	  0.034228459	-7.265000E+00	  0.034228459	1.368130E+02	  0.034228459	2.232300E+01	  0.034228459	1.629500E+01
73	  0.034428857	-7.264000E+00	  0.034428857	1.365590E+02	  0.034428857	2.235300E+01	  0.034428857	1.639600E+01
74	  0.034629259	-7.263000E+00	  0.034629259	1.363100E+02	  0.034629259	2.238200E+01	  0.034629259	1.649600E+01
75	  0.034829661	-7.267000E+00	  0.034829661	1.360770E+02	  0.034829661	2.242100E+01	  0.034829661	1.658600E+01
76	  0.035030060	-7.265000E+00	  0.035030060	1.358240E+02	  0.035030060	2.245000E+01	  0.035030060	1.668700E+01
77	  0.035230462	-7.266000E+00	  0.035230462	1.355740E+02	  0.035230462	2.248500E+01	  0.035230462	1.678600E+01
78	  0.035430863	-7.263000E+00	  0.035430863	1.353150E+02	  0.035430863	2.251300E+01	  0.035430863	1.689100E+01
79	  0.035631265	-7.267000E+00	  0.035631265	1.350780E+02	  0.035631265	2.255300E+01	  0.035631265	1.698200E+01
80	  0.035831664	-7.267000E+00	  0.035831664	1.348170E+02	  0.035831664	2.258900E+01	  0.035831664	1.708600E+01
81	  0.036032066	-7.267000E+00	  0.036032066	1.345660E+02	  0.036032066	2.262100E+01	  0.036032066	1.718600E+01
82	  0.036232468	-7.267000E+00	  0.036232468	1.343410E+02	  0.036232468	2.265200E+01	  0.036232468	1.727600E+01
83	  0.036432866	-7.264000E+00	  0.036432866	1.340840E+02	  0.036432866	2.268000E+01	  0.036432866	1.738100E+01
84	  0.036633268	-7.265000E+00	  0.036633268	1.338500E+02	  0.036633268	2.271600E+01	  0.036633268	1.747300E+01
85	  0.036833670	-7.265000E+00	  0.036833670	1.336010E+02	  0.036833670	2.274900E+01	  0.036833670	1.757300E+01
86	  0.037034072	-7.265000E+00	  0.037034072	1.333560E+02	  0.037034072	2.278500E+01	  0.037034072	1.767100E+01
87	  0.037234470	-7.266000E+00	  0.037234470	1.331170E+02	  0.037234470	2.282100E+01	  0.037234470	1.776600E+01
88	  0.037434869	-7.264000E+00	  0.037434869	1.328710E+02	  0.037434869	2.285100E+01	  0.037434869	1.786600E+01
89	  0.037635271	-7.266000E+00	  0.037635271	1.326220E+02	  0.037635271	2.289100E+01	  0.037635271	1.796400E+01
90	  0.037835669	-7.263000E+00	  0.037835669	1.323800E+02	  0.037835669	2.291900E+01	  0.037835669	1.806400E+01
91	  0.038036071	-7.264000E+00	  0.038036071	1.321290E+02	  0.038036071	2.295700E+01	  0.038036071	1.816400E+01
92	  0.038236473	-7.264000E+00	  0.038236473	1.318830E+02	  0.038236473	2.299200E+01	  0.038236473	1.826300E+01
93	  0.038436871	-7.262000E+00	  0.038436871	1.316420E+02	  0.038436871	2.302300E+01	  0.038436871	1.836200E+01
94	  0.038637273	-7.262000E+00	  0.038637273	1.313840E+02	  0.038637273	2.306100E+01	  0.038637273	1.846600E+01
95	  0.038837675	-7.264000E+00	  0.038837675	1.311440E+02	  0.038837675	2.310200E+01	  0.038837675	1.856100E+01
96	  0.039038073	-7.262000E+00	  0.039038073	1.309010E+02	  0.039038073	2.313400E+01	  0.039038073	1.866000E+01
97	  0.039238475	-7.264000E+00	  0.039238475	1.306510E+02	  0.039238475	2.317800E+01	  0.039238475	1.876000E+01
98	  0.039438877	-7.262000E+00	  0.039438877	1.304100E+02	  0.039438877	2.320900E+01	  0.039438877	1.885900E+01
99	  0.039639279	-7.263000E+00	  0.039639279	1.301710E+02	  0.039639279	2.324800E+01	  0.039639279	1.895400E+01
100	  0.039839678	-7.261000E+00	  0.039839678	1.299250E+02	  0.039839678	2.327900E+01	  0.039839678	1.905700E+01
101	  0.040040080	-7.260000E+00	  0.040040080	1.296700E+02	  0.040040080	2.331800E+01	  0.040040080	1.916000E+01
102	  0.040240481	-7.262000E+00	  0.040240481	1.294350E+02	  0.040240481	2.335800E+01	  0.040240481	1.925400E+01
103	  0.040440880	-7.261000E+00	  0.040440880	1.291950E+02	  0.040440880	2.339400E+01	  0.040440880	1.935300E+01
104	  0.040641282	-7.260000E+00	  0.040641282	1.289530E+02	  0.040641282	2.343000E+01	  0.040641282	1.945200E+01
105	  0.040841684	-7.259000E+00	  0.040841684	1.287120E+02	  0.040841684	2.346600E+01	  0.040841684	1.955100E+01
106	  0.041042086	-7.260000E+00	  0.041042086	1.284660E+02	  0.041042086	2.350800E+01	  0.041042086	1.965000E+01
107	  0.041242484	-7.260000E+00	  0.041242484	1.282200E+02	  0.041242484	2.354800E+01	  0.041242484	1.975000E+01
108	  0.041442886	-7.259000E+00	  0.041442886	1.279690E+02	  0.041442886	2.358600E+01	  0.041442886	1.985400E+01
109	  0.041643288	-7.259000E+00	  0.041643288	1.277360E+02	  0.041643288	2.362500E+01	  0.041643288	1.994900E+01
110	  0.041843686	-7.257000E+00	  0.041843686	1.274830E+02	  0.041843686	2.366100E+01	  0.041843686	2.005400E+01
111	  0.042044088	-7.257000E+00	  0.042044088	1.272350E+02	  0.042044088	2.370300E+01	  0.042044088	2.015500E+01
112	  0.042244490	-7.258000E+00	  0.042244490	1.269910E+02	  0.042244490	2.374600E+01	  0.042244490	2.025400E+01
113	  0.042444889	-7.257000E+00	  0.042444889	1.267460E+02	  0.042444889	2.378400E+01	  0.042444889	2.035600E+01
114	  0.042645290	-7.260000E+00	  0.042645290	1.265000E+02	  0.042645290	2.383500E+01	  0.042645290	2.045300E+01
115	  0.042845692	-7.257000E+00	  0.042845692	1.262590E+02	  0.042845692	2.386600E+01	  0.042845692	2.055600E+01
116	  0.043046094	-7.257000E+00	  0.043046094	1.260010E+02	  0.043046094	2.391000E+01	  0.043046094	2.066300E+01
117	  0.043246493	-7.256000E+00	  0.043246493	1.257670E+02	  0.043246493	2.394900E+01	  0.043246493	2.075900E+01
118	  0.043446895	-7.256000E+00	  0.043446895	1.255000E+02	  0.043446895	2.399700E+01	  0.043446895	2.086900E+01
119	  0.043647297	-7.255000E+00	  0.043647297	1.252760E+02	  0.043647297	2.403300E+01	  0.043647297	2.096200E+01
120	  0.043847695	-7.257000E+00	  0.043847695	1.250190E+02	  0.043847695	2.408200E+01	  0.043847695	2.106700E+01
121	  0.044048097	-7.255000E+00	  0.044048097	1.247850E+02	  0.044048097	2.411900E+01	  0.044048097	2.116500E+01
122	  0.044248499	-7.257000E+00	  0.044248499	1.245290E+02	  0.044248499	2.417000E+01	  0.044248499	2.126900E+01
123	  0.044448901	-7.257000E+00	  0.044448901	1.242870E+02	  0.044448901	2.421300E+01	  0.044448901	2.136900E+01
124	  0.044649299	-7.257000E+00	  0.044649299	1.240540E+02	  0.044649299	2.425500E+01	  0.044649299	2.146600E+01
125	  0.044849701	-7.255000E+00	  0.044849701	1.238040E+02	  0.044849701	2.429700E+01	  0.044849701	2.157100E+01
126	  0.045050103	-7.255000E+00	  0.045050103	1.235400E+02	  0.045050103	2.434400E+01	  0.045050103	2.168100E+01
127	  0.045250501	-7.251000E+00	  0.045250501	1.232900E+02	  0.045250501	2.437900E+01	  0.045250501	2.179000E+01
128	  0.045450903	-7.250000E+00	  0.045450903	1.230500E+02	  0.045450903	2.442300E+01	  0.045450903	2.188900E+01
129	  0.045651305	-7.251000E+00	  0.045651305	1.228000E+02	  0.045651305	2.447100E+01	  0.045651305	2.199300E+01
130	  0.045851704	-7.253000E+00	  0.045851704	1.225530E+02	  0.045851704	2.452200E+01	  0.045851704	2.209400E+01
131	  0.046052102	-7.252000E+00	  0.046052102	1.223060E+02	  0.046052102	2.456700E+01	  0.046052102	2.219800E+01
132	  0.046252504	-7.251000E+00	  0.046252504	1.220660E+02	  0.046252504	2.461000E+01	  0.046252504	2.229900E+01
133	  0.046452906	-7.252000E+00	  0.046452906	1.218170E+02	  0.046452906	2.466200E+01	  0.046452906	2.240100E+01
134	  0.046653304	-7.252000E+00	  0.046653304	1.215770E+02	  0.046653304	2.470700E+01	  0.046653304	2.250300E+01
135	  0.046853706	-7.250000E+00	  0.046853706	1.213230E+02	  0.046853706	2.475000E+01	  0.046853706	2.261100E+01
136	  0.047054108	-7.252000E+00	  0.047054108	1.210700E+02	  0.047054108	2.480700E+01	  0.047054108	2.271400E+01
137	  0.047254506	-7.249000E+00	  0.047254506	1.208120E+02	  0.047254506	2.484900E+01	  0.047254506	2.282600E+01
138	  0.047454908	-7.249000E+00	  0.047454908	1.205800E+02	  0.047454908	2.489500E+01	  0.047454908	2.292400E+01
139	  0.047655310	-7.246000E+00	  0.047655310	1.203370E+02	  0.047655310	2.493600E+01	  0.047655310	2.303000E+01
140	  0.047855709	-7.248000E+00	  0.047855709	1.200890E+02	  0.047855709	2.499000E+01	  0.047855709	2.313200E+01
141	  0.048056111	-7.247000E+00	  0.048056111	1.198230E+02	  0.048056111	2.504200E+01	  0.048056111	2.324400E+01
142	  0.048256513	-7.245000E+00	  0.048256513	1.195880E+02	  0.048256513	2.508600E+01	  0.048256513	2.334600E+01
143	  0.048456915	-7.245000E+00	  0.048456915	1.193500E+02	  0.048456915	2.513400E+01	  0.048456915	2.344700E+01
144	  0.048657313	-7.245000E+00	  0.048657313	1.191220E+02	  0.048657313	2.518100E+01	  0.048657313	2.354300E+01
145	  0.048857715	-7.245000E+00	  0.048857715	1.188570E+02	  0.048857715	2.523500E+01	  0.048857715	2.365500E+01
146	  0.049058117	-7.245000E+00	  0.049058117	1.186240E+02	  0.049058117	2.528300E+01	  0.049058117	2.375400E+01
147	  0.049258515	-7.245000E+00	  0.049258515	1.183720E+02	  0.049258515	2.533800E+01	  0.049258515	2.386000E+01
148	  0.049458917	-7.242000E+00	  0.049458917	1.181140E+02	  0.049458917	2.538300E+01	  0.049458917	2.397400E+01
149	  0.049659319	-7.243000E+00	  0.049659319	1.178860E+02	  0.049659319	2.543600E+01	  0.049659319	2.406900E+01
150	  0.049859721	-7.242000E+00	  0.049859721	1.176380E+02	  0.049859721	2.548500E+01	  0.049859721	2.417600E+01
151	  0.050060119	-7.243000E+00	  0.050060119	1.173810E+02	  0.050060119	2.554300E+01	  0.050060119	2.428400E+01
152	  0.050260521	-7.241000E+00	  0.050260521	1.171530E+02	  0.050260521	2.558800E+01	  0.050260521	2.438300E+01
153	  0.050460923	-7.240000E+00	  0.050460923	1.168950E+02	  0.050460923	2.564000E+01	  0.050460923	2.449600E+01
154	  0.050661322	-7.241000E+00	  0.050661322	1.166480E+02	  0.050661322	2.569700E+01	  0.050661322	2.459900E+01
155	  0.050861724	-7.240000E+00	  0.050861724	1.163990E+02	  0.050861724	2.575200E+01	  0.050861724	2.470600E+01
156	  0.051062126	-7.239000E+00	  0.051062126	1.161640E+02	  0.051062126	2.580100E+01	  0.051062126	2.480800E+01
157	  0.051262524	-7.238000E+00	  0.051262524	1.159280E+02	  0.051262524	2.585100E+01	  0.051262524	2.491100E+01
158	  0.051462926	-7.238000E+00	  0.051462926	1.156690E+02	  0.051462926	2.590900E+01	  0.051462926	2.502200E+01
159	  0.051663328	-7.237000E+00	  0.051663328	1.154400E+02	  0.051663328	2.595600E+01	  0.051663328	2.512200E+01
160	  0.051863730	-7.239000E+00	  0.051863730	1.151940E+02	  0.051863730	2.601900E+01	  0.051863730	2.522400E+01
161	  0.052064128	-7.233000E+00	  0.052064128	1.149540E+02	  0.052064128	2.605800E+01	  0.052064128	2.533600E+01
162	  0.052264530	-7.234000E+00	  0.052264530	1.147120E+02	  0.052264530	2.611700E+01	  0.052264530	2.543800E+01
163	  0.052464932	-7.234000E+00	  0.052464932	1.144700E+02	  0.052464932	2.617400E+01	  0.052464932	2.554300E+01
164	  0.052665330	-7.233000E+00	  0.052665330	1.142310E+02	  0.052665330	2.622600E+01	  0.052665330	2.564700E+01
165	  0.052865732	-7.233000E+00	  0.052865732	1.139790E+02	  0.052865732	2.628600E+01	  0.052865732	2.575600E+01
166	  0.053066134	-7.231000E+00	  0.053066134	1.137380E+02	  0.053066134	2.633800E+01	  0.053066134	2.586300E+01
167	  0.053266536	-7.232000E+00	  0.053266536	1.134920E+02	  0.053266536	2.639900E+01	  0.053266536	2.596800E+01
168	  0.053466935	-7.230000E+00	  0.053466935	1.132560E+02	  0.053466935	2.644800E+01	  0.053466935	2.607400E+01
169	  0.053667337	-7.229000E+00	  0.053667337	1.130190E+02	  0.053667337	2.650400E+01	  0.053667337	2.617700E+01
170	  0.053867739	-7.227000E+00	  0.053867739	1.127640E+02	  0.053867739	2.656000E+01	  0.053867739	2.629200E+01
171	  0.054068137	-7.224000E+00	  0.054068137	1.125370E+02	  0.054068137	2.660700E+01	  0.054068137	2.639400E+01
172	  0.054268539	-7.225000E+00	  0.054268539	1.122890E+02	  0.054268539	2.667000E+01	  0.054268539	2.650200E+01
173	  0.054468941	-7.225000E+00	  0.054468941	1.120330E+02	  0.054468941	2.673300E+01	  0.054468941	2.661300E+01
174	  0.054669335	-7.225000E+00	  0.054669335	1.117930E+02	  0.054669335	2.679400E+01	  0.054669335	2.671600E+01
175	  0.054869737	-7.224000E+00	  0.054869737	1.115450E+02	  0.054869737	2.685300E+01	  0.054869737	2.682600E+01
176	  0.055070139	-7.222000E+00	  0.055070139	1.113200E+02	  0.055070139	2.690300E+01	  0.055070139	2.692900E+01
177	  0.055270538	-7.222000E+00	  0.055270538	1.110640E+02	  0.055270538	2.696900E+01	  0.055270538	2.704000E+01
178	  0.055470940	-7.224000E+00	  0.055470940	1.108410E+02	  0.055470940	2.703000E+01	  0.055470940	2.713500E+01
179	  0.055671342	-7.221000E+00	  0.055671342	1.105930E+02	  0.055671342	2.708600E+01	  0.055671342	2.724800E+01
180	  0.055871744	-7.221000E+00	  0.055871744	1.103480E+02	  0.055871744	2.714900E+01	  0.055871744	2.735500E+01
181	  0.056072142	-7.218000E+00	  0.056072142	1.101020E+02	  0.056072142	2.720400E+01	  0.056072142	2.746900E+01
182	  0.056272544	-7.218000E+00	  0.056272544	1.098530E+02	  0.056272544	2.726900E+01	  0.056272544	2.757800E+01
183	  0.056472946	-7.217000E+00	  0.056472946	1.096230E+02	  0.056472946	2.732700E+01	  0.056472946	2.768000E+01
184	  0.056673344	-7.217000E+00	  0.056673344	1.093680E+02	  0.056673344	2.739500E+01	  0.056673344	2.779300E+01
185	  0.056873746	-7.216000E+00	  0.056873746	1.091390E+02	  0.056873746	2.745300E+01	  0.056873746	2.789500E+01
186	  0.057074148	-7.216000E+00	  0.057074148	1.088760E+02	  0.057074148	2.752400E+01	  0.057074148	2.801100E+01
187	  0.057274550	-7.214000E+00	  0.057274550	1.086460E+02	  0.057274550	2.758200E+01	  0.057274550	2.811500E+01
188	  0.057474948	-7.216000E+00	  0.057474948	1.084110E+02	  0.057474948	2.764900E+01	  0.057474948	2.821700E+01
189	  0.057675350	-7.213000E+00	  0.057675350	1.081570E+02	  0.057675350	2.771000E+01	  0.057675350	2.833400E+01
190	  0.057875752	-7.213000E+00	  0.057875752	1.079090E+02	  0.057875752	2.777900E+01	  0.057875752	2.844400E+01
191	  0.058076151	-7.213000E+00	  0.058076151	1.076790E+02	  0.058076151	2.784200E+01	  0.058076151	2.854600E+01
192	  0.058276553	-7.212000E+00	  0.058276553	1.074260E+02	  0.058276553	2.790900E+01	  0.058276553	2.866000E+01
193	  0.058476955	-7.212000E+00	  0.058476955	1.071820E+02	  0.058476955	2.797900E+01	  0.058476955	2.876700E+01
194	  0.058677353	-7.213000E+00	  0.058677353	1.069490E+02	  0.058677353	2.804600E+01	  0.058677353	2.887000E+01
195	  0.058877755	-7.211000E+00	  0.058877755	1.067140E+02	  0.058877755	2.810600E+01	  0.058877755	2.897900E+01
196	  0.059078157	-7.214000E+00	  0.059078157	1.064500E+02	  0.059078157	2.819100E+01	  0.059078157	2.909000E+01
197	  0.059278559	-7.212000E+00	  0.059278559	1.062130E+02	  0.059278559	2.825300E+01	  0.059278559	2.920000E+01
198	  0.059478957	-7.209000E+00	  0.059478957	1.059710E+02	  0.059478957	2.831400E+01	  0.059478957	2.931300E+01
199	  0.059679359	-7.210000E+00	  0.059679359	1.057180E+02	  0.059679359	2.839200E+01	  0.059679359	2.942400E+01
200	  0.059879761	-7.208000E+00	  0.059879761	1.054970E+02	  0.059879761	2.845000E+01	  0.059879761	2.952600E+01
201	  0.060080159	-7.208000E+00	  0.060080159	1.052560E+02	  0.060080159	2.852000E+01	  0.060080159	2.963500E+01
202	  0.060280561	-7.206000E+00	  0.060280561	1.050110E+02	  0.060280561	2.858700E+01	  0.060280561	2.974800E+01
203	  0.060480963	-7.205000E+00	  0.060480963	1.047610E+02	  0.060480963	2.865800E+01	  0.060480963	2.986300E+01
204	  0.060681365	-7.205000E+00	  0.060681365	1.045280E+02	  0.060681365	2.872900E+01	  0.060681365	2.996700E+01
205	  0.060881764	-7.204000E+00	  0.060881764	1.042880E+02	  0.060881764	2.879700E+01	  0.060881764	3.007700E+01
206	  0.061082166	-7.203000E+00	  0.061082166	1.040480E+02	  0.061082166	2.886800E+01	  0.061082166	3.018700E+01
207	  0.061282568	-7.202000E+00	  0.061282568	1.038140E+02	  0.061282568	2.893700E+01	  0.061282568	3.029400E+01
208	  0.061482966	-7.202000E+00	  0.061482966	1.035540E+02	  0.061482966	2.901800E+01	  0.061482966	3.041000E+01
209	  0.061683368	-7.201000E+00	  0.061683368	1.033270E+02	  0.061683368	2.908500E+01	  0.061683368	3.051500E+01
210	  0.061883770	-7.202000E+00	  0.061883770	1.030790E+02	  0.061883770	2.916400E+01	  0.061883770	3.062500E+01
211	  0.062084168	-7.200000E+00	  0.062084168	1.028430E+02	  0.062084168	2.923300E+01	  0.062084168	3.073500E+01
212	  0.062284570	-7.202000E+00	  0.062284570	1.026150E+02	  0.062284570	2.930900E+01	  0.062284570	3.083500E+01
213	  0.062484972	-7.185000E+00	  0.062484972	1.024700E+02	  0.062484972	2.930400E+01	  0.062484972	3.093700E+01
214	  0.062685370	-7.184000E+00	  0.062685370	1.022250E+02	  0.062685370	2.937900E+01	  0.062685370	3.104900E+01
215	  0.062885776	-7.183000E+00	  0.062885776	1.020020E+02	  0.062885776	2.944700E+01	  0.062885776	3.115300E+01
216	  0.063086174	-7.183000E+00	  0.063086174	1.017300E+02	  0.063086174	2.953400E+01	  0.063086174	3.127700E+01
217	  0.063286573	-7.180000E+00	  0.063286573	1.014950E+02	  0.063286573	2.960200E+01	  0.063286573	3.138900E+01
218	  0.063486971	-7.180000E+00	  0.063486971	1.012470E+02	  0.063486971	2.968300E+01	  0.063486971	3.150200E+01
219	  0.063687377	-7.173000E+00	  0.063687377	1.010300E+02	  0.063687377	2.973200E+01	  0.063687377	3.161700E+01
220	  0.063887775	-7.173000E+00	  0.063887775	1.007870E+02	  0.063887775	2.981200E+01	  0.063887775	3.172800E+01
221	  0.064088173	-7.170000E+00	  0.064088173	1.005330E+02	  0.064088173	2.988900E+01	  0.064088173	3.184900E+01
222	  0.064288579	-7.172000E+00	  0.064288579	1.003120E+02	  0.064288579	2.996700E+01	  0.064288579	3.194700E+01
223	  0.064488977	-7.170000E+00	  0.064488977	1.000680E+02	  0.064488977	3.004200E+01	  0.064488977	3.206300E+01
224	  0.064689375	-7.171000E+00	  0.064689375	9.984100E+01	  0.064689375	3.012200E+01	  0.064689375	3.216500E+01
225	  0.064889781	-7.170000E+00	  0.064889781	9.957700E+01	  0.064889781	3.021000E+01	  0.064889781	3.228700E+01
226	  0.065090179	-7.167000E+00	  0.065090179	9.934900E+01	  0.065090179	3.027800E+01	  0.065090179	3.240000E+01
227	  0.065290578	-7.164000E+00	  0.065290578	9.911200E+01	  0.065290578	3.035100E+01	  0.065290578	3.251500E+01
228	  0.065490983	-7.166000E+00	  0.065490983	9.888000E+01	  0.065490983	3.043500E+01	  0.065490983	3.261800E+01
229	  0.065691382	-7.162000E+00	  0.065691382	9.862300E+01	  0.065691382	3.051400E+01	  0.065691382	3.274500E+01
230	  0.065891780	-7.163000E+00	  0.065891780	9.839000E+01	  0.065891780	3.059700E+01	  0.065891780	3.285200E+01
231	  0.066092186	-7.163000E+00	  0.066092186	9.815600E+01	  0.066092186	3.068100E+01	  0.066092186	3.295800E+01
232	  0.066292584	-7.163000E+00	  0.066292584	9.792100E+01	  0.066292584	3.076400E+01	  0.066292584	3.306600E+01
233	  0.066492982	-7.159000E+00	  0.066492982	9.766900E+01	  0.066492982	3.084100E+01	  0.066492982	3.319300E+01
234	  0.066693388	-7.157000E+00	  0.066693388	9.744200E+01	  0.066693388	3.091700E+01	  0.066693388	3.330200E+01
235	  0.066893786	-7.162000E+00	  0.066893786	9.719800E+01	  0.066893786	3.101900E+01	  0.066893786	3.340400E+01
236	  0.067094192	-7.156000E+00	  0.067094192	9.696400E+01	  0.067094192	3.108600E+01	  0.067094192	3.352600E+01
237	  0.067294590	-7.157000E+00	  0.067294590	9.673100E+01	  0.067294590	3.117300E+01	  0.067294590	3.363300E+01
238	  0.067494988	-7.155000E+00	  0.067494988	9.649200E+01	  0.067494988	3.125500E+01	  0.067494988	3.374900E+01
239	  0.067695394	-7.155000E+00	  0.067695394	9.625600E+01	  0.067695394	3.134400E+01	  0.067695394	3.385700E+01
240	  0.067895792	-7.154000E+00	  0.067895792	9.601100E+01	  0.067895792	3.143000E+01	  0.067895792	3.397500E+01
241	  0.068096191	-7.154000E+00	  0.068096191	9.578300E+01	  0.068096191	3.151600E+01	  0.068096191	3.408100E+01
242	  0.068296596	-7.152000E+00	  0.068296596	9.554600E+01	  0.068296596	3.159900E+01	  0.068296596	3.419600E+01
243	  0.068496995	-7.148000E+00	  0.068496995	9.529400E+01	  0.068496995	3.168100E+01	  0.068496995	3.432400E+01
244	  0.068697393	-7.151000E+00	  0.068697393	9.504000E+01	  0.068697393	3.178800E+01	  0.068697393	3.443500E+01
245	  0.068897791	-7.148000E+00	  0.068897791	9.481800E+01	  0.068897791	3.186400E+01	  0.068897791	3.454600E+01
246	  0.069098189	-7.149000E+00	  0.069098189	9.459000E+01	  0.069098189	3.195600E+01	  0.069098189	3.464900E+01
247	  0.069298595	-7.145000E+00	  0.069298595	9.431900E+01	  0.069298595	3.204700E+01	  0.069298595	3.478700E+01
248	  0.069498993	-7.146000E+00	  0.069498993	9.411600E+01	  0.069498993	3.213100E+01	  0.069498993	3.487900E+01
249	  0.069699399	-7.146000E+00	  0.069699399	9.388100E+01	  0.069699399	3.222200E+01	  0.069699399	3.499000E+01
250	  0.069899797	-7.145000E+00	  0.069899797	9.363700E+01	  0.069899797	3.231500E+01	  0.069899797	3.510700E+01
251	  0.070100196	-7.145000E+00	  0.070100196	9.339100E+01	  0.070100196	3.241400E+01	  0.070100196	3.522100E+01
252	  0.070300601	-7.140000E+00	  0.070300601	9.315700E+01	  0.070300601	3.249200E+01	  0.070300601	3.534500E+01
253	  0.070501000	-7.139000E+00	  0.070501000	9.290400E+01	  0.070501000	3.258900E+01	  0.070501000	3.546700E+01
254	  0.070701398	-7.139000E+00	  0.070701398	9.270300E+01	  0.070701398	3.267200E+01	  0.070701398	3.556100E+01
255	  0.070901804	-7.138000E+00	  0.070901804	9.242500E+01	  0.070901804	3.278100E+01	  0.070901804	3.569500E+01
256	  0.071102202	-7.139000E+00	  0.071102202	9.218200E+01	  0.071102202	3.288500E+01	  0.071102202	3.580500E+01
257	  0.071302600	-7.139000E+00	  0.071302600	9.197700E+01	  0.071302600	3.296700E+01	  0.071302600	3.590400E+01
258	  0.071503006	-7.135000E+00	  0.071503006	9.173400E+01	  0.071503006	3.305700E+01	  0.071503006	3.602800E+01
259	  0.071703404	-7.136000E+00	  0.071703404	9.147600E+01	  0.071703404	3.316700E+01	  0.071703404	3.614900E+01
260	  0.071903802	-7.133000E+00	  0.071903802	9.124400E+01	  0.071903802	3.325400E+01	  0.071903802	3.626700E+01
261	  0.072104208	-7.138000E+00	  0.072104208	9.100100E+01	  0.072104208	3.337400E+01	  0.072104208	3.636700E+01
262	  0.072304606	-7.134000E+00	  0.072304606	9.077000E+01	  0.072304606	3.345900E+01	  0.072304606	3.648800E+01
263	  0.072505005	-7.133000E+00	  0.072505005	9.054100E+01	  0.072505005	3.355400E+01	  0.072505005	3.659900E+01
264	  0.072705410	-7.130000E+00	  0.072705410	9.029800E+01	  0.072705410	3.364900E+01	  0.072705410	3.672300E+01
265	  0.072905809	-7.130000E+00	  0.072905809	9.006200E+01	  0.072905809	3.375100E+01	  0.072905809	3.683500E+01
266	  0.073106214	-7.129000E+00	  0.073106214	8.979600E+01	  0.073106214	3.386500E+01	  0.073106214	3.696300E+01
267	  0.073306613	-7.129000E+00	  0.073306613	8.958700E+01	  0.073306613	3.395400E+01	  0.073306613	3.706400E+01
268	  0.073507011	-7.127000E+00	  0.073507011	8.937600E+01	  0.073507011	3.404300E+01	  0.073507011	3.716800E+01
269	  0.073707417	-7.128000E+00	  0.073707417	8.911100E+01	  0.073707417	3.416100E+01	  0.073707417	3.729300E+01
270	  0.073907815	-7.126000E+00	  0.073907815	8.889300E+01	  0.073907815	3.425200E+01	  0.073907815	3.740300E+01
271	  0.074108213	-7.123000E+00	  0.074108213	8.865300E+01	  0.074108213	3.435300E+01	  0.074108213	3.752400E+01
272	  0.074308619	-7.121000E+00	  0.074308619	8.841600E+01	  0.074308619	3.445200E+01	  0.074308619	3.764400E+01
273	  0.074509017	-7.124000E+00	  0.074509017	8.817900E+01	  0.074509017	3.456800E+01	  0.074509017	3.774900E+01
274	  0.074709415	-7.119000E+00	  0.074709415	8.792400E+01	  0.074709415	3.466900E+01	  0.074709415	3.788500E+01
275	  0.074909821	-7.123000E+00	  0.074909821	8.768600E+01	  0.074909821	3.479400E+01	  0.074909821	3.798400E+01
276	  0.075110219	-7.121000E+00	  0.075110219	8.747900E+01	  0.075110219	3.488100E+01	  0.075110219	3.809000E+01
277	  0.075310618	-7.120000E+00	  0.075310618	8.722700E+01	  0.075310618	3.499500E+01	  0.075310618	3.821500E+01
278	  0.075511023	-7.117000E+00	  0.075511023	8.699000E+01	  0.075511023	3.509700E+01	  0.075511023	3.833700E+01
279	  0.075711422	-7.117000E+00	  0.075711422	8.675300E+01	  0.075711422	3.521100E+01	  0.075711422	3.844800E+01
280	  0.075911827	-7.114000E+00	  0.075911827	8.649000E+01	  0.075911827	3.532500E+01	  0.075911827	3.858300E+01
281	  0.076112226	-7.116000E+00	  0.076112226	8.627500E+01	  0.076112226	3.543200E+01	  0.076112226	3.868200E+01
282	  0.076312624	-7.114000E+00	  0.076312624	8.604200E+01	  0.076312624	3.553900E+01	  0.076312624	3.879800E+01
283	  0.076513030	-7.117000E+00	  0.076513030	8.580400E+01	  0.076513030	3.566400E+01	  0.076513030	3.890200E+01
284	  0.076713428	-7.113000E+00	  0.076713428	8.553700E+01	  0.076713428	3.577900E+01	  0.076713428	3.904400E+01
285	  0.076913826	-7.111000E+00	  0.076913826	8.530600E+01	  0.076913826	3.588800E+01	  0.076913826	3.916100E+01
286	  0.077114232	-7.112000E+00	  0.077114232	8.508800E+01	  0.077114232	3.599800E+01	  0.077114232	3.926200E+01
287	  0.077314630	-7.112000E+00	  0.077314630	8.484900E+01	  0.077314630	3.611500E+01	  0.077314630	3.937800E+01
288	  0.077515028	-7.110000E+00	  0.077515028	8.459800E+01	  0.077515028	3.623400E+01	  0.077515028	3.950300E+01
289	  0.077715434	-7.109000E+00	  0.077715434	8.436800E+01	  0.077715434	3.634500E+01	  0.077715434	3.961900E+01
290	  0.077915832	-7.108000E+00	  0.077915832	8.412500E+01	  0.077915832	3.646700E+01	  0.077915832	3.973600E+01
291	  0.078116231	-7.107000E+00	  0.078116231	8.387500E+01	  0.078116231	3.659000E+01	  0.078116231	3.986000E+01
292	  0.078316636	-7.105000E+00	  0.078316636	8.364900E+01	  0.078316636	3.669800E+01	  0.078316636	3.997600E+01
293	  0.078517035	-7.106000E+00	  0.078517035	8.341500E+01	  0.078517035	3.682100E+01	  0.078517035	4.008600E+01
294	  0.078717433	-7.106000E+00	  0.078717433	8.317000E+01	  0.078717433	3.694800E+01	  0.078717433	4.020300E+01
295	  0.078917839	-7.104000E+00	  0.078917839	8.295400E+01	  0.078917839	3.705500E+01	  0.078917839	4.031200E+01
296	  0.079118237	-7.101000E+00	  0.079118237	8.271400E+01	  0.079118237	3.717200E+01	  0.079118237	4.043700E+01
297	  0.079318643	-7.100000E+00	  0.079318643	8.246500E+01	  0.079318643	3.729700E+01	  0.079318643	4.056300E+01
298	  0.079519041	-7.100000E+00	  0.079519041	8.223200E+01	  0.079519041	3.742200E+01	  0.079519041	4.067300E+01
299	  0.079719439	-7.099000E+00	  0.079719439	8.200900E+01	  0.079719439	3.753600E+01	  0.079719439	4.078600E+01
300	  0.079919845	-7.096000E+00	  0.079919845	8.176500E+01	  0.079919845	3.766000E+01	  0.079919845	4.091200E+01
301	  0.080120243	-7.097000E+00	  0.080120243	8.152200E+01	  0.080120243	3.779400E+01	  0.080120243	4.102500E+01
302	  0.080320641	-7.095000E+00	  0.080320641	8.129100E+01	  0.080320641	3.791400E+01	  0.080320641	4.114200E+01
303	  0.080521047	-7.096000E+00	  0.080521047	8.105000E+01	  0.080521047	3.804700E+01	  0.080521047	4.125700E+01
304	  0.080721445	-7.095000E+00	  0.080721445	8.082000E+01	  0.080721445	3.817100E+01	  0.080721445	4.137000E+01
305	  0.080921844	-7.091000E+00	  0.080921844	8.058400E+01	  0.080921844	3.828900E+01	  0.080921844	4.149700E+01
306	  0.081122249	-7.092000E+00	  0.081122249	8.032700E+01	  0.081122249	3.843300E+01	  0.081122249	4.162000E+01
307	  0.081322648	-7.091000E+00	  0.081322648	8.011100E+01	  0.081322648	3.855200E+01	  0.081322648	4.172700E+01
308	  0.081523046	-7.091000E+00	  0.081523046	7.988100E+01	  0.081523046	3.868200E+01	  0.081523046	4.183600E+01
309	  0.081723452	-7.090000E+00	  0.081723452	7.963800E+01	  0.081723452	3.881700E+01	  0.081723452	4.195700E+01
310	  0.081923850	-7.091000E+00	  0.081923850	7.937600E+01	  0.081923850	3.896800E+01	  0.081923850	4.208000E+01
311	  0.082124248	-7.088000E+00	  0.082124248	7.915200E+01	  0.082124248	3.908800E+01	  0.082124248	4.219800E+01
312	  0.082324654	-7.087000E+00	  0.082324654	7.893000E+01	  0.082324654	3.921400E+01	  0.082324654	4.230700E+01
313	  0.082525052	-7.088000E+00	  0.082525052	7.868600E+01	  0.082525052	3.935800E+01	  0.082525052	4.242200E+01
314	  0.082725458	-7.086000E+00	  0.082725458	7.845200E+01	  0.082725458	3.948900E+01	  0.082725458	4.254000E+01
315	  0.082925856	-7.085000E+00	  0.082925856	7.822600E+01	  0.082925856	3.961800E+01	  0.082925856	4.265400E+01
316	  0.083126254	-7.085000E+00	  0.083126254	7.798700E+01	  0.083126254	3.976000E+01	  0.083126254	4.276800E+01
317	  0.083326660	-7.084000E+00	  0.083326660	7.775700E+01	  0.083326660	3.989200E+01	  0.083326660	4.288400E+01
318	  0.083527058	-7.083000E+00	  0.083527058	7.751400E+01	  0.083527058	4.003500E+01	  0.083527058	4.300400E+01
319	  0.083727457	-7.083000E+00	  0.083727457	7.728000E+01	  0.083727457	4.017700E+01	  0.083727457	4.311500E+01
320	  0.083927862	-7.081000E+00	  0.083927862	7.704500E+01	  0.083927862	4.031400E+01	  0.083927862	4.323500E+01
321	  0.084128261	-7.080000E+00	  0.084128261	7.681200E+01	  0.084128261	4.045300E+01	  0.084128261	4.335000E+01
322	  0.084328659	-7.079000E+00	  0.084328659	7.658400E+01	  0.084328659	4.059000E+01	  0.084328659	4.346400E+01
323	  0.084529065	-7.080000E+00	  0.084529065	7.634800E+01	  0.084529065	4.073800E+01	  0.084529065	4.357400E+01
324	  0.084729463	-7.079000E+00	  0.084729463	7.611700E+01	  0.084729463	4.087900E+01	  0.084729463	4.368800E+01
325	  0.084929854	-7.079000E+00	  0.084929854	7.586400E+01	  0.084929854	4.103500E+01	  0.084929854	4.381000E+01
326	  0.085130259	-7.076000E+00	  0.085130259	7.563100E+01	  0.085130259	4.117200E+01	  0.085130259	4.393500E+01
327	  0.085330658	-7.077000E+00	  0.085330658	7.539700E+01	  0.085330658	4.132400E+01	  0.085330658	4.404100E+01
328	  0.085531056	-7.074000E+00	  0.085531056	7.515400E+01	  0.085531056	4.147000E+01	  0.085531056	4.416900E+01
329	  0.085731462	-7.073000E+00	  0.085731462	7.494500E+01	  0.085731462	4.160200E+01	  0.085731462	4.427100E+01
330	  0.085931860	-7.075000E+00	  0.085931860	7.470400E+01	  0.085931860	4.176300E+01	  0.085931860	4.437900E+01
331	  0.086132258	-7.073000E+00	  0.086132258	7.446500E+01	  0.086132258	4.191100E+01	  0.086132258	4.450200E+01
332	  0.086332664	-7.072000E+00	  0.086332664	7.424100E+01	  0.086332664	4.205600E+01	  0.086332664	4.461100E+01
333	  0.086533062	-7.072000E+00	  0.086533062	7.399400E+01	  0.086533062	4.221600E+01	  0.086533062	4.473000E+01
334	  0.086733460	-7.072000E+00	  0.086733460	7.375000E+01	  0.086733460	4.237900E+01	  0.086733460	4.484400E+01
335	  0.086933866	-7.069000E+00	  0.086933866	7.353400E+01	  0.086933866	4.251200E+01	  0.086933866	4.496200E+01
336	  0.087134264	-7.069000E+00	  0.087134264	7.328800E+01	  0.087134264	4.267800E+01	  0.087134264	4.507600E+01
337	  0.087334670	-7.068000E+00	  0.087334670	7.306600E+01	  0.087334670	4.282500E+01	  0.087334670	4.518500E+01
338	  0.087535068	-7.071000E+00	  0.087535068	7.282800E+01	  0.087535068	4.299600E+01	  0.087535068	4.528300E+01
339	  0.087735467	-7.067000E+00	  0.087735467	7.259100E+01	  0.087735467	4.314300E+01	  0.087735467	4.541700E+01
340	  0.087935872	-7.066000E+00	  0.087935872	7.237000E+01	  0.087935872	4.329200E+01	  0.087935872	4.552400E+01
341	  0.088136271	-7.066000E+00	  0.088136271	7.214000E+01	  0.088136271	4.345200E+01	  0.088136271	4.563000E+01
342	  0.088336669	-7.064000E+00	  0.088336669	7.190800E+01	  0.088336669	4.360700E+01	  0.088336669	4.574800E+01
343	  0.088537075	-7.064000E+00	  0.088537075	7.166400E+01	  0.088537075	4.377600E+01	  0.088537075	4.586400E+01
344	  0.088737473	-7.067000E+00	  0.088737473	7.143600E+01	  0.088737473	4.394500E+01	  0.088737473	4.595900E+01
345	  0.088937871	-7.063000E+00	  0.088937871	7.117700E+01	  0.088937871	4.411600E+01	  0.088937871	4.609900E+01
346	  0.089138277	-7.067000E+00	  0.089138277	7.095900E+01	  0.089138277	4.428300E+01	  0.089138277	4.618200E+01
347	  0.089338675	-7.063000E+00	  0.089338675	7.073300E+01	  0.089338675	4.443400E+01	  0.089338675	4.630400E+01
348	  0.089539073	-7.065000E+00	  0.089539073	7.049200E+01	  0.089539073	4.461300E+01	  0.089539073	4.640800E+01
349	  0.089739479	-7.062000E+00	  0.089739479	7.025200E+01	  0.089739479	4.477800E+01	  0.089739479	4.653300E+01
350	  0.089939877	-7.063000E+00	  0.089939877	6.999500E+01	  0.089939877	4.496800E+01	  0.089939877	4.664700E+01
351	  0.090140276	-7.065000E+00	  0.090140276	6.978600E+01	  0.090140276	4.512700E+01	  0.090140276	4.673600E+01
352	  0.090340681	-7.061000E+00	  0.090340681	6.953000E+01	  0.090340681	4.530600E+01	  0.090340681	4.687100E+01
353	  0.090541080	-7.061000E+00	  0.090541080	6.930200E+01	  0.090541080	4.547400E+01	  0.090541080	4.697800E+01
354	  0.090741485	-7.060000E+00	  0.090741485	6.907100E+01	  0.090741485	4.564500E+01	  0.090741485	4.708800E+01
355	  0.090941884	-7.062000E+00	  0.090941884	6.886200E+01	  0.090941884	4.580700E+01	  0.090941884	4.717600E+01
356	  0.091142282	-7.059000E+00	  0.091142282	6.861200E+01	  0.091142282	4.598900E+01	  0.091142282	4.730200E+01
357	  0.091342688	-7.059000E+00	  0.091342688	6.837400E+01	  0.091342688	4.617000E+01	  0.091342688	4.741100E+01
358	  0.091543086	-7.059000E+00	  0.091543086	6.814200E+01	  0.091543086	4.634600E+01	  0.091543086	4.752000E+01
359	  0.091743484	-7.056000E+00	  0.091743484	6.789700E+01	  0.091743484	4.652900E+01	  0.091743484	4.764300E+01
360	  0.091943890	-7.058000E+00	  0.091943890	6.767000E+01	  0.091943890	4.670800E+01	  0.091943890	4.774000E+01
361	  0.092144288	-7.055000E+00	  0.092144288	6.744200E+01	  0.092144288	4.687800E+01	  0.092144288	4.785700E+01
362	  0.092344686	-7.055000E+00	  0.092344686	6.720300E+01	  0.092344686	4.706600E+01	  0.092344686	4.796600E+01
363	  0.092545092	-7.052000E+00	  0.092545092	6.695800E+01	  0.092545092	4.725100E+01	  0.092545092	4.809000E+01
364	  0.092745490	-7.053000E+00	  0.092745490	6.674800E+01	  0.092745490	4.742000E+01	  0.092745490	4.818000E+01
365	  0.092945889	-7.051000E+00	  0.092945889	6.649000E+01	  0.092945889	4.762200E+01	  0.092945889	4.830400E+01
366	  0.093146294	-7.053000E+00	  0.093146294	6.626400E+01	  0.093146294	4.780900E+01	  0.093146294	4.839900E+01
367	  0.093346693	-7.048000E+00	  0.093346693	6.603100E+01	  0.093346693	4.798200E+01	  0.093346693	4.852900E+01
368	  0.093547091	-7.051000E+00	  0.093547091	6.580700E+01	  0.093547091	4.817400E+01	  0.093547091	4.861100E+01
369	  0.093747497	-7.048000E+00	  0.093747497	6.557300E+01	  0.093747497	4.835900E+01	  0.093747497	4.872900E+01
370	  0.093947895	-7.047000E+00	  0.093947895	6.533200E+01	  0.093947895	4.855500E+01	  0.093947895	4.884000E+01
371	  0.094148301	-7.046000E+00	  0.094148301	6.510200E+01	  0.094148301	4.874300E+01	  0.094148301	4.894800E+01
372	  0.094348699	-7.047000E+00	  0.094348699	6.485200E+01	  0.094348699	4.895400E+01	  0.094348699	4.905400E+01
373	  0.094549097	-7.044000E+00	  0.094549097	6.460900E+01	  0.094549097	4.915000E+01	  0.094549097	4.917500E+01
374	  0.094749503	-7.043000E+00	  0.094749503	6.439900E+01	  0.094749503	4.932400E+01	  0.094749503	4.927400E+01
375	  0.094949901	-7.042000E+00	  0.094949901	6.415900E+01	  0.094949901	4.952600E+01	  0.094949901	4.938100E+01
376	  0.095150299	-7.042000E+00	  0.095150299	6.390700E+01	  0.095150299	4.974200E+01	  0.095150299	4.949200E+01
377	  0.095350705	-7.040000E+00	  0.095350705	6.368700E+01	  0.095350705	4.992500E+01	  0.095350705	4.960100E+01
378	  0.095551103	-7.038000E+00	  0.095551103	6.345100E+01	  0.095551103	5.012400E+01	  0.095551103	4.971500E+01
379	  0.095751502	-7.038000E+00	  0.095751502	6.323500E+01	  0.095751502	5.031300E+01	  0.095751502	4.980500E+01
380	  0.095951907	-7.037000E+00	  0.095951907	6.299300E+01	  0.095951907	5.052300E+01	  0.095951907	4.991200E+01
381	  0.096152306	-7.036000E+00	  0.096152306	6.274900E+01	  0.096152306	5.073500E+01	  0.096152306	5.002300E+01
382	  0.096352704	-7.035000E+00	  0.096352704	6.251200E+01	  0.096352704	5.094300E+01	  0.096352704	5.012800E+01
383	  0.096553110	-7.034000E+00	  0.096553110	6.228400E+01	  0.096553110	5.114500E+01	  0.096553110	5.023000E+01
384	  0.096753508	-7.034000E+00	  0.096753508	6.204600E+01	  0.096753508	5.135700E+01	  0.096753508	5.033200E+01
385	  0.096953906	-7.032000E+00	  0.096953906	6.181300E+01	  0.096953906	5.156300E+01	  0.096953906	5.044100E+01
386	  0.097154312	-7.033000E+00	  0.097154312	6.157600E+01	  0.097154312	5.178200E+01	  0.097154312	5.053200E+01
387	  0.097354710	-7.030000E+00	  0.097354710	6.134200E+01	  0.097354710	5.198800E+01	  0.097354710	5.064600E+01
388	  0.097555116	-7.030000E+00	  0.097555116	6.112500E+01	  0.097555116	5.218800E+01	  0.097555116	5.073500E+01
389	  0.097755514	-7.028000E+00	  0.097755514	6.088200E+01	  0.097755514	5.240800E+01	  0.097755514	5.084800E+01
390	  0.097955912	-7.027000E+00	  0.097955912	6.065600E+01	  0.097955912	5.261700E+01	  0.097955912	5.094300E+01
391	  0.098156318	-7.023000E+00	  0.098156318	6.042400E+01	  0.098156318	5.282300E+01	  0.098156318	5.106400E+01
392	  0.098356716	-7.023000E+00	  0.098356716	6.020300E+01	  0.098356716	5.303100E+01	  0.098356716	5.115500E+01
393	  0.098557115	-7.022000E+00	  0.098557115	5.995800E+01	  0.098557115	5.326400E+01	  0.098557115	5.125600E+01
394	  0.098757520	-7.022000E+00	  0.098757520	5.971900E+01	  0.098757520	5.349100E+01	  0.098757520	5.135400E+01
395	  0.098957919	-7.022000E+00	  0.098957919	5.949100E+01	  0.098957919	5.370900E+01	  0.098957919	5.144600E+01
396	  0.099158317	-7.021000E+00	  0.099158317	5.926300E+01	  0.099158317	5.392800E+01	  0.099158317	5.153900E+01
397	  0.099358723	-7.020000E+00	  0.099358723	5.902200E+01	  0.099358723	5.415900E+01	  0.099358723	5.164400E+01
398	  0.099559121	-7.016000E+00	  0.099559121	5.881100E+01	  0.099559121	5.435500E+01	  0.099559121	5.175000E+01
399	  0.099759519	-7.017000E+00	  0.099759519	5.857500E+01	  0.099759519	5.459000E+01	  0.099759519	5.183500E+01
400	  0.099959925	-7.007000E+00	  0.099959925	5.838100E+01	  0.099959925	5.475600E+01	  0.099959925	5.197600E+01
401	  0.100160323	-7.008000E+00	  0.100160323	5.815000E+01	  0.100160323	5.499000E+01	  0.100160323	5.205700E+01
402	  0.100360721	-7.001000E+00	  0.100360721	5.787500E+01	  0.100360721	5.524900E+01	  0.100360721	5.220400E+01
403	  0.100561127	-7.003000E+00	  0.100561127	5.766400E+01	  0.100561127	5.546800E+01	  0.100561127	5.227100E+01
404	  0.100761525	-7.007000E+00	  0.100761525	5.743700E+01	  0.100761525	5.570800E+01	  0.100761525	5.233000E+01
405	  0.100961931	-7.001000E+00	  0.100961931	5.721000E+01	  0.100961931	5.592300E+01	  0.100961931	5.245700E+01
406	  0.101162329	-7.003000E+00	  0.101162329	5.697500E+01	  0.101162329	5.616900E+01	  0.101162329	5.253100E+01
407	  0.101362728	-7.002000E+00	  0.101362728	5.674600E+01	  0.101362728	5.640300E+01	  0.101362728	5.262200E+01
408	  0.101563133	-6.998000E+00	  0.101563133	5.650600E+01	  0.101563133	5.664500E+01	  0.101563133	5.273100E+01
409	  0.101763532	-7.002000E+00	  0.101763532	5.628600E+01	  0.101763532	5.688300E+01	  0.101763532	5.278900E+01
410	  0.101963930	-6.998000E+00	  0.101963930	5.606400E+01	  0.101963930	5.710800E+01	  0.101963930	5.289200E+01
411	  0.102164328	-6.999000E+00	  0.102164328	5.582500E+01	  0.102164328	5.736300E+01	  0.102164328	5.297000E+01
412	  0.102364726	-6.995000E+00	  0.102364726	5.559600E+01	  0.102364726	5.759600E+01	  0.102364726	5.308000E+01
413	  0.102565125	-6.996000E+00	  0.102565125	5.537800E+01	  0.102565125	5.783300E+01	  0.102565125	5.314700E+01
414	  0.102765530	-6.995000E+00	  0.102765530	5.514000E+01	  0.102765530	5.808700E+01	  0.102765530	5.323300E+01
415	  0.102965929	-6.997000E+00	  0.102965929	5.490700E+01	  0.102965929	5.834400E+01	  0.102965929	5.329900E+01
416	  0.103166327	-6.995000E+00	  0.103166327	5.468500E+01	  0.103166327	5.858100E+01	  0.103166327	5.338900E+01
417	  0.103366733	-6.990000E+00	  0.103366733	5.444400E+01	  0.103366733	5.883300E+01	  0.103366733	5.350800E+01
418	  0.103567131	-6.993000E+00	  0.103567131	5.422500E+01	  0.103567131	5.908100E+01	  0.103567131	5.355900E+01
419	  0.103767529	-6.989000E+00	  0.103767529	5.399100E+01	  0.103767529	5.933100E+01	  0.103767529	5.366400E+01
420	  0.103967935	-6.989000E+00	  0.103967935	5.375800E+01	  0.103967935	5.959200E+01	  0.103967935	5.373700E+01
421	  0.104168333	-6.985000E+00	  0.104168333	5.349300E+01	  0.104168333	5.988100E+01	  0.104168333	5.385000E+01
422	  0.104368731	-6.989000E+00	  0.104368731	5.329400E+01	  0.104368731	6.011300E+01	  0.104368731	5.388700E+01
423	  0.104569137	-6.990000E+00	  0.104569137	5.306100E+01	  0.104569137	6.038100E+01	  0.104569137	5.394600E+01
424	  0.104769535	-6.987000E+00	  0.104769535	5.281200E+01	  0.104769535	6.065800E+01	  0.104769535	5.404700E+01
425	  0.104969934	-6.987000E+00	  0.104969934	5.263000E+01	  0.104969934	6.086700E+01	  0.104969934	5.410100E+01
426	  0.105170339	-6.985000E+00	  0.105170339	5.238800E+01	  0.105170339	6.114200E+01	  0.105170339	5.418800E+01
427	  0.105370738	-6.981000E+00	  0.105370738	5.216500E+01	  0.105370738	6.139300E+01	  0.105370738	5.428600E+01
428	  0.105571143	-6.983000E+00	  0.105571143	5.192200E+01	  0.105571143	6.168000E+01	  0.105571143	5.434000E+01
429	  0.105771542	-6.980000E+00	  0.105771542	5.168800E+01	  0.105771542	6.195000E+01	  0.105771542	5.442900E+01
430	  0.105971940	-6.979000E+00	  0.105971940	5.144900E+01	  0.105971940	6.222800E+01	  0.105971940	5.450900E+01
431	  0.106172346	-6.981000E+00	  0.106172346	5.124400E+01	  0.106172346	6.247600E+01	  0.106172346	5.454900E+01
432	  0.106372744	-6.976000E+00	  0.106372744	5.100200E+01	  0.106372744	6.275600E+01	  0.106372744	5.465200E+01
433	  0.106573142	-6.977000E+00	  0.106573142	5.076000E+01	  0.106573142	6.304900E+01	  0.106573142	5.470600E+01
434	  0.106773548	-6.975000E+00	  0.106773548	5.054300E+01	  0.106773548	6.330700E+01	  0.106773548	5.478400E+01
435	  0.106973946	-6.977000E+00	  0.106973946	5.029500E+01	  0.106973946	6.361200E+01	  0.106973946	5.482700E+01
436	  0.107174344	-6.975000E+00	  0.107174344	5.006500E+01	  0.107174344	6.388800E+01	  0.107174344	5.490700E+01
437	  0.107374750	-6.972000E+00	  0.107374750	4.984800E+01	  0.107374750	6.415100E+01	  0.107374750	5.498000E+01
438	  0.107575148	-6.971000E+00	  0.107575148	4.960900E+01	  0.107575148	6.444300E+01	  0.107575148	5.505100E+01
439	  0.107775547	-6.969000E+00	  0.107775547	4.938400E+01	  0.107775547	6.471900E+01	  0.107775547	5.512200E+01
440	  0.107975952	-6.967000E+00	  0.107975952	4.914000E+01	  0.107975952	6.502100E+01	  0.107975952	5.519200E+01
441	  0.108176351	-6.968000E+00	  0.108176351	4.892000E+01	  0.108176351	6.530000E+01	  0.108176351	5.523200E+01
442	  0.108376749	-6.967000E+00	  0.108376749	4.867800E+01	  0.108376749	6.560400E+01	  0.108376749	5.529500E+01
443	  0.108577155	-6.967000E+00	  0.108577155	4.843200E+01	  0.108577155	6.591600E+01	  0.108577155	5.535100E+01
444	  0.108777553	-6.962000E+00	  0.108777553	4.821100E+01	  0.108777553	6.619200E+01	  0.108777553	5.543400E+01
445	  0.108977959	-6.967000E+00	  0.108977959	4.798800E+01	  0.108977959	6.648400E+01	  0.108977959	5.544300E+01
446	  0.109178357	-6.964000E+00	  0.109178357	4.775800E+01	  0.109178357	6.677600E+01	  0.109178357	5.551400E+01
447	  0.109378755	-6.961000E+00	  0.109378755	4.750400E+01	  0.109378755	6.710300E+01	  0.109378755	5.558600E+01
448	  0.109579161	-6.958000E+00	  0.109579161	4.732100E+01	  0.109579161	6.733800E+01	  0.109579161	5.564700E+01
449	  0.109779559	-6.957000E+00	  0.109779559	4.705100E+01	  0.109779559	6.769200E+01	  0.109779559	5.570100E+01
450	  0.109979957	-6.958000E+00	  0.109979957	4.683800E+01	  0.109979957	6.797300E+01	  0.109979957	5.573100E+01
451	  0.110180363	-6.960000E+00	  0.110180363	4.661300E+01	  0.110180363	6.827400E+01	  0.110180363	5.575300E+01
452	  0.110380761	-6.959000E+00	  0.110380761	4.637900E+01	  0.110380761	6.858400E+01	  0.110380761	5.580400E+01
453	  0.110581160	-6.955000E+00	  0.110581160	4.613400E+01	  0.110581160	6.890800E+01	  0.110581160	5.587500E+01
454	  0.110781565	-6.954000E+00	  0.110781565	4.592300E+01	  0.110781565	6.919200E+01	  0.110781565	5.591800E+01
455	  0.110981964	-6.955000E+00	  0.110981964	4.568100E+01	  0.110981964	6.952200E+01	  0.110981964	5.593700E+01
456	  0.111182362	-6.951000E+00	  0.111182362	4.546200E+01	  0.111182362	6.981500E+01	  0.111182362	5.600200E+01
457	  0.111382768	-6.955000E+00	  0.111382768	4.524600E+01	  0.111382768	7.011400E+01	  0.111382768	5.599600E+01
458	  0.111583166	-6.952000E+00	  0.111583166	4.501300E+01	  0.111583166	7.043200E+01	  0.111583166	5.605200E+01
459	  0.111783572	-6.955000E+00	  0.111783572	4.476800E+01	  0.111783572	7.077300E+01	  0.111783572	5.605700E+01
460	  0.111983970	-6.953000E+00	  0.111983970	4.454300E+01	  0.111983970	7.108300E+01	  0.111983970	5.609900E+01
461	  0.112184368	-6.948000E+00	  0.112184368	4.429900E+01	  0.112184368	7.142100E+01	  0.112184368	5.617200E+01
462	  0.112384774	-6.947000E+00	  0.112384774	4.406700E+01	  0.112384774	7.174600E+01	  0.112384774	5.619500E+01
463	  0.112585172	-6.949000E+00	  0.112585172	4.387400E+01	  0.112585172	7.202000E+01	  0.112585172	5.619500E+01
464	  0.112785570	-6.947000E+00	  0.112785570	4.361800E+01	  0.112785570	7.238100E+01	  0.112785570	5.623800E+01
465	  0.112985976	-6.944000E+00	  0.112985976	4.339800E+01	  0.112985976	7.269400E+01	  0.112985976	5.627500E+01
466	  0.113186374	-6.947000E+00	  0.113186374	4.320000E+01	  0.113186374	7.297700E+01	  0.113186374	5.626300E+01
467	  0.113386773	-6.943000E+00	  0.113386773	4.295600E+01	  0.113386773	7.332700E+01	  0.113386773	5.631200E+01
468	  0.113587178	-6.945000E+00	  0.113587178	4.273900E+01	  0.113587178	7.364100E+01	  0.113587178	5.630600E+01
469	  0.113787577	-6.943000E+00	  0.113787577	4.250000E+01	  0.113787577	7.398700E+01	  0.113787577	5.633600E+01
470	  0.113987975	-6.940000E+00	  0.113987975	4.224000E+01	  0.113987975	7.436500E+01	  0.113987975	5.636800E+01
471	  0.114188381	-6.945000E+00	  0.114188381	4.203100E+01	  0.114188381	7.467200E+01	  0.114188381	5.632900E+01
472	  0.114388779	-6.943000E+00	  0.114388779	4.180900E+01	  0.114388779	7.499900E+01	  0.114388779	5.635100E+01
473	  0.114589177	-6.942000E+00	  0.114589177	4.160000E+01	  0.114589177	7.530900E+01	  0.114589177	5.636000E+01
474	  0.114789583	-6.940000E+00	  0.114789583	4.136900E+01	  0.114789583	7.565100E+01	  0.114789583	5.637800E+01
475	  0.114989981	-6.938000E+00	  0.114989981	4.112000E+01	  0.114989981	7.602300E+01	  0.114989981	5.639300E+01
476	  0.115190387	-6.937000E+00	  0.115190387	4.090300E+01	  0.115190387	7.634800E+01	  0.115190387	5.640000E+01
477	  0.115390785	-6.940000E+00	  0.115390785	4.066800E+01	  0.115390785	7.670300E+01	  0.115390785	5.636600E+01
478	  0.115591183	-6.938000E+00	  0.115591183	4.043300E+01	  0.115591183	7.705800E+01	  0.115591183	5.637100E+01
479	  0.115791589	-6.935000E+00	  0.115791589	4.021500E+01	  0.115791589	7.739100E+01	  0.115791589	5.639700E+01
480	  0.115991987	-6.935000E+00	  0.115991987	3.999300E+01	  0.115991987	7.773000E+01	  0.115991987	5.638400E+01
481	  0.116192386	-6.934000E+00	  0.116192386	3.976300E+01	  0.116192386	7.808200E+01	  0.116192386	5.637900E+01
482	  0.116392791	-6.932000E+00	  0.116392791	3.952600E+01	  0.116392791	7.844900E+01	  0.116392791	5.637900E+01
483	  0.116593190	-6.933000E+00	  0.116593190	3.929800E+01	  0.116593190	7.880100E+01	  0.116593190	5.634400E+01
484	  0.116793588	-6.930000E+00	  0.116793588	3.907700E+01	  0.116793588	7.914600E+01	  0.116793588	5.636000E+01
485	  0.116993994	-6.929000E+00	  0.116993994	3.885900E+01	  0.116993994	7.948800E+01	  0.116993994	5.634100E+01
486	  0.117194392	-6.925000E+00	  0.117194392	3.861300E+01	  0.117194392	7.987600E+01	  0.117194392	5.635500E+01
487	  0.117394790	-6.929000E+00	  0.117394790	3.841100E+01	  0.117394790	8.019000E+01	  0.117394790	5.629200E+01
488	  0.117595196	-6.927000E+00	  0.117595196	3.817600E+01	  0.117595196	8.056300E+01	  0.117595196	5.627400E+01
489	  0.117795594	-6.925000E+00	  0.117795594	3.794800E+01	  0.117795594	8.092600E+01	  0.117795594	5.626600E+01
490	  0.117995992	-6.926000E+00	  0.117995992	3.773800E+01	  0.117995992	8.125900E+01	  0.117995992	5.622100E+01
491	  0.118196398	-6.925000E+00	  0.118196398	3.751100E+01	  0.118196398	8.162300E+01	  0.118196398	5.618800E+01
492	  0.118396796	-6.925000E+00	  0.118396796	3.726600E+01	  0.118396796	8.201800E+01	  0.118396796	5.615000E+01
