! Anritsu VNA Master:             	Model: MS2036C/10/77
! SN:             	1601066
! /bd0/18may10/bot200.txt
! Existing Calibration Information:
! TYPE:             	Current Settings	Active Cal Settings
! TIME:             	05/10/2018 01:22:23 PM	05/10/2018 01:17:32 PM
! INTERNAL TEMP:    	52.8 C	52.0 C
! # POINTS:         	492	492
! START FREQ:       	20.000 MHz	20.000 MHz
! STOP FREQ:        	118.396 793 MHz	118.396 793 MHz
! SOURCE POWER:     	High	High
! IFBW:             	50 Hz	50 Hz
! AVG FACTOR:       	  1 	  1 
! REF PLANE 1:      	0 mm	0 mm
! REF PLANE 2:      	0 mm	0 mm
! CAL TYPE:         	Full S22	Full S22
! CAL METHOD:       	SOLT	SOLT
! CAL LINE TYPE:    	Coax	Coax
! DUT PORT 1:       	K-Conn(M)	K-Conn(M)
! DUT PORT 2:       	K-Conn(M)	K-Conn(M)
! CAL STATUS:       	OK: Accuracy High	--
! PROP-V:       	0.700
! CABLE LOSS:       	0.000 dB/m
! REF IMPEDANCE:       	50.0
! Trace Specific Parameters:	TR1	TR2	TR3	TR4
! TRACE.#.Y (GRAPH TYPE)	LOG MAG	PHASE	REAL IMPEDANCE	IMAGINARY IMPEDANCE
! TRACE.#.X 	FREQ.GHZ	FREQ.GHZ	FREQ.GHZ	FREQ.GHZ
! S-PARAMETER	S22	S22	S22	S22
! SMOOTH/APERTURE %	0	0	0	0
! WINDOW	NSL	NSL	NSL	NSL
! GATING	OFF	OFF	OFF	OFF
! FGTD	OFF	OFF	OFF	OFF
Marker Information per Trace:	TR1	TR2	TR3	TR4
!MK1	--	"MK1 TR2:  20.000 MHz,PH:-22.32°"	--	--
!MK2	--	--	"MK2 TR3:  70.100 200 MHz,Z:(29.273 ohm, -50.859 ohm)"	--
!MK3	--	--	--	--
!MK4	--	--	--	--
!MK5	--	--	--	--
!MK6	--	--	--	--
!MK7	--	--	--	--
!MK8	--	--	--	--
PNT	TR1.FREQ.GHZ	TR1.LOG MAG.dB	TR2.FREQ.GHZ	TR2.PHASE.deg	TR3.FREQ.GHZ	TR3.REAL IMPEDANCE.ohm	TR4.FREQ.GHZ	TR4.IMAGINARY IMPEDANCE.ohm
1	  0.020000000	-4.547000E+00	  0.020000000	-2.231900E+01	  0.020000000	1.273200E+02	  0.020000000	-8.827700E+01
2	  0.020200402	-4.546000E+00	  0.020200402	-2.253100E+01	  0.020200402	1.264940E+02	  0.020200402	-8.851000E+01
3	  0.020400802	-4.543000E+00	  0.020400802	-2.277100E+01	  0.020400802	1.255750E+02	  0.020400802	-8.880100E+01
4	  0.020601204	-4.546000E+00	  0.020601204	-2.299700E+01	  0.020601204	1.246810E+02	  0.020601204	-8.894700E+01
5	  0.020801604	-4.545000E+00	  0.020801604	-2.321600E+01	  0.020801604	1.238390E+02	  0.020801604	-8.915000E+01
6	  0.021002004	-4.545000E+00	  0.021002004	-2.344800E+01	  0.021002004	1.229480E+02	  0.021002004	-8.935500E+01
7	  0.021202406	-4.546000E+00	  0.021202406	-2.366900E+01	  0.021202406	1.220950E+02	  0.021202406	-8.949200E+01
8	  0.021402806	-4.546000E+00	  0.021402806	-2.390300E+01	  0.021402806	1.212050E+02	  0.021402806	-8.966600E+01
9	  0.021603208	-4.548000E+00	  0.021603208	-2.413500E+01	  0.021603208	1.203210E+02	  0.021603208	-8.978700E+01
10	  0.021803608	-4.547000E+00	  0.021803608	-2.435400E+01	  0.021803608	1.195010E+02	  0.021803608	-8.994800E+01
11	  0.022004008	-4.547000E+00	  0.022004008	-2.458000E+01	  0.022004008	1.186550E+02	  0.022004008	-9.010200E+01
12	  0.022204408	-4.550000E+00	  0.022204408	-2.480200E+01	  0.022204408	1.178190E+02	  0.022204408	-9.016800E+01
13	  0.022404809	-4.551000E+00	  0.022404809	-2.503200E+01	  0.022404809	1.169670E+02	  0.022404809	-9.027100E+01
14	  0.022605211	-4.548000E+00	  0.022605211	-2.526100E+01	  0.022605211	1.161320E+02	  0.022605211	-9.044400E+01
15	  0.022805611	-4.547000E+00	  0.022805611	-2.549300E+01	  0.022805611	1.152860E+02	  0.022805611	-9.057400E+01
16	  0.023006011	-4.547000E+00	  0.023006011	-2.571800E+01	  0.023006011	1.144690E+02	  0.023006011	-9.068100E+01
17	  0.023206413	-4.549000E+00	  0.023206413	-2.593500E+01	  0.023206413	1.136790E+02	  0.023206413	-9.070800E+01
18	  0.023406813	-4.551000E+00	  0.023406813	-2.616000E+01	  0.023406813	1.128680E+02	  0.023406813	-9.074500E+01
19	  0.023607215	-4.551000E+00	  0.023607215	-2.638500E+01	  0.023607215	1.120680E+02	  0.023607215	-9.082000E+01
20	  0.023807615	-4.551000E+00	  0.023807615	-2.661600E+01	  0.023807615	1.112490E+02	  0.023807615	-9.089200E+01
21	  0.024008015	-4.552000E+00	  0.024008015	-2.683900E+01	  0.024008015	1.104620E+02	  0.024008015	-9.093600E+01
22	  0.024208417	-4.553000E+00	  0.024208417	-2.706000E+01	  0.024208417	1.096880E+02	  0.024208417	-9.097200E+01
23	  0.024408817	-4.554000E+00	  0.024408817	-2.729400E+01	  0.024408817	1.088750E+02	  0.024408817	-9.099400E+01
24	  0.024609219	-4.555000E+00	  0.024609219	-2.750900E+01	  0.024609219	1.081350E+02	  0.024609219	-9.100400E+01
25	  0.024809619	-4.555000E+00	  0.024809619	-2.772800E+01	  0.024809619	1.073820E+02	  0.024809619	-9.103200E+01
26	  0.025010020	-4.555000E+00	  0.025010020	-2.795600E+01	  0.025010020	1.066090E+02	  0.025010020	-9.105400E+01
27	  0.025210422	-4.557000E+00	  0.025210422	-2.818800E+01	  0.025210422	1.058230E+02	  0.025210422	-9.103400E+01
28	  0.025410822	-4.556000E+00	  0.025410822	-2.840700E+01	  0.025410822	1.050910E+02	  0.025410822	-9.107200E+01
29	  0.025611224	-4.558000E+00	  0.025611224	-2.863600E+01	  0.025611224	1.043270E+02	  0.025611224	-9.104200E+01
30	  0.025811624	-4.558000E+00	  0.025811624	-2.886100E+01	  0.025811624	1.035840E+02	  0.025811624	-9.103300E+01
31	  0.026012026	-4.560000E+00	  0.026012026	-2.908500E+01	  0.026012026	1.028490E+02	  0.026012026	-9.098600E+01
32	  0.026212426	-4.559000E+00	  0.026212426	-2.930600E+01	  0.026212426	1.021310E+02	  0.026212426	-9.098900E+01
33	  0.026412826	-4.562000E+00	  0.026412826	-2.954000E+01	  0.026412826	1.013750E+02	  0.026412826	-9.092200E+01
34	  0.026613226	-4.562000E+00	  0.026613226	-2.977300E+01	  0.026613226	1.006300E+02	  0.026613226	-9.089600E+01
35	  0.026813626	-4.562000E+00	  0.026813626	-2.999600E+01	  0.026813626	9.991900E+01	  0.026813626	-9.086900E+01
36	  0.027014028	-4.563000E+00	  0.027014028	-3.022700E+01	  0.027014028	9.919000E+01	  0.027014028	-9.081900E+01
37	  0.027214428	-4.561000E+00	  0.027214428	-3.045200E+01	  0.027214428	9.848400E+01	  0.027214428	-9.080400E+01
38	  0.027414829	-4.564000E+00	  0.027414829	-3.067900E+01	  0.027414829	9.778200E+01	  0.027414829	-9.071200E+01
39	  0.027615231	-4.564000E+00	  0.027615231	-3.089700E+01	  0.027615231	9.711000E+01	  0.027615231	-9.065100E+01
40	  0.027815631	-4.565000E+00	  0.027815631	-3.113200E+01	  0.027815631	9.639100E+01	  0.027815631	-9.058200E+01
41	  0.028016033	-4.565000E+00	  0.028016033	-3.136200E+01	  0.028016033	9.569600E+01	  0.028016033	-9.052500E+01
42	  0.028216433	-4.566000E+00	  0.028216433	-3.158700E+01	  0.028216433	9.501900E+01	  0.028216433	-9.044000E+01
43	  0.028416833	-4.566000E+00	  0.028416833	-3.181600E+01	  0.028416833	9.433500E+01	  0.028416833	-9.037200E+01
44	  0.028617235	-4.566000E+00	  0.028617235	-3.204500E+01	  0.028617235	9.365500E+01	  0.028617235	-9.030500E+01
45	  0.028817635	-4.567000E+00	  0.028817635	-3.227000E+01	  0.028817635	9.299600E+01	  0.028817635	-9.021300E+01
46	  0.029018037	-4.567000E+00	  0.029018037	-3.249700E+01	  0.029018037	9.233300E+01	  0.029018037	-9.012100E+01
47	  0.029218437	-4.567000E+00	  0.029218437	-3.272700E+01	  0.029218437	9.166900E+01	  0.029218437	-9.003500E+01
48	  0.029418837	-4.569000E+00	  0.029418837	-3.295100E+01	  0.029418837	9.103200E+01	  0.029418837	-8.991700E+01
49	  0.029619239	-4.570000E+00	  0.029619239	-3.318300E+01	  0.029619239	9.037300E+01	  0.029619239	-8.980500E+01
50	  0.029819639	-4.569000E+00	  0.029819639	-3.340800E+01	  0.029819639	8.973500E+01	  0.029819639	-8.972300E+01
51	  0.030020041	-4.570000E+00	  0.030020041	-3.363600E+01	  0.030020041	8.910100E+01	  0.030020041	-8.960900E+01
52	  0.030220442	-4.571000E+00	  0.030220442	-3.386800E+01	  0.030220442	8.846200E+01	  0.030220442	-8.947400E+01
53	  0.030420844	-4.571000E+00	  0.030420844	-3.409500E+01	  0.030420844	8.783600E+01	  0.030420844	-8.936900E+01
54	  0.030621244	-4.570000E+00	  0.030621244	-3.432000E+01	  0.030621244	8.721900E+01	  0.030621244	-8.927100E+01
55	  0.030821642	-4.573000E+00	  0.030821642	-3.454900E+01	  0.030821642	8.660700E+01	  0.030821642	-8.911200E+01
56	  0.031022044	-4.572000E+00	  0.031022044	-3.477400E+01	  0.031022044	8.600100E+01	  0.031022044	-8.901200E+01
57	  0.031222444	-4.563000E+00	  0.031222444	-3.494900E+01	  0.031222444	8.550300E+01	  0.031222444	-8.907600E+01
58	  0.031422846	-4.562000E+00	  0.031422846	-3.518200E+01	  0.031422846	8.488100E+01	  0.031422846	-8.896700E+01
59	  0.031623244	-4.562000E+00	  0.031623244	-3.540800E+01	  0.031623244	8.428800E+01	  0.031623244	-8.883500E+01
60	  0.031823646	-4.565000E+00	  0.031823646	-3.564400E+01	  0.031823646	8.368700E+01	  0.031823646	-8.864000E+01
61	  0.032024048	-4.565000E+00	  0.032024048	-3.587500E+01	  0.032024048	8.309400E+01	  0.032024048	-8.850000E+01
62	  0.032224450	-4.564000E+00	  0.032224450	-3.610300E+01	  0.032224450	8.250300E+01	  0.032224450	-8.839200E+01
63	  0.032424849	-4.566000E+00	  0.032424849	-3.632100E+01	  0.032424849	8.196100E+01	  0.032424849	-8.821100E+01
64	  0.032625251	-4.567000E+00	  0.032625251	-3.655700E+01	  0.032625251	8.136900E+01	  0.032625251	-8.805700E+01
65	  0.032825653	-4.567000E+00	  0.032825653	-3.678500E+01	  0.032825653	8.080600E+01	  0.032825653	-8.790100E+01
66	  0.033026051	-4.569000E+00	  0.033026051	-3.700700E+01	  0.033026051	8.026300E+01	  0.033026051	-8.773700E+01
67	  0.033226453	-4.569000E+00	  0.033226453	-3.723500E+01	  0.033226453	7.970700E+01	  0.033226453	-8.757600E+01
68	  0.033426855	-4.569000E+00	  0.033426855	-3.747600E+01	  0.033426855	7.912200E+01	  0.033426855	-8.741600E+01
69	  0.033627257	-4.572000E+00	  0.033627257	-3.770600E+01	  0.033627257	7.858000E+01	  0.033627257	-8.721800E+01
70	  0.033827655	-4.571000E+00	  0.033827655	-3.792000E+01	  0.033827655	7.806600E+01	  0.033827655	-8.708800E+01
71	  0.034028057	-4.571000E+00	  0.034028057	-3.815500E+01	  0.034028057	7.751300E+01	  0.034028057	-8.691700E+01
72	  0.034228459	-4.573000E+00	  0.034228459	-3.838000E+01	  0.034228459	7.699700E+01	  0.034228459	-8.672300E+01
73	  0.034428857	-4.572000E+00	  0.034428857	-3.861200E+01	  0.034428857	7.645300E+01	  0.034428857	-8.657400E+01
74	  0.034629259	-4.572000E+00	  0.034629259	-3.883700E+01	  0.034629259	7.593600E+01	  0.034629259	-8.640300E+01
75	  0.034829661	-4.573000E+00	  0.034829661	-3.906600E+01	  0.034829661	7.542000E+01	  0.034829661	-8.622000E+01
76	  0.035030060	-4.575000E+00	  0.035030060	-3.929400E+01	  0.035030060	7.491100E+01	  0.035030060	-8.603000E+01
77	  0.035230462	-4.574000E+00	  0.035230462	-3.952700E+01	  0.035230462	7.438300E+01	  0.035230462	-8.587300E+01
78	  0.035430863	-4.574000E+00	  0.035430863	-3.975100E+01	  0.035430863	7.388700E+01	  0.035430863	-8.570000E+01
79	  0.035631265	-4.575000E+00	  0.035631265	-3.997400E+01	  0.035631265	7.340500E+01	  0.035631265	-8.550300E+01
80	  0.035831664	-4.575000E+00	  0.035831664	-4.020100E+01	  0.035831664	7.290500E+01	  0.035831664	-8.533500E+01
81	  0.036032066	-4.574000E+00	  0.036032066	-4.042500E+01	  0.036032066	7.242000E+01	  0.036032066	-8.516800E+01
82	  0.036232468	-4.577000E+00	  0.036232468	-4.065400E+01	  0.036232468	7.194100E+01	  0.036232468	-8.495000E+01
83	  0.036432866	-4.577000E+00	  0.036432866	-4.088100E+01	  0.036432866	7.146200E+01	  0.036432866	-8.476300E+01
84	  0.036633268	-4.577000E+00	  0.036633268	-4.111500E+01	  0.036633268	7.096600E+01	  0.036633268	-8.458200E+01
85	  0.036833670	-4.578000E+00	  0.036833670	-4.133500E+01	  0.036833670	7.051600E+01	  0.036833670	-8.438500E+01
86	  0.037034072	-4.578000E+00	  0.037034072	-4.155800E+01	  0.037034072	7.005300E+01	  0.037034072	-8.420500E+01
87	  0.037234470	-4.578000E+00	  0.037234470	-4.178400E+01	  0.037234470	6.958900E+01	  0.037234470	-8.402100E+01
88	  0.037434869	-4.579000E+00	  0.037434869	-4.200800E+01	  0.037434869	6.913900E+01	  0.037434869	-8.382400E+01
89	  0.037635271	-4.580000E+00	  0.037635271	-4.222700E+01	  0.037635271	6.870200E+01	  0.037635271	-8.363400E+01
90	  0.037835669	-4.581000E+00	  0.037835669	-4.246300E+01	  0.037835669	6.824000E+01	  0.037835669	-8.341500E+01
91	  0.038036071	-4.582000E+00	  0.038036071	-4.268600E+01	  0.038036071	6.780100E+01	  0.038036071	-8.322400E+01
92	  0.038236473	-4.582000E+00	  0.038236473	-4.289000E+01	  0.038236473	6.740600E+01	  0.038236473	-8.304100E+01
93	  0.038436871	-4.583000E+00	  0.038436871	-4.313400E+01	  0.038436871	6.693700E+01	  0.038436871	-8.282000E+01
94	  0.038637273	-4.581000E+00	  0.038637273	-4.335200E+01	  0.038637273	6.650300E+01	  0.038637273	-8.266100E+01
95	  0.038837675	-4.582000E+00	  0.038837675	-4.358200E+01	  0.038837675	6.607000E+01	  0.038837675	-8.244800E+01
96	  0.039038073	-4.584000E+00	  0.039038073	-4.381100E+01	  0.039038073	6.564800E+01	  0.039038073	-8.222900E+01
97	  0.039238475	-4.584000E+00	  0.039238475	-4.403700E+01	  0.039238475	6.522500E+01	  0.039238475	-8.203000E+01
98	  0.039438877	-4.583000E+00	  0.039438877	-4.427000E+01	  0.039438877	6.478500E+01	  0.039438877	-8.183900E+01
99	  0.039639279	-4.584000E+00	  0.039639279	-4.448400E+01	  0.039639279	6.439600E+01	  0.039639279	-8.164100E+01
100	  0.039839678	-4.586000E+00	  0.039839678	-4.471900E+01	  0.039839678	6.397600E+01	  0.039839678	-8.141900E+01
101	  0.040040080	-4.585000E+00	  0.040040080	-4.493200E+01	  0.040040080	6.358700E+01	  0.040040080	-8.123700E+01
102	  0.040240481	-4.587000E+00	  0.040240481	-4.514900E+01	  0.040240481	6.321000E+01	  0.040240481	-8.101900E+01
103	  0.040440880	-4.587000E+00	  0.040440880	-4.538800E+01	  0.040440880	6.278100E+01	  0.040440880	-8.081400E+01
104	  0.040641282	-4.588000E+00	  0.040641282	-4.560400E+01	  0.040641282	6.240700E+01	  0.040641282	-8.061100E+01
105	  0.040841684	-4.589000E+00	  0.040841684	-4.583100E+01	  0.040841684	6.201600E+01	  0.040841684	-8.039500E+01
106	  0.041042086	-4.590000E+00	  0.041042086	-4.604700E+01	  0.041042086	6.164600E+01	  0.041042086	-8.019500E+01
107	  0.041242484	-4.590000E+00	  0.041242484	-4.627900E+01	  0.041242484	6.125100E+01	  0.041242484	-7.998000E+01
108	  0.041442886	-4.591000E+00	  0.041442886	-4.651300E+01	  0.041442886	6.085500E+01	  0.041442886	-7.976600E+01
109	  0.041643288	-4.590000E+00	  0.041643288	-4.673200E+01	  0.041643288	6.047900E+01	  0.041643288	-7.957800E+01
110	  0.041843686	-4.591000E+00	  0.041843686	-4.695000E+01	  0.041843686	6.012400E+01	  0.041843686	-7.936400E+01
111	  0.042044088	-4.592000E+00	  0.042044088	-4.717700E+01	  0.042044088	5.975200E+01	  0.042044088	-7.915300E+01
112	  0.042244490	-4.593000E+00	  0.042244490	-4.741500E+01	  0.042244490	5.936600E+01	  0.042244490	-7.892700E+01
113	  0.042444889	-4.595000E+00	  0.042444889	-4.763800E+01	  0.042444889	5.901400E+01	  0.042444889	-7.870300E+01
114	  0.042645290	-4.592000E+00	  0.042645290	-4.787600E+01	  0.042645290	5.861200E+01	  0.042645290	-7.851800E+01
115	  0.042845692	-4.594000E+00	  0.042845692	-4.810300E+01	  0.042845692	5.826600E+01	  0.042845692	-7.828100E+01
116	  0.043046094	-4.594000E+00	  0.043046094	-4.832600E+01	  0.043046094	5.791000E+01	  0.043046094	-7.808100E+01
117	  0.043246493	-4.595000E+00	  0.043246493	-4.855800E+01	  0.043246493	5.755400E+01	  0.043246493	-7.785400E+01
118	  0.043446895	-4.598000E+00	  0.043446895	-4.877300E+01	  0.043446895	5.723700E+01	  0.043446895	-7.762600E+01
119	  0.043647297	-4.598000E+00	  0.043647297	-4.901400E+01	  0.043647297	5.685900E+01	  0.043647297	-7.741400E+01
120	  0.043847695	-4.598000E+00	  0.043847695	-4.924900E+01	  0.043847695	5.650500E+01	  0.043847695	-7.719100E+01
121	  0.044048097	-4.600000E+00	  0.044048097	-4.948400E+01	  0.044048097	5.616200E+01	  0.044048097	-7.695400E+01
122	  0.044248499	-4.600000E+00	  0.044248499	-4.968700E+01	  0.044248499	5.585400E+01	  0.044248499	-7.677000E+01
123	  0.044448901	-4.602000E+00	  0.044448901	-4.993400E+01	  0.044448901	5.549800E+01	  0.044448901	-7.652300E+01
124	  0.044649299	-4.603000E+00	  0.044649299	-5.016300E+01	  0.044649299	5.516300E+01	  0.044649299	-7.630900E+01
125	  0.044849701	-4.605000E+00	  0.044849701	-5.039500E+01	  0.044849701	5.483800E+01	  0.044849701	-7.607100E+01
126	  0.045050103	-4.603000E+00	  0.045050103	-5.063400E+01	  0.045050103	5.447800E+01	  0.045050103	-7.587300E+01
127	  0.045250501	-4.603000E+00	  0.045250501	-5.086700E+01	  0.045250501	5.414400E+01	  0.045250501	-7.565700E+01
128	  0.045450903	-4.603000E+00	  0.045450903	-5.110100E+01	  0.045450903	5.381100E+01	  0.045450903	-7.544100E+01
129	  0.045651305	-4.604000E+00	  0.045651305	-5.133100E+01	  0.045651305	5.349700E+01	  0.045651305	-7.521200E+01
130	  0.045851704	-4.606000E+00	  0.045851704	-5.155200E+01	  0.045851704	5.320000E+01	  0.045851704	-7.498900E+01
131	  0.046052102	-4.608000E+00	  0.046052102	-5.177700E+01	  0.046052102	5.289800E+01	  0.046052102	-7.476600E+01
132	  0.046252504	-4.608000E+00	  0.046252504	-5.202300E+01	  0.046252504	5.256100E+01	  0.046252504	-7.453900E+01
133	  0.046452906	-4.608000E+00	  0.046452906	-5.224900E+01	  0.046452906	5.225300E+01	  0.046452906	-7.432800E+01
134	  0.046653304	-4.610000E+00	  0.046653304	-5.248000E+01	  0.046653304	5.195000E+01	  0.046653304	-7.410300E+01
135	  0.046853706	-4.611000E+00	  0.046853706	-5.270400E+01	  0.046853706	5.165900E+01	  0.046853706	-7.388300E+01
136	  0.047054108	-4.611000E+00	  0.047054108	-5.294400E+01	  0.047054108	5.134000E+01	  0.047054108	-7.366400E+01
137	  0.047254506	-4.611000E+00	  0.047254506	-5.317300E+01	  0.047254506	5.103800E+01	  0.047254506	-7.345400E+01
138	  0.047454908	-4.611000E+00	  0.047454908	-5.341700E+01	  0.047454908	5.072300E+01	  0.047454908	-7.322400E+01
139	  0.047655310	-4.612000E+00	  0.047655310	-5.365900E+01	  0.047655310	5.041400E+01	  0.047655310	-7.299600E+01
140	  0.047855709	-4.612000E+00	  0.047855709	-5.387800E+01	  0.047855709	5.013500E+01	  0.047855709	-7.279300E+01
141	  0.048056111	-4.612000E+00	  0.048056111	-5.410500E+01	  0.048056111	4.984800E+01	  0.048056111	-7.258100E+01
142	  0.048256513	-4.615000E+00	  0.048256513	-5.434100E+01	  0.048256513	4.956700E+01	  0.048256513	-7.234200E+01
143	  0.048456915	-4.614000E+00	  0.048456915	-5.457400E+01	  0.048456915	4.927400E+01	  0.048456915	-7.213000E+01
144	  0.048657313	-4.615000E+00	  0.048657313	-5.481700E+01	  0.048657313	4.897800E+01	  0.048657313	-7.190100E+01
145	  0.048857715	-4.615000E+00	  0.048857715	-5.503000E+01	  0.048857715	4.871900E+01	  0.048857715	-7.170400E+01
146	  0.049058117	-4.617000E+00	  0.049058117	-5.527400E+01	  0.049058117	4.843200E+01	  0.049058117	-7.146700E+01
147	  0.049258515	-4.616000E+00	  0.049258515	-5.548800E+01	  0.049258515	4.817100E+01	  0.049258515	-7.127600E+01
148	  0.049458917	-4.618000E+00	  0.049458917	-5.573300E+01	  0.049458917	4.788900E+01	  0.049458917	-7.103800E+01
149	  0.049659319	-4.619000E+00	  0.049659319	-5.595800E+01	  0.049659319	4.763200E+01	  0.049659319	-7.082000E+01
150	  0.049859721	-4.620000E+00	  0.049859721	-5.619900E+01	  0.049859721	4.735200E+01	  0.049859721	-7.059400E+01
151	  0.050060119	-4.620000E+00	  0.050060119	-5.642000E+01	  0.050060119	4.709400E+01	  0.050060119	-7.039500E+01
152	  0.050260521	-4.620000E+00	  0.050260521	-5.664300E+01	  0.050260521	4.683800E+01	  0.050260521	-7.019000E+01
153	  0.050460923	-4.622000E+00	  0.050460923	-5.687000E+01	  0.050460923	4.659400E+01	  0.050460923	-6.996500E+01
154	  0.050661322	-4.622000E+00	  0.050661322	-5.710700E+01	  0.050661322	4.632500E+01	  0.050661322	-6.974900E+01
155	  0.050861724	-4.621000E+00	  0.050861724	-5.734400E+01	  0.050861724	4.605000E+01	  0.050861724	-6.954300E+01
156	  0.051062126	-4.623000E+00	  0.051062126	-5.757300E+01	  0.051062126	4.580600E+01	  0.051062126	-6.932100E+01
157	  0.051262524	-4.623000E+00	  0.051262524	-5.780800E+01	  0.051262524	4.555000E+01	  0.051262524	-6.910300E+01
158	  0.051462926	-4.622000E+00	  0.051462926	-5.803300E+01	  0.051462926	4.529700E+01	  0.051462926	-6.890800E+01
159	  0.051663328	-4.626000E+00	  0.051663328	-5.827100E+01	  0.051663328	4.506600E+01	  0.051663328	-6.866100E+01
160	  0.051863730	-4.624000E+00	  0.051863730	-5.849200E+01	  0.051863730	4.481300E+01	  0.051863730	-6.847900E+01
161	  0.052064128	-4.628000E+00	  0.052064128	-5.872600E+01	  0.052064128	4.458700E+01	  0.052064128	-6.824000E+01
162	  0.052264530	-4.627000E+00	  0.052264530	-5.897300E+01	  0.052264530	4.432100E+01	  0.052264530	-6.802300E+01
163	  0.052464932	-4.627000E+00	  0.052464932	-5.918600E+01	  0.052464932	4.409900E+01	  0.052464932	-6.782900E+01
164	  0.052665330	-4.629000E+00	  0.052665330	-5.943000E+01	  0.052665330	4.385700E+01	  0.052665330	-6.759700E+01
165	  0.052865732	-4.630000E+00	  0.052865732	-5.966100E+01	  0.052865732	4.362200E+01	  0.052865732	-6.738500E+01
166	  0.053066134	-4.629000E+00	  0.053066134	-5.987200E+01	  0.053066134	4.340400E+01	  0.053066134	-6.719900E+01
167	  0.053266536	-4.629000E+00	  0.053266536	-6.010200E+01	  0.053266536	4.316900E+01	  0.053266536	-6.699500E+01
168	  0.053466935	-4.632000E+00	  0.053466935	-6.034800E+01	  0.053466935	4.293600E+01	  0.053466935	-6.675900E+01
169	  0.053667337	-4.631000E+00	  0.053667337	-6.057500E+01	  0.053667337	4.270800E+01	  0.053667337	-6.655800E+01
170	  0.053867739	-4.631000E+00	  0.053867739	-6.080400E+01	  0.053867739	4.248100E+01	  0.053867739	-6.635400E+01
171	  0.054068137	-4.632000E+00	  0.054068137	-6.103300E+01	  0.054068137	4.226100E+01	  0.054068137	-6.614800E+01
172	  0.054268539	-4.632000E+00	  0.054268539	-6.126900E+01	  0.054268539	4.203400E+01	  0.054268539	-6.593500E+01
173	  0.054468941	-4.635000E+00	  0.054468941	-6.147900E+01	  0.054468941	4.184800E+01	  0.054468941	-6.573200E+01
174	  0.054669335	-4.633000E+00	  0.054669335	-6.171600E+01	  0.054669335	4.160900E+01	  0.054669335	-6.553400E+01
175	  0.054869737	-4.636000E+00	  0.054869737	-6.194500E+01	  0.054869737	4.140800E+01	  0.054869737	-6.531700E+01
176	  0.055070139	-4.635000E+00	  0.055070139	-6.218800E+01	  0.055070139	4.117800E+01	  0.055070139	-6.510400E+01
177	  0.055270538	-4.636000E+00	  0.055270538	-6.240400E+01	  0.055270538	4.098000E+01	  0.055270538	-6.490900E+01
178	  0.055470940	-4.636000E+00	  0.055470940	-6.264400E+01	  0.055470940	4.075700E+01	  0.055470940	-6.470200E+01
179	  0.055671342	-4.637000E+00	  0.055671342	-6.287100E+01	  0.055671342	4.055700E+01	  0.055671342	-6.449300E+01
180	  0.055871744	-4.638000E+00	  0.055871744	-6.310400E+01	  0.055871744	4.035100E+01	  0.055871744	-6.428400E+01
181	  0.056072142	-4.639000E+00	  0.056072142	-6.333500E+01	  0.056072142	4.014900E+01	  0.056072142	-6.407600E+01
182	  0.056272544	-4.641000E+00	  0.056272544	-6.356700E+01	  0.056272544	3.995000E+01	  0.056272544	-6.386400E+01
183	  0.056472946	-4.642000E+00	  0.056472946	-6.378800E+01	  0.056472946	3.975900E+01	  0.056472946	-6.366700E+01
184	  0.056673344	-4.642000E+00	  0.056673344	-6.402000E+01	  0.056673344	3.955500E+01	  0.056673344	-6.346600E+01
185	  0.056873746	-4.643000E+00	  0.056873746	-6.425500E+01	  0.056873746	3.935800E+01	  0.056873746	-6.325400E+01
186	  0.057074148	-4.644000E+00	  0.057074148	-6.449100E+01	  0.057074148	3.915600E+01	  0.057074148	-6.304800E+01
187	  0.057274550	-4.644000E+00	  0.057274550	-6.471800E+01	  0.057274550	3.896400E+01	  0.057274550	-6.285100E+01
188	  0.057474948	-4.645000E+00	  0.057474948	-6.494400E+01	  0.057474948	3.877900E+01	  0.057474948	-6.264800E+01
189	  0.057675350	-4.647000E+00	  0.057675350	-6.518300E+01	  0.057675350	3.858900E+01	  0.057675350	-6.243200E+01
190	  0.057875752	-4.648000E+00	  0.057875752	-6.539700E+01	  0.057875752	3.841500E+01	  0.057875752	-6.224400E+01
191	  0.058076151	-4.648000E+00	  0.058076151	-6.564800E+01	  0.058076151	3.820500E+01	  0.058076151	-6.203200E+01
192	  0.058276553	-4.651000E+00	  0.058276553	-6.587400E+01	  0.058276553	3.803300E+01	  0.058276553	-6.182500E+01
193	  0.058476955	-4.652000E+00	  0.058476955	-6.610100E+01	  0.058476955	3.785500E+01	  0.058476955	-6.162400E+01
194	  0.058677353	-4.652000E+00	  0.058677353	-6.635400E+01	  0.058677353	3.764800E+01	  0.058677353	-6.141100E+01
195	  0.058877755	-4.653000E+00	  0.058877755	-6.657000E+01	  0.058877755	3.748300E+01	  0.058877755	-6.121900E+01
196	  0.059078157	-4.654000E+00	  0.059078157	-6.680000E+01	  0.059078157	3.730100E+01	  0.059078157	-6.102400E+01
197	  0.059278559	-4.655000E+00	  0.059278559	-6.703600E+01	  0.059278559	3.712300E+01	  0.059278559	-6.081700E+01
198	  0.059478957	-4.656000E+00	  0.059478957	-6.726500E+01	  0.059478957	3.694900E+01	  0.059478957	-6.061900E+01
199	  0.059679359	-4.656000E+00	  0.059679359	-6.750200E+01	  0.059679359	3.676600E+01	  0.059679359	-6.042000E+01
200	  0.059879761	-4.657000E+00	  0.059879761	-6.772900E+01	  0.059879761	3.659700E+01	  0.059879761	-6.022500E+01
201	  0.060080159	-4.658000E+00	  0.060080159	-6.797000E+01	  0.060080159	3.641500E+01	  0.060080159	-6.002100E+01
202	  0.060280561	-4.659000E+00	  0.060280561	-6.819400E+01	  0.060280561	3.624700E+01	  0.060280561	-5.983100E+01
203	  0.060480963	-4.660000E+00	  0.060480963	-6.842600E+01	  0.060480963	3.608000E+01	  0.060480963	-5.963200E+01
204	  0.060681365	-4.660000E+00	  0.060681365	-6.865600E+01	  0.060681365	3.591000E+01	  0.060681365	-5.943900E+01
205	  0.060881764	-4.661000E+00	  0.060881764	-6.889900E+01	  0.060881764	3.573100E+01	  0.060881764	-5.923600E+01
206	  0.061082166	-4.661000E+00	  0.061082166	-6.911400E+01	  0.061082166	3.557800E+01	  0.061082166	-5.905500E+01
207	  0.061282568	-4.663000E+00	  0.061282568	-6.935200E+01	  0.061282568	3.541300E+01	  0.061282568	-5.885100E+01
208	  0.061482966	-4.663000E+00	  0.061482966	-6.958100E+01	  0.061482966	3.524800E+01	  0.061482966	-5.866200E+01
209	  0.061683368	-4.665000E+00	  0.061683368	-6.982100E+01	  0.061683368	3.508300E+01	  0.061683368	-5.846000E+01
210	  0.061883770	-4.666000E+00	  0.061883770	-7.004400E+01	  0.061883770	3.492900E+01	  0.061883770	-5.827200E+01
211	  0.062084168	-4.666000E+00	  0.062084168	-7.026400E+01	  0.062084168	3.477400E+01	  0.062084168	-5.809300E+01
212	  0.062284570	-4.665000E+00	  0.062284570	-7.051600E+01	  0.062284570	3.459600E+01	  0.062284570	-5.789000E+01
213	  0.062484972	-4.660000E+00	  0.062484972	-7.065800E+01	  0.062484972	3.447000E+01	  0.062484972	-5.779700E+01
214	  0.062685370	-4.659000E+00	  0.062685370	-7.089300E+01	  0.062685370	3.429900E+01	  0.062685370	-5.761300E+01
215	  0.062885776	-4.660000E+00	  0.062885776	-7.112300E+01	  0.062885776	3.414400E+01	  0.062885776	-5.742400E+01
216	  0.063086174	-4.664000E+00	  0.063086174	-7.135500E+01	  0.063086174	3.400900E+01	  0.063086174	-5.721800E+01
217	  0.063286573	-4.663000E+00	  0.063286573	-7.158700E+01	  0.063286573	3.384500E+01	  0.063286573	-5.703700E+01
218	  0.063486971	-4.663000E+00	  0.063486971	-7.182900E+01	  0.063486971	3.368400E+01	  0.063486971	-5.684100E+01
219	  0.063687377	-4.661000E+00	  0.063687377	-7.203700E+01	  0.063687377	3.353400E+01	  0.063687377	-5.668400E+01
220	  0.063887775	-4.661000E+00	  0.063887775	-7.227300E+01	  0.063887775	3.337800E+01	  0.063887775	-5.649500E+01
221	  0.064088173	-4.662000E+00	  0.064088173	-7.249900E+01	  0.064088173	3.323700E+01	  0.064088173	-5.630900E+01
222	  0.064288579	-4.662000E+00	  0.064288579	-7.273800E+01	  0.064288579	3.308000E+01	  0.064288579	-5.612000E+01
223	  0.064488977	-4.665000E+00	  0.064488977	-7.297100E+01	  0.064488977	3.294700E+01	  0.064488977	-5.592100E+01
224	  0.064689375	-4.663000E+00	  0.064689375	-7.320800E+01	  0.064689375	3.278500E+01	  0.064689375	-5.574100E+01
225	  0.064889781	-4.664000E+00	  0.064889781	-7.343300E+01	  0.064889781	3.264600E+01	  0.064889781	-5.556100E+01
226	  0.065090179	-4.666000E+00	  0.065090179	-7.367600E+01	  0.065090179	3.250100E+01	  0.065090179	-5.536200E+01
227	  0.065290578	-4.668000E+00	  0.065290578	-7.392200E+01	  0.065290578	3.236000E+01	  0.065290578	-5.515900E+01
228	  0.065490983	-4.671000E+00	  0.065490983	-7.414700E+01	  0.065490983	3.223400E+01	  0.065490983	-5.497200E+01
229	  0.065691382	-4.668000E+00	  0.065691382	-7.437600E+01	  0.065691382	3.208200E+01	  0.065691382	-5.480200E+01
230	  0.065891780	-4.671000E+00	  0.065891780	-7.461300E+01	  0.065891780	3.195000E+01	  0.065891780	-5.460700E+01
231	  0.066092186	-4.667000E+00	  0.066092186	-7.485500E+01	  0.066092186	3.178500E+01	  0.066092186	-5.443200E+01
232	  0.066292584	-4.669000E+00	  0.066292584	-7.506000E+01	  0.066292584	3.167200E+01	  0.066292584	-5.426500E+01
233	  0.066492982	-4.670000E+00	  0.066492982	-7.530500E+01	  0.066492982	3.152900E+01	  0.066492982	-5.407300E+01
234	  0.066693388	-4.670000E+00	  0.066693388	-7.555500E+01	  0.066693388	3.138200E+01	  0.066693388	-5.387900E+01
235	  0.066893786	-4.672000E+00	  0.066893786	-7.576600E+01	  0.066893786	3.126600E+01	  0.066893786	-5.371000E+01
236	  0.067094192	-4.672000E+00	  0.067094192	-7.596800E+01	  0.067094192	3.114700E+01	  0.067094192	-5.355500E+01
237	  0.067294590	-4.671000E+00	  0.067294590	-7.623100E+01	  0.067294590	3.099200E+01	  0.067294590	-5.335700E+01
238	  0.067494988	-4.677000E+00	  0.067494988	-7.646700E+01	  0.067494988	3.088400E+01	  0.067494988	-5.315500E+01
239	  0.067695394	-4.674000E+00	  0.067695394	-7.669100E+01	  0.067695394	3.074000E+01	  0.067695394	-5.299600E+01
240	  0.067895792	-4.675000E+00	  0.067895792	-7.692900E+01	  0.067895792	3.061100E+01	  0.067895792	-5.281000E+01
241	  0.068096191	-4.679000E+00	  0.068096191	-7.714700E+01	  0.068096191	3.051100E+01	  0.068096191	-5.262800E+01
242	  0.068296596	-4.676000E+00	  0.068296596	-7.739400E+01	  0.068296596	3.035500E+01	  0.068296596	-5.245500E+01
243	  0.068496995	-4.678000E+00	  0.068496995	-7.763000E+01	  0.068496995	3.023400E+01	  0.068496995	-5.227000E+01
244	  0.068697393	-4.679000E+00	  0.068697393	-7.785100E+01	  0.068697393	3.011900E+01	  0.068697393	-5.209800E+01
245	  0.068897791	-4.681000E+00	  0.068897791	-7.809200E+01	  0.068897791	2.999700E+01	  0.068897791	-5.191100E+01
246	  0.069098189	-4.679000E+00	  0.069098189	-7.833000E+01	  0.069098189	2.986100E+01	  0.069098189	-5.173800E+01
247	  0.069298595	-4.681000E+00	  0.069298595	-7.854700E+01	  0.069298595	2.975100E+01	  0.069298595	-5.157100E+01
248	  0.069498993	-4.682000E+00	  0.069498993	-7.878300E+01	  0.069498993	2.963000E+01	  0.069498993	-5.139200E+01
249	  0.069699399	-4.680000E+00	  0.069699399	-7.904600E+01	  0.069699399	2.948400E+01	  0.069699399	-5.120200E+01
250	  0.069899797	-4.686000E+00	  0.069899797	-7.925400E+01	  0.069899797	2.940300E+01	  0.069899797	-5.102700E+01
251	  0.070100196	-4.685000E+00	  0.070100196	-7.948900E+01	  0.070100196	2.927300E+01	  0.070100196	-5.085900E+01
252	  0.070300601	-4.686000E+00	  0.070300601	-7.972600E+01	  0.070300601	2.915600E+01	  0.070300601	-5.068000E+01
253	  0.070501000	-4.689000E+00	  0.070501000	-7.995400E+01	  0.070501000	2.905400E+01	  0.070501000	-5.050200E+01
254	  0.070701398	-4.687000E+00	  0.070701398	-8.020000E+01	  0.070701398	2.892100E+01	  0.070701398	-5.032700E+01
255	  0.070901804	-4.687000E+00	  0.070901804	-8.042000E+01	  0.070901804	2.880900E+01	  0.070901804	-5.016600E+01
256	  0.071102202	-4.689000E+00	  0.071102202	-8.064600E+01	  0.071102202	2.870500E+01	  0.071102202	-4.999500E+01
257	  0.071302600	-4.691000E+00	  0.071302600	-8.090000E+01	  0.071302600	2.858600E+01	  0.071302600	-4.980400E+01
258	  0.071503006	-4.691000E+00	  0.071503006	-8.112800E+01	  0.071503006	2.847600E+01	  0.071503006	-4.963600E+01
259	  0.071703404	-4.693000E+00	  0.071703404	-8.136300E+01	  0.071703404	2.836800E+01	  0.071703404	-4.946100E+01
260	  0.071903802	-4.693000E+00	  0.071903802	-8.159200E+01	  0.071903802	2.825900E+01	  0.071903802	-4.929400E+01
261	  0.072104208	-4.692000E+00	  0.072104208	-8.181300E+01	  0.072104208	2.814500E+01	  0.072104208	-4.914000E+01
262	  0.072304606	-4.694000E+00	  0.072304606	-8.206700E+01	  0.072304606	2.803300E+01	  0.072304606	-4.895000E+01
263	  0.072505005	-4.693000E+00	  0.072505005	-8.230600E+01	  0.072505005	2.791500E+01	  0.072505005	-4.878200E+01
264	  0.072705410	-4.696000E+00	  0.072705410	-8.252300E+01	  0.072705410	2.782200E+01	  0.072705410	-4.862000E+01
265	  0.072905809	-4.695000E+00	  0.072905809	-8.275100E+01	  0.072905809	2.771400E+01	  0.072905809	-4.845900E+01
266	  0.073106214	-4.696000E+00	  0.073106214	-8.299100E+01	  0.073106214	2.760500E+01	  0.073106214	-4.828500E+01
267	  0.073306613	-4.700000E+00	  0.073306613	-8.322400E+01	  0.073306613	2.751500E+01	  0.073306613	-4.810900E+01
268	  0.073507011	-4.698000E+00	  0.073507011	-8.346300E+01	  0.073507011	2.739600E+01	  0.073507011	-4.794500E+01
269	  0.073707417	-4.699000E+00	  0.073707417	-8.368200E+01	  0.073707417	2.730100E+01	  0.073707417	-4.778800E+01
270	  0.073907815	-4.700000E+00	  0.073907815	-8.393100E+01	  0.073907815	2.719500E+01	  0.073907815	-4.760800E+01
271	  0.074108213	-4.704000E+00	  0.074108213	-8.415700E+01	  0.074108213	2.710700E+01	  0.074108213	-4.744000E+01
272	  0.074308619	-4.703000E+00	  0.074308619	-8.439600E+01	  0.074308619	2.699900E+01	  0.074308619	-4.727300E+01
273	  0.074509017	-4.703000E+00	  0.074509017	-8.462100E+01	  0.074509017	2.689600E+01	  0.074509017	-4.711800E+01
274	  0.074709415	-4.704000E+00	  0.074709415	-8.484600E+01	  0.074709415	2.680300E+01	  0.074709415	-4.695900E+01
275	  0.074909821	-4.702000E+00	  0.074909821	-8.506800E+01	  0.074909821	2.669900E+01	  0.074909821	-4.680700E+01
276	  0.075110219	-4.707000E+00	  0.075110219	-8.532000E+01	  0.075110219	2.661100E+01	  0.075110219	-4.661900E+01
277	  0.075310618	-4.706000E+00	  0.075310618	-8.552900E+01	  0.075310618	2.651400E+01	  0.075310618	-4.648000E+01
278	  0.075511023	-4.709000E+00	  0.075511023	-8.579200E+01	  0.075511023	2.641500E+01	  0.075511023	-4.628900E+01
279	  0.075711422	-4.708000E+00	  0.075711422	-8.600500E+01	  0.075711422	2.632100E+01	  0.075711422	-4.614500E+01
280	  0.075911827	-4.710000E+00	  0.075911827	-8.621600E+01	  0.075911827	2.623900E+01	  0.075911827	-4.599600E+01
281	  0.076112226	-4.711000E+00	  0.076112226	-8.647900E+01	  0.076112226	2.613400E+01	  0.076112226	-4.581200E+01
282	  0.076312624	-4.713000E+00	  0.076312624	-8.669900E+01	  0.076312624	2.605100E+01	  0.076312624	-4.565700E+01
283	  0.076513030	-4.710000E+00	  0.076513030	-8.694700E+01	  0.076513030	2.593800E+01	  0.076513030	-4.549500E+01
284	  0.076713428	-4.713000E+00	  0.076713428	-8.715800E+01	  0.076713428	2.586400E+01	  0.076713428	-4.534400E+01
285	  0.076913826	-4.711000E+00	  0.076913826	-8.740200E+01	  0.076913826	2.575600E+01	  0.076913826	-4.518400E+01
286	  0.077114232	-4.711000E+00	  0.077114232	-8.763800E+01	  0.077114232	2.566100E+01	  0.077114232	-4.502400E+01
287	  0.077314630	-4.716000E+00	  0.077314630	-8.786700E+01	  0.077314630	2.558800E+01	  0.077314630	-4.485800E+01
288	  0.077515028	-4.715000E+00	  0.077515028	-8.810600E+01	  0.077515028	2.549000E+01	  0.077515028	-4.469800E+01
289	  0.077715434	-4.716000E+00	  0.077715434	-8.833400E+01	  0.077715434	2.540600E+01	  0.077715434	-4.454200E+01
290	  0.077915832	-4.713000E+00	  0.077915832	-8.857800E+01	  0.077915832	2.529300E+01	  0.077915832	-4.438800E+01
291	  0.078116231	-4.714000E+00	  0.078116231	-8.880000E+01	  0.078116231	2.521100E+01	  0.078116231	-4.423700E+01
292	  0.078316636	-4.716000E+00	  0.078316636	-8.902800E+01	  0.078316636	2.513400E+01	  0.078316636	-4.407900E+01
293	  0.078517035	-4.715000E+00	  0.078517035	-8.927200E+01	  0.078517035	2.503200E+01	  0.078517035	-4.392100E+01
294	  0.078717433	-4.717000E+00	  0.078717433	-8.950800E+01	  0.078717433	2.495300E+01	  0.078717433	-4.375900E+01
295	  0.078917839	-4.716000E+00	  0.078917839	-8.975000E+01	  0.078917839	2.485600E+01	  0.078917839	-4.360200E+01
296	  0.079118237	-4.719000E+00	  0.079118237	-8.997200E+01	  0.079118237	2.478700E+01	  0.079118237	-4.344700E+01
297	  0.079318643	-4.721000E+00	  0.079318643	-9.021300E+01	  0.079318643	2.470500E+01	  0.079318643	-4.328300E+01
298	  0.079519041	-4.722000E+00	  0.079519041	-9.044300E+01	  0.079519041	2.462300E+01	  0.079519041	-4.313100E+01
299	  0.079719439	-4.721000E+00	  0.079719439	-9.067500E+01	  0.079719439	2.453400E+01	  0.079719439	-4.298000E+01
300	  0.079919845	-4.722000E+00	  0.079919845	-9.089100E+01	  0.079919845	2.445800E+01	  0.079919845	-4.283800E+01
301	  0.080120243	-4.723000E+00	  0.080120243	-9.112800E+01	  0.080120243	2.437600E+01	  0.080120243	-4.268100E+01
302	  0.080320641	-4.722000E+00	  0.080320641	-9.137700E+01	  0.080320641	2.428300E+01	  0.080320641	-4.252100E+01
303	  0.080521047	-4.724000E+00	  0.080521047	-9.159900E+01	  0.080521047	2.420800E+01	  0.080521047	-4.237400E+01
304	  0.080721445	-4.724000E+00	  0.080721445	-9.182500E+01	  0.080721445	2.412900E+01	  0.080721445	-4.222700E+01
305	  0.080921844	-4.727000E+00	  0.080921844	-9.206000E+01	  0.080921844	2.405900E+01	  0.080921844	-4.206900E+01
306	  0.081122249	-4.728000E+00	  0.081122249	-9.229000E+01	  0.081122249	2.398000E+01	  0.081122249	-4.191900E+01
307	  0.081322648	-4.729000E+00	  0.081322648	-9.253800E+01	  0.081322648	2.389900E+01	  0.081322648	-4.175700E+01
308	  0.081523046	-4.729000E+00	  0.081523046	-9.278000E+01	  0.081523046	2.381700E+01	  0.081523046	-4.160100E+01
309	  0.081723452	-4.730000E+00	  0.081723452	-9.299400E+01	  0.081723452	2.374500E+01	  0.081723452	-4.146300E+01
310	  0.081923850	-4.728000E+00	  0.081923850	-9.323500E+01	  0.081923850	2.365700E+01	  0.081923850	-4.131200E+01
311	  0.082124248	-4.731000E+00	  0.082124248	-9.346200E+01	  0.082124248	2.359200E+01	  0.082124248	-4.116200E+01
312	  0.082324654	-4.733000E+00	  0.082324654	-9.369100E+01	  0.082324654	2.352100E+01	  0.082324654	-4.101300E+01
313	  0.082525052	-4.734000E+00	  0.082525052	-9.391200E+01	  0.082525052	2.345200E+01	  0.082525052	-4.087100E+01
314	  0.082725458	-4.735000E+00	  0.082725458	-9.414600E+01	  0.082725458	2.337800E+01	  0.082725458	-4.072000E+01
315	  0.082925856	-4.735000E+00	  0.082925856	-9.438800E+01	  0.082925856	2.329700E+01	  0.082925856	-4.056900E+01
316	  0.083126254	-4.736000E+00	  0.083126254	-9.462100E+01	  0.083126254	2.322600E+01	  0.083126254	-4.041900E+01
317	  0.083326660	-4.737000E+00	  0.083326660	-9.486300E+01	  0.083326660	2.315200E+01	  0.083326660	-4.026500E+01
318	  0.083527058	-4.737000E+00	  0.083527058	-9.507500E+01	  0.083527058	2.308100E+01	  0.083527058	-4.013400E+01
319	  0.083727457	-4.737000E+00	  0.083727457	-9.530000E+01	  0.083727457	2.300900E+01	  0.083727457	-3.999300E+01
320	  0.083927862	-4.739000E+00	  0.083927862	-9.555400E+01	  0.083927862	2.293500E+01	  0.083927862	-3.983200E+01
321	  0.084128261	-4.740000E+00	  0.084128261	-9.578700E+01	  0.084128261	2.286800E+01	  0.084128261	-3.968300E+01
322	  0.084328659	-4.740000E+00	  0.084328659	-9.602400E+01	  0.084328659	2.279300E+01	  0.084328659	-3.953700E+01
323	  0.084529065	-4.740000E+00	  0.084529065	-9.626300E+01	  0.084529065	2.271600E+01	  0.084529065	-3.939000E+01
324	  0.084729463	-4.742000E+00	  0.084729463	-9.649600E+01	  0.084729463	2.265400E+01	  0.084729463	-3.924100E+01
325	  0.084929854	-4.742000E+00	  0.084929854	-9.672300E+01	  0.084929854	2.258100E+01	  0.084929854	-3.910300E+01
326	  0.085130259	-4.745000E+00	  0.085130259	-9.696100E+01	  0.085130259	2.252200E+01	  0.085130259	-3.895000E+01
327	  0.085330658	-4.744000E+00	  0.085330658	-9.719200E+01	  0.085330658	2.244500E+01	  0.085330658	-3.881200E+01
328	  0.085531056	-4.747000E+00	  0.085531056	-9.740000E+01	  0.085531056	2.239700E+01	  0.085531056	-3.867700E+01
329	  0.085731462	-4.749000E+00	  0.085731462	-9.767300E+01	  0.085731462	2.232200E+01	  0.085731462	-3.850700E+01
330	  0.085931860	-4.747000E+00	  0.085931860	-9.789700E+01	  0.085931860	2.224800E+01	  0.085931860	-3.837500E+01
331	  0.086132258	-4.750000E+00	  0.086132258	-9.814100E+01	  0.086132258	2.218500E+01	  0.086132258	-3.822300E+01
332	  0.086332664	-4.750000E+00	  0.086332664	-9.837600E+01	  0.086332664	2.211500E+01	  0.086332664	-3.808000E+01
333	  0.086533062	-4.751000E+00	  0.086533062	-9.858700E+01	  0.086533062	2.205900E+01	  0.086533062	-3.795100E+01
334	  0.086733460	-4.752000E+00	  0.086733460	-9.881800E+01	  0.086733460	2.199700E+01	  0.086733460	-3.780900E+01
335	  0.086933866	-4.754000E+00	  0.086933866	-9.906600E+01	  0.086933866	2.193100E+01	  0.086933866	-3.765700E+01
336	  0.087134264	-4.753000E+00	  0.087134264	-9.929700E+01	  0.087134264	2.186200E+01	  0.087134264	-3.752000E+01
337	  0.087334670	-4.755000E+00	  0.087334670	-9.953800E+01	  0.087334670	2.180200E+01	  0.087334670	-3.737200E+01
338	  0.087535068	-4.753000E+00	  0.087535068	-9.978000E+01	  0.087535068	2.172500E+01	  0.087535068	-3.723100E+01
339	  0.087735467	-4.761000E+00	  0.087735467	-1.000010E+02	  0.087735467	2.169200E+01	  0.087735467	-3.708600E+01
340	  0.087935872	-4.760000E+00	  0.087935872	-1.002380E+02	  0.087935872	2.162200E+01	  0.087935872	-3.694700E+01
341	  0.088136271	-4.765000E+00	  0.088136271	-1.004650E+02	  0.088136271	2.157700E+01	  0.088136271	-3.680400E+01
342	  0.088336669	-4.763000E+00	  0.088336669	-1.006930E+02	  0.088336669	2.150900E+01	  0.088336669	-3.667200E+01
343	  0.088537075	-4.767000E+00	  0.088537075	-1.009350E+02	  0.088537075	2.145600E+01	  0.088537075	-3.652300E+01
344	  0.088737473	-4.767000E+00	  0.088737473	-1.011740E+02	  0.088737473	2.139300E+01	  0.088737473	-3.638100E+01
345	  0.088937871	-4.767000E+00	  0.088937871	-1.013830E+02	  0.088937871	2.133400E+01	  0.088937871	-3.626000E+01
346	  0.089138277	-4.768000E+00	  0.089138277	-1.016300E+02	  0.089138277	2.127100E+01	  0.089138277	-3.611300E+01
347	  0.089338675	-4.769000E+00	  0.089338675	-1.018790E+02	  0.089338675	2.120900E+01	  0.089338675	-3.596600E+01
348	  0.089539073	-4.772000E+00	  0.089539073	-1.020990E+02	  0.089539073	2.116400E+01	  0.089539073	-3.583200E+01
349	  0.089739479	-4.775000E+00	  0.089739479	-1.023440E+02	  0.089739479	2.110900E+01	  0.089739479	-3.568400E+01
350	  0.089939877	-4.775000E+00	  0.089939877	-1.025780E+02	  0.089939877	2.104700E+01	  0.089939877	-3.554900E+01
351	  0.090140276	-4.775000E+00	  0.090140276	-1.028090E+02	  0.090140276	2.098800E+01	  0.090140276	-3.541500E+01
352	  0.090340681	-4.774000E+00	  0.090340681	-1.030440E+02	  0.090340681	2.092600E+01	  0.090340681	-3.528000E+01
353	  0.090541080	-4.781000E+00	  0.090541080	-1.032690E+02	  0.090541080	2.089400E+01	  0.090541080	-3.513900E+01
354	  0.090741485	-4.777000E+00	  0.090741485	-1.035160E+02	  0.090741485	2.081600E+01	  0.090741485	-3.500300E+01
355	  0.090941884	-4.782000E+00	  0.090941884	-1.037580E+02	  0.090941884	2.077300E+01	  0.090941884	-3.485600E+01
356	  0.091142282	-4.782000E+00	  0.091142282	-1.039820E+02	  0.091142282	2.071500E+01	  0.091142282	-3.472900E+01
357	  0.091342688	-4.782000E+00	  0.091342688	-1.042330E+02	  0.091342688	2.065500E+01	  0.091342688	-3.458400E+01
358	  0.091543086	-4.786000E+00	  0.091543086	-1.044590E+02	  0.091543086	2.061200E+01	  0.091543086	-3.445000E+01
359	  0.091743484	-4.784000E+00	  0.091743484	-1.047030E+02	  0.091743484	2.054500E+01	  0.091743484	-3.431300E+01
360	  0.091943890	-4.790000E+00	  0.091943890	-1.049220E+02	  0.091943890	2.051400E+01	  0.091943890	-3.418000E+01
361	  0.092144288	-4.787000E+00	  0.092144288	-1.051790E+02	  0.092144288	2.043900E+01	  0.092144288	-3.403900E+01
362	  0.092344686	-4.790000E+00	  0.092344686	-1.054020E+02	  0.092344686	2.039700E+01	  0.092344686	-3.390800E+01
363	  0.092545092	-4.789000E+00	  0.092545092	-1.056400E+02	  0.092545092	2.033500E+01	  0.092545092	-3.377500E+01
364	  0.092745490	-4.793000E+00	  0.092745490	-1.058840E+02	  0.092745490	2.029300E+01	  0.092745490	-3.363200E+01
365	  0.092945889	-4.790000E+00	  0.092945889	-1.061230E+02	  0.092945889	2.022500E+01	  0.092945889	-3.350200E+01
366	  0.093146294	-4.794000E+00	  0.093146294	-1.063370E+02	  0.093146294	2.018700E+01	  0.093146294	-3.337700E+01
367	  0.093346693	-4.793000E+00	  0.093346693	-1.065980E+02	  0.093346693	2.012400E+01	  0.093346693	-3.323200E+01
368	  0.093547091	-4.796000E+00	  0.093547091	-1.068360E+02	  0.093547091	2.007800E+01	  0.093547091	-3.309500E+01
369	  0.093747497	-4.794000E+00	  0.093747497	-1.070770E+02	  0.093747497	2.001500E+01	  0.093747497	-3.296400E+01
370	  0.093947895	-4.799000E+00	  0.093947895	-1.072980E+02	  0.093947895	1.998200E+01	  0.093947895	-3.283400E+01
371	  0.094148301	-4.797000E+00	  0.094148301	-1.075510E+02	  0.094148301	1.992000E+01	  0.094148301	-3.269600E+01
372	  0.094348699	-4.802000E+00	  0.094348699	-1.077640E+02	  0.094348699	1.988700E+01	  0.094348699	-3.257200E+01
373	  0.094549097	-4.802000E+00	  0.094549097	-1.080000E+02	  0.094549097	1.983500E+01	  0.094549097	-3.244100E+01
374	  0.094749503	-4.801000E+00	  0.094749503	-1.082420E+02	  0.094749503	1.977700E+01	  0.094749503	-3.230900E+01
375	  0.094949901	-4.803000E+00	  0.094949901	-1.084710E+02	  0.094949901	1.973200E+01	  0.094949901	-3.218100E+01
376	  0.095150299	-4.801000E+00	  0.095150299	-1.087290E+02	  0.095150299	1.967000E+01	  0.095150299	-3.204100E+01
377	  0.095350705	-4.806000E+00	  0.095350705	-1.089550E+02	  0.095350705	1.964000E+01	  0.095350705	-3.191000E+01
378	  0.095551103	-4.805000E+00	  0.095551103	-1.091980E+02	  0.095551103	1.958200E+01	  0.095551103	-3.177900E+01
379	  0.095751502	-4.808000E+00	  0.095751502	-1.094290E+02	  0.095751502	1.954100E+01	  0.095751502	-3.165000E+01
380	  0.095951907	-4.808000E+00	  0.095951907	-1.096760E+02	  0.095951907	1.948800E+01	  0.095951907	-3.151500E+01
381	  0.096152306	-4.806000E+00	  0.096152306	-1.099010E+02	  0.096152306	1.943600E+01	  0.096152306	-3.139500E+01
382	  0.096352704	-4.810000E+00	  0.096352704	-1.101380E+02	  0.096352704	1.939800E+01	  0.096352704	-3.126100E+01
383	  0.096553110	-4.811000E+00	  0.096553110	-1.103800E+02	  0.096553110	1.934900E+01	  0.096553110	-3.113000E+01
384	  0.096753508	-4.812000E+00	  0.096753508	-1.106130E+02	  0.096753508	1.930400E+01	  0.096753508	-3.100200E+01
385	  0.096953906	-4.811000E+00	  0.096953906	-1.108420E+02	  0.096953906	1.925500E+01	  0.096953906	-3.087900E+01
386	  0.097154312	-4.813000E+00	  0.097154312	-1.110880E+02	  0.097154312	1.920900E+01	  0.097154312	-3.074500E+01
387	  0.097354710	-4.813000E+00	  0.097354710	-1.113250E+02	  0.097354710	1.916100E+01	  0.097354710	-3.061800E+01
388	  0.097555116	-4.816000E+00	  0.097555116	-1.115650E+02	  0.097555116	1.912300E+01	  0.097555116	-3.048500E+01
389	  0.097755514	-4.816000E+00	  0.097755514	-1.117940E+02	  0.097755514	1.907500E+01	  0.097755514	-3.036300E+01
390	  0.097955912	-4.814000E+00	  0.097955912	-1.120380E+02	  0.097955912	1.902000E+01	  0.097955912	-3.023600E+01
391	  0.098156318	-4.819000E+00	  0.098156318	-1.122790E+02	  0.098156318	1.899000E+01	  0.098156318	-3.010100E+01
392	  0.098356716	-4.820000E+00	  0.098356716	-1.125230E+02	  0.098356716	1.894400E+01	  0.098356716	-2.997100E+01
393	  0.098557115	-4.819000E+00	  0.098557115	-1.127480E+02	  0.098557115	1.889600E+01	  0.098557115	-2.985200E+01
394	  0.098757520	-4.819000E+00	  0.098757520	-1.129820E+02	  0.098757520	1.885000E+01	  0.098757520	-2.972800E+01
395	  0.098957919	-4.820000E+00	  0.098957919	-1.132290E+02	  0.098957919	1.880700E+01	  0.098957919	-2.959600E+01
396	  0.099158317	-4.820000E+00	  0.099158317	-1.134520E+02	  0.099158317	1.876200E+01	  0.099158317	-2.947900E+01
397	  0.099358723	-4.821000E+00	  0.099358723	-1.136860E+02	  0.099358723	1.872300E+01	  0.099358723	-2.935400E+01
398	  0.099559121	-4.824000E+00	  0.099559121	-1.139330E+02	  0.099559121	1.868300E+01	  0.099559121	-2.922100E+01
399	  0.099759519	-4.821000E+00	  0.099759519	-1.141700E+02	  0.099759519	1.863000E+01	  0.099759519	-2.910000E+01
400	  0.099959925	-4.816000E+00	  0.099959925	-1.143870E+02	  0.099959925	1.857100E+01	  0.099959925	-2.899300E+01
401	  0.100160323	-4.813000E+00	  0.100160323	-1.146190E+02	  0.100160323	1.851800E+01	  0.100160323	-2.887500E+01
402	  0.100360721	-4.823000E+00	  0.100360721	-1.148490E+02	  0.100360721	1.851000E+01	  0.100360721	-2.874300E+01
403	  0.100561127	-4.817000E+00	  0.100561127	-1.150970E+02	  0.100561127	1.844200E+01	  0.100561127	-2.862200E+01
404	  0.100761525	-4.823000E+00	  0.100761525	-1.153280E+02	  0.100761525	1.842000E+01	  0.100761525	-2.849400E+01
405	  0.100961931	-4.820000E+00	  0.100961931	-1.155500E+02	  0.100961931	1.837000E+01	  0.100961931	-2.838300E+01
406	  0.101162329	-4.824000E+00	  0.101162329	-1.157990E+02	  0.101162329	1.833900E+01	  0.101162329	-2.825000E+01
407	  0.101362728	-4.825000E+00	  0.101362728	-1.160470E+02	  0.101362728	1.829700E+01	  0.101362728	-2.812000E+01
408	  0.101563133	-4.827000E+00	  0.101563133	-1.162770E+02	  0.101563133	1.826300E+01	  0.101563133	-2.799900E+01
409	  0.101763532	-4.827000E+00	  0.101763532	-1.165110E+02	  0.101763532	1.821900E+01	  0.101763532	-2.787900E+01
410	  0.101963930	-4.826000E+00	  0.101963930	-1.167580E+02	  0.101963930	1.817500E+01	  0.101963930	-2.775300E+01
411	  0.102164328	-4.831000E+00	  0.102164328	-1.169960E+02	  0.102164328	1.814900E+01	  0.102164328	-2.762500E+01
412	  0.102364726	-4.834000E+00	  0.102364726	-1.172270E+02	  0.102364726	1.811800E+01	  0.102364726	-2.750400E+01
413	  0.102565125	-4.837000E+00	  0.102565125	-1.174580E+02	  0.102565125	1.808700E+01	  0.102565125	-2.738300E+01
414	  0.102765530	-4.837000E+00	  0.102765530	-1.177070E+02	  0.102765530	1.804700E+01	  0.102765530	-2.725500E+01
415	  0.102965929	-4.838000E+00	  0.102965929	-1.179610E+02	  0.102965929	1.800500E+01	  0.102965929	-2.712600E+01
416	  0.103166327	-4.839000E+00	  0.103166327	-1.181810E+02	  0.103166327	1.797200E+01	  0.103166327	-2.701200E+01
417	  0.103366733	-4.842000E+00	  0.103366733	-1.184180E+02	  0.103366733	1.794200E+01	  0.103366733	-2.688900E+01
418	  0.103567131	-4.842000E+00	  0.103567131	-1.186490E+02	  0.103567131	1.790200E+01	  0.103567131	-2.677200E+01
419	  0.103767529	-4.846000E+00	  0.103767529	-1.188990E+02	  0.103767529	1.787500E+01	  0.103767529	-2.664200E+01
420	  0.103967935	-4.844000E+00	  0.103967935	-1.191480E+02	  0.103967935	1.782500E+01	  0.103967935	-2.651900E+01
421	  0.104168333	-4.841000E+00	  0.104168333	-1.193740E+02	  0.104168333	1.778000E+01	  0.104168333	-2.640800E+01
422	  0.104368731	-4.845000E+00	  0.104368731	-1.196090E+02	  0.104368731	1.775500E+01	  0.104368731	-2.628500E+01
423	  0.104569137	-4.845000E+00	  0.104569137	-1.198580E+02	  0.104569137	1.771300E+01	  0.104569137	-2.616100E+01
424	  0.104769535	-4.846000E+00	  0.104769535	-1.201000E+02	  0.104769535	1.767800E+01	  0.104769535	-2.603800E+01
425	  0.104969934	-4.848000E+00	  0.104969934	-1.203620E+02	  0.104969934	1.764300E+01	  0.104969934	-2.590500E+01
426	  0.105170339	-4.847000E+00	  0.105170339	-1.205840E+02	  0.105170339	1.760500E+01	  0.105170339	-2.579500E+01
427	  0.105370738	-4.856000E+00	  0.105370738	-1.208160E+02	  0.105370738	1.759700E+01	  0.105370738	-2.567100E+01
428	  0.105571143	-4.849000E+00	  0.105571143	-1.210560E+02	  0.105571143	1.753700E+01	  0.105571143	-2.555900E+01
429	  0.105771542	-4.854000E+00	  0.105771542	-1.213130E+02	  0.105771542	1.751400E+01	  0.105771542	-2.542500E+01
430	  0.105971940	-4.854000E+00	  0.105971940	-1.215370E+02	  0.105971940	1.747800E+01	  0.105971940	-2.531500E+01
431	  0.106172346	-4.857000E+00	  0.106172346	-1.217920E+02	  0.106172346	1.744900E+01	  0.106172346	-2.518600E+01
432	  0.106372744	-4.856000E+00	  0.106372744	-1.220060E+02	  0.106372744	1.741300E+01	  0.106372744	-2.508100E+01
433	  0.106573142	-4.858000E+00	  0.106573142	-1.222730E+02	  0.106573142	1.737800E+01	  0.106573142	-2.494800E+01
434	  0.106773548	-4.859000E+00	  0.106773548	-1.225030E+02	  0.106773548	1.734700E+01	  0.106773548	-2.483300E+01
435	  0.106973946	-4.856000E+00	  0.106973946	-1.227560E+02	  0.106973946	1.730000E+01	  0.106973946	-2.471300E+01
436	  0.107174344	-4.855000E+00	  0.107174344	-1.229750E+02	  0.107174344	1.726400E+01	  0.107174344	-2.460600E+01
437	  0.107374750	-4.866000E+00	  0.107374750	-1.232210E+02	  0.107374750	1.726400E+01	  0.107374750	-2.447500E+01
438	  0.107575148	-4.860000E+00	  0.107575148	-1.234700E+02	  0.107575148	1.720800E+01	  0.107575148	-2.435900E+01
439	  0.107775547	-4.866000E+00	  0.107775547	-1.236950E+02	  0.107775547	1.719300E+01	  0.107775547	-2.424400E+01
440	  0.107975952	-4.861000E+00	  0.107975952	-1.239350E+02	  0.107975952	1.714200E+01	  0.107975952	-2.413200E+01
441	  0.108176351	-4.864000E+00	  0.108176351	-1.242020E+02	  0.108176351	1.711400E+01	  0.108176351	-2.399900E+01
442	  0.108376749	-4.864000E+00	  0.108376749	-1.244310E+02	  0.108376749	1.708000E+01	  0.108376749	-2.388800E+01
443	  0.108577155	-4.868000E+00	  0.108577155	-1.246680E+02	  0.108577155	1.705900E+01	  0.108577155	-2.376900E+01
444	  0.108777553	-4.867000E+00	  0.108777553	-1.249010E+02	  0.108777553	1.702500E+01	  0.108777553	-2.365700E+01
445	  0.108977959	-4.871000E+00	  0.108977959	-1.251520E+02	  0.108977959	1.700000E+01	  0.108977959	-2.353300E+01
446	  0.109178357	-4.870000E+00	  0.109178357	-1.253880E+02	  0.109178357	1.696600E+01	  0.109178357	-2.341900E+01
447	  0.109378755	-4.874000E+00	  0.109378755	-1.256250E+02	  0.109378755	1.694600E+01	  0.109378755	-2.330100E+01
448	  0.109579161	-4.871000E+00	  0.109579161	-1.258740E+02	  0.109579161	1.690300E+01	  0.109579161	-2.318500E+01
449	  0.109779559	-4.874000E+00	  0.109779559	-1.260990E+02	  0.109779559	1.688100E+01	  0.109779559	-2.307400E+01
450	  0.109979957	-4.878000E+00	  0.109979957	-1.263460E+02	  0.109979957	1.685900E+01	  0.109979957	-2.295200E+01
451	  0.110180363	-4.874000E+00	  0.110180363	-1.266070E+02	  0.110180363	1.681200E+01	  0.110180363	-2.283100E+01
452	  0.110380761	-4.876000E+00	  0.110380761	-1.268320E+02	  0.110380761	1.678900E+01	  0.110380761	-2.272100E+01
453	  0.110581160	-4.879000E+00	  0.110581160	-1.270730E+02	  0.110581160	1.676600E+01	  0.110581160	-2.260400E+01
454	  0.110781565	-4.882000E+00	  0.110781565	-1.273140E+02	  0.110781565	1.674300E+01	  0.110781565	-2.248700E+01
455	  0.110981964	-4.880000E+00	  0.110981964	-1.275530E+02	  0.110981964	1.670400E+01	  0.110981964	-2.237500E+01
456	  0.111182362	-4.884000E+00	  0.111182362	-1.277920E+02	  0.111182362	1.668700E+01	  0.111182362	-2.225800E+01
457	  0.111382768	-4.882000E+00	  0.111382768	-1.280340E+02	  0.111382768	1.665100E+01	  0.111382768	-2.214500E+01
458	  0.111583166	-4.884000E+00	  0.111583166	-1.282860E+02	  0.111583166	1.662400E+01	  0.111583166	-2.202400E+01
459	  0.111783572	-4.883000E+00	  0.111783572	-1.285280E+02	  0.111783572	1.658800E+01	  0.111783572	-2.191100E+01
460	  0.111983970	-4.884000E+00	  0.111983970	-1.287540E+02	  0.111983970	1.656500E+01	  0.111983970	-2.180300E+01
461	  0.112184368	-4.888000E+00	  0.112184368	-1.289930E+02	  0.112184368	1.654700E+01	  0.112184368	-2.168700E+01
462	  0.112384774	-4.888000E+00	  0.112384774	-1.292310E+02	  0.112384774	1.651700E+01	  0.112384774	-2.157600E+01
463	  0.112585172	-4.890000E+00	  0.112585172	-1.294640E+02	  0.112585172	1.649600E+01	  0.112585172	-2.146400E+01
464	  0.112785570	-4.891000E+00	  0.112785570	-1.296980E+02	  0.112785570	1.646800E+01	  0.112785570	-2.135400E+01
465	  0.112985976	-4.891000E+00	  0.112985976	-1.299450E+02	  0.112985976	1.643900E+01	  0.112985976	-2.123800E+01
466	  0.113186374	-4.891000E+00	  0.113186374	-1.301950E+02	  0.113186374	1.640800E+01	  0.113186374	-2.112100E+01
467	  0.113386773	-4.894000E+00	  0.113386773	-1.304360E+02	  0.113386773	1.638800E+01	  0.113386773	-2.100700E+01
468	  0.113587178	-4.893000E+00	  0.113587178	-1.306640E+02	  0.113587178	1.635900E+01	  0.113587178	-2.090000E+01
469	  0.113787577	-4.897000E+00	  0.113787577	-1.309000E+02	  0.113787577	1.634200E+01	  0.113787577	-2.078800E+01
470	  0.113987975	-4.894000E+00	  0.113987975	-1.311280E+02	  0.113987975	1.630600E+01	  0.113987975	-2.068400E+01
471	  0.114188381	-4.896000E+00	  0.114188381	-1.313840E+02	  0.114188381	1.628200E+01	  0.114188381	-2.056400E+01
472	  0.114388779	-4.900000E+00	  0.114388779	-1.316200E+02	  0.114388779	1.626700E+01	  0.114388779	-2.045100E+01
473	  0.114589177	-4.901000E+00	  0.114589177	-1.318600E+02	  0.114589177	1.624100E+01	  0.114589177	-2.034000E+01
474	  0.114789583	-4.904000E+00	  0.114789583	-1.321060E+02	  0.114789583	1.622300E+01	  0.114789583	-2.022300E+01
475	  0.114989981	-4.903000E+00	  0.114989981	-1.323390E+02	  0.114989981	1.619400E+01	  0.114989981	-2.011700E+01
476	  0.115190387	-4.904000E+00	  0.115190387	-1.325640E+02	  0.115190387	1.617100E+01	  0.115190387	-2.001200E+01
477	  0.115390785	-4.903000E+00	  0.115390785	-1.328130E+02	  0.115390785	1.613900E+01	  0.115390785	-1.989900E+01
478	  0.115591183	-4.904000E+00	  0.115591183	-1.330600E+02	  0.115591183	1.611700E+01	  0.115591183	-1.978400E+01
479	  0.115791589	-4.906000E+00	  0.115791589	-1.332850E+02	  0.115791589	1.609500E+01	  0.115791589	-1.967900E+01
480	  0.115991987	-4.906000E+00	  0.115991987	-1.335380E+02	  0.115991987	1.606700E+01	  0.115991987	-1.956400E+01
481	  0.116192386	-4.908000E+00	  0.116192386	-1.337870E+02	  0.116192386	1.604600E+01	  0.116192386	-1.944800E+01
482	  0.116392791	-4.909000E+00	  0.116392791	-1.340240E+02	  0.116392791	1.602400E+01	  0.116392791	-1.933900E+01
483	  0.116593190	-4.910000E+00	  0.116593190	-1.342640E+02	  0.116593190	1.600000E+01	  0.116593190	-1.922900E+01
484	  0.116793588	-4.912000E+00	  0.116793588	-1.344770E+02	  0.116793588	1.598600E+01	  0.116793588	-1.913000E+01
485	  0.116993994	-4.912000E+00	  0.116993994	-1.347390E+02	  0.116993994	1.595700E+01	  0.116993994	-1.901100E+01
486	  0.117194392	-4.915000E+00	  0.117194392	-1.349780E+02	  0.117194392	1.594100E+01	  0.117194392	-1.890000E+01
487	  0.117394790	-4.914000E+00	  0.117394790	-1.352250E+02	  0.117394790	1.591300E+01	  0.117394790	-1.878800E+01
488	  0.117595196	-4.915000E+00	  0.117595196	-1.354610E+02	  0.117595196	1.589100E+01	  0.117595196	-1.868100E+01
489	  0.117795594	-4.917000E+00	  0.117795594	-1.356880E+02	  0.117795594	1.587300E+01	  0.117795594	-1.857700E+01
490	  0.117995992	-4.915000E+00	  0.117995992	-1.359470E+02	  0.117995992	1.584200E+01	  0.117995992	-1.846100E+01
491	  0.118196398	-4.915000E+00	  0.118196398	-1.361710E+02	  0.118196398	1.581900E+01	  0.118196398	-1.835900E+01
492	  0.118396796	-4.918000E+00	  0.118396796	-1.364030E+02	  0.118396796	1.580300E+01	  0.118396796	-1.825300E+01
