! Anritsu VNA Master:             	Model: MS2036C/10/77
! SN:             	1601066
! /bd0/18may10/top20.txt
! Existing Calibration Information:
! TYPE:             	Current Settings	Active Cal Settings
! TIME:             	05/10/2018 01:09:20 PM	05/10/2018 01:05:27 PM
! INTERNAL TEMP:    	50.8 C	49.8 C
! # POINTS:         	492	492
! START FREQ:       	20.000 MHz	20.000 MHz
! STOP FREQ:        	118.396 793 MHz	118.396 793 MHz
! SOURCE POWER:     	High	High
! IFBW:             	50 Hz	50 Hz
! AVG FACTOR:       	  1 	  1 
! REF PLANE 1:      	0 mm	0 mm
! REF PLANE 2:      	0 mm	0 mm
! CAL TYPE:         	Full S22	Full S22
! CAL METHOD:       	SOLT	SOLT
! CAL LINE TYPE:    	Coax	Coax
! DUT PORT 1:       	K-Conn(M)	K-Conn(M)
! DUT PORT 2:       	K-Conn(M)	K-Conn(M)
! CAL STATUS:       	OK: Accuracy High	--
! PROP-V:       	0.700
! CABLE LOSS:       	0.000 dB/m
! REF IMPEDANCE:       	50.0
! Trace Specific Parameters:	TR1	TR2	TR3	TR4
! TRACE.#.Y (GRAPH TYPE)	LOG MAG	PHASE	REAL IMPEDANCE	IMAGINARY IMPEDANCE
! TRACE.#.X 	FREQ.GHZ	FREQ.GHZ	FREQ.GHZ	FREQ.GHZ
! S-PARAMETER	S22	S22	S22	S22
! SMOOTH/APERTURE %	0	0	0	0
! WINDOW	NSL	NSL	NSL	NSL
! GATING	OFF	OFF	OFF	OFF
! FGTD	OFF	OFF	OFF	OFF
Marker Information per Trace:	TR1	TR2	TR3	TR4
!MK1	--	"MK1 TR2:  20.000 MHz,PH:154.58°"	--	--
!MK2	--	--	"MK2 TR3:  70.100 200 MHz,Z:(32.322 ohm, 35.210 ohm)"	--
!MK3	--	--	--	--
!MK4	--	--	--	--
!MK5	--	--	--	--
!MK6	--	--	--	--
!MK7	--	--	--	--
!MK8	--	--	--	--
PNT	TR1.FREQ.GHZ	TR1.LOG MAG.dB	TR2.FREQ.GHZ	TR2.PHASE.deg	TR3.FREQ.GHZ	TR3.REAL IMPEDANCE.ohm	TR4.FREQ.GHZ	TR4.IMAGINARY IMPEDANCE.ohm
1	  0.020000000	-7.267000E+00	  0.020000000	1.545840E+02	  0.020000000	2.061900E+01	  0.020000000	9.435000E+00
2	  0.020200402	-7.265000E+00	  0.020200402	1.543340E+02	  0.020200402	2.063100E+01	  0.020200402	9.531000E+00
3	  0.020400802	-7.265000E+00	  0.020400802	1.540940E+02	  0.020400802	2.064600E+01	  0.020400802	9.622000E+00
4	  0.020601204	-7.263000E+00	  0.020601204	1.538370E+02	  0.020601204	2.066000E+01	  0.020601204	9.719000E+00
5	  0.020801604	-7.263000E+00	  0.020801604	1.536010E+02	  0.020801604	2.067500E+01	  0.020801604	9.809000E+00
6	  0.021002004	-7.264000E+00	  0.021002004	1.533380E+02	  0.021002004	2.069700E+01	  0.021002004	9.908000E+00
7	  0.021202406	-7.262000E+00	  0.021202406	1.530870E+02	  0.021202406	2.071100E+01	  0.021202406	1.000400E+01
8	  0.021402806	-7.261000E+00	  0.021402806	1.528500E+02	  0.021402806	2.072600E+01	  0.021402806	1.009400E+01
9	  0.021603208	-7.262000E+00	  0.021603208	1.525950E+02	  0.021603208	2.074700E+01	  0.021603208	1.019100E+01
10	  0.021803608	-7.262000E+00	  0.021803608	1.523400E+02	  0.021803608	2.076500E+01	  0.021803608	1.028700E+01
11	  0.022004008	-7.265000E+00	  0.022004008	1.521070E+02	  0.022004008	2.078900E+01	  0.022004008	1.037500E+01
12	  0.022204408	-7.264000E+00	  0.022204408	1.518660E+02	  0.022204408	2.080500E+01	  0.022204408	1.046600E+01
13	  0.022404809	-7.266000E+00	  0.022404809	1.516120E+02	  0.022404809	2.083000E+01	  0.022404809	1.056200E+01
14	  0.022605211	-7.261000E+00	  0.022605211	1.513270E+02	  0.022605211	2.084000E+01	  0.022605211	1.067300E+01
15	  0.022805611	-7.261000E+00	  0.022805611	1.510830E+02	  0.022805611	2.085900E+01	  0.022805611	1.076600E+01
16	  0.023006011	-7.263000E+00	  0.023006011	1.508460E+02	  0.023006011	2.088200E+01	  0.023006011	1.085500E+01
17	  0.023206413	-7.264000E+00	  0.023206413	1.505890E+02	  0.023206413	2.090500E+01	  0.023206413	1.095300E+01
18	  0.023406813	-7.262000E+00	  0.023406813	1.503480E+02	  0.023406813	2.092100E+01	  0.023406813	1.104500E+01
19	  0.023607215	-7.264000E+00	  0.023607215	1.500890E+02	  0.023607215	2.094500E+01	  0.023607215	1.114300E+01
20	  0.023807615	-7.261000E+00	  0.023807615	1.498490E+02	  0.023807615	2.095800E+01	  0.023807615	1.123600E+01
21	  0.024008015	-7.263000E+00	  0.024008015	1.495980E+02	  0.024008015	2.098400E+01	  0.024008015	1.133100E+01
22	  0.024208417	-7.263000E+00	  0.024208417	1.493470E+02	  0.024208417	2.100400E+01	  0.024208417	1.142700E+01
23	  0.024408817	-7.265000E+00	  0.024408817	1.491050E+02	  0.024408817	2.103100E+01	  0.024408817	1.151800E+01
24	  0.024609219	-7.264000E+00	  0.024609219	1.488600E+02	  0.024609219	2.104900E+01	  0.024609219	1.161200E+01
25	  0.024809619	-7.264000E+00	  0.024809619	1.486040E+02	  0.024809619	2.107000E+01	  0.024809619	1.171000E+01
26	  0.025010020	-7.264000E+00	  0.025010020	1.483660E+02	  0.025010020	2.109200E+01	  0.025010020	1.180100E+01
27	  0.025210422	-7.264000E+00	  0.025210422	1.481220E+02	  0.025210422	2.111200E+01	  0.025210422	1.189500E+01
28	  0.025410822	-7.263000E+00	  0.025410822	1.478680E+02	  0.025410822	2.113300E+01	  0.025410822	1.199300E+01
29	  0.025611224	-7.266000E+00	  0.025611224	1.476100E+02	  0.025611224	2.116200E+01	  0.025611224	1.209000E+01
30	  0.025811624	-7.264000E+00	  0.025811624	1.473610E+02	  0.025811624	2.118000E+01	  0.025811624	1.218700E+01
31	  0.026012026	-7.268000E+00	  0.026012026	1.471070E+02	  0.026012026	2.121400E+01	  0.026012026	1.228200E+01
32	  0.026212426	-7.266000E+00	  0.026212426	1.468610E+02	  0.026212426	2.123100E+01	  0.026212426	1.237800E+01
33	  0.026412826	-7.267000E+00	  0.026412826	1.466060E+02	  0.026412826	2.125600E+01	  0.026412826	1.247500E+01
34	  0.026613226	-7.264000E+00	  0.026613226	1.463670E+02	  0.026613226	2.127100E+01	  0.026613226	1.256900E+01
35	  0.026813626	-7.266000E+00	  0.026813626	1.461150E+02	  0.026813626	2.130000E+01	  0.026813626	1.266500E+01
36	  0.027014028	-7.265000E+00	  0.027014028	1.458610E+02	  0.027014028	2.132100E+01	  0.027014028	1.276300E+01
37	  0.027214428	-7.267000E+00	  0.027214428	1.456130E+02	  0.027214428	2.134900E+01	  0.027214428	1.285800E+01
38	  0.027414829	-7.266000E+00	  0.027414829	1.453710E+02	  0.027414829	2.137100E+01	  0.027414829	1.295200E+01
39	  0.027615231	-7.267000E+00	  0.027615231	1.451040E+02	  0.027615231	2.140100E+01	  0.027615231	1.305400E+01
40	  0.027815631	-7.269000E+00	  0.027815631	1.448710E+02	  0.027815631	2.142700E+01	  0.027815631	1.314300E+01
41	  0.028016033	-7.266000E+00	  0.028016033	1.446060E+02	  0.028016033	2.144500E+01	  0.028016033	1.324700E+01
42	  0.028216433	-7.266000E+00	  0.028216433	1.443640E+02	  0.028216433	2.147100E+01	  0.028216433	1.334000E+01
43	  0.028416833	-7.267000E+00	  0.028416833	1.441170E+02	  0.028416833	2.149800E+01	  0.028416833	1.343500E+01
44	  0.028617235	-7.265000E+00	  0.028617235	1.438680E+02	  0.028617235	2.151600E+01	  0.028617235	1.353400E+01
45	  0.028817635	-7.266000E+00	  0.028817635	1.436250E+02	  0.028817635	2.154500E+01	  0.028817635	1.362700E+01
46	  0.029018037	-7.265000E+00	  0.029018037	1.433710E+02	  0.029018037	2.156800E+01	  0.029018037	1.372600E+01
47	  0.029218437	-7.266000E+00	  0.029218437	1.431170E+02	  0.029218437	2.159600E+01	  0.029218437	1.382400E+01
48	  0.029418837	-7.266000E+00	  0.029418837	1.428840E+02	  0.029418837	2.162100E+01	  0.029418837	1.391500E+01
49	  0.029619239	-7.264000E+00	  0.029619239	1.426230E+02	  0.029619239	2.164500E+01	  0.029619239	1.401700E+01
50	  0.029819639	-7.266000E+00	  0.029819639	1.423790E+02	  0.029819639	2.167500E+01	  0.029819639	1.411100E+01
51	  0.030020041	-7.265000E+00	  0.030020041	1.421380E+02	  0.030020041	2.169900E+01	  0.030020041	1.420500E+01
52	  0.030220442	-7.265000E+00	  0.030220442	1.418810E+02	  0.030220442	2.172500E+01	  0.030220442	1.430600E+01
53	  0.030420844	-7.266000E+00	  0.030420844	1.416290E+02	  0.030420844	2.175500E+01	  0.030420844	1.440300E+01
54	  0.030621244	-7.265000E+00	  0.030621244	1.413810E+02	  0.030621244	2.178100E+01	  0.030621244	1.450000E+01
55	  0.030821642	-7.265000E+00	  0.030821642	1.411380E+02	  0.030821642	2.180800E+01	  0.030821642	1.459500E+01
56	  0.031022044	-7.265000E+00	  0.031022044	1.408920E+02	  0.031022044	2.183600E+01	  0.031022044	1.469100E+01
57	  0.031222444	-7.252000E+00	  0.031222444	1.407150E+02	  0.031222444	2.182200E+01	  0.031222444	1.477000E+01
58	  0.031422846	-7.250000E+00	  0.031422846	1.404710E+02	  0.031422846	2.184500E+01	  0.031422846	1.486700E+01
59	  0.031623244	-7.251000E+00	  0.031623244	1.402280E+02	  0.031623244	2.187400E+01	  0.031623244	1.496200E+01
60	  0.031823646	-7.252000E+00	  0.031823646	1.399750E+02	  0.031823646	2.190500E+01	  0.031823646	1.506000E+01
61	  0.032024048	-7.255000E+00	  0.032024048	1.397170E+02	  0.032024048	2.194300E+01	  0.032024048	1.515900E+01
62	  0.032224450	-7.251000E+00	  0.032224450	1.394750E+02	  0.032224450	2.196200E+01	  0.032224450	1.525700E+01
63	  0.032424849	-7.254000E+00	  0.032424849	1.392110E+02	  0.032424849	2.200100E+01	  0.032424849	1.535800E+01
64	  0.032625251	-7.255000E+00	  0.032625251	1.389750E+02	  0.032625251	2.203000E+01	  0.032625251	1.545100E+01
65	  0.032825653	-7.252000E+00	  0.032825653	1.387280E+02	  0.032825653	2.205100E+01	  0.032825653	1.555000E+01
66	  0.033026051	-7.255000E+00	  0.033026051	1.384680E+02	  0.033026051	2.209100E+01	  0.033026051	1.565000E+01
67	  0.033226453	-7.253000E+00	  0.033226453	1.382230E+02	  0.033226453	2.211700E+01	  0.033226453	1.574800E+01
68	  0.033426855	-7.252000E+00	  0.033426855	1.379810E+02	  0.033426855	2.214200E+01	  0.033426855	1.584500E+01
69	  0.033627257	-7.254000E+00	  0.033627257	1.377210E+02	  0.033627257	2.218100E+01	  0.033627257	1.594500E+01
70	  0.033827655	-7.254000E+00	  0.033827655	1.374800E+02	  0.033827655	2.221100E+01	  0.033827655	1.604000E+01
71	  0.034028057	-7.255000E+00	  0.034028057	1.372250E+02	  0.034028057	2.224500E+01	  0.034028057	1.614000E+01
72	  0.034228459	-7.254000E+00	  0.034228459	1.369830E+02	  0.034228459	2.227100E+01	  0.034228459	1.623700E+01
73	  0.034428857	-7.253000E+00	  0.034428857	1.367260E+02	  0.034428857	2.230100E+01	  0.034428857	1.634000E+01
74	  0.034629259	-7.254000E+00	  0.034629259	1.364820E+02	  0.034629259	2.233600E+01	  0.034629259	1.643500E+01
75	  0.034829661	-7.255000E+00	  0.034829661	1.362490E+02	  0.034829661	2.236700E+01	  0.034829661	1.652700E+01
76	  0.035030060	-7.254000E+00	  0.035030060	1.360030E+02	  0.035030060	2.239800E+01	  0.035030060	1.662600E+01
77	  0.035230462	-7.254000E+00	  0.035230462	1.357620E+02	  0.035230462	2.242800E+01	  0.035230462	1.672200E+01
78	  0.035430863	-7.254000E+00	  0.035430863	1.355060E+02	  0.035430863	2.246200E+01	  0.035430863	1.682300E+01
79	  0.035631265	-7.251000E+00	  0.035631265	1.352590E+02	  0.035631265	2.248800E+01	  0.035631265	1.692400E+01
80	  0.035831664	-7.255000E+00	  0.035831664	1.350080E+02	  0.035831664	2.253200E+01	  0.035831664	1.702000E+01
81	  0.036032066	-7.253000E+00	  0.036032066	1.347670E+02	  0.036032066	2.255900E+01	  0.036032066	1.711800E+01
82	  0.036232468	-7.253000E+00	  0.036232468	1.345280E+02	  0.036232468	2.259200E+01	  0.036232468	1.721300E+01
83	  0.036432866	-7.253000E+00	  0.036432866	1.342760E+02	  0.036432866	2.262600E+01	  0.036432866	1.731400E+01
84	  0.036633268	-7.252000E+00	  0.036633268	1.340510E+02	  0.036633268	2.265200E+01	  0.036633268	1.740500E+01
85	  0.036833670	-7.251000E+00	  0.036833670	1.338020E+02	  0.036833670	2.268600E+01	  0.036833670	1.750500E+01
86	  0.037034072	-7.253000E+00	  0.037034072	1.335600E+02	  0.037034072	2.272400E+01	  0.037034072	1.760100E+01
87	  0.037234470	-7.253000E+00	  0.037234470	1.333100E+02	  0.037234470	2.276000E+01	  0.037234470	1.770000E+01
88	  0.037434869	-7.253000E+00	  0.037434869	1.330680E+02	  0.037434869	2.279300E+01	  0.037434869	1.779800E+01
89	  0.037635271	-7.251000E+00	  0.037635271	1.328260E+02	  0.037635271	2.282300E+01	  0.037635271	1.789600E+01
90	  0.037835669	-7.252000E+00	  0.037835669	1.325790E+02	  0.037835669	2.286000E+01	  0.037835669	1.799500E+01
91	  0.038036071	-7.254000E+00	  0.038036071	1.323400E+02	  0.038036071	2.290000E+01	  0.038036071	1.808900E+01
92	  0.038236473	-7.252000E+00	  0.038236473	1.320890E+02	  0.038236473	2.293200E+01	  0.038236473	1.819100E+01
93	  0.038436871	-7.253000E+00	  0.038436871	1.318540E+02	  0.038436871	2.296800E+01	  0.038436871	1.828500E+01
94	  0.038637273	-7.251000E+00	  0.038637273	1.316110E+02	  0.038637273	2.299800E+01	  0.038637273	1.838500E+01
95	  0.038837675	-7.252000E+00	  0.038837675	1.313530E+02	  0.038837675	2.303900E+01	  0.038837675	1.848800E+01
96	  0.039038073	-7.252000E+00	  0.039038073	1.311210E+02	  0.039038073	2.307500E+01	  0.039038073	1.858100E+01
97	  0.039238475	-7.252000E+00	  0.039238475	1.308730E+02	  0.039238475	2.311100E+01	  0.039238475	1.868200E+01
98	  0.039438877	-7.251000E+00	  0.039438877	1.306350E+02	  0.039438877	2.314400E+01	  0.039438877	1.877900E+01
99	  0.039639279	-7.250000E+00	  0.039639279	1.303890E+02	  0.039639279	2.317900E+01	  0.039639279	1.888000E+01
100	  0.039839678	-7.252000E+00	  0.039839678	1.301660E+02	  0.039839678	2.321800E+01	  0.039839678	1.896800E+01
101	  0.040040080	-7.250000E+00	  0.040040080	1.299250E+02	  0.040040080	2.325000E+01	  0.040040080	1.906800E+01
102	  0.040240481	-7.249000E+00	  0.040240481	1.296660E+02	  0.040240481	2.328900E+01	  0.040240481	1.917400E+01
103	  0.040440880	-7.249000E+00	  0.040440880	1.294150E+02	  0.040440880	2.332700E+01	  0.040440880	1.927600E+01
104	  0.040641282	-7.248000E+00	  0.040641282	1.291900E+02	  0.040641282	2.336000E+01	  0.040641282	1.936800E+01
105	  0.040841684	-7.247000E+00	  0.040841684	1.289330E+02	  0.040841684	2.339800E+01	  0.040841684	1.947400E+01
106	  0.041042086	-7.246000E+00	  0.041042086	1.287070E+02	  0.041042086	2.343300E+01	  0.041042086	1.956600E+01
107	  0.041242484	-7.247000E+00	  0.041242484	1.284670E+02	  0.041242484	2.347200E+01	  0.041242484	1.966400E+01
108	  0.041442886	-7.249000E+00	  0.041442886	1.282190E+02	  0.041442886	2.351900E+01	  0.041442886	1.976200E+01
109	  0.041643288	-7.248000E+00	  0.041643288	1.279900E+02	  0.041643288	2.355400E+01	  0.041643288	1.985600E+01
110	  0.041843686	-7.246000E+00	  0.041843686	1.277350E+02	  0.041843686	2.359000E+01	  0.041843686	1.996300E+01
111	  0.042044088	-7.245000E+00	  0.042044088	1.275050E+02	  0.042044088	2.362400E+01	  0.042044088	2.005900E+01
112	  0.042244490	-7.246000E+00	  0.042244490	1.272490E+02	  0.042244490	2.366900E+01	  0.042244490	2.016300E+01
113	  0.042444889	-7.245000E+00	  0.042444889	1.270150E+02	  0.042444889	2.370700E+01	  0.042444889	2.025900E+01
114	  0.042645290	-7.246000E+00	  0.042645290	1.267600E+02	  0.042645290	2.375100E+01	  0.042645290	2.036300E+01
115	  0.042845692	-7.246000E+00	  0.042845692	1.265240E+02	  0.042845692	2.379100E+01	  0.042845692	2.046000E+01
116	  0.043046094	-7.247000E+00	  0.043046094	1.262790E+02	  0.043046094	2.383800E+01	  0.043046094	2.055900E+01
117	  0.043246493	-7.246000E+00	  0.043246493	1.260320E+02	  0.043246493	2.387500E+01	  0.043246493	2.066200E+01
118	  0.043446895	-7.246000E+00	  0.043446895	1.257560E+02	  0.043446895	2.392400E+01	  0.043446895	2.077500E+01
119	  0.043647297	-7.244000E+00	  0.043647297	1.255280E+02	  0.043647297	2.395900E+01	  0.043647297	2.087100E+01
120	  0.043847695	-7.244000E+00	  0.043847695	1.252820E+02	  0.043847695	2.400100E+01	  0.043847695	2.097300E+01
121	  0.044048097	-7.244000E+00	  0.044048097	1.250420E+02	  0.044048097	2.404300E+01	  0.044048097	2.107200E+01
122	  0.044248499	-7.244000E+00	  0.044248499	1.247980E+02	  0.044248499	2.408700E+01	  0.044248499	2.117300E+01
123	  0.044448901	-7.244000E+00	  0.044448901	1.245520E+02	  0.044448901	2.413100E+01	  0.044448901	2.127400E+01
124	  0.044649299	-7.243000E+00	  0.044649299	1.242120E+02	  0.044649299	2.418800E+01	  0.044649299	2.141700E+01
125	  0.044849701	-7.243000E+00	  0.044849701	1.239590E+02	  0.044849701	2.423600E+01	  0.044849701	2.152100E+01
126	  0.045050103	-7.238000E+00	  0.045050103	1.237090E+02	  0.045050103	2.426800E+01	  0.045050103	2.163100E+01
127	  0.045250501	-7.237000E+00	  0.045250501	1.234560E+02	  0.045250501	2.431100E+01	  0.045250501	2.173700E+01
128	  0.045450903	-7.237000E+00	  0.045450903	1.231930E+02	  0.045450903	2.435800E+01	  0.045450903	2.184700E+01
129	  0.045651305	-7.237000E+00	  0.045651305	1.229550E+02	  0.045651305	2.440300E+01	  0.045651305	2.194600E+01
130	  0.045851704	-7.241000E+00	  0.045851704	1.227290E+02	  0.045851704	2.445800E+01	  0.045851704	2.203500E+01
131	  0.046052102	-7.240000E+00	  0.046052102	1.224840E+02	  0.046052102	2.450100E+01	  0.046052102	2.213800E+01
132	  0.046252504	-7.239000E+00	  0.046252504	1.222230E+02	  0.046252504	2.454700E+01	  0.046252504	2.224900E+01
133	  0.046452906	-7.240000E+00	  0.046452906	1.219850E+02	  0.046452906	2.459600E+01	  0.046452906	2.234700E+01
134	  0.046653304	-7.239000E+00	  0.046653304	1.217280E+02	  0.046653304	2.464200E+01	  0.046653304	2.245600E+01
135	  0.046853706	-7.237000E+00	  0.046853706	1.214810E+02	  0.046853706	2.468500E+01	  0.046853706	2.256100E+01
136	  0.047054108	-7.238000E+00	  0.047054108	1.212420E+02	  0.047054108	2.473300E+01	  0.047054108	2.266100E+01
137	  0.047254506	-7.236000E+00	  0.047254506	1.209980E+02	  0.047254506	2.477600E+01	  0.047254506	2.276600E+01
138	  0.047454908	-7.235000E+00	  0.047454908	1.207490E+02	  0.047454908	2.482300E+01	  0.047454908	2.287100E+01
139	  0.047655310	-7.233000E+00	  0.047655310	1.204960E+02	  0.047655310	2.486800E+01	  0.047655310	2.298000E+01
140	  0.047855709	-7.233000E+00	  0.047855709	1.202560E+02	  0.047855709	2.491600E+01	  0.047855709	2.308100E+01
141	  0.048056111	-7.234000E+00	  0.048056111	1.200040E+02	  0.048056111	2.496800E+01	  0.048056111	2.318600E+01
142	  0.048256513	-7.231000E+00	  0.048256513	1.197540E+02	  0.048256513	2.501300E+01	  0.048256513	2.329500E+01
143	  0.048456915	-7.232000E+00	  0.048456915	1.195130E+02	  0.048456915	2.506200E+01	  0.048456915	2.339600E+01
144	  0.048657313	-7.231000E+00	  0.048657313	1.192710E+02	  0.048657313	2.511100E+01	  0.048657313	2.349900E+01
145	  0.048857715	-7.231000E+00	  0.048857715	1.190230E+02	  0.048857715	2.516100E+01	  0.048857715	2.360400E+01
146	  0.049058117	-7.232000E+00	  0.049058117	1.187790E+02	  0.049058117	2.521600E+01	  0.049058117	2.370600E+01
147	  0.049258515	-7.232000E+00	  0.049258515	1.185410E+02	  0.049258515	2.526600E+01	  0.049258515	2.380600E+01
148	  0.049458917	-7.227000E+00	  0.049458917	1.182910E+02	  0.049458917	2.530300E+01	  0.049458917	2.392000E+01
149	  0.049659319	-7.228000E+00	  0.049659319	1.180310E+02	  0.049659319	2.536200E+01	  0.049659319	2.402900E+01
150	  0.049859721	-7.229000E+00	  0.049859721	1.178090E+02	  0.049859721	2.541200E+01	  0.049859721	2.412200E+01
151	  0.050060119	-7.227000E+00	  0.050060119	1.175660E+02	  0.050060119	2.545900E+01	  0.050060119	2.422800E+01
152	  0.050260521	-7.226000E+00	  0.050260521	1.173190E+02	  0.050260521	2.550800E+01	  0.050260521	2.433500E+01
153	  0.050460923	-7.227000E+00	  0.050460923	1.170610E+02	  0.050460923	2.556700E+01	  0.050460923	2.444300E+01
154	  0.050661322	-7.227000E+00	  0.050661322	1.168290E+02	  0.050661322	2.561800E+01	  0.050661322	2.454200E+01
155	  0.050861724	-7.225000E+00	  0.050861724	1.165750E+02	  0.050861724	2.567000E+01	  0.050861724	2.465300E+01
156	  0.051062126	-7.225000E+00	  0.051062126	1.163270E+02	  0.051062126	2.572400E+01	  0.051062126	2.476000E+01
157	  0.051262524	-7.222000E+00	  0.051262524	1.160810E+02	  0.051262524	2.577100E+01	  0.051262524	2.486900E+01
158	  0.051462926	-7.223000E+00	  0.051462926	1.158610E+02	  0.051462926	2.582100E+01	  0.051462926	2.496300E+01
159	  0.051663328	-7.222000E+00	  0.051663328	1.156030E+02	  0.051663328	2.587900E+01	  0.051663328	2.507400E+01
160	  0.051863730	-7.221000E+00	  0.051863730	1.153540E+02	  0.051863730	2.593200E+01	  0.051863730	2.518200E+01
161	  0.052064128	-7.221000E+00	  0.052064128	1.151130E+02	  0.052064128	2.598600E+01	  0.052064128	2.528700E+01
162	  0.052264530	-7.220000E+00	  0.052264530	1.148780E+02	  0.052264530	2.603900E+01	  0.052264530	2.538800E+01
163	  0.052464932	-7.220000E+00	  0.052464932	1.146360E+02	  0.052464932	2.609500E+01	  0.052464932	2.549300E+01
164	  0.052665330	-7.219000E+00	  0.052665330	1.143850E+02	  0.052665330	2.614900E+01	  0.052665330	2.560300E+01
165	  0.052865732	-7.218000E+00	  0.052865732	1.141340E+02	  0.052865732	2.620600E+01	  0.052865732	2.571300E+01
166	  0.053066134	-7.218000E+00	  0.053066134	1.138950E+02	  0.053066134	2.626100E+01	  0.053066134	2.581700E+01
167	  0.053266536	-7.214000E+00	  0.053266536	1.136510E+02	  0.053266536	2.631000E+01	  0.053266536	2.592700E+01
168	  0.053466935	-7.214000E+00	  0.053466935	1.134190E+02	  0.053466935	2.636500E+01	  0.053466935	2.602800E+01
169	  0.053667337	-7.210000E+00	  0.053667337	1.131600E+02	  0.053667337	2.641600E+01	  0.053667337	2.614600E+01
170	  0.053867739	-7.212000E+00	  0.053867739	1.129320E+02	  0.053867739	2.647600E+01	  0.053867739	2.624300E+01
171	  0.054068137	-7.210000E+00	  0.054068137	1.126850E+02	  0.054068137	2.652900E+01	  0.054068137	2.635400E+01
172	  0.054268539	-7.212000E+00	  0.054268539	1.124480E+02	  0.054268539	2.659400E+01	  0.054268539	2.645300E+01
173	  0.054468941	-7.210000E+00	  0.054468941	1.122060E+02	  0.054468941	2.664900E+01	  0.054468941	2.656100E+01
174	  0.054669335	-7.209000E+00	  0.054669335	1.119630E+02	  0.054669335	2.670500E+01	  0.054669335	2.666900E+01
175	  0.054869737	-7.208000E+00	  0.054869737	1.117060E+02	  0.054869737	2.676500E+01	  0.054869737	2.678400E+01
176	  0.055070139	-7.209000E+00	  0.055070139	1.114700E+02	  0.055070139	2.682700E+01	  0.055070139	2.688500E+01
177	  0.055270538	-7.206000E+00	  0.055270538	1.112280E+02	  0.055270538	2.688100E+01	  0.055270538	2.699500E+01
178	  0.055470940	-7.208000E+00	  0.055470940	1.109920E+02	  0.055470940	2.694800E+01	  0.055470940	2.709400E+01
179	  0.055671342	-7.206000E+00	  0.055671342	1.107460E+02	  0.055671342	2.700200E+01	  0.055671342	2.720700E+01
180	  0.055871744	-7.206000E+00	  0.055871744	1.105170E+02	  0.055871744	2.706400E+01	  0.055871744	2.730500E+01
181	  0.056072142	-7.204000E+00	  0.056072142	1.102600E+02	  0.056072142	2.712300E+01	  0.056072142	2.742300E+01
182	  0.056272544	-7.201000E+00	  0.056272544	1.100330E+02	  0.056272544	2.717400E+01	  0.056272544	2.752800E+01
183	  0.056472946	-7.202000E+00	  0.056472946	1.097800E+02	  0.056472946	2.724400E+01	  0.056472946	2.763700E+01
184	  0.056673344	-7.203000E+00	  0.056673344	1.095440E+02	  0.056673344	2.730900E+01	  0.056673344	2.773900E+01
185	  0.056873746	-7.199000E+00	  0.056873746	1.092970E+02	  0.056873746	2.736200E+01	  0.056873746	2.785500E+01
186	  0.057074148	-7.202000E+00	  0.057074148	1.090570E+02	  0.057074148	2.743400E+01	  0.057074148	2.795600E+01
187	  0.057274550	-7.200000E+00	  0.057274550	1.088160E+02	  0.057274550	2.749400E+01	  0.057274550	2.806500E+01
188	  0.057474948	-7.200000E+00	  0.057474948	1.085660E+02	  0.057474948	2.756100E+01	  0.057474948	2.817600E+01
189	  0.057675350	-7.198000E+00	  0.057675350	1.083230E+02	  0.057675350	2.762100E+01	  0.057675350	2.828700E+01
190	  0.057875752	-7.196000E+00	  0.057875752	1.080740E+02	  0.057875752	2.768400E+01	  0.057875752	2.840100E+01
191	  0.058076151	-7.199000E+00	  0.058076151	1.078230E+02	  0.058076151	2.776000E+01	  0.058076151	2.850800E+01
192	  0.058276553	-7.196000E+00	  0.058276553	1.075850E+02	  0.058276553	2.781900E+01	  0.058276553	2.861800E+01
193	  0.058476955	-7.196000E+00	  0.058476955	1.073500E+02	  0.058476955	2.788400E+01	  0.058476955	2.872300E+01
194	  0.058677353	-7.194000E+00	  0.058677353	1.070920E+02	  0.058677353	2.795100E+01	  0.058677353	2.884100E+01
195	  0.058877755	-7.197000E+00	  0.058877755	1.068590E+02	  0.058877755	2.802400E+01	  0.058877755	2.894000E+01
196	  0.059078157	-7.192000E+00	  0.059078157	1.066110E+02	  0.059078157	2.808200E+01	  0.059078157	2.905900E+01
197	  0.059278559	-7.194000E+00	  0.059278559	1.063770E+02	  0.059278559	2.815300E+01	  0.059278559	2.916100E+01
198	  0.059478957	-7.193000E+00	  0.059478957	1.061360E+02	  0.059478957	2.821900E+01	  0.059478957	2.927000E+01
199	  0.059679359	-7.191000E+00	  0.059679359	1.058940E+02	  0.059679359	2.828300E+01	  0.059679359	2.938200E+01
200	  0.059879761	-7.193000E+00	  0.059879761	1.056580E+02	  0.059879761	2.835900E+01	  0.059879761	2.948300E+01
201	  0.060080159	-7.192000E+00	  0.060080159	1.054150E+02	  0.060080159	2.842600E+01	  0.060080159	2.959500E+01
202	  0.060280561	-7.193000E+00	  0.060280561	1.051760E+02	  0.060280561	2.849900E+01	  0.060280561	2.970100E+01
203	  0.060480963	-7.192000E+00	  0.060480963	1.049240E+02	  0.060480963	2.857100E+01	  0.060480963	2.981500E+01
204	  0.060681365	-7.190000E+00	  0.060681365	1.047060E+02	  0.060681365	2.863000E+01	  0.060681365	2.991700E+01
205	  0.060881764	-7.191000E+00	  0.060881764	1.044510E+02	  0.060881764	2.871000E+01	  0.060881764	3.002900E+01
206	  0.061082166	-7.187000E+00	  0.061082166	1.042080E+02	  0.061082166	2.877200E+01	  0.061082166	3.014700E+01
207	  0.061282568	-7.187000E+00	  0.061282568	1.039720E+02	  0.061282568	2.884400E+01	  0.061282568	3.025200E+01
208	  0.061482966	-7.190000E+00	  0.061482966	1.037390E+02	  0.061482966	2.892200E+01	  0.061482966	3.035300E+01
209	  0.061683368	-7.187000E+00	  0.061683368	1.035110E+02	  0.061683368	2.898500E+01	  0.061683368	3.046100E+01
210	  0.061883770	-7.184000E+00	  0.061883770	1.032600E+02	  0.061883770	2.905500E+01	  0.061883770	3.058000E+01
211	  0.062084168	-7.189000E+00	  0.062084168	1.030220E+02	  0.062084168	2.914200E+01	  0.062084168	3.067800E+01
212	  0.062284570	-7.185000E+00	  0.062284570	1.027790E+02	  0.062284570	2.920700E+01	  0.062284570	3.079600E+01
213	  0.062484972	-7.170000E+00	  0.062484972	1.026080E+02	  0.062484972	2.921500E+01	  0.062484972	3.090500E+01
214	  0.062685370	-7.174000E+00	  0.062685370	1.024020E+02	  0.062685370	2.929300E+01	  0.062685370	3.099000E+01
215	  0.062885776	-7.169000E+00	  0.062885776	1.021520E+02	  0.062885776	2.935800E+01	  0.062885776	3.111300E+01
216	  0.063086174	-7.170000E+00	  0.063086174	1.019080E+02	  0.063086174	2.943900E+01	  0.063086174	3.122300E+01
217	  0.063286573	-7.169000E+00	  0.063286573	1.016440E+02	  0.063286573	2.951900E+01	  0.063286573	3.134600E+01
218	  0.063486971	-7.167000E+00	  0.063486971	1.014240E+02	  0.063486971	2.958600E+01	  0.063486971	3.145000E+01
219	  0.063687377	-7.165000E+00	  0.063687377	1.012060E+02	  0.063687377	2.965100E+01	  0.063687377	3.155400E+01
220	  0.063887775	-7.162000E+00	  0.063887775	1.009510E+02	  0.063887775	2.972300E+01	  0.063887775	3.167800E+01
221	  0.064088173	-7.160000E+00	  0.064088173	1.006790E+02	  0.064088173	2.980800E+01	  0.064088173	3.180600E+01
222	  0.064288579	-7.159000E+00	  0.064288579	1.004660E+02	  0.064288579	2.987600E+01	  0.064288579	3.190500E+01
223	  0.064488977	-7.160000E+00	  0.064488977	1.002280E+02	  0.064488977	2.995700E+01	  0.064488977	3.201300E+01
224	  0.064689375	-7.160000E+00	  0.064689375	9.998500E+01	  0.064689375	3.004000E+01	  0.064689375	3.212400E+01
225	  0.064889781	-7.158000E+00	  0.064889781	9.973300E+01	  0.064889781	3.011900E+01	  0.064889781	3.224400E+01
226	  0.065090179	-7.150000E+00	  0.065090179	9.947200E+01	  0.065090179	3.018500E+01	  0.065090179	3.238100E+01
227	  0.065290578	-7.154000E+00	  0.065290578	9.926000E+01	  0.065290578	3.027000E+01	  0.065290578	3.247000E+01
228	  0.065490983	-7.155000E+00	  0.065490983	9.900300E+01	  0.065490983	3.035900E+01	  0.065490983	3.258700E+01
229	  0.065691382	-7.152000E+00	  0.065691382	9.876700E+01	  0.065691382	3.043300E+01	  0.065691382	3.270200E+01
230	  0.065891780	-7.151000E+00	  0.065891780	9.850900E+01	  0.065891780	3.052100E+01	  0.065891780	3.282300E+01
231	  0.066092186	-7.149000E+00	  0.066092186	9.828800E+01	  0.066092186	3.059100E+01	  0.066092186	3.293000E+01
232	  0.066292584	-7.150000E+00	  0.066292584	9.806500E+01	  0.066292584	3.067400E+01	  0.066292584	3.303000E+01
233	  0.066492982	-7.152000E+00	  0.066492982	9.784900E+01	  0.066492982	3.075400E+01	  0.066492982	3.312700E+01
234	  0.066693388	-7.145000E+00	  0.066693388	9.757200E+01	  0.066693388	3.083200E+01	  0.066693388	3.327200E+01
235	  0.066893786	-7.147000E+00	  0.066893786	9.733700E+01	  0.066893786	3.092300E+01	  0.066893786	3.337600E+01
236	  0.067094192	-7.146000E+00	  0.067094192	9.711100E+01	  0.067094192	3.100200E+01	  0.067094192	3.348200E+01
237	  0.067294590	-7.142000E+00	  0.067294590	9.687200E+01	  0.067294590	3.107600E+01	  0.067294590	3.360300E+01
238	  0.067494988	-7.146000E+00	  0.067494988	9.662000E+01	  0.067494988	3.118200E+01	  0.067494988	3.371000E+01
239	  0.067695394	-7.142000E+00	  0.067695394	9.638100E+01	  0.067695394	3.125700E+01	  0.067695394	3.383100E+01
240	  0.067895792	-7.141000E+00	  0.067895792	9.613700E+01	  0.067895792	3.134400E+01	  0.067895792	3.394800E+01
241	  0.068096191	-7.143000E+00	  0.068096191	9.591300E+01	  0.068096191	3.143500E+01	  0.068096191	3.404600E+01
242	  0.068296596	-7.137000E+00	  0.068296596	9.568600E+01	  0.068296596	3.150000E+01	  0.068296596	3.416800E+01
243	  0.068496995	-7.137000E+00	  0.068496995	9.542800E+01	  0.068496995	3.159800E+01	  0.068496995	3.428800E+01
244	  0.068697393	-7.139000E+00	  0.068697393	9.519100E+01	  0.068697393	3.169300E+01	  0.068697393	3.439500E+01
245	  0.068897791	-7.137000E+00	  0.068897791	9.494700E+01	  0.068897791	3.178000E+01	  0.068897791	3.451400E+01
246	  0.069098189	-7.137000E+00	  0.069098189	9.470400E+01	  0.069098189	3.187300E+01	  0.069098189	3.462800E+01
247	  0.069298595	-7.136000E+00	  0.069298595	9.446900E+01	  0.069298595	3.196300E+01	  0.069298595	3.473800E+01
248	  0.069498993	-7.133000E+00	  0.069498993	9.424200E+01	  0.069498993	3.203900E+01	  0.069498993	3.485500E+01
249	  0.069699399	-7.130000E+00	  0.069699399	9.397300E+01	  0.069699399	3.213700E+01	  0.069699399	3.498800E+01
250	  0.069899797	-7.135000E+00	  0.069899797	9.375100E+01	  0.069899797	3.223800E+01	  0.069899797	3.508000E+01
251	  0.070100196	-7.130000E+00	  0.070100196	9.350200E+01	  0.070100196	3.232200E+01	  0.070100196	3.521000E+01
252	  0.070300601	-7.127000E+00	  0.070300601	9.328900E+01	  0.070300601	3.239800E+01	  0.070300601	3.531700E+01
253	  0.070501000	-7.132000E+00	  0.070501000	9.303800E+01	  0.070501000	3.251300E+01	  0.070501000	3.542300E+01
254	  0.070701398	-7.130000E+00	  0.070701398	9.280400E+01	  0.070701398	3.260200E+01	  0.070701398	3.553800E+01
255	  0.070901804	-7.127000E+00	  0.070901804	9.255000E+01	  0.070901804	3.269500E+01	  0.070901804	3.566600E+01
256	  0.071102202	-7.125000E+00	  0.071102202	9.233300E+01	  0.071102202	3.277900E+01	  0.071102202	3.577300E+01
257	  0.071302600	-7.124000E+00	  0.071302600	9.209800E+01	  0.071302600	3.287200E+01	  0.071302600	3.588700E+01
258	  0.071503006	-7.122000E+00	  0.071503006	9.184400E+01	  0.071503006	3.297100E+01	  0.071503006	3.601200E+01
259	  0.071703404	-7.124000E+00	  0.071703404	9.161600E+01	  0.071703404	3.307200E+01	  0.071703404	3.611400E+01
260	  0.071903802	-7.126000E+00	  0.071903802	9.135600E+01	  0.071903802	3.318500E+01	  0.071903802	3.623400E+01
261	  0.072104208	-7.125000E+00	  0.072104208	9.115000E+01	  0.072104208	3.327100E+01	  0.072104208	3.633200E+01
262	  0.072304606	-7.121000E+00	  0.072304606	9.091400E+01	  0.072304606	3.335600E+01	  0.072304606	3.645600E+01
263	  0.072505005	-7.117000E+00	  0.072505005	9.064500E+01	  0.072505005	3.345800E+01	  0.072505005	3.659600E+01
264	  0.072705410	-7.119000E+00	  0.072705410	9.039200E+01	  0.072705410	3.357300E+01	  0.072705410	3.671000E+01
265	  0.072905809	-7.117000E+00	  0.072905809	9.018600E+01	  0.072905809	3.365600E+01	  0.072905809	3.681400E+01
266	  0.073106214	-7.116000E+00	  0.073106214	8.993700E+01	  0.073106214	3.376100E+01	  0.073106214	3.693400E+01
267	  0.073306613	-7.117000E+00	  0.073306613	8.970300E+01	  0.073306613	3.386500E+01	  0.073306613	3.704400E+01
268	  0.073507011	-7.117000E+00	  0.073507011	8.944900E+01	  0.073507011	3.397800E+01	  0.073507011	3.716300E+01
269	  0.073707417	-7.115000E+00	  0.073707417	8.920600E+01	  0.073707417	3.408000E+01	  0.073707417	3.728500E+01
270	  0.073907815	-7.115000E+00	  0.073907815	8.899800E+01	  0.073907815	3.417400E+01	  0.073907815	3.738300E+01
271	  0.074108213	-7.113000E+00	  0.074108213	8.876800E+01	  0.074108213	3.426900E+01	  0.074108213	3.749900E+01
272	  0.074308619	-7.113000E+00	  0.074308619	8.852500E+01	  0.074308619	3.438000E+01	  0.074308619	3.761400E+01
273	  0.074509017	-7.114000E+00	  0.074509017	8.828000E+01	  0.074509017	3.449300E+01	  0.074509017	3.772900E+01
274	  0.074709415	-7.110000E+00	  0.074709415	8.802700E+01	  0.074709415	3.459500E+01	  0.074709415	3.786200E+01
275	  0.074909821	-7.111000E+00	  0.074909821	8.780800E+01	  0.074909821	3.469700E+01	  0.074909821	3.796500E+01
276	  0.075110219	-7.110000E+00	  0.075110219	8.757600E+01	  0.075110219	3.480100E+01	  0.075110219	3.807800E+01
277	  0.075310618	-7.109000E+00	  0.075310618	8.732100E+01	  0.075310618	3.491700E+01	  0.075310618	3.820300E+01
278	  0.075511023	-7.105000E+00	  0.075511023	8.710200E+01	  0.075511023	3.500700E+01	  0.075511023	3.832000E+01
279	  0.075711422	-7.108000E+00	  0.075711422	8.686100E+01	  0.075711422	3.513000E+01	  0.075711422	3.842600E+01
280	  0.075911827	-7.108000E+00	  0.075911827	8.659800E+01	  0.075911827	3.525500E+01	  0.075911827	3.855100E+01
281	  0.076112226	-7.103000E+00	  0.076112226	8.637200E+01	  0.076112226	3.534700E+01	  0.076112226	3.867400E+01
282	  0.076312624	-7.103000E+00	  0.076312624	8.615700E+01	  0.076312624	3.544900E+01	  0.076312624	3.877700E+01
283	  0.076513030	-7.105000E+00	  0.076513030	8.587900E+01	  0.076513030	3.558800E+01	  0.076513030	3.890600E+01
284	  0.076713428	-7.103000E+00	  0.076713428	8.565000E+01	  0.076713428	3.569500E+01	  0.076713428	3.902100E+01
285	  0.076913826	-7.099000E+00	  0.076913826	8.540900E+01	  0.076913826	3.579900E+01	  0.076913826	3.915000E+01
286	  0.077114232	-7.100000E+00	  0.077114232	8.515400E+01	  0.077114232	3.592700E+01	  0.077114232	3.926900E+01
287	  0.077314630	-7.101000E+00	  0.077314630	8.493600E+01	  0.077314630	3.603600E+01	  0.077314630	3.937200E+01
288	  0.077515028	-7.101000E+00	  0.077515028	8.469200E+01	  0.077515028	3.615900E+01	  0.077515028	3.948800E+01
289	  0.077715434	-7.096000E+00	  0.077715434	8.445000E+01	  0.077715434	3.626500E+01	  0.077715434	3.962000E+01
290	  0.077915832	-7.100000E+00	  0.077915832	8.422800E+01	  0.077915832	3.638800E+01	  0.077915832	3.971500E+01
291	  0.078116231	-7.096000E+00	  0.078116231	8.397300E+01	  0.078116231	3.650600E+01	  0.078116231	3.984900E+01
292	  0.078316636	-7.098000E+00	  0.078316636	8.375500E+01	  0.078316636	3.662200E+01	  0.078316636	3.994900E+01
293	  0.078517035	-7.097000E+00	  0.078517035	8.349600E+01	  0.078517035	3.675000E+01	  0.078517035	4.007800E+01
294	  0.078717433	-7.096000E+00	  0.078717433	8.327000E+01	  0.078717433	3.686500E+01	  0.078717433	4.018900E+01
295	  0.078917839	-7.094000E+00	  0.078917839	8.303700E+01	  0.078917839	3.698100E+01	  0.078917839	4.030600E+01
296	  0.079118237	-7.093000E+00	  0.079118237	8.277600E+01	  0.079118237	3.711300E+01	  0.079118237	4.043500E+01
297	  0.079318643	-7.090000E+00	  0.079318643	8.255600E+01	  0.079318643	3.721900E+01	  0.079318643	4.055200E+01
298	  0.079519041	-7.090000E+00	  0.079519041	8.232800E+01	  0.079519041	3.734000E+01	  0.079519041	4.066100E+01
299	  0.079719439	-7.089000E+00	  0.079719439	8.208100E+01	  0.079719439	3.746900E+01	  0.079719439	4.078300E+01
300	  0.079919845	-7.091000E+00	  0.079919845	8.183800E+01	  0.079919845	3.760200E+01	  0.079919845	4.089700E+01
301	  0.080120243	-7.089000E+00	  0.080120243	8.161900E+01	  0.080120243	3.771400E+01	  0.080120243	4.100900E+01
302	  0.080320641	-7.091000E+00	  0.080320641	8.138200E+01	  0.080320641	3.785100E+01	  0.080320641	4.111400E+01
303	  0.080521047	-7.090000E+00	  0.080521047	8.113600E+01	  0.080521047	3.798100E+01	  0.080521047	4.123600E+01
304	  0.080721445	-7.087000E+00	  0.080721445	8.090900E+01	  0.080721445	3.809700E+01	  0.080721445	4.135600E+01
305	  0.080921844	-7.086000E+00	  0.080921844	8.066300E+01	  0.080921844	3.822800E+01	  0.080921844	4.147800E+01
306	  0.081122249	-7.086000E+00	  0.081122249	8.043700E+01	  0.081122249	3.835500E+01	  0.081122249	4.158600E+01
307	  0.081322648	-7.083000E+00	  0.081322648	8.018200E+01	  0.081322648	3.848800E+01	  0.081322648	4.172000E+01
308	  0.081523046	-7.085000E+00	  0.081523046	7.994200E+01	  0.081523046	3.862900E+01	  0.081523046	4.182800E+01
309	  0.081723452	-7.082000E+00	  0.081723452	7.971000E+01	  0.081723452	3.874800E+01	  0.081723452	4.195400E+01
310	  0.081923850	-7.081000E+00	  0.081923850	7.946400E+01	  0.081923850	3.888700E+01	  0.081923850	4.207400E+01
311	  0.082124248	-7.083000E+00	  0.082124248	7.925200E+01	  0.082124248	3.901400E+01	  0.082124248	4.217000E+01
312	  0.082324654	-7.080000E+00	  0.082324654	7.900900E+01	  0.082324654	3.914400E+01	  0.082324654	4.229900E+01
313	  0.082525052	-7.081000E+00	  0.082525052	7.876100E+01	  0.082525052	3.929100E+01	  0.082525052	4.241300E+01
314	  0.082725458	-7.079000E+00	  0.082725458	7.852500E+01	  0.082725458	3.942400E+01	  0.082725458	4.253300E+01
315	  0.082925856	-7.079000E+00	  0.082925856	7.828900E+01	  0.082925856	3.956300E+01	  0.082925856	4.264600E+01
316	  0.083126254	-7.079000E+00	  0.083126254	7.804000E+01	  0.083126254	3.970800E+01	  0.083126254	4.276800E+01
317	  0.083326660	-7.076000E+00	  0.083326660	7.781000E+01	  0.083326660	3.983500E+01	  0.083326660	4.289100E+01
318	  0.083527058	-7.075000E+00	  0.083527058	7.757100E+01	  0.083527058	3.997600E+01	  0.083527058	4.300800E+01
319	  0.083727457	-7.075000E+00	  0.083727457	7.735000E+01	  0.083727457	4.010900E+01	  0.083727457	4.311400E+01
320	  0.083927862	-7.073000E+00	  0.083927862	7.709400E+01	  0.083927862	4.025900E+01	  0.083927862	4.324400E+01
321	  0.084128261	-7.074000E+00	  0.084128261	7.688700E+01	  0.084128261	4.038700E+01	  0.084128261	4.334000E+01
322	  0.084328659	-7.074000E+00	  0.084328659	7.664100E+01	  0.084328659	4.053800E+01	  0.084328659	4.345800E+01
323	  0.084529065	-7.071000E+00	  0.084529065	7.640000E+01	  0.084529065	4.067800E+01	  0.084529065	4.358400E+01
324	  0.084729463	-7.072000E+00	  0.084729463	7.616200E+01	  0.084729463	4.082800E+01	  0.084729463	4.369600E+01
325	  0.084929854	-7.070000E+00	  0.084929854	7.591300E+01	  0.084929854	4.097800E+01	  0.084929854	4.382200E+01
326	  0.085130259	-7.069000E+00	  0.085130259	7.568200E+01	  0.085130259	4.111800E+01	  0.085130259	4.394000E+01
327	  0.085330658	-7.067000E+00	  0.085330658	7.545500E+01	  0.085330658	4.125700E+01	  0.085330658	4.405300E+01
328	  0.085531056	-7.067000E+00	  0.085531056	7.521300E+01	  0.085531056	4.141000E+01	  0.085531056	4.417100E+01
329	  0.085731462	-7.066000E+00	  0.085731462	7.497500E+01	  0.085731462	4.156200E+01	  0.085731462	4.428600E+01
330	  0.085931860	-7.064000E+00	  0.085931860	7.474400E+01	  0.085931860	4.170300E+01	  0.085931860	4.440600E+01
331	  0.086132258	-7.068000E+00	  0.086132258	7.449600E+01	  0.086132258	4.187400E+01	  0.086132258	4.451000E+01
332	  0.086332664	-7.064000E+00	  0.086332664	7.426800E+01	  0.086332664	4.201100E+01	  0.086332664	4.463500E+01
333	  0.086533062	-7.066000E+00	  0.086533062	7.402700E+01	  0.086533062	4.217600E+01	  0.086533062	4.474100E+01
334	  0.086733460	-7.064000E+00	  0.086733460	7.379700E+01	  0.086733460	4.232100E+01	  0.086733460	4.485900E+01
335	  0.086933866	-7.063000E+00	  0.086933866	7.356400E+01	  0.086933866	4.247300E+01	  0.086933866	4.497300E+01
336	  0.087134264	-7.063000E+00	  0.087134264	7.333300E+01	  0.087134264	4.263000E+01	  0.087134264	4.508000E+01
337	  0.087334670	-7.063000E+00	  0.087334670	7.310800E+01	  0.087334670	4.278000E+01	  0.087334670	4.518900E+01
338	  0.087535068	-7.059000E+00	  0.087535068	7.285600E+01	  0.087535068	4.293900E+01	  0.087535068	4.532400E+01
339	  0.087735467	-7.061000E+00	  0.087735467	7.263200E+01	  0.087735467	4.309600E+01	  0.087735467	4.542400E+01
340	  0.087935872	-7.060000E+00	  0.087935872	7.238800E+01	  0.087935872	4.326100E+01	  0.087935872	4.554300E+01
341	  0.088136271	-7.060000E+00	  0.088136271	7.216000E+01	  0.088136271	4.341700E+01	  0.088136271	4.565200E+01
342	  0.088336669	-7.058000E+00	  0.088336669	7.192000E+01	  0.088336669	4.357800E+01	  0.088336669	4.577300E+01
343	  0.088537075	-7.059000E+00	  0.088537075	7.169600E+01	  0.088537075	4.373700E+01	  0.088537075	4.587500E+01
344	  0.088737473	-7.057000E+00	  0.088737473	7.144700E+01	  0.088737473	4.390900E+01	  0.088737473	4.599700E+01
345	  0.088937871	-7.057000E+00	  0.088937871	7.121800E+01	  0.088937871	4.406800E+01	  0.088937871	4.610800E+01
346	  0.089138277	-7.058000E+00	  0.089138277	7.097900E+01	  0.089138277	4.424100E+01	  0.089138277	4.621500E+01
347	  0.089338675	-7.056000E+00	  0.089338675	7.075400E+01	  0.089338675	4.439900E+01	  0.089338675	4.632600E+01
348	  0.089539073	-7.055000E+00	  0.089539073	7.049200E+01	  0.089539073	4.458400E+01	  0.089539073	4.645200E+01
349	  0.089739479	-7.054000E+00	  0.089739479	7.027800E+01	  0.089739479	4.473500E+01	  0.089739479	4.655900E+01
350	  0.089939877	-7.054000E+00	  0.089939877	7.002500E+01	  0.089939877	4.492000E+01	  0.089939877	4.667700E+01
351	  0.090140276	-7.056000E+00	  0.090140276	6.980600E+01	  0.090140276	4.508700E+01	  0.090140276	4.676800E+01
352	  0.090340681	-7.052000E+00	  0.090340681	6.955100E+01	  0.090340681	4.526200E+01	  0.090340681	4.690800E+01
353	  0.090541080	-7.055000E+00	  0.090541080	6.934200E+01	  0.090541080	4.542700E+01	  0.090541080	4.698800E+01
354	  0.090741485	-7.050000E+00	  0.090741485	6.909200E+01	  0.090741485	4.559900E+01	  0.090741485	4.712700E+01
355	  0.090941884	-7.054000E+00	  0.090941884	6.886200E+01	  0.090941884	4.578600E+01	  0.090941884	4.721200E+01
356	  0.091142282	-7.048000E+00	  0.091142282	6.861900E+01	  0.091142282	4.594900E+01	  0.091142282	4.735600E+01
357	  0.091342688	-7.050000E+00	  0.091342688	6.839000E+01	  0.091342688	4.612900E+01	  0.091342688	4.745100E+01
358	  0.091543086	-7.048000E+00	  0.091543086	6.814600E+01	  0.091543086	4.631100E+01	  0.091543086	4.757300E+01
359	  0.091743484	-7.047000E+00	  0.091743484	6.790100E+01	  0.091743484	4.649600E+01	  0.091743484	4.769100E+01
360	  0.091943890	-7.050000E+00	  0.091943890	6.769000E+01	  0.091943890	4.666900E+01	  0.091943890	4.777100E+01
361	  0.092144288	-7.042000E+00	  0.092144288	6.743900E+01	  0.092144288	4.684300E+01	  0.092144288	4.792300E+01
362	  0.092344686	-7.047000E+00	  0.092344686	6.721000E+01	  0.092344686	4.703800E+01	  0.092344686	4.800100E+01
363	  0.092545092	-7.040000E+00	  0.092545092	6.697200E+01	  0.092545092	4.720300E+01	  0.092545092	4.814900E+01
364	  0.092745490	-7.044000E+00	  0.092745490	6.674500E+01	  0.092745490	4.739600E+01	  0.092745490	4.823100E+01
365	  0.092945889	-7.041000E+00	  0.092945889	6.651600E+01	  0.092945889	4.757000E+01	  0.092945889	4.835000E+01
366	  0.093146294	-7.041000E+00	  0.093146294	6.628100E+01	  0.093146294	4.776100E+01	  0.093146294	4.845300E+01
367	  0.093346693	-7.039000E+00	  0.093346693	6.603600E+01	  0.093346693	4.795300E+01	  0.093346693	4.857300E+01
368	  0.093547091	-7.038000E+00	  0.093547091	6.581300E+01	  0.093547091	4.813100E+01	  0.093547091	4.867900E+01
369	  0.093747497	-7.037000E+00	  0.093747497	6.556400E+01	  0.093747497	4.833200E+01	  0.093747497	4.879600E+01
370	  0.093947895	-7.036000E+00	  0.093947895	6.533400E+01	  0.093947895	4.852000E+01	  0.093947895	4.890100E+01
371	  0.094148301	-7.037000E+00	  0.094148301	6.508800E+01	  0.094148301	4.872600E+01	  0.094148301	4.900800E+01
372	  0.094348699	-7.034000E+00	  0.094348699	6.486300E+01	  0.094348699	4.890700E+01	  0.094348699	4.912000E+01
373	  0.094549097	-7.036000E+00	  0.094549097	6.461000E+01	  0.094549097	4.912600E+01	  0.094549097	4.922000E+01
374	  0.094749503	-7.032000E+00	  0.094749503	6.439000E+01	  0.094749503	4.930100E+01	  0.094749503	4.933900E+01
375	  0.094949901	-7.032000E+00	  0.094949901	6.416400E+01	  0.094949901	4.949400E+01	  0.094949901	4.943600E+01
376	  0.095150299	-7.028000E+00	  0.095150299	6.390800E+01	  0.095150299	4.970100E+01	  0.095150299	4.957100E+01
377	  0.095350705	-7.031000E+00	  0.095350705	6.369400E+01	  0.095350705	4.989500E+01	  0.095350705	4.964600E+01
378	  0.095551103	-7.028000E+00	  0.095551103	6.343800E+01	  0.095551103	5.010600E+01	  0.095551103	4.977600E+01
379	  0.095751502	-7.028000E+00	  0.095751502	6.321700E+01	  0.095751502	5.030100E+01	  0.095751502	4.986900E+01
380	  0.095951907	-7.025000E+00	  0.095951907	6.297900E+01	  0.095951907	5.050100E+01	  0.095951907	4.999000E+01
381	  0.096152306	-7.025000E+00	  0.096152306	6.274600E+01	  0.096152306	5.070800E+01	  0.096152306	5.008700E+01
382	  0.096352704	-7.023000E+00	  0.096352704	6.250400E+01	  0.096352704	5.091600E+01	  0.096352704	5.020400E+01
383	  0.096553110	-7.021000E+00	  0.096553110	6.227000E+01	  0.096553110	5.111900E+01	  0.096553110	5.031700E+01
384	  0.096753508	-7.023000E+00	  0.096753508	6.204600E+01	  0.096753508	5.132600E+01	  0.096753508	5.039800E+01
385	  0.096953906	-7.018000E+00	  0.096953906	6.180800E+01	  0.096953906	5.152800E+01	  0.096953906	5.052800E+01
386	  0.097154312	-7.019000E+00	  0.097154312	6.157500E+01	  0.097154312	5.174600E+01	  0.097154312	5.061600E+01
387	  0.097354710	-7.017000E+00	  0.097354710	6.135000E+01	  0.097354710	5.194600E+01	  0.097354710	5.072000E+01
388	  0.097555116	-7.016000E+00	  0.097555116	6.111100E+01	  0.097555116	5.216400E+01	  0.097555116	5.082500E+01
389	  0.097755514	-7.013000E+00	  0.097755514	6.085500E+01	  0.097755514	5.239400E+01	  0.097755514	5.094900E+01
390	  0.097955912	-7.010000E+00	  0.097955912	6.064600E+01	  0.097955912	5.257900E+01	  0.097955912	5.105700E+01
391	  0.098156318	-7.012000E+00	  0.098156318	6.040000E+01	  0.098156318	5.281700E+01	  0.098156318	5.114300E+01
392	  0.098356716	-7.010000E+00	  0.098356716	6.016000E+01	  0.098356716	5.303900E+01	  0.098356716	5.125100E+01
393	  0.098557115	-7.011000E+00	  0.098557115	5.993400E+01	  0.098557115	5.325500E+01	  0.098557115	5.133800E+01
394	  0.098757520	-7.010000E+00	  0.098757520	5.972000E+01	  0.098757520	5.345800E+01	  0.098757520	5.142900E+01
395	  0.098957919	-7.008000E+00	  0.098957919	5.947900E+01	  0.098957919	5.368400E+01	  0.098957919	5.154000E+01
396	  0.099158317	-7.005000E+00	  0.099158317	5.923800E+01	  0.099158317	5.391100E+01	  0.099158317	5.165000E+01
397	  0.099358723	-7.004000E+00	  0.099358723	5.902200E+01	  0.099358723	5.411700E+01	  0.099358723	5.174700E+01
398	  0.099559121	-7.002000E+00	  0.099559121	5.878600E+01	  0.099559121	5.434500E+01	  0.099559121	5.184800E+01
399	  0.099759519	-7.003000E+00	  0.099759519	5.855300E+01	  0.099759519	5.457600E+01	  0.099759519	5.193600E+01
400	  0.099959925	-6.992000E+00	  0.099959925	5.835100E+01	  0.099959925	5.475000E+01	  0.099959925	5.208100E+01
401	  0.100160323	-6.999000E+00	  0.100160323	5.810700E+01	  0.100160323	5.501100E+01	  0.100160323	5.212900E+01
402	  0.100360721	-6.991000E+00	  0.100360721	5.786900E+01	  0.100360721	5.522900E+01	  0.100360721	5.227700E+01
403	  0.100561127	-6.991000E+00	  0.100561127	5.765900E+01	  0.100561127	5.544200E+01	  0.100561127	5.235400E+01
404	  0.100761525	-6.992000E+00	  0.100761525	5.741700E+01	  0.100761525	5.569000E+01	  0.100761525	5.244100E+01
405	  0.100961931	-6.989000E+00	  0.100961931	5.717800E+01	  0.100961931	5.592700E+01	  0.100961931	5.255000E+01
406	  0.101162329	-6.986000E+00	  0.101162329	5.697300E+01	  0.101162329	5.613200E+01	  0.101162329	5.264300E+01
407	  0.101362728	-6.985000E+00	  0.101362728	5.671600E+01	  0.101362728	5.639400E+01	  0.101362728	5.274700E+01
408	  0.101563133	-6.987000E+00	  0.101563133	5.649000E+01	  0.101563133	5.663500E+01	  0.101563133	5.281500E+01
409	  0.101763532	-6.991000E+00	  0.101763532	5.626200E+01	  0.101763532	5.688400E+01	  0.101763532	5.286700E+01
410	  0.101963930	-6.984000E+00	  0.101963930	5.605000E+01	  0.101963930	5.708900E+01	  0.101963930	5.299700E+01
411	  0.102164328	-6.988000E+00	  0.102164328	5.579300E+01	  0.102164328	5.737200E+01	  0.102164328	5.305600E+01
412	  0.102364726	-6.984000E+00	  0.102364726	5.557800E+01	  0.102364726	5.759100E+01	  0.102364726	5.316500E+01
413	  0.102565125	-6.988000E+00	  0.102565125	5.532500E+01	  0.102565125	5.787100E+01	  0.102565125	5.322500E+01
414	  0.102765530	-6.980000E+00	  0.102765530	5.511000E+01	  0.102765530	5.808400E+01	  0.102765530	5.335600E+01
415	  0.102965929	-6.984000E+00	  0.102965929	5.488900E+01	  0.102965929	5.833300E+01	  0.102965929	5.340200E+01
416	  0.103166327	-6.981000E+00	  0.103166327	5.466900E+01	  0.103166327	5.856700E+01	  0.103166327	5.349500E+01
417	  0.103366733	-6.980000E+00	  0.103366733	5.440600E+01	  0.103366733	5.885300E+01	  0.103366733	5.359300E+01
418	  0.103567131	-6.977000E+00	  0.103567131	5.418000E+01	  0.103567131	5.909600E+01	  0.103567131	5.368900E+01
419	  0.103767529	-6.980000E+00	  0.103767529	5.397400E+01	  0.103767529	5.933100E+01	  0.103767529	5.373500E+01
420	  0.103967935	-6.977000E+00	  0.103967935	5.370900E+01	  0.103967935	5.962000E+01	  0.103967935	5.384200E+01
421	  0.104168333	-6.974000E+00	  0.104168333	5.350900E+01	  0.104168333	5.983900E+01	  0.104168333	5.392900E+01
422	  0.104368731	-6.979000E+00	  0.104368731	5.326400E+01	  0.104368731	6.012800E+01	  0.104368731	5.396600E+01
423	  0.104569137	-6.972000E+00	  0.104569137	5.305600E+01	  0.104569137	6.034900E+01	  0.104569137	5.408400E+01
424	  0.104769535	-6.974000E+00	  0.104769535	5.279200E+01	  0.104769535	6.065500E+01	  0.104769535	5.415000E+01
425	  0.104969934	-6.971000E+00	  0.104969934	5.258000E+01	  0.104969934	6.089200E+01	  0.104969934	5.424000E+01
426	  0.105170339	-6.970000E+00	  0.105170339	5.234100E+01	  0.105170339	6.116600E+01	  0.105170339	5.432100E+01
427	  0.105370738	-6.969000E+00	  0.105370738	5.213900E+01	  0.105370738	6.140000E+01	  0.105370738	5.438800E+01
428	  0.105571143	-6.967000E+00	  0.105571143	5.189600E+01	  0.105571143	6.167900E+01	  0.105571143	5.447400E+01
429	  0.105771542	-6.967000E+00	  0.105771542	5.164900E+01	  0.105771542	6.197000E+01	  0.105771542	5.454500E+01
430	  0.105971940	-6.963000E+00	  0.105971940	5.143000E+01	  0.105971940	6.222200E+01	  0.105971940	5.463800E+01
431	  0.106172346	-6.967000E+00	  0.106172346	5.120600E+01	  0.106172346	6.249600E+01	  0.106172346	5.467000E+01
432	  0.106372744	-6.962000E+00	  0.106372744	5.096600E+01	  0.106372744	6.277400E+01	  0.106372744	5.477100E+01
433	  0.106573142	-6.965000E+00	  0.106573142	5.075300E+01	  0.106573142	6.303400E+01	  0.106573142	5.481100E+01
434	  0.106773548	-6.959000E+00	  0.106773548	5.050000E+01	  0.106773548	6.333200E+01	  0.106773548	5.492200E+01
435	  0.106973946	-6.960000E+00	  0.106973946	5.027000E+01	  0.106973946	6.361200E+01	  0.106973946	5.497700E+01
436	  0.107174344	-6.959000E+00	  0.107174344	5.003500E+01	  0.107174344	6.389900E+01	  0.107174344	5.504100E+01
437	  0.107374750	-6.956000E+00	  0.107374750	4.980700E+01	  0.107374750	6.417500E+01	  0.107374750	5.512500E+01
438	  0.107575148	-6.954000E+00	  0.107575148	4.959400E+01	  0.107575148	6.443500E+01	  0.107575148	5.519100E+01
439	  0.107775547	-6.955000E+00	  0.107775547	4.934800E+01	  0.107775547	6.474300E+01	  0.107775547	5.524500E+01
440	  0.107975952	-6.953000E+00	  0.107975952	4.912700E+01	  0.107975952	6.501600E+01	  0.107975952	5.531000E+01
441	  0.108176351	-6.956000E+00	  0.108176351	4.888200E+01	  0.108176351	6.532900E+01	  0.108176351	5.534400E+01
442	  0.108376749	-6.950000E+00	  0.108376749	4.865600E+01	  0.108376749	6.560800E+01	  0.108376749	5.544200E+01
443	  0.108577155	-6.952000E+00	  0.108577155	4.842700E+01	  0.108577155	6.590100E+01	  0.108577155	5.547600E+01
444	  0.108777553	-6.947000E+00	  0.108777553	4.820500E+01	  0.108777553	6.617800E+01	  0.108777553	5.556800E+01
445	  0.108977959	-6.948000E+00	  0.108977959	4.795800E+01	  0.108977959	6.649700E+01	  0.108977959	5.560700E+01
446	  0.109178357	-6.949000E+00	  0.109178357	4.774000E+01	  0.109178357	6.678100E+01	  0.109178357	5.564400E+01
447	  0.109378755	-6.944000E+00	  0.109378755	4.751300E+01	  0.109378755	6.707000E+01	  0.109378755	5.573000E+01
448	  0.109579161	-6.944000E+00	  0.109579161	4.728800E+01	  0.109579161	6.736400E+01	  0.109579161	5.577200E+01
449	  0.109779559	-6.945000E+00	  0.109779559	4.703800E+01	  0.109779559	6.769400E+01	  0.109779559	5.581000E+01
450	  0.109979957	-6.944000E+00	  0.109979957	4.681300E+01	  0.109979957	6.799100E+01	  0.109979957	5.586300E+01
451	  0.110180363	-6.945000E+00	  0.110180363	4.659100E+01	  0.110180363	6.828600E+01	  0.110180363	5.589300E+01
452	  0.110380761	-6.945000E+00	  0.110380761	4.636100E+01	  0.110380761	6.859300E+01	  0.110380761	5.592700E+01
453	  0.110581160	-6.940000E+00	  0.110581160	4.613100E+01	  0.110581160	6.889800E+01	  0.110581160	5.600800E+01
454	  0.110781565	-6.940000E+00	  0.110781565	4.590300E+01	  0.110781565	6.920500E+01	  0.110781565	5.603900E+01
455	  0.110981964	-6.940000E+00	  0.110981964	4.569000E+01	  0.110981964	6.949400E+01	  0.110981964	5.607500E+01
456	  0.111182362	-6.937000E+00	  0.111182362	4.545400E+01	  0.111182362	6.981400E+01	  0.111182362	5.613100E+01
457	  0.111382768	-6.937000E+00	  0.111382768	4.521400E+01	  0.111382768	7.014300E+01	  0.111382768	5.616900E+01
458	  0.111583166	-6.935000E+00	  0.111583166	4.497500E+01	  0.111583166	7.047100E+01	  0.111583166	5.620900E+01
459	  0.111783572	-6.937000E+00	  0.111783572	4.475000E+01	  0.111783572	7.078500E+01	  0.111783572	5.621800E+01
460	  0.111983970	-6.938000E+00	  0.111983970	4.452700E+01	  0.111983970	7.109500E+01	  0.111983970	5.624000E+01
461	  0.112184368	-6.936000E+00	  0.112184368	4.428900E+01	  0.112184368	7.142700E+01	  0.112184368	5.627900E+01
462	  0.112384774	-6.934000E+00	  0.112384774	4.407000E+01	  0.112384774	7.173400E+01	  0.112384774	5.631700E+01
463	  0.112585172	-6.933000E+00	  0.112585172	4.385600E+01	  0.112585172	7.203600E+01	  0.112585172	5.634300E+01
464	  0.112785570	-6.934000E+00	  0.112785570	4.360500E+01	  0.112785570	7.239300E+01	  0.112785570	5.635400E+01
465	  0.112985976	-6.930000E+00	  0.112985976	4.338600E+01	  0.112985976	7.270500E+01	  0.112985976	5.640700E+01
466	  0.113186374	-6.930000E+00	  0.113186374	4.315300E+01	  0.113186374	7.303800E+01	  0.113186374	5.643100E+01
467	  0.113386773	-6.931000E+00	  0.113386773	4.292600E+01	  0.113386773	7.336600E+01	  0.113386773	5.643100E+01
468	  0.113587178	-6.930000E+00	  0.113587178	4.270300E+01	  0.113587178	7.368800E+01	  0.113587178	5.645500E+01
469	  0.113787577	-6.928000E+00	  0.113787577	4.249000E+01	  0.113787577	7.399700E+01	  0.113787577	5.648000E+01
470	  0.113987975	-6.926000E+00	  0.113987975	4.226700E+01	  0.113987975	7.432300E+01	  0.113987975	5.650600E+01
471	  0.114188381	-6.928000E+00	  0.114188381	4.201700E+01	  0.114188381	7.469200E+01	  0.114188381	5.648900E+01
472	  0.114388779	-6.925000E+00	  0.114388779	4.181500E+01	  0.114388779	7.498900E+01	  0.114388779	5.652900E+01
473	  0.114589177	-6.926000E+00	  0.114589177	4.157900E+01	  0.114589177	7.534000E+01	  0.114589177	5.651800E+01
474	  0.114789583	-6.924000E+00	  0.114789583	4.134300E+01	  0.114789583	7.569000E+01	  0.114789583	5.653700E+01
475	  0.114989981	-6.922000E+00	  0.114989981	4.110000E+01	  0.114989981	7.605500E+01	  0.114989981	5.655400E+01
476	  0.115190387	-6.922000E+00	  0.115190387	4.089100E+01	  0.115190387	7.636900E+01	  0.115190387	5.654600E+01
477	  0.115390785	-6.921000E+00	  0.115390785	4.064600E+01	  0.115390785	7.673900E+01	  0.115390785	5.655100E+01
478	  0.115591183	-6.923000E+00	  0.115591183	4.043800E+01	  0.115591183	7.705400E+01	  0.115591183	5.652600E+01
479	  0.115791589	-6.921000E+00	  0.115791589	4.020300E+01	  0.115791589	7.741300E+01	  0.115791589	5.653400E+01
480	  0.115991987	-6.918000E+00	  0.115991987	3.998500E+01	  0.115991987	7.774900E+01	  0.115991987	5.655200E+01
481	  0.116192386	-6.917000E+00	  0.116192386	3.975800E+01	  0.116192386	7.809800E+01	  0.116192386	5.655100E+01
482	  0.116392791	-6.917000E+00	  0.116392791	3.949900E+01	  0.116392791	7.849800E+01	  0.116392791	5.652600E+01
483	  0.116593190	-6.916000E+00	  0.116593190	3.931500E+01	  0.116593190	7.878500E+01	  0.116593190	5.652100E+01
484	  0.116793588	-6.915000E+00	  0.116793588	3.908600E+01	  0.116793588	7.914200E+01	  0.116793588	5.650800E+01
485	  0.116993994	-6.916000E+00	  0.116993994	3.885500E+01	  0.116993994	7.950200E+01	  0.116993994	5.647400E+01
486	  0.117194392	-6.914000E+00	  0.117194392	3.862700E+01	  0.117194392	7.986100E+01	  0.117194392	5.646700E+01
487	  0.117394790	-6.916000E+00	  0.117394790	3.839400E+01	  0.117394790	8.022800E+01	  0.117394790	5.642400E+01
488	  0.117595196	-6.916000E+00	  0.117595196	3.816000E+01	  0.117595196	8.060000E+01	  0.117595196	5.639200E+01
489	  0.117795594	-6.914000E+00	  0.117795594	3.795900E+01	  0.117795594	8.091900E+01	  0.117795594	5.638000E+01
490	  0.117995992	-6.915000E+00	  0.117995992	3.773400E+01	  0.117995992	8.127900E+01	  0.117995992	5.633200E+01
491	  0.118196398	-6.913000E+00	  0.118196398	3.749500E+01	  0.118196398	8.166300E+01	  0.118196398	5.631800E+01
492	  0.118396796	-6.909000E+00	  0.118396796	3.726000E+01	  0.118396796	8.204500E+01	  0.118396796	5.631200E+01
