! Anritsu VNA Master:             	Model: MS2036C/10/77
! SN:             	1601066
! /bd0/18may09/b256.ns.m3.txt
! Existing Calibration Information:
! TYPE:             	Current Settings	Active Cal Settings
! TIME:             	05/09/2018 07:42:13 PM	05/09/2018 07:34:34 PM
! INTERNAL TEMP:    	53.3 C	52.0 C
! # POINTS:         	494	494
! START FREQ:       	20.000 MHz	20.000 MHz
! STOP FREQ:        	118.797 594 MHz	118.797 594 MHz
! SOURCE POWER:     	High	High
! IFBW:             	50 Hz	50 Hz
! AVG FACTOR:       	  1 	  1 
! REF PLANE 1:      	0 mm	0 mm
! REF PLANE 2:      	0 mm	0 mm
! CAL TYPE:         	Full S22	Full S22
! CAL METHOD:       	SOLT	SOLT
! CAL LINE TYPE:    	Coax	Coax
! DUT PORT 1:       	K-Conn(M)	K-Conn(M)
! DUT PORT 2:       	K-Conn(M)	K-Conn(M)
! CAL STATUS:       	OK: Accuracy High	--
! PROP-V:       	0.700
! CABLE LOSS:       	0.000 dB/m
! REF IMPEDANCE:       	50.0
! Trace Specific Parameters:	TR1	TR2	TR3	TR4
! TRACE.#.Y (GRAPH TYPE)	LOG MAG	PHASE	REAL IMPEDANCE	IMAGINARY IMPEDANCE
! TRACE.#.X 	FREQ.GHZ	FREQ.GHZ	FREQ.GHZ	FREQ.GHZ
! S-PARAMETER	S22	S22	S22	S22
! SMOOTH/APERTURE %	0	0	0	0
! WINDOW	NSL	NSL	NSL	NSL
! GATING	OFF	OFF	OFF	OFF
! FGTD	OFF	OFF	OFF	OFF
Marker Information per Trace:	TR1	TR2	TR3	TR4
!MK1	--	"MK1 TR2:  20.000 MHz,PH:-126.95°"	--	--
!MK2	--	--	"MK2 TR3:  70.100 200 MHz,Z:(16.967 ohm, -1.381 ohm)"	--
!MK3	--	--	--	--
!MK4	--	--	--	--
!MK5	--	--	--	--
!MK6	--	--	--	--
!MK7	--	--	--	--
!MK8	--	--	--	--
PNT	TR1.FREQ.GHZ	TR1.LOG MAG.dB	TR2.FREQ.GHZ	TR2.PHASE.deg	TR3.FREQ.GHZ	TR3.REAL IMPEDANCE.ohm	TR4.FREQ.GHZ	TR4.IMAGINARY IMPEDANCE.ohm
1	  0.020000000	-6.350000E-01	  0.020000000	-1.269450E+02	  0.020000000	2.282000E+00	  0.020000000	-2.491700E+01
2	  0.020200402	-6.370000E-01	  0.020200402	-1.284140E+02	  0.020200402	2.260000E+00	  0.020200402	-2.412300E+01
3	  0.020400802	-6.400000E-01	  0.020400802	-1.299160E+02	  0.020400802	2.245000E+00	  0.020400802	-2.332100E+01
4	  0.020601204	-6.450000E-01	  0.020601204	-1.314130E+02	  0.020601204	2.235000E+00	  0.020601204	-2.253100E+01
5	  0.020801604	-6.480000E-01	  0.020801604	-1.329610E+02	  0.020801604	2.218000E+00	  0.020801604	-2.172400E+01
6	  0.021002004	-6.510000E-01	  0.021002004	-1.345100E+02	  0.021002004	2.204000E+00	  0.021002004	-2.092600E+01
7	  0.021202406	-6.550000E-01	  0.021202406	-1.360620E+02	  0.021202406	2.191000E+00	  0.021202406	-2.013600E+01
8	  0.021402806	-6.580000E-01	  0.021402806	-1.376040E+02	  0.021402806	2.178000E+00	  0.021402806	-1.935900E+01
9	  0.021603208	-6.640000E-01	  0.021603208	-1.391390E+02	  0.021603208	2.176000E+00	  0.021603208	-1.859400E+01
10	  0.021803608	-6.670000E-01	  0.021803608	-1.406750E+02	  0.021803608	2.166000E+00	  0.021803608	-1.783500E+01
11	  0.022004008	-6.750000E-01	  0.022004008	-1.422320E+02	  0.022004008	2.169000E+00	  0.022004008	-1.707400E+01
12	  0.022204408	-6.820000E-01	  0.022204408	-1.438130E+02	  0.022204408	2.171000E+00	  0.022204408	-1.630800E+01
13	  0.022404809	-6.880000E-01	  0.022404809	-1.454030E+02	  0.022404809	2.173000E+00	  0.022404809	-1.554400E+01
14	  0.022605211	-6.910000E-01	  0.022605211	-1.470120E+02	  0.022605211	2.162000E+00	  0.022605211	-1.477900E+01
15	  0.022805611	-6.940000E-01	  0.022805611	-1.486220E+02	  0.022805611	2.154000E+00	  0.022805611	-1.401900E+01
16	  0.023006011	-7.010000E-01	  0.023006011	-1.502180E+02	  0.023006011	2.158000E+00	  0.023006011	-1.327200E+01
17	  0.023206413	-7.060000E-01	  0.023206413	-1.518180E+02	  0.023206413	2.160000E+00	  0.023206413	-1.252800E+01
18	  0.023406813	-7.150000E-01	  0.023406813	-1.534160E+02	  0.023406813	2.172000E+00	  0.023406813	-1.179000E+01
19	  0.023607215	-7.230000E-01	  0.023607215	-1.550210E+02	  0.023607215	2.183000E+00	  0.023607215	-1.105400E+01
20	  0.023807615	-7.340000E-01	  0.023807615	-1.566530E+02	  0.023807615	2.201000E+00	  0.023807615	-1.031000E+01
21	  0.024008015	-7.430000E-01	  0.024008015	-1.583090E+02	  0.024008015	2.216000E+00	  0.024008015	-9.560000E+00
22	  0.024208417	-7.510000E-01	  0.024208417	-1.599740E+02	  0.024208417	2.229000E+00	  0.024208417	-8.810000E+00
23	  0.024408817	-7.600000E-01	  0.024408817	-1.616580E+02	  0.024408817	2.243000E+00	  0.024408817	-8.056000E+00
24	  0.024609219	-7.690000E-01	  0.024609219	-1.633350E+02	  0.024609219	2.260000E+00	  0.024609219	-7.308000E+00
25	  0.024809619	-7.810000E-01	  0.024809619	-1.650160E+02	  0.024809619	2.286000E+00	  0.024809619	-6.561000E+00
26	  0.025010020	-7.930000E-01	  0.025010020	-1.667010E+02	  0.025010020	2.312000E+00	  0.025010020	-5.816000E+00
27	  0.025210422	-8.060000E-01	  0.025210422	-1.684040E+02	  0.025210422	2.342000E+00	  0.025210422	-5.065000E+00
28	  0.025410822	-8.190000E-01	  0.025410822	-1.701150E+02	  0.025410822	2.373000E+00	  0.025410822	-4.314000E+00
29	  0.025611224	-8.310000E-01	  0.025611224	-1.718490E+02	  0.025611224	2.402000E+00	  0.025611224	-3.554000E+00
30	  0.025811624	-8.450000E-01	  0.025811624	-1.735980E+02	  0.025811624	2.440000E+00	  0.025811624	-2.789000E+00
31	  0.026012026	-8.580000E-01	  0.026012026	-1.753400E+02	  0.026012026	2.473000E+00	  0.026012026	-2.029000E+00
32	  0.026212426	-8.730000E-01	  0.026212426	-1.771040E+02	  0.026212426	2.513000E+00	  0.026212426	-1.260000E+00
33	  0.026412826	-8.890000E-01	  0.026412826	-1.788870E+02	  0.026412826	2.558000E+00	  0.026412826	-4.840000E-01
34	  0.026613226	-9.070000E-01	  0.026613226	1.793290E+02	  0.026613226	2.608000E+00	  0.026613226	2.910000E-01
35	  0.026813626	-9.230000E-01	  0.026813626	1.775370E+02	  0.026813626	2.656000E+00	  0.026813626	1.071000E+00
36	  0.027014028	-9.420000E-01	  0.027014028	1.757470E+02	  0.027014028	2.712000E+00	  0.027014028	1.851000E+00
37	  0.027214428	-9.590000E-01	  0.027214428	1.739420E+02	  0.027214428	2.767000E+00	  0.027214428	2.637000E+00
38	  0.027414829	-9.810000E-01	  0.027414829	1.721320E+02	  0.027414829	2.834000E+00	  0.027414829	3.427000E+00
39	  0.027615231	-1.000000E+00	  0.027615231	1.703080E+02	  0.027615231	2.897000E+00	  0.027615231	4.224000E+00
40	  0.027815631	-1.021000E+00	  0.027815631	1.684770E+02	  0.027815631	2.967000E+00	  0.027815631	5.027000E+00
41	  0.028016033	-1.043000E+00	  0.028016033	1.666310E+02	  0.028016033	3.039000E+00	  0.028016033	5.838000E+00
42	  0.028216433	-1.064000E+00	  0.028216433	1.647750E+02	  0.028216433	3.115000E+00	  0.028216433	6.656000E+00
43	  0.028416833	-1.089000E+00	  0.028416833	1.629270E+02	  0.028416833	3.201000E+00	  0.028416833	7.474000E+00
44	  0.028617235	-1.111000E+00	  0.028617235	1.610670E+02	  0.028617235	3.284000E+00	  0.028617235	8.301000E+00
45	  0.028817635	-1.135000E+00	  0.028817635	1.592130E+02	  0.028817635	3.373000E+00	  0.028817635	9.130000E+00
46	  0.029018037	-1.163000E+00	  0.029018037	1.573560E+02	  0.029018037	3.478000E+00	  0.029018037	9.964000E+00
47	  0.029218437	-1.190000E+00	  0.029218437	1.554950E+02	  0.029218437	3.581000E+00	  0.029218437	1.080400E+01
48	  0.029418837	-1.218000E+00	  0.029418837	1.536140E+02	  0.029418837	3.693000E+00	  0.029418837	1.166000E+01
49	  0.029619239	-1.246000E+00	  0.029619239	1.517240E+02	  0.029619239	3.807000E+00	  0.029619239	1.252500E+01
50	  0.029819639	-1.276000E+00	  0.029819639	1.498450E+02	  0.029819639	3.931000E+00	  0.029819639	1.339200E+01
51	  0.030020041	-1.306000E+00	  0.030020041	1.479450E+02	  0.030020041	4.061000E+00	  0.030020041	1.427500E+01
52	  0.030220442	-1.334000E+00	  0.030220442	1.460560E+02	  0.030220442	4.187000E+00	  0.030220442	1.516100E+01
53	  0.030420844	-1.363000E+00	  0.030420844	1.441770E+02	  0.030420844	4.323000E+00	  0.030420844	1.605100E+01
54	  0.030621244	-1.396000E+00	  0.030621244	1.422950E+02	  0.030621244	4.475000E+00	  0.030621244	1.694900E+01
55	  0.030821642	-1.429000E+00	  0.030821642	1.403920E+02	  0.030821642	4.633000E+00	  0.030821642	1.786700E+01
56	  0.031022044	-1.460000E+00	  0.031022044	1.384620E+02	  0.031022044	4.791000E+00	  0.031022044	1.880900E+01
57	  0.031222444	-1.490000E+00	  0.031222444	1.365510E+02	  0.031222444	4.952000E+00	  0.031222444	1.975300E+01
58	  0.031422846	-1.523000E+00	  0.031422846	1.345900E+02	  0.031422846	5.132000E+00	  0.031422846	2.073200E+01
59	  0.031623244	-1.554000E+00	  0.031623244	1.326140E+02	  0.031623244	5.314000E+00	  0.031623244	2.173200E+01
60	  0.031823646	-1.589000E+00	  0.031823646	1.306310E+02	  0.031823646	5.515000E+00	  0.031823646	2.274900E+01
61	  0.032024048	-1.624000E+00	  0.032024048	1.286540E+02	  0.032024048	5.729000E+00	  0.032024048	2.377700E+01
62	  0.032224450	-1.659000E+00	  0.032224450	1.266550E+02	  0.032224450	5.951000E+00	  0.032224450	2.483200E+01
63	  0.032424849	-1.698000E+00	  0.032424849	1.246380E+02	  0.032424849	6.199000E+00	  0.032424849	2.591200E+01
64	  0.032625251	-1.735000E+00	  0.032625251	1.226280E+02	  0.032625251	6.450000E+00	  0.032625251	2.700600E+01
65	  0.032825653	-1.772000E+00	  0.032825653	1.205750E+02	  0.032825653	6.716000E+00	  0.032825653	2.814300E+01
66	  0.033026051	-1.811000E+00	  0.033026051	1.185240E+02	  0.033026051	7.006000E+00	  0.033026051	2.929900E+01
67	  0.033226453	-1.851000E+00	  0.033226453	1.164690E+02	  0.033226453	7.313000E+00	  0.033226453	3.047800E+01
68	  0.033426855	-1.890000E+00	  0.033426855	1.144160E+02	  0.033426855	7.631000E+00	  0.033426855	3.167900E+01
69	  0.033627257	-1.935000E+00	  0.033627257	1.123770E+02	  0.033627257	7.990000E+00	  0.033627257	3.289200E+01
70	  0.033827655	-1.975000E+00	  0.033827655	1.103180E+02	  0.033827655	8.352000E+00	  0.033827655	3.414500E+01
71	  0.034028057	-2.016000E+00	  0.034028057	1.082570E+02	  0.034028057	8.737000E+00	  0.034028057	3.542500E+01
72	  0.034228459	-2.062000E+00	  0.034228459	1.061970E+02	  0.034228459	9.167000E+00	  0.034228459	3.672900E+01
73	  0.034428857	-2.108000E+00	  0.034428857	1.040850E+02	  0.034428857	9.628000E+00	  0.034428857	3.809600E+01
74	  0.034629259	-2.153000E+00	  0.034629259	1.020050E+02	  0.034629259	1.010700E+01	  0.034629259	3.947600E+01
75	  0.034829661	-2.200000E+00	  0.034829661	9.993000E+01	  0.034829661	1.062900E+01	  0.034829661	4.088100E+01
76	  0.035030060	-2.248000E+00	  0.035030060	9.782800E+01	  0.035030060	1.118900E+01	  0.035030060	4.233900E+01
77	  0.035230462	-2.295000E+00	  0.035230462	9.574300E+01	  0.035230462	1.177800E+01	  0.035230462	4.382300E+01
78	  0.035430863	-2.346000E+00	  0.035430863	9.367300E+01	  0.035430863	1.242100E+01	  0.035430863	4.532800E+01
79	  0.035631265	-2.397000E+00	  0.035631265	9.158700E+01	  0.035631265	1.311200E+01	  0.035631265	4.688300E+01
80	  0.035831664	-2.445000E+00	  0.035831664	8.949200E+01	  0.035831664	1.383600E+01	  0.035831664	4.849200E+01
81	  0.036032066	-2.498000E+00	  0.036032066	8.741500E+01	  0.036032066	1.463000E+01	  0.036032066	5.012100E+01
82	  0.036232468	-2.545000E+00	  0.036232468	8.533500E+01	  0.036232468	1.545400E+01	  0.036232468	5.180600E+01
83	  0.036432866	-2.601000E+00	  0.036432866	8.322000E+01	  0.036432866	1.639200E+01	  0.036432866	5.355200E+01
84	  0.036633268	-2.653000E+00	  0.036633268	8.112200E+01	  0.036633268	1.737900E+01	  0.036633268	5.533800E+01
85	  0.036833670	-2.707000E+00	  0.036833670	7.903500E+01	  0.036833670	1.844400E+01	  0.036833670	5.715800E+01
86	  0.037034072	-2.762000E+00	  0.037034072	7.690800E+01	  0.037034072	1.961200E+01	  0.037034072	5.906800E+01
87	  0.037234470	-2.818000E+00	  0.037234470	7.482100E+01	  0.037234470	2.086700E+01	  0.037234470	6.098300E+01
88	  0.037434869	-2.879000E+00	  0.037434869	7.269500E+01	  0.037434869	2.226900E+01	  0.037434869	6.297700E+01
89	  0.037635271	-2.942000E+00	  0.037635271	7.059200E+01	  0.037635271	2.379300E+01	  0.037635271	6.498800E+01
90	  0.037835669	-3.014000E+00	  0.037835669	6.854000E+01	  0.037835669	2.547500E+01	  0.037835669	6.695400E+01
91	  0.038036071	-3.075000E+00	  0.038036071	6.654300E+01	  0.038036071	2.717200E+01	  0.038036071	6.894200E+01
92	  0.038236473	-3.126000E+00	  0.038236473	6.448500E+01	  0.038236473	2.897000E+01	  0.038236473	7.108900E+01
93	  0.038436871	-3.179000E+00	  0.038436871	6.238400E+01	  0.038436871	3.096900E+01	  0.038436871	7.332600E+01
94	  0.038637273	-3.233000E+00	  0.038637273	6.028800E+01	  0.038637273	3.315400E+01	  0.038637273	7.559500E+01
95	  0.038837675	-3.284000E+00	  0.038837675	5.816100E+01	  0.038837675	3.553400E+01	  0.038837675	7.796500E+01
96	  0.039038073	-3.338000E+00	  0.039038073	5.607800E+01	  0.039038073	3.811200E+01	  0.039038073	8.029700E+01
97	  0.039238475	-3.394000E+00	  0.039238475	5.399200E+01	  0.039238475	4.094500E+01	  0.039238475	8.263800E+01
98	  0.039438877	-3.446000E+00	  0.039438877	5.189200E+01	  0.039438877	4.401800E+01	  0.039438877	8.504200E+01
99	  0.039639279	-3.501000E+00	  0.039639279	4.978600E+01	  0.039639279	4.741400E+01	  0.039639279	8.742700E+01
100	  0.039839678	-3.558000E+00	  0.039839678	4.768100E+01	  0.039839678	5.113700E+01	  0.039839678	8.977000E+01
101	  0.040040080	-3.612000E+00	  0.040040080	4.556700E+01	  0.040040080	5.520400E+01	  0.040040080	9.209400E+01
102	  0.040240481	-3.666000E+00	  0.040240481	4.347900E+01	  0.040240481	5.959000E+01	  0.040240481	9.430900E+01
103	  0.040440880	-3.719000E+00	  0.040440880	4.140400E+01	  0.040440880	6.434000E+01	  0.040440880	9.640100E+01
104	  0.040641282	-3.775000E+00	  0.040641282	3.930400E+01	  0.040641282	6.959900E+01	  0.040641282	9.831400E+01
105	  0.040841684	-3.829000E+00	  0.040841684	3.725000E+01	  0.040841684	7.518900E+01	  0.040841684	9.995800E+01
106	  0.041042086	-3.884000E+00	  0.041042086	3.519400E+01	  0.041042086	8.125000E+01	  0.041042086	1.012950E+02
107	  0.041242484	-3.942000E+00	  0.041242484	3.311300E+01	  0.041242484	8.788300E+01	  0.041242484	1.022160E+02
108	  0.041442886	-3.996000E+00	  0.041442886	3.104400E+01	  0.041442886	9.493800E+01	  0.041442886	1.027340E+02
109	  0.041643288	-4.050000E+00	  0.041643288	2.897400E+01	  0.041643288	1.024700E+02	  0.041643288	1.026930E+02
110	  0.041843686	-4.103000E+00	  0.041843686	2.689100E+01	  0.041843686	1.104930E+02	  0.041843686	1.019490E+02
111	  0.042044088	-4.156000E+00	  0.042044088	2.483900E+01	  0.042044088	1.187820E+02	  0.042044088	1.003870E+02
112	  0.042244490	-4.210000E+00	  0.042244490	2.278800E+01	  0.042244490	1.273460E+02	  0.042244490	9.786900E+01
113	  0.042444889	-4.265000E+00	  0.042444889	2.077500E+01	  0.042444889	1.358910E+02	  0.042444889	9.432600E+01
114	  0.042645290	-4.320000E+00	  0.042645290	1.872600E+01	  0.042645290	1.445640E+02	  0.042645290	8.957100E+01
115	  0.042845692	-4.373000E+00	  0.042845692	1.671500E+01	  0.042845692	1.528840E+02	  0.042845692	8.375300E+01
116	  0.043046094	-4.426000E+00	  0.043046094	1.469500E+01	  0.043046094	1.608100E+02	  0.043046094	7.668500E+01
117	  0.043246493	-4.479000E+00	  0.043246493	1.267600E+01	  0.043246493	1.680450E+02	  0.043246493	6.842300E+01
118	  0.043446895	-4.531000E+00	  0.043446895	1.069000E+01	  0.043446895	1.742890E+02	  0.043446895	5.925400E+01
119	  0.043647297	-4.582000E+00	  0.043647297	8.695000E+00	  0.043647297	1.794510E+02	  0.043647297	4.911700E+01
120	  0.043847695	-4.634000E+00	  0.043847695	6.724000E+00	  0.043847695	1.831860E+02	  0.043847695	3.835400E+01
121	  0.044048097	-4.684000E+00	  0.044048097	4.775000E+00	  0.044048097	1.855690E+02	  0.044048097	2.730400E+01
122	  0.044248499	-4.736000E+00	  0.044248499	2.851000E+00	  0.044248499	1.863900E+02	  0.044248499	1.619200E+01
123	  0.044448901	-4.783000E+00	  0.044448901	9.280000E-01	  0.044448901	1.859750E+02	  0.044448901	5.207000E+00
124	  0.044649299	-4.831000E+00	  0.044649299	-9.830000E-01	  0.044649299	1.842250E+02	  0.044649299	-5.404000E+00
125	  0.044849701	-4.877000E+00	  0.044849701	-2.860000E+00	  0.044849701	1.813470E+02	  0.044849701	-1.530200E+01
126	  0.045050103	-4.919000E+00	  0.045050103	-4.763000E+00	  0.045050103	1.775430E+02	  0.045050103	-2.469100E+01
127	  0.045250501	-4.959000E+00	  0.045250501	-6.637000E+00	  0.045250501	1.729510E+02	  0.045250501	-3.317700E+01
128	  0.045450903	-4.996000E+00	  0.045450903	-8.486000E+00	  0.045450903	1.677920E+02	  0.045450903	-4.075900E+01
129	  0.045651305	-5.039000E+00	  0.045651305	-1.033300E+01	  0.045651305	1.619830E+02	  0.045651305	-4.737400E+01
130	  0.045851704	-5.076000E+00	  0.045851704	-1.214600E+01	  0.045851704	1.560640E+02	  0.045851704	-5.311500E+01
131	  0.046052102	-5.111000E+00	  0.046052102	-1.397200E+01	  0.046052102	1.499040E+02	  0.046052102	-5.808900E+01
132	  0.046252504	-5.146000E+00	  0.046252504	-1.575300E+01	  0.046252504	1.438020E+02	  0.046252504	-6.219500E+01
133	  0.046452906	-5.179000E+00	  0.046452906	-1.756600E+01	  0.046452906	1.375990E+02	  0.046452906	-6.568500E+01
134	  0.046653304	-5.211000E+00	  0.046653304	-1.936700E+01	  0.046653304	1.315120E+02	  0.046653304	-6.850300E+01
135	  0.046853706	-5.245000E+00	  0.046853706	-2.117600E+01	  0.046853706	1.255060E+02	  0.046853706	-7.070300E+01
136	  0.047054108	-5.276000E+00	  0.047054108	-2.299800E+01	  0.047054108	1.196590E+02	  0.047054108	-7.242900E+01
137	  0.047254506	-5.306000E+00	  0.047254506	-2.480800E+01	  0.047254506	1.140580E+02	  0.047254506	-7.365900E+01
138	  0.047454908	-5.337000E+00	  0.047454908	-2.662400E+01	  0.047454908	1.086760E+02	  0.047454908	-7.448000E+01
139	  0.047655310	-5.370000E+00	  0.047655310	-2.838600E+01	  0.047655310	1.036730E+02	  0.047655310	-7.484900E+01
140	  0.047855709	-5.402000E+00	  0.047855709	-3.014500E+01	  0.047855709	9.893700E+01	  0.047855709	-7.495300E+01
141	  0.048056111	-5.433000E+00	  0.048056111	-3.189100E+01	  0.048056111	9.447800E+01	  0.048056111	-7.482100E+01
142	  0.048256513	-5.467000E+00	  0.048256513	-3.364900E+01	  0.048256513	9.023100E+01	  0.048256513	-7.442000E+01
143	  0.048456915	-5.497000E+00	  0.048456915	-3.539200E+01	  0.048456915	8.625700E+01	  0.048456915	-7.389700E+01
144	  0.048657313	-5.525000E+00	  0.048657313	-3.715400E+01	  0.048657313	8.246600E+01	  0.048657313	-7.325300E+01
145	  0.048857715	-5.552000E+00	  0.048857715	-3.889500E+01	  0.048857715	7.893200E+01	  0.048857715	-7.249400E+01
146	  0.049058117	-5.578000E+00	  0.049058117	-4.065500E+01	  0.049058117	7.556500E+01	  0.049058117	-7.162300E+01
147	  0.049258515	-5.602000E+00	  0.049258515	-4.237700E+01	  0.049258515	7.245500E+01	  0.049258515	-7.071300E+01
148	  0.049458917	-5.627000E+00	  0.049458917	-4.410700E+01	  0.049458917	6.951500E+01	  0.049458917	-6.970100E+01
149	  0.049659319	-5.650000E+00	  0.049659319	-4.579900E+01	  0.049659319	6.680000E+01	  0.049659319	-6.867200E+01
150	  0.049859721	-5.678000E+00	  0.049859721	-4.750100E+01	  0.049859721	6.424300E+01	  0.049859721	-6.753200E+01
151	  0.050060119	-5.697000E+00	  0.050060119	-4.919900E+01	  0.050060119	6.180400E+01	  0.050060119	-6.646100E+01
152	  0.050260521	-5.714000E+00	  0.050260521	-5.088800E+01	  0.050260521	5.951200E+01	  0.050260521	-6.536300E+01
153	  0.050460923	-5.736000E+00	  0.050460923	-5.257700E+01	  0.050460923	5.736100E+01	  0.050460923	-6.421000E+01
154	  0.050661322	-5.750000E+00	  0.050661322	-5.425100E+01	  0.050661322	5.532100E+01	  0.050661322	-6.310400E+01
155	  0.050861724	-5.762000E+00	  0.050861724	-5.591200E+01	  0.050861724	5.339900E+01	  0.050861724	-6.200400E+01
156	  0.051062126	-5.781000E+00	  0.051062126	-5.755100E+01	  0.051062126	5.162800E+01	  0.051062126	-6.086100E+01
157	  0.051262524	-5.797000E+00	  0.051262524	-5.916700E+01	  0.051262524	4.996500E+01	  0.051262524	-5.974600E+01
158	  0.051462926	-5.813000E+00	  0.051462926	-6.076900E+01	  0.051462926	4.840300E+01	  0.051462926	-5.863700E+01
159	  0.051663328	-5.825000E+00	  0.051663328	-6.239400E+01	  0.051663328	4.688300E+01	  0.051663328	-5.753800E+01
160	  0.051863730	-5.836000E+00	  0.051863730	-6.395800E+01	  0.051863730	4.549500E+01	  0.051863730	-5.647900E+01
161	  0.052064128	-5.846000E+00	  0.052064128	-6.554200E+01	  0.052064128	4.414800E+01	  0.052064128	-5.542300E+01
162	  0.052264530	-5.856000E+00	  0.052264530	-6.710300E+01	  0.052264530	4.289000E+01	  0.052264530	-5.437900E+01
163	  0.052464932	-5.865000E+00	  0.052464932	-6.862200E+01	  0.052464932	4.171800E+01	  0.052464932	-5.337400E+01
164	  0.052665330	-5.878000E+00	  0.052665330	-7.016600E+01	  0.052665330	4.059900E+01	  0.052665330	-5.234000E+01
165	  0.052865732	-5.889000E+00	  0.052865732	-7.166700E+01	  0.052865732	3.955400E+01	  0.052865732	-5.135000E+01
166	  0.053066134	-5.899000E+00	  0.053066134	-7.317100E+01	  0.053066134	3.855300E+01	  0.053066134	-5.036900E+01
167	  0.053266536	-5.914000E+00	  0.053266536	-7.462600E+01	  0.053266536	3.765000E+01	  0.053266536	-4.940400E+01
168	  0.053466935	-5.926000E+00	  0.053466935	-7.612300E+01	  0.053466935	3.674800E+01	  0.053466935	-4.843700E+01
169	  0.053667337	-5.937000E+00	  0.053667337	-7.761700E+01	  0.053667337	3.588300E+01	  0.053667337	-4.748500E+01
170	  0.053867739	-5.950000E+00	  0.053867739	-7.904200E+01	  0.053867739	3.510500E+01	  0.053867739	-4.657600E+01
171	  0.054068137	-5.958000E+00	  0.054068137	-8.053700E+01	  0.054068137	3.430000E+01	  0.054068137	-4.565400E+01
172	  0.054268539	-5.973000E+00	  0.054268539	-8.196900E+01	  0.054268539	3.359300E+01	  0.054268539	-4.475200E+01
173	  0.054468941	-5.985000E+00	  0.054468941	-8.340700E+01	  0.054468941	3.289700E+01	  0.054468941	-4.387200E+01
174	  0.054669335	-6.001000E+00	  0.054669335	-8.485300E+01	  0.054669335	3.224500E+01	  0.054669335	-4.298100E+01
175	  0.054869737	-6.015000E+00	  0.054869737	-8.629600E+01	  0.054869737	3.161400E+01	  0.054869737	-4.210700E+01
176	  0.055070139	-6.030000E+00	  0.055070139	-8.772200E+01	  0.055070139	3.102200E+01	  0.055070139	-4.125100E+01
177	  0.055270538	-6.039000E+00	  0.055270538	-8.915600E+01	  0.055270538	3.042700E+01	  0.055270538	-4.041800E+01
178	  0.055470940	-6.050000E+00	  0.055470940	-9.058900E+01	  0.055470940	2.986400E+01	  0.055470940	-3.958900E+01
179	  0.055671342	-6.060000E+00	  0.055671342	-9.200000E+01	  0.055671342	2.932800E+01	  0.055671342	-3.878600E+01
180	  0.055871744	-6.068000E+00	  0.055871744	-9.342700E+01	  0.055871744	2.880400E+01	  0.055871744	-3.798400E+01
181	  0.056072142	-6.080000E+00	  0.056072142	-9.487000E+01	  0.056072142	2.830600E+01	  0.056072142	-3.717400E+01
182	  0.056272544	-6.085000E+00	  0.056272544	-9.627800E+01	  0.056272544	2.781600E+01	  0.056272544	-3.640900E+01
183	  0.056472946	-6.094000E+00	  0.056472946	-9.768900E+01	  0.056472946	2.735600E+01	  0.056472946	-3.564200E+01
184	  0.056673344	-6.101000E+00	  0.056673344	-9.907800E+01	  0.056673344	2.691600E+01	  0.056673344	-3.489700E+01
185	  0.056873746	-6.107000E+00	  0.056873746	-1.004650E+02	  0.056873746	2.649000E+01	  0.056873746	-3.416400E+01
186	  0.057074148	-6.112000E+00	  0.057074148	-1.018560E+02	  0.057074148	2.607600E+01	  0.057074148	-3.343600E+01
187	  0.057274550	-6.112000E+00	  0.057274550	-1.032280E+02	  0.057274550	2.566900E+01	  0.057274550	-3.273500E+01
188	  0.057474948	-6.113000E+00	  0.057474948	-1.046060E+02	  0.057474948	2.527400E+01	  0.057474948	-3.203600E+01
189	  0.057675350	-6.118000E+00	  0.057675350	-1.059570E+02	  0.057675350	2.491300E+01	  0.057675350	-3.135000E+01
190	  0.057875752	-6.119000E+00	  0.057875752	-1.073020E+02	  0.057875752	2.456000E+01	  0.057875752	-3.067800E+01
191	  0.058076151	-6.120000E+00	  0.058076151	-1.086370E+02	  0.058076151	2.421700E+01	  0.058076151	-3.001800E+01
192	  0.058276553	-6.121000E+00	  0.058276553	-1.099420E+02	  0.058276553	2.389400E+01	  0.058276553	-2.937800E+01
193	  0.058476955	-6.119000E+00	  0.058476955	-1.112480E+02	  0.058476955	2.357400E+01	  0.058476955	-2.874700E+01
194	  0.058677353	-6.118000E+00	  0.058677353	-1.125350E+02	  0.058677353	2.327100E+01	  0.058677353	-2.812900E+01
195	  0.058877755	-6.117000E+00	  0.058877755	-1.138160E+02	  0.058877755	2.298100E+01	  0.058877755	-2.751800E+01
196	  0.059078157	-6.114000E+00	  0.059078157	-1.150720E+02	  0.059078157	2.269900E+01	  0.059078157	-2.692500E+01
197	  0.059278559	-6.113000E+00	  0.059278559	-1.163270E+02	  0.059278559	2.243100E+01	  0.059278559	-2.633600E+01
198	  0.059478957	-6.113000E+00	  0.059478957	-1.175600E+02	  0.059478957	2.218300E+01	  0.059478957	-2.575800E+01
199	  0.059679359	-6.115000E+00	  0.059679359	-1.188040E+02	  0.059679359	2.194400E+01	  0.059679359	-2.517900E+01
200	  0.059879761	-6.114000E+00	  0.059879761	-1.200000E+02	  0.059879761	2.171200E+01	  0.059879761	-2.462800E+01
201	  0.060080159	-6.115000E+00	  0.060080159	-1.211930E+02	  0.060080159	2.149900E+01	  0.060080159	-2.407900E+01
202	  0.060280561	-6.117000E+00	  0.060280561	-1.223920E+02	  0.060280561	2.129000E+01	  0.060280561	-2.353200E+01
203	  0.060480963	-6.121000E+00	  0.060480963	-1.235830E+02	  0.060480963	2.109800E+01	  0.060480963	-2.298800E+01
204	  0.060681365	-6.122000E+00	  0.060681365	-1.247600E+02	  0.060681365	2.090300E+01	  0.060681365	-2.245800E+01
205	  0.060881764	-6.123000E+00	  0.060881764	-1.259480E+02	  0.060881764	2.071600E+01	  0.060881764	-2.192600E+01
206	  0.061082166	-6.127000E+00	  0.061082166	-1.271630E+02	  0.061082166	2.053900E+01	  0.061082166	-2.138300E+01
207	  0.061282568	-6.131000E+00	  0.061282568	-1.283300E+02	  0.061282568	2.037500E+01	  0.061282568	-2.086300E+01
208	  0.061482966	-6.131000E+00	  0.061482966	-1.294980E+02	  0.061482966	2.020200E+01	  0.061482966	-2.035200E+01
209	  0.061683368	-6.140000E+00	  0.061683368	-1.306860E+02	  0.061683368	2.006100E+01	  0.061683368	-1.982500E+01
210	  0.061883770	-6.139000E+00	  0.061883770	-1.318670E+02	  0.061883770	1.989900E+01	  0.061883770	-1.931400E+01
211	  0.062084168	-6.144000E+00	  0.062084168	-1.330190E+02	  0.062084168	1.976100E+01	  0.062084168	-1.881300E+01
212	  0.062284570	-6.146000E+00	  0.062284570	-1.342180E+02	  0.062284570	1.961400E+01	  0.062284570	-1.829700E+01
213	  0.062484972	-6.140000E+00	  0.062484972	-1.353360E+02	  0.062484972	1.945800E+01	  0.062484972	-1.782500E+01
214	  0.062685370	-6.147000E+00	  0.062685370	-1.365480E+02	  0.062685370	1.933300E+01	  0.062685370	-1.730500E+01
215	  0.062885776	-6.141000E+00	  0.062885776	-1.377340E+02	  0.062885776	1.918000E+01	  0.062885776	-1.680900E+01
216	  0.063086174	-6.140000E+00	  0.063086174	-1.388730E+02	  0.063086174	1.905100E+01	  0.063086174	-1.633100E+01
217	  0.063286573	-6.141000E+00	  0.063286573	-1.400720E+02	  0.063286573	1.892600E+01	  0.063286573	-1.582800E+01
218	  0.063486971	-6.142000E+00	  0.063486971	-1.412290E+02	  0.063486971	1.881100E+01	  0.063486971	-1.534500E+01
219	  0.063687377	-6.134000E+00	  0.063687377	-1.423490E+02	  0.063687377	1.867800E+01	  0.063687377	-1.488600E+01
220	  0.063887775	-6.131000E+00	  0.063887775	-1.435140E+02	  0.063887775	1.855900E+01	  0.063887775	-1.440600E+01
221	  0.064088173	-6.128000E+00	  0.064088173	-1.446680E+02	  0.064088173	1.844400E+01	  0.064088173	-1.393300E+01
222	  0.064288579	-6.123000E+00	  0.064288579	-1.457940E+02	  0.064288579	1.833300E+01	  0.064288579	-1.347400E+01
223	  0.064488977	-6.120000E+00	  0.064488977	-1.469200E+02	  0.064488977	1.822900E+01	  0.064488977	-1.301600E+01
224	  0.064689375	-6.119000E+00	  0.064689375	-1.480550E+02	  0.064689375	1.813400E+01	  0.064689375	-1.255400E+01
225	  0.064889781	-6.114000E+00	  0.064889781	-1.491880E+02	  0.064889781	1.803400E+01	  0.064889781	-1.209700E+01
226	  0.065090179	-6.109000E+00	  0.065090179	-1.502710E+02	  0.065090179	1.793800E+01	  0.065090179	-1.166100E+01
227	  0.065290578	-6.105000E+00	  0.065290578	-1.513340E+02	  0.065290578	1.785100E+01	  0.065290578	-1.123500E+01
228	  0.065490983	-6.098000E+00	  0.065490983	-1.523970E+02	  0.065490983	1.776100E+01	  0.065490983	-1.081000E+01
229	  0.065691382	-6.094000E+00	  0.065691382	-1.534850E+02	  0.065691382	1.767900E+01	  0.065691382	-1.037500E+01
230	  0.065891780	-6.090000E+00	  0.065891780	-1.545680E+02	  0.065891780	1.760100E+01	  0.065891780	-9.944000E+00
231	  0.066092186	-6.088000E+00	  0.066092186	-1.555900E+02	  0.066092186	1.753300E+01	  0.066092186	-9.537000E+00
232	  0.066292584	-6.085000E+00	  0.066292584	-1.566420E+02	  0.066292584	1.746700E+01	  0.066292584	-9.119000E+00
233	  0.066492982	-6.083000E+00	  0.066492982	-1.576720E+02	  0.066492982	1.740600E+01	  0.066492982	-8.711000E+00
234	  0.066693388	-6.080000E+00	  0.066693388	-1.587340E+02	  0.066693388	1.734300E+01	  0.066693388	-8.291000E+00
235	  0.066893786	-6.083000E+00	  0.066893786	-1.597210E+02	  0.066893786	1.730300E+01	  0.066893786	-7.900000E+00
236	  0.067094192	-6.082000E+00	  0.067094192	-1.607720E+02	  0.067094192	1.725100E+01	  0.067094192	-7.485000E+00
237	  0.067294590	-6.084000E+00	  0.067294590	-1.618010E+02	  0.067294590	1.721200E+01	  0.067294590	-7.080000E+00
238	  0.067494988	-6.088000E+00	  0.067494988	-1.628150E+02	  0.067494988	1.717900E+01	  0.067494988	-6.680000E+00
239	  0.067695394	-6.088000E+00	  0.067695394	-1.638640E+02	  0.067695394	1.713800E+01	  0.067695394	-6.269000E+00
240	  0.067895792	-6.090000E+00	  0.067895792	-1.648950E+02	  0.067895792	1.710800E+01	  0.067895792	-5.864000E+00
241	  0.068096191	-6.102000E+00	  0.068096191	-1.659490E+02	  0.068096191	1.710300E+01	  0.068096191	-5.450000E+00
242	  0.068296596	-6.104000E+00	  0.068296596	-1.669740E+02	  0.068296596	1.707400E+01	  0.068296596	-5.049000E+00
243	  0.068496995	-6.107000E+00	  0.068496995	-1.680110E+02	  0.068496995	1.705300E+01	  0.068496995	-4.645000E+00
244	  0.068697393	-6.113000E+00	  0.068697393	-1.690790E+02	  0.068697393	1.704000E+01	  0.068697393	-4.228000E+00
245	  0.068897791	-6.115000E+00	  0.068897791	-1.700950E+02	  0.068897791	1.702000E+01	  0.068897791	-3.833000E+00
246	  0.069098189	-6.116000E+00	  0.069098189	-1.711660E+02	  0.069098189	1.700100E+01	  0.069098189	-3.417000E+00
247	  0.069298595	-6.119000E+00	  0.069298595	-1.721980E+02	  0.069298595	1.698900E+01	  0.069298595	-3.017000E+00
248	  0.069498993	-6.122000E+00	  0.069498993	-1.732660E+02	  0.069498993	1.697700E+01	  0.069498993	-2.603000E+00
249	  0.069699399	-6.126000E+00	  0.069699399	-1.743450E+02	  0.069699399	1.697400E+01	  0.069699399	-2.185000E+00
250	  0.069899797	-6.130000E+00	  0.069899797	-1.753530E+02	  0.069899797	1.697200E+01	  0.069899797	-1.795000E+00
251	  0.070100196	-6.132000E+00	  0.070100196	-1.764240E+02	  0.070100196	1.696700E+01	  0.070100196	-1.381000E+00
252	  0.070300601	-6.131000E+00	  0.070300601	-1.774720E+02	  0.070300601	1.695800E+01	  0.070300601	-9.760000E-01
253	  0.070501000	-6.132000E+00	  0.070501000	-1.785070E+02	  0.070501000	1.695500E+01	  0.070501000	-5.760000E-01
254	  0.070701398	-6.130000E+00	  0.070701398	-1.795700E+02	  0.070701398	1.694800E+01	  0.070701398	-1.650000E-01
255	  0.070901804	-6.126000E+00	  0.070901804	1.793940E+02	  0.070901804	1.693600E+01	  0.070901804	2.340000E-01
256	  0.071102202	-6.129000E+00	  0.071102202	1.783570E+02	  0.071102202	1.694700E+01	  0.071102202	6.340000E-01
257	  0.071302600	-6.127000E+00	  0.071302600	1.773310E+02	  0.071302600	1.694700E+01	  0.071302600	1.030000E+00
258	  0.071503006	-6.126000E+00	  0.071503006	1.763330E+02	  0.071503006	1.695200E+01	  0.071503006	1.416000E+00
259	  0.071703404	-6.127000E+00	  0.071703404	1.753190E+02	  0.071703404	1.696400E+01	  0.071703404	1.808000E+00
260	  0.071903802	-6.123000E+00	  0.071903802	1.742960E+02	  0.071903802	1.696600E+01	  0.071903802	2.204000E+00
261	  0.072104208	-6.125000E+00	  0.072104208	1.732980E+02	  0.072104208	1.698600E+01	  0.072104208	2.590000E+00
262	  0.072304606	-6.119000E+00	  0.072304606	1.723290E+02	  0.072304606	1.698700E+01	  0.072304606	2.966000E+00
263	  0.072505005	-6.121000E+00	  0.072505005	1.713740E+02	  0.072505005	1.700800E+01	  0.072505005	3.336000E+00
264	  0.072705410	-6.121000E+00	  0.072705410	1.703920E+02	  0.072705410	1.702900E+01	  0.072705410	3.717000E+00
265	  0.072905809	-6.122000E+00	  0.072905809	1.694180E+02	  0.072905809	1.705500E+01	  0.072905809	4.095000E+00
266	  0.073106214	-6.124000E+00	  0.073106214	1.684600E+02	  0.073106214	1.708500E+01	  0.073106214	4.467000E+00
267	  0.073306613	-6.127000E+00	  0.073306613	1.675130E+02	  0.073306613	1.711800E+01	  0.073306613	4.835000E+00
268	  0.073507011	-6.134000E+00	  0.073507011	1.665470E+02	  0.073507011	1.716500E+01	  0.073507011	5.210000E+00
269	  0.073707417	-6.133000E+00	  0.073707417	1.656130E+02	  0.073707417	1.719300E+01	  0.073707417	5.574000E+00
270	  0.073907815	-6.141000E+00	  0.073907815	1.646750E+02	  0.073907815	1.724600E+01	  0.073907815	5.939000E+00
271	  0.074108213	-6.145000E+00	  0.074108213	1.637540E+02	  0.074108213	1.729000E+01	  0.074108213	6.298000E+00
272	  0.074308619	-6.150000E+00	  0.074308619	1.628260E+02	  0.074308619	1.734000E+01	  0.074308619	6.659000E+00
273	  0.074509017	-6.157000E+00	  0.074509017	1.618420E+02	  0.074509017	1.739900E+01	  0.074509017	7.043000E+00
274	  0.074709415	-6.165000E+00	  0.074709415	1.609140E+02	  0.074709415	1.745900E+01	  0.074709415	7.405000E+00
275	  0.074909821	-6.176000E+00	  0.074909821	1.599760E+02	  0.074909821	1.753300E+01	  0.074909821	7.770000E+00
276	  0.075110219	-6.186000E+00	  0.075110219	1.590450E+02	  0.075110219	1.760400E+01	  0.075110219	8.133000E+00
277	  0.075310618	-6.195000E+00	  0.075310618	1.580950E+02	  0.075310618	1.767600E+01	  0.075310618	8.505000E+00
278	  0.075511023	-6.199000E+00	  0.075511023	1.571740E+02	  0.075511023	1.773600E+01	  0.075511023	8.867000E+00
279	  0.075711422	-6.213000E+00	  0.075711422	1.562480E+02	  0.075711422	1.782200E+01	  0.075711422	9.228000E+00
280	  0.075911827	-6.220000E+00	  0.075911827	1.553060E+02	  0.075911827	1.789800E+01	  0.075911827	9.598000E+00
281	  0.076112226	-6.230000E+00	  0.076112226	1.543670E+02	  0.076112226	1.798000E+01	  0.076112226	9.967000E+00
282	  0.076312624	-6.237000E+00	  0.076312624	1.534210E+02	  0.076312624	1.805900E+01	  0.076312624	1.034000E+01
283	  0.076513030	-6.247000E+00	  0.076513030	1.525010E+02	  0.076513030	1.814800E+01	  0.076513030	1.070200E+01
284	  0.076713428	-6.261000E+00	  0.076713428	1.515470E+02	  0.076713428	1.824900E+01	  0.076713428	1.107700E+01
285	  0.076913826	-6.267000E+00	  0.076913826	1.506220E+02	  0.076913826	1.833400E+01	  0.076913826	1.144400E+01
286	  0.077114232	-6.278000E+00	  0.077114232	1.497080E+02	  0.077114232	1.842900E+01	  0.077114232	1.180500E+01
287	  0.077314630	-6.287000E+00	  0.077314630	1.488330E+02	  0.077314630	1.852200E+01	  0.077314630	1.215200E+01
288	  0.077515028	-6.296000E+00	  0.077515028	1.479000E+02	  0.077515028	1.862100E+01	  0.077515028	1.252300E+01
289	  0.077715434	-6.308000E+00	  0.077715434	1.470120E+02	  0.077715434	1.872600E+01	  0.077715434	1.287500E+01
290	  0.077915832	-6.319000E+00	  0.077915832	1.461330E+02	  0.077915832	1.883000E+01	  0.077915832	1.322400E+01
291	  0.078116231	-6.326000E+00	  0.078116231	1.452120E+02	  0.078116231	1.893100E+01	  0.078116231	1.359300E+01
292	  0.078316636	-6.339000E+00	  0.078316636	1.443530E+02	  0.078316636	1.904400E+01	  0.078316636	1.393500E+01
293	  0.078517035	-6.350000E+00	  0.078517035	1.434460E+02	  0.078517035	1.915700E+01	  0.078517035	1.429800E+01
294	  0.078717433	-6.361000E+00	  0.078717433	1.425960E+02	  0.078717433	1.927100E+01	  0.078717433	1.463800E+01
295	  0.078917839	-6.375000E+00	  0.078917839	1.417490E+02	  0.078917839	1.939200E+01	  0.078917839	1.497500E+01
296	  0.079118237	-6.387000E+00	  0.079118237	1.408970E+02	  0.079118237	1.951200E+01	  0.079118237	1.531700E+01
297	  0.079318643	-6.401000E+00	  0.079318643	1.400820E+02	  0.079318643	1.963700E+01	  0.079318643	1.564200E+01
298	  0.079519041	-6.415000E+00	  0.079519041	1.392240E+02	  0.079519041	1.976800E+01	  0.079519041	1.598600E+01
299	  0.079719439	-6.433000E+00	  0.079719439	1.384100E+02	  0.079719439	1.990800E+01	  0.079719439	1.630900E+01
300	  0.079919845	-6.450000E+00	  0.079919845	1.375760E+02	  0.079919845	2.005000E+01	  0.079919845	1.664200E+01
301	  0.080120243	-6.464000E+00	  0.080120243	1.367400E+02	  0.080120243	2.018700E+01	  0.080120243	1.697700E+01
302	  0.080320641	-6.481000E+00	  0.080320641	1.359230E+02	  0.080320641	2.033400E+01	  0.080320641	1.730300E+01
303	  0.080521047	-6.500000E+00	  0.080521047	1.351230E+02	  0.080521047	2.048600E+01	  0.080521047	1.762100E+01
304	  0.080721445	-6.521000E+00	  0.080721445	1.342940E+02	  0.080721445	2.064900E+01	  0.080721445	1.795000E+01
305	  0.080921844	-6.544000E+00	  0.080921844	1.335080E+02	  0.080921844	2.081600E+01	  0.080921844	1.825900E+01
306	  0.081122249	-6.565000E+00	  0.081122249	1.326900E+02	  0.081122249	2.098300E+01	  0.081122249	1.858400E+01
307	  0.081322648	-6.584000E+00	  0.081322648	1.318780E+02	  0.081322648	2.114800E+01	  0.081322648	1.890700E+01
308	  0.081523046	-6.607000E+00	  0.081523046	1.310430E+02	  0.081523046	2.133100E+01	  0.081523046	1.923700E+01
309	  0.081723452	-6.628000E+00	  0.081723452	1.302390E+02	  0.081723452	2.150500E+01	  0.081723452	1.955700E+01
310	  0.081923850	-6.645000E+00	  0.081923850	1.294090E+02	  0.081923850	2.167600E+01	  0.081923850	1.989100E+01
311	  0.082124248	-6.668000E+00	  0.082124248	1.286070E+02	  0.082124248	2.186200E+01	  0.082124248	2.020800E+01
312	  0.082324654	-6.691000E+00	  0.082324654	1.277890E+02	  0.082324654	2.205500E+01	  0.082324654	2.053200E+01
313	  0.082525052	-6.717000E+00	  0.082525052	1.269760E+02	  0.082525052	2.225600E+01	  0.082525052	2.085000E+01
314	  0.082725458	-6.738000E+00	  0.082725458	1.261840E+02	  0.082725458	2.244600E+01	  0.082725458	2.116500E+01
315	  0.082925856	-6.761000E+00	  0.082925856	1.253620E+02	  0.082925856	2.264800E+01	  0.082925856	2.149100E+01
316	  0.083126254	-6.781000E+00	  0.083126254	1.245410E+02	  0.083126254	2.284800E+01	  0.083126254	2.181800E+01
317	  0.083326660	-6.806000E+00	  0.083326660	1.237270E+02	  0.083326660	2.306000E+01	  0.083326660	2.213900E+01
318	  0.083527058	-6.826000E+00	  0.083527058	1.229000E+02	  0.083527058	2.326700E+01	  0.083527058	2.247000E+01
319	  0.083727457	-6.847000E+00	  0.083727457	1.221070E+02	  0.083727457	2.347200E+01	  0.083727457	2.278600E+01
320	  0.083927862	-6.871000E+00	  0.083927862	1.212770E+02	  0.083927862	2.369800E+01	  0.083927862	2.311300E+01
321	  0.084128261	-6.891000E+00	  0.084128261	1.204850E+02	  0.084128261	2.390900E+01	  0.084128261	2.343000E+01
322	  0.084328659	-6.912000E+00	  0.084328659	1.196920E+02	  0.084328659	2.412400E+01	  0.084328659	2.374700E+01
323	  0.084529065	-6.936000E+00	  0.084529065	1.189130E+02	  0.084529065	2.435000E+01	  0.084529065	2.405300E+01
324	  0.084729463	-6.956000E+00	  0.084729463	1.181370E+02	  0.084729463	2.456900E+01	  0.084729463	2.436200E+01
325	  0.084929854	-6.976000E+00	  0.084929854	1.173090E+02	  0.084929854	2.480200E+01	  0.084929854	2.469300E+01
326	  0.085130259	-6.991000E+00	  0.085130259	1.165460E+02	  0.085130259	2.500700E+01	  0.085130259	2.500600E+01
327	  0.085330658	-7.016000E+00	  0.085330658	1.157590E+02	  0.085330658	2.525300E+01	  0.085330658	2.531300E+01
328	  0.085531056	-7.038000E+00	  0.085531056	1.149820E+02	  0.085531056	2.549400E+01	  0.085531056	2.561900E+01
329	  0.085731462	-7.059000E+00	  0.085731462	1.142130E+02	  0.085731462	2.573100E+01	  0.085731462	2.592400E+01
330	  0.085931860	-7.078000E+00	  0.085931860	1.134890E+02	  0.085931860	2.595700E+01	  0.085931860	2.621100E+01
331	  0.086132258	-7.099000E+00	  0.086132258	1.127430E+02	  0.086132258	2.619600E+01	  0.086132258	2.650600E+01
332	  0.086332664	-7.123000E+00	  0.086332664	1.120150E+02	  0.086332664	2.644400E+01	  0.086332664	2.678700E+01
333	  0.086533062	-7.145000E+00	  0.086533062	1.112790E+02	  0.086533062	2.669100E+01	  0.086533062	2.707500E+01
334	  0.086733460	-7.169000E+00	  0.086733460	1.105470E+02	  0.086733460	2.694600E+01	  0.086733460	2.735700E+01
335	  0.086933866	-7.192000E+00	  0.086933866	1.098390E+02	  0.086933866	2.719700E+01	  0.086933866	2.762900E+01
336	  0.087134264	-7.216000E+00	  0.087134264	1.091040E+02	  0.087134264	2.746400E+01	  0.087134264	2.791000E+01
337	  0.087334670	-7.242000E+00	  0.087334670	1.083710E+02	  0.087334670	2.773800E+01	  0.087334670	2.818700E+01
338	  0.087535068	-7.269000E+00	  0.087535068	1.076840E+02	  0.087535068	2.800500E+01	  0.087535068	2.844000E+01
339	  0.087735467	-7.302000E+00	  0.087735467	1.069630E+02	  0.087735467	2.830300E+01	  0.087735467	2.869700E+01
340	  0.087935872	-7.328000E+00	  0.087935872	1.062800E+02	  0.087935872	2.857300E+01	  0.087935872	2.894900E+01
341	  0.088136271	-7.360000E+00	  0.088136271	1.055530E+02	  0.088136271	2.888000E+01	  0.088136271	2.920600E+01
342	  0.088336669	-7.389000E+00	  0.088336669	1.048560E+02	  0.088336669	2.916800E+01	  0.088336669	2.945700E+01
343	  0.088537075	-7.412000E+00	  0.088537075	1.041460E+02	  0.088537075	2.945100E+01	  0.088537075	2.972300E+01
344	  0.088737473	-7.444000E+00	  0.088737473	1.034760E+02	  0.088737473	2.975100E+01	  0.088737473	2.995100E+01
345	  0.088937871	-7.473000E+00	  0.088937871	1.027750E+02	  0.088937871	3.005300E+01	  0.088937871	3.020000E+01
346	  0.089138277	-7.504000E+00	  0.089138277	1.020660E+02	  0.089138277	3.036900E+01	  0.089138277	3.044400E+01
347	  0.089338675	-7.533000E+00	  0.089338675	1.014230E+02	  0.089338675	3.066400E+01	  0.089338675	3.066100E+01
348	  0.089539073	-7.567000E+00	  0.089539073	1.007770E+02	  0.089539073	3.097300E+01	  0.089539073	3.087000E+01
349	  0.089739479	-7.600000E+00	  0.089739479	1.001120E+02	  0.089739479	3.129300E+01	  0.089739479	3.108500E+01
350	  0.089939877	-7.628000E+00	  0.089939877	9.945400E+01	  0.089939877	3.159900E+01	  0.089939877	3.130700E+01
351	  0.090140276	-7.661000E+00	  0.090140276	9.880900E+01	  0.090140276	3.191600E+01	  0.090140276	3.151100E+01
352	  0.090340681	-7.689000E+00	  0.090340681	9.816700E+01	  0.090340681	3.222400E+01	  0.090340681	3.172200E+01
353	  0.090541080	-7.723000E+00	  0.090541080	9.754000E+01	  0.090541080	3.254600E+01	  0.090541080	3.191000E+01
354	  0.090741485	-7.751000E+00	  0.090741485	9.689500E+01	  0.090741485	3.286100E+01	  0.090741485	3.211900E+01
355	  0.090941884	-7.788000E+00	  0.090941884	9.629300E+01	  0.090941884	3.318700E+01	  0.090941884	3.228700E+01
356	  0.091142282	-7.816000E+00	  0.091142282	9.570200E+01	  0.091142282	3.349100E+01	  0.091142282	3.246700E+01
357	  0.091342688	-7.850000E+00	  0.091342688	9.507200E+01	  0.091342688	3.382600E+01	  0.091342688	3.264800E+01
358	  0.091543086	-7.886000E+00	  0.091543086	9.443900E+01	  0.091543086	3.417200E+01	  0.091543086	3.282300E+01
359	  0.091743484	-7.915000E+00	  0.091743484	9.386100E+01	  0.091743484	3.448000E+01	  0.091743484	3.299000E+01
360	  0.091943890	-7.952000E+00	  0.091943890	9.327600E+01	  0.091943890	3.481700E+01	  0.091943890	3.313600E+01
361	  0.092144288	-7.978000E+00	  0.092144288	9.266600E+01	  0.092144288	3.513500E+01	  0.092144288	3.332000E+01
362	  0.092344686	-8.012000E+00	  0.092344686	9.212200E+01	  0.092344686	3.545000E+01	  0.092344686	3.345400E+01
363	  0.092545092	-8.041000E+00	  0.092545092	9.151200E+01	  0.092545092	3.578400E+01	  0.092545092	3.362500E+01
364	  0.092745490	-8.081000E+00	  0.092745490	9.098200E+01	  0.092745490	3.611700E+01	  0.092745490	3.373000E+01
365	  0.092945889	-8.114000E+00	  0.092945889	9.043900E+01	  0.092945889	3.643700E+01	  0.092945889	3.385700E+01
366	  0.093146294	-8.148000E+00	  0.093146294	8.989700E+01	  0.093146294	3.676200E+01	  0.093146294	3.397900E+01
367	  0.093346693	-8.183000E+00	  0.093346693	8.933200E+01	  0.093346693	3.710400E+01	  0.093346693	3.410200E+01
368	  0.093547091	-8.219000E+00	  0.093547091	8.880500E+01	  0.093547091	3.743100E+01	  0.093547091	3.420800E+01
369	  0.093747497	-8.252000E+00	  0.093747497	8.823200E+01	  0.093747497	3.777500E+01	  0.093747497	3.433500E+01
370	  0.093947895	-8.290000E+00	  0.093947895	8.771200E+01	  0.093947895	3.810900E+01	  0.093947895	3.442600E+01
371	  0.094148301	-8.326000E+00	  0.094148301	8.718500E+01	  0.094148301	3.844500E+01	  0.094148301	3.452000E+01
372	  0.094348699	-8.364000E+00	  0.094348699	8.665900E+01	  0.094348699	3.878700E+01	  0.094348699	3.460500E+01
373	  0.094549097	-8.398000E+00	  0.094549097	8.614800E+01	  0.094549097	3.911200E+01	  0.094549097	3.469500E+01
374	  0.094749503	-8.440000E+00	  0.094749503	8.564100E+01	  0.094749503	3.945900E+01	  0.094749503	3.475400E+01
375	  0.094949901	-8.472000E+00	  0.094949901	8.512700E+01	  0.094949901	3.978600E+01	  0.094949901	3.484300E+01
376	  0.095150299	-8.502000E+00	  0.095150299	8.459200E+01	  0.095150299	4.011900E+01	  0.095150299	3.494600E+01
377	  0.095350705	-8.541000E+00	  0.095350705	8.409800E+01	  0.095350705	4.045600E+01	  0.095350705	3.500000E+01
378	  0.095551103	-8.570000E+00	  0.095551103	8.353600E+01	  0.095551103	4.080600E+01	  0.095551103	3.510800E+01
379	  0.095751502	-8.606000E+00	  0.095751502	8.303200E+01	  0.095751502	4.114400E+01	  0.095751502	3.517000E+01
380	  0.095951907	-8.638000E+00	  0.095951907	8.252600E+01	  0.095951907	4.147600E+01	  0.095951907	3.524300E+01
381	  0.096152306	-8.673000E+00	  0.096152306	8.203700E+01	  0.096152306	4.180600E+01	  0.096152306	3.529800E+01
382	  0.096352704	-8.701000E+00	  0.096352704	8.150800E+01	  0.096352704	4.214400E+01	  0.096352704	3.538500E+01
383	  0.096553110	-8.727000E+00	  0.096553110	8.103400E+01	  0.096553110	4.245100E+01	  0.096553110	3.545700E+01
384	  0.096753508	-8.754000E+00	  0.096753508	8.054000E+01	  0.096753508	4.277300E+01	  0.096753508	3.553000E+01
385	  0.096953906	-8.780000E+00	  0.096953906	8.005800E+01	  0.096953906	4.308700E+01	  0.096953906	3.560100E+01
386	  0.097154312	-8.803000E+00	  0.097154312	7.956800E+01	  0.097154312	4.340000E+01	  0.097154312	3.568400E+01
387	  0.097354710	-8.827000E+00	  0.097354710	7.909400E+01	  0.097354710	4.371100E+01	  0.097354710	3.575100E+01
388	  0.097555116	-8.852000E+00	  0.097555116	7.863500E+01	  0.097555116	4.401600E+01	  0.097555116	3.580800E+01
389	  0.097755514	-8.872000E+00	  0.097755514	7.816100E+01	  0.097755514	4.431900E+01	  0.097755514	3.588900E+01
390	  0.097955912	-8.896000E+00	  0.097955912	7.771700E+01	  0.097955912	4.461700E+01	  0.097955912	3.594000E+01
391	  0.098156318	-8.908000E+00	  0.098156318	7.728800E+01	  0.098156318	4.488300E+01	  0.098156318	3.603000E+01
392	  0.098356716	-8.931000E+00	  0.098356716	7.687300E+01	  0.098356716	4.516400E+01	  0.098356716	3.607400E+01
393	  0.098557115	-8.941000E+00	  0.098557115	7.643900E+01	  0.098557115	4.543200E+01	  0.098557115	3.616900E+01
394	  0.098757520	-8.961000E+00	  0.098757520	7.603500E+01	  0.098757520	4.570600E+01	  0.098757520	3.621400E+01
395	  0.098957919	-8.976000E+00	  0.098957919	7.563000E+01	  0.098957919	4.597000E+01	  0.098957919	3.627800E+01
396	  0.099158317	-8.983000E+00	  0.099158317	7.524100E+01	  0.099158317	4.621200E+01	  0.099158317	3.636500E+01
397	  0.099358723	-9.001000E+00	  0.099358723	7.486200E+01	  0.099358723	4.646800E+01	  0.099358723	3.640900E+01
398	  0.099559121	-9.015000E+00	  0.099559121	7.447800E+01	  0.099559121	4.672300E+01	  0.099559121	3.646200E+01
399	  0.099759519	-9.024000E+00	  0.099759519	7.413400E+01	  0.099759519	4.694500E+01	  0.099759519	3.652800E+01
400	  0.099959925	-9.031000E+00	  0.099959925	7.376800E+01	  0.099959925	4.717800E+01	  0.099959925	3.660200E+01
401	  0.100160323	-9.040000E+00	  0.100160323	7.342600E+01	  0.100160323	4.740000E+01	  0.100160323	3.666400E+01
402	  0.100360721	-9.057000E+00	  0.100360721	7.310900E+01	  0.100360721	4.762600E+01	  0.100360721	3.668100E+01
403	  0.100561127	-9.055000E+00	  0.100561127	7.275600E+01	  0.100561127	4.783700E+01	  0.100561127	3.678900E+01
404	  0.100761525	-9.068000E+00	  0.100761525	7.240400E+01	  0.100761525	4.807900E+01	  0.100761525	3.682900E+01
405	  0.100961931	-9.076000E+00	  0.100961931	7.200400E+01	  0.100961931	4.834000E+01	  0.100961931	3.690600E+01
406	  0.101162329	-9.080000E+00	  0.101162329	7.170900E+01	  0.101162329	4.853200E+01	  0.101162329	3.696500E+01
407	  0.101362728	-9.091000E+00	  0.101362728	7.142000E+01	  0.101362728	4.873200E+01	  0.101362728	3.699600E+01
408	  0.101563133	-9.096000E+00	  0.101563133	7.101000E+01	  0.101563133	4.900000E+01	  0.101563133	3.708000E+01
409	  0.101763532	-9.106000E+00	  0.101763532	7.069300E+01	  0.101763532	4.921800E+01	  0.101763532	3.712100E+01
410	  0.101963930	-9.105000E+00	  0.101963930	7.035100E+01	  0.101963930	4.943600E+01	  0.101963930	3.720900E+01
411	  0.102164328	-9.110000E+00	  0.102164328	7.002500E+01	  0.102164328	4.965400E+01	  0.102164328	3.727100E+01
412	  0.102364726	-9.117000E+00	  0.102364726	6.963100E+01	  0.102364726	4.992100E+01	  0.102364726	3.733700E+01
413	  0.102565125	-9.116000E+00	  0.102565125	6.930900E+01	  0.102565125	5.012900E+01	  0.102565125	3.742200E+01
414	  0.102765530	-9.105000E+00	  0.102765530	6.896900E+01	  0.102765530	5.033500E+01	  0.102765530	3.755100E+01
415	  0.102965929	-9.108000E+00	  0.102965929	6.855000E+01	  0.102965929	5.061700E+01	  0.102965929	3.763900E+01
416	  0.103166327	-9.106000E+00	  0.103166327	6.818200E+01	  0.103166327	5.086100E+01	  0.103166327	3.773100E+01
417	  0.103366733	-9.101000E+00	  0.103366733	6.782900E+01	  0.103366733	5.108900E+01	  0.103366733	3.783800E+01
418	  0.103567131	-9.097000E+00	  0.103567131	6.741900E+01	  0.103567131	5.136000E+01	  0.103567131	3.795000E+01
419	  0.103767529	-9.088000E+00	  0.103767529	6.701800E+01	  0.103767529	5.162100E+01	  0.103767529	3.808100E+01
420	  0.103967935	-9.073000E+00	  0.103967935	6.661800E+01	  0.103967935	5.187500E+01	  0.103967935	3.823800E+01
421	  0.104168333	-9.068000E+00	  0.104168333	6.619200E+01	  0.104168333	5.216500E+01	  0.104168333	3.835300E+01
422	  0.104368731	-9.052000E+00	  0.104368731	6.577000E+01	  0.104368731	5.243700E+01	  0.104368731	3.852100E+01
423	  0.104569137	-9.040000E+00	  0.104569137	6.536200E+01	  0.104569137	5.270900E+01	  0.104569137	3.866300E+01
424	  0.104769535	-9.014000E+00	  0.104769535	6.493500E+01	  0.104769535	5.297900E+01	  0.104769535	3.887500E+01
425	  0.104969934	-9.007000E+00	  0.104969934	6.450600E+01	  0.104969934	5.327900E+01	  0.104969934	3.899700E+01
426	  0.105170339	-8.980000E+00	  0.105170339	6.405200E+01	  0.105170339	5.357400E+01	  0.105170339	3.922200E+01
427	  0.105370738	-8.966000E+00	  0.105370738	6.362900E+01	  0.105370738	5.386600E+01	  0.105370738	3.937700E+01
428	  0.105571143	-8.940000E+00	  0.105571143	6.315600E+01	  0.105571143	5.418500E+01	  0.105571143	3.959700E+01
429	  0.105771542	-8.924000E+00	  0.105771542	6.270700E+01	  0.105771542	5.450200E+01	  0.105771542	3.976500E+01
430	  0.105971940	-8.903000E+00	  0.105971940	6.216500E+01	  0.105971940	5.488700E+01	  0.105971940	3.997600E+01
431	  0.106172346	-8.873000E+00	  0.106172346	6.174400E+01	  0.106172346	5.517500E+01	  0.106172346	4.020500E+01
432	  0.106372744	-8.853000E+00	  0.106372744	6.122400E+01	  0.106372744	5.555500E+01	  0.106372744	4.040400E+01
433	  0.106573142	-8.830000E+00	  0.106573142	6.071400E+01	  0.106573142	5.593000E+01	  0.106573142	4.061500E+01
434	  0.106773548	-8.811000E+00	  0.106773548	6.025400E+01	  0.106773548	5.627500E+01	  0.106773548	4.079800E+01
435	  0.106973946	-8.790000E+00	  0.106973946	5.975800E+01	  0.106973946	5.665000E+01	  0.106973946	4.099500E+01
436	  0.107174344	-8.758000E+00	  0.107174344	5.924500E+01	  0.107174344	5.703400E+01	  0.107174344	4.125100E+01
437	  0.107374750	-8.739000E+00	  0.107374750	5.868600E+01	  0.107374750	5.747500E+01	  0.107374750	4.144700E+01
438	  0.107575148	-8.717000E+00	  0.107575148	5.816700E+01	  0.107575148	5.788700E+01	  0.107575148	4.164700E+01
439	  0.107775547	-8.693000E+00	  0.107775547	5.755300E+01	  0.107775547	5.838300E+01	  0.107775547	4.187800E+01
440	  0.107975952	-8.671000E+00	  0.107975952	5.702300E+01	  0.107975952	5.881700E+01	  0.107975952	4.207900E+01
441	  0.108176351	-8.649000E+00	  0.108176351	5.647200E+01	  0.108176351	5.927600E+01	  0.108176351	4.228200E+01
442	  0.108376749	-8.633000E+00	  0.108376749	5.589400E+01	  0.108376749	5.977100E+01	  0.108376749	4.245100E+01
443	  0.108577155	-8.618000E+00	  0.108577155	5.535000E+01	  0.108577155	6.024400E+01	  0.108577155	4.260100E+01
444	  0.108777553	-8.602000E+00	  0.108777553	5.469300E+01	  0.108777553	6.082500E+01	  0.108777553	4.277200E+01
445	  0.108977959	-8.584000E+00	  0.108977959	5.403400E+01	  0.108977959	6.141500E+01	  0.108977959	4.294900E+01
446	  0.109178357	-8.562000E+00	  0.109178357	5.340400E+01	  0.109178357	6.198500E+01	  0.109178357	4.314800E+01
447	  0.109378755	-8.549000E+00	  0.109378755	5.274300E+01	  0.109378755	6.259900E+01	  0.109378755	4.328300E+01
448	  0.109579161	-8.539000E+00	  0.109579161	5.210100E+01	  0.109579161	6.320500E+01	  0.109579161	4.339300E+01
449	  0.109779559	-8.519000E+00	  0.109779559	5.145200E+01	  0.109779559	6.382300E+01	  0.109779559	4.356200E+01
450	  0.109979957	-8.506000E+00	  0.109979957	5.074800E+01	  0.109979957	6.450500E+01	  0.109979957	4.368300E+01
451	  0.110180363	-8.484000E+00	  0.110180363	5.008000E+01	  0.110180363	6.516200E+01	  0.110180363	4.384900E+01
452	  0.110380761	-8.476000E+00	  0.110380761	4.936200E+01	  0.110380761	6.588100E+01	  0.110380761	4.391700E+01
453	  0.110581160	-8.465000E+00	  0.110581160	4.859900E+01	  0.110581160	6.665700E+01	  0.110581160	4.399800E+01
454	  0.110781565	-8.454000E+00	  0.110781565	4.787300E+01	  0.110781565	6.740500E+01	  0.110781565	4.406500E+01
455	  0.110981964	-8.443000E+00	  0.110981964	4.716200E+01	  0.110981964	6.814900E+01	  0.110981964	4.411900E+01
456	  0.111182362	-8.437000E+00	  0.111182362	4.640200E+01	  0.111182362	6.895300E+01	  0.111182362	4.412800E+01
457	  0.111382768	-8.418000E+00	  0.111382768	4.568900E+01	  0.111382768	6.972400E+01	  0.111382768	4.422200E+01
458	  0.111583166	-8.417000E+00	  0.111583166	4.490700E+01	  0.111583166	7.057000E+01	  0.111583166	4.416600E+01
459	  0.111783572	-8.395000E+00	  0.111783572	4.411300E+01	  0.111783572	7.145500E+01	  0.111783572	4.423700E+01
460	  0.111983970	-8.390000E+00	  0.111983970	4.334400E+01	  0.111983970	7.231200E+01	  0.111983970	4.417900E+01
461	  0.112184368	-8.381000E+00	  0.112184368	4.254200E+01	  0.112184368	7.322000E+01	  0.112184368	4.412700E+01
462	  0.112384774	-8.368000E+00	  0.112384774	4.176400E+01	  0.112384774	7.411800E+01	  0.112384774	4.409600E+01
463	  0.112585172	-8.358000E+00	  0.112585172	4.092300E+01	  0.112585172	7.509500E+01	  0.112585172	4.400300E+01
464	  0.112785570	-8.357000E+00	  0.112785570	4.012400E+01	  0.112785570	7.602300E+01	  0.112785570	4.383700E+01
465	  0.112985976	-8.344000E+00	  0.112985976	3.933100E+01	  0.112985976	7.697200E+01	  0.112985976	4.373700E+01
466	  0.113186374	-8.338000E+00	  0.113186374	3.850200E+01	  0.113186374	7.796000E+01	  0.113186374	4.354800E+01
467	  0.113386773	-8.327000E+00	  0.113386773	3.766300E+01	  0.113386773	7.898200E+01	  0.113386773	4.337900E+01
468	  0.113587178	-8.324000E+00	  0.113587178	3.679600E+01	  0.113587178	8.002900E+01	  0.113587178	4.310800E+01
469	  0.113787577	-8.315000E+00	  0.113787577	3.594200E+01	  0.113787577	8.108400E+01	  0.113787577	4.286100E+01
470	  0.113987975	-8.314000E+00	  0.113987975	3.504900E+01	  0.113987975	8.217300E+01	  0.113987975	4.250400E+01
471	  0.114188381	-8.311000E+00	  0.114188381	3.420500E+01	  0.114188381	8.321200E+01	  0.114188381	4.215100E+01
472	  0.114388779	-8.308000E+00	  0.114388779	3.331100E+01	  0.114388779	8.432100E+01	  0.114388779	4.174900E+01
473	  0.114589177	-8.304000E+00	  0.114589177	3.242200E+01	  0.114589177	8.542600E+01	  0.114589177	4.131600E+01
474	  0.114789583	-8.311000E+00	  0.114789583	3.150100E+01	  0.114789583	8.653400E+01	  0.114789583	4.074100E+01
475	  0.114989981	-8.315000E+00	  0.114989981	3.056900E+01	  0.114989981	8.766300E+01	  0.114989981	4.014700E+01
476	  0.115190387	-8.324000E+00	  0.115190387	2.961900E+01	  0.115190387	8.879400E+01	  0.115190387	3.946700E+01
477	  0.115390785	-8.328000E+00	  0.115390785	2.868600E+01	  0.115390785	8.991000E+01	  0.115390785	3.878400E+01
478	  0.115591183	-8.338000E+00	  0.115591183	2.768700E+01	  0.115591183	9.107600E+01	  0.115591183	3.797500E+01
479	  0.115791589	-8.353000E+00	  0.115791589	2.671100E+01	  0.115791589	9.217000E+01	  0.115791589	3.709100E+01
480	  0.115991987	-8.373000E+00	  0.115991987	2.569700E+01	  0.115991987	9.326100E+01	  0.115991987	3.609300E+01
481	  0.116192386	-8.390000E+00	  0.116192386	2.468400E+01	  0.116192386	9.434400E+01	  0.116192386	3.507400E+01
482	  0.116392791	-8.412000E+00	  0.116392791	2.364800E+01	  0.116392791	9.539200E+01	  0.116392791	3.394500E+01
483	  0.116593190	-8.433000E+00	  0.116593190	2.260000E+01	  0.116593190	9.642800E+01	  0.116593190	3.277000E+01
484	  0.116793588	-8.463000E+00	  0.116793588	2.152300E+01	  0.116793588	9.739700E+01	  0.116793588	3.145400E+01
485	  0.116993994	-8.490000E+00	  0.116993994	2.044700E+01	  0.116993994	9.833500E+01	  0.116993994	3.011300E+01
486	  0.117194392	-8.527000E+00	  0.117194392	1.932900E+01	  0.117194392	9.919400E+01	  0.117194392	2.861700E+01
487	  0.117394790	-8.564000E+00	  0.117394790	1.824200E+01	  0.117394790	9.996600E+01	  0.117394790	2.712300E+01
488	  0.117595196	-8.601000E+00	  0.117595196	1.707200E+01	  0.117595196	1.007560E+02	  0.117595196	2.549600E+01
489	  0.117795594	-8.645000E+00	  0.117795594	1.592500E+01	  0.117795594	1.013880E+02	  0.117795594	2.381600E+01
490	  0.117995992	-8.687000E+00	  0.117995992	1.471300E+01	  0.117995992	1.020230E+02	  0.117995992	2.204300E+01
491	  0.118196398	-8.742000E+00	  0.118196398	1.353500E+01	  0.118196398	1.024330E+02	  0.118196398	2.022600E+01
492	  0.118396796	-8.796000E+00	  0.118396796	1.227900E+01	  0.118396796	1.028290E+02	  0.118396796	1.830200E+01
493	  0.118597202	-8.853000E+00	  0.118597202	1.108300E+01	  0.118597202	1.030640E+02	  0.118597202	1.644000E+01
494	  0.118797600	-8.912000E+00	  0.118797600	9.831000E+00	  0.118797600	1.032230E+02	  0.118797600	1.449700E+01
