! Anritsu VNA Master:             	Model: MS2036C/10/77
! SN:             	1601066
! /card0/usr/255.ew.sma.r200.v2_1.txt
! Existing Calibration Information:
! TYPE:             	Current Settings	Active Cal Settings
! TIME:             	12/17/2017 06:19:02 PM	12/17/2017 06:11:23 PM
! INTERNAL TEMP:    	43.8 C	43.8 C
! # POINTS:         	501	501
! START FREQ:       	10.000 MHz	10.000 MHz
! STOP FREQ:        	107.903 125 MHz	107.903 125 MHz
! SOURCE POWER:     	High	High
! IFBW:             	100 Hz	100 Hz
! AVG FACTOR:       	  1 	  1 
! REF PLANE 1:      	0 mm	0 mm
! REF PLANE 2:      	0 mm	0 mm
! CAL TYPE:         	Full S11	Full S11
! CAL METHOD:       	SOLT	SOLT
! CAL LINE TYPE:    	Coax	Coax
! DUT PORT 1:       	K-Conn(F)	K-Conn(F)
! DUT PORT 2:       	K-Conn(F)	K-Conn(F)
! CAL STATUS:       	OK: Accuracy High	--
! PROP-V:       	0.700
! CABLE LOSS:       	0.000 dB/m
! REF IMPEDANCE:       	50.0
! Trace Specific Parameters:	TR1	TR2	TR3	TR4
! TRACE.#.Y (GRAPH TYPE)	LOG MAG	PHASE	REAL IMPEDANCE	IMAGINARY IMPEDANCE
! TRACE.#.X 	FREQ.GHZ	FREQ.GHZ	FREQ.GHZ	FREQ.GHZ
! S-PARAMETER	S11	S11	S11	S11
! SMOOTH/APERTURE %	0	0	0	0
! WINDOW	NSL	NSL	NSL	NSL
! GATING	OFF	OFF	OFF	OFF
! FGTD	OFF	OFF	OFF	OFF
Marker Information per Trace:	TR1	TR2	TR3	TR4
!MK1	--	--	--	--
!MK2	--	--	--	--
!MK3	--	--	--	--
!MK4	--	--	--	--
!MK5	--	--	--	--
!MK6	--	--	--	--
!MK7	--	--	--	--
!MK8	--	--	--	--
PNT	TR1.FREQ.GHZ	TR1.LOG MAG.dB	TR2.FREQ.GHZ	TR2.PHASE.deg	TR3.FREQ.GHZ	TR3.REAL IMPEDANCE.ohm	TR4.FREQ.GHZ	TR4.IMAGINARY IMPEDANCE.ohm
1	  0.010000000	-4.554000E+00	  0.010000000	-1.072400E+01	  0.010000000	1.735100E+02	  0.010000000	-5.884500E+01
2	  0.010195807	-4.546000E+00	  0.010195807	-1.087900E+01	  0.010195807	1.731820E+02	  0.010195807	-5.968900E+01
3	  0.010391613	-4.543000E+00	  0.010391613	-1.111200E+01	  0.010391613	1.724210E+02	  0.010391613	-6.072800E+01
4	  0.010587418	-4.546000E+00	  0.010587418	-1.131500E+01	  0.010587418	1.715900E+02	  0.010587418	-6.147400E+01
5	  0.010783225	-4.549000E+00	  0.010783225	-1.152800E+01	  0.010783225	1.707130E+02	  0.010783225	-6.224900E+01
6	  0.010979031	-4.549000E+00	  0.010979031	-1.174900E+01	  0.010979031	1.698880E+02	  0.010979031	-6.311200E+01
7	  0.011174837	-4.547000E+00	  0.011174837	-1.195600E+01	  0.011174837	1.691670E+02	  0.011174837	-6.397800E+01
8	  0.011370643	-4.547000E+00	  0.011370643	-1.217200E+01	  0.011370643	1.683610E+02	  0.011370643	-6.481000E+01
9	  0.011566450	-4.552000E+00	  0.011566450	-1.239300E+01	  0.011566450	1.673850E+02	  0.011566450	-6.550500E+01
10	  0.011762256	-4.547000E+00	  0.011762256	-1.260200E+01	  0.011762256	1.666900E+02	  0.011762256	-6.638500E+01
11	  0.011958062	-4.547000E+00	  0.011958062	-1.281200E+01	  0.011958062	1.658850E+02	  0.011958062	-6.715500E+01
12	  0.012153869	-4.548000E+00	  0.012153869	-1.302500E+01	  0.012153869	1.650250E+02	  0.012153869	-6.787100E+01
13	  0.012349674	-4.549000E+00	  0.012349674	-1.324800E+01	  0.012349674	1.641480E+02	  0.012349674	-6.864500E+01
14	  0.012545481	-4.548000E+00	  0.012545481	-1.348400E+01	  0.012545481	1.632330E+02	  0.012545481	-6.947000E+01
15	  0.012741288	-4.548000E+00	  0.012741288	-1.368600E+01	  0.012741288	1.624210E+02	  0.012741288	-7.013200E+01
16	  0.012937094	-4.550000E+00	  0.012937094	-1.390600E+01	  0.012937094	1.615000E+02	  0.012937094	-7.079900E+01
17	  0.013132900	-4.553000E+00	  0.013132900	-1.410100E+01	  0.013132900	1.606620E+02	  0.013132900	-7.135500E+01
18	  0.013328707	-4.554000E+00	  0.013328707	-1.433200E+01	  0.013328707	1.597170E+02	  0.013328707	-7.205400E+01
19	  0.013524513	-4.552000E+00	  0.013524513	-1.453400E+01	  0.013524513	1.589470E+02	  0.013524513	-7.273200E+01
20	  0.013720319	-4.552000E+00	  0.013720319	-1.475200E+01	  0.013720319	1.580580E+02	  0.013720319	-7.338300E+01
21	  0.013916126	-4.554000E+00	  0.013916126	-1.495300E+01	  0.013916126	1.572120E+02	  0.013916126	-7.393300E+01
22	  0.014111931	-4.552000E+00	  0.014111931	-1.519100E+01	  0.014111931	1.562880E+02	  0.014111931	-7.468200E+01
23	  0.014307737	-4.554000E+00	  0.014307737	-1.541800E+01	  0.014307737	1.553080E+02	  0.014307737	-7.524200E+01
24	  0.014503544	-4.555000E+00	  0.014503544	-1.562900E+01	  0.014503544	1.544280E+02	  0.014503544	-7.580000E+01
25	  0.014699350	-4.556000E+00	  0.014699350	-1.586100E+01	  0.014699350	1.534740E+02	  0.014699350	-7.641000E+01
26	  0.014895156	-4.556000E+00	  0.014895156	-1.606000E+01	  0.014895156	1.526460E+02	  0.014895156	-7.691700E+01
27	  0.015090963	-4.555000E+00	  0.015090963	-1.627800E+01	  0.015090963	1.517700E+02	  0.015090963	-7.750200E+01
28	  0.015286769	-4.557000E+00	  0.015286769	-1.650100E+01	  0.015286769	1.508220E+02	  0.015286769	-7.800900E+01
29	  0.015482575	-4.558000E+00	  0.015482575	-1.673300E+01	  0.015482575	1.498650E+02	  0.015482575	-7.856700E+01
30	  0.015678382	-4.558000E+00	  0.015678382	-1.696300E+01	  0.015678382	1.489170E+02	  0.015678382	-7.911100E+01
31	  0.015874187	-4.560000E+00	  0.015874187	-1.716700E+01	  0.015874187	1.480520E+02	  0.015874187	-7.953400E+01
32	  0.016069993	-4.564000E+00	  0.016069993	-1.739100E+01	  0.016069993	1.470650E+02	  0.016069993	-7.991900E+01
33	  0.016265800	-4.563000E+00	  0.016265800	-1.758200E+01	  0.016265800	1.462910E+02	  0.016265800	-8.035300E+01
34	  0.016461605	-4.565000E+00	  0.016461605	-1.781500E+01	  0.016461605	1.453140E+02	  0.016461605	-8.081200E+01
35	  0.016657412	-4.564000E+00	  0.016657412	-1.802800E+01	  0.016657412	1.444490E+02	  0.016657412	-8.127200E+01
36	  0.016853219	-4.562000E+00	  0.016853219	-1.823100E+01	  0.016853219	1.436440E+02	  0.016853219	-8.174200E+01
37	  0.017049024	-4.562000E+00	  0.017049024	-1.845900E+01	  0.017049024	1.427170E+02	  0.017049024	-8.220200E+01
38	  0.017244833	-4.561000E+00	  0.017244833	-1.868100E+01	  0.017244833	1.418230E+02	  0.017244833	-8.265300E+01
39	  0.017440638	-4.558000E+00	  0.017440638	-1.888900E+01	  0.017440638	1.410080E+02	  0.017440638	-8.312500E+01
40	  0.017636444	-4.560000E+00	  0.017636444	-1.911900E+01	  0.017636444	1.400440E+02	  0.017636444	-8.347900E+01
41	  0.017832249	-4.558000E+00	  0.017832249	-1.931200E+01	  0.017832249	1.392790E+02	  0.017832249	-8.387500E+01
42	  0.018028056	-4.560000E+00	  0.018028056	-1.952900E+01	  0.018028056	1.383670E+02	  0.018028056	-8.417000E+01
43	  0.018223861	-4.559000E+00	  0.018223861	-1.972800E+01	  0.018223861	1.375730E+02	  0.018223861	-8.453000E+01
44	  0.018419670	-4.568000E+00	  0.018419670	-1.995800E+01	  0.018419670	1.365490E+02	  0.018419670	-8.466500E+01
45	  0.018615475	-4.568000E+00	  0.018615475	-2.015300E+01	  0.018615475	1.357590E+02	  0.018615475	-8.494800E+01
46	  0.018811282	-4.568000E+00	  0.018811282	-2.038900E+01	  0.018811282	1.348130E+02	  0.018811282	-8.531400E+01
47	  0.019007087	-4.565000E+00	  0.019007087	-2.058400E+01	  0.019007087	1.340550E+02	  0.019007087	-8.566400E+01
48	  0.019202894	-4.568000E+00	  0.019202894	-2.079200E+01	  0.019202894	1.331960E+02	  0.019202894	-8.587700E+01
49	  0.019398699	-4.569000E+00	  0.019398699	-2.100500E+01	  0.019398699	1.323360E+02	  0.019398699	-8.613300E+01
50	  0.019594505	-4.568000E+00	  0.019594505	-2.121600E+01	  0.019594505	1.315060E+02	  0.019594505	-8.643200E+01
51	  0.019790314	-4.571000E+00	  0.019790314	-2.142600E+01	  0.019790314	1.306520E+02	  0.019790314	-8.662500E+01
52	  0.019986119	-4.570000E+00	  0.019986119	-2.162000E+01	  0.019986119	1.298960E+02	  0.019986119	-8.689100E+01
53	  0.020181926	-4.568000E+00	  0.020181926	-2.186200E+01	  0.020181926	1.289580E+02	  0.020181926	-8.722400E+01
54	  0.020377731	-4.570000E+00	  0.020377731	-2.207400E+01	  0.020377731	1.281190E+02	  0.020377731	-8.741900E+01
55	  0.020573538	-4.568000E+00	  0.020573538	-2.229400E+01	  0.020573538	1.272720E+02	  0.020573538	-8.770200E+01
56	  0.020769343	-4.568000E+00	  0.020769343	-2.251100E+01	  0.020769343	1.264260E+02	  0.020769343	-8.792000E+01
57	  0.020965151	-4.567000E+00	  0.020965151	-2.274100E+01	  0.020965151	1.255390E+02	  0.020965151	-8.816300E+01
58	  0.021160956	-4.570000E+00	  0.021160956	-2.296000E+01	  0.021160956	1.246770E+02	  0.021160956	-8.828900E+01
59	  0.021356763	-4.569000E+00	  0.021356763	-2.319500E+01	  0.021356763	1.237860E+02	  0.021356763	-8.854000E+01
60	  0.021552568	-4.573000E+00	  0.021552568	-2.342500E+01	  0.021552568	1.228880E+02	  0.021552568	-8.863300E+01
61	  0.021748375	-4.575000E+00	  0.021748375	-2.362300E+01	  0.021748375	1.221270E+02	  0.021748375	-8.874900E+01
62	  0.021944180	-4.575000E+00	  0.021944180	-2.384700E+01	  0.021944180	1.212790E+02	  0.021944180	-8.892000E+01
63	  0.022139989	-4.578000E+00	  0.022139989	-2.405900E+01	  0.022139989	1.204680E+02	  0.022139989	-8.899400E+01
64	  0.022335794	-4.581000E+00	  0.022335794	-2.428200E+01	  0.022335794	1.196240E+02	  0.022335794	-8.908000E+01
65	  0.022531601	-4.577000E+00	  0.022531601	-2.449900E+01	  0.022531601	1.188330E+02	  0.022531601	-8.930300E+01
66	  0.022727406	-4.579000E+00	  0.022727406	-2.471000E+01	  0.022727406	1.180450E+02	  0.022727406	-8.939000E+01
67	  0.022923212	-4.579000E+00	  0.022923212	-2.492400E+01	  0.022923212	1.172630E+02	  0.022923212	-8.953000E+01
68	  0.023119017	-4.580000E+00	  0.023119017	-2.515300E+01	  0.023119017	1.164210E+02	  0.023119017	-8.962700E+01
69	  0.023314826	-4.580000E+00	  0.023314826	-2.538300E+01	  0.023314826	1.155870E+02	  0.023314826	-8.974800E+01
70	  0.023510631	-4.579000E+00	  0.023510631	-2.561600E+01	  0.023510631	1.147470E+02	  0.023510631	-8.987800E+01
71	  0.023706438	-4.578000E+00	  0.023706438	-2.583200E+01	  0.023706438	1.139730E+02	  0.023706438	-8.997900E+01
72	  0.023902243	-4.576000E+00	  0.023902243	-2.605600E+01	  0.023902243	1.131790E+02	  0.023902243	-9.012100E+01
73	  0.024098050	-4.573000E+00	  0.024098050	-2.628400E+01	  0.024098050	1.123760E+02	  0.024098050	-9.027800E+01
74	  0.024293855	-4.569000E+00	  0.024293855	-2.650000E+01	  0.024293855	1.116230E+02	  0.024293855	-9.045000E+01
75	  0.024489662	-4.570000E+00	  0.024489662	-2.670900E+01	  0.024489662	1.108870E+02	  0.024489662	-9.049300E+01
76	  0.024685470	-4.570000E+00	  0.024685470	-2.694200E+01	  0.024685470	1.100730E+02	  0.024685470	-9.054600E+01
77	  0.024881275	-4.571000E+00	  0.024881275	-2.716200E+01	  0.024881275	1.093080E+02	  0.024881275	-9.057000E+01
78	  0.025077082	-4.568000E+00	  0.025077082	-2.736200E+01	  0.025077082	1.086220E+02	  0.025077082	-9.068400E+01
79	  0.025272887	-4.567000E+00	  0.025272887	-2.755400E+01	  0.025272887	1.079660E+02	  0.025272887	-9.072900E+01
80	  0.025468694	-4.571000E+00	  0.025468694	-2.773000E+01	  0.025468694	1.073610E+02	  0.025468694	-9.067700E+01
81	  0.025664499	-4.573000E+00	  0.025664499	-2.792500E+01	  0.025664499	1.067000E+02	  0.025664499	-9.065900E+01
82	  0.025860308	-4.576000E+00	  0.025860308	-2.811500E+01	  0.025860308	1.060600E+02	  0.025860308	-9.061900E+01
83	  0.026056113	-4.575000E+00	  0.026056113	-2.831500E+01	  0.026056113	1.053880E+02	  0.026056113	-9.063700E+01
84	  0.026251920	-4.580000E+00	  0.026251920	-2.851500E+01	  0.026251920	1.047250E+02	  0.026251920	-9.053800E+01
85	  0.026447725	-4.583000E+00	  0.026447725	-2.873300E+01	  0.026447725	1.040030E+02	  0.026447725	-9.048600E+01
86	  0.026643531	-4.582000E+00	  0.026643531	-2.892600E+01	  0.026643531	1.033720E+02	  0.026643531	-9.051300E+01
87	  0.026839336	-4.583000E+00	  0.026839336	-2.915600E+01	  0.026839336	1.026240E+02	  0.026839336	-9.048100E+01
88	  0.027035145	-4.586000E+00	  0.027035145	-2.938600E+01	  0.027035145	1.018820E+02	  0.027035145	-9.042100E+01
89	  0.027230950	-4.585000E+00	  0.027230950	-2.961100E+01	  0.027230950	1.011600E+02	  0.027230950	-9.041400E+01
90	  0.027426757	-4.587000E+00	  0.027426757	-2.981900E+01	  0.027426757	1.004990E+02	  0.027426757	-9.036600E+01
91	  0.027622562	-4.589000E+00	  0.027622562	-3.004900E+01	  0.027622562	9.977600E+01	  0.027622562	-9.028500E+01
92	  0.027818369	-4.591000E+00	  0.027818369	-3.029000E+01	  0.027818369	9.902200E+01	  0.027818369	-9.022000E+01
93	  0.028014174	-4.593000E+00	  0.028014174	-3.053800E+01	  0.028014174	9.825500E+01	  0.028014174	-9.014800E+01
94	  0.028209982	-4.594000E+00	  0.028209982	-3.078200E+01	  0.028209982	9.750500E+01	  0.028209982	-9.008600E+01
95	  0.028405787	-4.590000E+00	  0.028405787	-3.102000E+01	  0.028405787	9.677200E+01	  0.028405787	-9.011500E+01
96	  0.028601594	-4.586000E+00	  0.028601594	-3.123300E+01	  0.028601594	9.611900E+01	  0.028601594	-9.014100E+01
97	  0.028797399	-4.583000E+00	  0.028797399	-3.142300E+01	  0.028797399	9.554100E+01	  0.028797399	-9.015200E+01
98	  0.028993206	-4.584000E+00	  0.028993206	-3.162600E+01	  0.028993206	9.493700E+01	  0.028993206	-9.007000E+01
99	  0.029189013	-4.583000E+00	  0.029189013	-3.182000E+01	  0.029189013	9.435500E+01	  0.029189013	-9.003500E+01
100	  0.029384818	-4.585000E+00	  0.029384818	-3.199100E+01	  0.029384818	9.385600E+01	  0.029384818	-8.994600E+01
101	  0.029580627	-4.586000E+00	  0.029580627	-3.218700E+01	  0.029580627	9.328100E+01	  0.029580627	-8.987400E+01
102	  0.029776432	-4.591000E+00	  0.029776432	-3.241200E+01	  0.029776432	9.263600E+01	  0.029776432	-8.969600E+01
103	  0.029972238	-4.596000E+00	  0.029972238	-3.262200E+01	  0.029972238	9.204200E+01	  0.029972238	-8.952100E+01
104	  0.030168043	-4.602000E+00	  0.030168043	-3.286800E+01	  0.030168043	9.135400E+01	  0.030168043	-8.931900E+01
105	  0.030363850	-4.604000E+00	  0.030363850	-3.312700E+01	  0.030363850	9.062500E+01	  0.030363850	-8.918000E+01
106	  0.030559655	-4.606000E+00	  0.030559655	-3.335500E+01	  0.030559655	8.998700E+01	  0.030559655	-8.906700E+01
107	  0.030755464	-4.605000E+00	  0.030755464	-3.362200E+01	  0.030755464	8.924300E+01	  0.030755464	-8.896100E+01
108	  0.030951269	-4.603000E+00	  0.030951269	-3.389400E+01	  0.030951269	8.848400E+01	  0.030951269	-8.889100E+01
109	  0.031147076	-4.596000E+00	  0.031147076	-3.412000E+01	  0.031147076	8.784500E+01	  0.031147076	-8.890700E+01
110	  0.031342883	-4.596000E+00	  0.031342883	-3.433700E+01	  0.031342883	8.725800E+01	  0.031342883	-8.880200E+01
111	  0.031538688	-4.593000E+00	  0.031538688	-3.458400E+01	  0.031538688	8.658000E+01	  0.031538688	-8.873900E+01
112	  0.031734493	-4.590000E+00	  0.031734493	-3.479000E+01	  0.031734493	8.602000E+01	  0.031734493	-8.868800E+01
113	  0.031930301	-4.581000E+00	  0.031930301	-3.501100E+01	  0.031930301	8.540000E+01	  0.031930301	-8.873100E+01
114	  0.032126106	-4.575000E+00	  0.032126106	-3.521900E+01	  0.032126106	8.483500E+01	  0.032126106	-8.871000E+01
115	  0.032321911	-4.567000E+00	  0.032321911	-3.540600E+01	  0.032321911	8.431500E+01	  0.032321911	-8.874500E+01
116	  0.032517716	-4.560000E+00	  0.032517716	-3.559000E+01	  0.032517716	8.381000E+01	  0.032517716	-8.875600E+01
117	  0.032713525	-4.560000E+00	  0.032713525	-3.575200E+01	  0.032713525	8.339000E+01	  0.032713525	-8.866400E+01
118	  0.032909330	-4.555000E+00	  0.032909330	-3.593500E+01	  0.032909330	8.289600E+01	  0.032909330	-8.864700E+01
119	  0.033105139	-4.557000E+00	  0.033105139	-3.612600E+01	  0.033105139	8.241600E+01	  0.033105139	-8.849800E+01
120	  0.033300944	-4.557000E+00	  0.033300944	-3.629200E+01	  0.033300944	8.199500E+01	  0.033300944	-8.838700E+01
121	  0.033496749	-4.557000E+00	  0.033496749	-3.649100E+01	  0.033496749	8.149600E+01	  0.033496749	-8.825500E+01
122	  0.033692554	-4.562000E+00	  0.033692554	-3.668600E+01	  0.033692554	8.102700E+01	  0.033692554	-8.805500E+01
123	  0.033888362	-4.562000E+00	  0.033888362	-3.688900E+01	  0.033888362	8.052200E+01	  0.033888362	-8.792700E+01
124	  0.034084171	-4.562000E+00	  0.034084171	-3.708400E+01	  0.034084171	8.004500E+01	  0.034084171	-8.779000E+01
125	  0.034279976	-4.568000E+00	  0.034279976	-3.730900E+01	  0.034279976	7.952100E+01	  0.034279976	-8.754700E+01
126	  0.034475781	-4.573000E+00	  0.034475781	-3.751300E+01	  0.034475781	7.904900E+01	  0.034475781	-8.733400E+01
127	  0.034671586	-4.577000E+00	  0.034671586	-3.772600E+01	  0.034671586	7.855600E+01	  0.034671586	-8.712400E+01
128	  0.034867391	-4.582000E+00	  0.034867391	-3.797500E+01	  0.034867391	7.798700E+01	  0.034867391	-8.687400E+01
129	  0.035063203	-4.588000E+00	  0.035063203	-3.821500E+01	  0.035063203	7.745000E+01	  0.035063203	-8.661700E+01
130	  0.035259008	-4.591000E+00	  0.035259008	-3.840900E+01	  0.035259008	7.701300E+01	  0.035259008	-8.642300E+01
131	  0.035454813	-4.593000E+00	  0.035454813	-3.862400E+01	  0.035454813	7.652100E+01	  0.035454813	-8.625100E+01
132	  0.035650618	-4.590000E+00	  0.035650618	-3.884200E+01	  0.035650618	7.601100E+01	  0.035650618	-8.612800E+01
133	  0.035846427	-4.593000E+00	  0.035846427	-3.905800E+01	  0.035846427	7.553200E+01	  0.035846427	-8.593600E+01
134	  0.036042232	-4.588000E+00	  0.036042232	-3.928900E+01	  0.036042232	7.498500E+01	  0.036042232	-8.584600E+01
135	  0.036238037	-4.584000E+00	  0.036238037	-3.954100E+01	  0.036238037	7.440500E+01	  0.036238037	-8.570400E+01
136	  0.036433842	-4.584000E+00	  0.036433842	-3.973700E+01	  0.036433842	7.396800E+01	  0.036433842	-8.556400E+01
137	  0.036629651	-4.581000E+00	  0.036629651	-3.994200E+01	  0.036629651	7.350200E+01	  0.036629651	-8.544700E+01
138	  0.036825456	-4.576000E+00	  0.036825456	-4.013800E+01	  0.036825456	7.305000E+01	  0.036825456	-8.536700E+01
139	  0.037021261	-4.575000E+00	  0.037021261	-4.030300E+01	  0.037021261	7.268300E+01	  0.037021261	-8.526000E+01
140	  0.037217066	-4.576000E+00	  0.037217066	-4.047600E+01	  0.037217066	7.231800E+01	  0.037217066	-8.510300E+01
141	  0.037412878	-4.582000E+00	  0.037412878	-4.067300E+01	  0.037412878	7.192900E+01	  0.037412878	-8.486100E+01
142	  0.037608683	-4.589000E+00	  0.037608683	-4.087400E+01	  0.037608683	7.153700E+01	  0.037608683	-8.460600E+01
143	  0.037804488	-4.599000E+00	  0.037804488	-4.109500E+01	  0.037804488	7.112600E+01	  0.037804488	-8.429100E+01
144	  0.038000293	-4.602000E+00	  0.038000293	-4.133400E+01	  0.038000293	7.064300E+01	  0.038000293	-8.406000E+01
145	  0.038196102	-4.609000E+00	  0.038196102	-4.157100E+01	  0.038196102	7.019200E+01	  0.038196102	-8.377700E+01
146	  0.038391907	-4.614000E+00	  0.038391907	-4.182700E+01	  0.038391907	6.969800E+01	  0.038391907	-8.349800E+01
147	  0.038587712	-4.617000E+00	  0.038587712	-4.205500E+01	  0.038587712	6.924900E+01	  0.038587712	-8.328500E+01
148	  0.038783520	-4.618000E+00	  0.038783520	-4.231000E+01	  0.038783520	6.874500E+01	  0.038783520	-8.305800E+01
149	  0.038979325	-4.618000E+00	  0.038979325	-4.255700E+01	  0.038979325	6.825400E+01	  0.038979325	-8.285900E+01
150	  0.039175130	-4.614000E+00	  0.039175130	-4.279900E+01	  0.039175130	6.776000E+01	  0.039175130	-8.270400E+01
151	  0.039370935	-4.613000E+00	  0.039370935	-4.304600E+01	  0.039370935	6.726900E+01	  0.039370935	-8.252200E+01
152	  0.039566744	-4.608000E+00	  0.039566744	-4.326800E+01	  0.039566744	6.681300E+01	  0.039566744	-8.239800E+01
153	  0.039762549	-4.602000E+00	  0.039762549	-4.347300E+01	  0.039762549	6.638700E+01	  0.039762549	-8.230200E+01
154	  0.039958358	-4.594000E+00	  0.039958358	-4.367300E+01	  0.039958358	6.596100E+01	  0.039958358	-8.223200E+01
155	  0.040154163	-4.591000E+00	  0.040154163	-4.386500E+01	  0.040154163	6.558400E+01	  0.040154163	-8.209800E+01
156	  0.040349972	-4.588000E+00	  0.040349972	-4.404700E+01	  0.040349972	6.522500E+01	  0.040349972	-8.198100E+01
157	  0.040545776	-4.587000E+00	  0.040545776	-4.424100E+01	  0.040545776	6.486100E+01	  0.040545776	-8.182100E+01
158	  0.040741581	-4.585000E+00	  0.040741581	-4.441300E+01	  0.040741581	6.453100E+01	  0.040741581	-8.169900E+01
159	  0.040937386	-4.591000E+00	  0.040937386	-4.461200E+01	  0.040937386	6.420200E+01	  0.040937386	-8.144900E+01
160	  0.041133195	-4.598000E+00	  0.041133195	-4.481100E+01	  0.041133195	6.388300E+01	  0.041133195	-8.118700E+01
161	  0.041329000	-4.602000E+00	  0.041329000	-4.502500E+01	  0.041329000	6.351600E+01	  0.041329000	-8.095800E+01
162	  0.041524805	-4.604000E+00	  0.041524805	-4.523500E+01	  0.041524805	6.315500E+01	  0.041524805	-8.074500E+01
163	  0.041720610	-4.607000E+00	  0.041720610	-4.547800E+01	  0.041720610	6.274200E+01	  0.041720610	-8.049600E+01
164	  0.041916419	-4.612000E+00	  0.041916419	-4.568300E+01	  0.041916419	6.240800E+01	  0.041916419	-8.026700E+01
165	  0.042112224	-4.614000E+00	  0.042112224	-4.590900E+01	  0.042112224	6.203000E+01	  0.042112224	-8.003500E+01
166	  0.042308029	-4.615000E+00	  0.042308029	-4.609700E+01	  0.042308029	6.170600E+01	  0.042308029	-7.986600E+01
167	  0.042503837	-4.618000E+00	  0.042503837	-4.633100E+01	  0.042503837	6.132800E+01	  0.042503837	-7.961700E+01
168	  0.042699646	-4.619000E+00	  0.042699646	-4.654700E+01	  0.042699646	6.096300E+01	  0.042699646	-7.942200E+01
169	  0.042895451	-4.618000E+00	  0.042895451	-4.674900E+01	  0.042895451	6.061900E+01	  0.042895451	-7.925000E+01
170	  0.043091256	-4.612000E+00	  0.043091256	-4.702500E+01	  0.043091256	6.012500E+01	  0.043091256	-7.906700E+01
171	  0.043287061	-4.616000E+00	  0.043287061	-4.723500E+01	  0.043287061	5.980100E+01	  0.043287061	-7.883500E+01
172	  0.043482870	-4.611000E+00	  0.043482870	-4.749500E+01	  0.043482870	5.934600E+01	  0.043482870	-7.865400E+01
173	  0.043678675	-4.609000E+00	  0.043678675	-4.772200E+01	  0.043678675	5.896400E+01	  0.043678675	-7.847400E+01
174	  0.043874480	-4.605000E+00	  0.043874480	-4.793500E+01	  0.043874480	5.859600E+01	  0.043874480	-7.832500E+01
175	  0.044070289	-4.603000E+00	  0.044070289	-4.812200E+01	  0.044070289	5.828800E+01	  0.044070289	-7.817300E+01
176	  0.044266094	-4.601000E+00	  0.044266094	-4.830800E+01	  0.044266094	5.797800E+01	  0.044266094	-7.802800E+01
177	  0.044461899	-4.600000E+00	  0.044461899	-4.847500E+01	  0.044461899	5.771300E+01	  0.044461899	-7.787800E+01
178	  0.044657703	-4.609000E+00	  0.044657703	-4.867400E+01	  0.044657703	5.745300E+01	  0.044657703	-7.761000E+01
179	  0.044853516	-4.613000E+00	  0.044853516	-4.887000E+01	  0.044853516	5.717100E+01	  0.044853516	-7.739300E+01
180	  0.045049321	-4.619000E+00	  0.045049321	-4.908200E+01	  0.045049321	5.688700E+01	  0.045049321	-7.713000E+01
181	  0.045245126	-4.623000E+00	  0.045245126	-4.930800E+01	  0.045245126	5.656400E+01	  0.045245126	-7.689000E+01
182	  0.045440931	-4.630000E+00	  0.045440931	-4.951600E+01	  0.045440931	5.629000E+01	  0.045440931	-7.663200E+01
183	  0.045636740	-4.631000E+00	  0.045636740	-4.975700E+01	  0.045636740	5.593600E+01	  0.045636740	-7.640200E+01
184	  0.045832545	-4.636000E+00	  0.045832545	-4.999400E+01	  0.045832545	5.561400E+01	  0.045832545	-7.613900E+01
185	  0.046028350	-4.638000E+00	  0.046028350	-5.020800E+01	  0.046028350	5.531100E+01	  0.046028350	-7.592200E+01
186	  0.046224155	-4.637000E+00	  0.046224155	-5.046400E+01	  0.046224155	5.493400E+01	  0.046224155	-7.569800E+01
187	  0.046419963	-4.635000E+00	  0.046419963	-5.070300E+01	  0.046419963	5.457700E+01	  0.046419963	-7.549800E+01
188	  0.046615768	-4.631000E+00	  0.046615768	-5.098000E+01	  0.046615768	5.415500E+01	  0.046615768	-7.528500E+01
189	  0.046811573	-4.629000E+00	  0.046811573	-5.119200E+01	  0.046811573	5.384300E+01	  0.046811573	-7.511100E+01
190	  0.047007378	-4.623000E+00	  0.047007378	-5.142800E+01	  0.047007378	5.347200E+01	  0.047007378	-7.495200E+01
191	  0.047203191	-4.618000E+00	  0.047203191	-5.163900E+01	  0.047203191	5.315000E+01	  0.047203191	-7.480300E+01
192	  0.047398996	-4.615000E+00	  0.047398996	-5.184500E+01	  0.047398996	5.284500E+01	  0.047398996	-7.464100E+01
193	  0.047594801	-4.615000E+00	  0.047594801	-5.204800E+01	  0.047594801	5.256800E+01	  0.047594801	-7.445500E+01
194	  0.047790606	-4.611000E+00	  0.047790606	-5.223300E+01	  0.047790606	5.229500E+01	  0.047790606	-7.431500E+01
195	  0.047986414	-4.620000E+00	  0.047986414	-5.242400E+01	  0.047986414	5.208800E+01	  0.047986414	-7.406400E+01
196	  0.048182219	-4.622000E+00	  0.048182219	-5.260800E+01	  0.048182219	5.185500E+01	  0.048182219	-7.387500E+01
197	  0.048378024	-4.624000E+00	  0.048378024	-5.282100E+01	  0.048378024	5.158400E+01	  0.048378024	-7.366100E+01
198	  0.048573833	-4.630000E+00	  0.048573833	-5.303600E+01	  0.048573833	5.133300E+01	  0.048573833	-7.341600E+01
199	  0.048769638	-4.630000E+00	  0.048769638	-5.327500E+01	  0.048769638	5.102300E+01	  0.048769638	-7.319200E+01
200	  0.048965443	-4.632000E+00	  0.048965443	-5.346600E+01	  0.048965443	5.078400E+01	  0.048965443	-7.300200E+01
201	  0.049161248	-4.634000E+00	  0.049161248	-5.368300E+01	  0.049161248	5.051700E+01	  0.049161248	-7.278700E+01
202	  0.049357057	-4.636000E+00	  0.049357057	-5.389300E+01	  0.049357057	5.026400E+01	  0.049357057	-7.257400E+01
203	  0.049552862	-4.639000E+00	  0.049552862	-5.412600E+01	  0.049552862	4.998300E+01	  0.049552862	-7.234100E+01
204	  0.049748670	-4.637000E+00	  0.049748670	-5.432500E+01	  0.049748670	4.972300E+01	  0.049748670	-7.217200E+01
205	  0.049944475	-4.637000E+00	  0.049944475	-5.457000E+01	  0.049944475	4.941500E+01	  0.049944475	-7.195000E+01
206	  0.050140284	-4.638000E+00	  0.050140284	-5.479700E+01	  0.050140284	4.914400E+01	  0.050140284	-7.173200E+01
207	  0.050336089	-4.637000E+00	  0.050336089	-5.506900E+01	  0.050336089	4.880400E+01	  0.050336089	-7.149100E+01
208	  0.050531894	-4.637000E+00	  0.050531894	-5.529900E+01	  0.050531894	4.852400E+01	  0.050531894	-7.128300E+01
209	  0.050727699	-4.633000E+00	  0.050727699	-5.552100E+01	  0.050727699	4.823200E+01	  0.050727699	-7.111300E+01
210	  0.050923508	-4.631000E+00	  0.050923508	-5.575000E+01	  0.050923508	4.794500E+01	  0.050923508	-7.092300E+01
211	  0.051119313	-4.631000E+00	  0.051119313	-5.594700E+01	  0.051119313	4.771400E+01	  0.051119313	-7.074000E+01
212	  0.051315118	-4.628000E+00	  0.051315118	-5.615200E+01	  0.051315118	4.745400E+01	  0.051315118	-7.057800E+01
213	  0.051510923	-4.626000E+00	  0.051510923	-5.633100E+01	  0.051510923	4.723300E+01	  0.051510923	-7.043000E+01
214	  0.051706731	-4.626000E+00	  0.051706731	-5.651800E+01	  0.051706731	4.702000E+01	  0.051706731	-7.025700E+01
215	  0.051902536	-4.631000E+00	  0.051902536	-5.670600E+01	  0.051902536	4.683100E+01	  0.051902536	-7.005000E+01
216	  0.052098341	-4.632000E+00	  0.052098341	-5.691100E+01	  0.052098341	4.660200E+01	  0.052098341	-6.985700E+01
217	  0.052294150	-4.637000E+00	  0.052294150	-5.711800E+01	  0.052294150	4.640200E+01	  0.052294150	-6.962700E+01
218	  0.052489959	-4.642000E+00	  0.052489959	-5.733900E+01	  0.052489959	4.618400E+01	  0.052489959	-6.939000E+01
219	  0.052685764	-4.644000E+00	  0.052685764	-5.754900E+01	  0.052685764	4.596100E+01	  0.052685764	-6.918600E+01
220	  0.052881569	-4.650000E+00	  0.052881569	-5.777900E+01	  0.052881569	4.574100E+01	  0.052881569	-6.893600E+01
221	  0.053077377	-4.649000E+00	  0.053077377	-5.799800E+01	  0.053077377	4.549600E+01	  0.053077377	-6.874600E+01
222	  0.053273182	-4.652000E+00	  0.053273182	-5.825800E+01	  0.053273182	4.523000E+01	  0.053273182	-6.849200E+01
223	  0.053468987	-4.655000E+00	  0.053468987	-5.851700E+01	  0.053468987	4.496800E+01	  0.053468987	-6.824100E+01
224	  0.053664792	-4.651000E+00	  0.053664792	-5.876000E+01	  0.053664792	4.468700E+01	  0.053664792	-6.804900E+01
225	  0.053860601	-4.649000E+00	  0.053860601	-5.900800E+01	  0.053860601	4.441000E+01	  0.053860601	-6.784300E+01
226	  0.054056406	-4.647000E+00	  0.054056406	-5.923200E+01	  0.054056406	4.416900E+01	  0.054056406	-6.765000E+01
227	  0.054252211	-4.647000E+00	  0.054252211	-5.945000E+01	  0.054252211	4.394000E+01	  0.054252211	-6.745800E+01
228	  0.054448016	-4.642000E+00	  0.054448016	-5.967900E+01	  0.054448016	4.367700E+01	  0.054448016	-6.728500E+01
229	  0.054643828	-4.640000E+00	  0.054643828	-5.988300E+01	  0.054643828	4.345300E+01	  0.054643828	-6.712100E+01
230	  0.054839633	-4.639000E+00	  0.054839633	-6.005700E+01	  0.054839633	4.327100E+01	  0.054839633	-6.697100E+01
231	  0.055035438	-4.638000E+00	  0.055035438	-6.028500E+01	  0.055035438	4.303800E+01	  0.055035438	-6.677100E+01
232	  0.055231243	-4.641000E+00	  0.055231243	-6.047100E+01	  0.055231243	4.286700E+01	  0.055231243	-6.659100E+01
233	  0.055427052	-4.645000E+00	  0.055427052	-6.067000E+01	  0.055427052	4.269500E+01	  0.055427052	-6.638400E+01
234	  0.055622857	-4.647000E+00	  0.055622857	-6.088100E+01	  0.055622857	4.250100E+01	  0.055622857	-6.618200E+01
235	  0.055818662	-4.645000E+00	  0.055818662	-6.109000E+01	  0.055818662	4.228300E+01	  0.055818662	-6.601100E+01
236	  0.056014467	-4.649000E+00	  0.056014467	-6.129300E+01	  0.056014467	4.211000E+01	  0.056014467	-6.580600E+01
237	  0.056210276	-4.650000E+00	  0.056210276	-6.151000E+01	  0.056210276	4.190400E+01	  0.056210276	-6.561100E+01
238	  0.056406081	-4.654000E+00	  0.056406081	-6.171700E+01	  0.056406081	4.172900E+01	  0.056406081	-6.540500E+01
239	  0.056601886	-4.654000E+00	  0.056601886	-6.190300E+01	  0.056601886	4.155500E+01	  0.056601886	-6.523800E+01
240	  0.056797691	-4.655000E+00	  0.056797691	-6.215600E+01	  0.056797691	4.132300E+01	  0.056797691	-6.500900E+01
241	  0.056993503	-4.654000E+00	  0.056993503	-6.238800E+01	  0.056993503	4.110200E+01	  0.056993503	-6.481200E+01
242	  0.057189308	-4.656000E+00	  0.057189308	-6.263300E+01	  0.057189308	4.088100E+01	  0.057189308	-6.459000E+01
243	  0.057385113	-4.658000E+00	  0.057385113	-6.286800E+01	  0.057385113	4.067700E+01	  0.057385113	-6.437300E+01
244	  0.057580918	-4.656000E+00	  0.057580918	-6.308000E+01	  0.057580918	4.047600E+01	  0.057580918	-6.419700E+01
245	  0.057776727	-4.653000E+00	  0.057776727	-6.334200E+01	  0.057776727	4.022000E+01	  0.057776727	-6.399000E+01
246	  0.057972532	-4.654000E+00	  0.057972532	-6.352000E+01	  0.057972532	4.006700E+01	  0.057972532	-6.382800E+01
247	  0.058168337	-4.645000E+00	  0.058168337	-6.376100E+01	  0.058168337	3.980300E+01	  0.058168337	-6.367100E+01
248	  0.058364145	-4.650000E+00	  0.058364145	-6.396200E+01	  0.058364145	3.965500E+01	  0.058364145	-6.346700E+01
249	  0.058559950	-4.646000E+00	  0.058559950	-6.412900E+01	  0.058559950	3.948100E+01	  0.058559950	-6.335000E+01
250	  0.058755755	-4.643000E+00	  0.058755755	-6.434800E+01	  0.058755755	3.927900E+01	  0.058755755	-6.317300E+01
251	  0.058951560	-4.652000E+00	  0.058951560	-6.452400E+01	  0.058951560	3.917300E+01	  0.058951560	-6.297400E+01
252	  0.059147369	-4.647000E+00	  0.059147369	-6.473900E+01	  0.059147369	3.896300E+01	  0.059147369	-6.281600E+01
253	  0.059343174	-4.649000E+00	  0.059343174	-6.491200E+01	  0.059343174	3.882700E+01	  0.059343174	-6.265500E+01
254	  0.059538983	-4.654000E+00	  0.059538983	-6.514300E+01	  0.059538983	3.865800E+01	  0.059538983	-6.243200E+01
255	  0.059734788	-4.658000E+00	  0.059734788	-6.534200E+01	  0.059734788	3.851400E+01	  0.059734788	-6.224000E+01
256	  0.059930597	-4.660000E+00	  0.059930597	-6.554600E+01	  0.059930597	3.835900E+01	  0.059930597	-6.205000E+01
257	  0.060126401	-4.665000E+00	  0.060126401	-6.575500E+01	  0.060126401	3.821000E+01	  0.060126401	-6.184900E+01
258	  0.060322206	-4.666000E+00	  0.060322206	-6.600300E+01	  0.060322206	3.801300E+01	  0.060322206	-6.163200E+01
259	  0.060518011	-4.672000E+00	  0.060518011	-6.625500E+01	  0.060518011	3.784400E+01	  0.060518011	-6.138400E+01
260	  0.060713820	-4.666000E+00	  0.060713820	-6.647700E+01	  0.060713820	3.762900E+01	  0.060713820	-6.123100E+01
261	  0.060909625	-4.667000E+00	  0.060909625	-6.672100E+01	  0.060909625	3.743700E+01	  0.060909625	-6.102200E+01
262	  0.061105430	-4.671000E+00	  0.061105430	-6.696000E+01	  0.061105430	3.727200E+01	  0.061105430	-6.079900E+01
263	  0.061301235	-4.668000E+00	  0.061301235	-6.718400E+01	  0.061301235	3.708000E+01	  0.061301235	-6.062500E+01
264	  0.061497044	-4.668000E+00	  0.061497044	-6.737700E+01	  0.061497044	3.692900E+01	  0.061497044	-6.046300E+01
265	  0.061692849	-4.668000E+00	  0.061692849	-6.757800E+01	  0.061692849	3.676900E+01	  0.061692849	-6.029900E+01
266	  0.061888654	-4.664000E+00	  0.061888654	-6.780400E+01	  0.061888654	3.657200E+01	  0.061888654	-6.013100E+01
267	  0.062084462	-4.663000E+00	  0.062084462	-6.803200E+01	  0.062084462	3.639400E+01	  0.062084462	-5.994400E+01
268	  0.062280271	-4.668000E+00	  0.062280271	-6.822900E+01	  0.062280271	3.627500E+01	  0.062280271	-5.975300E+01
269	  0.062476076	-4.665000E+00	  0.062476076	-6.839200E+01	  0.062476076	3.613200E+01	  0.062476076	-5.963600E+01
270	  0.062671877	-4.669000E+00	  0.062671877	-6.861100E+01	  0.062671877	3.599200E+01	  0.062671877	-5.943300E+01
271	  0.062867686	-4.668000E+00	  0.062867686	-6.880900E+01	  0.062867686	3.583600E+01	  0.062867686	-5.927600E+01
272	  0.063063495	-4.669000E+00	  0.063063495	-6.905000E+01	  0.063063495	3.566700E+01	  0.063063495	-5.907100E+01
273	  0.063259304	-4.671000E+00	  0.063259304	-6.924200E+01	  0.063259304	3.553400E+01	  0.063259304	-5.890500E+01
274	  0.063455105	-4.674000E+00	  0.063455105	-6.943900E+01	  0.063455105	3.541100E+01	  0.063455105	-5.872600E+01
275	  0.063650914	-4.668000E+00	  0.063650914	-6.967900E+01	  0.063650914	3.520600E+01	  0.063650914	-5.855800E+01
276	  0.063846722	-4.671000E+00	  0.063846722	-6.992000E+01	  0.063846722	3.504600E+01	  0.063846722	-5.834900E+01
277	  0.064042524	-4.676000E+00	  0.064042524	-7.011200E+01	  0.064042524	3.493900E+01	  0.064042524	-5.816600E+01
278	  0.064238332	-4.677000E+00	  0.064238332	-7.036900E+01	  0.064238332	3.476100E+01	  0.064238332	-5.795400E+01
279	  0.064434141	-4.682000E+00	  0.064434141	-7.059700E+01	  0.064434141	3.462600E+01	  0.064434141	-5.774800E+01
280	  0.064629942	-4.678000E+00	  0.064629942	-7.084600E+01	  0.064629942	3.443200E+01	  0.064629942	-5.756600E+01
281	  0.064825751	-4.676000E+00	  0.064825751	-7.108800E+01	  0.064825751	3.425700E+01	  0.064825751	-5.737700E+01
282	  0.065021552	-4.677000E+00	  0.065021552	-7.131500E+01	  0.065021552	3.410600E+01	  0.065021552	-5.719000E+01
283	  0.065217361	-4.673000E+00	  0.065217361	-7.151900E+01	  0.065217361	3.394900E+01	  0.065217361	-5.704300E+01
284	  0.065413170	-4.672000E+00	  0.065413170	-7.171900E+01	  0.065413170	3.380600E+01	  0.065413170	-5.688900E+01
285	  0.065608978	-4.676000E+00	  0.065608978	-7.197200E+01	  0.065608978	3.365800E+01	  0.065608978	-5.666900E+01
286	  0.065804780	-4.673000E+00	  0.065804780	-7.216300E+01	  0.065804780	3.351300E+01	  0.065804780	-5.653100E+01
287	  0.066000588	-4.671000E+00	  0.066000588	-7.237100E+01	  0.066000588	3.336800E+01	  0.066000588	-5.637200E+01
288	  0.066196397	-4.673000E+00	  0.066196397	-7.257800E+01	  0.066196397	3.324500E+01	  0.066196397	-5.619700E+01
289	  0.066392198	-4.670000E+00	  0.066392198	-7.278300E+01	  0.066392198	3.309500E+01	  0.066392198	-5.604800E+01
290	  0.066588007	-4.671000E+00	  0.066588007	-7.295300E+01	  0.066588007	3.298900E+01	  0.066588007	-5.591000E+01
291	  0.066783816	-4.675000E+00	  0.066783816	-7.320400E+01	  0.066783816	3.284800E+01	  0.066783816	-5.569600E+01
292	  0.066979617	-4.679000E+00	  0.066979617	-7.339600E+01	  0.066979617	3.274800E+01	  0.066979617	-5.552700E+01
293	  0.067175426	-4.677000E+00	  0.067175426	-7.362200E+01	  0.067175426	3.259700E+01	  0.067175426	-5.535500E+01
294	  0.067371234	-4.682000E+00	  0.067371234	-7.384500E+01	  0.067371234	3.247800E+01	  0.067371234	-5.516300E+01
295	  0.067567036	-4.686000E+00	  0.067567036	-7.405900E+01	  0.067567036	3.236600E+01	  0.067567036	-5.497900E+01
296	  0.067762844	-4.692000E+00	  0.067762844	-7.431700E+01	  0.067762844	3.223900E+01	  0.067762844	-5.475200E+01
297	  0.067958646	-4.691000E+00	  0.067958646	-7.453300E+01	  0.067958646	3.209900E+01	  0.067958646	-5.459000E+01
298	  0.068154462	-4.692000E+00	  0.068154462	-7.477700E+01	  0.068154462	3.196000E+01	  0.068154462	-5.439300E+01
299	  0.068350263	-4.689000E+00	  0.068350263	-7.500100E+01	  0.068350263	3.181000E+01	  0.068350263	-5.423200E+01
300	  0.068546072	-4.695000E+00	  0.068546072	-7.522400E+01	  0.068546072	3.170400E+01	  0.068546072	-5.403700E+01
301	  0.068741873	-4.693000E+00	  0.068741873	-7.548500E+01	  0.068741873	3.153700E+01	  0.068741873	-5.384500E+01
302	  0.068937682	-4.695000E+00	  0.068937682	-7.568100E+01	  0.068937682	3.143500E+01	  0.068937682	-5.368400E+01
303	  0.069133483	-4.697000E+00	  0.069133483	-7.593000E+01	  0.069133483	3.129600E+01	  0.069133483	-5.348900E+01
304	  0.069329299	-4.694000E+00	  0.069329299	-7.610900E+01	  0.069329299	3.117600E+01	  0.069329299	-5.336300E+01
305	  0.069525100	-4.697000E+00	  0.069525100	-7.633700E+01	  0.069525100	3.106000E+01	  0.069525100	-5.317700E+01
306	  0.069720909	-4.691000E+00	  0.069720909	-7.655900E+01	  0.069720909	3.090400E+01	  0.069720909	-5.303000E+01
307	  0.069916710	-4.694000E+00	  0.069916710	-7.676100E+01	  0.069916710	3.080500E+01	  0.069916710	-5.286500E+01
308	  0.070112519	-4.693000E+00	  0.070112519	-7.693400E+01	  0.070112519	3.069800E+01	  0.070112519	-5.274000E+01
309	  0.070308320	-4.696000E+00	  0.070308320	-7.720400E+01	  0.070308320	3.056200E+01	  0.070308320	-5.252400E+01
310	  0.070504129	-4.695000E+00	  0.070504129	-7.741400E+01	  0.070504129	3.044100E+01	  0.070504129	-5.236800E+01
311	  0.070699938	-4.695000E+00	  0.070699938	-7.764900E+01	  0.070699938	3.031100E+01	  0.070699938	-5.219200E+01
312	  0.070895746	-4.697000E+00	  0.070895746	-7.784500E+01	  0.070895746	3.021000E+01	  0.070895746	-5.203900E+01
313	  0.071091555	-4.699000E+00	  0.071091555	-7.810100E+01	  0.071091555	3.008000E+01	  0.071091555	-5.184000E+01
314	  0.071287356	-4.697000E+00	  0.071287356	-7.832000E+01	  0.071287356	2.995500E+01	  0.071287356	-5.168100E+01
315	  0.071483165	-4.700000E+00	  0.071483165	-7.852900E+01	  0.071483165	2.985400E+01	  0.071483165	-5.151800E+01
316	  0.071678966	-4.701000E+00	  0.071678966	-7.877300E+01	  0.071678966	2.973100E+01	  0.071678966	-5.133100E+01
317	  0.071874775	-4.700000E+00	  0.071874775	-7.898800E+01	  0.071874775	2.961200E+01	  0.071874775	-5.117500E+01
318	  0.072070576	-4.704000E+00	  0.072070576	-7.924100E+01	  0.072070576	2.949500E+01	  0.072070576	-5.097600E+01
319	  0.072266392	-4.698000E+00	  0.072266392	-7.948000E+01	  0.072266392	2.934100E+01	  0.072266392	-5.082000E+01
320	  0.072462194	-4.699000E+00	  0.072462194	-7.973300E+01	  0.072462194	2.921700E+01	  0.072462194	-5.062900E+01
321	  0.072658002	-4.696000E+00	  0.072658002	-7.993800E+01	  0.072658002	2.909900E+01	  0.072658002	-5.048800E+01
322	  0.072853811	-4.695000E+00	  0.072853811	-8.014700E+01	  0.072853811	2.898600E+01	  0.072853811	-5.033800E+01
323	  0.073049612	-4.692000E+00	  0.073049612	-8.034200E+01	  0.073049612	2.887300E+01	  0.073049612	-5.020600E+01
324	  0.073245421	-4.693000E+00	  0.073245421	-8.054600E+01	  0.073245421	2.877400E+01	  0.073245421	-5.005400E+01
325	  0.073441222	-4.687000E+00	  0.073441222	-8.077300E+01	  0.073441222	2.863100E+01	  0.073441222	-4.990900E+01
326	  0.073637031	-4.688000E+00	  0.073637031	-8.092900E+01	  0.073637031	2.856000E+01	  0.073637031	-4.979100E+01
327	  0.073832840	-4.690000E+00	  0.073832840	-8.117000E+01	  0.073832840	2.844800E+01	  0.073832840	-4.961100E+01
328	  0.074028648	-4.688000E+00	  0.074028648	-8.135700E+01	  0.074028648	2.834900E+01	  0.074028648	-4.948000E+01
329	  0.074224450	-4.698000E+00	  0.074224450	-8.156000E+01	  0.074224450	2.829600E+01	  0.074224450	-4.930300E+01
330	  0.074420258	-4.693000E+00	  0.074420258	-8.178300E+01	  0.074420258	2.816300E+01	  0.074420258	-4.916000E+01
331	  0.074616060	-4.698000E+00	  0.074616060	-8.198200E+01	  0.074616060	2.809200E+01	  0.074616060	-4.900000E+01
332	  0.074811868	-4.699000E+00	  0.074811868	-8.222100E+01	  0.074811868	2.798300E+01	  0.074811868	-4.882500E+01
333	  0.075007670	-4.695000E+00	  0.075007670	-8.246900E+01	  0.075007670	2.784700E+01	  0.075007670	-4.865900E+01
334	  0.075203478	-4.707000E+00	  0.075203478	-8.268500E+01	  0.075203478	2.780200E+01	  0.075203478	-4.846700E+01
335	  0.075399294	-4.702000E+00	  0.075399294	-8.293600E+01	  0.075399294	2.765700E+01	  0.075399294	-4.830700E+01
336	  0.075595096	-4.703000E+00	  0.075595096	-8.312100E+01	  0.075595096	2.757900E+01	  0.075595096	-4.817100E+01
337	  0.075790904	-4.706000E+00	  0.075790904	-8.334600E+01	  0.075790904	2.748500E+01	  0.075790904	-4.800500E+01
338	  0.075986706	-4.710000E+00	  0.075986706	-8.359000E+01	  0.075986706	2.739500E+01	  0.075986706	-4.781800E+01
339	  0.076182514	-4.709000E+00	  0.076182514	-8.383900E+01	  0.076182514	2.727500E+01	  0.076182514	-4.764800E+01
340	  0.076378316	-4.707000E+00	  0.076378316	-8.405800E+01	  0.076378316	2.716700E+01	  0.076378316	-4.750000E+01
341	  0.076574124	-4.706000E+00	  0.076574124	-8.426400E+01	  0.076574124	2.707200E+01	  0.076574124	-4.735700E+01
342	  0.076769926	-4.700000E+00	  0.076769926	-8.449800E+01	  0.076769926	2.693800E+01	  0.076769926	-4.721200E+01
343	  0.076965742	-4.700000E+00	  0.076965742	-8.470900E+01	  0.076965742	2.684700E+01	  0.076965742	-4.706300E+01
344	  0.077161543	-4.699000E+00	  0.077161543	-8.493000E+01	  0.077161543	2.674300E+01	  0.077161543	-4.691400E+01
345	  0.077357352	-4.697000E+00	  0.077357352	-8.508600E+01	  0.077357352	2.666400E+01	  0.077357352	-4.681200E+01
346	  0.077553153	-4.698000E+00	  0.077553153	-8.531500E+01	  0.077553153	2.657200E+01	  0.077553153	-4.664900E+01
347	  0.077748962	-4.699000E+00	  0.077748962	-8.556300E+01	  0.077748962	2.647000E+01	  0.077748962	-4.647400E+01
348	  0.077944770	-4.698000E+00	  0.077944770	-8.575900E+01	  0.077944770	2.638200E+01	  0.077944770	-4.634200E+01
349	  0.078140572	-4.697000E+00	  0.078140572	-8.597300E+01	  0.078140572	2.628600E+01	  0.078140572	-4.619700E+01
350	  0.078336388	-4.698000E+00	  0.078336388	-8.621300E+01	  0.078336388	2.618800E+01	  0.078336388	-4.603000E+01
351	  0.078532189	-4.701000E+00	  0.078532189	-8.638300E+01	  0.078532189	2.613200E+01	  0.078532189	-4.590400E+01
352	  0.078727998	-4.703000E+00	  0.078727998	-8.662300E+01	  0.078727998	2.603900E+01	  0.078727998	-4.573600E+01
353	  0.078923799	-4.707000E+00	  0.078923799	-8.682300E+01	  0.078923799	2.597200E+01	  0.078923799	-4.558900E+01
354	  0.079119608	-4.704000E+00	  0.079119608	-8.704100E+01	  0.079119608	2.587300E+01	  0.079119608	-4.544700E+01
355	  0.079315409	-4.704000E+00	  0.079315409	-8.728900E+01	  0.079315409	2.577100E+01	  0.079315409	-4.527900E+01
356	  0.079511218	-4.701000E+00	  0.079511218	-8.751800E+01	  0.079511218	2.566200E+01	  0.079511218	-4.513300E+01
357	  0.079707019	-4.705000E+00	  0.079707019	-8.773300E+01	  0.079707019	2.559600E+01	  0.079707019	-4.497500E+01
358	  0.079902835	-4.700000E+00	  0.079902835	-8.794800E+01	  0.079902835	2.548400E+01	  0.079902835	-4.484500E+01
359	  0.080098644	-4.699000E+00	  0.080098644	-8.813400E+01	  0.080098644	2.540800E+01	  0.080098644	-4.472200E+01
360	  0.080294445	-4.694000E+00	  0.080294445	-8.835600E+01	  0.080294445	2.529900E+01	  0.080294445	-4.458500E+01
361	  0.080490254	-4.699000E+00	  0.080490254	-8.857800E+01	  0.080490254	2.523300E+01	  0.080490254	-4.442400E+01
362	  0.080686055	-4.693000E+00	  0.080686055	-8.874500E+01	  0.080686055	2.514000E+01	  0.080686055	-4.432800E+01
363	  0.080881864	-4.693000E+00	  0.080881864	-8.896900E+01	  0.080881864	2.505400E+01	  0.080881864	-4.417800E+01
364	  0.081077665	-4.695000E+00	  0.081077665	-8.912500E+01	  0.081077665	2.500300E+01	  0.081077665	-4.406900E+01
365	  0.081273474	-4.694000E+00	  0.081273474	-8.932800E+01	  0.081273474	2.492300E+01	  0.081273474	-4.393500E+01
366	  0.081469283	-4.698000E+00	  0.081469283	-8.952900E+01	  0.081469283	2.486000E+01	  0.081469283	-4.379400E+01
367	  0.081665091	-4.702000E+00	  0.081665091	-8.978600E+01	  0.081665091	2.478200E+01	  0.081665091	-4.361200E+01
368	  0.081860892	-4.708000E+00	  0.081860892	-8.998700E+01	  0.081860892	2.473200E+01	  0.081860892	-4.346500E+01
369	  0.082056701	-4.712000E+00	  0.082056701	-9.016900E+01	  0.082056701	2.468000E+01	  0.082056701	-4.333600E+01
370	  0.082252502	-4.712000E+00	  0.082252502	-9.037500E+01	  0.082252502	2.460700E+01	  0.082252502	-4.319900E+01
371	  0.082448311	-4.715000E+00	  0.082448311	-9.061100E+01	  0.082448311	2.453200E+01	  0.082448311	-4.303600E+01
372	  0.082644112	-4.720000E+00	  0.082644112	-9.083800E+01	  0.082644112	2.446900E+01	  0.082644112	-4.287700E+01
373	  0.082839929	-4.729000E+00	  0.082839929	-9.107200E+01	  0.082839929	2.442000E+01	  0.082839929	-4.270400E+01
374	  0.083035737	-4.725000E+00	  0.083035737	-9.127000E+01	  0.083035737	2.433100E+01	  0.083035737	-4.258500E+01
375	  0.083231539	-4.728000E+00	  0.083231539	-9.154000E+01	  0.083231539	2.424800E+01	  0.083231539	-4.240200E+01
376	  0.083427347	-4.727000E+00	  0.083427347	-9.177400E+01	  0.083427347	2.416100E+01	  0.083427347	-4.225300E+01
377	  0.083623149	-4.726000E+00	  0.083623149	-9.200200E+01	  0.083623149	2.407400E+01	  0.083623149	-4.210900E+01
378	  0.083818957	-4.723000E+00	  0.083818957	-9.221300E+01	  0.083818957	2.398800E+01	  0.083818957	-4.197900E+01
379	  0.084014758	-4.723000E+00	  0.084014758	-9.244600E+01	  0.084014758	2.390600E+01	  0.084014758	-4.182900E+01
380	  0.084210567	-4.722000E+00	  0.084210567	-9.265000E+01	  0.084210567	2.383100E+01	  0.084210567	-4.170100E+01
381	  0.084406376	-4.721000E+00	  0.084406376	-9.286500E+01	  0.084406376	2.375500E+01	  0.084406376	-4.156400E+01
382	  0.084602185	-4.722000E+00	  0.084602185	-9.306400E+01	  0.084602185	2.369000E+01	  0.084602185	-4.143600E+01
383	  0.084797986	-4.724000E+00	  0.084797986	-9.327600E+01	  0.084797986	2.362400E+01	  0.084797986	-4.129700E+01
384	  0.084993795	-4.721000E+00	  0.084993795	-9.348700E+01	  0.084993795	2.353900E+01	  0.084993795	-4.117000E+01
385	  0.085189603	-4.726000E+00	  0.085189603	-9.371200E+01	  0.085189603	2.348600E+01	  0.085189603	-4.101500E+01
386	  0.085385405	-4.726000E+00	  0.085385405	-9.392600E+01	  0.085385405	2.341600E+01	  0.085385405	-4.087900E+01
387	  0.085581213	-4.728000E+00	  0.085581213	-9.414800E+01	  0.085581213	2.334900E+01	  0.085581213	-4.073500E+01
388	  0.085777014	-4.729000E+00	  0.085777014	-9.436800E+01	  0.085777014	2.327700E+01	  0.085777014	-4.059500E+01
389	  0.085972831	-4.730000E+00	  0.085972831	-9.458800E+01	  0.085972831	2.321100E+01	  0.085972831	-4.045400E+01
390	  0.086168632	-4.733000E+00	  0.086168632	-9.481600E+01	  0.086168632	2.314900E+01	  0.086168632	-4.030400E+01
391	  0.086364441	-4.733000E+00	  0.086364441	-9.504500E+01	  0.086364441	2.307400E+01	  0.086364441	-4.016100E+01
392	  0.086560242	-4.737000E+00	  0.086560242	-9.524400E+01	  0.086560242	2.302600E+01	  0.086560242	-4.002900E+01
393	  0.086756051	-4.737000E+00	  0.086756051	-9.548100E+01	  0.086756051	2.295000E+01	  0.086756051	-3.988200E+01
394	  0.086951852	-4.739000E+00	  0.086951852	-9.572100E+01	  0.086951852	2.288400E+01	  0.086951852	-3.972700E+01
395	  0.087147661	-4.732000E+00	  0.087147661	-9.595900E+01	  0.087147661	2.277900E+01	  0.087147661	-3.959400E+01
396	  0.087343477	-4.733000E+00	  0.087343477	-9.615800E+01	  0.087343477	2.272300E+01	  0.087343477	-3.946800E+01
397	  0.087539278	-4.733000E+00	  0.087539278	-9.637900E+01	  0.087539278	2.265300E+01	  0.087539278	-3.933200E+01
398	  0.087735087	-4.730000E+00	  0.087735087	-9.657800E+01	  0.087735087	2.257900E+01	  0.087735087	-3.921600E+01
399	  0.087930888	-4.733000E+00	  0.087930888	-9.679000E+01	  0.087930888	2.252400E+01	  0.087930888	-3.908000E+01
400	  0.088126697	-4.730000E+00	  0.088126697	-9.697800E+01	  0.088126697	2.245600E+01	  0.088126697	-3.896900E+01
401	  0.088322498	-4.735000E+00	  0.088322498	-9.722400E+01	  0.088322498	2.239900E+01	  0.088322498	-3.881000E+01
402	  0.088518307	-4.730000E+00	  0.088518307	-9.742500E+01	  0.088518307	2.232000E+01	  0.088518307	-3.869600E+01
403	  0.088714108	-4.737000E+00	  0.088714108	-9.763400E+01	  0.088714108	2.228600E+01	  0.088714108	-3.855500E+01
404	  0.088909924	-4.738000E+00	  0.088909924	-9.783900E+01	  0.088909924	2.222800E+01	  0.088909924	-3.842800E+01
405	  0.089105725	-4.745000E+00	  0.089105725	-9.805300E+01	  0.089105725	2.219000E+01	  0.089105725	-3.828600E+01
406	  0.089301534	-4.744000E+00	  0.089301534	-9.827400E+01	  0.089301534	2.212300E+01	  0.089301534	-3.815300E+01
407	  0.089497335	-4.752000E+00	  0.089497335	-9.849600E+01	  0.089497335	2.208800E+01	  0.089497335	-3.800400E+01
408	  0.089693144	-4.753000E+00	  0.089693144	-9.872200E+01	  0.089693144	2.202800E+01	  0.089693144	-3.786500E+01
409	  0.089888945	-4.757000E+00	  0.089888945	-9.894900E+01	  0.089888945	2.197600E+01	  0.089888945	-3.772200E+01
410	  0.090084754	-4.758000E+00	  0.090084754	-9.917500E+01	  0.090084754	2.191600E+01	  0.090084754	-3.758400E+01
411	  0.090280563	-4.762000E+00	  0.090280563	-9.941500E+01	  0.090280563	2.186100E+01	  0.090280563	-3.743400E+01
412	  0.090476371	-4.763000E+00	  0.090476371	-9.962900E+01	  0.090476371	2.180400E+01	  0.090476371	-3.730400E+01
413	  0.090672180	-4.760000E+00	  0.090672180	-9.990100E+01	  0.090672180	2.171700E+01	  0.090672180	-3.714700E+01
414	  0.090867981	-4.763000E+00	  0.090867981	-1.001030E+02	  0.090867981	2.167200E+01	  0.090867981	-3.702100E+01
415	  0.091063790	-4.764000E+00	  0.091063790	-1.003720E+02	  0.091063790	2.160300E+01	  0.091063790	-3.685900E+01
416	  0.091259591	-4.761000E+00	  0.091259591	-1.005770E+02	  0.091259591	2.153400E+01	  0.091259591	-3.674400E+01
417	  0.091455400	-4.760000E+00	  0.091455400	-1.007870E+02	  0.091455400	2.147000E+01	  0.091455400	-3.662300E+01
418	  0.091651201	-4.764000E+00	  0.091651201	-1.010380E+02	  0.091651201	2.141900E+01	  0.091651201	-3.646600E+01
419	  0.091847017	-4.760000E+00	  0.091847017	-1.012370E+02	  0.091847017	2.134800E+01	  0.091847017	-3.635700E+01
420	  0.092042819	-4.763000E+00	  0.092042819	-1.014720E+02	  0.092042819	2.129800E+01	  0.092042819	-3.621300E+01
421	  0.092238627	-4.761000E+00	  0.092238627	-1.017070E+02	  0.092238627	2.122600E+01	  0.092238627	-3.608000E+01
422	  0.092434436	-4.761000E+00	  0.092434436	-1.019390E+02	  0.092434436	2.116200E+01	  0.092434436	-3.594500E+01
423	  0.092630237	-4.768000E+00	  0.092630237	-1.021550E+02	  0.092630237	2.113200E+01	  0.092630237	-3.580700E+01
424	  0.092826046	-4.765000E+00	  0.092826046	-1.023540E+02	  0.092826046	2.107100E+01	  0.092826046	-3.569500E+01
425	  0.093021847	-4.767000E+00	  0.093021847	-1.025830E+02	  0.093021847	2.101800E+01	  0.093021847	-3.555800E+01
426	  0.093217656	-4.767000E+00	  0.093217656	-1.028030E+02	  0.093217656	2.095900E+01	  0.093217656	-3.543200E+01
427	  0.093413465	-4.767000E+00	  0.093413465	-1.030420E+02	  0.093413465	2.090000E+01	  0.093413465	-3.529300E+01
428	  0.093609273	-4.771000E+00	  0.093609273	-1.032770E+02	  0.093609273	2.085200E+01	  0.093609273	-3.515100E+01
429	  0.093805075	-4.768000E+00	  0.093805075	-1.035170E+02	  0.093805075	2.078100E+01	  0.093805075	-3.501700E+01
430	  0.094000883	-4.770000E+00	  0.094000883	-1.037560E+02	  0.094000883	2.072600E+01	  0.094000883	-3.487800E+01
431	  0.094196685	-4.768000E+00	  0.094196685	-1.039460E+02	  0.094196685	2.067100E+01	  0.094196685	-3.477300E+01
432	  0.094392493	-4.772000E+00	  0.094392493	-1.042080E+02	  0.094392493	2.062000E+01	  0.094392493	-3.461600E+01
433	  0.094588295	-4.767000E+00	  0.094588295	-1.044120E+02	  0.094588295	2.055300E+01	  0.094588295	-3.450700E+01
434	  0.094784103	-4.768000E+00	  0.094784103	-1.046540E+02	  0.094784103	2.049600E+01	  0.094784103	-3.436800E+01
435	  0.094979919	-4.769000E+00	  0.094979919	-1.048800E+02	  0.094979919	2.044300E+01	  0.094979919	-3.423800E+01
436	  0.095175721	-4.768000E+00	  0.095175721	-1.050860E+02	  0.095175721	2.039100E+01	  0.095175721	-3.412200E+01
437	  0.095371529	-4.774000E+00	  0.095371529	-1.052940E+02	  0.095371529	2.036200E+01	  0.095371529	-3.399500E+01
438	  0.095567331	-4.768000E+00	  0.095567331	-1.055290E+02	  0.095567331	2.028300E+01	  0.095567331	-3.387200E+01
439	  0.095763139	-4.767000E+00	  0.095763139	-1.057240E+02	  0.095763139	2.023300E+01	  0.095763139	-3.376300E+01
440	  0.095958941	-4.767000E+00	  0.095958941	-1.059320E+02	  0.095958941	2.018500E+01	  0.095958941	-3.364600E+01
441	  0.096154749	-4.772000E+00	  0.096154749	-1.061950E+02	  0.096154749	2.014100E+01	  0.096154749	-3.349000E+01
442	  0.096350558	-4.777000E+00	  0.096350558	-1.063970E+02	  0.096350558	2.011100E+01	  0.096350558	-3.337000E+01
443	  0.096546367	-4.772000E+00	  0.096546367	-1.066140E+02	  0.096546367	2.004200E+01	  0.096546367	-3.325600E+01
444	  0.096742168	-4.780000E+00	  0.096742168	-1.068130E+02	  0.096742168	2.002700E+01	  0.096742168	-3.313200E+01
445	  0.096937977	-4.780000E+00	  0.096937977	-1.070640E+02	  0.096937977	1.996600E+01	  0.096937977	-3.299300E+01
446	  0.097133778	-4.781000E+00	  0.097133778	-1.072960E+02	  0.097133778	1.992000E+01	  0.097133778	-3.286100E+01
447	  0.097329587	-4.786000E+00	  0.097329587	-1.075190E+02	  0.097329587	1.988400E+01	  0.097329587	-3.273100E+01
448	  0.097525395	-4.783000E+00	  0.097525395	-1.077510E+02	  0.097525395	1.982300E+01	  0.097525395	-3.260600E+01
449	  0.097721197	-4.788000E+00	  0.097721197	-1.079760E+02	  0.097721197	1.978900E+01	  0.097721197	-3.247500E+01
450	  0.097917013	-4.789000E+00	  0.097917013	-1.082050E+02	  0.097917013	1.974300E+01	  0.097917013	-3.234700E+01
451	  0.098112814	-4.783000E+00	  0.098112814	-1.084730E+02	  0.098112814	1.965900E+01	  0.098112814	-3.220900E+01
452	  0.098308623	-4.787000E+00	  0.098308623	-1.086570E+02	  0.098308623	1.963600E+01	  0.098308623	-3.210100E+01
453	  0.098504424	-4.785000E+00	  0.098504424	-1.089110E+02	  0.098504424	1.957200E+01	  0.098504424	-3.196500E+01
454	  0.098700233	-4.792000E+00	  0.098700233	-1.091470E+02	  0.098700233	1.954400E+01	  0.098700233	-3.182600E+01
455	  0.098896034	-4.786000E+00	  0.098896034	-1.093720E+02	  0.098896034	1.947700E+01	  0.098896034	-3.171100E+01
456	  0.099091843	-4.785000E+00	  0.099091843	-1.096060E+02	  0.099091843	1.942300E+01	  0.099091843	-3.158500E+01
457	  0.099287644	-4.779000E+00	  0.099287644	-1.098150E+02	  0.099287644	1.935400E+01	  0.099287644	-3.148000E+01
458	  0.099483460	-4.787000E+00	  0.099483460	-1.100320E+02	  0.099483460	1.933800E+01	  0.099483460	-3.135100E+01
459	  0.099679269	-4.788000E+00	  0.099679269	-1.102890E+02	  0.099679269	1.928800E+01	  0.099679269	-3.121000E+01
460	  0.099875070	-4.781000E+00	  0.099875070	-1.104390E+02	  0.099875070	1.923300E+01	  0.099875070	-3.113800E+01
461	  0.100070879	-4.781000E+00	  0.100070879	-1.107300E+02	  0.100070879	1.917100E+01	  0.100070879	-3.098100E+01
462	  0.100266680	-4.789000E+00	  0.100266680	-1.109390E+02	  0.100266680	1.915700E+01	  0.100266680	-3.085700E+01
463	  0.100462489	-4.784000E+00	  0.100462489	-1.111890E+02	  0.100462489	1.908600E+01	  0.100462489	-3.073100E+01
464	  0.100658290	-4.785000E+00	  0.100658290	-1.114240E+02	  0.100658290	1.904100E+01	  0.100658290	-3.060300E+01
465	  0.100854106	-4.788000E+00	  0.100854106	-1.116640E+02	  0.100854106	1.900300E+01	  0.100854106	-3.047000E+01
466	  0.101049908	-4.785000E+00	  0.101049908	-1.118730E+02	  0.101049908	1.895200E+01	  0.101049908	-3.036200E+01
467	  0.101245716	-4.788000E+00	  0.101245716	-1.121130E+02	  0.101245716	1.891400E+01	  0.101245716	-3.023000E+01
468	  0.101441517	-4.779000E+00	  0.101441517	-1.123450E+02	  0.101441517	1.883700E+01	  0.101441517	-3.011800E+01
469	  0.101637326	-4.781000E+00	  0.101637326	-1.125250E+02	  0.101637326	1.880700E+01	  0.101637326	-3.002000E+01
470	  0.101833127	-4.780000E+00	  0.101833127	-1.127520E+02	  0.101833127	1.876000E+01	  0.101833127	-2.990000E+01
471	  0.102028936	-4.786000E+00	  0.102028936	-1.129990E+02	  0.102028936	1.873100E+01	  0.102028936	-2.976200E+01
472	  0.102224737	-4.783000E+00	  0.102224737	-1.132160E+02	  0.102224737	1.867900E+01	  0.102224737	-2.965100E+01
473	  0.102420554	-4.786000E+00	  0.102420554	-1.134990E+02	  0.102420554	1.863500E+01	  0.102420554	-2.949800E+01
474	  0.102616362	-4.782000E+00	  0.102616362	-1.136590E+02	  0.102616362	1.859100E+01	  0.102616362	-2.941800E+01
475	  0.102812164	-4.786000E+00	  0.102812164	-1.139160E+02	  0.102812164	1.855600E+01	  0.102812164	-2.927800E+01
476	  0.103007972	-4.782000E+00	  0.103007972	-1.141350E+02	  0.103007972	1.850100E+01	  0.103007972	-2.916700E+01
477	  0.103203773	-4.783000E+00	  0.103203773	-1.143820E+02	  0.103203773	1.845700E+01	  0.103203773	-2.903800E+01
478	  0.103399582	-4.790000E+00	  0.103399582	-1.145450E+02	  0.103399582	1.845100E+01	  0.103399582	-2.894300E+01
479	  0.103595383	-4.791000E+00	  0.103595383	-1.147990E+02	  0.103595383	1.840700E+01	  0.103595383	-2.880900E+01
480	  0.103791192	-4.782000E+00	  0.103791192	-1.150130E+02	  0.103791192	1.833900E+01	  0.103791192	-2.870800E+01
481	  0.103987001	-4.784000E+00	  0.103987001	-1.152310E+02	  0.103987001	1.830400E+01	  0.103987001	-2.859200E+01
482	  0.104182810	-4.783000E+00	  0.104182810	-1.154650E+02	  0.104182810	1.825700E+01	  0.104182810	-2.847200E+01
483	  0.104378611	-4.783000E+00	  0.104378611	-1.156380E+02	  0.104378611	1.822600E+01	  0.104378611	-2.838200E+01
484	  0.104574420	-4.787000E+00	  0.104574420	-1.158630E+02	  0.104574420	1.820200E+01	  0.104574420	-2.826000E+01
485	  0.104770228	-4.795000E+00	  0.104770228	-1.161370E+02	  0.104770228	1.817800E+01	  0.104770228	-2.810900E+01
486	  0.104966030	-4.790000E+00	  0.104966030	-1.163190E+02	  0.104966030	1.812900E+01	  0.104966030	-2.802100E+01
487	  0.105161838	-4.786000E+00	  0.105161838	-1.165770E+02	  0.105161838	1.806900E+01	  0.105161838	-2.789300E+01
488	  0.105357639	-4.786000E+00	  0.105357639	-1.167320E+02	  0.105357639	1.804300E+01	  0.105357639	-2.781300E+01
489	  0.105553456	-4.791000E+00	  0.105553456	-1.169940E+02	  0.105553456	1.801500E+01	  0.105553456	-2.767200E+01
490	  0.105749257	-4.793000E+00	  0.105749257	-1.172580E+02	  0.105749257	1.797600E+01	  0.105749257	-2.753500E+01
491	  0.105945066	-4.790000E+00	  0.105945066	-1.174610E+02	  0.105945066	1.793000E+01	  0.105945066	-2.743400E+01
492	  0.106140867	-4.788000E+00	  0.106140867	-1.176820E+02	  0.106140867	1.788400E+01	  0.106140867	-2.732400E+01
493	  0.106336676	-4.796000E+00	  0.106336676	-1.179230E+02	  0.106336676	1.787000E+01	  0.106336676	-2.719200E+01
494	  0.106532477	-4.796000E+00	  0.106532477	-1.181170E+02	  0.106532477	1.783800E+01	  0.106532477	-2.709300E+01
495	  0.106728286	-4.792000E+00	  0.106728286	-1.183060E+02	  0.106728286	1.779300E+01	  0.106728286	-2.700200E+01
496	  0.106924094	-4.791000E+00	  0.106924094	-1.185410E+02	  0.106924094	1.775100E+01	  0.106924094	-2.688300E+01
497	  0.107119903	-4.793000E+00	  0.107119903	-1.188070E+02	  0.107119903	1.771300E+01	  0.107119903	-2.674600E+01
498	  0.107315712	-4.791000E+00	  0.107315712	-1.190040E+02	  0.107315712	1.767400E+01	  0.107315712	-2.664800E+01
499	  0.107511513	-4.795000E+00	  0.107511513	-1.192580E+02	  0.107511513	1.764400E+01	  0.107511513	-2.651600E+01
500	  0.107707322	-4.794000E+00	  0.107707322	-1.194210E+02	  0.107707322	1.761400E+01	  0.107707322	-2.643500E+01
501	  0.107903123	-4.799000E+00	  0.107903123	-1.196900E+02	  0.107903123	1.758700E+01	  0.107903123	-2.629400E+01
