! Anritsu VNA Master:             	Model: MS2036C/10/77
! SN:             	1601066
! /card0/usr/255.ew.n.r50.2_1.txt
! Existing Calibration Information:
! TYPE:             	Current Settings	Active Cal Settings
! TIME:             	12/17/2017 06:54:30 PM	12/17/2017 06:38:14 PM
! INTERNAL TEMP:    	42.8 C	43.8 C
! # POINTS:         	501	501
! START FREQ:       	10.000 MHz	10.000 MHz
! STOP FREQ:        	107.903 125 MHz	107.903 125 MHz
! SOURCE POWER:     	High	High
! IFBW:             	100 Hz	100 Hz
! AVG FACTOR:       	  1 	  1 
! REF PLANE 1:      	0 mm	0 mm
! REF PLANE 2:      	0 mm	0 mm
! CAL TYPE:         	Full S11	Full S11
! CAL METHOD:       	SOLT	SOLT
! CAL LINE TYPE:    	Coax	Coax
! DUT PORT 1:       	N-Conn(F)	N-Conn(F)
! DUT PORT 2:       	K-Conn(F)	K-Conn(F)
! CAL STATUS:       	OK: Accuracy High	--
! PROP-V:       	0.700
! CABLE LOSS:       	0.000 dB/m
! REF IMPEDANCE:       	50.0
! Trace Specific Parameters:	TR1	TR2	TR3	TR4
! TRACE.#.Y (GRAPH TYPE)	LOG MAG	PHASE	REAL IMPEDANCE	IMAGINARY IMPEDANCE
! TRACE.#.X 	FREQ.GHZ	FREQ.GHZ	FREQ.GHZ	FREQ.GHZ
! S-PARAMETER	S11	S11	S11	S11
! SMOOTH/APERTURE %	0	0	0	0
! WINDOW	NSL	NSL	NSL	NSL
! GATING	OFF	OFF	OFF	OFF
! FGTD	OFF	OFF	OFF	OFF
Marker Information per Trace:	TR1	TR2	TR3	TR4
!MK1	--	--	--	--
!MK2	--	--	--	--
!MK3	--	--	--	--
!MK4	--	--	--	--
!MK5	--	--	--	--
!MK6	--	--	--	--
!MK7	--	--	--	--
!MK8	--	--	--	--
PNT	TR1.FREQ.GHZ	TR1.LOG MAG.dB	TR2.FREQ.GHZ	TR2.PHASE.deg	TR3.FREQ.GHZ	TR3.REAL IMPEDANCE.ohm	TR4.FREQ.GHZ	TR4.IMAGINARY IMPEDANCE.ohm
1	  0.010000000	-4.483800E+01	  0.010000000	4.315500E+01	  0.010000000	5.041800E+01	  0.010000000	3.950000E-01
2	  0.010195807	-4.417200E+01	  0.010195807	4.342600E+01	  0.010195807	5.044900E+01	  0.010195807	4.290000E-01
3	  0.010391613	-4.382700E+01	  0.010391613	4.289200E+01	  0.010391613	5.047100E+01	  0.010391613	4.420000E-01
4	  0.010587418	-4.362400E+01	  0.010587418	4.576000E+01	  0.010587418	5.045900E+01	  0.010587418	4.760000E-01
5	  0.010783225	-4.352800E+01	  0.010783225	4.898600E+01	  0.010783225	5.043600E+01	  0.010783225	5.070000E-01
6	  0.010979031	-4.316500E+01	  0.010979031	4.760500E+01	  0.010979031	5.046700E+01	  0.010979031	5.170000E-01
7	  0.011174837	-4.275900E+01	  0.011174837	4.884400E+01	  0.011174837	5.047800E+01	  0.011174837	5.530000E-01
8	  0.011370643	-4.267500E+01	  0.011370643	4.914100E+01	  0.011370643	5.047900E+01	  0.011370643	5.610000E-01
9	  0.011566450	-4.242300E+01	  0.011566450	5.127700E+01	  0.011566450	5.047100E+01	  0.011566450	5.950000E-01
10	  0.011762256	-4.227000E+01	  0.011762256	5.347000E+01	  0.011762256	5.045600E+01	  0.011762256	6.240000E-01
11	  0.011958062	-4.228600E+01	  0.011958062	5.438200E+01	  0.011958062	5.044500E+01	  0.011958062	6.300000E-01
12	  0.012153869	-4.215400E+01	  0.012153869	5.502100E+01	  0.012153869	5.044500E+01	  0.012153869	6.450000E-01
13	  0.012349674	-4.219200E+01	  0.012349674	5.743900E+01	  0.012349674	5.041500E+01	  0.012349674	6.600000E-01
14	  0.012545481	-4.212600E+01	  0.012545481	5.767300E+01	  0.012545481	5.041500E+01	  0.012545481	6.670000E-01
15	  0.012741288	-4.216000E+01	  0.012741288	5.863300E+01	  0.012741288	5.040300E+01	  0.012741288	6.710000E-01
16	  0.012937094	-4.225500E+01	  0.012937094	5.966100E+01	  0.012937094	5.038600E+01	  0.012937094	6.700000E-01
17	  0.013132900	-4.247500E+01	  0.013132900	5.964200E+01	  0.013132900	5.037700E+01	  0.013132900	6.530000E-01
18	  0.013328707	-4.254200E+01	  0.013328707	6.058900E+01	  0.013328707	5.036300E+01	  0.013328707	6.540000E-01
19	  0.013524513	-4.272600E+01	  0.013524513	6.073400E+01	  0.013524513	5.035400E+01	  0.013524513	6.410000E-01
20	  0.013720319	-4.290300E+01	  0.013720319	5.938400E+01	  0.013720319	5.036200E+01	  0.013720319	6.200000E-01
21	  0.013916126	-4.284000E+01	  0.013916126	5.900000E+01	  0.013916126	5.036800E+01	  0.013916126	6.220000E-01
22	  0.014111931	-4.292700E+01	  0.014111931	5.814700E+01	  0.014111931	5.037400E+01	  0.014111931	6.100000E-01
23	  0.014307737	-4.303100E+01	  0.014307737	5.687300E+01	  0.014307737	5.038300E+01	  0.014307737	5.950000E-01
24	  0.014503544	-4.311500E+01	  0.014503544	5.514000E+01	  0.014503544	5.039700E+01	  0.014503544	5.770000E-01
25	  0.014699350	-4.287600E+01	  0.014699350	5.471000E+01	  0.014699350	5.041300E+01	  0.014699350	5.910000E-01
26	  0.014895156	-4.297800E+01	  0.014895156	5.314200E+01	  0.014895156	5.042400E+01	  0.014895156	5.720000E-01
27	  0.015090963	-4.285800E+01	  0.015090963	5.187500E+01	  0.015090963	5.044200E+01	  0.015090963	5.710000E-01
28	  0.015286769	-4.275000E+01	  0.015286769	5.013200E+01	  0.015286769	5.046600E+01	  0.015286769	5.640000E-01
29	  0.015482575	-4.259700E+01	  0.015482575	4.834300E+01	  0.015482575	5.049200E+01	  0.015482575	5.590000E-01
30	  0.015678382	-4.252700E+01	  0.015678382	4.818600E+01	  0.015678382	5.049700E+01	  0.015678382	5.620000E-01
31	  0.015874187	-4.210600E+01	  0.015874187	4.703500E+01	  0.015874187	5.053400E+01	  0.015874187	5.800000E-01
32	  0.016069993	-4.192800E+01	  0.016069993	4.581600E+01	  0.016069993	5.055700E+01	  0.016069993	5.800000E-01
33	  0.016265800	-4.189800E+01	  0.016265800	4.632900E+01	  0.016265800	5.055400E+01	  0.016265800	5.870000E-01
34	  0.016461605	-4.139200E+01	  0.016461605	4.610600E+01	  0.016461605	5.059000E+01	  0.016461605	6.210000E-01
35	  0.016657412	-4.124300E+01	  0.016657412	4.603300E+01	  0.016657412	5.060100E+01	  0.016657412	6.310000E-01
36	  0.016853219	-4.096700E+01	  0.016853219	4.668900E+01	  0.016853219	5.061300E+01	  0.016853219	6.580000E-01
37	  0.017049024	-4.065600E+01	  0.017049024	4.639100E+01	  0.017049024	5.063900E+01	  0.017049024	6.790000E-01
38	  0.017244833	-4.051200E+01	  0.017244833	4.654800E+01	  0.017244833	5.064700E+01	  0.017244833	6.930000E-01
39	  0.017440638	-4.039300E+01	  0.017440638	4.697200E+01	  0.017440638	5.065100E+01	  0.017440638	7.070000E-01
40	  0.017636444	-4.026700E+01	  0.017636444	4.875900E+01	  0.017636444	5.063700E+01	  0.017636444	7.380000E-01
41	  0.017832249	-4.016500E+01	  0.017832249	4.776100E+01	  0.017832249	5.065800E+01	  0.017832249	7.360000E-01
42	  0.018028056	-3.990000E+01	  0.018028056	4.930000E+01	  0.018028056	5.065700E+01	  0.018028056	7.770000E-01
43	  0.018223861	-3.975300E+01	  0.018223861	4.960400E+01	  0.018223861	5.066400E+01	  0.018223861	7.940000E-01
44	  0.018419670	-3.980800E+01	  0.018419670	4.999600E+01	  0.018419670	5.065500E+01	  0.018419670	7.930000E-01
45	  0.018615475	-3.982500E+01	  0.018615475	5.167400E+01	  0.018615475	5.063000E+01	  0.018615475	8.100000E-01
46	  0.018811282	-3.971600E+01	  0.018811282	5.084600E+01	  0.018811282	5.065000E+01	  0.018811282	8.110000E-01
47	  0.019007087	-3.978900E+01	  0.019007087	5.223500E+01	  0.019007087	5.062400E+01	  0.019007087	8.200000E-01
48	  0.019202894	-3.976000E+01	  0.019202894	5.368700E+01	  0.019202894	5.060500E+01	  0.019202894	8.380000E-01
49	  0.019398699	-3.987900E+01	  0.019398699	5.368700E+01	  0.019398699	5.059700E+01	  0.019398699	8.260000E-01
50	  0.019594505	-3.983700E+01	  0.019594505	5.370100E+01	  0.019594505	5.060000E+01	  0.019594505	8.310000E-01
51	  0.019790314	-3.988200E+01	  0.019790314	5.392000E+01	  0.019790314	5.059300E+01	  0.019790314	8.290000E-01
52	  0.019986119	-3.988800E+01	  0.019986119	5.357800E+01	  0.019986119	5.059800E+01	  0.019986119	8.240000E-01
53	  0.020181926	-4.004700E+01	  0.020181926	5.357500E+01	  0.020181926	5.058700E+01	  0.020181926	8.090000E-01
54	  0.020377731	-4.016400E+01	  0.020377731	5.234300E+01	  0.020377731	5.059600E+01	  0.020377731	7.860000E-01
55	  0.020573538	-4.007500E+01	  0.020573538	5.153000E+01	  0.020573538	5.061400E+01	  0.020573538	7.850000E-01
56	  0.020769343	-4.017700E+01	  0.020769343	5.224000E+01	  0.020769343	5.059700E+01	  0.020769343	7.830000E-01
57	  0.020965151	-4.017200E+01	  0.020965151	5.055300E+01	  0.020965151	5.062000E+01	  0.020965151	7.660000E-01
58	  0.021160956	-4.011800E+01	  0.021160956	4.969900E+01	  0.021160956	5.063600E+01	  0.021160956	7.620000E-01
59	  0.021356763	-4.007000E+01	  0.021356763	4.812000E+01	  0.021356763	5.066100E+01	  0.021356763	7.480000E-01
60	  0.021552568	-4.001500E+01	  0.021552568	4.812500E+01	  0.021552568	5.066500E+01	  0.021552568	7.530000E-01
61	  0.021748375	-3.990200E+01	  0.021748375	4.682300E+01	  0.021748375	5.069100E+01	  0.021748375	7.470000E-01
62	  0.021944180	-3.961800E+01	  0.021944180	4.648900E+01	  0.021944180	5.071800E+01	  0.021944180	7.680000E-01
63	  0.022139989	-3.967800E+01	  0.022139989	4.593700E+01	  0.022139989	5.072100E+01	  0.022139989	7.560000E-01
64	  0.022335794	-3.935100E+01	  0.022335794	4.540800E+01	  0.022335794	5.075600E+01	  0.022335794	7.790000E-01
65	  0.022531601	-3.920700E+01	  0.022531601	4.409000E+01	  0.022531601	5.078700E+01	  0.022531601	7.740000E-01
66	  0.022727406	-3.894900E+01	  0.022727406	4.468800E+01	  0.022727406	5.080200E+01	  0.022727406	8.060000E-01
67	  0.022923212	-3.885000E+01	  0.022923212	4.440300E+01	  0.022923212	5.081500E+01	  0.022923212	8.110000E-01
68	  0.023119017	-3.855600E+01	  0.023119017	4.524800E+01	  0.023119017	5.083100E+01	  0.023119017	8.520000E-01
69	  0.023314826	-3.845800E+01	  0.023314826	4.522800E+01	  0.023314826	5.084000E+01	  0.023314826	8.620000E-01
70	  0.023510631	-3.828400E+01	  0.023510631	4.585600E+01	  0.023510631	5.084700E+01	  0.023510631	8.890000E-01
71	  0.023706438	-3.809100E+01	  0.023706438	4.621700E+01	  0.023706438	5.086100E+01	  0.023706438	9.150000E-01
72	  0.023902243	-3.800000E+01	  0.023902243	4.751300E+01	  0.023902243	5.084800E+01	  0.023902243	9.440000E-01
73	  0.024098050	-3.783200E+01	  0.024098050	4.814800E+01	  0.024098050	5.085400E+01	  0.024098050	9.720000E-01
74	  0.024293855	-3.783600E+01	  0.024293855	4.910600E+01	  0.024293855	5.083700E+01	  0.024293855	9.860000E-01
75	  0.024489662	-3.771000E+01	  0.024489662	5.086500E+01	  0.024489662	5.081700E+01	  0.024489662	1.026000E+00
76	  0.024685470	-3.767600E+01	  0.024685470	5.130500E+01	  0.024685470	5.081200E+01	  0.024685470	1.036000E+00
77	  0.024881275	-3.772300E+01	  0.024881275	5.243600E+01	  0.024881275	5.078700E+01	  0.024881275	1.046000E+00
78	  0.025077082	-3.768600E+01	  0.025077082	5.324600E+01	  0.025077082	5.077500E+01	  0.025077082	1.062000E+00
79	  0.025272887	-3.773700E+01	  0.025272887	5.466300E+01	  0.025272887	5.074400E+01	  0.025272887	1.074000E+00
80	  0.025468694	-3.792000E+01	  0.025468694	5.662100E+01	  0.025468694	5.069200E+01	  0.025468694	1.075000E+00
81	  0.025664499	-3.794400E+01	  0.025664499	5.628800E+01	  0.025664499	5.069600E+01	  0.025664499	1.068000E+00
82	  0.025860308	-3.809600E+01	  0.025860308	5.674300E+01	  0.025860308	5.067600E+01	  0.025860308	1.055000E+00
83	  0.026056113	-3.823200E+01	  0.026056113	5.762900E+01	  0.026056113	5.064900E+01	  0.026056113	1.048000E+00
84	  0.026251920	-3.854900E+01	  0.026251920	5.782700E+01	  0.026251920	5.062300E+01	  0.026251920	1.012000E+00
85	  0.026447725	-3.879900E+01	  0.026447725	5.799300E+01	  0.026447725	5.060200E+01	  0.026447725	9.850000E-01
86	  0.026643531	-3.904700E+01	  0.026643531	5.756200E+01	  0.026643531	5.059300E+01	  0.026643531	9.530000E-01
87	  0.026839336	-3.937400E+01	  0.026839336	5.736600E+01	  0.026839336	5.057400E+01	  0.026839336	9.150000E-01
88	  0.027035145	-3.961200E+01	  0.027035145	5.538000E+01	  0.027035145	5.059000E+01	  0.027035145	8.700000E-01
89	  0.027230950	-3.985800E+01	  0.027230950	5.516800E+01	  0.027230950	5.057600E+01	  0.027230950	8.440000E-01
90	  0.027426757	-4.019400E+01	  0.027426757	5.359600E+01	  0.027426757	5.057700E+01	  0.027426757	7.960000E-01
91	  0.027622562	-4.022800E+01	  0.027622562	5.051500E+01	  0.027622562	5.061700E+01	  0.027622562	7.610000E-01
92	  0.027818369	-4.029300E+01	  0.027818369	4.886400E+01	  0.027818369	5.063400E+01	  0.027818369	7.370000E-01
93	  0.028014174	-4.035200E+01	  0.028014174	4.465400E+01	  0.028014174	5.068300E+01	  0.028014174	6.840000E-01
94	  0.028209982	-4.042000E+01	  0.028209982	4.218300E+01	  0.028209982	5.070600E+01	  0.028209982	6.480000E-01
95	  0.028405787	-4.026200E+01	  0.028405787	3.895700E+01	  0.028405787	5.075600E+01	  0.028405787	6.190000E-01
96	  0.028601594	-4.010300E+01	  0.028601594	3.602700E+01	  0.028601594	5.080200E+01	  0.028601594	5.900000E-01
97	  0.028797399	-3.974500E+01	  0.028797399	3.328300E+01	  0.028797399	5.086500E+01	  0.028797399	5.740000E-01
98	  0.028993206	-3.950600E+01	  0.028993206	3.181800E+01	  0.028993206	5.090400E+01	  0.028993206	5.680000E-01
99	  0.029189013	-3.910200E+01	  0.029189013	2.931500E+01	  0.029189013	5.097300E+01	  0.029189013	5.530000E-01
100	  0.029384818	-3.857100E+01	  0.029384818	2.807400E+01	  0.029384818	5.104700E+01	  0.029384818	5.660000E-01
101	  0.029580627	-3.828800E+01	  0.029580627	2.759200E+01	  0.029580627	5.108700E+01	  0.029580627	5.760000E-01
102	  0.029776432	-3.779500E+01	  0.029776432	2.726100E+01	  0.029776432	5.115500E+01	  0.029776432	6.040000E-01
103	  0.029972238	-3.732500E+01	  0.029972238	2.693700E+01	  0.029972238	5.122300E+01	  0.029972238	6.310000E-01
104	  0.030168043	-3.704900E+01	  0.030168043	2.682400E+01	  0.030168043	5.126500E+01	  0.030168043	6.490000E-01
105	  0.030363850	-3.659200E+01	  0.030363850	2.686500E+01	  0.030363850	5.133300E+01	  0.030363850	6.860000E-01
106	  0.030559655	-3.626200E+01	  0.030559655	2.817600E+01	  0.030559655	5.136800E+01	  0.030559655	7.460000E-01
107	  0.030755464	-3.591800E+01	  0.030755464	2.900200E+01	  0.030755464	5.141200E+01	  0.030755464	7.970000E-01
108	  0.030951269	-3.564100E+01	  0.030951269	3.033700E+01	  0.030951269	5.143800E+01	  0.030951269	8.580000E-01
109	  0.031147076	-3.537100E+01	  0.031147076	3.221500E+01	  0.031147076	5.145400E+01	  0.031147076	9.350000E-01
110	  0.031342883	-3.515200E+01	  0.031342883	3.349300E+01	  0.031342883	5.146800E+01	  0.031342883	9.920000E-01
111	  0.031538688	-3.503900E+01	  0.031538688	3.437600E+01	  0.031538688	5.147200E+01	  0.031538688	1.029000E+00
112	  0.031734493	-3.480700E+01	  0.031734493	3.540100E+01	  0.031734493	5.149200E+01	  0.031734493	1.085000E+00
113	  0.031930301	-3.468300E+01	  0.031930301	3.836200E+01	  0.031930301	5.145300E+01	  0.031930301	1.178000E+00
114	  0.032126106	-3.455700E+01	  0.032126106	3.906800E+01	  0.032126106	5.145900E+01	  0.032126106	1.214000E+00
115	  0.032321911	-3.449500E+01	  0.032321911	4.127800E+01	  0.032321911	5.142000E+01	  0.032321911	1.279000E+00
116	  0.032517716	-3.447800E+01	  0.032517716	4.260500E+01	  0.032517716	5.139200E+01	  0.032517716	1.314000E+00
117	  0.032713525	-3.454600E+01	  0.032713525	4.410300E+01	  0.032713525	5.134600E+01	  0.032713525	1.339000E+00
118	  0.032909330	-3.453700E+01	  0.032909330	4.667300E+01	  0.032909330	5.128400E+01	  0.032909330	1.399000E+00
119	  0.033105139	-3.457200E+01	  0.033105139	4.788300E+01	  0.033105139	5.124800E+01	  0.033105139	1.420000E+00
120	  0.033300944	-3.467700E+01	  0.033300944	4.904200E+01	  0.033300944	5.120400E+01	  0.033300944	1.427000E+00
121	  0.033496749	-3.478600E+01	  0.033496749	5.045600E+01	  0.033496749	5.115300E+01	  0.033496749	1.438000E+00
122	  0.033692554	-3.495900E+01	  0.033692554	5.211800E+01	  0.033692554	5.108800E+01	  0.033692554	1.441000E+00
123	  0.033888362	-3.506800E+01	  0.033888362	5.273200E+01	  0.033888362	5.105900E+01	  0.033888362	1.434000E+00
124	  0.034084171	-3.524000E+01	  0.034084171	5.376900E+01	  0.034084171	5.101200E+01	  0.034084171	1.423000E+00
125	  0.034279976	-3.548100E+01	  0.034279976	5.423200E+01	  0.034279976	5.097300E+01	  0.034279976	1.392000E+00
126	  0.034475781	-3.560900E+01	  0.034475781	5.497600E+01	  0.034475781	5.094100E+01	  0.034475781	1.383000E+00
127	  0.034671586	-3.584200E+01	  0.034671586	5.464500E+01	  0.034671586	5.092400E+01	  0.034671586	1.340000E+00
128	  0.034867391	-3.612800E+01	  0.034867391	5.417000E+01	  0.034867391	5.090600E+01	  0.034867391	1.289000E+00
129	  0.035063203	-3.642900E+01	  0.035063203	5.482700E+01	  0.035063203	5.086000E+01	  0.035063203	1.254000E+00
130	  0.035259008	-3.658900E+01	  0.035259008	5.344500E+01	  0.035259008	5.087500E+01	  0.035259008	1.210000E+00
131	  0.035454813	-3.676900E+01	  0.035454813	5.301400E+01	  0.035454813	5.086600E+01	  0.035454813	1.179000E+00
132	  0.035650618	-3.693400E+01	  0.035650618	5.120200E+01	  0.035650618	5.088700E+01	  0.035650618	1.129000E+00
133	  0.035846427	-3.713000E+01	  0.035846427	5.070700E+01	  0.035846427	5.087700E+01	  0.035846427	1.095000E+00
134	  0.036042232	-3.724000E+01	  0.036042232	4.917100E+01	  0.036042232	5.089500E+01	  0.036042232	1.058000E+00
135	  0.036238037	-3.726100E+01	  0.036238037	4.623000E+01	  0.036238037	5.094700E+01	  0.036238037	1.008000E+00
136	  0.036433842	-3.721300E+01	  0.036433842	4.543300E+01	  0.036433842	5.096600E+01	  0.036433842	1.001000E+00
137	  0.036629651	-3.722600E+01	  0.036629651	4.378900E+01	  0.036629651	5.099400E+01	  0.036629651	9.710000E-01
138	  0.036825456	-3.713300E+01	  0.036825456	4.265200E+01	  0.036825456	5.102400E+01	  0.036825456	9.610000E-01
139	  0.037021261	-3.711900E+01	  0.037021261	4.107700E+01	  0.037021261	5.105200E+01	  0.037021261	9.340000E-01
140	  0.037217066	-3.703200E+01	  0.037217066	3.941400E+01	  0.037217066	5.109000E+01	  0.037217066	9.130000E-01
141	  0.037412878	-3.686200E+01	  0.037412878	3.865100E+01	  0.037412878	5.112500E+01	  0.037412878	9.160000E-01
142	  0.037608683	-3.664700E+01	  0.037608683	3.829000E+01	  0.037608683	5.115900E+01	  0.037608683	9.320000E-01
143	  0.037804488	-3.651000E+01	  0.037804488	3.737600E+01	  0.037804488	5.119300E+01	  0.037804488	9.290000E-01
144	  0.038000293	-3.643300E+01	  0.038000293	3.713200E+01	  0.038000293	5.120800E+01	  0.038000293	9.320000E-01
145	  0.038196102	-3.619400E+01	  0.038196102	3.719500E+01	  0.038196102	5.124000E+01	  0.038196102	9.600000E-01
146	  0.038391907	-3.600500E+01	  0.038391907	3.731700E+01	  0.038391907	5.126600E+01	  0.038391907	9.840000E-01
147	  0.038587712	-3.595000E+01	  0.038587712	3.707800E+01	  0.038587712	5.127800E+01	  0.038587712	9.850000E-01
148	  0.038783520	-3.576900E+01	  0.038783520	3.734700E+01	  0.038783520	5.130000E+01	  0.038783520	1.013000E+00
149	  0.038979325	-3.558100E+01	  0.038979325	3.816000E+01	  0.038979325	5.131300E+01	  0.038979325	1.054000E+00
150	  0.039175130	-3.557900E+01	  0.039175130	3.926900E+01	  0.039175130	5.129300E+01	  0.039175130	1.080000E+00
151	  0.039370935	-3.556300E+01	  0.039370935	3.929300E+01	  0.039370935	5.129500E+01	  0.039370935	1.083000E+00
152	  0.039566744	-3.551300E+01	  0.039566744	4.011700E+01	  0.039566744	5.128600E+01	  0.039566744	1.108000E+00
153	  0.039762549	-3.548500E+01	  0.039762549	4.006000E+01	  0.039762549	5.129100E+01	  0.039762549	1.110000E+00
154	  0.039958358	-3.559900E+01	  0.039958358	4.062900E+01	  0.039958358	5.126300E+01	  0.039958358	1.108000E+00
155	  0.040154163	-3.568400E+01	  0.040154163	4.147000E+01	  0.040154163	5.123400E+01	  0.040154163	1.115000E+00
156	  0.040349972	-3.569900E+01	  0.040349972	4.152400E+01	  0.040349972	5.123100E+01	  0.040349972	1.114000E+00
157	  0.040545776	-3.586400E+01	  0.040545776	4.097700E+01	  0.040545776	5.121800E+01	  0.040545776	1.081000E+00
158	  0.040741581	-3.593800E+01	  0.040741581	4.174200E+01	  0.040741581	5.119300E+01	  0.040741581	1.088000E+00
159	  0.040937386	-3.602100E+01	  0.040937386	4.036000E+01	  0.040937386	5.120800E+01	  0.040937386	1.048000E+00
160	  0.041133195	-3.622700E+01	  0.041133195	3.981900E+01	  0.041133195	5.118900E+01	  0.041133195	1.012000E+00
161	  0.041329000	-3.622700E+01	  0.041329000	3.961300E+01	  0.041329000	5.119300E+01	  0.041329000	1.008000E+00
162	  0.041524805	-3.640200E+01	  0.041524805	3.787700E+01	  0.041524805	5.119900E+01	  0.041524805	9.510000E-01
163	  0.041720610	-3.650400E+01	  0.041720610	3.795500E+01	  0.041720610	5.118400E+01	  0.041720610	9.410000E-01
164	  0.041916419	-3.652600E+01	  0.041916419	3.542500E+01	  0.041916419	5.122200E+01	  0.041916419	8.860000E-01
165	  0.042112224	-3.648400E+01	  0.042112224	3.438300E+01	  0.042112224	5.124500E+01	  0.042112224	8.670000E-01
166	  0.042308029	-3.654300E+01	  0.042308029	3.242500E+01	  0.042308029	5.126600E+01	  0.042308029	8.180000E-01
167	  0.042503837	-3.640800E+01	  0.042503837	3.127000E+01	  0.042503837	5.130200E+01	  0.042503837	8.050000E-01
168	  0.042699646	-3.628300E+01	  0.042699646	2.918600E+01	  0.042699646	5.135100E+01	  0.042699646	7.680000E-01
169	  0.042895451	-3.616800E+01	  0.042895451	2.700000E+01	  0.042895451	5.139900E+01	  0.042895451	7.250000E-01
170	  0.043091256	-3.603200E+01	  0.043091256	2.562000E+01	  0.043091256	5.143900E+01	  0.043091256	7.020000E-01
171	  0.043287061	-3.570500E+01	  0.043287061	2.488900E+01	  0.043287061	5.150400E+01	  0.043287061	7.110000E-01
172	  0.043482870	-3.534900E+01	  0.043482870	2.371800E+01	  0.043482870	5.158300E+01	  0.043482870	7.090000E-01
173	  0.043678675	-3.520900E+01	  0.043678675	2.262300E+01	  0.043678675	5.162300E+01	  0.043678675	6.890000E-01
174	  0.043874480	-3.484700E+01	  0.043874480	2.261900E+01	  0.043874480	5.169300E+01	  0.043874480	7.190000E-01
175	  0.044070289	-3.461200E+01	  0.044070289	2.239800E+01	  0.044070289	5.174300E+01	  0.044070289	7.330000E-01
176	  0.044266094	-3.420600E+01	  0.044266094	2.188700E+01	  0.044266094	5.183500E+01	  0.044266094	7.530000E-01
177	  0.044461899	-3.394200E+01	  0.044461899	2.228000E+01	  0.044461899	5.188700E+01	  0.044461899	7.900000E-01
178	  0.044657703	-3.366300E+01	  0.044657703	2.293400E+01	  0.044657703	5.194000E+01	  0.044657703	8.390000E-01
179	  0.044853516	-3.338200E+01	  0.044853516	2.382200E+01	  0.044853516	5.199000E+01	  0.044853516	9.000000E-01
180	  0.045049321	-3.312700E+01	  0.045049321	2.425200E+01	  0.045049321	5.204300E+01	  0.045049321	9.430000E-01
181	  0.045245126	-3.297300E+01	  0.045245126	2.560900E+01	  0.045245126	5.205600E+01	  0.045245126	1.011000E+00
182	  0.045440931	-3.274200E+01	  0.045440931	2.615000E+01	  0.045440931	5.210200E+01	  0.045440931	1.059000E+00
183	  0.045636740	-3.251900E+01	  0.045636740	2.804300E+01	  0.045636740	5.211900E+01	  0.045636740	1.160000E+00
184	  0.045832545	-3.241400E+01	  0.045832545	2.963100E+01	  0.045832545	5.211000E+01	  0.045832545	1.234000E+00
185	  0.046028350	-3.226000E+01	  0.046028350	3.102500E+01	  0.046028350	5.211600E+01	  0.046028350	1.310000E+00
186	  0.046224155	-3.212200E+01	  0.046224155	3.241200E+01	  0.046224155	5.211600E+01	  0.046224155	1.384000E+00
187	  0.046419963	-3.213200E+01	  0.046419963	3.405400E+01	  0.046419963	5.207200E+01	  0.046419963	1.443000E+00
188	  0.046615768	-3.209100E+01	  0.046615768	3.605800E+01	  0.046615768	5.202700E+01	  0.046615768	1.523000E+00
189	  0.046811573	-3.211700E+01	  0.046811573	3.768100E+01	  0.046811573	5.197600E+01	  0.046811573	1.575000E+00
190	  0.047007378	-3.202700E+01	  0.047007378	3.923100E+01	  0.047007378	5.195100E+01	  0.047007378	1.646000E+00
191	  0.047203191	-3.205600E+01	  0.047203191	4.110200E+01	  0.047203191	5.188700E+01	  0.047203191	1.703000E+00
192	  0.047398996	-3.220000E+01	  0.047398996	4.264900E+01	  0.047398996	5.180900E+01	  0.047398996	1.724000E+00
193	  0.047594801	-3.225700E+01	  0.047594801	4.361900E+01	  0.047594801	5.176700E+01	  0.047594801	1.742000E+00
194	  0.047790606	-3.246600E+01	  0.047790606	4.532800E+01	  0.047790606	5.167200E+01	  0.047790606	1.750000E+00
195	  0.047986414	-3.262400E+01	  0.047986414	4.685300E+01	  0.047986414	5.159400E+01	  0.047986414	1.760000E+00
196	  0.048182219	-3.271200E+01	  0.048182219	4.809400E+01	  0.048182219	5.153800E+01	  0.048182219	1.776000E+00
197	  0.048378024	-3.303000E+01	  0.048378024	4.862700E+01	  0.048378024	5.146700E+01	  0.048378024	1.724000E+00
198	  0.048573833	-3.316600E+01	  0.048573833	4.944700E+01	  0.048573833	5.141900E+01	  0.048573833	1.716000E+00
199	  0.048769638	-3.352600E+01	  0.048769638	5.109900E+01	  0.048769638	5.131200E+01	  0.048769638	1.683000E+00
200	  0.048965443	-3.378500E+01	  0.048965443	5.128600E+01	  0.048965443	5.126900E+01	  0.048965443	1.637000E+00
201	  0.049161248	-3.408700E+01	  0.049161248	5.122400E+01	  0.049161248	5.122700E+01	  0.049161248	1.578000E+00
202	  0.049357057	-3.436000E+01	  0.049357057	5.105800E+01	  0.049357057	5.119400E+01	  0.049357057	1.525000E+00
203	  0.049552862	-3.471100E+01	  0.049552862	5.070800E+01	  0.049552862	5.115600E+01	  0.049552862	1.456000E+00
204	  0.049748670	-3.507700E+01	  0.049748670	5.085000E+01	  0.049748670	5.110500E+01	  0.049748670	1.397000E+00
205	  0.049944475	-3.540500E+01	  0.049944475	4.925900E+01	  0.049944475	5.110200E+01	  0.049944475	1.314000E+00
206	  0.050140284	-3.577800E+01	  0.050140284	4.846100E+01	  0.050140284	5.107400E+01	  0.050140284	1.243000E+00
207	  0.050336089	-3.596400E+01	  0.050336089	4.679800E+01	  0.050336089	5.108700E+01	  0.050336089	1.185000E+00
208	  0.050531894	-3.627400E+01	  0.050531894	4.376400E+01	  0.050531894	5.110900E+01	  0.050531894	1.085000E+00
209	  0.050727699	-3.650600E+01	  0.050727699	4.199700E+01	  0.050727699	5.111300E+01	  0.050727699	1.022000E+00
210	  0.050923508	-3.671500E+01	  0.050923508	3.928200E+01	  0.050923508	5.113300E+01	  0.050923508	9.450000E-01
211	  0.051119313	-3.658900E+01	  0.051119313	3.656200E+01	  0.051119313	5.119500E+01	  0.051119313	9.030000E-01
212	  0.051315118	-3.661300E+01	  0.051315118	3.356400E+01	  0.051315118	5.123800E+01	  0.051315118	8.360000E-01
213	  0.051510923	-3.669000E+01	  0.051510923	3.080000E+01	  0.051510923	5.126700E+01	  0.051510923	7.680000E-01
214	  0.051706731	-3.654900E+01	  0.051706731	2.811000E+01	  0.051706731	5.132400E+01	  0.051706731	7.190000E-01
215	  0.051902536	-3.625200E+01	  0.051902536	2.610700E+01	  0.051902536	5.139600E+01	  0.051902536	6.960000E-01
216	  0.052098341	-3.608500E+01	  0.052098341	2.381200E+01	  0.052098341	5.145200E+01	  0.052098341	6.520000E-01
217	  0.052294150	-3.583700E+01	  0.052294150	2.198300E+01	  0.052294150	5.151600E+01	  0.052294150	6.220000E-01
218	  0.052489959	-3.558500E+01	  0.052489959	2.081200E+01	  0.052489959	5.157400E+01	  0.052489959	6.090000E-01
219	  0.052685764	-3.521900E+01	  0.052685764	1.964800E+01	  0.052685764	5.165600E+01	  0.052685764	6.020000E-01
220	  0.052881569	-3.490100E+01	  0.052881569	1.902600E+01	  0.052881569	5.172500E+01	  0.052881569	6.060000E-01
221	  0.053077377	-3.462100E+01	  0.053077377	1.888300E+01	  0.053077377	5.178500E+01	  0.053077377	6.220000E-01
222	  0.053273182	-3.433500E+01	  0.053273182	1.810000E+01	  0.053273182	5.185400E+01	  0.053273182	6.180000E-01
223	  0.053468987	-3.412100E+01	  0.053468987	1.840900E+01	  0.053468987	5.189800E+01	  0.053468987	6.450000E-01
224	  0.053664792	-3.383600E+01	  0.053664792	1.829800E+01	  0.053664792	5.196300E+01	  0.053664792	6.630000E-01
225	  0.053860601	-3.366200E+01	  0.053860601	1.866300E+01	  0.053860601	5.200000E+01	  0.053860601	6.900000E-01
226	  0.054056406	-3.357700E+01	  0.054056406	1.936000E+01	  0.054056406	5.201000E+01	  0.054056406	7.220000E-01
227	  0.054252211	-3.333600E+01	  0.054252211	1.944900E+01	  0.054252211	5.206700E+01	  0.054252211	7.470000E-01
228	  0.054448016	-3.322200E+01	  0.054448016	2.007600E+01	  0.054448016	5.208600E+01	  0.054448016	7.800000E-01
229	  0.054643828	-3.299700E+01	  0.054643828	2.056900E+01	  0.054643828	5.213400E+01	  0.054643828	8.200000E-01
230	  0.054839633	-3.289100E+01	  0.054839633	2.092500E+01	  0.054839633	5.215600E+01	  0.054839633	8.440000E-01
231	  0.055035438	-3.280500E+01	  0.055035438	2.181800E+01	  0.055035438	5.216300E+01	  0.055035438	8.880000E-01
232	  0.055231243	-3.271400E+01	  0.055231243	2.224400E+01	  0.055231243	5.217900E+01	  0.055231243	9.140000E-01
233	  0.055427052	-3.262000E+01	  0.055427052	2.222100E+01	  0.055427052	5.220400E+01	  0.055427052	9.230000E-01
234	  0.055622857	-3.253100E+01	  0.055622857	2.323300E+01	  0.055622857	5.221000E+01	  0.055622857	9.730000E-01
235	  0.055818662	-3.249700E+01	  0.055818662	2.389700E+01	  0.055818662	5.220700E+01	  0.055818662	1.003000E+00
236	  0.056014467	-3.244200E+01	  0.056014467	2.434400E+01	  0.056014467	5.221200E+01	  0.056014467	1.028000E+00
237	  0.056210276	-3.238700E+01	  0.056210276	2.494800E+01	  0.056210276	5.221500E+01	  0.056210276	1.058000E+00
238	  0.056406081	-3.236200E+01	  0.056406081	2.505800E+01	  0.056406081	5.222000E+01	  0.056406081	1.066000E+00
239	  0.056601886	-3.229800E+01	  0.056601886	2.594600E+01	  0.056601886	5.221800E+01	  0.056601886	1.109000E+00
240	  0.056797691	-3.231200E+01	  0.056797691	2.604000E+01	  0.056797691	5.221300E+01	  0.056797691	1.111000E+00
241	  0.056993503	-3.227000E+01	  0.056993503	2.649500E+01	  0.056993503	5.221500E+01	  0.056993503	1.135000E+00
242	  0.057189308	-3.228500E+01	  0.057189308	2.678000E+01	  0.057189308	5.220500E+01	  0.057189308	1.144000E+00
243	  0.057385113	-3.221600E+01	  0.057385113	2.732100E+01	  0.057385113	5.221100E+01	  0.057385113	1.174000E+00
244	  0.057580918	-3.217800E+01	  0.057580918	2.780500E+01	  0.057580918	5.221100E+01	  0.057580918	1.199000E+00
245	  0.057776727	-3.215300E+01	  0.057776727	2.826100E+01	  0.057776727	5.220700E+01	  0.057776727	1.220000E+00
246	  0.057972532	-3.220400E+01	  0.057972532	2.862300E+01	  0.057972532	5.218600E+01	  0.057972532	1.227000E+00
247	  0.058168337	-3.209200E+01	  0.058168337	2.871400E+01	  0.058168337	5.221300E+01	  0.058168337	1.247000E+00
248	  0.058364145	-3.212400E+01	  0.058364145	2.915400E+01	  0.058364145	5.219400E+01	  0.058364145	1.259000E+00
249	  0.058559950	-3.211400E+01	  0.058559950	2.970000E+01	  0.058559950	5.218400E+01	  0.058559950	1.282000E+00
250	  0.058755755	-3.205300E+01	  0.058755755	3.032100E+01	  0.058755755	5.218500E+01	  0.058755755	1.316000E+00
251	  0.058951560	-3.212900E+01	  0.058951560	3.064800E+01	  0.058951560	5.215800E+01	  0.058951560	1.316000E+00
252	  0.059147369	-3.212400E+01	  0.059147369	3.142000E+01	  0.059147369	5.214000E+01	  0.059147369	1.346000E+00
253	  0.059343174	-3.211800E+01	  0.059343174	3.181500E+01	  0.059343174	5.213200E+01	  0.059343174	1.362000E+00
254	  0.059538983	-3.214800E+01	  0.059538983	3.206000E+01	  0.059538983	5.211900E+01	  0.059538983	1.367000E+00
255	  0.059734788	-3.219400E+01	  0.059734788	3.281500E+01	  0.059734788	5.208800E+01	  0.059734788	1.387000E+00
256	  0.059930597	-3.227000E+01	  0.059930597	3.347400E+01	  0.059930597	5.205300E+01	  0.059930597	1.399000E+00
257	  0.060126401	-3.230500E+01	  0.060126401	3.377400E+01	  0.060126401	5.203700E+01	  0.060126401	1.403000E+00
258	  0.060322206	-3.236000E+01	  0.060322206	3.439900E+01	  0.060322206	5.200900E+01	  0.060322206	1.417000E+00
259	  0.060518011	-3.245100E+01	  0.060518011	3.528200E+01	  0.060518011	5.196500E+01	  0.060518011	1.432000E+00
260	  0.060713820	-3.252100E+01	  0.060713820	3.572300E+01	  0.060713820	5.193700E+01	  0.060713820	1.435000E+00
261	  0.060909625	-3.259100E+01	  0.060909625	3.603400E+01	  0.060909625	5.191400E+01	  0.060909625	1.434000E+00
262	  0.061105430	-3.283000E+01	  0.061105430	3.611600E+01	  0.061105430	5.185900E+01	  0.061105430	1.396000E+00
263	  0.061301235	-3.292500E+01	  0.061301235	3.681600E+01	  0.061301235	5.182100E+01	  0.061301235	1.403000E+00
264	  0.061497044	-3.300500E+01	  0.061497044	3.711400E+01	  0.061497044	5.179700E+01	  0.061497044	1.399000E+00
265	  0.061692849	-3.325100E+01	  0.061692849	3.740500E+01	  0.061692849	5.173900E+01	  0.061692849	1.367000E+00
266	  0.061888654	-3.343100E+01	  0.061888654	3.693000E+01	  0.061888654	5.171500E+01	  0.061888654	1.324000E+00
267	  0.062084462	-3.356600E+01	  0.062084462	3.766700E+01	  0.062084462	5.167000E+01	  0.062084462	1.325000E+00
268	  0.062280271	-3.377800E+01	  0.062280271	3.649200E+01	  0.062280271	5.165700E+01	  0.062280271	1.258000E+00
269	  0.062476076	-3.388600E+01	  0.062476076	3.666400E+01	  0.062476076	5.163300E+01	  0.062476076	1.247000E+00
270	  0.062671877	-3.417700E+01	  0.062671877	3.577000E+01	  0.062671877	5.159700E+01	  0.062671877	1.179000E+00
271	  0.062867686	-3.437800E+01	  0.062867686	3.535200E+01	  0.062867686	5.156900E+01	  0.062867686	1.140000E+00
272	  0.063063495	-3.457700E+01	  0.063063495	3.390900E+01	  0.063063495	5.156200E+01	  0.063063495	1.074000E+00
273	  0.063259304	-3.488400E+01	  0.063259304	3.268300E+01	  0.063259304	5.153000E+01	  0.063259304	1.003000E+00
274	  0.063455105	-3.493700E+01	  0.063455105	3.185200E+01	  0.063455105	5.153500E+01	  0.063455105	9.740000E-01
275	  0.063650914	-3.509300E+01	  0.063650914	3.070400E+01	  0.063650914	5.152700E+01	  0.063650914	9.260000E-01
276	  0.063846722	-3.514900E+01	  0.063846722	2.737300E+01	  0.063846722	5.156900E+01	  0.063846722	8.290000E-01
277	  0.064042524	-3.519800E+01	  0.064042524	2.510700E+01	  0.064042524	5.159300E+01	  0.064042524	7.610000E-01
278	  0.064238332	-3.531900E+01	  0.064238332	2.436700E+01	  0.064238332	5.158000E+01	  0.064238332	7.290000E-01
279	  0.064434141	-3.516300E+01	  0.064434141	2.101700E+01	  0.064434141	5.165100E+01	  0.064434141	6.460000E-01
280	  0.064629942	-3.515200E+01	  0.064629942	1.962400E+01	  0.064629942	5.166900E+01	  0.064629942	6.060000E-01
281	  0.064825751	-3.505700E+01	  0.064825751	1.800300E+01	  0.064825751	5.170500E+01	  0.064825751	5.640000E-01
282	  0.065021552	-3.492900E+01	  0.065021552	1.557000E+01	  0.065021552	5.175400E+01	  0.065021552	4.980000E-01
283	  0.065217361	-3.478700E+01	  0.065217361	1.387300E+01	  0.065217361	5.179900E+01	  0.065217361	4.520000E-01
284	  0.065413170	-3.459500E+01	  0.065413170	1.252100E+01	  0.065413170	5.185000E+01	  0.065413170	4.190000E-01
285	  0.065608978	-3.445000E+01	  0.065608978	1.110800E+01	  0.065608978	5.189200E+01	  0.065608978	3.780000E-01
286	  0.065804780	-3.428200E+01	  0.065804780	9.934000E+00	  0.065804780	5.193800E+01	  0.065804780	3.460000E-01
287	  0.066000588	-3.396300E+01	  0.066000588	9.615000E+00	  0.066000588	5.201400E+01	  0.066000588	3.480000E-01
288	  0.066196397	-3.366600E+01	  0.066196397	7.685000E+00	  0.066196397	5.209600E+01	  0.066196397	2.890000E-01
289	  0.066392198	-3.344700E+01	  0.066392198	7.715000E+00	  0.066392198	5.215100E+01	  0.066392198	2.970000E-01
290	  0.066588007	-3.316400E+01	  0.066588007	7.579000E+00	  0.066588007	5.222500E+01	  0.066588007	3.020000E-01
291	  0.066783816	-3.285400E+01	  0.066783816	7.264000E+00	  0.066783816	5.230900E+01	  0.066783816	3.010000E-01
292	  0.066979617	-3.276500E+01	  0.066979617	7.379000E+00	  0.066979617	5.233300E+01	  0.066979617	3.090000E-01
293	  0.067175426	-3.260000E+01	  0.067175426	7.429000E+00	  0.067175426	5.237800E+01	  0.067175426	3.170000E-01
294	  0.067371234	-3.243300E+01	  0.067371234	7.638000E+00	  0.067371234	5.242400E+01	  0.067371234	3.330000E-01
295	  0.067567036	-3.218400E+01	  0.067567036	8.166000E+00	  0.067567036	5.249300E+01	  0.067567036	3.660000E-01
296	  0.067762844	-3.202400E+01	  0.067762844	8.317000E+00	  0.067762844	5.253900E+01	  0.067762844	3.800000E-01
297	  0.067958646	-3.189000E+01	  0.067958646	9.247000E+00	  0.067958646	5.257300E+01	  0.067958646	4.300000E-01
298	  0.068154462	-3.172300E+01	  0.068154462	9.371000E+00	  0.068154462	5.262300E+01	  0.068154462	4.440000E-01
299	  0.068350263	-3.160200E+01	  0.068350263	1.024300E+01	  0.068350263	5.265300E+01	  0.068350263	4.920000E-01
300	  0.068546072	-3.152800E+01	  0.068546072	1.090300E+01	  0.068546072	5.267000E+01	  0.068546072	5.280000E-01
301	  0.068741873	-3.141000E+01	  0.068741873	1.195100E+01	  0.068741873	5.269700E+01	  0.068741873	5.870000E-01
302	  0.068937682	-3.140000E+01	  0.068937682	1.218700E+01	  0.068937682	5.269800E+01	  0.068937682	5.990000E-01
303	  0.069133483	-3.126800E+01	  0.069133483	1.319300E+01	  0.069133483	5.272800E+01	  0.069133483	6.580000E-01
304	  0.069329299	-3.113200E+01	  0.069329299	1.360800E+01	  0.069329299	5.276800E+01	  0.069329299	6.890000E-01
305	  0.069525100	-3.111700E+01	  0.069525100	1.489100E+01	  0.069525100	5.275500E+01	  0.069525100	7.540000E-01
306	  0.069720909	-3.108300E+01	  0.069720909	1.517200E+01	  0.069720909	5.276200E+01	  0.069720909	7.710000E-01
307	  0.069916710	-3.111000E+01	  0.069916710	1.527700E+01	  0.069916710	5.275200E+01	  0.069916710	7.740000E-01
308	  0.070112519	-3.100400E+01	  0.070112519	1.655600E+01	  0.070112519	5.276800E+01	  0.070112519	8.470000E-01
309	  0.070308320	-3.106500E+01	  0.070308320	1.707500E+01	  0.070308320	5.274000E+01	  0.070308320	8.670000E-01
310	  0.070504129	-3.111000E+01	  0.070504129	1.775300E+01	  0.070504129	5.271400E+01	  0.070504129	8.950000E-01
311	  0.070699938	-3.114400E+01	  0.070699938	1.821800E+01	  0.070699938	5.269500E+01	  0.070699938	9.130000E-01
312	  0.070895746	-3.120200E+01	  0.070895746	1.832300E+01	  0.070895746	5.267500E+01	  0.070895746	9.120000E-01
313	  0.071091555	-3.109300E+01	  0.071091555	1.903300E+01	  0.071091555	5.269800E+01	  0.071091555	9.590000E-01
314	  0.071287356	-3.121700E+01	  0.071287356	1.988400E+01	  0.071287356	5.264300E+01	  0.071287356	9.850000E-01
315	  0.071483165	-3.129400E+01	  0.071483165	2.025500E+01	  0.071483165	5.261300E+01	  0.071483165	9.930000E-01
316	  0.071678966	-3.131400E+01	  0.071678966	2.062700E+01	  0.071678966	5.260000E+01	  0.071678966	1.008000E+00
317	  0.071874775	-3.139400E+01	  0.071874775	2.128600E+01	  0.071874775	5.256300E+01	  0.071874775	1.028000E+00
318	  0.072070576	-3.147800E+01	  0.072070576	2.145200E+01	  0.072070576	5.253500E+01	  0.072070576	1.025000E+00
319	  0.072266392	-3.155300E+01	  0.072266392	2.148500E+01	  0.072266392	5.251200E+01	  0.072266392	1.017000E+00
320	  0.072462194	-3.171100E+01	  0.072462194	2.161200E+01	  0.072462194	5.246300E+01	  0.072462194	1.004000E+00
321	  0.072658002	-3.173800E+01	  0.072658002	2.174100E+01	  0.072658002	5.245300E+01	  0.072658002	1.006000E+00
322	  0.072853811	-3.176200E+01	  0.072853811	2.221600E+01	  0.072853811	5.243800E+01	  0.072853811	1.024000E+00
323	  0.073049612	-3.192200E+01	  0.073049612	2.174600E+01	  0.073049612	5.240100E+01	  0.073049612	9.840000E-01
324	  0.073245421	-3.201500E+01	  0.073245421	2.157400E+01	  0.073245421	5.237800E+01	  0.073245421	9.660000E-01
325	  0.073441222	-3.200700E+01	  0.073441222	2.115400E+01	  0.073441222	5.238700E+01	  0.073441222	9.490000E-01
326	  0.073637031	-3.220600E+01	  0.073637031	2.100400E+01	  0.073637031	5.233500E+01	  0.073637031	9.200000E-01
327	  0.073832840	-3.221800E+01	  0.073832840	2.090000E+01	  0.073832840	5.233300E+01	  0.073832840	9.150000E-01
328	  0.074028648	-3.245700E+01	  0.074028648	2.037500E+01	  0.074028648	5.227700E+01	  0.074028648	8.670000E-01
329	  0.074224450	-3.248600E+01	  0.074224450	2.032700E+01	  0.074224450	5.227000E+01	  0.074224450	8.630000E-01
330	  0.074420258	-3.259100E+01	  0.074420258	1.894600E+01	  0.074420258	5.226300E+01	  0.074420258	7.960000E-01
331	  0.074616060	-3.268600E+01	  0.074616060	1.829300E+01	  0.074616060	5.224700E+01	  0.074616060	7.610000E-01
332	  0.074811868	-3.260200E+01	  0.074811868	1.777700E+01	  0.074811868	5.227700E+01	  0.074811868	7.480000E-01
333	  0.075007670	-3.272900E+01	  0.075007670	1.624900E+01	  0.075007670	5.226300E+01	  0.075007670	6.750000E-01
334	  0.075203478	-3.263200E+01	  0.075203478	1.608300E+01	  0.075203478	5.229100E+01	  0.075203478	6.770000E-01
335	  0.075399294	-3.272100E+01	  0.075399294	1.523100E+01	  0.075399294	5.227700E+01	  0.075399294	6.350000E-01
336	  0.075595096	-3.264400E+01	  0.075595096	1.373400E+01	  0.075595096	5.231400E+01	  0.075595096	5.790000E-01
337	  0.075790904	-3.271600E+01	  0.075790904	1.272400E+01	  0.075790904	5.230500E+01	  0.075790904	5.330000E-01
338	  0.075986706	-3.255100E+01	  0.075986706	1.192100E+01	  0.075986706	5.235800E+01	  0.075986706	5.100000E-01
339	  0.076182514	-3.254200E+01	  0.076182514	1.199900E+01	  0.076182514	5.236000E+01	  0.076182514	5.140000E-01
340	  0.076378316	-3.238700E+01	  0.076378316	1.042100E+01	  0.076378316	5.241700E+01	  0.076378316	4.550000E-01
341	  0.076574124	-3.232300E+01	  0.076574124	1.015500E+01	  0.076574124	5.243800E+01	  0.076574124	4.470000E-01
342	  0.076769926	-3.229600E+01	  0.076769926	9.727000E+00	  0.076769926	5.244900E+01	  0.076769926	4.300000E-01
343	  0.076965742	-3.223100E+01	  0.076965742	9.002000E+00	  0.076965742	5.247300E+01	  0.076965742	4.010000E-01
344	  0.077161543	-3.207600E+01	  0.077161543	8.184000E+00	  0.077161543	5.252500E+01	  0.077161543	3.720000E-01
345	  0.077357352	-3.191700E+01	  0.077357352	8.827000E+00	  0.077357352	5.256800E+01	  0.077357352	4.090000E-01
346	  0.077553153	-3.181800E+01	  0.077553153	7.878000E+00	  0.077553153	5.260500E+01	  0.077553153	3.700000E-01
347	  0.077748962	-3.163200E+01	  0.077748962	8.090000E+00	  0.077748962	5.266100E+01	  0.077748962	3.880000E-01
348	  0.077944770	-3.156500E+01	  0.077944770	8.383000E+00	  0.077944770	5.268100E+01	  0.077944770	4.050000E-01
349	  0.078140572	-3.145400E+01	  0.078140572	7.876000E+00	  0.078140572	5.272000E+01	  0.078140572	3.860000E-01
350	  0.078336388	-3.134700E+01	  0.078336388	7.747000E+00	  0.078336388	5.275500E+01	  0.078336388	3.850000E-01
351	  0.078532189	-3.131200E+01	  0.078532189	8.090000E+00	  0.078532189	5.276400E+01	  0.078532189	4.040000E-01
352	  0.078727998	-3.121800E+01	  0.078727998	8.483000E+00	  0.078727998	5.279200E+01	  0.078727998	4.280000E-01
353	  0.078923799	-3.104800E+01	  0.078923799	8.717000E+00	  0.078923799	5.284700E+01	  0.078923799	4.490000E-01
354	  0.079119608	-3.101400E+01	  0.079119608	9.853000E+00	  0.079119608	5.284800E+01	  0.079119608	5.090000E-01
355	  0.079315409	-3.097700E+01	  0.079315409	9.759000E+00	  0.079315409	5.286200E+01	  0.079315409	5.060000E-01
356	  0.079511218	-3.091400E+01	  0.079511218	1.043700E+01	  0.079511218	5.287600E+01	  0.079511218	5.450000E-01
357	  0.079707019	-3.088800E+01	  0.079707019	1.071000E+01	  0.079707019	5.288200E+01	  0.079707019	5.610000E-01
358	  0.079902835	-3.087400E+01	  0.079902835	1.149700E+01	  0.079902835	5.287900E+01	  0.079902835	6.030000E-01
359	  0.080098644	-3.091700E+01	  0.080098644	1.189700E+01	  0.080098644	5.286000E+01	  0.080098644	6.200000E-01
360	  0.080294445	-3.087000E+01	  0.080294445	1.198300E+01	  0.080294445	5.287500E+01	  0.080294445	6.280000E-01
361	  0.080490254	-3.082800E+01	  0.080490254	1.263900E+01	  0.080490254	5.288100E+01	  0.080490254	6.650000E-01
362	  0.080686055	-3.092300E+01	  0.080686055	1.302600E+01	  0.080686055	5.284400E+01	  0.080686055	6.770000E-01
363	  0.080881864	-3.095000E+01	  0.080881864	1.338200E+01	  0.080881864	5.283100E+01	  0.080881864	6.930000E-01
364	  0.081077665	-3.098500E+01	  0.081077665	1.392800E+01	  0.081077665	5.281200E+01	  0.081077665	7.180000E-01
365	  0.081273474	-3.105100E+01	  0.081273474	1.363000E+01	  0.081273474	5.279400E+01	  0.081273474	6.970000E-01
366	  0.081469283	-3.105100E+01	  0.081469283	1.405800E+01	  0.081469283	5.278800E+01	  0.081469283	7.190000E-01
367	  0.081665091	-3.109200E+01	  0.081665091	1.386100E+01	  0.081665091	5.277700E+01	  0.081665091	7.050000E-01
368	  0.081860892	-3.116400E+01	  0.081860892	1.429500E+01	  0.081860892	5.274800E+01	  0.081860892	7.200000E-01
369	  0.082056701	-3.131200E+01	  0.082056701	1.439300E+01	  0.082056701	5.269900E+01	  0.082056701	7.120000E-01
370	  0.082252502	-3.138100E+01	  0.082252502	1.417700E+01	  0.082252502	5.268000E+01	  0.082252502	6.960000E-01
371	  0.082448311	-3.153700E+01	  0.082448311	1.400200E+01	  0.082448311	5.263300E+01	  0.082448311	6.750000E-01
372	  0.082644112	-3.149800E+01	  0.082644112	1.364300E+01	  0.082644112	5.265000E+01	  0.082644112	6.610000E-01
373	  0.082839929	-3.154000E+01	  0.082839929	1.346500E+01	  0.082839929	5.263900E+01	  0.082839929	6.490000E-01
374	  0.083035737	-3.159100E+01	  0.083035737	1.302500E+01	  0.083035737	5.262800E+01	  0.083035737	6.240000E-01
375	  0.083231539	-3.163600E+01	  0.083231539	1.237300E+01	  0.083231539	5.262200E+01	  0.083231539	5.910000E-01
376	  0.083427347	-3.159100E+01	  0.083427347	1.243000E+01	  0.083427347	5.263500E+01	  0.083427347	5.970000E-01
377	  0.083623149	-3.165900E+01	  0.083623149	1.228600E+01	  0.083623149	5.261600E+01	  0.083623149	5.850000E-01
378	  0.083818957	-3.164400E+01	  0.083818957	1.153200E+01	  0.083818957	5.262800E+01	  0.083818957	5.510000E-01
379	  0.084014758	-3.168200E+01	  0.084014758	1.113900E+01	  0.084014758	5.262000E+01	  0.084014758	5.300000E-01
380	  0.084210567	-3.159200E+01	  0.084210567	1.079100E+01	  0.084210567	5.265100E+01	  0.084210567	5.190000E-01
381	  0.084406376	-3.159400E+01	  0.084406376	1.111000E+01	  0.084406376	5.264800E+01	  0.084406376	5.340000E-01
382	  0.084602185	-3.159600E+01	  0.084602185	1.060300E+01	  0.084602185	5.265200E+01	  0.084602185	5.100000E-01
383	  0.084797986	-3.150400E+01	  0.084797986	1.070400E+01	  0.084797986	5.268000E+01	  0.084797986	5.200000E-01
384	  0.084993795	-3.148400E+01	  0.084993795	1.041200E+01	  0.084993795	5.268900E+01	  0.084993795	5.080000E-01
385	  0.085189603	-3.150700E+01	  0.085189603	1.058900E+01	  0.085189603	5.268000E+01	  0.085189603	5.150000E-01
386	  0.085385405	-3.151600E+01	  0.085385405	1.050900E+01	  0.085385405	5.267800E+01	  0.085385405	5.100000E-01
387	  0.085581213	-3.142500E+01	  0.085581213	1.042600E+01	  0.085581213	5.270800E+01	  0.085581213	5.120000E-01
388	  0.085777014	-3.145900E+01	  0.085777014	1.112200E+01	  0.085777014	5.269000E+01	  0.085777014	5.430000E-01
389	  0.085972831	-3.138000E+01	  0.085972831	1.090100E+01	  0.085972831	5.271800E+01	  0.085972831	5.380000E-01
390	  0.086168632	-3.150900E+01	  0.086168632	1.135000E+01	  0.086168632	5.267200E+01	  0.086168632	5.510000E-01
391	  0.086364441	-3.149200E+01	  0.086364441	1.203400E+01	  0.086364441	5.267000E+01	  0.086364441	5.850000E-01
392	  0.086560242	-3.159600E+01	  0.086560242	1.205400E+01	  0.086560242	5.263700E+01	  0.086560242	5.780000E-01
393	  0.086756051	-3.160700E+01	  0.086756051	1.239100E+01	  0.086756051	5.263000E+01	  0.086756051	5.940000E-01
394	  0.086951852	-3.171700E+01	  0.086951852	1.318800E+01	  0.086951852	5.258800E+01	  0.086951852	6.230000E-01
395	  0.087147661	-3.173500E+01	  0.087147661	1.282500E+01	  0.087147661	5.258600E+01	  0.087147661	6.040000E-01
396	  0.087343477	-3.188300E+01	  0.087343477	1.285900E+01	  0.087343477	5.254100E+01	  0.087343477	5.950000E-01
397	  0.087539278	-3.209300E+01	  0.087539278	1.294900E+01	  0.087539278	5.247800E+01	  0.087539278	5.840000E-01
398	  0.087735087	-3.215400E+01	  0.087735087	1.268300E+01	  0.087735087	5.246300E+01	  0.087735087	5.680000E-01
399	  0.087930888	-3.229600E+01	  0.087930888	1.310500E+01	  0.087930888	5.241800E+01	  0.087930888	5.770000E-01
400	  0.088126697	-3.244200E+01	  0.088126697	1.246100E+01	  0.088126697	5.238300E+01	  0.088126697	5.390000E-01
401	  0.088322498	-3.268300E+01	  0.088322498	1.180600E+01	  0.088322498	5.232300E+01	  0.088322498	4.970000E-01
402	  0.088518307	-3.273600E+01	  0.088518307	1.150200E+01	  0.088518307	5.231100E+01	  0.088518307	4.810000E-01
403	  0.088714108	-3.298600E+01	  0.088714108	1.072300E+01	  0.088714108	5.225000E+01	  0.088714108	4.360000E-01
404	  0.088909924	-3.307300E+01	  0.088909924	9.499000E+00	  0.088909924	5.223600E+01	  0.088909924	3.820000E-01
405	  0.089105725	-3.321100E+01	  0.089105725	7.473000E+00	  0.089105725	5.221300E+01	  0.089105725	2.960000E-01
406	  0.089301534	-3.321700E+01	  0.089301534	6.482000E+00	  0.089301534	5.221600E+01	  0.089301534	2.570000E-01
407	  0.089497335	-3.329000E+01	  0.089497335	4.947000E+00	  0.089497335	5.220400E+01	  0.089497335	1.950000E-01
408	  0.089693144	-3.331800E+01	  0.089693144	3.062000E+00	  0.089693144	5.220200E+01	  0.089693144	1.200000E-01
409	  0.089888945	-3.327100E+01	  0.089888945	1.807000E+00	  0.089888945	5.221600E+01	  0.089888945	7.100000E-02
410	  0.090084754	-3.327700E+01	  0.090084754	-4.970000E-01	  0.090084754	5.221600E+01	  0.090084754	-1.900000E-02
411	  0.090280563	-3.318200E+01	  0.090280563	-1.841000E+00	  0.090280563	5.224000E+01	  0.090280563	-7.300000E-02
412	  0.090476371	-3.302100E+01	  0.090476371	-3.816000E+00	  0.090476371	5.227800E+01	  0.090476371	-1.550000E-01
413	  0.090672180	-3.295700E+01	  0.090672180	-4.880000E+00	  0.090672180	5.229200E+01	  0.090672180	-2.000000E-01
414	  0.090867981	-3.262000E+01	  0.090867981	-6.191000E+00	  0.090867981	5.237900E+01	  0.090867981	-2.640000E-01
415	  0.091063790	-3.249900E+01	  0.091063790	-7.002000E+00	  0.091063790	5.240900E+01	  0.091063790	-3.030000E-01
416	  0.091259591	-3.217000E+01	  0.091259591	-7.924000E+00	  0.091259591	5.249900E+01	  0.091259591	-3.560000E-01
417	  0.091455400	-3.201100E+01	  0.091455400	-8.923000E+00	  0.091455400	5.253900E+01	  0.091455400	-4.090000E-01
418	  0.091651201	-3.173600E+01	  0.091651201	-8.767000E+00	  0.091651201	5.262400E+01	  0.091651201	-4.150000E-01
419	  0.091847017	-3.150400E+01	  0.091847017	-8.923000E+00	  0.091847017	5.269600E+01	  0.091847017	-4.350000E-01
420	  0.092042819	-3.131400E+01	  0.092042819	-8.770000E+00	  0.092042819	5.275800E+01	  0.092042819	-4.370000E-01
421	  0.092238627	-3.104000E+01	  0.092238627	-8.166000E+00	  0.092238627	5.285400E+01	  0.092238627	-4.210000E-01
422	  0.092434436	-3.092200E+01	  0.092434436	-7.708000E+00	  0.092434436	5.289800E+01	  0.092434436	-4.030000E-01
423	  0.092630237	-3.064000E+01	  0.092630237	-6.961000E+00	  0.092630237	5.300200E+01	  0.092630237	-3.770000E-01
424	  0.092826046	-3.053000E+01	  0.092826046	-5.992000E+00	  0.092826046	5.304700E+01	  0.092826046	-3.290000E-01
425	  0.093021847	-3.045100E+01	  0.093021847	-5.000000E+00	  0.093021847	5.308200E+01	  0.093021847	-2.780000E-01
426	  0.093217656	-3.032600E+01	  0.093217656	-3.975000E+00	  0.093217656	5.313300E+01	  0.093217656	-2.240000E-01
427	  0.093413465	-3.020300E+01	  0.093413465	-2.887000E+00	  0.093413465	5.318200E+01	  0.093413465	-1.650000E-01
428	  0.093609273	-3.017600E+01	  0.093609273	-1.320000E+00	  0.093609273	5.319600E+01	  0.093609273	-7.600000E-02
429	  0.093805075	-3.017100E+01	  0.093805075	-3.500000E-02	  0.093805075	5.319900E+01	  0.093805075	-2.000000E-03
430	  0.094000883	-3.015200E+01	  0.094000883	1.065000E+00	  0.094000883	5.320600E+01	  0.094000883	6.100000E-02
431	  0.094196685	-3.022700E+01	  0.094196685	2.710000E+00	  0.094196685	5.317400E+01	  0.094196685	1.550000E-01
432	  0.094392493	-3.025400E+01	  0.094392493	4.001000E+00	  0.094392493	5.315900E+01	  0.094392493	2.280000E-01
433	  0.094588295	-3.040100E+01	  0.094588295	4.962000E+00	  0.094588295	5.310000E+01	  0.094588295	2.770000E-01
434	  0.094784103	-3.053600E+01	  0.094784103	6.086000E+00	  0.094784103	5.304500E+01	  0.094784103	3.340000E-01
435	  0.094979919	-3.068700E+01	  0.094979919	7.029000E+00	  0.094979919	5.298400E+01	  0.094979919	3.790000E-01
436	  0.095175721	-3.082200E+01	  0.095175721	8.390000E+00	  0.095175721	5.292700E+01	  0.095175721	4.440000E-01
437	  0.095371529	-3.117000E+01	  0.095371529	8.740000E+00	  0.095371529	5.280600E+01	  0.095371529	4.430000E-01
438	  0.095567331	-3.136300E+01	  0.095567331	9.417000E+00	  0.095567331	5.273700E+01	  0.095567331	4.660000E-01
439	  0.095763139	-3.161700E+01	  0.095763139	1.033600E+01	  0.095763139	5.264800E+01	  0.095763139	4.960000E-01
440	  0.095958941	-3.197000E+01	  0.095958941	1.076600E+01	  0.095958941	5.253600E+01	  0.095958941	4.950000E-01
441	  0.096154749	-3.230000E+01	  0.096154749	1.051500E+01	  0.096154749	5.244100E+01	  0.096154749	4.640000E-01
442	  0.096350558	-3.264000E+01	  0.096350558	1.010900E+01	  0.096350558	5.234900E+01	  0.096350558	4.290000E-01
443	  0.096546367	-3.309200E+01	  0.096546367	9.441000E+00	  0.096546367	5.223200E+01	  0.096546367	3.790000E-01
444	  0.096742168	-3.336200E+01	  0.096742168	8.137000E+00	  0.096742168	5.217000E+01	  0.096742168	3.170000E-01
445	  0.096937977	-3.385100E+01	  0.096937977	6.005000E+00	  0.096937977	5.205900E+01	  0.096937977	2.210000E-01
446	  0.097133778	-3.402900E+01	  0.097133778	4.883000E+00	  0.097133778	5.202100E+01	  0.097133778	1.760000E-01
447	  0.097329587	-3.436300E+01	  0.097329587	1.451000E+00	  0.097329587	5.195000E+01	  0.097329587	5.000000E-02
448	  0.097525395	-3.456800E+01	  0.097525395	-1.617000E+00	  0.097525395	5.190300E+01	  0.097525395	-5.400000E-02
449	  0.097721197	-3.478100E+01	  0.097721197	-5.224000E+00	  0.097721197	5.184900E+01	  0.097721197	-1.720000E-01
450	  0.097917013	-3.486900E+01	  0.097917013	-8.034000E+00	  0.097917013	5.181900E+01	  0.097917013	-2.610000E-01
451	  0.098112814	-3.477400E+01	  0.098112814	-1.164100E+01	  0.098112814	5.181800E+01	  0.098112814	-3.810000E-01
452	  0.098308623	-3.458500E+01	  0.098308623	-1.596800E+01	  0.098308623	5.182300E+01	  0.098308623	-5.320000E-01
453	  0.098504424	-3.440500E+01	  0.098504424	-1.909900E+01	  0.098504424	5.182800E+01	  0.098504424	-6.460000E-01
454	  0.098700233	-3.402300E+01	  0.098700233	-2.124200E+01	  0.098700233	5.188400E+01	  0.098700233	-7.480000E-01
455	  0.098896034	-3.372100E+01	  0.098896034	-2.363800E+01	  0.098896034	5.191600E+01	  0.098896034	-8.580000E-01
456	  0.099091843	-3.326600E+01	  0.099091843	-2.522300E+01	  0.099091843	5.199400E+01	  0.099091843	-9.620000E-01
457	  0.099287644	-3.291500E+01	  0.099287644	-2.653600E+01	  0.099287644	5.205300E+01	  0.099287644	-1.052000E+00
458	  0.099483460	-3.256600E+01	  0.099483460	-2.778500E+01	  0.099483460	5.211300E+01	  0.099483460	-1.143000E+00
459	  0.099679269	-3.215000E+01	  0.099679269	-2.842200E+01	  0.099679269	5.220400E+01	  0.099679269	-1.227000E+00
460	  0.099875070	-3.181500E+01	  0.099875070	-2.904600E+01	  0.099875070	5.227800E+01	  0.099875070	-1.303000E+00
461	  0.100070879	-3.138100E+01	  0.100070879	-2.786500E+01	  0.100070879	5.242500E+01	  0.100070879	-1.322000E+00
462	  0.100266680	-3.110900E+01	  0.100266680	-2.836600E+01	  0.100266680	5.249100E+01	  0.100266680	-1.389000E+00
463	  0.100462489	-3.079100E+01	  0.100462489	-2.741000E+01	  0.100462489	5.261100E+01	  0.100462489	-1.399000E+00
464	  0.100658290	-3.047400E+01	  0.100658290	-2.796900E+01	  0.100658290	5.269400E+01	  0.100658290	-1.481000E+00
465	  0.100854106	-3.025700E+01	  0.100854106	-2.653600E+01	  0.100854106	5.280300E+01	  0.100854106	-1.449000E+00
466	  0.101049908	-3.003600E+01	  0.101049908	-2.555900E+01	  0.101049908	5.290300E+01	  0.101049908	-1.439000E+00
467	  0.101245716	-2.993300E+01	  0.101245716	-2.502500E+01	  0.101245716	5.295300E+01	  0.101245716	-1.429000E+00
468	  0.101441517	-2.973700E+01	  0.101441517	-2.340100E+01	  0.101441517	5.306500E+01	  0.101441517	-1.375000E+00
469	  0.101637326	-2.961000E+01	  0.101637326	-2.250200E+01	  0.101637326	5.313400E+01	  0.101637326	-1.346000E+00
470	  0.101833127	-2.951200E+01	  0.101833127	-2.127900E+01	  0.101833127	5.320100E+01	  0.101833127	-1.293000E+00
471	  0.102028936	-2.949800E+01	  0.102028936	-2.075400E+01	  0.102028936	5.321800E+01	  0.102028936	-1.265000E+00
472	  0.102224737	-2.933800E+01	  0.102224737	-1.909400E+01	  0.102224737	5.331800E+01	  0.102224737	-1.191000E+00
473	  0.102420554	-2.930800E+01	  0.102420554	-1.856100E+01	  0.102420554	5.334100E+01	  0.102420554	-1.164000E+00
474	  0.102616362	-2.930100E+01	  0.102616362	-1.743800E+01	  0.102616362	5.336800E+01	  0.102616362	-1.097000E+00
475	  0.102812164	-2.943000E+01	  0.102812164	-1.646800E+01	  0.102812164	5.333600E+01	  0.102812164	-1.022000E+00
476	  0.103007972	-2.933800E+01	  0.103007972	-1.573600E+01	  0.103007972	5.338600E+01	  0.103007972	-9.890000E-01
477	  0.103203773	-2.936200E+01	  0.103203773	-1.550100E+01	  0.103203773	5.338100E+01	  0.103203773	-9.720000E-01
478	  0.103399582	-2.939500E+01	  0.103399582	-1.441600E+01	  0.103399582	5.338700E+01	  0.103399582	-9.020000E-01
479	  0.103595383	-2.951700E+01	  0.103595383	-1.443400E+01	  0.103595383	5.333700E+01	  0.103595383	-8.890000E-01
480	  0.103791192	-2.957900E+01	  0.103791192	-1.425700E+01	  0.103791192	5.331600E+01	  0.103791192	-8.720000E-01
481	  0.103987001	-2.965900E+01	  0.103987001	-1.377800E+01	  0.103987001	5.329200E+01	  0.103987001	-8.350000E-01
482	  0.104182810	-2.969800E+01	  0.104182810	-1.348000E+01	  0.104182810	5.328200E+01	  0.104182810	-8.140000E-01
483	  0.104378611	-2.969400E+01	  0.104378611	-1.312700E+01	  0.104378611	5.328800E+01	  0.104378611	-7.930000E-01
484	  0.104574420	-2.981400E+01	  0.104574420	-1.347800E+01	  0.104574420	5.323700E+01	  0.104574420	-8.020000E-01
485	  0.104770228	-2.980600E+01	  0.104770228	-1.331200E+01	  0.104770228	5.324200E+01	  0.104770228	-7.930000E-01
486	  0.104966030	-2.974100E+01	  0.104966030	-1.325100E+01	  0.104966030	5.326800E+01	  0.104966030	-7.960000E-01
487	  0.105161838	-2.971700E+01	  0.105161838	-1.353500E+01	  0.105161838	5.327300E+01	  0.105161838	-8.150000E-01
488	  0.105357639	-2.991700E+01	  0.105357639	-1.370100E+01	  0.105357639	5.319400E+01	  0.105357639	-8.050000E-01
489	  0.105553456	-2.980400E+01	  0.105553456	-1.337200E+01	  0.105553456	5.324200E+01	  0.105553456	-7.970000E-01
490	  0.105749257	-2.987100E+01	  0.105749257	-1.479000E+01	  0.105749257	5.319500E+01	  0.105749257	-8.720000E-01
491	  0.105945066	-2.982300E+01	  0.105945066	-1.385000E+01	  0.105945066	5.322800E+01	  0.105945066	-8.230000E-01
492	  0.106140867	-2.971500E+01	  0.106140867	-1.451800E+01	  0.106140867	5.325900E+01	  0.106140867	-8.730000E-01
493	  0.106336676	-2.979700E+01	  0.106336676	-1.446000E+01	  0.106336676	5.322800E+01	  0.106336676	-8.610000E-01
494	  0.106532477	-2.960200E+01	  0.106532477	-1.541200E+01	  0.106532477	5.328800E+01	  0.106532477	-9.380000E-01
495	  0.106728286	-2.967400E+01	  0.106728286	-1.453700E+01	  0.106728286	5.327400E+01	  0.106728286	-8.780000E-01
496	  0.106924094	-2.953200E+01	  0.106924094	-1.516200E+01	  0.106924094	5.331900E+01	  0.106924094	-9.310000E-01
497	  0.107119903	-2.956700E+01	  0.107119903	-1.537000E+01	  0.107119903	5.330200E+01	  0.107119903	-9.400000E-01
498	  0.107315712	-2.954000E+01	  0.107315712	-1.508100E+01	  0.107315712	5.331800E+01	  0.107315712	-9.260000E-01
499	  0.107511513	-2.947900E+01	  0.107511513	-1.488800E+01	  0.107511513	5.334500E+01	  0.107511513	-9.210000E-01
500	  0.107707322	-2.936300E+01	  0.107707322	-1.402100E+01	  0.107707322	5.340600E+01	  0.107707322	-8.810000E-01
501	  0.107903123	-2.941900E+01	  0.107903123	-1.395200E+01	  0.107903123	5.338500E+01	  0.107903123	-8.710000E-01
