! Anritsu VNA Master:             	Model: MS2036C/10/77
! SN:             	1601066
! /bd0/18may07/256.ns.m2.txt
! Existing Calibration Information:
! TYPE:             	Current Settings	Active Cal Settings
! TIME:             	05/07/2018 03:01:49 PM	05/07/2018 02:58:54 PM
! INTERNAL TEMP:    	59.3 C	58.8 C
! # POINTS:         	500	500
! START FREQ:       	20.000 MHz	20.000 MHz
! STOP FREQ:        	120.000 MHz	120.000 MHz
! SOURCE POWER:     	High	High
! IFBW:             	50 Hz	50 Hz
! AVG FACTOR:       	  1 	  1 
! REF PLANE 1:      	0 mm	0 mm
! REF PLANE 2:      	0 mm	0 mm
! CAL TYPE:         	Full S11	Full S11
! CAL METHOD:       	SOLT	SOLT
! CAL LINE TYPE:    	Coax	Coax
! DUT PORT 1:       	K-Conn(F)	K-Conn(F)
! DUT PORT 2:       	K-Conn(F)	K-Conn(F)
! CAL STATUS:       	OK: Accuracy High	--
! PROP-V:       	0.700
! CABLE LOSS:       	0.000 dB/m
! REF IMPEDANCE:       	50.0
! Trace Specific Parameters:	TR1	TR2	TR3	TR4
! TRACE.#.Y (GRAPH TYPE)	LOG MAG	PHASE	REAL IMPEDANCE	IMAGINARY IMPEDANCE
! TRACE.#.X 	FREQ.GHZ	FREQ.GHZ	FREQ.GHZ	FREQ.GHZ
! S-PARAMETER	S11	S11	S11	S11
! SMOOTH/APERTURE %	0	0	0	0
! WINDOW	NSL	NSL	NSL	NSL
! GATING	OFF	OFF	OFF	OFF
! FGTD	OFF	OFF	OFF	OFF
Marker Information per Trace:	TR1	TR2	TR3	TR4
!MK1	--	"MK1 TR2:  20.000 MHz,PH:-125.87°"	--	--
!MK2	--	--	"MK2 TR3:  70.100 200 MHz,Z:(16.934 ohm, -2.876 ohm)"	--
!MK3	--	--	--	--
!MK4	--	--	--	--
!MK5	--	--	--	--
!MK6	--	--	--	--
!MK7	--	--	--	--
!MK8	--	--	--	--
PNT	TR1.FREQ.GHZ	TR1.LOG MAG.dB	TR2.FREQ.GHZ	TR2.PHASE.deg	TR3.FREQ.GHZ	TR3.REAL IMPEDANCE.ohm	TR4.FREQ.GHZ	TR4.IMAGINARY IMPEDANCE.ohm
1	  0.020000000	-6.240000E-01	  0.020000000	-1.258680E+02	  0.020000000	2.265000E+00	  0.020000000	-2.550600E+01
2	  0.020200402	-6.230000E-01	  0.020200402	-1.273420E+02	  0.020200402	2.232000E+00	  0.020200402	-2.470300E+01
3	  0.020400802	-6.230000E-01	  0.020400802	-1.288080E+02	  0.020400802	2.206000E+00	  0.020400802	-2.391300E+01
4	  0.020601204	-6.260000E-01	  0.020601204	-1.302700E+02	  0.020601204	2.188000E+00	  0.020601204	-2.313500E+01
5	  0.020801604	-6.310000E-01	  0.020801604	-1.317770E+02	  0.020801604	2.181000E+00	  0.020801604	-2.234200E+01
6	  0.021002004	-6.360000E-01	  0.021002004	-1.333020E+02	  0.021002004	2.172000E+00	  0.021002004	-2.154900E+01
7	  0.021202406	-6.440000E-01	  0.021202406	-1.348350E+02	  0.021202406	2.172000E+00	  0.021202406	-2.076100E+01
8	  0.021402806	-6.490000E-01	  0.021402806	-1.363790E+02	  0.021402806	2.168000E+00	  0.021402806	-1.997600E+01
9	  0.021603208	-6.540000E-01	  0.021603208	-1.379320E+02	  0.021603208	2.159000E+00	  0.021603208	-1.919500E+01
10	  0.021803608	-6.590000E-01	  0.021803608	-1.394800E+02	  0.021803608	2.155000E+00	  0.021803608	-1.842500E+01
11	  0.022004008	-6.650000E-01	  0.022004008	-1.410290E+02	  0.022004008	2.152000E+00	  0.022004008	-1.766200E+01
12	  0.022204408	-6.720000E-01	  0.022204408	-1.426140E+02	  0.022204408	2.155000E+00	  0.022204408	-1.688800E+01
13	  0.022404809	-6.790000E-01	  0.022404809	-1.441810E+02	  0.022404809	2.158000E+00	  0.022404809	-1.613100E+01
14	  0.022605211	-6.840000E-01	  0.022605211	-1.457880E+02	  0.022605211	2.156000E+00	  0.022605211	-1.536100E+01
15	  0.022805611	-6.880000E-01	  0.022805611	-1.473920E+02	  0.022805611	2.148000E+00	  0.022805611	-1.459900E+01
16	  0.023006011	-6.900000E-01	  0.023006011	-1.489990E+02	  0.023006011	2.138000E+00	  0.023006011	-1.384300E+01
17	  0.023206413	-6.900000E-01	  0.023206413	-1.505960E+02	  0.023206413	2.123000E+00	  0.023206413	-1.309600E+01
18	  0.023406813	-6.950000E-01	  0.023406813	-1.522020E+02	  0.023406813	2.123000E+00	  0.023406813	-1.235100E+01
19	  0.023607215	-7.020000E-01	  0.023607215	-1.538060E+02	  0.023607215	2.130000E+00	  0.023607215	-1.161200E+01
20	  0.023807615	-7.080000E-01	  0.023807615	-1.554090E+02	  0.023807615	2.135000E+00	  0.023807615	-1.087800E+01
21	  0.024008015	-7.170000E-01	  0.024008015	-1.570530E+02	  0.024008015	2.149000E+00	  0.024008015	-1.013000E+01
22	  0.024208417	-7.280000E-01	  0.024208417	-1.586950E+02	  0.024208417	2.168000E+00	  0.024208417	-9.387000E+00
23	  0.024408817	-7.380000E-01	  0.024408817	-1.603570E+02	  0.024408817	2.189000E+00	  0.024408817	-8.639000E+00
24	  0.024609219	-7.460000E-01	  0.024609219	-1.620100E+02	  0.024609219	2.202000E+00	  0.024609219	-7.899000E+00
25	  0.024809619	-7.560000E-01	  0.024809619	-1.636830E+02	  0.024809619	2.220000E+00	  0.024809619	-7.154000E+00
26	  0.025010020	-7.690000E-01	  0.025010020	-1.653380E+02	  0.025010020	2.248000E+00	  0.025010020	-6.419000E+00
27	  0.025210422	-7.790000E-01	  0.025210422	-1.670180E+02	  0.025210422	2.271000E+00	  0.025210422	-5.676000E+00
28	  0.025410822	-7.950000E-01	  0.025410822	-1.687090E+02	  0.025410822	2.310000E+00	  0.025410822	-4.931000E+00
29	  0.025611224	-8.090000E-01	  0.025611224	-1.704070E+02	  0.025611224	2.344000E+00	  0.025611224	-4.186000E+00
30	  0.025811624	-8.220000E-01	  0.025811624	-1.721310E+02	  0.025811624	2.375000E+00	  0.025811624	-3.430000E+00
31	  0.026012026	-8.340000E-01	  0.026012026	-1.738760E+02	  0.026012026	2.406000E+00	  0.026012026	-2.668000E+00
32	  0.026212426	-8.460000E-01	  0.026212426	-1.756050E+02	  0.026212426	2.437000E+00	  0.026212426	-1.913000E+00
33	  0.026412826	-8.590000E-01	  0.026412826	-1.773440E+02	  0.026412826	2.473000E+00	  0.026412826	-1.156000E+00
34	  0.026613226	-8.750000E-01	  0.026613226	-1.790980E+02	  0.026613226	2.517000E+00	  0.026613226	-3.920000E-01
35	  0.026813626	-8.910000E-01	  0.026813626	1.791320E+02	  0.026813626	2.562000E+00	  0.026813626	3.770000E-01
36	  0.027014028	-9.060000E-01	  0.027014028	1.773550E+02	  0.027014028	2.608000E+00	  0.027014028	1.150000E+00
37	  0.027214428	-9.250000E-01	  0.027214428	1.755650E+02	  0.027214428	2.666000E+00	  0.027214428	1.930000E+00
38	  0.027414829	-9.410000E-01	  0.027414829	1.737550E+02	  0.027414829	2.714000E+00	  0.027414829	2.719000E+00
39	  0.027615231	-9.570000E-01	  0.027615231	1.719530E+02	  0.027615231	2.766000E+00	  0.027615231	3.505000E+00
40	  0.027815631	-9.770000E-01	  0.027815631	1.701170E+02	  0.027815631	2.830000E+00	  0.027815631	4.309000E+00
41	  0.028016033	-9.980000E-01	  0.028016033	1.682830E+02	  0.028016033	2.901000E+00	  0.028016033	5.113000E+00
42	  0.028216433	-1.020000E+00	  0.028216433	1.664420E+02	  0.028216433	2.975000E+00	  0.028216433	5.922000E+00
43	  0.028416833	-1.040000E+00	  0.028416833	1.645950E+02	  0.028416833	3.045000E+00	  0.028416833	6.737000E+00
44	  0.028617235	-1.060000E+00	  0.028617235	1.627420E+02	  0.028617235	3.119000E+00	  0.028617235	7.558000E+00
45	  0.028817635	-1.080000E+00	  0.028817635	1.608830E+02	  0.028817635	3.193000E+00	  0.028817635	8.386000E+00
46	  0.029018037	-1.098000E+00	  0.029018037	1.590530E+02	  0.029018037	3.265000E+00	  0.029018037	9.204000E+00
47	  0.029218437	-1.117000E+00	  0.029218437	1.572160E+02	  0.029218437	3.342000E+00	  0.029218437	1.003100E+01
48	  0.029418837	-1.141000E+00	  0.029418837	1.553820E+02	  0.029418837	3.436000E+00	  0.029418837	1.086000E+01
49	  0.029619239	-1.165000E+00	  0.029619239	1.535320E+02	  0.029619239	3.533000E+00	  0.029619239	1.170200E+01
50	  0.029819639	-1.194000E+00	  0.029819639	1.516530E+02	  0.029819639	3.649000E+00	  0.029819639	1.256300E+01
51	  0.030020041	-1.224000E+00	  0.030020041	1.497470E+02	  0.030020041	3.775000E+00	  0.030020041	1.344300E+01
52	  0.030220442	-1.255000E+00	  0.030220442	1.478220E+02	  0.030220442	3.906000E+00	  0.030220442	1.434000E+01
53	  0.030420844	-1.285000E+00	  0.030420844	1.458840E+02	  0.030420844	4.037000E+00	  0.030420844	1.525000E+01
54	  0.030621244	-1.316000E+00	  0.030621244	1.439620E+02	  0.030621244	4.180000E+00	  0.030621244	1.616100E+01
55	  0.030821644	-1.349000E+00	  0.030821644	1.420480E+02	  0.030821644	4.331000E+00	  0.030821644	1.707700E+01
56	  0.031022044	-1.383000E+00	  0.031022044	1.401010E+02	  0.031022044	4.494000E+00	  0.031022044	1.801800E+01
57	  0.031222444	-1.415000E+00	  0.031222444	1.381820E+02	  0.031222444	4.652000E+00	  0.031222444	1.895700E+01
58	  0.031422846	-1.451000E+00	  0.031422846	1.362130E+02	  0.031422846	4.837000E+00	  0.031422846	1.993100E+01
59	  0.031623244	-1.489000E+00	  0.031623244	1.341960E+02	  0.031623244	5.033000E+00	  0.031623244	2.094000E+01
60	  0.031823646	-1.528000E+00	  0.031823646	1.321990E+02	  0.031823646	5.242000E+00	  0.031823646	2.195300E+01
61	  0.032024048	-1.564000E+00	  0.032024048	1.301840E+02	  0.032024048	5.448000E+00	  0.032024048	2.299000E+01
62	  0.032224450	-1.602000E+00	  0.032224450	1.281790E+02	  0.032224450	5.674000E+00	  0.032224450	2.403600E+01
63	  0.032424849	-1.638000E+00	  0.032424849	1.261610E+02	  0.032424849	5.899000E+00	  0.032424849	2.510500E+01
64	  0.032625251	-1.672000E+00	  0.032625251	1.241390E+02	  0.032625251	6.132000E+00	  0.032625251	2.619500E+01
65	  0.032825653	-1.711000E+00	  0.032825653	1.221420E+02	  0.032825653	6.391000E+00	  0.032825653	2.728700E+01
66	  0.033026051	-1.748000E+00	  0.033026051	1.201270E+02	  0.033026051	6.654000E+00	  0.033026051	2.840800E+01
67	  0.033226453	-1.792000E+00	  0.033226453	1.181410E+02	  0.033226453	6.959000E+00	  0.033226453	2.953000E+01
68	  0.033426855	-1.837000E+00	  0.033426855	1.161550E+02	  0.033426855	7.282000E+00	  0.033426855	3.067000E+01
69	  0.033627257	-1.886000E+00	  0.033627257	1.141270E+02	  0.033627257	7.642000E+00	  0.033627257	3.185500E+01
70	  0.033827655	-1.936000E+00	  0.033827655	1.121020E+02	  0.033827655	8.022000E+00	  0.033827655	3.306000E+01
71	  0.034028057	-1.990000E+00	  0.034028057	1.100700E+02	  0.034028057	8.440000E+00	  0.034028057	3.429000E+01
72	  0.034228459	-2.041000E+00	  0.034228459	1.079550E+02	  0.034228459	8.878000E+00	  0.034228459	3.560100E+01
73	  0.034428857	-2.091000E+00	  0.034428857	1.058370E+02	  0.034428857	9.336000E+00	  0.034428857	3.694300E+01
74	  0.034629259	-2.138000E+00	  0.034629259	1.037090E+02	  0.034629259	9.811000E+00	  0.034629259	3.832400E+01
75	  0.034829661	-2.187000E+00	  0.034829661	1.015750E+02	  0.034829661	1.032400E+01	  0.034829661	3.974200E+01
76	  0.035030060	-2.233000E+00	  0.035030060	9.946100E+01	  0.035030060	1.085100E+01	  0.035030060	4.118100E+01
77	  0.035230462	-2.278000E+00	  0.035230462	9.735500E+01	  0.035230462	1.141000E+01	  0.035230462	4.265100E+01
78	  0.035430863	-2.320000E+00	  0.035430863	9.524000E+01	  0.035430863	1.199300E+01	  0.035430863	4.417000E+01
79	  0.035631265	-2.364000E+00	  0.035631265	9.315900E+01	  0.035631265	1.261300E+01	  0.035631265	4.570100E+01
80	  0.035831664	-2.407000E+00	  0.035831664	9.108600E+01	  0.035831664	1.327400E+01	  0.035831664	4.726600E+01
81	  0.036032066	-2.449000E+00	  0.036032066	8.901000E+01	  0.036032066	1.397100E+01	  0.036032066	4.888000E+01
82	  0.036232468	-2.495000E+00	  0.036232468	8.696800E+01	  0.036232468	1.472900E+01	  0.036232468	5.050200E+01
83	  0.036432866	-2.542000E+00	  0.036432866	8.493000E+01	  0.036432866	1.554900E+01	  0.036432866	5.216200E+01
84	  0.036633268	-2.594000E+00	  0.036633268	8.287400E+01	  0.036633268	1.646100E+01	  0.036633268	5.387500E+01
85	  0.036833670	-2.648000E+00	  0.036833670	8.083000E+01	  0.036833670	1.744400E+01	  0.036833670	5.561900E+01
86	  0.037034072	-2.706000E+00	  0.037034072	7.877200E+01	  0.037034072	1.853400E+01	  0.037034072	5.741200E+01
87	  0.037234470	-2.769000E+00	  0.037234470	7.670200E+01	  0.037234470	1.974100E+01	  0.037234470	5.925000E+01
88	  0.037434869	-2.834000E+00	  0.037434869	7.460600E+01	  0.037434869	2.106500E+01	  0.037434869	6.115500E+01
89	  0.037635271	-2.903000E+00	  0.037635271	7.252700E+01	  0.037635271	2.252100E+01	  0.037635271	6.307200E+01
90	  0.037835669	-2.976000E+00	  0.037835669	7.049200E+01	  0.037835669	2.408800E+01	  0.037835669	6.497200E+01
91	  0.038036071	-3.035000E+00	  0.038036071	6.847100E+01	  0.038036071	2.566800E+01	  0.038036071	6.694900E+01
92	  0.038236473	-3.087000E+00	  0.038236473	6.638600E+01	  0.038236473	2.736500E+01	  0.038236473	6.906900E+01
93	  0.038436871	-3.135000E+00	  0.038436871	6.422700E+01	  0.038436871	2.922500E+01	  0.038436871	7.135100E+01
94	  0.038637273	-3.184000E+00	  0.038637273	6.207000E+01	  0.038637273	3.126500E+01	  0.038637273	7.367600E+01
95	  0.038837675	-3.232000E+00	  0.038837675	5.994500E+01	  0.038837675	3.344600E+01	  0.038837675	7.603000E+01
96	  0.039038073	-3.277000E+00	  0.039038073	5.785400E+01	  0.039038073	3.577500E+01	  0.039038073	7.840300E+01
97	  0.039238475	-3.319000E+00	  0.039238475	5.577800E+01	  0.039238475	3.827400E+01	  0.039238475	8.082100E+01
98	  0.039438877	-3.364000E+00	  0.039438877	5.371700E+01	  0.039438877	4.100800E+01	  0.039438877	8.324100E+01
99	  0.039639279	-3.416000E+00	  0.039639279	5.170200E+01	  0.039639279	4.400000E+01	  0.039639279	8.556100E+01
100	  0.039839678	-3.472000E+00	  0.039839678	4.965400E+01	  0.039839678	4.733700E+01	  0.039839678	8.789200E+01
101	  0.040040080	-3.528000E+00	  0.040040080	4.759700E+01	  0.040040080	5.100200E+01	  0.040040080	9.019700E+01
102	  0.040240481	-3.583000E+00	  0.040240481	4.554000E+01	  0.040240481	5.498500E+01	  0.040240481	9.247000E+01
103	  0.040440880	-3.643000E+00	  0.040440880	4.346300E+01	  0.040440880	5.941400E+01	  0.040440880	9.462900E+01
104	  0.040641282	-3.699000E+00	  0.040641282	4.139800E+01	  0.040641282	6.417700E+01	  0.040641282	9.669100E+01
105	  0.040841684	-3.756000E+00	  0.040841684	3.933300E+01	  0.040841684	6.937000E+01	  0.040841684	9.857200E+01
106	  0.041042086	-3.809000E+00	  0.041042086	3.729000E+01	  0.041042086	7.492700E+01	  0.041042086	1.002520E+02
107	  0.041242484	-3.861000E+00	  0.041242484	3.522800E+01	  0.041242484	8.098900E+01	  0.041242484	1.016940E+02
108	  0.041442886	-3.916000E+00	  0.041442886	3.318500E+01	  0.041442886	8.749800E+01	  0.041442886	1.026970E+02
109	  0.041643288	-3.967000E+00	  0.041643288	3.112800E+01	  0.041643288	9.451500E+01	  0.041643288	1.033280E+02
110	  0.041843686	-4.017000E+00	  0.041843686	2.908000E+01	  0.041843686	1.019760E+02	  0.041843686	1.034370E+02
111	  0.042044088	-4.067000E+00	  0.042044088	2.703600E+01	  0.042044088	1.098890E+02	  0.042044088	1.028680E+02
112	  0.042244490	-4.112000E+00	  0.042244490	2.503800E+01	  0.042244490	1.180180E+02	  0.042244490	1.016400E+02
113	  0.042444889	-4.162000E+00	  0.042444889	2.303800E+01	  0.042444889	1.264660E+02	  0.042444889	9.942500E+01
114	  0.042645290	-4.211000E+00	  0.042645290	2.104100E+01	  0.042645290	1.351120E+02	  0.042645290	9.624300E+01
115	  0.042845692	-4.262000E+00	  0.042845692	1.905400E+01	  0.042845692	1.437410E+02	  0.042845692	9.190200E+01
116	  0.043046094	-4.308000E+00	  0.043046094	1.708100E+01	  0.043046094	1.522410E+02	  0.043046094	8.656600E+01
117	  0.043246493	-4.357000E+00	  0.043246493	1.510600E+01	  0.043246493	1.603620E+02	  0.043246493	7.990300E+01
118	  0.043446895	-4.405000E+00	  0.043446895	1.313600E+01	  0.043446895	1.679400E+02	  0.043446895	7.212700E+01
119	  0.043647297	-4.451000E+00	  0.043647297	1.116700E+01	  0.043647297	1.747370E+02	  0.043647297	6.323800E+01
120	  0.043847695	-4.497000E+00	  0.043847695	9.195000E+00	  0.043847695	1.805130E+02	  0.043847695	5.329900E+01
121	  0.044048097	-4.546000E+00	  0.044048097	7.234000E+00	  0.044048097	1.848880E+02	  0.044048097	4.251500E+01
122	  0.044248499	-4.592000E+00	  0.044248499	5.269000E+00	  0.044248499	1.879480E+02	  0.044248499	3.117200E+01
123	  0.044448901	-4.639000E+00	  0.044448901	3.332000E+00	  0.044448901	1.894500E+02	  0.044448901	1.966900E+01
124	  0.044649299	-4.686000E+00	  0.044649299	1.377000E+00	  0.044649299	1.894360E+02	  0.044649299	8.046000E+00
125	  0.044849701	-4.730000E+00	  0.044849701	-5.310000E-01	  0.044849701	1.880750E+02	  0.044849701	-3.049000E+00
126	  0.045050103	-4.774000E+00	  0.045050103	-2.452000E+00	  0.045050103	1.853830E+02	  0.045050103	-1.372900E+01
127	  0.045250501	-4.813000E+00	  0.045250501	-4.394000E+00	  0.045250501	1.816350E+02	  0.045250501	-2.387100E+01
128	  0.045450903	-4.854000E+00	  0.045450903	-6.317000E+00	  0.045450903	1.768660E+02	  0.045450903	-3.307700E+01
129	  0.045651305	-4.892000E+00	  0.045651305	-8.218000E+00	  0.045651305	1.713830E+02	  0.045651305	-4.127100E+01
130	  0.045851704	-4.934000E+00	  0.045851704	-1.012400E+01	  0.045851704	1.652250E+02	  0.045851704	-4.847900E+01
131	  0.046052106	-4.974000E+00	  0.046052106	-1.199900E+01	  0.046052106	1.587640E+02	  0.046052106	-5.459800E+01
132	  0.046252504	-5.012000E+00	  0.046252504	-1.387400E+01	  0.046252504	1.521360E+02	  0.046252504	-5.983800E+01
133	  0.046452906	-5.052000E+00	  0.046452906	-1.573100E+01	  0.046452906	1.454200E+02	  0.046452906	-6.409700E+01
134	  0.046653304	-5.090000E+00	  0.046653304	-1.760000E+01	  0.046653304	1.387320E+02	  0.046653304	-6.763900E+01
135	  0.046853706	-5.126000E+00	  0.046853706	-1.946700E+01	  0.046853706	1.321770E+02	  0.046853706	-7.047200E+01
136	  0.047054108	-5.163000E+00	  0.047054108	-2.130400E+01	  0.047054108	1.258700E+02	  0.047054108	-7.257400E+01
137	  0.047254506	-5.197000E+00	  0.047254506	-2.313400E+01	  0.047254506	1.198300E+02	  0.047254506	-7.417300E+01
138	  0.047454908	-5.228000E+00	  0.047454908	-2.492300E+01	  0.047454908	1.141670E+02	  0.047454908	-7.529500E+01
139	  0.047655310	-5.259000E+00	  0.047655310	-2.674500E+01	  0.047655310	1.086550E+02	  0.047655310	-7.602200E+01
140	  0.047855709	-5.286000E+00	  0.047855709	-2.850300E+01	  0.047855709	1.035980E+02	  0.047855709	-7.641800E+01
141	  0.048056111	-5.315000E+00	  0.048056111	-3.023300E+01	  0.048056111	9.886100E+01	  0.048056111	-7.647900E+01
142	  0.048256513	-5.345000E+00	  0.048256513	-3.197400E+01	  0.048256513	9.434300E+01	  0.048256513	-7.626600E+01
143	  0.048456915	-5.378000E+00	  0.048456915	-3.369100E+01	  0.048456915	9.013100E+01	  0.048456915	-7.580700E+01
144	  0.048657313	-5.407000E+00	  0.048657313	-3.542000E+01	  0.048657313	8.612900E+01	  0.048657313	-7.522200E+01
145	  0.048857715	-5.433000E+00	  0.048857715	-3.714600E+01	  0.048857715	8.235700E+01	  0.048857715	-7.455000E+01
146	  0.049058117	-5.462000E+00	  0.049058117	-3.885200E+01	  0.049058117	7.885100E+01	  0.049058117	-7.370300E+01
147	  0.049258515	-5.489000E+00	  0.049258515	-4.056200E+01	  0.049258515	7.553500E+01	  0.049258515	-7.278200E+01
148	  0.049458917	-5.513000E+00	  0.049458917	-4.225000E+01	  0.049458917	7.244800E+01	  0.049458917	-7.181400E+01
149	  0.049659319	-5.541000E+00	  0.049659319	-4.393300E+01	  0.049659319	6.955500E+01	  0.049659319	-7.075000E+01
150	  0.049859721	-5.568000E+00	  0.049859721	-4.559600E+01	  0.049859721	6.686100E+01	  0.049859721	-6.964400E+01
151	  0.050060119	-5.594000E+00	  0.050060119	-4.726800E+01	  0.050060119	6.430900E+01	  0.050060119	-6.849800E+01
152	  0.050260521	-5.620000E+00	  0.050260521	-4.893100E+01	  0.050260521	6.191500E+01	  0.050260521	-6.733400E+01
153	  0.050460923	-5.639000E+00	  0.050460923	-5.061800E+01	  0.050460923	5.959700E+01	  0.050460923	-6.619500E+01
154	  0.050661322	-5.660000E+00	  0.050661322	-5.227000E+01	  0.050661322	5.746600E+01	  0.050661322	-6.503400E+01
155	  0.050861724	-5.678000E+00	  0.050861724	-5.391400E+01	  0.050861724	5.544600E+01	  0.050861724	-6.389500E+01
156	  0.051062126	-5.698000E+00	  0.051062126	-5.553000E+01	  0.051062126	5.358100E+01	  0.051062126	-6.273700E+01
157	  0.051262524	-5.715000E+00	  0.051262524	-5.713500E+01	  0.051262524	5.181800E+01	  0.051262524	-6.160000E+01
158	  0.051462926	-5.730000E+00	  0.051462926	-5.868800E+01	  0.051462926	5.019400E+01	  0.051462926	-6.050800E+01
159	  0.051663328	-5.746000E+00	  0.051663328	-6.026300E+01	  0.051663328	4.862900E+01	  0.051663328	-5.940000E+01
160	  0.051863730	-5.761000E+00	  0.051863730	-6.180100E+01	  0.051863730	4.718100E+01	  0.051863730	-5.831300E+01
161	  0.052064128	-5.780000E+00	  0.052064128	-6.334400E+01	  0.052064128	4.581500E+01	  0.052064128	-5.720600E+01
162	  0.052264530	-5.798000E+00	  0.052264530	-6.487300E+01	  0.052264530	4.452500E+01	  0.052264530	-5.612100E+01
163	  0.052464932	-5.815000E+00	  0.052464932	-6.638800E+01	  0.052464932	4.330500E+01	  0.052464932	-5.505800E+01
164	  0.052665330	-5.833000E+00	  0.052665330	-6.793200E+01	  0.052665330	4.212500E+01	  0.052665330	-5.397900E+01
165	  0.052865732	-5.851000E+00	  0.052865732	-6.943900E+01	  0.052865732	4.103300E+01	  0.052865732	-5.293000E+01
166	  0.053066134	-5.869000E+00	  0.053066134	-7.097400E+01	  0.053066134	3.996900E+01	  0.053066134	-5.187800E+01
167	  0.053266536	-5.886000E+00	  0.053266536	-7.250300E+01	  0.053266536	3.895700E+01	  0.053266536	-5.084300E+01
168	  0.053466935	-5.900000E+00	  0.053466935	-7.400100E+01	  0.053466935	3.800100E+01	  0.053466935	-4.985200E+01
169	  0.053667337	-5.911000E+00	  0.053667337	-7.549600E+01	  0.053667337	3.708000E+01	  0.053667337	-4.888200E+01
170	  0.053867739	-5.925000E+00	  0.053867739	-7.694500E+01	  0.053867739	3.624000E+01	  0.053867739	-4.794000E+01
171	  0.054068137	-5.930000E+00	  0.054068137	-7.843600E+01	  0.054068137	3.537400E+01	  0.054068137	-4.701700E+01
172	  0.054268539	-5.940000E+00	  0.054268539	-7.990100E+01	  0.054268539	3.458100E+01	  0.054268539	-4.609900E+01
173	  0.054468941	-5.947000E+00	  0.054468941	-8.133300E+01	  0.054468941	3.382500E+01	  0.054468941	-4.522200E+01
174	  0.054669339	-5.960000E+00	  0.054669339	-8.273900E+01	  0.054669339	3.314200E+01	  0.054669339	-4.434500E+01
175	  0.054869737	-5.966000E+00	  0.054869737	-8.415300E+01	  0.054869737	3.245600E+01	  0.054869737	-4.349600E+01
176	  0.055070139	-5.976000E+00	  0.055070139	-8.556900E+01	  0.055070139	3.180900E+01	  0.055070139	-4.264400E+01
177	  0.055270538	-5.987000E+00	  0.055270538	-8.694000E+01	  0.055270538	3.121400E+01	  0.055270538	-4.182300E+01
178	  0.055470940	-5.995000E+00	  0.055470940	-8.832200E+01	  0.055470940	3.062600E+01	  0.055470940	-4.101300E+01
179	  0.055671342	-6.006000E+00	  0.055671342	-8.969100E+01	  0.055671342	3.007600E+01	  0.055671342	-4.021200E+01
180	  0.055871744	-6.013000E+00	  0.055871744	-9.108700E+01	  0.055871744	2.952400E+01	  0.055871744	-3.941300E+01
181	  0.056072142	-6.024000E+00	  0.056072142	-9.245200E+01	  0.056072142	2.902200E+01	  0.056072142	-3.862900E+01
182	  0.056272544	-6.032000E+00	  0.056272544	-9.384000E+01	  0.056272544	2.851700E+01	  0.056272544	-3.785000E+01
183	  0.056472946	-6.044000E+00	  0.056472946	-9.521700E+01	  0.056472946	2.805100E+01	  0.056472946	-3.707400E+01
184	  0.056673344	-6.050000E+00	  0.056673344	-9.659100E+01	  0.056673344	2.758100E+01	  0.056673344	-3.632500E+01
185	  0.056873746	-6.057000E+00	  0.056873746	-9.793300E+01	  0.056873746	2.714500E+01	  0.056873746	-3.559600E+01
186	  0.057074148	-6.064000E+00	  0.057074148	-9.929600E+01	  0.057074148	2.671900E+01	  0.057074148	-3.486200E+01
187	  0.057274550	-6.065000E+00	  0.057274550	-1.006340E+02	  0.057274550	2.629300E+01	  0.057274550	-3.416300E+01
188	  0.057474948	-6.068000E+00	  0.057474948	-1.019930E+02	  0.057474948	2.588700E+01	  0.057474948	-3.345300E+01
189	  0.057675350	-6.068000E+00	  0.057675350	-1.033340E+02	  0.057675350	2.549000E+01	  0.057675350	-3.276500E+01
190	  0.057875752	-6.070000E+00	  0.057875752	-1.046170E+02	  0.057875752	2.512600E+01	  0.057875752	-3.211100E+01
191	  0.058076151	-6.074000E+00	  0.058076151	-1.059160E+02	  0.058076151	2.477900E+01	  0.058076151	-3.145000E+01
192	  0.058276553	-6.076000E+00	  0.058276553	-1.071960E+02	  0.058276553	2.444700E+01	  0.058276553	-3.080400E+01
193	  0.058476955	-6.079000E+00	  0.058476955	-1.084460E+02	  0.058476955	2.413100E+01	  0.058476955	-3.018100E+01
194	  0.058677353	-6.081000E+00	  0.058677353	-1.096790E+02	  0.058677353	2.383000E+01	  0.058677353	-2.957200E+01
195	  0.058877755	-6.085000E+00	  0.058877755	-1.109660E+02	  0.058877755	2.353000E+01	  0.058877755	-2.893800E+01
196	  0.059078157	-6.088000E+00	  0.059078157	-1.122190E+02	  0.059078157	2.325000E+01	  0.059078157	-2.832500E+01
197	  0.059278559	-6.092000E+00	  0.059278559	-1.134630E+02	  0.059278559	2.298100E+01	  0.059278559	-2.772200E+01
198	  0.059478957	-6.097000E+00	  0.059478957	-1.147160E+02	  0.059478957	2.272100E+01	  0.059478957	-2.711900E+01
199	  0.059679359	-6.103000E+00	  0.059679359	-1.159540E+02	  0.059679359	2.247800E+01	  0.059679359	-2.652500E+01
200	  0.059879761	-6.107000E+00	  0.059879761	-1.172120E+02	  0.059879761	2.223300E+01	  0.059879761	-2.592900E+01
201	  0.060080159	-6.111000E+00	  0.060080159	-1.184380E+02	  0.060080159	2.200100E+01	  0.060080159	-2.535400E+01
202	  0.060280561	-6.115000E+00	  0.060280561	-1.196580E+02	  0.060280561	2.178000E+01	  0.060280561	-2.478400E+01
203	  0.060480963	-6.118000E+00	  0.060480963	-1.208970E+02	  0.060480963	2.156000E+01	  0.060480963	-2.421200E+01
204	  0.060681365	-6.120000E+00	  0.060681365	-1.221180E+02	  0.060681365	2.134800E+01	  0.060681365	-2.365200E+01
205	  0.060881764	-6.122000E+00	  0.060881764	-1.233430E+02	  0.060881764	2.114000E+01	  0.060881764	-2.309600E+01
206	  0.061082166	-6.126000E+00	  0.061082166	-1.245520E+02	  0.061082166	2.095100E+01	  0.061082166	-2.254700E+01
207	  0.061282568	-6.127000E+00	  0.061282568	-1.257500E+02	  0.061282568	2.075900E+01	  0.061282568	-2.201000E+01
208	  0.061482966	-6.128000E+00	  0.061482966	-1.269450E+02	  0.061482966	2.057300E+01	  0.061482966	-2.147800E+01
209	  0.061683368	-6.128000E+00	  0.061683368	-1.281080E+02	  0.061683368	2.039900E+01	  0.061683368	-2.096400E+01
210	  0.061883770	-6.129000E+00	  0.061883770	-1.292950E+02	  0.061883770	2.022800E+01	  0.061883770	-2.044200E+01
211	  0.062084168	-6.135000E+00	  0.062084168	-1.304310E+02	  0.062084168	2.008200E+01	  0.062084168	-1.994100E+01
212	  0.062284570	-6.139000E+00	  0.062284570	-1.315760E+02	  0.062284570	1.993700E+01	  0.062284570	-1.944000E+01
213	  0.062484972	-6.131000E+00	  0.062484972	-1.326600E+02	  0.062484972	1.976900E+01	  0.062484972	-1.897900E+01
214	  0.062685370	-6.139000E+00	  0.062685370	-1.338070E+02	  0.062685370	1.964300E+01	  0.062685370	-1.848000E+01
215	  0.062885776	-6.142000E+00	  0.062885776	-1.349430E+02	  0.062885776	1.951200E+01	  0.062885776	-1.799100E+01
216	  0.063086174	-6.149000E+00	  0.063086174	-1.360920E+02	  0.063086174	1.939200E+01	  0.063086174	-1.749700E+01
217	  0.063286573	-6.157000E+00	  0.063286573	-1.371850E+02	  0.063286573	1.928800E+01	  0.063286573	-1.702800E+01
218	  0.063486971	-6.159000E+00	  0.063486971	-1.383230E+02	  0.063486971	1.916400E+01	  0.063486971	-1.654800E+01
219	  0.063687377	-6.161000E+00	  0.063687377	-1.394560E+02	  0.063687377	1.904800E+01	  0.063687377	-1.607100E+01
220	  0.063887775	-6.164000E+00	  0.063887775	-1.405730E+02	  0.063887775	1.893700E+01	  0.063887775	-1.560400E+01
221	  0.064088173	-6.166000E+00	  0.064088173	-1.416640E+02	  0.064088173	1.883300E+01	  0.064088173	-1.514900E+01
222	  0.064288579	-6.165000E+00	  0.064288579	-1.427460E+02	  0.064288579	1.872400E+01	  0.064288579	-1.470200E+01
223	  0.064488977	-6.168000E+00	  0.064488977	-1.438680E+02	  0.064488977	1.862700E+01	  0.064488977	-1.423800E+01
224	  0.064689375	-6.162000E+00	  0.064689375	-1.448840E+02	  0.064689375	1.851800E+01	  0.064689375	-1.382400E+01
225	  0.064889781	-6.165000E+00	  0.064889781	-1.459380E+02	  0.064889781	1.843400E+01	  0.064889781	-1.339100E+01
226	  0.065090179	-6.158000E+00	  0.065090179	-1.470090E+02	  0.065090179	1.832400E+01	  0.065090179	-1.295900E+01
227	  0.065290578	-6.155000E+00	  0.065290578	-1.480410E+02	  0.065290578	1.823300E+01	  0.065290578	-1.254100E+01
228	  0.065490983	-6.150000E+00	  0.065490983	-1.490620E+02	  0.065490983	1.814000E+01	  0.065490983	-1.213000E+01
229	  0.065691382	-6.147000E+00	  0.065691382	-1.501040E+02	  0.065691382	1.805200E+01	  0.065691382	-1.171000E+01
230	  0.065891780	-6.144000E+00	  0.065891780	-1.511290E+02	  0.065891780	1.797100E+01	  0.065891780	-1.129900E+01
231	  0.066092186	-6.140000E+00	  0.066092186	-1.521620E+02	  0.066092186	1.788800E+01	  0.066092186	-1.088600E+01
232	  0.066292584	-6.133000E+00	  0.066292584	-1.531960E+02	  0.066292584	1.780100E+01	  0.066292584	-1.047500E+01
233	  0.066492982	-6.134000E+00	  0.066492982	-1.542090E+02	  0.066492982	1.774000E+01	  0.066492982	-1.006900E+01
234	  0.066693388	-6.131000E+00	  0.066693388	-1.552570E+02	  0.066693388	1.766800E+01	  0.066693388	-9.653000E+00
235	  0.066893786	-6.125000E+00	  0.066893786	-1.562770E+02	  0.066893786	1.759200E+01	  0.066893786	-9.249000E+00
236	  0.067094192	-6.117000E+00	  0.067094192	-1.572790E+02	  0.067094192	1.751500E+01	  0.067094192	-8.855000E+00
237	  0.067294590	-6.118000E+00	  0.067294590	-1.583140E+02	  0.067294590	1.746200E+01	  0.067294590	-8.444000E+00
238	  0.067494988	-6.113000E+00	  0.067494988	-1.593800E+02	  0.067494988	1.739700E+01	  0.067494988	-8.025000E+00
239	  0.067695394	-6.112000E+00	  0.067695394	-1.603590E+02	  0.067695394	1.734900E+01	  0.067695394	-7.639000E+00
240	  0.067895792	-6.106000E+00	  0.067895792	-1.613850E+02	  0.067895792	1.728600E+01	  0.067895792	-7.237000E+00
241	  0.068096191	-6.105000E+00	  0.068096191	-1.624300E+02	  0.068096191	1.723900E+01	  0.068096191	-6.827000E+00
242	  0.068296596	-6.104000E+00	  0.068296596	-1.634620E+02	  0.068296596	1.719500E+01	  0.068296596	-6.422000E+00
243	  0.068496995	-6.106000E+00	  0.068496995	-1.644520E+02	  0.068496995	1.716500E+01	  0.068496995	-6.034000E+00
244	  0.068697393	-6.101000E+00	  0.068697393	-1.654720E+02	  0.068697393	1.711600E+01	  0.068697393	-5.636000E+00
245	  0.068897791	-6.103000E+00	  0.068897791	-1.664890E+02	  0.068897791	1.708700E+01	  0.068897791	-5.239000E+00
246	  0.069098189	-6.103000E+00	  0.069098189	-1.674850E+02	  0.069098189	1.705700E+01	  0.069098189	-4.851000E+00
247	  0.069298595	-6.096000E+00	  0.069298595	-1.685170E+02	  0.069298595	1.701100E+01	  0.069298595	-4.450000E+00
248	  0.069498993	-6.095000E+00	  0.069498993	-1.695150E+02	  0.069498993	1.698300E+01	  0.069498993	-4.062000E+00
249	  0.069699399	-6.100000E+00	  0.069699399	-1.705150E+02	  0.069699399	1.697300E+01	  0.069699399	-3.672000E+00
250	  0.069899797	-6.098000E+00	  0.069899797	-1.715760E+02	  0.069899797	1.694600E+01	  0.069899797	-3.261000E+00
251	  0.070100196	-6.100000E+00	  0.070100196	-1.725680E+02	  0.070100196	1.693400E+01	  0.070100196	-2.876000E+00
252	  0.070300601	-6.103000E+00	  0.070300601	-1.735190E+02	  0.070300601	1.692500E+01	  0.070300601	-2.507000E+00
253	  0.070501000	-6.101000E+00	  0.070501000	-1.745510E+02	  0.070501000	1.690700E+01	  0.070501000	-2.107000E+00
254	  0.070701398	-6.096000E+00	  0.070701398	-1.755620E+02	  0.070701398	1.688300E+01	  0.070701398	-1.716000E+00
255	  0.070901804	-6.096000E+00	  0.070901804	-1.765630E+02	  0.070901804	1.687300E+01	  0.070901804	-1.329000E+00
256	  0.071102202	-6.098000E+00	  0.071102202	-1.775640E+02	  0.071102202	1.687100E+01	  0.071102202	-9.420000E-01
257	  0.071302600	-6.095000E+00	  0.071302600	-1.785460E+02	  0.071302600	1.685900E+01	  0.071302600	-5.610000E-01
258	  0.071503006	-6.098000E+00	  0.071503006	-1.795600E+02	  0.071503006	1.686700E+01	  0.071503006	-1.690000E-01
259	  0.071703404	-6.100000E+00	  0.071703404	1.794580E+02	  0.071703404	1.687000E+01	  0.071703404	2.090000E-01
260	  0.071903802	-6.103000E+00	  0.071903802	1.785210E+02	  0.071903802	1.687900E+01	  0.071903802	5.710000E-01
261	  0.072104208	-6.104000E+00	  0.072104208	1.775460E+02	  0.072104208	1.688800E+01	  0.072104208	9.480000E-01
262	  0.072304606	-6.105000E+00	  0.072304606	1.765730E+02	  0.072304606	1.689500E+01	  0.072304606	1.324000E+00
263	  0.072505005	-6.106000E+00	  0.072505005	1.755840E+02	  0.072505005	1.690800E+01	  0.072505005	1.707000E+00
264	  0.072705410	-6.111000E+00	  0.072705410	1.746230E+02	  0.072705410	1.693100E+01	  0.072705410	2.078000E+00
265	  0.072905809	-6.110000E+00	  0.072905809	1.736660E+02	  0.072905809	1.694000E+01	  0.072905809	2.449000E+00
266	  0.073106214	-6.114000E+00	  0.073106214	1.726950E+02	  0.073106214	1.696700E+01	  0.073106214	2.825000E+00
267	  0.073306613	-6.116000E+00	  0.073306613	1.717600E+02	  0.073306613	1.699000E+01	  0.073306613	3.187000E+00
268	  0.073507011	-6.120000E+00	  0.073507011	1.707910E+02	  0.073507011	1.701700E+01	  0.073507011	3.562000E+00
269	  0.073707417	-6.124000E+00	  0.073707417	1.698570E+02	  0.073707417	1.704900E+01	  0.073707417	3.924000E+00
270	  0.073907815	-6.132000E+00	  0.073907815	1.688930E+02	  0.073907815	1.709300E+01	  0.073907815	4.298000E+00
271	  0.074108213	-6.136000E+00	  0.074108213	1.679420E+02	  0.074108213	1.712900E+01	  0.074108213	4.667000E+00
272	  0.074308619	-6.136000E+00	  0.074308619	1.670190E+02	  0.074308619	1.715600E+01	  0.074308619	5.026000E+00
273	  0.074509017	-6.145000E+00	  0.074509017	1.660550E+02	  0.074509017	1.721000E+01	  0.074509017	5.399000E+00
274	  0.074709415	-6.152000E+00	  0.074709415	1.651220E+02	  0.074709415	1.725900E+01	  0.074709415	5.762000E+00
275	  0.074909821	-6.155000E+00	  0.074909821	1.641750E+02	  0.074909821	1.730000E+01	  0.074909821	6.131000E+00
276	  0.075110219	-6.169000E+00	  0.075110219	1.632480E+02	  0.075110219	1.737100E+01	  0.075110219	6.489000E+00
277	  0.075310618	-6.177000E+00	  0.075310618	1.623320E+02	  0.075310618	1.742800E+01	  0.075310618	6.846000E+00
278	  0.075511023	-6.187000E+00	  0.075511023	1.614220E+02	  0.075511023	1.749500E+01	  0.075511023	7.199000E+00
279	  0.075711422	-6.194000E+00	  0.075711422	1.605060E+02	  0.075711422	1.755500E+01	  0.075711422	7.556000E+00
280	  0.075911827	-6.205000E+00	  0.075911827	1.595950E+02	  0.075911827	1.762500E+01	  0.075911827	7.911000E+00
281	  0.076112226	-6.211000E+00	  0.076112226	1.586660E+02	  0.076112226	1.768800E+01	  0.076112226	8.274000E+00
282	  0.076312624	-6.226000E+00	  0.076312624	1.577620E+02	  0.076312624	1.777300E+01	  0.076312624	8.625000E+00
283	  0.076513030	-6.233000E+00	  0.076513030	1.568180E+02	  0.076513030	1.784400E+01	  0.076513030	8.995000E+00
284	  0.076713428	-6.246000E+00	  0.076713428	1.559070E+02	  0.076713428	1.793000E+01	  0.076713428	9.350000E+00
285	  0.076913826	-6.257000E+00	  0.076913826	1.550160E+02	  0.076913826	1.801200E+01	  0.076913826	9.698000E+00
286	  0.077114232	-6.269000E+00	  0.077114232	1.540860E+02	  0.077114232	1.810000E+01	  0.077114232	1.006200E+01
287	  0.077314630	-6.276000E+00	  0.077314630	1.532180E+02	  0.077314630	1.817600E+01	  0.077314630	1.040400E+01
288	  0.077515028	-6.287000E+00	  0.077515028	1.523170E+02	  0.077515028	1.826500E+01	  0.077515028	1.075800E+01
289	  0.077715434	-6.301000E+00	  0.077715434	1.514540E+02	  0.077715434	1.836100E+01	  0.077715434	1.109500E+01
290	  0.077915832	-6.312000E+00	  0.077915832	1.505660E+02	  0.077915832	1.845500E+01	  0.077915832	1.144500E+01
291	  0.078116231	-6.328000E+00	  0.078116231	1.496810E+02	  0.078116231	1.856400E+01	  0.078116231	1.179100E+01
292	  0.078316636	-6.340000E+00	  0.078316636	1.488070E+02	  0.078316636	1.866300E+01	  0.078316636	1.213500E+01
293	  0.078517035	-6.355000E+00	  0.078517035	1.479480E+02	  0.078517035	1.877200E+01	  0.078517035	1.247200E+01
294	  0.078717433	-6.375000E+00	  0.078717433	1.470770E+02	  0.078717433	1.889900E+01	  0.078717433	1.281100E+01
295	  0.078917839	-6.385000E+00	  0.078917839	1.461890E+02	  0.078917839	1.900100E+01	  0.078917839	1.316300E+01
296	  0.079118237	-6.406000E+00	  0.079118237	1.453770E+02	  0.079118237	1.912800E+01	  0.079118237	1.348000E+01
297	  0.079318643	-6.420000E+00	  0.079318643	1.445250E+02	  0.079318643	1.924500E+01	  0.079318643	1.381500E+01
298	  0.079519041	-6.434000E+00	  0.079519041	1.436620E+02	  0.079519041	1.936300E+01	  0.079519041	1.415600E+01
299	  0.079719439	-6.454000E+00	  0.079719439	1.428040E+02	  0.079719439	1.950100E+01	  0.079719439	1.449200E+01
300	  0.079919845	-6.474000E+00	  0.079919845	1.419540E+02	  0.079919845	1.963700E+01	  0.079919845	1.482600E+01
301	  0.080120243	-6.490000E+00	  0.080120243	1.410970E+02	  0.080120243	1.977100E+01	  0.080120243	1.516400E+01
302	  0.080320641	-6.508000E+00	  0.080320641	1.402520E+02	  0.080320641	1.990900E+01	  0.080320641	1.549600E+01
303	  0.080521047	-6.526000E+00	  0.080521047	1.394010E+02	  0.080521047	2.005100E+01	  0.080521047	1.583200E+01
304	  0.080721445	-6.542000E+00	  0.080721445	1.385960E+02	  0.080721445	2.018400E+01	  0.080721445	1.615100E+01
305	  0.080921844	-6.560000E+00	  0.080921844	1.377380E+02	  0.080921844	2.033100E+01	  0.080921844	1.648900E+01
306	  0.081122249	-6.585000E+00	  0.081122249	1.369320E+02	  0.081122249	2.049600E+01	  0.081122249	1.680200E+01
307	  0.081322648	-6.599000E+00	  0.081322648	1.361120E+02	  0.081322648	2.063300E+01	  0.081322648	1.712900E+01
308	  0.081523046	-6.617000E+00	  0.081523046	1.352870E+02	  0.081523046	2.078500E+01	  0.081523046	1.745600E+01
309	  0.081723452	-6.638000E+00	  0.081723452	1.344750E+02	  0.081723452	2.094800E+01	  0.081723452	1.777400E+01
310	  0.081923850	-6.654000E+00	  0.081923850	1.336730E+02	  0.081923850	2.109500E+01	  0.081923850	1.809400E+01
311	  0.082124248	-6.674000E+00	  0.082124248	1.328930E+02	  0.082124248	2.125700E+01	  0.082124248	1.840000E+01
312	  0.082324654	-6.696000E+00	  0.082324654	1.320900E+02	  0.082324654	2.142800E+01	  0.082324654	1.871500E+01
313	  0.082525052	-6.718000E+00	  0.082525052	1.312970E+02	  0.082525052	2.160100E+01	  0.082525052	1.902600E+01
314	  0.082725458	-6.736000E+00	  0.082725458	1.305570E+02	  0.082725458	2.175700E+01	  0.082725458	1.931900E+01
315	  0.082925856	-6.761000E+00	  0.082925856	1.297850E+02	  0.082925856	2.194100E+01	  0.082925856	1.961800E+01
316	  0.083126254	-6.783000E+00	  0.083126254	1.290050E+02	  0.083126254	2.212300E+01	  0.083126254	1.992200E+01
317	  0.083326660	-6.802000E+00	  0.083326660	1.282030E+02	  0.083326660	2.230000E+01	  0.083326660	2.024000E+01
318	  0.083527058	-6.823000E+00	  0.083527058	1.274170E+02	  0.083527058	2.248300E+01	  0.083527058	2.055000E+01
319	  0.083727457	-6.842000E+00	  0.083727457	1.266260E+02	  0.083727457	2.266500E+01	  0.083727457	2.086300E+01
320	  0.083927862	-6.863000E+00	  0.083927862	1.258670E+02	  0.083927862	2.285000E+01	  0.083927862	2.116100E+01
321	  0.084128261	-6.885000E+00	  0.084128261	1.250970E+02	  0.084128261	2.304300E+01	  0.084128261	2.146300E+01
322	  0.084328659	-6.906000E+00	  0.084328659	1.243310E+02	  0.084328659	2.323400E+01	  0.084328659	2.176400E+01
323	  0.084529065	-6.925000E+00	  0.084529065	1.236090E+02	  0.084529065	2.341600E+01	  0.084529065	2.204900E+01
324	  0.084729463	-6.945000E+00	  0.084729463	1.228710E+02	  0.084729463	2.360700E+01	  0.084729463	2.233900E+01
325	  0.084929861	-6.966000E+00	  0.084929861	1.221330E+02	  0.084929861	2.380400E+01	  0.084929861	2.262800E+01
326	  0.085130267	-6.989000E+00	  0.085130267	1.213830E+02	  0.085130267	2.401000E+01	  0.085130267	2.292000E+01
327	  0.085330658	-7.009000E+00	  0.085330658	1.206630E+02	  0.085330658	2.420900E+01	  0.085330658	2.320100E+01
328	  0.085531056	-7.029000E+00	  0.085531056	1.199480E+02	  0.085531056	2.440500E+01	  0.085531056	2.348200E+01
329	  0.085731462	-7.058000E+00	  0.085731462	1.192240E+02	  0.085731462	2.463400E+01	  0.085731462	2.375300E+01
330	  0.085931860	-7.083000E+00	  0.085931860	1.185180E+02	  0.085931860	2.485100E+01	  0.085931860	2.402200E+01
331	  0.086132258	-7.102000E+00	  0.086132258	1.178040E+02	  0.086132258	2.505400E+01	  0.086132258	2.430300E+01
332	  0.086332664	-7.128000E+00	  0.086332664	1.170910E+02	  0.086332664	2.528100E+01	  0.086332664	2.457200E+01
333	  0.086533062	-7.157000E+00	  0.086533062	1.163960E+02	  0.086533062	2.551700E+01	  0.086533062	2.482900E+01
334	  0.086733460	-7.185000E+00	  0.086733460	1.156770E+02	  0.086733460	2.575600E+01	  0.086733460	2.509800E+01
335	  0.086933866	-7.207000E+00	  0.086933866	1.149570E+02	  0.086933866	2.598200E+01	  0.086933866	2.537500E+01
336	  0.087134264	-7.237000E+00	  0.087134264	1.142230E+02	  0.087134264	2.623900E+01	  0.087134264	2.564500E+01
337	  0.087334670	-7.257000E+00	  0.087334670	1.135320E+02	  0.087334670	2.646000E+01	  0.087334670	2.591100E+01
338	  0.087535068	-7.290000E+00	  0.087535068	1.127680E+02	  0.087535068	2.673700E+01	  0.087535068	2.618900E+01
339	  0.087735467	-7.313000E+00	  0.087735467	1.120610E+02	  0.087735467	2.697700E+01	  0.087735467	2.645700E+01
340	  0.087935872	-7.341000E+00	  0.087935872	1.113760E+02	  0.087935872	2.723100E+01	  0.087935872	2.670400E+01
341	  0.088136271	-7.371000E+00	  0.088136271	1.107030E+02	  0.088136271	2.748700E+01	  0.088136271	2.694500E+01
342	  0.088336669	-7.398000E+00	  0.088336669	1.100000E+02	  0.088336669	2.774800E+01	  0.088336669	2.720100E+01
343	  0.088537075	-7.423000E+00	  0.088537075	1.093270E+02	  0.088537075	2.799700E+01	  0.088537075	2.744800E+01
344	  0.088737473	-7.453000E+00	  0.088737473	1.086440E+02	  0.088737473	2.826800E+01	  0.088737473	2.768900E+01
345	  0.088937871	-7.481000E+00	  0.088937871	1.079860E+02	  0.088937871	2.852900E+01	  0.088937871	2.792100E+01
346	  0.089138277	-7.507000E+00	  0.089138277	1.073180E+02	  0.089138277	2.879000E+01	  0.089138277	2.815900E+01
347	  0.089338675	-7.540000E+00	  0.089338675	1.067030E+02	  0.089338675	2.905800E+01	  0.089338675	2.836300E+01
348	  0.089539073	-7.573000E+00	  0.089539073	1.060840E+02	  0.089539073	2.933300E+01	  0.089539073	2.856400E+01
349	  0.089739479	-7.601000E+00	  0.089739479	1.054540E+02	  0.089739479	2.959800E+01	  0.089739479	2.877900E+01
350	  0.089939877	-7.639000E+00	  0.089939877	1.048460E+02	  0.089939877	2.988600E+01	  0.089939877	2.896500E+01
351	  0.090140276	-7.660000E+00	  0.090140276	1.041680E+02	  0.090140276	3.015300E+01	  0.090140276	2.921100E+01
352	  0.090340681	-7.699000E+00	  0.090340681	1.035650E+02	  0.090340681	3.044900E+01	  0.090340681	2.938900E+01
353	  0.090541080	-7.722000E+00	  0.090541080	1.029460E+02	  0.090541080	3.070800E+01	  0.090541080	2.960400E+01
354	  0.090741485	-7.759000E+00	  0.090741485	1.022850E+02	  0.090741485	3.102500E+01	  0.090741485	2.980500E+01
355	  0.090941884	-7.782000E+00	  0.090941884	1.016970E+02	  0.090941884	3.127900E+01	  0.090941884	3.000500E+01
356	  0.091142282	-7.814000E+00	  0.091142282	1.010720E+02	  0.091142282	3.157500E+01	  0.091142282	3.019900E+01
357	  0.091342688	-7.848000E+00	  0.091342688	1.004920E+02	  0.091342688	3.186300E+01	  0.091342688	3.036900E+01
358	  0.091543086	-7.876000E+00	  0.091543086	9.987200E+01	  0.091543086	3.215000E+01	  0.091543086	3.056700E+01
359	  0.091743484	-7.909000E+00	  0.091743484	9.931200E+01	  0.091743484	3.243700E+01	  0.091743484	3.072400E+01
360	  0.091943890	-7.933000E+00	  0.091943890	9.868200E+01	  0.091943890	3.272400E+01	  0.091943890	3.093100E+01
361	  0.092144288	-7.961000E+00	  0.092144288	9.813100E+01	  0.092144288	3.299600E+01	  0.092144288	3.109500E+01
362	  0.092344686	-7.985000E+00	  0.092344686	9.755300E+01	  0.092344686	3.327100E+01	  0.092344686	3.127700E+01
363	  0.092545092	-8.019000E+00	  0.092545092	9.695800E+01	  0.092545092	3.358000E+01	  0.092545092	3.144200E+01
364	  0.092745490	-8.046000E+00	  0.092745490	9.641800E+01	  0.092745490	3.385300E+01	  0.092745490	3.159800E+01
365	  0.092945889	-8.082000E+00	  0.092945889	9.588900E+01	  0.092945889	3.414900E+01	  0.092945889	3.172600E+01
366	  0.093146294	-8.115000E+00	  0.093146294	9.530600E+01	  0.093146294	3.446100E+01	  0.093146294	3.187800E+01
367	  0.093346693	-8.144000E+00	  0.093346693	9.479500E+01	  0.093346693	3.473600E+01	  0.093346693	3.201200E+01
368	  0.093547091	-8.175000E+00	  0.093547091	9.424100E+01	  0.093547091	3.503300E+01	  0.093547091	3.215700E+01
369	  0.093747497	-8.207000E+00	  0.093747497	9.369600E+01	  0.093747497	3.533600E+01	  0.093747497	3.229100E+01
370	  0.093947895	-8.237000E+00	  0.093947895	9.313000E+01	  0.093947895	3.564000E+01	  0.093947895	3.243900E+01
371	  0.094148301	-8.265000E+00	  0.094148301	9.259400E+01	  0.094148301	3.593300E+01	  0.094148301	3.257600E+01
372	  0.094348699	-8.296000E+00	  0.094348699	9.204300E+01	  0.094348699	3.624000E+01	  0.094348699	3.271000E+01
373	  0.094549097	-8.325000E+00	  0.094549097	9.153000E+01	  0.094549097	3.652900E+01	  0.094549097	3.283000E+01
374	  0.094749503	-8.359000E+00	  0.094749503	9.100700E+01	  0.094749503	3.683600E+01	  0.094749503	3.294100E+01
375	  0.094949901	-8.380000E+00	  0.094949901	9.049800E+01	  0.094949901	3.710600E+01	  0.094949901	3.308000E+01
376	  0.095150299	-8.414000E+00	  0.095150299	8.999000E+01	  0.095150299	3.741100E+01	  0.095150299	3.318000E+01
377	  0.095350705	-8.437000E+00	  0.095350705	8.949000E+01	  0.095350705	3.768700E+01	  0.095350705	3.330500E+01
378	  0.095551103	-8.462000E+00	  0.095551103	8.899300E+01	  0.095551103	3.797000E+01	  0.095551103	3.342100E+01
379	  0.095751502	-8.491000E+00	  0.095751502	8.848700E+01	  0.095751502	3.826700E+01	  0.095751502	3.352800E+01
380	  0.095951907	-8.511000E+00	  0.095951907	8.798600E+01	  0.095951907	3.854200E+01	  0.095951907	3.365700E+01
381	  0.096152306	-8.540000E+00	  0.096152306	8.754000E+01	  0.096152306	3.881600E+01	  0.096152306	3.373600E+01
382	  0.096352704	-8.563000E+00	  0.096352704	8.706000E+01	  0.096352704	3.909400E+01	  0.096352704	3.384300E+01
383	  0.096553110	-8.597000E+00	  0.096553110	8.662200E+01	  0.096553110	3.937800E+01	  0.096553110	3.390200E+01
384	  0.096753508	-8.620000E+00	  0.096753508	8.617500E+01	  0.096753508	3.964500E+01	  0.096753508	3.399200E+01
385	  0.096953906	-8.642000E+00	  0.096953906	8.571700E+01	  0.096953906	3.991300E+01	  0.096953906	3.409000E+01
386	  0.097154312	-8.666000E+00	  0.097154312	8.526600E+01	  0.097154312	4.018500E+01	  0.097154312	3.417700E+01
387	  0.097354710	-8.694000E+00	  0.097354710	8.479600E+01	  0.097354710	4.047800E+01	  0.097354710	3.425600E+01
388	  0.097555116	-8.722000E+00	  0.097555116	8.434800E+01	  0.097555116	4.076100E+01	  0.097555116	3.432400E+01
389	  0.097755514	-8.744000E+00	  0.097755514	8.393600E+01	  0.097755514	4.101300E+01	  0.097755514	3.439900E+01
390	  0.097955912	-8.765000E+00	  0.097955912	8.347100E+01	  0.097955912	4.129100E+01	  0.097955912	3.449200E+01
391	  0.098156318	-8.794000E+00	  0.098156318	8.306200E+01	  0.098156318	4.156200E+01	  0.098156318	3.453600E+01
392	  0.098356716	-8.818000E+00	  0.098356716	8.259800E+01	  0.098356716	4.185000E+01	  0.098356716	3.461500E+01
393	  0.098557115	-8.832000E+00	  0.098557115	8.219600E+01	  0.098557115	4.208400E+01	  0.098557115	3.470500E+01
394	  0.098757520	-8.852000E+00	  0.098757520	8.178900E+01	  0.098757520	4.233700E+01	  0.098757520	3.477500E+01
395	  0.098957919	-8.875000E+00	  0.098957919	8.135200E+01	  0.098957919	4.261300E+01	  0.098957919	3.484200E+01
396	  0.099158317	-8.890000E+00	  0.099158317	8.094400E+01	  0.099158317	4.285900E+01	  0.099158317	3.492300E+01
397	  0.099358723	-8.910000E+00	  0.099358723	8.057800E+01	  0.099358723	4.309400E+01	  0.099358723	3.497500E+01
398	  0.099559121	-8.932000E+00	  0.099559121	8.016500E+01	  0.099559121	4.335900E+01	  0.099559121	3.503000E+01
399	  0.099759519	-8.947000E+00	  0.099759519	7.973700E+01	  0.099759519	4.361900E+01	  0.099759519	3.511700E+01
400	  0.099959925	-8.952000E+00	  0.099959925	7.931100E+01	  0.099959925	4.385700E+01	  0.099959925	3.523600E+01
401	  0.100160323	-8.973000E+00	  0.100160323	7.895100E+01	  0.100160323	4.409600E+01	  0.100160323	3.527300E+01
402	  0.100360721	-8.997000E+00	  0.100360721	7.859200E+01	  0.100360721	4.434200E+01	  0.100360721	3.529800E+01
403	  0.100561127	-9.012000E+00	  0.100561127	7.822400E+01	  0.100561127	4.457300E+01	  0.100561127	3.536000E+01
404	  0.100761525	-9.033000E+00	  0.100761525	7.778600E+01	  0.100761525	4.485800E+01	  0.100761525	3.541600E+01
405	  0.100961931	-9.032000E+00	  0.100961931	7.736200E+01	  0.100961931	4.509200E+01	  0.100961931	3.554800E+01
406	  0.101162329	-9.054000E+00	  0.101162329	7.705200E+01	  0.101162329	4.530900E+01	  0.101162329	3.556000E+01
407	  0.101362728	-9.058000E+00	  0.101362728	7.664400E+01	  0.101362728	4.554800E+01	  0.101362728	3.566600E+01
408	  0.101563133	-9.073000E+00	  0.101563133	7.623300E+01	  0.101563133	4.581000E+01	  0.101563133	3.573200E+01
409	  0.101763532	-9.082000E+00	  0.101763532	7.586400E+01	  0.101763532	4.604000E+01	  0.101763532	3.580500E+01
410	  0.101963930	-9.094000E+00	  0.101963930	7.544200E+01	  0.101963930	4.630700E+01	  0.101963930	3.588000E+01
411	  0.102164336	-9.091000E+00	  0.102164336	7.509800E+01	  0.102164336	4.650200E+01	  0.102164336	3.599000E+01
412	  0.102364734	-9.104000E+00	  0.102364734	7.465300E+01	  0.102364734	4.678700E+01	  0.102364734	3.606500E+01
413	  0.102565132	-9.102000E+00	  0.102565132	7.423600E+01	  0.102565132	4.702900E+01	  0.102565132	3.619200E+01
414	  0.102765530	-9.113000E+00	  0.102765530	7.381700E+01	  0.102765530	4.729900E+01	  0.102765530	3.626500E+01
415	  0.102965929	-9.106000E+00	  0.102965929	7.345500E+01	  0.102965929	4.750400E+01	  0.102965929	3.639300E+01
416	  0.103166327	-9.116000E+00	  0.103166327	7.309400E+01	  0.103166327	4.774000E+01	  0.103166327	3.645100E+01
417	  0.103366733	-9.116000E+00	  0.103366733	7.271600E+01	  0.103366733	4.797100E+01	  0.103366733	3.655300E+01
418	  0.103567131	-9.117000E+00	  0.103567131	7.231700E+01	  0.103567131	4.821800E+01	  0.103567131	3.665500E+01
419	  0.103767529	-9.121000E+00	  0.103767529	7.192600E+01	  0.103767529	4.846800E+01	  0.103767529	3.673900E+01
420	  0.103967935	-9.120000E+00	  0.103967935	7.151200E+01	  0.103967935	4.872400E+01	  0.103967935	3.685300E+01
421	  0.104168333	-9.122000E+00	  0.104168333	7.112300E+01	  0.104168333	4.897200E+01	  0.104168333	3.694500E+01
422	  0.104368731	-9.120000E+00	  0.104368731	7.077400E+01	  0.104368731	4.918900E+01	  0.104368731	3.704300E+01
423	  0.104569137	-9.112000E+00	  0.104569137	7.038300E+01	  0.104569137	4.942600E+01	  0.104569137	3.717300E+01
424	  0.104769535	-9.116000E+00	  0.104769535	7.003500E+01	  0.104769535	4.965700E+01	  0.104769535	3.724400E+01
425	  0.104969934	-9.105000E+00	  0.104969934	6.961000E+01	  0.104969934	4.991400E+01	  0.104969934	3.739700E+01
426	  0.105170339	-9.107000E+00	  0.105170339	6.931600E+01	  0.105170339	5.011000E+01	  0.105170339	3.745900E+01
427	  0.105370738	-9.083000E+00	  0.105370738	6.891000E+01	  0.105370738	5.033900E+01	  0.105370738	3.766200E+01
428	  0.105571143	-9.081000E+00	  0.105571143	6.857700E+01	  0.105571143	5.055600E+01	  0.105571143	3.775100E+01
429	  0.105771542	-9.069000E+00	  0.105771542	6.817800E+01	  0.105771542	5.080400E+01	  0.105771542	3.790000E+01
430	  0.105971940	-9.059000E+00	  0.105971940	6.781900E+01	  0.105971940	5.103200E+01	  0.105971940	3.802500E+01
431	  0.106172346	-9.039000E+00	  0.106172346	6.741700E+01	  0.106172346	5.127400E+01	  0.106172346	3.821200E+01
432	  0.106372744	-9.020000E+00	  0.106372744	6.697700E+01	  0.106372744	5.154800E+01	  0.106372744	3.839900E+01
433	  0.106573142	-8.987000E+00	  0.106573142	6.666500E+01	  0.106573142	5.171500E+01	  0.106573142	3.862100E+01
434	  0.106773548	-8.975000E+00	  0.106773548	6.620000E+01	  0.106773548	5.202200E+01	  0.106773548	3.878400E+01
435	  0.106973946	-8.944000E+00	  0.106973946	6.575800E+01	  0.106973946	5.229000E+01	  0.106973946	3.902600E+01
436	  0.107174344	-8.929000E+00	  0.107174344	6.527400E+01	  0.107174344	5.261400E+01	  0.107174344	3.920700E+01
437	  0.107374750	-8.905000E+00	  0.107374750	6.477700E+01	  0.107374750	5.294000E+01	  0.107374750	3.942800E+01
438	  0.107575148	-8.879000E+00	  0.107575148	6.429400E+01	  0.107575148	5.325600E+01	  0.107575148	3.965900E+01
439	  0.107775547	-8.860000E+00	  0.107775547	6.374500E+01	  0.107775547	5.363600E+01	  0.107775547	3.986900E+01
440	  0.107975952	-8.830000E+00	  0.107975952	6.322600E+01	  0.107975952	5.398400E+01	  0.107975952	4.012900E+01
441	  0.108176351	-8.819000E+00	  0.108176351	6.262400E+01	  0.108176351	5.442800E+01	  0.108176351	4.030700E+01
442	  0.108376749	-8.786000E+00	  0.108376749	6.204000E+01	  0.108376749	5.483400E+01	  0.108376749	4.059500E+01
443	  0.108577155	-8.758000E+00	  0.108577155	6.154200E+01	  0.108577155	5.518800E+01	  0.108577155	4.083500E+01
444	  0.108777553	-8.736000E+00	  0.108777553	6.090700E+01	  0.108777553	5.566300E+01	  0.108777553	4.107300E+01
445	  0.108977959	-8.719000E+00	  0.108977959	6.025800E+01	  0.108977959	5.616300E+01	  0.108977959	4.128700E+01
446	  0.109178357	-8.702000E+00	  0.109178357	5.966200E+01	  0.109178357	5.662900E+01	  0.109178357	4.148100E+01
447	  0.109378755	-8.681000E+00	  0.109378755	5.901000E+01	  0.109378755	5.714400E+01	  0.109378755	4.170900E+01
448	  0.109579161	-8.661000E+00	  0.109579161	5.837800E+01	  0.109579161	5.765100E+01	  0.109579161	4.192900E+01
449	  0.109779559	-8.642000E+00	  0.109779559	5.771800E+01	  0.109779559	5.819100E+01	  0.109779559	4.214100E+01
450	  0.109979957	-8.617000E+00	  0.109979957	5.696600E+01	  0.109979957	5.881500E+01	  0.109979957	4.239600E+01
451	  0.110180363	-8.598000E+00	  0.110180363	5.634700E+01	  0.110180363	5.934100E+01	  0.110180363	4.259000E+01
452	  0.110380761	-8.581000E+00	  0.110380761	5.565200E+01	  0.110380761	5.994300E+01	  0.110380761	4.278600E+01
453	  0.110581160	-8.559000E+00	  0.110581160	5.495200E+01	  0.110581160	6.055600E+01	  0.110581160	4.300300E+01
454	  0.110781565	-8.543000E+00	  0.110781565	5.419500E+01	  0.110781565	6.123800E+01	  0.110781565	4.318500E+01
455	  0.110981964	-8.528000E+00	  0.110981964	5.347800E+01	  0.110981964	6.189500E+01	  0.110981964	4.334900E+01
456	  0.111182362	-8.510000E+00	  0.111182362	5.278200E+01	  0.111182362	6.254100E+01	  0.111182362	4.352400E+01
457	  0.111382768	-8.497000E+00	  0.111382768	5.200200E+01	  0.111382768	6.328000E+01	  0.111382768	4.366700E+01
458	  0.111583166	-8.485000E+00	  0.111583166	5.131200E+01	  0.111583166	6.394600E+01	  0.111583166	4.378500E+01
459	  0.111783572	-8.475000E+00	  0.111783572	5.051400E+01	  0.111783572	6.472800E+01	  0.111783572	4.389400E+01
460	  0.111983970	-8.459000E+00	  0.111983970	4.980500E+01	  0.111983970	6.543300E+01	  0.111983970	4.402100E+01
461	  0.112184368	-8.452000E+00	  0.112184368	4.899600E+01	  0.112184368	6.625100E+01	  0.112184368	4.408000E+01
462	  0.112384774	-8.457000E+00	  0.112384774	4.816700E+01	  0.112384774	6.710100E+01	  0.112384774	4.405200E+01
463	  0.112585172	-8.439000E+00	  0.112585172	4.737700E+01	  0.112585172	6.792400E+01	  0.112585172	4.415600E+01
464	  0.112785570	-8.432000E+00	  0.112785570	4.659700E+01	  0.112785570	6.874800E+01	  0.112785570	4.417500E+01
465	  0.112985976	-8.431000E+00	  0.112985976	4.574100E+01	  0.112985976	6.966100E+01	  0.112985976	4.413500E+01
466	  0.113186374	-8.426000E+00	  0.113186374	4.496200E+01	  0.113186374	7.050600E+01	  0.113186374	4.410700E+01
467	  0.113386773	-8.419000E+00	  0.113386773	4.411600E+01	  0.113386773	7.143300E+01	  0.113386773	4.406500E+01
468	  0.113587178	-8.431000E+00	  0.113587178	4.330800E+01	  0.113587178	7.231500E+01	  0.113587178	4.387600E+01
469	  0.113787577	-8.429000E+00	  0.113787577	4.243600E+01	  0.113787577	7.328800E+01	  0.113787577	4.375600E+01
470	  0.113987975	-8.424000E+00	  0.113987975	4.156000E+01	  0.113987975	7.428000E+01	  0.113987975	4.363500E+01
471	  0.114188381	-8.431000E+00	  0.114188381	4.071000E+01	  0.114188381	7.523500E+01	  0.114188381	4.340300E+01
472	  0.114388779	-8.431000E+00	  0.114388779	3.981300E+01	  0.114388779	7.626200E+01	  0.114388779	4.319000E+01
473	  0.114589177	-8.443000E+00	  0.114589177	3.889200E+01	  0.114589177	7.730500E+01	  0.114589177	4.285700E+01
474	  0.114789583	-8.445000E+00	  0.114789583	3.806200E+01	  0.114789583	7.826300E+01	  0.114789583	4.258800E+01
475	  0.114989981	-8.460000E+00	  0.114989981	3.712600E+01	  0.114989981	7.932000E+01	  0.114989981	4.215900E+01
476	  0.115190387	-8.466000E+00	  0.115190387	3.620800E+01	  0.115190387	8.037900E+01	  0.115190387	4.177400E+01
477	  0.115390785	-8.480000E+00	  0.115390785	3.526100E+01	  0.115390785	8.145300E+01	  0.115390785	4.128200E+01
478	  0.115591183	-8.491000E+00	  0.115591183	3.430500E+01	  0.115591183	8.254400E+01	  0.115591183	4.077500E+01
479	  0.115791589	-8.511000E+00	  0.115791589	3.336100E+01	  0.115791589	8.358800E+01	  0.115791589	4.016600E+01
480	  0.115991987	-8.520000E+00	  0.115991987	3.239100E+01	  0.115991987	8.469300E+01	  0.115991987	3.958800E+01
481	  0.116192386	-8.547000E+00	  0.116192386	3.140300E+01	  0.116192386	8.574700E+01	  0.116192386	3.882800E+01
482	  0.116392791	-8.566000E+00	  0.116392791	3.036500E+01	  0.116392791	8.687000E+01	  0.116392791	3.804800E+01
483	  0.116593190	-8.593000E+00	  0.116593190	2.939100E+01	  0.116593190	8.787600E+01	  0.116593190	3.721700E+01
484	  0.116793588	-8.610000E+00	  0.116793588	2.835900E+01	  0.116793588	8.896900E+01	  0.116793588	3.637400E+01
485	  0.116993994	-8.636000E+00	  0.116993994	2.727500E+01	  0.116993994	9.005900E+01	  0.116993994	3.538500E+01
486	  0.117194392	-8.666000E+00	  0.117194392	2.617000E+01	  0.117194392	9.112000E+01	  0.117194392	3.429700E+01
487	  0.117394790	-8.694000E+00	  0.117394790	2.511200E+01	  0.117394790	9.210800E+01	  0.117394790	3.321700E+01
488	  0.117595196	-8.728000E+00	  0.117595196	2.403300E+01	  0.117595196	9.305100E+01	  0.117595196	3.204000E+01
489	  0.117795594	-8.765000E+00	  0.117795594	2.288700E+01	  0.117795594	9.400100E+01	  0.117795594	3.073800E+01
490	  0.117995992	-8.805000E+00	  0.117995992	2.176800E+01	  0.117995992	9.485600E+01	  0.117995992	2.939900E+01
491	  0.118196398	-8.844000E+00	  0.118196398	2.061200E+01	  0.118196398	9.570100E+01	  0.118196398	2.799200E+01
492	  0.118396796	-8.889000E+00	  0.118396796	1.950100E+01	  0.118396796	9.640600E+01	  0.118396796	2.655900E+01
493	  0.118597202	-8.935000E+00	  0.118597202	1.829800E+01	  0.118597202	9.712600E+01	  0.118597202	2.499400E+01
494	  0.118797600	-8.990000E+00	  0.118797600	1.709500E+01	  0.118797600	9.770800E+01	  0.118797600	2.334900E+01
495	  0.118997999	-9.042000E+00	  0.118997999	1.587800E+01	  0.118997999	9.825600E+01	  0.118997999	2.168800E+01
496	  0.119198404	-9.101000E+00	  0.119198404	1.464600E+01	  0.119198404	9.867800E+01	  0.119198404	1.995500E+01
497	  0.119398803	-9.159000E+00	  0.119398803	1.338300E+01	  0.119398803	9.904600E+01	  0.119398803	1.817900E+01
498	  0.119599201	-9.224000E+00	  0.119599201	1.210700E+01	  0.119599201	9.928100E+01	  0.119599201	1.635600E+01
499	  0.119799607	-9.299000E+00	  0.119799607	1.083000E+01	  0.119799607	9.934400E+01	  0.119799607	1.450100E+01
500	  0.120000005	-9.367000E+00	  0.120000005	9.561000E+00	  0.120000005	9.938300E+01	  0.120000005	1.269800E+01
