! Anritsu VNA Master:             	Model: MS2036C/10/77
! SN:             	1601066
! /bd0/18may07/256.ns.m8.txt
! Existing Calibration Information:
! TYPE:             	Current Settings	Active Cal Settings
! TIME:             	05/07/2018 03:19:30 PM	05/07/2018 03:13:55 PM
! INTERNAL TEMP:    	61.3 C	60.5 C
! # POINTS:         	500	500
! START FREQ:       	20.000 MHz	20.000 MHz
! STOP FREQ:        	120.000 MHz	120.000 MHz
! SOURCE POWER:     	High	High
! IFBW:             	50 Hz	50 Hz
! AVG FACTOR:       	  1 	  1 
! REF PLANE 1:      	0 mm	0 mm
! REF PLANE 2:      	0 mm	0 mm
! CAL TYPE:         	Full S11	Full S11
! CAL METHOD:       	SOLT	SOLT
! CAL LINE TYPE:    	Coax	Coax
! DUT PORT 1:       	K-Conn(F)	K-Conn(F)
! DUT PORT 2:       	K-Conn(F)	K-Conn(F)
! CAL STATUS:       	OK: Accuracy High	--
! PROP-V:       	0.700
! CABLE LOSS:       	0.000 dB/m
! REF IMPEDANCE:       	50.0
! Trace Specific Parameters:	TR1	TR2	TR3	TR4
! TRACE.#.Y (GRAPH TYPE)	LOG MAG	PHASE	REAL IMPEDANCE	IMAGINARY IMPEDANCE
! TRACE.#.X 	FREQ.GHZ	FREQ.GHZ	FREQ.GHZ	FREQ.GHZ
! S-PARAMETER	S11	S11	S11	S11
! SMOOTH/APERTURE %	0	0	0	0
! WINDOW	NSL	NSL	NSL	NSL
! GATING	OFF	OFF	OFF	OFF
! FGTD	OFF	OFF	OFF	OFF
Marker Information per Trace:	TR1	TR2	TR3	TR4
!MK1	--	"MK1 TR2:  20.000 MHz,PH:-125.92°"	--	--
!MK2	--	--	"MK2 TR3:  70.100 200 MHz,Z:(16.946 ohm, -2.846 ohm)"	--
!MK3	--	--	--	--
!MK4	--	--	--	--
!MK5	--	--	--	--
!MK6	--	--	--	--
!MK7	--	--	--	--
!MK8	--	--	--	--
PNT	TR1.FREQ.GHZ	TR1.LOG MAG.dB	TR2.FREQ.GHZ	TR2.PHASE.deg	TR3.FREQ.GHZ	TR3.REAL IMPEDANCE.ohm	TR4.FREQ.GHZ	TR4.IMAGINARY IMPEDANCE.ohm
1	  0.020000000	-6.190000E-01	  0.020000000	-1.259180E+02	  0.020000000	2.246000E+00	  0.020000000	-2.548000E+01
2	  0.020200402	-6.180000E-01	  0.020200402	-1.274050E+02	  0.020200402	2.212000E+00	  0.020200402	-2.466900E+01
3	  0.020400802	-6.180000E-01	  0.020400802	-1.288670E+02	  0.020400802	2.186000E+00	  0.020400802	-2.388200E+01
4	  0.020601204	-6.230000E-01	  0.020601204	-1.303390E+02	  0.020601204	2.178000E+00	  0.020601204	-2.309900E+01
5	  0.020801604	-6.250000E-01	  0.020801604	-1.318450E+02	  0.020801604	2.158000E+00	  0.020801604	-2.230700E+01
6	  0.021002004	-6.320000E-01	  0.021002004	-1.333610E+02	  0.021002004	2.157000E+00	  0.021002004	-2.151900E+01
7	  0.021202406	-6.400000E-01	  0.021202406	-1.348820E+02	  0.021202406	2.160000E+00	  0.021202406	-2.073700E+01
8	  0.021402806	-6.450000E-01	  0.021402806	-1.364280E+02	  0.021402806	2.152000E+00	  0.021402806	-1.995200E+01
9	  0.021603208	-6.490000E-01	  0.021603208	-1.379720E+02	  0.021603208	2.143000E+00	  0.021603208	-1.917500E+01
10	  0.021803608	-6.540000E-01	  0.021803608	-1.395070E+02	  0.021803608	2.137000E+00	  0.021803608	-1.841200E+01
11	  0.022004008	-6.580000E-01	  0.022004008	-1.410350E+02	  0.022004008	2.131000E+00	  0.022004008	-1.766000E+01
12	  0.022204408	-6.650000E-01	  0.022204408	-1.426010E+02	  0.022204408	2.133000E+00	  0.022204408	-1.689500E+01
13	  0.022404809	-6.720000E-01	  0.022404809	-1.441690E+02	  0.022404809	2.135000E+00	  0.022404809	-1.613700E+01
14	  0.022605211	-6.770000E-01	  0.022605211	-1.457520E+02	  0.022605211	2.133000E+00	  0.022605211	-1.537800E+01
15	  0.022805611	-6.830000E-01	  0.022805611	-1.473430E+02	  0.022805611	2.133000E+00	  0.022805611	-1.462300E+01
16	  0.023006011	-6.850000E-01	  0.023006011	-1.489430E+02	  0.023006011	2.122000E+00	  0.023006011	-1.386900E+01
17	  0.023206413	-6.860000E-01	  0.023206413	-1.505390E+02	  0.023206413	2.110000E+00	  0.023206413	-1.312300E+01
18	  0.023406813	-6.870000E-01	  0.023406813	-1.521320E+02	  0.023406813	2.099000E+00	  0.023406813	-1.238400E+01
19	  0.023607215	-6.950000E-01	  0.023607215	-1.537170E+02	  0.023607215	2.108000E+00	  0.023607215	-1.165300E+01
20	  0.023807615	-7.010000E-01	  0.023807615	-1.553310E+02	  0.023807615	2.115000E+00	  0.023807615	-1.091400E+01
21	  0.024008015	-7.110000E-01	  0.024008015	-1.569510E+02	  0.024008015	2.131000E+00	  0.024008015	-1.017600E+01
22	  0.024208417	-7.220000E-01	  0.024208417	-1.586010E+02	  0.024208417	2.151000E+00	  0.024208417	-9.430000E+00
23	  0.024408817	-7.330000E-01	  0.024408817	-1.602580E+02	  0.024408817	2.172000E+00	  0.024408817	-8.684000E+00
24	  0.024609219	-7.410000E-01	  0.024609219	-1.619240E+02	  0.024609219	2.185000E+00	  0.024609219	-7.938000E+00
25	  0.024809619	-7.510000E-01	  0.024809619	-1.635850E+02	  0.024809619	2.205000E+00	  0.024809619	-7.197000E+00
26	  0.025010020	-7.630000E-01	  0.025010020	-1.652580E+02	  0.025010020	2.234000E+00	  0.025010020	-6.455000E+00
27	  0.025210422	-7.760000E-01	  0.025210422	-1.669420E+02	  0.025210422	2.264000E+00	  0.025210422	-5.710000E+00
28	  0.025410822	-7.900000E-01	  0.025410822	-1.686380E+02	  0.025410822	2.295000E+00	  0.025410822	-4.963000E+00
29	  0.025611224	-8.050000E-01	  0.025611224	-1.703470E+02	  0.025611224	2.332000E+00	  0.025611224	-4.212000E+00
30	  0.025811624	-8.190000E-01	  0.025811624	-1.720860E+02	  0.025811624	2.369000E+00	  0.025811624	-3.450000E+00
31	  0.026012026	-8.330000E-01	  0.026012026	-1.738370E+02	  0.026012026	2.403000E+00	  0.026012026	-2.685000E+00
32	  0.026212426	-8.420000E-01	  0.026212426	-1.755740E+02	  0.026212426	2.427000E+00	  0.026212426	-1.927000E+00
33	  0.026412826	-8.560000E-01	  0.026412826	-1.773280E+02	  0.026412826	2.463000E+00	  0.026412826	-1.163000E+00
34	  0.026613226	-8.710000E-01	  0.026613226	-1.790860E+02	  0.026613226	2.507000E+00	  0.026613226	-3.970000E-01
35	  0.026813626	-8.880000E-01	  0.026813626	1.791290E+02	  0.026813626	2.556000E+00	  0.026813626	3.780000E-01
36	  0.027014028	-9.040000E-01	  0.027014028	1.773520E+02	  0.027014028	2.603000E+00	  0.027014028	1.152000E+00
37	  0.027214428	-9.220000E-01	  0.027214428	1.755470E+02	  0.027214428	2.658000E+00	  0.027214428	1.938000E+00
38	  0.027414829	-9.390000E-01	  0.027414829	1.737260E+02	  0.027414829	2.708000E+00	  0.027414829	2.731000E+00
39	  0.027615231	-9.560000E-01	  0.027615231	1.719160E+02	  0.027615231	2.763000E+00	  0.027615231	3.522000E+00
40	  0.027815631	-9.760000E-01	  0.027815631	1.700870E+02	  0.027815631	2.827000E+00	  0.027815631	4.322000E+00
41	  0.028016033	-9.960000E-01	  0.028016033	1.682380E+02	  0.028016033	2.894000E+00	  0.028016033	5.132000E+00
42	  0.028216433	-1.017000E+00	  0.028216433	1.663960E+02	  0.028216433	2.968000E+00	  0.028216433	5.943000E+00
43	  0.028416833	-1.038000E+00	  0.028416833	1.645450E+02	  0.028416833	3.039000E+00	  0.028416833	6.759000E+00
44	  0.028617235	-1.058000E+00	  0.028617235	1.626950E+02	  0.028617235	3.113000E+00	  0.028617235	7.579000E+00
45	  0.028817635	-1.076000E+00	  0.028817635	1.608430E+02	  0.028817635	3.180000E+00	  0.028817635	8.404000E+00
46	  0.029018037	-1.096000E+00	  0.029018037	1.590030E+02	  0.029018037	3.258000E+00	  0.029018037	9.227000E+00
47	  0.029218437	-1.115000E+00	  0.029218437	1.571550E+02	  0.029218437	3.337000E+00	  0.029218437	1.005800E+01
48	  0.029418837	-1.139000E+00	  0.029418837	1.553270E+02	  0.029418837	3.431000E+00	  0.029418837	1.088500E+01
49	  0.029619239	-1.164000E+00	  0.029619239	1.534610E+02	  0.029619239	3.532000E+00	  0.029619239	1.173500E+01
50	  0.029819639	-1.192000E+00	  0.029819639	1.515820E+02	  0.029819639	3.644000E+00	  0.029819639	1.259600E+01
51	  0.030020041	-1.222000E+00	  0.030020041	1.496860E+02	  0.030020041	3.768000E+00	  0.030020041	1.347200E+01
52	  0.030220442	-1.252000E+00	  0.030220442	1.477490E+02	  0.030220442	3.898000E+00	  0.030220442	1.437400E+01
53	  0.030420844	-1.283000E+00	  0.030420844	1.458240E+02	  0.030420844	4.032000E+00	  0.030420844	1.527800E+01
54	  0.030621244	-1.314000E+00	  0.030621244	1.439060E+02	  0.030621244	4.174000E+00	  0.030621244	1.618800E+01
55	  0.030821644	-1.346000E+00	  0.030821644	1.419800E+02	  0.030821644	4.323000E+00	  0.030821644	1.711000E+01
56	  0.031022044	-1.380000E+00	  0.031022044	1.400560E+02	  0.031022044	4.484000E+00	  0.031022044	1.804100E+01
57	  0.031222444	-1.411000E+00	  0.031222444	1.381360E+02	  0.031222444	4.642000E+00	  0.031222444	1.898100E+01
58	  0.031422846	-1.446000E+00	  0.031422846	1.361500E+02	  0.031422846	4.822000E+00	  0.031422846	1.996300E+01
59	  0.031623244	-1.485000E+00	  0.031623244	1.341700E+02	  0.031623244	5.022000E+00	  0.031623244	2.095500E+01
60	  0.031823646	-1.524000E+00	  0.031823646	1.321530E+02	  0.031823646	5.230000E+00	  0.031823646	2.197700E+01
61	  0.032024048	-1.560000E+00	  0.032024048	1.301570E+02	  0.032024048	5.437000E+00	  0.032024048	2.300500E+01
62	  0.032224450	-1.597000E+00	  0.032224450	1.281310E+02	  0.032224450	5.658000E+00	  0.032224450	2.406300E+01
63	  0.032424849	-1.636000E+00	  0.032424849	1.261360E+02	  0.032424849	5.894000E+00	  0.032424849	2.512000E+01
64	  0.032625251	-1.670000E+00	  0.032625251	1.241290E+02	  0.032625251	6.126000E+00	  0.032625251	2.620100E+01
65	  0.032825653	-1.709000E+00	  0.032825653	1.221360E+02	  0.032825653	6.384000E+00	  0.032825653	2.729100E+01
66	  0.033026051	-1.747000E+00	  0.033026051	1.201140E+02	  0.033026051	6.654000E+00	  0.033026051	2.841600E+01
67	  0.033226453	-1.787000E+00	  0.033226453	1.181280E+02	  0.033226453	6.943000E+00	  0.033226453	2.953900E+01
68	  0.033426855	-1.834000E+00	  0.033426855	1.161310E+02	  0.033426855	7.274000E+00	  0.033426855	3.068600E+01
69	  0.033627257	-1.883000E+00	  0.033627257	1.141410E+02	  0.033627257	7.628000E+00	  0.033627257	3.184900E+01
70	  0.033827655	-1.936000E+00	  0.033827655	1.121080E+02	  0.033827655	8.019000E+00	  0.033827655	3.305700E+01
71	  0.034028057	-1.989000E+00	  0.034028057	1.100550E+02	  0.034028057	8.435000E+00	  0.034028057	3.430100E+01
72	  0.034228459	-2.037000E+00	  0.034228459	1.079640E+02	  0.034228459	8.861000E+00	  0.034228459	3.559800E+01
73	  0.034428857	-2.092000E+00	  0.034428857	1.058350E+02	  0.034428857	9.342000E+00	  0.034428857	3.694300E+01
74	  0.034629259	-2.141000E+00	  0.034629259	1.037100E+02	  0.034629259	9.826000E+00	  0.034629259	3.832100E+01
75	  0.034829661	-2.187000E+00	  0.034829661	1.015850E+02	  0.034829661	1.032300E+01	  0.034829661	3.973400E+01
76	  0.035030060	-2.234000E+00	  0.035030060	9.944200E+01	  0.035030060	1.085900E+01	  0.035030060	4.119300E+01
77	  0.035230462	-2.281000E+00	  0.035230462	9.732600E+01	  0.035230462	1.143200E+01	  0.035230462	4.266900E+01
78	  0.035430863	-2.324000E+00	  0.035430863	9.521100E+01	  0.035430863	1.201500E+01	  0.035430863	4.418800E+01
79	  0.035631265	-2.367000E+00	  0.035631265	9.310100E+01	  0.035631265	1.264300E+01	  0.035631265	4.574100E+01
80	  0.035831664	-2.412000E+00	  0.035831664	9.101800E+01	  0.035831664	1.331100E+01	  0.035831664	4.731500E+01
81	  0.036032066	-2.458000E+00	  0.036032066	8.895700E+01	  0.036032066	1.403000E+01	  0.036032066	4.890900E+01
82	  0.036232468	-2.501000E+00	  0.036232468	8.687800E+01	  0.036232468	1.478900E+01	  0.036232468	5.056700E+01
83	  0.036432866	-2.549000E+00	  0.036432866	8.481400E+01	  0.036432866	1.562200E+01	  0.036432866	5.224900E+01
84	  0.036633268	-2.598000E+00	  0.036633268	8.276800E+01	  0.036633268	1.651600E+01	  0.036633268	5.396200E+01
85	  0.036833670	-2.651000E+00	  0.036833670	8.071600E+01	  0.036833670	1.750000E+01	  0.036833670	5.571800E+01
86	  0.037034072	-2.710000E+00	  0.037034072	7.864800E+01	  0.037034072	1.860500E+01	  0.037034072	5.751900E+01
87	  0.037234470	-2.772000E+00	  0.037234470	7.656800E+01	  0.037234470	1.981400E+01	  0.037234470	5.937400E+01
88	  0.037434869	-2.836000E+00	  0.037434869	7.449600E+01	  0.037434869	2.113100E+01	  0.037434869	6.126000E+01
89	  0.037635271	-2.906000E+00	  0.037635271	7.240500E+01	  0.037635271	2.259500E+01	  0.037635271	6.319200E+01
90	  0.037835669	-2.978000E+00	  0.037835669	7.036000E+01	  0.037835669	2.417400E+01	  0.037835669	6.510700E+01
91	  0.038036071	-3.036000E+00	  0.038036071	6.835500E+01	  0.038036071	2.574100E+01	  0.038036071	6.707500E+01
92	  0.038236473	-3.087000E+00	  0.038236473	6.626600E+01	  0.038236473	2.744600E+01	  0.038236473	6.920600E+01
93	  0.038436871	-3.135000E+00	  0.038436871	6.414400E+01	  0.038436871	2.928600E+01	  0.038436871	7.144800E+01
94	  0.038637273	-3.187000E+00	  0.038637273	6.202800E+01	  0.038637273	3.132300E+01	  0.038637273	7.371200E+01
95	  0.038837675	-3.236000E+00	  0.038837675	5.992200E+01	  0.038837675	3.350200E+01	  0.038837675	7.603200E+01
96	  0.039038073	-3.278000E+00	  0.039038073	5.783300E+01	  0.039038073	3.580000E+01	  0.039038073	7.842600E+01
97	  0.039238475	-3.322000E+00	  0.039238475	5.577000E+01	  0.039238475	3.830600E+01	  0.039238475	8.081300E+01
98	  0.039438877	-3.371000E+00	  0.039438877	5.372800E+01	  0.039438877	4.105400E+01	  0.039438877	8.317300E+01
99	  0.039639279	-3.420000E+00	  0.039639279	5.169700E+01	  0.039639279	4.403800E+01	  0.039639279	8.553600E+01
100	  0.039839678	-3.478000E+00	  0.039839678	4.967000E+01	  0.039839678	4.737200E+01	  0.039839678	8.780900E+01
101	  0.040040080	-3.534000E+00	  0.040040080	4.763400E+01	  0.040040080	5.099100E+01	  0.040040080	9.009100E+01
102	  0.040240481	-3.592000E+00	  0.040240481	4.559900E+01	  0.040240481	5.496100E+01	  0.040240481	9.228500E+01
103	  0.040440880	-3.652000E+00	  0.040440880	4.352600E+01	  0.040440880	5.936900E+01	  0.040440880	9.442800E+01
104	  0.040641282	-3.710000E+00	  0.040641282	4.145300E+01	  0.040641282	6.415700E+01	  0.040641282	9.645800E+01
105	  0.040841684	-3.769000E+00	  0.040841684	3.938100E+01	  0.040841684	6.937300E+01	  0.040841684	9.829700E+01
106	  0.041042086	-3.822000E+00	  0.041042086	3.733000E+01	  0.041042086	7.492800E+01	  0.041042086	9.997500E+01
107	  0.041242484	-3.879000E+00	  0.041242484	3.526800E+01	  0.041242484	8.099700E+01	  0.041242484	1.013220E+02
108	  0.041442886	-3.932000E+00	  0.041442886	3.320400E+01	  0.041442886	8.753900E+01	  0.041442886	1.023420E+02
109	  0.041643288	-3.988000E+00	  0.041643288	3.113700E+01	  0.041643288	9.458200E+01	  0.041643288	1.028640E+02
110	  0.041843686	-4.036000E+00	  0.041843686	2.905500E+01	  0.041843686	1.021310E+02	  0.041843686	1.029790E+02
111	  0.042044088	-4.088000E+00	  0.042044088	2.700200E+01	  0.042044088	1.100450E+02	  0.042044088	1.023310E+02
112	  0.042244490	-4.137000E+00	  0.042244490	2.495600E+01	  0.042244490	1.183250E+02	  0.042244490	1.009370E+02
113	  0.042444889	-4.185000E+00	  0.042444889	2.294700E+01	  0.042444889	1.267680E+02	  0.042444889	9.869900E+01
114	  0.042645290	-4.234000E+00	  0.042645290	2.092500E+01	  0.042645290	1.354610E+02	  0.042645290	9.541700E+01
115	  0.042845692	-4.282000E+00	  0.042845692	1.892700E+01	  0.042845692	1.440980E+02	  0.042845692	9.107800E+01
116	  0.043046094	-4.330000E+00	  0.043046094	1.693700E+01	  0.043046094	1.525540E+02	  0.043046094	8.554700E+01
117	  0.043246493	-4.375000E+00	  0.043246493	1.493100E+01	  0.043246493	1.607910E+02	  0.043246493	7.886200E+01
118	  0.043446895	-4.421000E+00	  0.043446895	1.294400E+01	  0.043446895	1.683510E+02	  0.043446895	7.097400E+01
119	  0.043647297	-4.466000E+00	  0.043647297	1.095700E+01	  0.043647297	1.751100E+02	  0.043647297	6.195900E+01
120	  0.043847695	-4.511000E+00	  0.043847695	8.985000E+00	  0.043847695	1.807480E+02	  0.043847695	5.197600E+01
121	  0.044048097	-4.557000E+00	  0.044048097	7.019000E+00	  0.044048097	1.850900E+02	  0.044048097	4.119500E+01
122	  0.044248499	-4.602000E+00	  0.044248499	5.070000E+00	  0.044248499	1.880040E+02	  0.044248499	2.993900E+01
123	  0.044448901	-4.643000E+00	  0.044448901	3.112000E+00	  0.044448901	1.895700E+02	  0.044448901	1.836300E+01
124	  0.044649299	-4.689000E+00	  0.044649299	1.184000E+00	  0.044649299	1.894170E+02	  0.044649299	6.908000E+00
125	  0.044849701	-4.732000E+00	  0.044849701	-7.240000E-01	  0.044849701	1.879550E+02	  0.044849701	-4.152000E+00
126	  0.045050103	-4.773000E+00	  0.045050103	-2.623000E+00	  0.045050103	1.852450E+02	  0.045050103	-1.467700E+01
127	  0.045250501	-4.814000E+00	  0.045250501	-4.549000E+00	  0.045250501	1.813870E+02	  0.045250501	-2.467700E+01
128	  0.045450903	-4.851000E+00	  0.045450903	-6.421000E+00	  0.045450903	1.767230E+02	  0.045450903	-3.360500E+01
129	  0.045651305	-4.890000E+00	  0.045651305	-8.312000E+00	  0.045651305	1.712310E+02	  0.045651305	-4.173200E+01
130	  0.045851704	-4.929000E+00	  0.045851704	-1.016100E+01	  0.045851704	1.652320E+02	  0.045851704	-4.870400E+01
131	  0.046052106	-4.969000E+00	  0.046052106	-1.202100E+01	  0.046052106	1.588140E+02	  0.046052106	-5.477700E+01
132	  0.046252504	-5.008000E+00	  0.046252504	-1.388400E+01	  0.046252504	1.521890E+02	  0.046252504	-5.995800E+01
133	  0.046452906	-5.047000E+00	  0.046452906	-1.571900E+01	  0.046452906	1.455440E+02	  0.046452906	-6.417500E+01
134	  0.046653304	-5.086000E+00	  0.046653304	-1.755900E+01	  0.046653304	1.389180E+02	  0.046653304	-6.763100E+01
135	  0.046853706	-5.123000E+00	  0.046853706	-1.941000E+01	  0.046853706	1.323910E+02	  0.046853706	-7.042500E+01
136	  0.047054108	-5.163000E+00	  0.047054108	-2.122900E+01	  0.047054108	1.261120E+02	  0.047054108	-7.247500E+01
137	  0.047254506	-5.199000E+00	  0.047254506	-2.303800E+01	  0.047254506	1.201080E+02	  0.047254506	-7.401700E+01
138	  0.047454908	-5.234000E+00	  0.047454908	-2.484100E+01	  0.047454908	1.143810E+02	  0.047454908	-7.510800E+01
139	  0.047655310	-5.265000E+00	  0.047655310	-2.661900E+01	  0.047655310	1.089930E+02	  0.047655310	-7.582200E+01
140	  0.047855709	-5.298000E+00	  0.047855709	-2.837500E+01	  0.047855709	1.039170E+02	  0.047855709	-7.614100E+01
141	  0.048056111	-5.331000E+00	  0.048056111	-3.011700E+01	  0.048056111	9.914100E+01	  0.048056111	-7.617100E+01
142	  0.048256513	-5.361000E+00	  0.048256513	-3.186800E+01	  0.048256513	9.459700E+01	  0.048256513	-7.599100E+01
143	  0.048456915	-5.393000E+00	  0.048456915	-3.360400E+01	  0.048456915	9.033900E+01	  0.048456915	-7.557600E+01
144	  0.048657313	-5.428000E+00	  0.048657313	-3.533400E+01	  0.048657313	8.634000E+01	  0.048657313	-7.492400E+01
145	  0.048857715	-5.454000E+00	  0.048857715	-3.706600E+01	  0.048857715	8.256000E+01	  0.048857715	-7.426900E+01
146	  0.049058117	-5.486000E+00	  0.049058117	-3.881700E+01	  0.049058117	7.897000E+01	  0.049058117	-7.338500E+01
147	  0.049258515	-5.512000E+00	  0.049258515	-4.052100E+01	  0.049258515	7.566900E+01	  0.049258515	-7.250500E+01
148	  0.049458917	-5.536000E+00	  0.049458917	-4.222000E+01	  0.049458917	7.256500E+01	  0.049458917	-7.155000E+01
149	  0.049659319	-5.566000E+00	  0.049659319	-4.394500E+01	  0.049659319	6.961200E+01	  0.049659319	-7.045100E+01
150	  0.049859721	-5.592000E+00	  0.049859721	-4.560500E+01	  0.049859721	6.692800E+01	  0.049859721	-6.937600E+01
151	  0.050060119	-5.618000E+00	  0.050060119	-4.729400E+01	  0.050060119	6.435100E+01	  0.050060119	-6.825100E+01
152	  0.050260521	-5.640000E+00	  0.050260521	-4.898000E+01	  0.050260521	6.191800E+01	  0.050260521	-6.711500E+01
153	  0.050460923	-5.664000E+00	  0.050460923	-5.065700E+01	  0.050460923	5.963800E+01	  0.050460923	-6.595100E+01
154	  0.050661322	-5.684000E+00	  0.050661322	-5.232200E+01	  0.050661322	5.748900E+01	  0.050661322	-6.480200E+01
155	  0.050861724	-5.698000E+00	  0.050861724	-5.395700E+01	  0.050861724	5.547500E+01	  0.050861724	-6.370100E+01
156	  0.051062126	-5.716000E+00	  0.051062126	-5.560000E+01	  0.051062126	5.357100E+01	  0.051062126	-6.255500E+01
157	  0.051262524	-5.733000E+00	  0.051262524	-5.719300E+01	  0.051262524	5.182800E+01	  0.051262524	-6.143000E+01
158	  0.051462926	-5.750000E+00	  0.051462926	-5.876400E+01	  0.051462926	5.019500E+01	  0.051462926	-6.032000E+01
159	  0.051663328	-5.762000E+00	  0.051663328	-6.030800E+01	  0.051663328	4.865400E+01	  0.051663328	-5.925900E+01
160	  0.051863730	-5.778000E+00	  0.051863730	-6.186700E+01	  0.051863730	4.718700E+01	  0.051863730	-5.816600E+01
161	  0.052064128	-5.796000E+00	  0.052064128	-6.338700E+01	  0.052064128	4.584100E+01	  0.052064128	-5.708500E+01
162	  0.052264530	-5.814000E+00	  0.052264530	-6.490700E+01	  0.052264530	4.456200E+01	  0.052264530	-5.600700E+01
163	  0.052464932	-5.830000E+00	  0.052464932	-6.642400E+01	  0.052464932	4.333600E+01	  0.052464932	-5.495500E+01
164	  0.052665330	-5.849000E+00	  0.052665330	-6.795400E+01	  0.052665330	4.217300E+01	  0.052665330	-5.388300E+01
165	  0.052865732	-5.865000E+00	  0.052865732	-6.943300E+01	  0.052865732	4.109400E+01	  0.052865732	-5.286400E+01
166	  0.053066134	-5.887000E+00	  0.053066134	-7.095500E+01	  0.053066134	4.005600E+01	  0.053066134	-5.180400E+01
167	  0.053266536	-5.901000E+00	  0.053266536	-7.244700E+01	  0.053266536	3.905600E+01	  0.053266536	-5.081100E+01
168	  0.053466935	-5.917000E+00	  0.053466935	-7.395500E+01	  0.053466935	3.810100E+01	  0.053466935	-4.980500E+01
169	  0.053667337	-5.931000E+00	  0.053667337	-7.543900E+01	  0.053667337	3.719700E+01	  0.053667337	-4.883400E+01
170	  0.053867739	-5.944000E+00	  0.053867739	-7.695000E+01	  0.053867739	3.631000E+01	  0.053867739	-4.786300E+01
171	  0.054068137	-5.950000E+00	  0.054068137	-7.841800E+01	  0.054068137	3.546400E+01	  0.054068137	-4.695100E+01
172	  0.054268539	-5.960000E+00	  0.054268539	-7.987600E+01	  0.054268539	3.467100E+01	  0.054268539	-4.604200E+01
173	  0.054468941	-5.970000E+00	  0.054468941	-8.131700E+01	  0.054468941	3.392400E+01	  0.054468941	-4.515100E+01
174	  0.054669339	-5.981000E+00	  0.054669339	-8.272600E+01	  0.054669339	3.323000E+01	  0.054669339	-4.428200E+01
175	  0.054869737	-5.992000E+00	  0.054869737	-8.415400E+01	  0.054869737	3.255400E+01	  0.054869737	-4.341200E+01
176	  0.055070139	-6.003000E+00	  0.055070139	-8.556200E+01	  0.055070139	3.191400E+01	  0.055070139	-4.256500E+01
177	  0.055270538	-6.014000E+00	  0.055270538	-8.693300E+01	  0.055270538	3.131700E+01	  0.055270538	-4.174700E+01
178	  0.055470940	-6.026000E+00	  0.055470940	-8.832500E+01	  0.055470940	3.073800E+01	  0.055470940	-4.092300E+01
179	  0.055671342	-6.037000E+00	  0.055671342	-8.970300E+01	  0.055671342	3.018600E+01	  0.055671342	-4.011900E+01
180	  0.055871744	-6.045000E+00	  0.055871744	-9.111900E+01	  0.055871744	2.962700E+01	  0.055871744	-3.931000E+01
181	  0.056072142	-6.054000E+00	  0.056072142	-9.248600E+01	  0.056072142	2.911400E+01	  0.056072142	-3.853500E+01
182	  0.056272544	-6.066000E+00	  0.056272544	-9.387300E+01	  0.056272544	2.862600E+01	  0.056272544	-3.774700E+01
183	  0.056472946	-6.076000E+00	  0.056472946	-9.526700E+01	  0.056472946	2.814600E+01	  0.056472946	-3.697100E+01
184	  0.056673344	-6.088000E+00	  0.056673344	-9.665900E+01	  0.056673344	2.769000E+01	  0.056673344	-3.620100E+01
185	  0.056873746	-6.091000E+00	  0.056873746	-9.802900E+01	  0.056873746	2.723200E+01	  0.056873746	-3.546900E+01
186	  0.057074148	-6.098000E+00	  0.057074148	-9.936700E+01	  0.057074148	2.681100E+01	  0.057074148	-3.475300E+01
187	  0.057274550	-6.101000E+00	  0.057274550	-1.007470E+02	  0.057274550	2.638100E+01	  0.057274550	-3.403000E+01
188	  0.057474948	-6.103000E+00	  0.057474948	-1.021030E+02	  0.057474948	2.597100E+01	  0.057474948	-3.332800E+01
189	  0.057675350	-6.103000E+00	  0.057675350	-1.034170E+02	  0.057675350	2.558300E+01	  0.057675350	-3.265600E+01
190	  0.057875752	-6.103000E+00	  0.057875752	-1.047400E+02	  0.057875752	2.520100E+01	  0.057875752	-3.198800E+01
191	  0.058076151	-6.106000E+00	  0.058076151	-1.060610E+02	  0.058076151	2.484700E+01	  0.058076151	-3.131900E+01
192	  0.058276553	-6.109000E+00	  0.058276553	-1.073180E+02	  0.058276553	2.452300E+01	  0.058276553	-3.068700E+01
193	  0.058476955	-6.110000E+00	  0.058476955	-1.085860E+02	  0.058476955	2.419700E+01	  0.058476955	-3.006000E+01
194	  0.058677353	-6.112000E+00	  0.058677353	-1.098160E+02	  0.058677353	2.389600E+01	  0.058677353	-2.945400E+01
195	  0.058877755	-6.115000E+00	  0.058877755	-1.110960E+02	  0.058877755	2.359500E+01	  0.058877755	-2.882800E+01
196	  0.059078157	-6.117000E+00	  0.059078157	-1.123350E+02	  0.059078157	2.331500E+01	  0.059078157	-2.822500E+01
197	  0.059278559	-6.120000E+00	  0.059278559	-1.135800E+02	  0.059278559	2.304100E+01	  0.059278559	-2.762600E+01
198	  0.059478957	-6.123000E+00	  0.059478957	-1.148260E+02	  0.059478957	2.278000E+01	  0.059478957	-2.702900E+01
199	  0.059679359	-6.129000E+00	  0.059679359	-1.160780E+02	  0.059679359	2.253200E+01	  0.059679359	-2.643100E+01
200	  0.059879761	-6.132000E+00	  0.059879761	-1.173030E+02	  0.059879761	2.229200E+01	  0.059879761	-2.585400E+01
201	  0.060080159	-6.138000E+00	  0.060080159	-1.185340E+02	  0.060080159	2.206600E+01	  0.060080159	-2.527400E+01
202	  0.060280561	-6.138000E+00	  0.060280561	-1.197430E+02	  0.060280561	2.183300E+01	  0.060280561	-2.471700E+01
203	  0.060480963	-6.139000E+00	  0.060480963	-1.209720E+02	  0.060480963	2.161000E+01	  0.060480963	-2.415200E+01
204	  0.060681365	-6.145000E+00	  0.060681365	-1.221880E+02	  0.060681365	2.140900E+01	  0.060681365	-2.359200E+01
205	  0.060881764	-6.146000E+00	  0.060881764	-1.233980E+02	  0.060881764	2.120400E+01	  0.060881764	-2.304300E+01
206	  0.061082166	-6.149000E+00	  0.061082166	-1.245940E+02	  0.061082166	2.101100E+01	  0.061082166	-2.250300E+01
207	  0.061282568	-6.152000E+00	  0.061282568	-1.257960E+02	  0.061282568	2.082500E+01	  0.061282568	-2.196400E+01
208	  0.061482966	-6.150000E+00	  0.061482966	-1.269730E+02	  0.061482966	2.063500E+01	  0.061482966	-2.144300E+01
209	  0.061683368	-6.154000E+00	  0.061683368	-1.281160E+02	  0.061683368	2.047200E+01	  0.061683368	-2.093600E+01
210	  0.061883770	-6.156000E+00	  0.061883770	-1.293090E+02	  0.061883770	2.030200E+01	  0.061883770	-2.041100E+01
211	  0.062084168	-6.165000E+00	  0.062084168	-1.304330E+02	  0.062084168	2.016800E+01	  0.062084168	-1.991200E+01
212	  0.062284570	-6.168000E+00	  0.062284570	-1.315690E+02	  0.062284570	2.002100E+01	  0.062284570	-1.941700E+01
213	  0.062484972	-6.169000E+00	  0.062484972	-1.326310E+02	  0.062484972	1.988000E+01	  0.062484972	-1.895900E+01
214	  0.062685370	-6.171000E+00	  0.062685370	-1.337920E+02	  0.062685370	1.973700E+01	  0.062685370	-1.845900E+01
215	  0.062885776	-6.176000E+00	  0.062885776	-1.349120E+02	  0.062885776	1.961100E+01	  0.062885776	-1.797600E+01
216	  0.063086174	-6.190000E+00	  0.063086174	-1.360090E+02	  0.063086174	1.951600E+01	  0.063086174	-1.750000E+01
217	  0.063286573	-6.199000E+00	  0.063286573	-1.371470E+02	  0.063286573	1.940800E+01	  0.063286573	-1.701200E+01
218	  0.063486971	-6.205000E+00	  0.063486971	-1.382600E+02	  0.063486971	1.929800E+01	  0.063486971	-1.654100E+01
219	  0.063687377	-6.203000E+00	  0.063687377	-1.393570E+02	  0.063687377	1.917200E+01	  0.063687377	-1.608400E+01
220	  0.063887775	-6.207000E+00	  0.063887775	-1.404560E+02	  0.063887775	1.906900E+01	  0.063887775	-1.562300E+01
221	  0.064088173	-6.210000E+00	  0.064088173	-1.415460E+02	  0.064088173	1.896600E+01	  0.064088173	-1.516800E+01
222	  0.064288579	-6.208000E+00	  0.064288579	-1.426460E+02	  0.064288579	1.885100E+01	  0.064288579	-1.471600E+01
223	  0.064488977	-6.212000E+00	  0.064488977	-1.437080E+02	  0.064488977	1.876100E+01	  0.064488977	-1.427700E+01
224	  0.064689375	-6.208000E+00	  0.064689375	-1.447740E+02	  0.064689375	1.865100E+01	  0.064689375	-1.384300E+01
225	  0.064889781	-6.210000E+00	  0.064889781	-1.458410E+02	  0.064889781	1.856300E+01	  0.064889781	-1.340600E+01
226	  0.065090179	-6.202000E+00	  0.065090179	-1.468470E+02	  0.065090179	1.845500E+01	  0.065090179	-1.300000E+01
227	  0.065290578	-6.199000E+00	  0.065290578	-1.478870E+02	  0.065290578	1.836300E+01	  0.065290578	-1.258000E+01
228	  0.065490983	-6.196000E+00	  0.065490983	-1.489420E+02	  0.065490983	1.827000E+01	  0.065490983	-1.215500E+01
229	  0.065691382	-6.187000E+00	  0.065691382	-1.499800E+02	  0.065691382	1.816900E+01	  0.065691382	-1.174100E+01
230	  0.065891780	-6.183000E+00	  0.065891780	-1.510320E+02	  0.065891780	1.808000E+01	  0.065891780	-1.132000E+01
231	  0.066092186	-6.175000E+00	  0.066092186	-1.520860E+02	  0.066092186	1.798600E+01	  0.066092186	-1.090000E+01
232	  0.066292584	-6.170000E+00	  0.066292584	-1.531250E+02	  0.066292584	1.790300E+01	  0.066292584	-1.048700E+01
233	  0.066492982	-6.165000E+00	  0.066492982	-1.541670E+02	  0.066492982	1.782200E+01	  0.066492982	-1.007300E+01
234	  0.066693388	-6.158000E+00	  0.066693388	-1.552250E+02	  0.066693388	1.774000E+01	  0.066693388	-9.655000E+00
235	  0.066893786	-6.153000E+00	  0.066893786	-1.562340E+02	  0.066893786	1.766700E+01	  0.066893786	-9.256000E+00
236	  0.067094192	-6.147000E+00	  0.067094192	-1.573050E+02	  0.067094192	1.759300E+01	  0.067094192	-8.833000E+00
237	  0.067294590	-6.141000E+00	  0.067294590	-1.583270E+02	  0.067294590	1.752200E+01	  0.067294590	-8.432000E+00
238	  0.067494988	-6.139000E+00	  0.067494988	-1.593950E+02	  0.067494988	1.746500E+01	  0.067494988	-8.010000E+00
239	  0.067695394	-6.132000E+00	  0.067695394	-1.604200E+02	  0.067695394	1.739800E+01	  0.067695394	-7.609000E+00
240	  0.067895792	-6.125000E+00	  0.067895792	-1.614570E+02	  0.067895792	1.733200E+01	  0.067895792	-7.203000E+00
241	  0.068096191	-6.121000E+00	  0.068096191	-1.625310E+02	  0.068096191	1.727700E+01	  0.068096191	-6.783000E+00
242	  0.068296596	-6.122000E+00	  0.068296596	-1.635400E+02	  0.068296596	1.723900E+01	  0.068296596	-6.387000E+00
243	  0.068496995	-6.121000E+00	  0.068496995	-1.645650E+02	  0.068496995	1.719700E+01	  0.068496995	-5.986000E+00
244	  0.068697393	-6.117000E+00	  0.068697393	-1.656010E+02	  0.068697393	1.715300E+01	  0.068697393	-5.582000E+00
245	  0.068897791	-6.113000E+00	  0.068897791	-1.666130E+02	  0.068897791	1.710900E+01	  0.068897791	-5.188000E+00
246	  0.069098189	-6.105000E+00	  0.069098189	-1.676040E+02	  0.069098189	1.705900E+01	  0.069098189	-4.804000E+00
247	  0.069298595	-6.101000E+00	  0.069298595	-1.686350E+02	  0.069298595	1.702200E+01	  0.069298595	-4.403000E+00
248	  0.069498993	-6.099000E+00	  0.069498993	-1.695800E+02	  0.069498993	1.699200E+01	  0.069498993	-4.036000E+00
249	  0.069699399	-6.100000E+00	  0.069699399	-1.706200E+02	  0.069699399	1.697100E+01	  0.069699399	-3.631000E+00
250	  0.069899797	-6.097000E+00	  0.069899797	-1.716610E+02	  0.069899797	1.694200E+01	  0.069899797	-3.228000E+00
251	  0.070100196	-6.105000E+00	  0.070100196	-1.726450E+02	  0.070100196	1.694600E+01	  0.070100196	-2.845000E+00
252	  0.070300601	-6.105000E+00	  0.070300601	-1.735950E+02	  0.070300601	1.693000E+01	  0.070300601	-2.477000E+00
253	  0.070501000	-6.097000E+00	  0.070501000	-1.745990E+02	  0.070501000	1.689500E+01	  0.070501000	-2.089000E+00
254	  0.070701398	-6.103000E+00	  0.070701398	-1.756130E+02	  0.070701398	1.690000E+01	  0.070701398	-1.696000E+00
255	  0.070901804	-6.093000E+00	  0.070901804	-1.765890E+02	  0.070901804	1.686600E+01	  0.070901804	-1.319000E+00
256	  0.071102202	-6.092000E+00	  0.071102202	-1.775350E+02	  0.071102202	1.685600E+01	  0.071102202	-9.530000E-01
257	  0.071302600	-6.100000E+00	  0.071302600	-1.785470E+02	  0.071302600	1.687200E+01	  0.071302600	-5.610000E-01
258	  0.071503006	-6.100000E+00	  0.071503006	-1.795390E+02	  0.071503006	1.687200E+01	  0.071503006	-1.770000E-01
259	  0.071703404	-6.107000E+00	  0.071703404	1.794870E+02	  0.071703404	1.688800E+01	  0.071703404	1.980000E-01
260	  0.071903802	-6.106000E+00	  0.071903802	1.785560E+02	  0.071903802	1.688700E+01	  0.071903802	5.580000E-01
261	  0.072104208	-6.109000E+00	  0.072104208	1.775520E+02	  0.072104208	1.690000E+01	  0.072104208	9.460000E-01
262	  0.072304606	-6.110000E+00	  0.072304606	1.766040E+02	  0.072304606	1.691000E+01	  0.072304606	1.312000E+00
263	  0.072505005	-6.116000E+00	  0.072505005	1.756450E+02	  0.072505005	1.693200E+01	  0.072505005	1.683000E+00
264	  0.072705410	-6.121000E+00	  0.072705410	1.746840E+02	  0.072705410	1.695700E+01	  0.072705410	2.054000E+00
265	  0.072905809	-6.123000E+00	  0.072905809	1.737170E+02	  0.072905809	1.697400E+01	  0.072905809	2.428000E+00
266	  0.073106214	-6.125000E+00	  0.073106214	1.727390E+02	  0.073106214	1.699400E+01	  0.073106214	2.807000E+00
267	  0.073306613	-6.133000E+00	  0.073306613	1.717830E+02	  0.073306613	1.703300E+01	  0.073306613	3.176000E+00
268	  0.073507011	-6.134000E+00	  0.073507011	1.708460E+02	  0.073507011	1.705400E+01	  0.073507011	3.539000E+00
269	  0.073707417	-6.142000E+00	  0.073707417	1.698600E+02	  0.073707417	1.709700E+01	  0.073707417	3.920000E+00
270	  0.073907815	-6.141000E+00	  0.073907815	1.689040E+02	  0.073907815	1.711700E+01	  0.073907815	4.292000E+00
271	  0.074108213	-6.149000E+00	  0.074108213	1.679630E+02	  0.074108213	1.716300E+01	  0.074108213	4.656000E+00
272	  0.074308619	-6.157000E+00	  0.074308619	1.670050E+02	  0.074308619	1.720900E+01	  0.074308619	5.027000E+00
273	  0.074509017	-6.155000E+00	  0.074509017	1.660500E+02	  0.074509017	1.723500E+01	  0.074509017	5.399000E+00
274	  0.074709415	-6.164000E+00	  0.074709415	1.650920E+02	  0.074709415	1.729200E+01	  0.074709415	5.770000E+00
275	  0.074909821	-6.171000E+00	  0.074909821	1.641490E+02	  0.074909821	1.734200E+01	  0.074909821	6.137000E+00
276	  0.075110219	-6.182000E+00	  0.075110219	1.632200E+02	  0.075110219	1.740600E+01	  0.075110219	6.497000E+00
277	  0.075310618	-6.190000E+00	  0.075310618	1.622970E+02	  0.075310618	1.746400E+01	  0.075310618	6.856000E+00
278	  0.075511023	-6.195000E+00	  0.075511023	1.613800E+02	  0.075511023	1.751800E+01	  0.075511023	7.213000E+00
279	  0.075711422	-6.202000E+00	  0.075711422	1.604550E+02	  0.075711422	1.757600E+01	  0.075711422	7.574000E+00
280	  0.075911827	-6.212000E+00	  0.075911827	1.595890E+02	  0.075911827	1.764400E+01	  0.075911827	7.911000E+00
281	  0.076112226	-6.222000E+00	  0.076112226	1.586390E+02	  0.076112226	1.771600E+01	  0.076112226	8.281000E+00
282	  0.076312624	-6.231000E+00	  0.076312624	1.577050E+02	  0.076312624	1.778900E+01	  0.076312624	8.646000E+00
283	  0.076513030	-6.241000E+00	  0.076513030	1.567950E+02	  0.076513030	1.786600E+01	  0.076513030	9.001000E+00
284	  0.076713428	-6.257000E+00	  0.076713428	1.559000E+02	  0.076713428	1.795800E+01	  0.076713428	9.349000E+00
285	  0.076913826	-6.268000E+00	  0.076913826	1.549920E+02	  0.076913826	1.804200E+01	  0.076913826	9.703000E+00
286	  0.077114232	-6.279000E+00	  0.077114232	1.540870E+02	  0.077114232	1.812800E+01	  0.077114232	1.005700E+01
287	  0.077314630	-6.285000E+00	  0.077314630	1.532200E+02	  0.077314630	1.820000E+01	  0.077314630	1.039900E+01
288	  0.077515028	-6.294000E+00	  0.077515028	1.523490E+02	  0.077515028	1.828200E+01	  0.077515028	1.074200E+01
289	  0.077715434	-6.304000E+00	  0.077715434	1.514730E+02	  0.077715434	1.836900E+01	  0.077715434	1.108600E+01
290	  0.077915832	-6.317000E+00	  0.077915832	1.506110E+02	  0.077915832	1.846600E+01	  0.077915832	1.142400E+01
291	  0.078116231	-6.330000E+00	  0.078116231	1.497130E+02	  0.078116231	1.856700E+01	  0.078116231	1.177700E+01
292	  0.078316636	-6.345000E+00	  0.078316636	1.488590E+02	  0.078316636	1.867400E+01	  0.078316636	1.211100E+01
293	  0.078517035	-6.362000E+00	  0.078517035	1.479750E+02	  0.078517035	1.879000E+01	  0.078517035	1.245700E+01
294	  0.078717433	-6.374000E+00	  0.078717433	1.471150E+02	  0.078717433	1.889200E+01	  0.078717433	1.279700E+01
295	  0.078917839	-6.391000E+00	  0.078917839	1.462660E+02	  0.078917839	1.901100E+01	  0.078917839	1.312900E+01
296	  0.079118237	-6.403000E+00	  0.079118237	1.454170E+02	  0.079118237	1.911700E+01	  0.079118237	1.346500E+01
297	  0.079318643	-6.423000E+00	  0.079318643	1.445660E+02	  0.079318643	1.924700E+01	  0.079318643	1.379700E+01
298	  0.079519041	-6.437000E+00	  0.079519041	1.437380E+02	  0.079519041	1.936400E+01	  0.079519041	1.412400E+01
299	  0.079719439	-6.456000E+00	  0.079719439	1.428930E+02	  0.079719439	1.949600E+01	  0.079719439	1.445500E+01
300	  0.079919845	-6.471000E+00	  0.079919845	1.420200E+02	  0.079919845	1.962400E+01	  0.079919845	1.480000E+01
301	  0.080120243	-6.486000E+00	  0.080120243	1.411570E+02	  0.080120243	1.975200E+01	  0.080120243	1.514200E+01
302	  0.080320641	-6.504000E+00	  0.080320641	1.403110E+02	  0.080320641	1.989100E+01	  0.080320641	1.547500E+01
303	  0.080521047	-6.521000E+00	  0.080521047	1.394710E+02	  0.080521047	2.002800E+01	  0.080521047	1.580700E+01
304	  0.080721445	-6.535000E+00	  0.080721445	1.386370E+02	  0.080721445	2.015900E+01	  0.080721445	1.613900E+01
305	  0.080921844	-6.555000E+00	  0.080921844	1.377980E+02	  0.080921844	2.031100E+01	  0.080921844	1.646900E+01
306	  0.081122249	-6.572000E+00	  0.081122249	1.369400E+02	  0.081122249	2.046000E+01	  0.081122249	1.680900E+01
307	  0.081322648	-6.589000E+00	  0.081322648	1.361440E+02	  0.081322648	2.060200E+01	  0.081322648	1.712400E+01
308	  0.081523046	-6.606000E+00	  0.081523046	1.353250E+02	  0.081523046	2.075000E+01	  0.081523046	1.744900E+01
309	  0.081723452	-6.622000E+00	  0.081723452	1.344880E+02	  0.081723452	2.090000E+01	  0.081723452	1.778300E+01
310	  0.081923850	-6.636000E+00	  0.081923850	1.337120E+02	  0.081923850	2.104300E+01	  0.081923850	1.809300E+01
311	  0.082124248	-6.656000E+00	  0.082124248	1.329160E+02	  0.082124248	2.120500E+01	  0.082124248	1.840700E+01
312	  0.082324654	-6.676000E+00	  0.082324654	1.321270E+02	  0.082324654	2.136800E+01	  0.082324654	1.871800E+01
313	  0.082525052	-6.697000E+00	  0.082525052	1.313520E+02	  0.082525052	2.153600E+01	  0.082525052	1.902300E+01
314	  0.082725458	-6.714000E+00	  0.082725458	1.305870E+02	  0.082725458	2.169400E+01	  0.082725458	1.932700E+01
315	  0.082925856	-6.736000E+00	  0.082925856	1.298310E+02	  0.082925856	2.186500E+01	  0.082925856	1.962300E+01
316	  0.083126254	-6.764000E+00	  0.083126254	1.290550E+02	  0.083126254	2.206100E+01	  0.083126254	1.992100E+01
317	  0.083326660	-6.786000E+00	  0.083326660	1.282750E+02	  0.083326660	2.224200E+01	  0.083326660	2.022700E+01
318	  0.083527058	-6.806000E+00	  0.083527058	1.275050E+02	  0.083527058	2.242100E+01	  0.083527058	2.053100E+01
319	  0.083727457	-6.825000E+00	  0.083727457	1.267230E+02	  0.083727457	2.260200E+01	  0.083727457	2.084000E+01
320	  0.083927862	-6.846000E+00	  0.083927862	1.259890E+02	  0.083927862	2.278200E+01	  0.083927862	2.112900E+01
321	  0.084128261	-6.871000E+00	  0.084128261	1.252050E+02	  0.084128261	2.298400E+01	  0.084128261	2.143300E+01
322	  0.084328659	-6.890000E+00	  0.084328659	1.244690E+02	  0.084328659	2.316700E+01	  0.084328659	2.172300E+01
323	  0.084529065	-6.911000E+00	  0.084529065	1.237600E+02	  0.084529065	2.335200E+01	  0.084529065	2.200100E+01
324	  0.084729463	-6.941000E+00	  0.084729463	1.230350E+02	  0.084729463	2.356600E+01	  0.084729463	2.227400E+01
325	  0.084929861	-6.959000E+00	  0.084929861	1.222940E+02	  0.084929861	2.375400E+01	  0.084929861	2.256800E+01
326	  0.085130267	-6.983000E+00	  0.085130267	1.215460E+02	  0.085130267	2.396400E+01	  0.085130267	2.285700E+01
327	  0.085330658	-7.006000E+00	  0.085330658	1.208340E+02	  0.085330658	2.416600E+01	  0.085330658	2.313200E+01
328	  0.085531056	-7.029000E+00	  0.085531056	1.200960E+02	  0.085531056	2.437500E+01	  0.085531056	2.341900E+01
329	  0.085731462	-7.054000E+00	  0.085731462	1.193910E+02	  0.085731462	2.458800E+01	  0.085731462	2.368800E+01
330	  0.085931860	-7.080000E+00	  0.085931860	1.186680E+02	  0.085931860	2.481100E+01	  0.085931860	2.396200E+01
331	  0.086132258	-7.112000E+00	  0.086132258	1.179490E+02	  0.086132258	2.505200E+01	  0.086132258	2.422700E+01
332	  0.086332664	-7.136000E+00	  0.086332664	1.172460E+02	  0.086332664	2.527200E+01	  0.086332664	2.449400E+01
333	  0.086533062	-7.167000E+00	  0.086533062	1.165010E+02	  0.086533062	2.552000E+01	  0.086533062	2.477000E+01
334	  0.086733460	-7.195000E+00	  0.086733460	1.157900E+02	  0.086733460	2.576000E+01	  0.086733460	2.503400E+01
335	  0.086933866	-7.218000E+00	  0.086933866	1.150440E+02	  0.086933866	2.599400E+01	  0.086933866	2.532000E+01
336	  0.087134264	-7.246000E+00	  0.087134264	1.143060E+02	  0.087134264	2.624600E+01	  0.087134264	2.559500E+01
337	  0.087334670	-7.274000E+00	  0.087334670	1.135820E+02	  0.087334670	2.649600E+01	  0.087334670	2.586300E+01
338	  0.087535068	-7.302000E+00	  0.087535068	1.128230E+02	  0.087535068	2.675900E+01	  0.087535068	2.614500E+01
339	  0.087735467	-7.327000E+00	  0.087735467	1.121450E+02	  0.087735467	2.699800E+01	  0.087735467	2.639600E+01
340	  0.087935872	-7.354000E+00	  0.087935872	1.114250E+02	  0.087935872	2.725600E+01	  0.087935872	2.666100E+01
341	  0.088136271	-7.380000E+00	  0.088136271	1.107180E+02	  0.088136271	2.750900E+01	  0.088136271	2.692300E+01
342	  0.088336669	-7.408000E+00	  0.088336669	1.100400E+02	  0.088336669	2.776500E+01	  0.088336669	2.716700E+01
343	  0.088537075	-7.439000E+00	  0.088537075	1.093260E+02	  0.088537075	2.804500E+01	  0.088537075	2.741900E+01
344	  0.088737473	-7.462000E+00	  0.088737473	1.086520E+02	  0.088737473	2.829200E+01	  0.088737473	2.766800E+01
345	  0.088937871	-7.493000E+00	  0.088937871	1.080290E+02	  0.088937871	2.855000E+01	  0.088937871	2.788000E+01
346	  0.089138277	-7.520000E+00	  0.089138277	1.073480E+02	  0.089138277	2.881800E+01	  0.089138277	2.812300E+01
347	  0.089338675	-7.548000E+00	  0.089338675	1.067090E+02	  0.089338675	2.908000E+01	  0.089338675	2.834400E+01
348	  0.089539073	-7.584000E+00	  0.089539073	1.060910E+02	  0.089539073	2.936200E+01	  0.089539073	2.854000E+01
349	  0.089739479	-7.612000E+00	  0.089739479	1.054760E+02	  0.089739479	2.962200E+01	  0.089739479	2.874800E+01
350	  0.089939877	-7.650000E+00	  0.089939877	1.048790E+02	  0.089939877	2.990800E+01	  0.089939877	2.892800E+01
351	  0.090140276	-7.676000E+00	  0.090140276	1.042530E+02	  0.090140276	3.017300E+01	  0.090140276	2.914200E+01
352	  0.090340681	-7.711000E+00	  0.090340681	1.036380E+02	  0.090340681	3.046000E+01	  0.090340681	2.933200E+01
353	  0.090541080	-7.735000E+00	  0.090541080	1.029940E+02	  0.090541080	3.072900E+01	  0.090541080	2.955600E+01
354	  0.090741485	-7.772000E+00	  0.090741485	1.024340E+02	  0.090741485	3.101000E+01	  0.090741485	2.971600E+01
355	  0.090941884	-7.796000E+00	  0.090941884	1.018140E+02	  0.090941884	3.127900E+01	  0.090941884	2.992700E+01
356	  0.091142282	-7.833000E+00	  0.091142282	1.012250E+02	  0.091142282	3.157600E+01	  0.091142282	3.009300E+01
357	  0.091342688	-7.865000E+00	  0.091342688	1.006260E+02	  0.091342688	3.186600E+01	  0.091342688	3.027400E+01
358	  0.091543086	-7.895000E+00	  0.091543086	1.000300E+02	  0.091543086	3.214900E+01	  0.091543086	3.045700E+01
359	  0.091743484	-7.926000E+00	  0.091743484	9.947500E+01	  0.091743484	3.242700E+01	  0.091743484	3.061700E+01
360	  0.091943890	-7.958000E+00	  0.091943890	9.892300E+01	  0.091943890	3.270500E+01	  0.091943890	3.077500E+01
361	  0.092144288	-7.985000E+00	  0.092144288	9.834300E+01	  0.092144288	3.298500E+01	  0.092144288	3.095100E+01
362	  0.092344686	-8.013000E+00	  0.092344686	9.775000E+01	  0.092344686	3.327500E+01	  0.092344686	3.112900E+01
363	  0.092545092	-8.048000E+00	  0.092545092	9.718800E+01	  0.092545092	3.357500E+01	  0.092545092	3.127600E+01
364	  0.092745490	-8.075000E+00	  0.092745490	9.661900E+01	  0.092745490	3.385800E+01	  0.092745490	3.144300E+01
365	  0.092945889	-8.117000E+00	  0.092945889	9.606300E+01	  0.092945889	3.417900E+01	  0.092945889	3.156700E+01
366	  0.093146294	-8.146000E+00	  0.093146294	9.556100E+01	  0.093146294	3.444700E+01	  0.093146294	3.169700E+01
367	  0.093346693	-8.180000E+00	  0.093346693	9.496600E+01	  0.093346693	3.476400E+01	  0.093346693	3.185300E+01
368	  0.093547091	-8.208000E+00	  0.093547091	9.444300E+01	  0.093547091	3.504100E+01	  0.093547091	3.199100E+01
369	  0.093747497	-8.238000E+00	  0.093747497	9.388900E+01	  0.093747497	3.534000E+01	  0.093747497	3.213400E+01
370	  0.093947895	-8.273000E+00	  0.093947895	9.331800E+01	  0.093947895	3.565900E+01	  0.093947895	3.226800E+01
371	  0.094148301	-8.300000E+00	  0.094148301	9.276400E+01	  0.094148301	3.595300E+01	  0.094148301	3.241600E+01
372	  0.094348699	-8.329000E+00	  0.094348699	9.223200E+01	  0.094348699	3.624600E+01	  0.094348699	3.254600E+01
373	  0.094549097	-8.358000E+00	  0.094549097	9.169900E+01	  0.094549097	3.654200E+01	  0.094549097	3.267500E+01
374	  0.094749503	-8.392000E+00	  0.094749503	9.115000E+01	  0.094749503	3.686000E+01	  0.094749503	3.279300E+01
375	  0.094949901	-8.411000E+00	  0.094949901	9.066100E+01	  0.094949901	3.711600E+01	  0.094949901	3.292900E+01
376	  0.095150299	-8.438000E+00	  0.095150299	9.014200E+01	  0.095150299	3.740800E+01	  0.095150299	3.305100E+01
377	  0.095350705	-8.458000E+00	  0.095350705	8.963400E+01	  0.095350705	3.767800E+01	  0.095350705	3.318900E+01
378	  0.095551103	-8.488000E+00	  0.095551103	8.911500E+01	  0.095551103	3.798000E+01	  0.095551103	3.330000E+01
379	  0.095751502	-8.511000E+00	  0.095751502	8.862300E+01	  0.095751502	3.825400E+01	  0.095751502	3.341900E+01
380	  0.095951907	-8.532000E+00	  0.095951907	8.812100E+01	  0.095951907	3.853200E+01	  0.095951907	3.354500E+01
381	  0.096152306	-8.555000E+00	  0.096152306	8.766800E+01	  0.096152306	3.879500E+01	  0.096152306	3.364400E+01
382	  0.096352704	-8.581000E+00	  0.096352704	8.719600E+01	  0.096352704	3.907400E+01	  0.096352704	3.374000E+01
383	  0.096553110	-8.608000E+00	  0.096553110	8.677800E+01	  0.096553110	3.933200E+01	  0.096553110	3.381200E+01
384	  0.096753508	-8.628000E+00	  0.096753508	8.633300E+01	  0.096753508	3.959000E+01	  0.096753508	3.391000E+01
385	  0.096953906	-8.655000E+00	  0.096953906	8.588200E+01	  0.096953906	3.986600E+01	  0.096953906	3.399100E+01
386	  0.097154312	-8.672000E+00	  0.097154312	8.539300E+01	  0.097154312	4.013800E+01	  0.097154312	3.411400E+01
387	  0.097354710	-8.696000E+00	  0.097354710	8.496100E+01	  0.097354710	4.040300E+01	  0.097354710	3.419100E+01
388	  0.097555116	-8.720000E+00	  0.097555116	8.452500E+01	  0.097555116	4.067000E+01	  0.097555116	3.426800E+01
389	  0.097755514	-8.743000E+00	  0.097755514	8.413000E+01	  0.097755514	4.091600E+01	  0.097755514	3.433400E+01
390	  0.097955912	-8.766000E+00	  0.097955912	8.369300E+01	  0.097955912	4.118400E+01	  0.097955912	3.441000E+01
391	  0.098156318	-8.792000E+00	  0.098156318	8.327100E+01	  0.098156318	4.145300E+01	  0.098156318	3.447200E+01
392	  0.098356716	-8.809000E+00	  0.098356716	8.284300E+01	  0.098356716	4.170600E+01	  0.098356716	3.456200E+01
393	  0.098557115	-8.828000E+00	  0.098557115	8.242600E+01	  0.098557115	4.195900E+01	  0.098557115	3.464000E+01
394	  0.098757520	-8.847000E+00	  0.098757520	8.202300E+01	  0.098757520	4.220700E+01	  0.098757520	3.471100E+01
395	  0.098957919	-8.864000E+00	  0.098957919	8.164600E+01	  0.098957919	4.243700E+01	  0.098957919	3.478200E+01
396	  0.099158317	-8.884000E+00	  0.099158317	8.122700E+01	  0.099158317	4.269800E+01	  0.099158317	3.485100E+01
397	  0.099358723	-8.905000E+00	  0.099358723	8.080200E+01	  0.099358723	4.296600E+01	  0.099358723	3.491800E+01
398	  0.099559121	-8.921000E+00	  0.099559121	8.046500E+01	  0.099559121	4.317600E+01	  0.099559121	3.497400E+01
399	  0.099759519	-8.934000E+00	  0.099759519	8.003700E+01	  0.099759519	4.343000E+01	  0.099759519	3.506700E+01
400	  0.099959925	-8.948000E+00	  0.099959925	7.965200E+01	  0.099959925	4.366600E+01	  0.099959925	3.514000E+01
401	  0.100160323	-8.965000E+00	  0.100160323	7.922100E+01	  0.100160323	4.393400E+01	  0.100160323	3.521500E+01
402	  0.100360721	-8.987000E+00	  0.100360721	7.890500E+01	  0.100360721	4.415100E+01	  0.100360721	3.523600E+01
403	  0.100561127	-8.992000E+00	  0.100561127	7.851700E+01	  0.100561127	4.437100E+01	  0.100561127	3.534200E+01
404	  0.100761525	-9.011000E+00	  0.100761525	7.812900E+01	  0.100761525	4.462300E+01	  0.100761525	3.539300E+01
405	  0.100961931	-9.021000E+00	  0.100961931	7.772200E+01	  0.100961931	4.487000E+01	  0.100961931	3.547900E+01
406	  0.101162329	-9.039000E+00	  0.101162329	7.729500E+01	  0.101162329	4.514300E+01	  0.101162329	3.554500E+01
407	  0.101362728	-9.044000E+00	  0.101362728	7.689400E+01	  0.101362728	4.537800E+01	  0.101362728	3.564600E+01
408	  0.101563133	-9.057000E+00	  0.101563133	7.649400E+01	  0.101563133	4.563100E+01	  0.101563133	3.571300E+01
409	  0.101763532	-9.062000E+00	  0.101763532	7.609700E+01	  0.101763532	4.586800E+01	  0.101763532	3.581100E+01
410	  0.101963930	-9.076000E+00	  0.101963930	7.574400E+01	  0.101963930	4.609800E+01	  0.101963930	3.586100E+01
411	  0.102164336	-9.083000E+00	  0.102164336	7.535200E+01	  0.102164336	4.633700E+01	  0.102164336	3.594900E+01
412	  0.102364734	-9.082000E+00	  0.102364734	7.499600E+01	  0.102364734	4.654400E+01	  0.102364734	3.605400E+01
413	  0.102565132	-9.089000E+00	  0.102565132	7.461700E+01	  0.102565132	4.677900E+01	  0.102565132	3.613600E+01
414	  0.102765530	-9.091000E+00	  0.102765530	7.414200E+01	  0.102765530	4.706400E+01	  0.102765530	3.626100E+01
415	  0.102965929	-9.092000E+00	  0.102965929	7.385700E+01	  0.102965929	4.723700E+01	  0.102965929	3.633500E+01
416	  0.103166327	-9.090000E+00	  0.103166327	7.350900E+01	  0.103166327	4.744300E+01	  0.103166327	3.643900E+01
417	  0.103366733	-9.081000E+00	  0.103366733	7.322200E+01	  0.103366733	4.760000E+01	  0.103366733	3.655500E+01
418	  0.103567131	-9.081000E+00	  0.103567131	7.282800E+01	  0.103567131	4.783900E+01	  0.103567131	3.666400E+01
419	  0.103767529	-9.071000E+00	  0.103767529	7.247600E+01	  0.103767529	4.803800E+01	  0.103767529	3.680000E+01
420	  0.103967935	-9.069000E+00	  0.103967935	7.216600E+01	  0.103967935	4.822700E+01	  0.103967935	3.689100E+01
421	  0.104168333	-9.061000E+00	  0.104168333	7.182600E+01	  0.104168333	4.842500E+01	  0.104168333	3.701300E+01
422	  0.104368731	-9.045000E+00	  0.104368731	7.152000E+01	  0.104368731	4.858900E+01	  0.104368731	3.716000E+01
423	  0.104569137	-9.015000E+00	  0.104569137	7.116700E+01	  0.104569137	4.876000E+01	  0.104569137	3.738100E+01
424	  0.104769535	-9.007000E+00	  0.104769535	7.078500E+01	  0.104769535	4.899000E+01	  0.104769535	3.751600E+01
425	  0.104969934	-8.982000E+00	  0.104969934	7.033700E+01	  0.104969934	4.923500E+01	  0.104969934	3.774000E+01
426	  0.105170339	-8.960000E+00	  0.105170339	6.998100E+01	  0.105170339	4.943000E+01	  0.105170339	3.792600E+01
427	  0.105370738	-8.928000E+00	  0.105370738	6.961900E+01	  0.105370738	4.961200E+01	  0.105370738	3.816000E+01
428	  0.105571143	-8.905000E+00	  0.105571143	6.911100E+01	  0.105571143	4.991100E+01	  0.105571143	3.839200E+01
429	  0.105771542	-8.874000E+00	  0.105771542	6.870800E+01	  0.105771542	5.012900E+01	  0.105771542	3.863600E+01
430	  0.105971940	-8.862000E+00	  0.105971940	6.816200E+01	  0.105971940	5.048000E+01	  0.105971940	3.882900E+01
431	  0.106172346	-8.829000E+00	  0.106172346	6.775900E+01	  0.106172346	5.070200E+01	  0.106172346	3.908100E+01
432	  0.106372744	-8.804000E+00	  0.106372744	6.724100E+01	  0.106372744	5.102200E+01	  0.106372744	3.932400E+01
433	  0.106573142	-8.778000E+00	  0.106573142	6.675500E+01	  0.106573142	5.132100E+01	  0.106573142	3.956800E+01
434	  0.106773548	-8.757000E+00	  0.106773548	6.624400E+01	  0.106773548	5.165100E+01	  0.106773548	3.979500E+01
435	  0.106973946	-8.728000E+00	  0.106973946	6.563500E+01	  0.106973946	5.204400E+01	  0.106973946	4.008200E+01
436	  0.107174344	-8.703000E+00	  0.107174344	6.515600E+01	  0.107174344	5.235400E+01	  0.107174344	4.032200E+01
437	  0.107374750	-8.687000E+00	  0.107374750	6.459100E+01	  0.107374750	5.274800E+01	  0.107374750	4.053500E+01
438	  0.107575148	-8.663000E+00	  0.107575148	6.396800E+01	  0.107575148	5.318000E+01	  0.107575148	4.079900E+01
439	  0.107775547	-8.639000E+00	  0.107775547	6.340400E+01	  0.107775547	5.357300E+01	  0.107775547	4.104900E+01
440	  0.107975952	-8.617000E+00	  0.107975952	6.279900E+01	  0.107975952	5.400700E+01	  0.107975952	4.130200E+01
441	  0.108176351	-8.594000E+00	  0.108176351	6.219200E+01	  0.108176351	5.445000E+01	  0.108176351	4.155300E+01
442	  0.108376749	-8.573000E+00	  0.108376749	6.157900E+01	  0.108376749	5.490700E+01	  0.108376749	4.179800E+01
443	  0.108577155	-8.550000E+00	  0.108577155	6.094800E+01	  0.108577155	5.538500E+01	  0.108577155	4.205400E+01
444	  0.108777553	-8.531000E+00	  0.108777553	6.030900E+01	  0.108777553	5.588200E+01	  0.108777553	4.228800E+01
445	  0.108977959	-8.508000E+00	  0.108977959	5.965700E+01	  0.108977959	5.639400E+01	  0.108977959	4.254300E+01
446	  0.109178357	-8.499000E+00	  0.109178357	5.893600E+01	  0.109178357	5.699000E+01	  0.109178357	4.273500E+01
447	  0.109378755	-8.475000E+00	  0.109378755	5.831900E+01	  0.109378755	5.748900E+01	  0.109378755	4.298600E+01
448	  0.109579161	-8.455000E+00	  0.109579161	5.762700E+01	  0.109579161	5.806700E+01	  0.109579161	4.322400E+01
449	  0.109779559	-8.432000E+00	  0.109779559	5.694700E+01	  0.109779559	5.864300E+01	  0.109779559	4.346900E+01
450	  0.109979957	-8.418000E+00	  0.109979957	5.623800E+01	  0.109979957	5.926300E+01	  0.109979957	4.366600E+01
451	  0.110180363	-8.398000E+00	  0.110180363	5.556400E+01	  0.110180363	5.985600E+01	  0.110180363	4.389300E+01
452	  0.110380761	-8.381000E+00	  0.110380761	5.485400E+01	  0.110380761	6.049600E+01	  0.110380761	4.409800E+01
453	  0.110581160	-8.370000E+00	  0.110581160	5.412700E+01	  0.110581160	6.116900E+01	  0.110581160	4.426100E+01
454	  0.110781565	-8.358000E+00	  0.110781565	5.335100E+01	  0.110781565	6.189900E+01	  0.110781565	4.442400E+01
455	  0.110981964	-8.336000E+00	  0.110981964	5.259200E+01	  0.110981964	6.261800E+01	  0.110981964	4.464900E+01
456	  0.111182362	-8.327000E+00	  0.111182362	5.190400E+01	  0.111182362	6.328900E+01	  0.111182362	4.476900E+01
457	  0.111382768	-8.309000E+00	  0.111382768	5.113500E+01	  0.111382768	6.404600E+01	  0.111382768	4.495200E+01
458	  0.111583166	-8.304000E+00	  0.111583166	5.031100E+01	  0.111583166	6.487700E+01	  0.111583166	4.503800E+01
459	  0.111783572	-8.292000E+00	  0.111783572	4.954400E+01	  0.111783572	6.566200E+01	  0.111783572	4.515600E+01
460	  0.111983970	-8.288000E+00	  0.111983970	4.881600E+01	  0.111983970	6.641900E+01	  0.111983970	4.520600E+01
461	  0.112184368	-8.280000E+00	  0.112184368	4.801400E+01	  0.112184368	6.726500E+01	  0.112184368	4.526800E+01
462	  0.112384774	-8.279000E+00	  0.112384774	4.711600E+01	  0.112384774	6.822700E+01	  0.112384774	4.527000E+01
463	  0.112585172	-8.270000E+00	  0.112585172	4.631500E+01	  0.112585172	6.909800E+01	  0.112585172	4.531400E+01
464	  0.112785570	-8.278000E+00	  0.112785570	4.546500E+01	  0.112785570	7.003000E+01	  0.112785570	4.521200E+01
465	  0.112985976	-8.267000E+00	  0.112985976	4.469900E+01	  0.112985976	7.088700E+01	  0.112985976	4.523400E+01
466	  0.113186374	-8.269000E+00	  0.113186374	4.382500E+01	  0.113186374	7.187000E+01	  0.113186374	4.513800E+01
467	  0.113386773	-8.274000E+00	  0.113386773	4.299200E+01	  0.113386773	7.281400E+01	  0.113386773	4.500100E+01
468	  0.113587178	-8.277000E+00	  0.113587178	4.208100E+01	  0.113587178	7.385800E+01	  0.113587178	4.483600E+01
469	  0.113787577	-8.287000E+00	  0.113787577	4.123300E+01	  0.113787577	7.483100E+01	  0.113787577	4.460900E+01
470	  0.113987975	-8.299000E+00	  0.113987975	4.031600E+01	  0.113987975	7.588700E+01	  0.113987975	4.432500E+01
471	  0.114188381	-8.301000E+00	  0.114188381	3.944300E+01	  0.114188381	7.691400E+01	  0.114188381	4.410200E+01
472	  0.114388779	-8.311000E+00	  0.114388779	3.854000E+01	  0.114388779	7.796800E+01	  0.114388779	4.377800E+01
473	  0.114589177	-8.330000E+00	  0.114589177	3.757300E+01	  0.114589177	7.908500E+01	  0.114589177	4.332900E+01
474	  0.114789583	-8.347000E+00	  0.114789583	3.668800E+01	  0.114789583	8.010600E+01	  0.114789583	4.288700E+01
475	  0.114989981	-8.358000E+00	  0.114989981	3.575800E+01	  0.114989981	8.119400E+01	  0.114989981	4.244400E+01
476	  0.115190387	-8.372000E+00	  0.115190387	3.481600E+01	  0.115190387	8.228900E+01	  0.115190387	4.193900E+01
477	  0.115390785	-8.393000E+00	  0.115390785	3.385400E+01	  0.115390785	8.338500E+01	  0.115390785	4.133100E+01
478	  0.115591183	-8.407000E+00	  0.115591183	3.285600E+01	  0.115591183	8.453800E+01	  0.115591183	4.072100E+01
479	  0.115791589	-8.432000E+00	  0.115791589	3.188800E+01	  0.115791589	8.561000E+01	  0.115791589	4.000100E+01
480	  0.115991987	-8.448000E+00	  0.115991987	3.086800E+01	  0.115991987	8.676300E+01	  0.115991987	3.927400E+01
481	  0.116192386	-8.471000E+00	  0.116192386	2.986000E+01	  0.116192386	8.786100E+01	  0.116192386	3.845600E+01
482	  0.116392791	-8.500000E+00	  0.116392791	2.882600E+01	  0.116392791	8.894400E+01	  0.116392791	3.753500E+01
483	  0.116593190	-8.527000E+00	  0.116593190	2.777500E+01	  0.116593190	9.003400E+01	  0.116593190	3.657100E+01
484	  0.116793588	-8.555000E+00	  0.116793588	2.676100E+01	  0.116793588	9.104900E+01	  0.116793588	3.558400E+01
485	  0.116993994	-8.585000E+00	  0.116993994	2.561600E+01	  0.116993994	9.216800E+01	  0.116993994	3.442800E+01
486	  0.117194392	-8.618000E+00	  0.117194392	2.454400E+01	  0.117194392	9.315500E+01	  0.117194392	3.326500E+01
487	  0.117394790	-8.654000E+00	  0.117394790	2.344700E+01	  0.117394790	9.411000E+01	  0.117394790	3.201500E+01
488	  0.117595196	-8.693000E+00	  0.117595196	2.233400E+01	  0.117595196	9.501400E+01	  0.117595196	3.068800E+01
489	  0.117795594	-8.731000E+00	  0.117795594	2.123200E+01	  0.117795594	9.586700E+01	  0.117795594	2.933800E+01
490	  0.117995992	-8.777000E+00	  0.117995992	2.000500E+01	  0.117995992	9.673300E+01	  0.117995992	2.777400E+01
491	  0.118196398	-8.823000E+00	  0.118196398	1.891300E+01	  0.118196398	9.740200E+01	  0.118196398	2.631300E+01
492	  0.118396796	-8.878000E+00	  0.118396796	1.770100E+01	  0.118396796	9.805300E+01	  0.118396796	2.464500E+01
493	  0.118597202	-8.923000E+00	  0.118597202	1.649700E+01	  0.118597202	9.869500E+01	  0.118597202	2.301200E+01
494	  0.118797600	-8.974000E+00	  0.118797600	1.530000E+01	  0.118797600	9.921000E+01	  0.118797600	2.133300E+01
495	  0.118997999	-9.036000E+00	  0.118997999	1.404700E+01	  0.118997999	9.960200E+01	  0.118997999	1.952100E+01
496	  0.119198404	-9.101000E+00	  0.119198404	1.279400E+01	  0.119198404	9.988300E+01	  0.119198404	1.768900E+01
497	  0.119398803	-9.162000E+00	  0.119398803	1.154600E+01	  0.119398803	1.001100E+02	  0.119398803	1.588300E+01
498	  0.119599201	-9.232000E+00	  0.119599201	1.026100E+01	  0.119599201	1.001890E+02	  0.119599201	1.400100E+01
499	  0.119799607	-9.302000E+00	  0.119799607	8.987000E+00	  0.119799607	1.001790E+02	  0.119799607	1.215200E+01
500	  0.120000005	-9.376000E+00	  0.120000005	7.650000E+00	  0.120000005	1.000700E+02	  0.120000005	1.023400E+01
